SpectraSuite Data File
++++++++++++++++++++++++++++++++++++
Date: Fri Oct 25 11:22:33 EDT 2013
User: price-jones
Dark Spectrum Present: No
Reference Spectrum Present: No
Number of Sampled Component Spectra: 1
Spectrometers: USB2+H05261
Integration Time (usec): 100000 (USB2+H05261)
Spectra Averaged: 1 (USB2+H05261)
Boxcar Smoothing: 0 (USB2+H05261)
Correct for Electrical Dark: No (USB2+H05261)
Strobe/Lamp Enabled: No (USB2+H05261)
Correct for Detector Non-linearity: No (USB2+H05261)
Correct for Stray Light: No (USB2+H05261)
Number of Pixels in Processed Spectrum: 2048
>>>>>Begin Processed Spectral Data<<<<<
365.73	187.24
365.92	187.24
366.12	187.24
366.32	117.03
366.52	180.22
366.72	205.97
366.91	126.39
367.11	100.64
367.31	163.84
367.51	145.11
367.70	91.28
367.90	86.60
368.10	114.69
368.30	105.32
368.49	77.24
368.69	131.07
368.89	168.52
369.09	121.71
369.28	215.33
369.48	189.58
369.68	187.24
369.87	217.67
370.07	107.66
370.27	243.42
370.47	308.95
370.66	657.69
370.86	568.75
371.06	690.46
371.25	727.91
371.45	601.52
371.65	634.29
371.84	702.16
372.04	667.05
372.24	697.48
372.44	690.46
372.63	812.17
372.83	723.23
373.03	716.20
373.22	763.01
373.42	763.01
373.62	779.40
373.81	777.06
374.01	851.96
374.21	847.27
374.40	844.93
374.60	809.83
374.79	816.85
374.99	854.30
375.19	851.96
375.38	777.06
375.58	873.02
375.78	870.68
375.97	898.77
376.17	905.79
376.37	809.83
376.56	812.17
376.76	823.87
376.95	847.27
377.15	875.36
377.35	856.64
377.54	957.28
377.74	880.04
377.93	880.04
378.13	912.81
378.33	919.83
378.52	905.79
378.72	905.79
378.91	875.36
379.11	936.21
379.31	898.77
379.50	999.41
379.70	978.34
379.89	947.92
380.09	943.24
380.28	987.71
380.48	943.24
380.68	1011.11
380.87	1027.50
381.07	1064.94
381.26	1020.47
381.46	985.37
381.65	1027.50
381.85	1046.22
382.04	1036.86
382.24	1086.01
382.43	1043.88
382.63	1057.92
382.83	1128.14
383.02	1156.22
383.22	1093.03
383.41	1027.50
383.61	1090.69
383.80	1153.88
384.00	1167.93
384.19	1137.50
384.39	1121.12
384.58	1062.60
384.78	1146.86
384.97	1149.20
385.17	1174.95
385.36	1179.63
385.56	1144.52
385.75	1055.58
385.95	1188.99
386.14	1270.91
386.34	1123.46
386.53	1231.12
386.72	1179.63
386.92	1320.06
387.11	1259.21
387.31	1210.06
387.50	1268.57
387.70	1217.08
387.89	1336.45
388.09	1261.55
388.28	1172.61
388.48	1357.51
388.67	1392.62
388.86	1362.19
389.06	1371.55
389.25	1444.11
389.45	1387.94
389.64	1284.95
389.84	1383.26
390.03	1366.87
390.22	1486.24
390.42	1392.62
390.61	1397.30
390.81	1345.81
391.00	1446.45
391.19	1528.37
391.39	1413.68
391.58	1497.94
391.78	1502.62
391.97	1530.71
392.16	1497.94
392.36	1523.69
392.55	1453.47
392.75	1521.35
392.94	1451.13
393.13	1563.48
393.33	1577.52
393.52	1544.75
393.71	1612.63
393.91	1544.75
394.10	1612.63
394.29	1734.34
394.49	1713.27
394.68	1678.16
394.88	1544.75
395.07	1659.44
395.26	1694.55
395.46	1734.34
395.65	1657.10
395.84	1701.57
396.04	1802.21
396.23	1818.60
396.42	1853.70
396.62	1858.39
396.81	1809.23
397.00	1689.87
397.19	1898.17
397.39	1776.47
397.58	1928.60
397.77	1870.09
397.97	1769.44
398.16	1851.36
398.35	1963.71
398.55	1907.54
398.74	1933.28
398.93	2092.44
399.12	1886.47
399.32	1921.58
399.51	1963.71
399.70	1928.60
399.90	1987.11
400.09	2050.31
400.28	2017.54
400.47	2047.97
400.67	2062.01
400.86	2078.40
401.05	2106.48
401.24	2069.03
401.44	2125.21
401.63	2132.23
401.82	2122.87
402.01	2150.95
402.21	2209.47
402.40	2204.78
402.59	2232.87
402.78	2218.83
402.97	2214.15
403.17	2293.72
403.36	2312.45
403.55	2235.21
403.74	2361.60
403.93	2258.62
404.13	2382.67
404.32	2345.22
404.51	2377.98
404.70	2509.05
404.89	2450.54
405.09	2567.57
405.28	2499.69
405.47	2544.16
405.66	2525.44
405.85	2443.52
406.05	2558.21
406.24	2492.67
406.43	2597.99
406.62	2595.65
406.81	2799.28
407.00	2628.42
407.20	2621.40
407.39	2656.51
407.58	2677.57
407.77	2726.72
407.96	2736.09
408.15	2698.64
408.34	2715.02
408.54	2846.09
408.73	2864.82
408.92	2836.73
409.11	2937.37
409.30	2890.56
409.49	2913.97
409.68	2956.10
409.87	3066.10
410.07	2993.55
410.26	3061.42
410.45	2995.89
410.64	3073.12
410.83	3082.49
411.02	3185.47
411.21	3229.94
411.40	3194.83
411.59	3372.71
411.78	3279.09
411.98	3309.52
412.17	3265.05
412.36	3262.71
412.55	3515.48
412.74	3393.78
412.93	3332.92
413.12	3358.67
413.31	3548.25
413.50	3527.19
413.69	3707.41
413.88	3545.91
414.07	3681.66
414.26	3716.77
414.45	3688.68
414.64	3782.31
414.83	3819.75
415.02	3798.69
415.22	3932.10
415.41	3981.25
415.60	3833.80
415.79	3992.95
415.98	4056.15
416.17	4032.74
416.36	4032.74
416.55	4070.19
416.74	4131.05
416.93	4023.38
417.12	4086.58
417.31	4257.43
417.50	4271.48
417.69	4416.59
417.88	4360.42
418.07	4365.10
418.26	4299.56
418.45	4454.04
418.64	4507.87
418.83	4484.47
419.02	4589.79
419.21	4535.96
419.39	4594.47
419.58	4409.57
419.77	4458.72
419.96	4528.94
420.15	4648.30
420.34	4744.27
420.53	4690.43
420.72	4798.10
420.91	4847.25
421.10	4697.46
421.29	4929.17
421.48	4746.61
421.67	4760.65
421.86	4898.74
422.05	4985.34
422.24	4851.93
422.43	4861.29
422.61	4865.97
422.80	4933.85
422.99	5029.81
423.18	4983.00
423.37	5172.58
423.56	5015.77
423.75	4994.70
423.94	4828.53
424.13	4601.49
424.32	4837.89
424.50	5069.60
424.69	5177.26
424.88	5165.56
425.07	5118.75
425.26	4833.21
425.45	4987.68
425.64	5046.20
425.83	5046.20
426.01	5060.24
426.20	5039.17
426.39	5060.24
426.58	4964.28
426.77	5132.79
426.96	5137.48
427.15	5205.35
427.33	5212.37
427.52	5263.86
427.71	5336.42
427.90	5046.20
428.09	5317.70
428.28	5472.17
428.46	5387.91
428.65	5329.40
428.84	5486.22
429.03	5509.62
429.22	5336.42
429.40	5469.83
429.59	5551.75
429.78	5275.57
429.97	5418.34
430.16	5692.18
430.34	5570.48
430.53	5621.97
430.72	5568.13
430.91	5734.31
431.10	5790.49
431.28	5816.23
431.47	5870.06
431.66	5989.43
431.85	5949.64
432.03	5966.03
432.22	6054.97
432.41	5858.36
432.60	6059.65
432.79	6050.28
432.97	6211.78
433.16	6143.91
433.35	6092.41
433.54	6045.60
433.72	6202.42
433.91	6298.38
434.10	6083.05
434.28	6052.63
434.47	6293.70
434.66	6352.21
434.85	6286.68
435.03	6267.95
435.22	6347.53
435.41	6560.52
435.59	6553.50
435.78	6518.39
435.97	6576.91
436.16	6382.64
436.34	6492.65
436.53	6614.35
436.72	6642.44
436.90	6616.69
437.09	6616.69
437.28	6684.57
437.46	6740.74
437.65	6609.67
437.84	6967.77
438.02	6663.51
438.21	6869.47
438.40	6766.49
438.58	7183.10
438.77	7140.97
438.96	6881.18
439.14	7173.74
439.33	7178.42
439.52	7138.63
439.70	7328.22
439.89	7389.07
440.08	7463.97
440.26	7349.28
440.45	7515.46
440.63	7529.50
440.82	7796.32
441.01	7559.93
441.19	7812.71
441.38	7763.56
441.57	7927.39
441.75	7616.10
441.94	8128.68
442.12	8138.04
442.31	7915.69
442.50	8063.15
442.68	8212.94
442.87	8203.58
443.05	8236.35
443.24	8215.28
443.43	8032.72
443.61	8128.68
443.80	8381.46
443.98	8063.15
444.17	7714.41
444.35	8315.92
444.54	8299.54
444.73	8535.93
444.91	8156.77
445.10	8571.04
445.28	8540.61
445.47	8346.35
445.65	8484.44
445.84	8526.57
446.02	8381.46
446.21	8547.64
446.39	8287.84
446.58	8727.86
446.77	8393.16
446.95	8421.25
447.14	8575.72
447.32	8566.36
447.51	8638.92
447.69	8599.13
447.88	8643.60
448.06	8566.36
448.25	8629.56
448.43	8554.66
448.62	8695.09
448.80	8690.41
448.99	8854.25
449.17	8781.69
449.36	8784.03
449.54	8793.39
449.73	9254.48
449.91	9240.44
450.10	8954.89
450.28	9109.36
450.46	9057.87
450.65	9137.45
450.83	9163.20
451.02	9151.49
451.20	9221.71
451.39	9303.63
451.57	9291.93
451.76	9411.29
451.94	9345.76
452.13	9481.51
452.31	9488.53
452.49	9312.99
452.68	9570.45
452.86	9312.99
453.05	9486.19
453.23	9582.15
453.42	9423.00
453.60	9240.44
453.78	9533.00
453.97	9469.81
454.15	9678.12
454.34	9710.88
454.52	9729.61
454.70	9958.98
454.89	9806.84
455.07	9837.27
455.26	10029.20
455.44	10146.22
455.62	9907.49
455.81	10169.63
455.99	10047.92
456.17	10017.49
456.36	10232.82
456.54	10195.37
456.73	10626.03
456.91	10743.06
457.09	10576.88
457.28	10801.57
457.46	10663.48
457.64	10609.65
457.83	10700.93
458.01	10731.36
458.19	10979.45
458.38	10647.10
458.56	10986.47
458.74	10836.68
458.93	10729.02
459.11	10946.69
459.29	10689.23
459.48	10642.42
459.66	10839.02
459.84	10949.03
460.03	11346.92
460.21	11016.90
460.39	11215.85
460.57	11049.67
460.76	11300.11
460.94	11288.40
461.12	11417.13
461.31	11365.64
461.49	11337.56
461.67	11318.83
461.85	11634.80
462.04	11346.92
462.22	11784.60
462.40	11770.55
462.59	11569.27
462.77	11550.54
462.95	11936.73
463.13	11459.26
463.32	11700.34
463.50	11882.90
463.68	11985.88
463.86	11810.34
464.05	11779.92
464.23	11829.07
464.41	12156.74
464.59	11798.64
464.78	12135.68
464.96	12093.55
465.14	11859.49
465.32	12243.34
465.50	12210.57
465.69	12231.64
465.87	12381.43
466.05	12334.62
466.23	12100.57
466.41	12411.86
466.60	12346.33
466.78	12479.74
466.96	12465.69
467.14	12294.83
467.32	12606.13
467.51	12697.41
467.69	12290.15
467.87	12538.25
468.05	12788.69
468.23	12489.10
468.41	12685.70
468.60	12861.24
468.78	12830.82
468.96	12922.10
469.14	12854.22
469.32	13006.36
469.50	12847.20
469.69	13228.71
469.87	12861.24
470.05	13069.55
470.23	13305.95
470.41	13322.33
470.59	13507.23
470.77	13397.23
470.95	13254.45
471.14	13713.20
471.32	13193.60
471.50	13870.01
471.68	13811.50
471.86	13804.48
472.04	13837.25
472.22	13998.74
472.40	13895.76
472.58	13804.48
472.77	14211.73
472.95	14293.65
473.13	14949.00
473.31	14174.28
473.49	14200.03
473.67	14345.14
473.85	14525.36
474.03	14677.50
474.21	14600.26
474.39	14871.76
474.57	15051.99
474.75	15122.20
474.93	15353.91
475.12	15096.46
475.30	15318.81
475.48	14963.04
475.66	15440.51
475.84	15344.55
476.02	15611.37
476.20	15719.04
476.38	15894.58
476.56	16128.63
476.74	16056.08
476.92	15920.32
477.10	16133.31
477.28	16512.48
477.46	16589.72
477.64	16655.25
477.82	16812.07
478.00	17116.34
478.18	17106.98
478.36	16943.14
478.54	17322.30
478.72	17277.83
478.90	17694.45
479.08	18003.40
479.26	17853.61
479.44	17905.10
479.62	18167.24
479.80	18497.25
479.98	18391.93
480.16	18824.93
480.34	18515.98
480.52	18916.21
480.70	19019.19
480.88	18436.40
481.06	19112.81
481.24	19316.44
481.41	19503.68
481.59	19810.29
481.77	19669.86
481.95	19447.51
482.13	19873.49
482.31	20088.82
482.49	20332.23
482.67	20112.22
482.85	20652.89
483.03	20753.53
483.21	21207.59
483.39	21284.83
483.57	20968.86
483.74	21336.32
483.92	21680.38
484.10	21422.92
484.28	21961.25
484.46	22087.64
484.64	22258.49
484.82	22312.33
485.00	22707.88
485.18	22934.91
485.35	23150.24
485.53	23117.47
485.71	23318.76
485.89	24079.43
486.07	23412.38
486.25	23641.75
486.43	23859.42
486.61	24175.39
486.78	24231.57
486.96	24369.66
487.14	24903.30
487.32	24512.43
487.50	25371.41
487.68	25465.03
487.85	25619.50
488.03	26010.37
488.21	26441.03
488.39	25919.09
488.57	26628.27
488.75	26714.87
488.92	26824.88
489.10	27014.46
489.28	26532.31
489.46	27587.89
489.64	27122.13
489.81	28034.94
489.99	28027.92
490.17	28030.26
490.35	28624.75
490.53	28554.54
490.70	28800.29
490.88	28687.95
491.06	29034.35
491.24	29495.43
491.41	29397.13
491.59	29844.17
491.77	29844.17
491.95	29745.87
492.13	30008.01
492.30	30277.17
492.48	30623.57
492.66	30529.95
492.84	30405.90
493.01	31115.08
493.19	30981.67
493.37	31175.94
493.54	31627.66
493.72	32013.85
493.90	31730.64
494.08	32294.71
494.25	31978.74
494.43	32290.03
494.61	32032.57
494.79	32818.99
494.96	32861.12
495.14	32975.81
495.32	33354.97
495.49	33708.40
495.67	33886.28
495.85	33879.25
496.02	34412.90
496.20	34539.29
496.38	34476.09
496.55	34335.66
496.73	35608.91
496.91	34932.50
497.09	35145.48
497.26	35433.37
497.44	35356.13
497.62	35718.92
497.79	36205.75
497.97	36039.57
498.14	36212.77
498.32	36697.26
498.50	36442.14
498.67	37254.31
498.85	36786.20
499.03	37029.62
499.20	37055.36
499.38	37523.47
499.56	37106.85
499.73	37848.80
499.91	37385.38
500.08	37886.25
500.26	37984.55
500.44	37919.02
500.61	38291.16
500.79	37944.76
500.97	38866.94
501.14	38649.27
501.32	38981.62
501.49	39126.74
501.67	38927.79
501.84	39468.45
502.02	39274.19
502.20	39651.02
502.37	39580.80
502.55	39529.31
502.72	39344.41
502.90	39707.19
503.07	39849.96
503.25	40570.85
503.43	40194.02
503.60	40456.16
503.78	40636.38
503.95	40381.26
504.13	40467.86
504.30	41228.54
504.48	40931.29
504.65	41570.25
504.83	41691.96
505.01	41832.39
505.18	41794.95
505.36	42382.42
505.53	41949.42
505.71	42227.95
505.88	42244.33
506.06	41954.10
506.23	42396.46
506.41	42328.59
506.58	42377.74
506.76	42485.40
506.93	42660.94
507.11	42733.50
507.28	43112.67
507.46	43463.75
507.63	43412.26
507.81	43461.41
507.98	43264.80
508.16	43491.83
508.33	43271.82
508.50	43629.93
508.68	44168.25
508.85	44435.07
509.03	44140.16
509.20	44423.37
509.38	44835.30
509.55	45153.62
509.73	44879.77
509.90	45078.72
510.08	45207.45
510.25	45378.31
510.42	45177.02
510.60	45303.41
510.77	45558.53
510.95	45839.39
511.12	45460.23
511.30	45666.19
511.47	45743.43
511.64	46110.89
511.82	46305.16
511.99	45911.95
512.17	46314.52
512.34	46501.76
512.51	46162.39
512.69	46836.46
512.86	46789.65
513.04	47173.50
513.21	47082.22
513.38	47049.45
513.56	47533.94
513.73	47100.94
513.90	47496.49
514.08	47173.50
514.25	47763.31
514.43	47859.27
514.60	47971.62
514.77	47435.64
514.95	48205.67
515.12	47753.95
515.29	48011.41
515.47	48219.72
515.64	48315.68
515.81	48526.33
515.99	48793.15
516.16	48729.95
516.33	48905.49
516.51	49205.08
516.68	48767.40
516.85	48980.39
517.03	49411.05
517.20	49272.96
517.37	48935.92
517.54	49083.37
517.72	49373.60
517.89	49844.05
518.06	49521.05
518.24	49549.14
518.41	49890.86
518.58	50010.23
518.75	49729.36
518.93	50466.63
519.10	49801.92
519.27	49860.43
519.45	50176.40
519.62	50405.78
519.79	50389.39
519.96	50480.67
520.14	50834.10
520.31	50543.87
520.48	50635.15
520.65	50588.34
520.83	51246.03
521.00	51285.82
521.17	50979.21
521.34	51114.96
521.52	51440.29
521.69	51344.33
521.86	51119.64
522.03	51735.20
522.20	51901.38
522.38	52278.21
522.55	52041.81
522.72	51777.33
522.89	51779.67
523.07	52282.89
523.24	52116.71
523.41	52037.13
523.58	51718.82
523.75	52329.70
523.92	52107.35
524.10	52509.92
524.27	52519.28
524.44	52460.77
524.61	52519.28
524.78	52736.95
524.96	52741.63
525.13	52690.14
525.30	53029.52
525.47	53118.46
525.64	52975.69
525.81	53123.14
525.98	52966.32
526.16	52755.68
526.33	52971.00
526.50	53209.74
526.67	53099.73
526.84	53207.40
527.01	53090.37
527.18	53382.94
527.36	53085.69
527.53	53415.71
527.70	53453.15
527.87	53701.25
528.04	53418.05
528.21	53469.54
528.38	53647.42
528.55	53932.96
528.72	53799.55
528.89	54059.35
529.07	53769.13
529.24	53523.37
529.41	54216.17
529.58	54181.06
529.75	54096.80
529.92	54087.44
530.09	54307.45
530.26	54253.62
530.43	54309.79
530.60	53867.43
530.77	54344.90
530.94	54576.61
531.11	54581.29
531.28	54508.74
531.46	54791.94
531.63	54567.25
531.80	54815.35
531.97	54958.12
532.14	54625.76
532.31	54768.54
532.48	54990.89
532.65	54990.89
532.82	54965.14
532.99	55140.68
533.16	54939.39
533.33	55309.20
533.50	55491.76
533.67	55236.64
533.84	54948.76
534.01	55037.70
534.18	55023.65
534.35	55255.37
534.52	55470.70
534.69	55817.10
534.86	55751.56
535.03	55358.35
535.20	55613.47
535.37	55585.38
535.54	55803.05
535.71	55620.49
535.88	55901.36
536.05	55760.92
536.22	55744.54
536.38	56009.02
536.55	55955.19
536.72	56053.49
536.89	55896.67
537.06	55854.54
537.23	55992.64
537.40	55758.58
537.57	56060.51
537.74	56107.32
537.91	56172.86
538.08	56287.54
538.25	56053.49
538.42	56334.35
538.59	56268.82
538.75	56219.67
538.92	56299.25
539.09	56432.66
539.26	56385.85
539.43	56355.42
539.60	56652.67
539.77	56317.97
539.94	56942.89
540.11	56662.03
540.28	56781.40
540.44	56818.84
540.61	56870.34
540.78	56743.95
540.95	56856.29
541.12	56633.94
541.29	56765.01
541.46	56924.17
541.62	56975.66
541.79	56907.79
541.96	56928.85
542.13	56982.68
542.30	57116.09
542.47	57195.67
542.63	56999.07
542.80	57368.87
542.97	57439.09
543.14	57652.08
543.31	57572.50
543.48	57436.75
543.64	57427.38
543.81	57591.22
543.98	57509.30
544.15	57488.24
544.32	57965.71
544.48	57799.53
544.65	57680.16
544.82	57687.18
544.99	57481.22
545.16	57736.34
545.32	57724.63
545.49	58010.18
545.66	57946.98
545.83	58190.40
546.00	58042.95
546.16	57979.75
546.33	57874.43
546.50	57729.31
546.67	57989.11
546.83	57911.88
547.00	58237.21
547.17	57998.48
547.34	58035.92
547.50	58253.59
547.67	58258.27
547.84	58190.40
548.00	58447.86
548.17	58646.80
548.34	58417.43
548.51	58763.83
548.67	58431.47
548.84	58379.98
549.01	58529.78
549.18	58464.24
549.34	58653.82
549.51	58415.09
549.68	58777.87
549.84	58581.27
550.01	58759.15
550.18	58300.40
550.34	58670.21
550.51	58532.12
550.68	58918.31
550.84	58424.45
551.01	58820.00
551.18	58497.01
551.34	58808.30
551.51	58820.00
551.68	58752.13
551.84	58918.31
552.01	58677.23
552.18	58960.44
552.34	58688.93
552.51	59044.69
552.68	58908.94
552.84	59025.97
553.01	59257.68
553.18	59187.47
553.34	59145.34
553.51	58972.14
553.67	59208.53
553.84	59154.70
554.01	59267.05
554.17	59379.39
554.34	59262.36
554.51	59311.52
554.67	59245.98
554.84	59220.23
555.00	59323.22
555.17	59320.88
555.33	59323.22
555.50	59409.82
555.67	59358.33
555.83	59173.42
556.00	59568.97
556.16	59681.32
556.33	59671.96
556.50	59657.91
556.66	59760.90
556.83	59398.12
556.99	59627.49
557.16	59744.51
557.32	59828.77
557.49	59917.71
557.65	59735.15
557.82	59561.95
557.98	59597.06
558.15	59777.28
558.32	59653.23
558.48	59662.60
558.65	60055.81
558.81	59814.73
558.98	59676.64
559.14	59784.30
559.31	60041.76
559.47	59987.93
559.64	60090.91
559.80	60205.60
559.97	60170.49
560.13	59906.01
560.30	60229.01
560.46	60154.11
560.63	60079.21
560.79	60161.13
560.96	60065.17
561.12	60060.49
561.29	60168.15
561.45	60058.15
561.61	60163.47
561.78	60126.02
561.94	60128.36
562.11	59917.71
562.27	60119.00
562.44	60011.34
562.60	60163.47
562.77	60334.33
562.93	60182.19
563.10	60107.30
563.26	60233.69
563.42	60528.59
563.59	60238.37
563.75	60355.39
563.92	60219.64
564.08	60097.94
564.24	60322.63
564.41	60575.40
564.57	60495.83
564.74	60577.75
564.90	60385.82
565.07	60383.48
565.23	60638.60
565.39	60381.14
565.56	60399.86
565.72	60367.10
565.88	60509.87
566.05	60427.95
566.21	60301.56
566.38	60486.46
566.54	60554.34
566.70	60629.24
566.87	60757.97
567.03	60591.79
567.19	60786.05
567.36	60676.05
567.52	60306.24
567.68	60926.49
567.85	60715.84
568.01	60643.28
568.17	60507.53
568.34	60793.07
568.50	60584.77
568.66	60690.09
568.83	60835.20
568.99	60409.23
569.15	60839.89
569.32	60757.97
569.48	60692.43
569.64	60804.78
569.81	60669.03
569.97	60692.43
570.13	60816.48
570.30	60767.33
570.46	60828.18
570.62	60725.20
570.78	60753.29
570.95	60783.71
571.11	60954.57
571.27	60781.37
571.43	60748.60
571.60	61083.30
571.76	61017.77
571.92	60982.66
572.09	60760.31
572.25	61038.83
572.41	60811.80
572.57	60884.36
572.74	60886.70
572.90	60666.69
573.06	61207.35
573.22	60863.29
573.38	60797.76
573.55	60732.22
573.71	61078.62
573.87	60956.91
574.03	60821.16
574.20	60924.14
574.36	60858.61
574.52	61013.08
574.68	60804.78
574.84	61024.79
575.01	61087.98
575.17	61024.79
575.33	60767.33
575.49	60919.46
575.65	61144.16
575.82	60956.91
575.98	60898.40
576.14	61277.57
576.30	61095.00
576.46	61087.98
576.62	61165.22
576.79	60863.29
576.95	60790.73
577.11	61120.75
577.27	61141.81
577.43	61078.62
577.59	61029.47
577.75	60907.76
577.92	60959.25
578.08	61027.13
578.24	61197.99
578.40	61347.78
578.56	61186.28
578.72	61137.13
578.88	61207.35
579.04	61300.97
579.21	61371.19
579.37	61282.25
579.53	61071.60
579.69	61003.72
579.85	61230.75
580.01	61275.22
580.17	60949.89
580.33	61200.33
580.49	61441.40
580.65	61244.80
580.82	61127.77
580.98	61263.52
581.14	61078.62
581.30	61153.52
581.46	61087.98
581.62	61256.50
581.78	61282.25
581.94	61277.57
582.10	61195.65
582.26	61256.50
582.42	61113.73
582.58	61174.58
582.74	61240.12
582.90	61120.75
583.06	61181.60
583.22	61228.41
583.38	61148.84
583.54	61221.39
583.70	61202.67
583.86	61354.80
584.02	61200.33
584.18	61233.10
584.34	61382.89
584.50	61197.99
584.66	61085.64
584.82	61212.03
584.98	61462.47
585.14	61406.30
585.30	61193.31
585.46	61256.50
585.62	61048.19
585.78	61401.61
585.94	61076.28
586.10	61284.59
586.26	61317.35
586.42	61293.95
586.58	61272.88
586.74	61176.92
586.90	61315.01
587.06	61282.25
587.22	61394.59
587.38	61469.49
587.54	61553.75
587.70	61460.13
587.86	61394.59
588.02	61298.63
588.18	61439.06
588.34	61528.00
588.49	61333.74
