SpectraSuite Data File
++++++++++++++++++++++++++++++++++++
Date: Fri Oct 25 11:34:17 EDT 2013
User: price-jones
Dark Spectrum Present: No
Reference Spectrum Present: No
Number of Sampled Component Spectra: 1
Spectrometers: USB2+H05261
Integration Time (usec): 100000 (USB2+H05261)
Spectra Averaged: 1 (USB2+H05261)
Boxcar Smoothing: 0 (USB2+H05261)
Correct for Electrical Dark: No (USB2+H05261)
Strobe/Lamp Enabled: No (USB2+H05261)
Correct for Detector Non-linearity: No (USB2+H05261)
Correct for Stray Light: No (USB2+H05261)
Number of Pixels in Processed Spectrum: 2048
>>>>>Begin Processed Spectral Data<<<<<
365.73	243.42
365.92	243.42
366.12	243.42
366.32	175.54
366.52	166.18
366.72	196.60
366.91	117.03
367.11	229.37
367.31	140.43
367.51	84.26
367.70	149.79
367.90	175.54
368.10	222.35
368.30	224.69
368.49	208.31
368.69	224.69
368.89	161.50
369.09	135.75
369.28	217.67
369.48	215.33
369.68	262.14
369.87	212.99
370.07	285.55
370.27	306.61
370.47	285.55
370.66	425.98
370.86	454.06
371.06	528.96
371.25	573.43
371.45	524.28
371.65	617.90
371.84	533.64
372.04	599.18
372.24	566.41
372.44	489.17
372.63	601.52
372.83	589.82
373.03	531.30
373.22	622.58
373.42	571.09
373.62	601.52
373.81	713.86
374.01	629.60
374.21	667.05
374.40	653.01
374.60	634.29
374.79	615.56
374.99	655.35
375.19	709.18
375.38	648.33
375.58	613.22
375.78	667.05
375.97	645.99
376.17	734.93
376.37	662.37
376.56	641.31
376.76	582.79
376.95	648.33
377.15	662.37
377.35	620.24
377.54	678.76
377.74	624.92
377.93	634.29
378.13	725.57
378.33	718.54
378.52	671.73
378.72	753.65
378.91	711.52
379.11	727.91
379.31	657.69
379.50	664.71
379.70	758.33
379.89	718.54
380.09	713.86
380.28	629.60
380.48	765.36
380.68	770.04
380.87	753.65
381.07	781.74
381.26	723.23
381.46	741.95
381.65	856.64
381.85	718.54
382.04	695.14
382.24	760.67
382.43	748.97
382.63	741.95
382.83	713.86
383.02	823.87
383.22	863.66
383.41	781.74
383.61	830.89
383.80	795.78
384.00	744.29
384.19	770.04
384.39	887.06
384.58	770.04
384.78	844.93
384.97	851.96
385.17	837.91
385.36	868.34
385.56	753.65
385.75	774.72
385.95	809.83
386.14	905.79
386.34	842.59
386.53	880.04
386.72	833.23
386.92	943.24
387.11	866.00
387.31	875.36
387.50	915.15
387.70	837.91
387.89	863.66
388.09	819.19
388.28	887.06
388.48	917.49
388.67	966.64
388.86	919.83
389.06	842.59
389.25	1034.52
389.45	938.55
389.64	917.49
389.84	1011.11
390.03	990.05
390.22	990.05
390.42	957.28
390.61	1008.77
390.81	917.49
391.00	959.62
391.19	940.90
391.39	1067.28
391.58	954.94
391.78	1050.90
391.97	971.32
392.16	997.07
392.36	1123.46
392.55	1057.92
392.75	1018.13
392.94	1018.13
393.13	1060.26
393.33	1055.58
393.52	1076.65
393.71	1006.43
393.91	1064.94
394.10	1027.50
394.29	1100.05
394.49	1078.99
394.68	1118.78
394.88	1015.79
395.07	1123.46
395.26	1160.91
395.46	1050.90
395.65	1226.44
395.84	1102.39
396.04	1242.82
396.23	1160.91
396.42	1090.69
396.62	1146.86
396.81	1057.92
397.00	1111.75
397.19	1188.99
397.39	1146.86
397.58	1191.33
397.77	1210.06
397.97	1207.72
398.16	1165.59
398.35	1165.59
398.55	1273.25
398.74	1287.29
398.93	1404.32
399.12	1261.55
399.32	1266.23
399.51	1146.86
399.70	1287.29
399.90	1355.17
400.09	1299.00
400.28	1315.38
400.47	1362.19
400.67	1401.98
400.86	1359.85
401.05	1331.76
401.24	1409.00
401.44	1392.62
401.63	1387.94
401.82	1409.00
402.01	1404.32
402.21	1397.30
402.40	1469.86
402.59	1411.34
402.78	1472.20
402.97	1411.34
403.17	1476.88
403.36	1460.49
403.55	1504.96
403.74	1579.86
403.93	1610.29
404.13	1521.35
404.32	1488.58
404.51	1526.03
404.70	1577.52
404.89	1598.59
405.09	1739.02
405.28	1593.90
405.47	1577.52
405.66	1703.91
405.85	1561.14
406.05	1701.57
406.24	1633.69
406.43	1703.91
406.62	1757.74
406.81	1783.49
407.00	1741.36
407.20	1717.95
407.39	1661.78
407.58	1778.81
407.77	1839.66
407.96	1907.54
408.15	1846.68
408.34	1893.49
408.54	1860.73
408.73	1895.83
408.92	1980.09
409.11	1970.73
409.30	1982.43
409.49	2005.84
409.68	1928.60
409.87	1898.17
410.07	1989.46
410.26	1994.14
410.45	2064.35
410.64	2010.52
410.83	2087.76
411.02	1968.39
411.21	2200.10
411.40	2179.04
411.59	2165.00
411.78	2087.76
411.98	2193.08
412.17	2186.06
412.36	2216.49
412.55	2230.53
412.74	2221.17
412.93	2275.00
413.12	2214.15
413.31	2314.79
413.50	2223.51
413.69	2422.45
413.88	2361.60
414.07	2314.79
414.26	2385.01
414.45	2530.12
414.64	2448.20
414.83	2366.28
415.02	2473.95
415.22	2560.55
415.41	2640.12
415.60	2574.59
415.79	2520.76
415.98	2647.15
416.17	2661.19
416.36	2686.94
416.55	2614.38
416.74	2761.83
416.93	2750.13
417.12	2761.83
417.31	2773.53
417.50	2724.38
417.69	2839.07
417.88	2834.39
418.07	2876.52
418.26	2864.82
418.45	2895.24
418.64	3030.99
418.83	2930.35
419.02	2864.82
419.21	3014.61
419.39	3026.31
419.58	3009.93
419.77	2958.44
419.96	3133.98
420.15	3026.31
420.34	3070.78
420.53	3066.10
420.72	3176.11
420.91	3145.68
421.10	3328.24
421.29	3272.07
421.48	3208.87
421.67	3229.94
421.86	3220.58
422.05	3169.09
422.24	3124.62
422.43	3206.53
422.61	3337.60
422.80	3405.48
422.99	3243.98
423.18	3290.79
423.37	3337.60
423.56	3309.52
423.75	3314.20
423.94	3262.71
424.13	3049.72
424.32	3227.60
424.50	3377.39
424.69	3407.82
424.88	3431.23
425.07	3290.79
425.26	3351.65
425.45	3337.60
425.64	3323.56
425.83	3396.12
426.01	3407.82
426.20	3318.88
426.39	3412.50
426.58	3440.59
426.77	3351.65
426.96	3372.71
427.15	3365.69
427.33	3522.51
427.52	3398.46
427.71	3431.23
427.90	3517.83
428.09	3609.11
428.28	3630.17
428.46	3588.04
428.65	3550.59
428.84	3613.79
429.03	3662.94
429.22	3550.59
429.40	3712.09
429.59	3707.41
429.78	3494.42
429.97	3517.83
430.16	3543.57
430.34	3730.81
430.53	3777.62
430.72	3765.92
430.91	3815.07
431.10	3679.32
431.28	3833.80
431.47	3861.88
431.66	3815.07
431.85	3838.48
432.03	3964.87
432.22	3911.04
432.41	4042.11
432.60	3896.99
432.79	3990.61
432.97	4035.08
433.16	3953.16
433.35	3929.76
433.54	4100.62
433.72	4114.66
433.91	4086.58
434.10	4091.26
434.28	4042.11
434.47	4140.41
434.66	4161.47
434.85	4227.01
435.03	4182.54
435.22	4124.02
435.41	4379.14
435.59	4329.99
435.78	4358.08
435.97	4351.06
436.16	4266.80
436.34	4280.84
436.53	4512.55
436.72	4414.25
436.90	4374.46
437.09	4273.82
437.28	4348.72
437.46	4479.79
437.65	4491.49
437.84	4683.41
438.02	4486.81
438.21	4400.21
438.40	4409.57
438.58	4613.20
438.77	4741.93
438.96	4603.83
439.14	4624.90
439.33	4746.61
439.52	4725.54
439.70	4711.50
439.89	4873.00
440.08	4809.80
440.26	4807.46
440.45	4891.72
440.63	4973.64
440.82	4964.28
441.01	4994.70
441.19	5008.75
441.38	5088.32
441.57	5249.82
441.75	5268.55
441.94	5191.31
442.12	5303.65
442.31	5350.46
442.50	5313.02
442.68	5273.23
442.87	5387.91
443.05	5310.68
443.24	5430.04
443.43	5345.78
443.61	5266.21
443.80	5474.51
443.98	5130.45
444.17	5153.86
444.35	5495.58
444.54	5411.32
444.73	5334.08
444.91	5394.93
445.10	5500.26
445.28	5554.09
445.47	5455.79
445.65	5523.66
445.84	5605.58
446.02	5575.16
446.21	5500.26
446.39	5490.90
446.58	5643.03
446.77	5561.11
446.95	5462.81
447.14	5521.32
447.32	5769.42
447.51	5537.71
447.69	5612.60
447.88	5570.48
448.06	5500.26
448.25	5647.71
448.43	5577.50
448.62	5661.76
448.80	5572.82
448.99	5671.12
449.17	5584.52
449.36	5750.70
449.54	5797.51
449.73	5959.00
449.91	6022.20
450.10	5856.02
450.28	5923.90
450.46	6022.20
450.65	5898.15
450.83	6066.67
451.02	5961.34
451.20	6066.67
451.39	5912.19
451.57	6085.39
451.76	5937.94
451.94	6143.91
452.13	6160.29
452.31	6090.07
452.49	6209.44
452.68	6244.55
452.86	6113.48
453.05	6232.85
453.23	6401.37
453.42	6279.66
453.60	6218.80
453.78	6193.06
453.97	6251.57
454.15	6289.02
454.34	6209.44
454.52	6274.98
454.70	6307.74
454.89	6282.00
455.07	6436.47
455.26	6406.05
455.44	6604.99
455.62	6492.65
455.81	6438.81
455.99	6511.37
456.17	6455.20
456.36	6656.48
456.54	6649.46
456.73	6785.21
456.91	6771.17
457.09	6967.77
457.28	6956.07
457.46	6707.98
457.64	6904.58
457.83	7019.27
458.01	6696.27
458.19	7002.88
458.38	6771.17
458.56	6876.49
458.74	7091.82
458.93	6799.26
459.11	6885.86
459.29	6909.26
459.48	7075.44
459.66	7073.10
459.84	7110.55
460.03	7304.81
460.21	7302.47
460.39	7110.55
460.57	7190.13
460.76	7148.00
460.94	7330.56
461.12	7227.57
461.31	7311.83
461.49	7258.00
461.67	7218.21
461.85	7316.51
462.04	7316.51
462.22	7793.98
462.40	7524.82
462.59	7417.16
462.77	7723.77
462.95	7571.63
463.13	7566.95
463.32	7454.61
463.50	7506.10
463.68	7702.70
463.86	7840.79
464.05	7529.50
464.23	7655.89
464.41	7798.66
464.59	7658.23
464.78	7651.21
464.96	7812.71
465.14	7648.87
465.32	7971.86
465.50	7955.48
465.69	7906.33
465.87	7801.01
466.05	7976.55
466.23	7669.94
466.41	7723.77
466.60	7929.74
466.78	7838.45
466.96	7735.47
467.14	8018.68
467.32	7967.18
467.51	8182.51
467.69	7899.31
467.87	8056.12
468.05	8315.92
468.23	8100.59
468.41	8128.68
468.60	7906.33
468.78	8341.67
468.96	8138.04
469.14	8308.90
469.32	8388.48
469.50	8119.32
469.69	8475.08
469.87	8332.31
470.05	8344.01
470.23	8512.53
470.41	8365.07
470.59	8667.00
470.77	8585.08
470.95	8344.01
471.14	8601.47
471.32	8533.59
471.50	8814.46
471.68	8821.48
471.86	8957.23
472.04	8987.66
472.22	9004.04
472.40	8688.07
472.58	8954.89
472.77	9006.38
472.95	9069.58
473.13	9397.25
473.31	9324.69
473.49	9064.89
473.67	9186.60
473.85	9350.44
474.03	9467.47
474.21	9320.01
474.39	9710.88
474.57	9643.01
474.75	9481.51
474.93	9729.61
475.12	9495.55
475.30	9640.67
475.48	9659.39
475.66	9820.89
475.84	9521.30
476.02	9877.06
476.20	9816.21
476.38	10010.47
476.56	10200.05
476.74	10005.79
476.92	10111.11
477.10	10310.06
477.28	10476.24
477.46	10413.04
477.64	10413.04
477.82	10586.24
478.00	10750.08
478.18	10768.80
478.36	10883.49
478.54	10977.11
478.72	10890.51
478.90	11068.39
479.08	11316.49
479.26	11454.58
479.44	11377.34
479.62	11660.55
479.80	11529.48
479.98	11513.10
480.16	11740.13
480.34	11480.33
480.52	11887.58
480.70	11831.41
480.88	11707.36
481.06	12018.65
481.24	11915.67
481.41	12088.87
481.59	12351.01
481.77	12372.07
481.95	12152.06
482.13	12606.13
482.31	12477.40
482.49	12917.42
482.67	12938.48
482.85	13090.62
483.03	12985.29
483.21	13273.18
483.39	13298.92
483.57	13596.17
483.74	13600.85
483.92	13579.79
484.10	13657.03
484.28	13757.67
484.46	13987.04
484.64	14132.15
484.82	14197.69
485.00	14155.56
485.18	14712.61
485.35	14862.40
485.53	14714.95
485.71	14548.77
485.89	14885.81
486.07	15042.62
486.25	14820.27
486.43	15012.20
486.61	15447.54
486.78	15585.63
486.96	15503.71
487.14	15580.95
487.32	15793.94
487.50	15779.89
487.68	15793.94
487.85	16032.67
488.03	16208.21
488.21	16650.57
488.39	16514.82
488.57	16678.66
488.75	16943.14
488.92	16496.10
489.10	16783.98
489.28	16922.07
489.46	17006.33
489.64	17200.60
489.81	17406.56
489.99	17666.36
490.17	17584.44
490.35	18043.19
490.53	17937.87
490.70	18050.21
490.88	18008.08
491.06	18204.69
491.24	18410.65
491.41	18803.86
491.59	18644.71
491.77	18895.14
491.95	18595.56
492.13	18939.62
492.30	18855.36
492.48	19014.51
492.66	19234.52
492.84	19222.82
493.01	19555.18
493.19	19578.58
493.37	19777.53
493.54	19733.06
493.72	19777.53
493.90	19936.68
494.08	20339.26
494.25	20381.38
494.43	20439.90
494.61	20063.07
494.79	20587.35
494.96	20570.97
495.14	20493.73
495.32	21076.52
495.49	20931.41
495.67	21209.93
495.85	21029.71
496.02	21474.42
496.20	21451.01
496.38	21380.79
496.55	21509.52
496.73	22253.81
496.91	21935.50
497.09	22080.61
497.26	21907.41
497.44	22066.57
497.62	22155.51
497.79	22836.61
497.97	22504.25
498.14	22649.36
498.32	23398.34
498.50	22979.38
498.67	23035.55
498.85	23307.05
499.03	23358.55
499.20	23470.89
499.38	23470.89
499.56	23353.87
499.73	23618.35
499.91	23529.41
500.08	23791.55
500.26	23852.40
500.44	23590.26
500.61	24168.37
500.79	23913.25
500.97	24063.05
501.14	24510.09
501.32	24690.31
501.49	24638.82
501.67	24566.26
501.84	24896.28
502.02	24676.27
502.20	24687.97
502.37	25165.44
502.55	24758.19
502.72	24940.75
502.90	24907.98
503.07	24739.46
503.25	25071.82
503.43	25111.61
503.60	25144.38
503.78	25792.70
503.95	25420.56
504.13	25745.89
504.30	25893.35
504.48	25394.81
504.65	25865.26
504.83	26293.58
505.01	25986.97
505.18	25968.24
505.36	26237.41
505.53	26677.43
505.71	26419.97
505.88	26501.89
506.06	26518.27
506.23	26838.92
506.41	26548.70
506.58	26948.93
506.76	26480.82
506.93	26862.33
507.11	26852.97
507.28	27206.39
507.46	27194.68
507.63	27482.57
507.81	27405.33
507.98	27353.84
508.16	27725.99
508.33	27557.47
508.50	27536.40
508.68	27857.06
508.85	28203.46
509.03	27948.34
509.20	28091.11
509.38	28306.44
509.55	28545.17
509.73	28360.27
509.90	28514.75
510.08	28463.25
510.25	28692.63
510.42	28599.01
510.60	28451.55
510.77	28807.31
510.95	29167.76
511.12	29036.69
511.30	28950.09
511.47	28826.04
511.64	29003.92
511.82	29572.67
511.99	28779.23
512.17	29411.17
512.34	29376.06
512.51	29682.67
512.69	30284.19
512.86	29729.48
513.04	29724.80
513.21	29577.35
513.38	29752.89
513.56	30536.97
513.73	29820.77
513.90	30295.89
514.08	29893.32
514.25	30398.88
514.43	30775.70
514.60	30501.86
514.77	30679.74
514.95	30864.64
515.12	30595.48
515.29	30588.46
515.47	30742.94
515.64	31199.34
515.81	30794.43
515.99	30749.96
516.16	31358.50
516.33	31330.41
516.51	31140.83
516.68	31351.48
516.85	31531.70
517.03	31791.50
517.20	31744.69
517.37	31267.22
517.54	31491.91
517.72	31749.37
517.89	31578.51
518.06	32243.22
518.24	31639.36
518.41	31873.42
518.58	32364.93
518.75	31730.64
518.93	32500.68
519.10	32196.41
519.27	32500.68
519.45	32617.71
519.62	32947.72
519.79	32620.05
519.96	32725.37
520.14	32945.38
520.31	32786.22
520.48	33156.03
520.65	33039.00
520.83	33163.05
521.00	33256.67
521.17	32882.19
521.34	33551.58
521.52	33090.49
521.69	33284.76
521.86	33687.33
522.03	33937.77
522.20	33813.72
522.38	33947.13
522.55	34113.31
522.72	33984.58
522.89	34139.05
523.07	34220.97
523.24	33848.83
523.41	34141.39
523.58	33706.05
523.75	34881.00
523.92	34319.28
524.10	34511.20
524.27	34363.75
524.44	35304.64
524.61	34785.04
524.78	34586.10
524.96	34511.20
525.13	34918.45
525.30	34672.70
525.47	35349.11
525.64	35143.14
525.81	35166.55
525.98	35316.34
526.16	34991.01
526.33	35154.85
526.50	35335.07
526.67	35255.49
526.84	35234.42
527.01	35227.40
527.18	35512.95
527.36	35651.04
527.53	35639.34
527.70	35894.46
527.87	36039.57
528.04	35744.66
528.21	35828.92
528.38	35967.01
528.55	36067.66
528.72	35974.03
528.89	35976.37
529.07	35950.63
529.24	36130.85
529.41	36362.56
529.58	35878.07
529.75	36254.90
529.92	36196.38
530.09	36311.07
530.26	36280.64
530.43	36463.21
530.60	36613.00
530.77	36744.07
530.94	36594.28
531.11	36931.31
531.28	37074.09
531.46	36872.80
531.63	36751.09
531.80	36877.48
531.97	36531.08
532.14	36961.74
532.31	37069.40
532.48	37163.03
532.65	37399.42
532.82	37181.75
532.99	37294.10
533.16	37425.17
533.33	37647.52
533.50	37633.47
533.67	37404.10
533.84	37109.19
534.01	37633.47
534.18	38000.94
534.35	37923.70
534.52	37968.17
534.69	38349.68
534.86	38438.62
535.03	37949.45
535.20	37628.79
535.37	38129.67
535.54	38417.55
535.71	37900.29
535.88	38225.63
536.05	38082.86
536.22	38410.53
536.38	38330.95
536.55	38590.75
536.72	38370.74
536.89	38155.41
537.06	38541.60
537.23	38492.45
537.40	38082.86
537.57	38586.07
537.74	38562.67
537.91	38651.61
538.08	38614.16
538.25	38267.76
538.42	39171.21
538.59	39576.12
538.75	39042.48
538.92	39180.57
539.09	39428.66
539.26	39072.90
539.43	39185.25
539.60	39047.16
539.77	39377.17
539.94	39632.29
540.11	39306.96
540.28	38948.85
540.44	39732.93
540.61	39438.03
540.78	39566.76
540.95	39878.05
541.12	39236.74
541.29	39388.88
541.46	39754.00
541.62	39615.91
541.79	39833.58
541.96	39541.01
542.13	39739.96
542.30	39761.02
542.47	39995.07
542.63	39957.63
542.80	40418.71
542.97	40325.09
543.14	40315.73
543.31	40524.04
543.48	40364.88
543.64	40917.25
543.81	40708.94
543.98	40561.48
544.15	40713.62
544.32	40556.80
544.48	41034.27
544.65	40690.21
544.82	41120.87
544.99	40737.02
545.16	41294.07
545.32	40760.43
545.49	41528.13
545.66	41504.72
545.83	41343.22
546.00	41315.14
546.16	40942.99
546.33	41102.15
546.50	40978.10
546.67	41350.24
546.83	41043.63
547.00	41240.24
547.17	41139.60
547.34	40847.03
547.50	41209.81
547.67	41862.82
547.84	41670.90
548.00	42146.03
548.17	42120.28
548.34	42040.70
548.51	41862.82
548.67	42038.36
548.84	41933.04
549.01	41794.95
549.18	41780.90
549.34	41944.74
549.51	42000.91
549.68	42382.42
549.84	41937.72
550.01	42405.83
550.18	42110.92
550.34	41708.35
550.51	42230.29
550.68	42057.09
550.84	42277.10
551.01	42227.95
551.18	42148.37
551.34	42359.02
551.51	42806.06
551.68	42857.55
551.84	42548.60
552.01	42314.55
552.18	42700.73
552.34	42101.56
552.51	42696.05
552.68	41949.42
552.84	42490.09
553.01	43023.73
553.18	42792.01
553.34	42815.42
553.51	42883.30
553.67	42824.78
553.84	42848.19
554.01	43173.52
554.17	42946.49
554.34	42995.64
554.51	42707.76
554.67	43185.22
554.84	43215.65
555.00	42829.46
555.17	43091.60
555.33	43098.62
555.50	43215.65
555.67	43555.03
555.83	43082.24
556.00	43480.13
556.16	43861.64
556.33	43538.65
556.50	43054.15
556.66	42923.08
556.83	43316.29
556.99	43402.89
557.16	43793.76
557.32	43765.68
557.49	43915.47
557.65	43363.11
557.82	43878.02
557.98	43934.20
558.15	43395.87
558.32	44032.50
558.48	43562.05
558.65	43941.22
558.81	43934.20
558.98	43391.19
559.14	43608.86
559.31	44121.44
559.47	43875.68
559.64	44046.54
559.80	43948.24
559.97	44144.84
560.13	43335.02
560.30	43945.90
560.46	44268.89
560.63	44418.69
560.79	43903.77
560.96	44313.36
561.12	44624.65
561.29	43964.62
561.45	44554.44
561.61	44500.61
561.78	44023.14
561.94	43765.68
562.11	44299.32
562.27	44247.83
562.44	44442.09
562.60	44341.45
562.77	44748.70
562.93	44856.37
563.10	44854.03
563.26	44418.69
563.42	44921.90
563.59	44568.48
563.75	44966.37
563.92	44418.69
564.08	44519.33
564.24	44942.97
564.41	44568.48
564.57	44624.65
564.74	44666.78
564.90	44835.30
565.07	44949.99
565.23	44577.84
565.39	44753.38
565.56	44910.20
565.72	45038.93
565.88	44772.11
566.05	45010.84
566.21	44882.11
566.38	44839.98
566.54	44781.47
566.70	45062.33
566.87	45003.82
567.03	44650.40
567.19	44896.16
567.36	44839.98
567.52	44849.35
567.68	45022.54
567.85	45268.30
568.01	45301.07
568.17	44662.10
568.34	45567.89
568.50	45125.53
568.66	45015.52
568.83	45170.00
568.99	45081.06
569.15	45216.81
569.32	45378.31
569.48	45083.40
569.64	45352.56
569.81	45179.36
569.97	45640.45
570.13	45460.23
570.30	44987.44
570.46	45418.10
570.62	45212.13
570.78	45219.15
570.95	45050.63
571.11	45595.98
571.27	45029.57
571.43	44767.43
571.60	45406.39
571.76	45141.91
571.92	45027.23
572.09	45343.20
572.25	45549.17
572.41	45067.02
572.57	44924.24
572.74	45780.88
572.90	45219.15
573.06	45617.04
573.22	45329.16
573.38	45830.03
573.55	45237.87
573.71	45603.00
573.87	45528.10
574.03	45528.10
574.20	45607.68
574.36	45521.08
574.52	45638.11
574.68	45504.70
574.84	46099.19
575.01	45731.73
575.17	46059.40
575.33	45720.02
575.49	45219.15
575.65	45530.44
575.82	45797.26
575.98	45607.68
576.14	45591.30
576.30	45720.02
576.46	45715.34
576.62	45530.44
576.79	45743.43
576.95	45137.23
577.11	45237.87
577.27	45368.94
577.43	45668.53
577.59	45574.91
577.75	45579.59
577.92	45708.32
578.08	45495.33
578.24	45595.98
578.40	45839.39
578.56	45942.38
578.72	45642.79
578.88	45530.44
579.04	45897.91
579.21	45827.69
579.37	45893.22
579.53	45553.85
579.69	45858.12
579.85	45598.32
580.01	45628.74
580.17	45619.38
580.33	45778.54
580.49	45631.08
580.65	46026.63
580.82	45460.23
580.98	45528.10
581.14	45778.54
581.30	45593.64
581.46	45638.11
581.62	45881.52
581.78	45546.82
581.94	45727.05
582.10	45977.48
582.26	46330.90
582.42	45539.80
582.58	45897.91
582.74	45766.84
582.90	45684.92
583.06	45808.96
583.22	45830.03
583.38	45581.93
583.54	46366.01
583.70	45996.21
583.86	46115.58
584.02	45799.60
584.18	46281.75
584.34	46038.34
584.50	46033.66
584.66	46150.68
584.82	46085.15
584.98	46241.96
585.14	45923.65
585.30	46232.60
585.46	45406.39
585.62	45975.14
585.78	46227.92
585.94	45577.25
586.10	46026.63
586.26	45696.62
586.42	45790.24
586.58	46113.23
586.74	46206.86
586.90	46078.13
587.06	46017.27
587.22	45874.50
587.38	45893.22
587.54	46059.40
587.70	46223.24
587.86	46485.38
588.02	45874.50
588.18	46024.29
588.34	45874.50
588.49	45790.24
588.65	45989.19
588.81	45595.98
588.97	46408.14
589.13	45687.26
589.29	45799.60
589.45	46185.79
589.61	46476.02
589.77	46686.67
589.93	46241.96
590.08	46464.32
