SpectraSuite Data File
++++++++++++++++++++++++++++++++++++
Date: Fri Oct 25 10:48:25 EDT 2013
User: price-jones
Dark Spectrum Present: No
Reference Spectrum Present: No
Number of Sampled Component Spectra: 1
Spectrometers: USB2+H05261
Integration Time (usec): 100000 (USB2+H05261)
Spectra Averaged: 1 (USB2+H05261)
Boxcar Smoothing: 0 (USB2+H05261)
Correct for Electrical Dark: No (USB2+H05261)
Strobe/Lamp Enabled: No (USB2+H05261)
Correct for Detector Non-linearity: No (USB2+H05261)
Correct for Stray Light: No (USB2+H05261)
Number of Pixels in Processed Spectrum: 2048
>>>>>Begin Processed Spectral Data<<<<<
365.73	93.62
365.92	93.62
366.12	93.62
366.32	128.73
366.52	126.39
366.72	9.36
366.91	0.00
367.11	98.30
367.31	37.45
367.51	0.00
367.70	77.24
367.90	81.92
368.10	56.17
368.30	32.77
368.49	88.94
368.69	138.09
368.89	128.73
369.09	11.70
369.28	84.26
369.48	98.30
369.68	93.62
369.87	77.24
370.07	93.62
370.27	147.45
370.47	220.01
370.66	416.62
370.86	390.87
371.06	454.06
371.25	444.70
371.45	578.11
371.65	554.71
371.84	517.26
372.04	503.22
372.24	505.56
372.44	510.24
372.63	505.56
372.83	465.77
373.03	519.60
373.22	524.28
373.42	531.30
373.62	507.90
373.81	610.88
374.01	678.76
374.21	550.03
374.40	582.79
374.60	610.88
374.79	594.50
374.99	578.11
375.19	592.16
375.38	603.86
375.58	592.16
375.78	524.28
375.97	606.20
376.17	650.67
376.37	622.58
376.56	606.20
376.76	643.65
376.95	676.41
377.15	606.20
377.35	613.22
377.54	657.69
377.74	713.86
377.93	580.45
378.13	589.82
378.33	662.37
378.52	627.26
378.72	706.84
378.91	723.23
379.11	641.31
379.31	732.59
379.50	631.94
379.70	636.63
379.89	638.97
380.09	704.50
380.28	774.72
380.48	795.78
380.68	702.16
380.87	683.44
381.07	699.82
381.26	702.16
381.46	695.14
381.65	697.48
381.85	685.78
382.04	716.20
382.24	713.86
382.43	748.97
382.63	648.33
382.83	685.78
383.02	744.29
383.22	650.67
383.41	763.01
383.61	755.99
383.80	809.83
384.00	786.42
384.19	688.12
384.39	851.96
384.58	695.14
384.78	784.08
384.97	774.72
385.17	713.86
385.36	753.65
385.56	856.64
385.75	767.70
385.95	755.99
386.14	891.74
386.34	854.30
386.53	772.38
386.72	786.42
386.92	851.96
387.11	858.98
387.31	833.23
387.50	877.70
387.70	830.89
387.89	933.87
388.09	922.17
388.28	877.70
388.48	837.91
388.67	901.11
388.86	868.34
389.06	968.98
389.25	940.90
389.45	985.37
389.64	1015.79
389.84	980.68
390.03	994.73
390.22	952.60
390.42	1074.31
390.61	978.34
390.81	964.30
391.00	1036.86
391.19	1121.12
391.39	1060.26
391.58	1006.43
391.78	997.07
391.97	976.00
392.16	933.87
392.36	1071.97
392.55	1086.01
392.75	990.05
392.94	954.94
393.13	1041.54
393.33	1064.94
393.52	1046.22
393.71	1109.41
393.91	1104.73
394.10	1060.26
394.29	1074.31
394.49	1165.59
394.68	1177.29
394.88	1186.65
395.07	1200.69
395.26	1174.95
395.46	1170.27
395.65	1263.89
395.84	1132.82
396.04	1203.04
396.23	1149.20
396.42	1043.88
396.62	1114.10
396.81	1224.10
397.00	1177.29
397.19	1252.19
397.39	1294.32
397.58	1345.81
397.77	1355.17
397.97	1437.09
398.16	1336.45
398.35	1355.17
398.55	1380.92
398.74	1420.71
398.93	1483.90
399.12	1561.14
399.32	1472.20
399.51	1437.09
399.70	1476.88
399.90	1526.03
400.09	1563.48
400.28	1511.99
400.47	1575.18
400.67	1584.54
400.86	1673.48
401.05	1507.30
401.24	1631.35
401.44	1682.85
401.63	1586.88
401.82	1614.97
402.01	1689.87
402.21	1636.03
402.40	1696.89
402.59	1699.23
402.78	1706.25
402.97	1732.00
403.17	1715.61
403.36	1757.74
403.55	1781.15
403.74	1724.97
403.93	1753.06
404.13	1813.92
404.32	1785.83
404.51	1722.63
404.70	1898.17
404.89	1900.52
405.09	1977.75
405.28	1872.43
405.47	1834.98
405.66	1966.05
405.85	1860.73
406.05	1823.28
406.24	1820.94
406.43	2026.90
406.62	1998.82
406.81	2008.18
407.00	1963.71
407.20	1947.33
407.39	2054.99
407.58	1959.03
407.77	2172.02
407.96	2057.33
408.15	2031.58
408.34	2073.71
408.54	2221.17
408.73	2050.31
408.92	2209.47
409.11	2108.82
409.30	2368.62
409.49	2251.60
409.68	2162.66
409.87	2146.27
410.07	2246.91
410.26	2363.94
410.45	2277.34
410.64	2375.64
410.83	2427.14
411.02	2282.02
411.21	2417.77
411.40	2445.86
411.59	2532.46
411.78	2555.86
411.98	2595.65
412.17	2546.50
412.36	2434.16
412.55	2471.61
412.74	2647.15
412.93	2700.98
413.12	2619.06
413.31	2867.16
413.50	2705.66
413.69	2717.36
413.88	2801.62
414.07	2693.96
414.26	2771.19
414.45	2825.03
414.64	2810.98
414.83	2876.52
415.02	2883.54
415.22	2862.48
415.41	3028.65
415.60	2967.80
415.79	2998.23
415.98	3030.99
416.17	3019.29
416.36	3066.10
416.55	3042.70
416.74	3183.13
416.93	3112.91
417.12	3026.31
417.31	3096.53
417.50	3159.72
417.69	3323.56
417.88	3288.45
418.07	3344.63
418.26	3260.37
418.45	3232.28
418.64	3375.05
418.83	3618.47
419.02	3520.17
419.21	3440.59
419.39	3541.23
419.58	3414.84
419.77	3382.07
419.96	3522.51
420.15	3473.36
420.34	3492.08
420.53	3543.57
420.72	3719.11
420.91	3651.24
421.10	3693.37
421.29	3789.33
421.48	3595.06
421.67	3684.00
421.86	3555.27
422.05	3714.43
422.24	3646.55
422.43	3672.30
422.61	3590.38
422.80	3857.20
422.99	3620.81
423.18	3691.02
423.37	3850.18
423.56	3808.05
423.75	3761.24
423.94	3674.64
424.13	3651.24
424.32	3625.49
424.50	3651.24
424.69	4023.38
424.88	3847.84
425.07	3744.86
425.26	3740.18
425.45	3808.05
425.64	3765.92
425.83	3864.22
426.01	3758.90
426.20	3744.86
426.39	3941.46
426.58	3817.41
426.77	3744.86
426.96	3786.99
427.15	3894.65
427.33	3861.88
427.52	3936.78
427.71	3873.59
427.90	3871.25
428.09	4070.19
428.28	3981.25
428.46	4002.32
428.65	4086.58
428.84	4112.32
429.03	4142.75
429.22	3995.29
429.40	4053.81
429.59	3976.57
429.78	3772.94
429.97	3789.33
430.16	3936.78
430.34	3967.21
430.53	4154.45
430.72	4077.21
430.91	4079.55
431.10	4276.16
431.28	4329.99
431.47	4547.66
431.66	4622.56
431.85	4351.06
432.03	4383.82
432.22	4395.53
432.41	4526.60
432.60	4451.70
432.79	4554.68
432.97	4608.51
433.16	4507.87
433.35	4519.57
433.54	4634.26
433.72	4510.21
433.91	4465.74
434.10	4664.69
434.28	4552.34
434.47	4727.88
434.66	4816.82
434.85	4788.74
435.03	4671.71
435.22	4795.76
435.41	5025.13
435.59	4753.63
435.78	4882.36
435.97	4873.00
436.16	4917.47
436.34	5029.81
436.53	4851.93
436.72	5043.85
436.90	4816.82
437.09	5088.32
437.28	4924.49
437.46	4887.04
437.65	5004.07
437.84	5011.09
438.02	4912.78
438.21	4858.95
438.40	4990.02
438.58	5163.22
438.77	5277.91
438.96	5373.87
439.14	5315.36
439.33	5383.23
439.52	5465.15
439.70	5668.78
439.89	5490.90
440.08	5504.94
440.26	5542.39
440.45	5472.17
440.63	5603.24
440.82	5753.04
441.01	5774.10
441.19	5701.54
441.38	5778.78
441.57	5706.23
441.75	5863.04
441.94	6073.69
442.12	5867.72
442.31	6118.16
442.50	6040.92
442.68	5977.73
442.87	6115.82
443.05	6111.14
443.24	6183.70
443.43	6113.48
443.61	6047.94
443.80	6328.81
443.98	6181.35
444.17	5916.87
444.35	6118.16
444.54	6422.43
444.73	6164.97
444.91	6143.91
445.10	6150.93
445.28	6122.84
445.47	6153.27
445.65	6150.93
445.84	6235.19
446.02	6314.77
446.21	6340.51
446.39	6274.98
446.58	6413.07
446.77	6342.85
446.95	6265.61
447.14	6509.03
447.32	6466.90
447.51	6270.30
447.69	6429.45
447.88	6506.69
448.06	6422.43
448.25	6438.81
448.43	6410.73
448.62	6436.47
448.80	6431.79
448.99	6567.54
449.17	6686.91
449.36	6654.14
449.54	6747.76
449.73	6937.35
449.91	6841.39
450.10	6745.42
450.28	6855.43
450.46	6981.82
450.65	7070.76
450.83	6846.07
451.02	6815.64
451.20	6906.92
451.39	6939.69
451.57	7014.59
451.76	6874.15
451.94	6953.73
452.13	6967.77
452.31	6904.58
452.49	6614.35
452.68	6827.34
452.86	7082.46
453.05	7248.64
453.23	7014.59
453.42	7021.61
453.60	6988.84
453.78	7026.29
453.97	7159.70
454.15	7290.77
454.34	6986.50
454.52	7096.50
454.70	7229.91
454.89	7243.96
455.07	7227.57
455.26	7400.77
455.44	7403.11
455.62	7342.26
455.81	7400.77
455.99	7482.69
456.17	7634.83
456.36	7585.68
456.54	7609.08
456.73	7571.63
456.91	7744.83
457.09	7763.56
457.28	7918.03
457.46	7756.54
457.64	7705.04
457.83	7868.88
458.01	7655.89
458.19	7826.75
458.38	7819.73
458.56	7995.27
458.74	7936.76
458.93	7866.54
459.11	8011.65
459.29	8173.15
459.48	7817.39
459.66	8079.53
459.84	8226.98
460.03	8194.22
460.21	8114.64
460.39	8297.20
460.57	8273.79
460.76	8138.04
460.94	8210.60
461.12	8374.44
461.31	8425.93
461.49	8250.39
461.67	8414.23
461.85	8603.81
462.04	8432.95
462.22	9013.40
462.40	8800.41
462.59	8566.36
462.77	8521.89
462.95	8762.97
463.13	8402.52
463.32	8554.66
463.50	8676.37
463.68	8599.13
463.86	8594.45
464.05	8571.04
464.23	8732.54
464.41	8765.31
464.59	8599.13
464.78	8702.11
464.96	8730.20
465.14	8720.84
465.32	8985.32
465.50	8898.72
465.69	8947.87
465.87	8889.35
466.05	8762.97
466.23	9018.08
466.41	8868.29
466.60	8943.19
466.78	8950.21
466.96	8788.71
467.14	8975.95
467.32	9167.88
467.51	9125.75
467.69	8875.31
467.87	9195.96
468.05	9355.12
468.23	9221.71
468.41	9184.26
468.60	9135.11
468.78	9432.36
468.96	9163.20
469.14	9453.42
469.32	9451.08
469.50	9296.61
469.69	9432.36
469.87	9504.92
470.05	9430.02
470.23	9430.02
470.41	9518.96
470.59	9612.58
470.77	9432.36
470.95	9610.24
471.14	9809.19
471.32	9741.31
471.50	9933.23
471.68	9844.29
471.86	10097.07
472.04	10010.47
472.22	10113.45
472.40	9923.87
472.58	9872.38
472.77	10094.73
472.95	10321.76
473.13	10539.43
473.31	10026.86
473.49	10068.98
473.67	10232.82
473.85	10391.98
474.03	10574.54
474.21	10789.87
474.39	10707.95
474.57	10401.34
474.75	10707.95
474.93	11073.07
475.12	10920.94
475.30	10658.80
475.48	10614.33
475.66	10920.94
475.84	10958.39
476.02	11056.69
476.20	10810.93
476.38	11438.20
476.56	11468.62
476.74	11501.39
476.92	11356.28
477.10	11475.65
477.28	11496.71
477.46	11552.88
477.64	11571.61
477.82	11878.22
478.00	12084.19
478.18	12044.40
478.36	12114.61
478.54	12362.71
478.72	12498.46
478.90	12517.18
479.08	12554.63
479.26	12741.88
479.44	12634.21
479.62	12961.89
479.80	12961.89
479.98	12952.52
480.16	13425.31
480.34	13055.51
480.52	13331.69
480.70	13371.48
480.88	13205.30
481.06	13455.74
481.24	13579.79
481.41	13415.95
481.59	14005.77
481.77	14141.52
481.95	14207.05
482.13	13940.23
482.31	14185.99
482.49	14417.70
482.67	14352.16
482.85	14382.59
483.03	14476.21
483.21	14862.40
483.39	15194.76
483.57	14944.32
483.74	15000.49
483.92	15314.13
484.10	15169.01
484.28	15559.88
484.46	15344.55
484.64	15917.98
484.82	15866.49
485.00	15878.19
485.18	16149.70
485.35	16102.89
485.53	15995.22
485.71	15641.80
485.89	16121.61
486.07	16133.31
486.25	16365.03
486.43	16664.61
486.61	16662.27
486.78	16758.24
486.96	17076.55
487.14	17261.45
487.32	17598.49
487.50	17465.08
487.68	17488.48
487.85	17970.63
488.03	18148.51
488.21	18235.11
488.39	17998.72
488.57	18200.01
488.75	18380.23
488.92	18635.35
489.10	18654.07
489.28	18944.30
489.46	19206.44
489.64	19201.76
489.81	19489.64
489.99	19634.75
490.17	19618.37
490.35	19655.82
490.53	19906.26
490.70	19908.60
490.88	19861.79
491.06	20556.93
491.24	19929.66
491.41	20065.41
491.59	20570.97
491.77	20641.18
491.95	20346.28
492.13	20711.40
492.30	21083.55
492.48	21074.18
492.66	21003.97
492.84	21441.65
493.01	21593.78
493.19	21326.96
493.37	21790.39
493.54	21741.24
493.72	21841.88
493.90	21603.14
494.08	22106.36
494.25	22380.20
494.43	22438.72
494.61	22614.26
494.79	23037.89
494.96	22817.88
495.14	22679.79
495.32	22703.20
495.49	22960.66
495.67	22995.76
495.85	23702.61
496.02	23592.60
496.20	23814.95
496.38	24025.60
496.55	23964.75
496.73	24098.16
496.91	24208.16
497.09	24004.53
497.26	24538.18
497.44	24694.99
497.62	24390.72
497.79	25003.94
497.97	24828.40
498.14	25223.95
498.32	24952.45
498.50	24786.27
498.67	25659.29
498.85	25163.10
499.03	25493.12
499.20	25621.84
499.38	25572.69
499.56	25640.57
499.73	25813.77
499.91	25586.74
500.08	26302.94
500.26	25771.64
500.44	25785.68
500.61	26183.57
500.79	26066.55
500.97	26099.31
501.14	26700.83
501.32	26728.92
501.49	26410.60
501.67	26728.92
501.84	27030.85
502.02	26494.86
502.20	27241.50
502.37	27084.68
502.55	27070.64
502.72	27510.66
502.90	27440.44
503.07	27300.01
503.25	27927.27
503.43	27271.92
503.60	27513.00
503.78	27632.36
503.95	27866.42
504.13	27716.62
504.30	27971.74
504.48	27981.10
504.65	28531.13
504.83	28292.40
505.01	28400.06
505.18	28545.17
505.36	28720.71
505.53	28863.49
505.71	28945.41
505.88	29017.96
506.06	28886.89
506.23	28868.17
506.41	28973.49
506.58	29118.60
506.76	29448.62
506.93	29109.24
507.11	29773.95
507.28	29600.76
507.46	29280.10
507.63	29362.02
507.81	29579.69
507.98	29553.94
508.16	29680.33
508.33	29876.94
508.50	30029.07
508.68	29907.37
508.85	30361.43
509.03	30246.74
509.20	30588.46
509.38	30981.67
509.55	30991.03
509.73	30593.14
509.90	30785.07
510.08	30501.86
510.25	30857.62
510.42	30951.24
510.60	31180.62
510.77	31391.26
510.95	31204.02
511.12	30902.09
511.30	31496.59
511.47	31620.64
511.64	31803.20
511.82	31850.01
511.99	31260.20
512.17	31835.97
512.34	31323.39
512.51	32130.87
512.69	31964.70
512.86	32168.32
513.04	32194.07
513.21	32065.34
513.38	32275.99
513.56	32154.28
513.73	32594.30
513.90	32559.19
514.08	32187.05
514.25	32671.54
514.43	32238.54
514.60	32472.59
514.77	32629.41
514.95	33104.54
515.12	32966.45
515.29	32779.20
515.47	33584.35
515.64	33432.21
515.81	33151.35
515.99	33457.96
516.16	33212.20
516.33	33144.33
516.51	33013.26
516.68	32730.05
516.85	33167.73
517.03	33209.86
517.20	33132.62
517.37	34291.19
517.54	33731.80
517.72	33958.83
517.89	33694.35
518.06	33970.54
518.24	33483.70
518.41	33619.46
518.58	34017.35
518.75	34059.48
518.93	34473.75
519.10	34492.47
519.27	34387.15
519.45	34284.17
519.62	34609.50
519.79	34263.10
519.96	35196.98
520.14	35143.14
520.31	34352.04
520.48	35122.08
520.65	35332.73
520.83	35826.58
521.00	35047.18
521.17	35316.34
521.34	35381.88
521.52	35742.32
521.69	35428.69
521.86	35810.20
522.03	35325.71
522.20	35517.63
522.38	35431.03
522.55	35796.15
522.72	35566.78
522.89	35660.40
523.07	36156.60
523.24	35903.82
523.41	36208.09
523.58	35735.30
523.75	36776.84
523.92	36666.83
524.10	36470.23
524.27	36737.05
524.44	36470.23
524.61	36662.15
524.78	36776.84
524.96	36598.96
525.13	37179.41
525.30	37539.85
525.47	37336.23
525.64	36999.19
525.81	37134.94
525.98	37401.76
526.16	36844.71
526.33	36774.50
526.50	37034.30
526.67	36538.10
526.84	37333.89
527.01	36994.51
527.18	37333.89
527.36	37511.77
527.53	37755.18
527.70	38099.24
527.87	37989.24
528.04	37640.50
528.21	37785.61
528.38	38202.22
528.55	38354.36
528.72	38000.94
528.89	38134.35
529.07	38057.11
529.24	38330.95
529.41	38583.73
529.58	38082.86
529.75	38637.56
529.92	38375.42
530.09	38436.28
530.26	38422.23
530.43	38480.75
530.60	38663.31
530.77	38880.98
530.94	39030.77
531.11	39269.51
531.28	38899.70
531.46	39196.95
531.63	39208.65
531.80	38953.54
531.97	39194.61
532.14	39243.76
532.31	38745.23
532.48	38969.92
532.65	39157.16
532.82	38909.07
532.99	39526.97
533.16	39044.82
533.33	39615.91
533.50	39744.64
533.67	39592.50
533.84	39227.38
534.01	39573.78
534.18	39798.47
534.35	39690.80
534.52	39833.58
534.69	40060.61
534.86	39936.56
535.03	39587.82
535.20	40048.91
535.37	40182.32
535.54	40449.14
535.71	40182.32
535.88	40060.61
536.05	40067.63
536.22	39906.13
536.38	40311.05
536.55	40247.85
536.72	39765.70
536.89	40194.02
537.06	40144.87
537.23	40381.26
537.40	40430.41
537.57	40554.46
537.74	40486.59
537.91	41057.68
538.08	40996.82
538.25	40528.72
538.42	40690.21
538.59	41036.61
538.75	40739.36
538.92	40587.23
539.09	40849.37
539.26	41127.89
539.43	40989.80
539.60	41200.45
539.77	40870.43
539.94	41172.36
540.11	40849.37
540.28	41090.44
540.44	40697.24
540.61	40863.41
540.78	40957.03
540.95	41193.43
541.12	41160.66
541.29	41177.04
541.46	41502.38
541.62	41483.66
541.79	41755.16
541.96	41148.96
542.13	41715.37
542.30	41734.09
542.47	41769.20
542.63	41280.03
542.80	41949.42
542.97	41792.61
543.14	42012.62
543.31	42536.90
543.48	42513.49
543.64	42656.26
543.81	42490.09
543.98	42260.71
544.15	42146.03
544.32	42391.78
544.48	42588.39
544.65	42670.31
544.82	42813.08
544.99	41684.94
545.16	42302.84
545.32	42642.22
545.49	42691.37
545.66	42557.96
545.83	42761.59
546.00	43192.25
546.16	42782.65
546.33	42742.86
546.50	42733.50
546.67	42831.80
546.83	42377.74
547.00	42731.16
547.17	42710.10
547.34	42667.97
547.50	42916.06
547.67	43019.05
547.84	42878.61
548.00	43086.92
548.17	43393.53
548.34	42951.17
548.51	43332.68
548.67	43489.49
548.84	43737.59
549.01	43044.79
549.18	43175.86
549.34	43367.79
549.51	43395.87
549.68	43531.62
549.84	43730.57
550.01	43665.03
550.18	43175.86
550.34	43550.35
550.51	43791.42
550.68	43629.93
550.84	43641.63
551.01	43611.20
551.18	43669.72
551.34	44030.16
551.51	43753.97
551.68	43679.08
551.84	43936.54
552.01	43896.75
552.18	43838.23
552.34	43716.53
552.51	43913.13
552.68	43716.53
552.84	44083.99
553.01	44201.02
553.18	43983.35
553.34	44385.92
553.51	43868.66
553.67	44282.94
553.84	44488.90
554.01	44634.02
554.17	44374.22
554.34	44495.92
554.51	44566.14
554.67	44205.70
554.84	44397.62
555.00	44568.48
555.17	44165.91
555.33	44205.70
555.50	44741.68
555.67	44432.73
555.83	44619.97
556.00	44243.15
556.16	44928.92
556.33	44772.11
556.50	44856.37
556.66	44802.53
556.83	44275.91
556.99	44669.12
557.16	44889.13
557.32	44540.39
557.49	44601.25
557.65	44910.20
557.82	44465.50
557.98	44655.08
558.15	44816.58
558.32	44746.36
558.48	44449.11
558.65	44624.65
558.81	44505.29
558.98	44786.15
559.14	45024.89
559.31	44540.39
559.47	44879.77
559.64	45029.57
559.80	45282.34
559.97	45144.25
560.13	45202.77
560.30	44790.83
560.46	44776.79
560.63	45275.32
560.79	45261.28
560.96	44987.44
561.12	45368.94
561.29	45312.77
561.45	45195.74
561.61	45172.34
561.78	45436.82
561.94	45584.27
562.11	45167.66
562.27	45233.19
562.44	45272.98
562.60	45282.34
562.77	45450.86
562.93	44835.30
563.10	45928.33
563.26	45429.80
563.42	45429.80
563.59	45256.60
563.75	45481.29
563.92	45298.73
564.08	45429.80
564.24	45478.95
564.41	45696.62
564.57	45343.20
564.74	44928.92
564.90	45214.47
565.07	45378.31
565.23	45230.85
565.39	45457.88
565.56	45736.41
565.72	45408.73
565.88	45240.21
566.05	45301.07
566.21	45364.26
566.38	45375.97
566.54	45918.97
566.70	45806.62
566.87	45893.22
567.03	45703.64
567.19	45937.69
567.36	45624.06
567.52	45521.08
567.68	45832.37
567.85	45792.58
568.01	45258.94
568.17	45586.61
568.34	45591.30
568.50	45565.55
568.66	45504.70
568.83	45532.78
568.99	45682.58
569.15	45551.51
569.32	45462.57
569.48	45883.86
569.64	46078.13
569.81	45972.80
569.97	45991.53
570.13	45923.65
570.30	45771.52
570.46	45366.60
570.62	45727.05
570.78	45249.58
570.95	45588.95
571.11	45687.26
571.27	45804.28
571.43	45848.75
571.60	45823.01
571.76	45640.45
571.92	45563.21
572.09	45914.29
572.25	46155.36
572.41	45581.93
572.57	45673.21
572.74	46394.10
572.90	46366.01
573.06	46192.81
573.22	45940.04
573.38	46211.54
573.55	45535.12
573.71	46021.95
573.87	45778.54
574.03	45411.07
574.20	45776.20
574.36	45787.90
574.52	45673.21
574.68	46169.41
574.84	45837.05
575.01	45668.53
575.17	45612.36
575.33	45291.71
575.49	45612.36
575.65	46447.93
575.82	46394.10
575.98	45823.01
576.14	46122.60
576.30	45738.75
576.46	45713.00
576.62	46106.21
576.79	45705.98
576.95	45628.74
577.11	45832.37
577.27	45918.97
577.43	46019.61
577.59	46162.39
577.75	45874.50
577.92	45511.72
578.08	45202.77
578.24	45471.93
578.40	45736.41
578.56	45947.06
578.72	46036.00
578.88	45834.71
579.04	45862.80
579.21	45801.94
579.37	45830.03
579.53	45989.19
579.69	45879.18
579.85	46260.69
580.01	46256.01
580.17	46007.91
580.33	46396.44
580.49	45949.40
580.65	46471.34
580.82	46239.62
580.98	46129.62
581.14	45907.27
581.30	46075.79
581.46	46419.84
581.62	46150.68
581.78	46457.29
581.94	46239.62
582.10	46206.86
582.26	46197.49
582.42	46019.61
582.58	46291.12
582.74	46071.10
582.90	46028.98
583.06	46291.12
583.22	46445.59
583.38	46403.46
583.54	46110.89
583.70	46113.23
583.86	46267.71
584.02	45640.45
584.18	45874.50
584.34	46120.26
584.50	46092.17
584.66	46349.63
584.82	46277.07
584.98	46216.22
585.14	46211.54
585.30	46377.72
585.46	46202.18
585.62	45771.52
585.78	46267.71
585.94	45914.29
586.10	45715.34
586.26	45574.91
586.42	46138.98
586.58	46351.97
586.74	46129.62
586.90	45930.67
587.06	45958.76
587.22	46433.89
587.38	46103.87
587.54	46239.62
587.70	45839.39
587.86	46314.52
588.02	45949.40
588.18	46452.61
588.34	45893.22
588.49	45975.14
588.65	45268.30
588.81	45834.71
588.97	45862.80
589.13	45914.29
589.29	45764.49
589.45	45925.99
589.61	46160.05
589.77	46382.40
589.93	45986.85
590.08	46181.11
