SpectraSuite Data File
++++++++++++++++++++++++++++++++++++
Date: Fri Oct 25 11:26:00 EDT 2013
User: price-jones
Dark Spectrum Present: No
Reference Spectrum Present: No
Number of Sampled Component Spectra: 1
Spectrometers: USB2+H05261
Integration Time (usec): 100000 (USB2+H05261)
Spectra Averaged: 1 (USB2+H05261)
Boxcar Smoothing: 0 (USB2+H05261)
Correct for Electrical Dark: No (USB2+H05261)
Strobe/Lamp Enabled: No (USB2+H05261)
Correct for Detector Non-linearity: No (USB2+H05261)
Correct for Stray Light: No (USB2+H05261)
Number of Pixels in Processed Spectrum: 2048
>>>>>Begin Processed Spectral Data<<<<<
365.73	224.69
365.92	224.69
366.12	224.69
366.32	161.50
366.52	128.73
366.72	210.65
366.91	131.07
367.11	173.20
367.31	156.82
367.51	98.30
367.70	191.92
367.90	163.84
368.10	81.92
368.30	189.58
368.49	128.73
368.69	196.60
368.89	203.63
369.09	161.50
369.28	166.18
369.48	135.75
369.68	161.50
369.87	212.99
370.07	189.58
370.27	273.84
370.47	301.93
370.66	587.47
370.86	603.86
371.06	681.10
371.25	720.88
371.45	671.73
371.65	631.94
371.84	739.61
372.04	741.95
372.24	627.26
372.44	765.36
372.63	765.36
372.83	816.85
373.03	739.61
373.22	741.95
373.42	741.95
373.62	748.97
373.81	821.53
374.01	835.57
374.21	814.51
374.40	777.06
374.60	882.38
374.79	753.65
374.99	793.44
375.19	863.66
375.38	863.66
375.58	812.17
375.78	849.61
375.97	915.15
376.17	922.17
376.37	894.08
376.56	922.17
376.76	894.08
376.95	889.40
377.15	933.87
377.35	898.77
377.54	931.53
377.74	837.91
377.93	952.60
378.13	961.96
378.33	954.94
378.52	938.55
378.72	983.02
378.91	992.39
379.11	954.94
379.31	961.96
379.50	1020.47
379.70	940.90
379.89	947.92
380.09	987.71
380.28	908.13
380.48	978.34
380.68	919.83
380.87	1001.75
381.07	1050.90
381.26	1001.75
381.46	1020.47
381.65	978.34
381.85	1081.33
382.04	1057.92
382.24	1020.47
382.43	1109.41
382.63	990.05
382.83	1071.97
383.02	1069.62
383.22	1118.78
383.41	1064.94
383.61	1144.52
383.80	1090.69
384.00	1062.60
384.19	1109.41
384.39	1109.41
384.58	1116.44
384.78	1172.61
384.97	1132.82
385.17	1193.67
385.36	1121.12
385.56	1137.50
385.75	1158.57
385.95	1249.85
386.14	1228.78
386.34	1277.93
386.53	1191.33
386.72	1240.48
386.92	1242.82
387.11	1287.29
387.31	1261.55
387.50	1270.91
387.70	1291.98
387.89	1207.72
388.09	1210.06
388.28	1245.16
388.48	1343.47
388.67	1256.87
388.86	1331.76
389.06	1327.08
389.25	1369.21
389.45	1364.53
389.64	1273.25
389.84	1324.74
390.03	1423.05
390.22	1490.92
390.42	1329.42
390.61	1378.58
390.81	1444.11
391.00	1432.41
391.19	1416.02
391.39	1390.28
391.58	1416.02
391.78	1399.64
391.97	1521.35
392.16	1533.05
392.36	1547.09
392.55	1593.90
392.75	1605.61
392.94	1572.84
393.13	1572.84
393.33	1521.35
393.52	1504.96
393.71	1593.90
393.91	1568.16
394.10	1673.48
394.29	1558.80
394.49	1575.18
394.68	1675.82
394.88	1596.25
395.07	1689.87
395.26	1565.82
395.46	1654.76
395.65	1692.21
395.84	1748.38
396.04	1767.10
396.23	1739.02
396.42	1748.38
396.62	1797.53
396.81	1750.72
397.00	1781.15
397.19	1778.81
397.39	1823.28
397.58	1771.79
397.77	1629.01
397.97	1785.83
398.16	1802.21
398.35	1912.22
398.55	1806.89
398.74	1933.28
398.93	1970.73
399.12	1970.73
399.32	1907.54
399.51	1956.69
399.70	2122.87
399.90	1909.88
400.09	2097.12
400.28	2069.03
400.47	2094.78
400.67	2045.63
400.86	2019.88
401.05	2033.93
401.24	2172.02
401.44	2169.68
401.63	2143.93
401.82	2106.48
402.01	2150.95
402.21	2148.61
402.40	2228.19
402.59	2120.53
402.78	2204.78
402.97	2214.15
403.17	2282.02
403.36	2296.07
403.55	2340.54
403.74	2377.98
403.93	2401.39
404.13	2293.72
404.32	2303.09
404.51	2427.14
404.70	2436.50
404.89	2314.79
405.09	2483.31
405.28	2469.27
405.47	2445.86
405.66	2422.45
405.85	2579.27
406.05	2480.97
406.24	2527.78
406.43	2546.50
406.62	2532.46
406.81	2712.68
407.00	2619.06
407.20	2492.67
407.39	2569.91
407.58	2726.72
407.77	2736.09
407.96	2738.43
408.15	2808.64
408.34	2829.71
408.54	2799.28
408.73	2782.90
408.92	2712.68
409.11	2761.83
409.30	3033.33
409.49	2881.20
409.68	2888.22
409.87	2925.67
410.07	3033.33
410.26	2946.73
410.45	2918.65
410.64	3021.63
410.83	3145.68
411.02	3136.32
411.21	3180.79
411.40	3131.64
411.59	3187.81
411.78	3183.13
411.98	3229.94
412.17	3379.73
412.36	3232.28
412.55	3236.96
412.74	3342.28
412.93	3368.03
413.12	3389.10
413.31	3606.77
413.50	3428.88
413.69	3400.80
413.88	3667.62
414.07	3606.77
414.26	3538.89
414.45	3693.37
414.64	3552.93
414.83	3634.85
415.02	3688.68
415.22	3709.75
415.41	3920.40
415.60	3906.35
415.79	3983.59
415.98	3997.64
416.17	3913.38
416.36	3997.64
416.55	3943.80
416.74	4004.66
416.93	4095.94
417.12	3985.93
417.31	4084.23
417.50	4203.60
417.69	4313.61
417.88	4311.27
418.07	4292.54
418.26	4362.76
418.45	4383.82
418.64	4320.63
418.83	4491.49
419.02	4404.89
419.21	4458.72
419.39	4545.32
419.58	4505.53
419.77	4402.55
419.96	4547.66
420.15	4477.44
420.34	4606.17
420.53	4559.36
420.72	4795.76
420.91	4772.35
421.10	4777.03
421.29	4770.01
421.48	4669.37
421.67	4751.29
421.86	4770.01
422.05	4837.89
422.24	4884.70
422.43	4840.23
422.61	4957.25
422.80	4940.87
422.99	5027.47
423.18	4922.15
423.37	4968.96
423.56	4898.74
423.75	4924.49
423.94	4760.65
424.13	4643.62
424.32	4760.65
424.50	4985.34
424.69	5200.67
424.88	5057.90
425.07	4915.12
425.26	4858.95
425.45	4922.15
425.64	4880.02
425.83	5085.98
426.01	5130.45
426.20	5013.43
426.39	5064.92
426.58	4947.89
426.77	5083.64
426.96	5109.39
427.15	5067.26
427.33	5240.46
427.52	5060.24
427.71	5352.81
427.90	5270.89
428.09	5210.03
428.28	5338.76
428.46	5476.85
428.65	5390.25
428.84	5565.79
429.03	5607.92
429.22	5303.65
429.40	5437.06
429.59	5547.07
429.78	5516.64
429.97	5490.90
430.16	5458.13
430.34	5626.65
430.53	5703.89
430.72	5870.06
430.91	5528.35
431.10	5544.73
431.28	5734.31
431.47	5844.32
431.66	5961.34
431.85	5797.51
432.03	5961.34
432.22	6029.22
432.41	5802.19
432.60	5902.83
432.79	6005.81
432.97	5926.24
433.16	5961.34
433.35	6019.86
433.54	6164.97
433.72	6157.95
433.91	6099.44
434.10	6235.19
434.28	6122.84
434.47	6113.48
434.66	6251.57
434.85	6256.25
435.03	6267.95
435.22	6242.21
435.41	6434.13
435.59	6342.85
435.78	6310.08
435.97	6640.10
436.16	6354.55
436.34	6569.88
436.53	6347.53
436.72	6628.40
436.90	6565.20
437.09	6487.96
437.28	6527.75
437.46	6682.23
437.65	6569.88
437.84	6698.61
438.02	6665.85
438.21	6668.19
438.40	6740.74
438.58	7040.33
438.77	6902.24
438.96	6848.41
439.14	7215.87
439.33	7204.17
439.52	7225.23
439.70	7225.23
439.89	7377.37
440.08	7389.07
440.26	7342.26
440.45	7295.45
440.63	7524.82
440.82	7627.81
441.01	7363.33
441.19	7618.44
441.38	7779.94
441.57	7836.11
441.75	7843.14
441.94	7985.91
442.12	7866.54
442.31	7927.39
442.50	8004.63
442.68	7871.22
442.87	8006.97
443.05	8006.97
443.24	8088.89
443.43	8032.72
443.61	8142.72
443.80	8404.86
443.98	7990.59
444.17	7866.54
444.35	8234.00
444.54	8271.45
444.73	8327.63
444.91	8259.75
445.10	8219.96
445.28	8285.50
445.47	8116.98
445.65	8489.12
445.84	8531.25
446.02	8329.97
446.21	8241.03
446.39	8374.44
446.58	8552.32
446.77	8482.10
446.95	8219.96
447.14	8315.92
447.32	8416.57
447.51	8528.91
447.69	8369.76
447.88	8514.87
448.06	8468.06
448.25	8294.86
448.43	8358.05
448.62	8542.96
448.80	8435.29
448.99	8723.18
449.17	8720.84
449.36	8575.72
449.54	8713.81
449.73	8952.55
449.91	8973.61
450.10	9111.71
450.28	9074.26
450.46	9107.02
450.65	9039.15
450.83	9100.00
451.02	9095.32
451.20	9343.42
451.39	9067.24
451.57	9165.54
451.76	9088.30
451.94	9078.94
452.13	9308.31
452.31	9280.22
452.49	9266.18
452.68	9572.79
452.86	9270.86
453.05	9453.42
453.23	9605.56
453.42	9312.99
453.60	9242.78
453.78	9514.28
453.97	9291.93
454.15	9561.09
454.34	9481.51
454.52	9809.19
454.70	9535.34
454.89	9865.36
455.07	9654.71
455.26	9750.67
455.44	9926.21
455.62	9977.70
455.81	9848.97
455.99	10036.22
456.17	9998.77
456.36	10085.37
456.54	10296.02
456.73	10298.36
456.91	10747.74
457.09	10406.02
457.28	10597.95
457.46	10169.63
457.64	10469.22
457.83	10499.64
458.01	10340.49
458.19	10707.95
458.38	10466.88
458.56	10974.77
458.74	10443.47
458.93	10843.70
459.11	10745.40
459.29	10740.72
459.48	10986.47
459.66	11030.94
459.84	10792.21
460.03	11007.54
460.21	10731.36
460.39	11094.14
460.57	10878.81
460.76	10764.12
460.94	11049.67
461.12	11103.50
461.31	11382.03
461.49	11384.37
461.67	11166.70
461.85	11239.25
462.04	11037.97
462.22	11882.90
462.40	11742.47
462.59	11651.19
462.77	11449.90
462.95	11555.22
463.13	11688.64
463.32	11538.84
463.50	11648.85
463.68	11796.30
463.86	11730.76
464.05	11529.48
464.23	11726.08
464.41	11826.73
464.59	11613.74
464.78	11960.14
464.96	12065.46
465.14	11997.59
465.32	12025.67
465.50	12086.53
465.69	12131.00
465.87	12299.52
466.05	12168.45
466.23	12140.36
466.41	12444.63
466.60	12524.21
466.78	12163.76
466.96	12290.15
467.14	12217.60
467.32	12367.39
467.51	12535.91
467.69	12147.38
467.87	12393.14
468.05	12379.09
468.23	12311.22
468.41	12332.28
468.60	12479.74
468.78	12765.28
468.96	12690.38
469.14	12704.43
469.32	12638.89
469.50	12418.88
469.69	12901.03
469.87	13280.20
470.05	13069.55
470.23	13001.68
470.41	13034.44
470.59	13329.35
470.77	13256.79
470.95	13116.36
471.14	13441.70
471.32	13294.24
471.50	13565.74
471.68	13495.53
471.86	13415.95
472.04	13944.91
472.22	13982.36
472.40	13554.04
472.58	13930.87
472.77	13975.34
472.95	14134.50
473.13	14541.75
473.31	13977.68
473.49	14223.44
473.67	14015.13
473.85	14464.51
474.03	14661.12
474.21	14436.42
474.39	14768.78
474.57	14611.96
474.75	14965.39
474.93	14911.55
475.12	14883.47
475.30	14965.39
475.48	15047.30
475.66	14963.04
475.84	15131.56
476.02	15304.76
476.20	15169.01
476.38	15681.59
476.56	16126.29
476.74	15761.17
476.92	15908.62
477.10	15861.81
477.28	16086.50
477.46	16116.93
477.64	16180.12
477.82	16615.46
478.00	16847.18
478.18	16767.60
478.36	16781.64
478.54	17202.94
478.72	17083.57
478.90	17493.16
479.08	17638.28
479.26	17813.82
479.44	17743.60
479.62	17928.50
479.80	17963.61
479.98	18113.41
480.16	18649.39
480.34	18333.42
480.52	18501.93
480.70	18761.73
480.88	18436.40
481.06	18553.43
481.24	18473.85
481.41	19101.11
481.59	19714.33
481.77	19463.90
481.95	19276.65
482.13	19719.01
482.31	19859.45
482.49	20201.16
482.67	19976.47
482.85	20673.95
483.03	20482.03
483.21	20779.28
483.39	20985.24
483.57	20690.34
483.74	21095.25
483.92	21188.87
484.10	21254.40
484.28	21759.96
484.46	21750.60
484.64	22122.74
484.82	21947.20
485.00	22412.97
485.18	22876.40
485.35	22670.43
485.53	22480.85
485.71	23190.03
485.89	23658.14
486.07	23267.27
486.25	23309.40
486.43	23442.81
486.61	23873.46
486.78	23999.85
486.96	24149.65
487.14	24599.03
487.32	24460.94
487.50	24872.87
487.68	24584.99
487.85	25380.77
488.03	25221.61
488.21	26068.89
488.39	25516.52
488.57	26164.85
488.75	26167.19
488.92	26455.08
489.10	26909.14
489.28	26466.78
489.46	26918.50
489.64	26859.99
489.81	27604.28
489.99	27527.04
490.17	27208.73
490.35	27992.81
490.53	28123.88
490.70	28142.60
490.88	28776.89
491.06	28900.94
491.24	28306.44
491.41	29118.60
491.59	29209.89
491.77	29151.37
491.95	29453.30
492.13	29703.74
492.30	29916.73
492.48	30064.18
492.66	30312.28
492.84	29874.60
493.01	30831.88
493.19	30471.43
493.37	30808.47
493.54	31433.39
493.72	31475.52
493.90	31255.51
494.08	31360.84
494.25	31749.37
494.43	32063.00
494.61	32112.15
494.79	32393.01
494.96	32367.27
495.14	32650.47
495.32	33041.34
495.49	32823.67
495.67	33024.96
495.85	33153.69
496.02	33682.65
496.20	33900.32
496.38	34033.73
496.55	34078.20
496.73	34785.04
496.91	34501.84
497.09	34663.33
497.26	34473.75
497.44	34974.63
497.62	35075.27
497.79	35711.89
497.97	35461.46
498.14	35718.92
498.32	36135.53
498.50	36271.28
498.67	36367.24
498.85	36444.48
499.03	36430.44
499.20	36439.80
499.38	36753.43
499.56	36699.60
499.73	36994.51
499.91	37317.50
500.08	37434.53
500.26	37254.31
500.44	37415.80
500.61	37471.98
500.79	37766.88
500.97	37968.17
501.14	38298.19
501.32	38696.08
501.49	38223.29
501.67	38735.87
501.84	39108.01
502.02	38878.64
502.20	38768.63
502.37	39283.55
502.55	39133.76
502.72	39236.74
502.90	39552.71
503.07	39407.60
503.25	39901.45
503.43	39847.62
503.60	39835.92
503.78	40205.72
503.95	40275.94
504.13	40369.56
504.30	40669.15
504.48	40105.08
504.65	40428.07
504.83	41247.26
505.01	41053.00
505.18	41539.83
505.36	41556.21
505.53	41116.19
505.71	41364.29
505.88	41799.63
506.06	41701.32
506.23	42003.25
506.41	42101.56
506.58	42103.90
506.76	42036.02
506.93	42370.72
507.11	42178.79
507.28	42377.74
507.46	42396.46
507.63	42895.00
507.81	43187.56
507.98	42567.32
508.16	43225.01
508.33	43346.72
508.50	43234.38
508.68	43601.84
508.85	43835.89
509.03	43690.78
509.20	43952.92
509.38	44566.14
509.55	44500.61
509.73	43882.70
509.90	44210.38
510.08	44573.16
510.25	44683.17
510.42	44631.68
510.60	44811.90
510.77	45132.55
510.95	45081.06
511.12	44861.05
511.30	45223.83
511.47	45375.97
511.64	45249.58
511.82	45762.15
511.99	45738.75
512.17	45846.41
512.34	45907.27
512.51	45911.95
512.69	46223.24
512.86	45933.01
513.04	46700.71
513.21	46171.75
513.38	46873.91
513.56	46674.96
513.73	46724.11
513.90	46841.14
514.08	46611.77
514.25	47124.35
514.43	46974.55
514.60	47494.15
514.77	47700.12
514.95	47601.82
515.12	47592.45
515.29	47627.56
515.47	47835.87
515.64	47990.34
515.81	47587.77
515.99	47760.97
516.16	48385.89
516.33	48114.39
516.51	48823.58
516.68	48486.54
516.85	48409.30
517.03	48683.14
517.20	48905.49
517.37	48601.22
517.54	48720.59
517.72	48612.93
517.89	49195.72
518.06	49499.99
518.24	49272.96
518.41	49146.57
518.58	49205.08
518.75	49207.42
518.93	49399.35
519.10	49413.39
519.27	49638.08
519.45	49743.41
519.62	50199.81
519.79	50087.46
519.96	49942.35
520.14	50148.32
520.31	49977.46
520.48	50064.06
520.65	50124.91
520.83	50611.74
521.00	50651.53
521.17	50473.65
521.34	50621.11
521.52	50773.24
521.69	50801.33
521.86	51194.54
522.03	51065.81
522.20	51229.65
522.38	51217.94
522.55	51271.78
522.72	51208.58
522.89	51316.25
523.07	51536.26
523.24	51428.59
523.41	51505.83
523.58	51332.63
523.75	51800.74
523.92	51594.77
524.10	51819.46
524.27	52193.95
524.44	51966.91
524.61	52102.67
524.78	52067.56
524.96	52154.16
525.13	52224.37
525.30	52341.40
525.47	52624.60
525.64	52399.91
525.81	52292.25
525.98	52486.51
526.16	52381.19
526.33	52549.71
526.50	53134.84
526.67	52739.29
526.84	53081.01
527.01	52879.72
527.18	52807.17
527.36	52870.36
527.53	53022.50
527.70	53186.33
527.87	53263.57
528.04	53216.76
528.21	53464.86
528.38	53209.74
528.55	53277.61
528.72	53441.45
528.89	53268.25
529.07	53254.21
529.24	53514.01
529.41	53556.14
529.58	53712.95
529.75	53581.88
529.92	53656.78
530.09	53621.67
530.26	53553.80
530.43	54038.29
530.60	53792.53
530.77	53736.36
530.94	53963.39
531.11	53968.07
531.28	54094.46
531.46	54087.44
531.63	54436.18
531.80	54162.34
531.97	54445.54
532.14	54330.86
532.31	54312.13
532.48	54468.95
532.65	54618.74
532.82	54403.41
532.99	54555.55
533.16	54588.31
533.33	54714.70
533.50	54646.83
533.67	54747.47
533.84	54653.85
534.01	54749.81
534.18	54852.80
534.35	54824.71
534.52	54941.74
534.69	55215.58
534.86	55152.38
535.03	54693.64
535.20	54997.91
535.37	55220.26
535.54	55250.69
535.71	55028.34
535.88	55484.74
536.05	55400.48
536.22	55674.32
536.38	55206.22
536.55	55559.64
536.72	55444.95
536.89	55405.16
537.06	55587.72
537.23	55674.32
537.40	55227.28
537.57	55671.98
537.74	55943.48
537.91	56004.34
538.08	55723.47
538.25	55611.13
538.42	55744.54
538.59	56060.51
538.75	55903.70
538.92	55931.78
539.09	55980.93
539.26	55887.31
539.43	56044.13
539.60	56055.83
539.77	56306.27
539.94	56364.78
540.11	56261.80
540.28	56460.74
540.44	56484.15
540.61	56537.98
540.78	56362.44
540.95	56533.30
541.12	56292.22
541.29	56474.79
541.46	56577.77
541.62	56587.13
541.79	56694.80
541.96	56355.42
542.13	56622.24
542.30	56622.24
542.47	56608.20
542.63	56802.46
542.80	56804.80
542.97	56800.12
543.14	57165.24
543.31	57237.80
543.48	57270.57
543.64	57106.73
543.81	57415.68
543.98	57368.87
544.15	57263.55
544.32	57324.40
544.48	57640.37
544.65	57148.86
544.82	57490.58
544.99	57183.97
545.16	57497.60
545.32	57429.72
545.49	57640.37
545.66	57738.68
545.83	57602.92
546.00	57724.63
546.16	57570.16
546.33	57588.88
546.50	57406.32
546.67	57668.46
546.83	57333.76
547.00	57755.06
547.17	57324.40
547.34	57719.95
547.50	57874.43
547.67	58099.12
547.84	58141.25
548.00	57993.79
548.17	58052.31
548.34	58232.53
548.51	58305.09
548.67	58298.06
548.84	57928.26
549.01	58033.58
549.18	58202.10
549.34	58300.40
549.51	58185.72
549.68	58265.30
549.84	58277.00
550.01	58248.91
550.18	58251.25
550.34	58234.87
550.51	58410.41
550.68	58288.70
550.84	58094.44
551.01	58344.87
551.18	58384.66
551.34	58578.93
551.51	58445.52
551.68	58358.92
551.84	58412.75
552.01	58305.09
552.18	58543.82
552.34	58347.21
552.51	58438.50
552.68	58564.88
552.84	58527.44
553.01	58838.73
553.18	58939.37
553.34	58829.37
553.51	58452.54
553.67	58892.56
553.84	58866.81
554.01	58944.05
554.17	58766.17
554.34	59044.69
554.51	58969.80
554.67	58969.80
554.84	58918.31
555.00	59086.82
555.17	58944.05
555.33	59058.74
555.50	58717.02
555.67	59105.55
555.83	58866.81
556.00	58885.54
556.16	59367.69
556.33	59140.66
556.50	59068.10
556.66	59428.54
556.83	58932.35
556.99	59304.49
557.16	59473.01
557.32	59311.52
557.49	59512.80
557.65	59344.28
557.82	59311.52
557.98	59379.39
558.15	59440.24
558.32	59491.74
558.48	59330.24
558.65	59292.79
558.81	59461.31
558.98	59669.62
559.14	59536.21
559.31	59447.27
559.47	59643.87
559.64	59725.79
559.80	59587.70
559.97	59650.89
560.13	59835.80
560.30	59590.04
560.46	59592.38
560.63	59709.41
560.79	59735.15
560.96	59690.68
561.12	59770.26
561.29	59756.22
561.45	59891.97
561.61	59962.18
561.78	59690.68
561.94	59723.45
562.11	59931.76
562.27	59671.96
562.44	59875.58
562.60	59934.10
562.77	59863.88
562.93	59824.09
563.10	60156.45
563.26	59877.93
563.42	60004.31
563.59	59901.33
563.75	59870.90
563.92	59994.95
564.08	60006.65
564.24	60151.77
564.41	60013.68
564.57	60104.96
564.74	59927.08
564.90	60114.32
565.07	60006.65
565.23	60034.74
565.39	60289.86
565.56	60116.66
565.72	59903.67
565.88	60081.55
566.05	60102.62
566.21	60001.97
566.38	60200.92
566.54	60170.49
566.70	60315.61
566.87	60331.99
567.03	60214.96
567.19	60210.28
567.36	60346.03
567.52	60037.08
567.68	60458.38
567.85	60303.90
568.01	60556.68
568.17	60292.20
568.34	60296.88
568.50	60170.49
568.66	60198.58
568.83	60313.26
568.99	60126.02
569.15	60268.79
569.32	60266.45
569.48	60231.35
569.64	60601.15
569.81	60301.56
569.97	60371.78
570.13	60446.68
570.30	60467.74
570.46	60439.65
570.62	60552.00
570.78	60383.48
570.95	60402.21
571.11	60575.40
571.27	60315.61
571.43	60411.57
571.60	60530.93
571.76	60322.63
571.92	60390.50
572.09	60313.26
572.25	60514.55
572.41	60287.52
572.57	60610.51
572.74	60954.57
572.90	60563.70
573.06	60769.67
573.22	60537.96
573.38	60626.90
573.55	60535.62
573.71	60556.68
573.87	60673.71
574.03	60509.87
574.20	60828.18
574.36	60591.79
574.52	60739.24
574.68	60786.05
574.84	60601.15
575.01	60804.78
575.17	60591.79
575.33	60631.58
575.49	60317.95
575.65	60832.86
575.82	60624.56
575.98	60779.03
576.14	60891.38
576.30	60790.73
576.46	60535.62
576.62	60598.81
576.79	60804.78
576.95	60418.59
577.11	60678.39
577.27	60676.05
577.43	60954.57
577.59	60594.13
577.75	60533.28
577.92	60701.79
578.08	60788.39
578.24	60767.33
578.40	60914.78
578.56	61059.90
578.72	60734.56
578.88	60860.95
579.04	61099.68
579.21	60612.85
579.37	60919.46
579.53	61031.81
579.69	60566.04
579.85	60746.26
580.01	60828.18
580.17	60697.11
580.33	60828.18
580.49	61146.50
580.65	60774.35
580.82	60924.14
580.98	60706.47
581.14	60671.37
581.30	60973.30
581.46	60816.48
581.62	60846.91
581.78	60807.12
581.94	60753.29
582.10	60856.27
582.26	60849.25
582.42	60886.70
582.58	60844.57
582.74	60945.21
582.90	60783.71
583.06	60722.86
583.22	60718.18
583.38	60858.61
583.54	60956.91
583.70	61069.26
583.86	60853.93
584.02	60968.61
584.18	60921.80
584.34	61031.81
584.50	60823.50
584.66	60919.46
584.82	60544.98
584.98	61038.83
585.14	61073.94
585.30	61020.11
585.46	61160.54
585.62	60968.61
585.78	61071.60
585.94	60701.79
586.10	60907.76
586.26	60961.59
586.42	61043.51
586.58	60954.57
586.74	61024.79
586.90	61045.85
587.06	60903.08
587.22	60975.64
587.38	61169.90
587.54	61214.37
587.70	61130.11
587.86	60907.76
588.02	60973.30
588.18	61183.94
588.34	60994.36
588.49	61165.22
