SpectraSuite Data File
++++++++++++++++++++++++++++++++++++
Date: Fri Oct 25 11:26:27 EDT 2013
User: price-jones
Dark Spectrum Present: No
Reference Spectrum Present: No
Number of Sampled Component Spectra: 1
Spectrometers: USB2+H05261
Integration Time (usec): 100000 (USB2+H05261)
Spectra Averaged: 1 (USB2+H05261)
Boxcar Smoothing: 0 (USB2+H05261)
Correct for Electrical Dark: No (USB2+H05261)
Strobe/Lamp Enabled: No (USB2+H05261)
Correct for Detector Non-linearity: No (USB2+H05261)
Correct for Stray Light: No (USB2+H05261)
Number of Pixels in Processed Spectrum: 2048
>>>>>Begin Processed Spectral Data<<<<<
365.73	257.46
365.92	257.46
366.12	257.46
366.32	201.29
366.52	194.26
366.72	236.39
366.91	210.65
367.11	77.24
367.31	105.32
367.51	117.03
367.70	124.05
367.90	142.77
368.10	147.45
368.30	173.20
368.49	114.69
368.69	95.96
368.89	114.69
369.09	175.54
369.28	142.77
369.48	231.71
369.68	222.35
369.87	252.78
370.07	238.73
370.27	212.99
370.47	344.06
370.66	662.37
370.86	622.58
371.06	711.52
371.25	734.93
371.45	624.92
371.65	734.93
371.84	648.33
372.04	676.41
372.24	688.12
372.44	755.99
372.63	748.97
372.83	795.78
373.03	779.40
373.22	709.18
373.42	737.27
373.62	833.23
373.81	791.10
374.01	798.12
374.21	861.32
374.40	823.87
374.60	807.48
374.79	812.17
374.99	858.98
375.19	870.68
375.38	833.23
375.58	870.68
375.78	870.68
375.97	870.68
376.17	880.04
376.37	863.66
376.56	880.04
376.76	833.23
376.95	866.00
377.15	959.62
377.35	887.06
377.54	877.70
377.74	868.34
377.93	898.77
378.13	931.53
378.33	931.53
378.52	880.04
378.72	917.49
378.91	1011.11
379.11	947.92
379.31	973.66
379.50	976.00
379.70	926.85
379.89	1006.43
380.09	1043.88
380.28	938.55
380.48	983.02
380.68	980.68
380.87	1048.56
381.07	1050.90
381.26	1060.26
381.46	1036.86
381.65	1076.65
381.85	1071.97
382.04	1020.47
382.24	1074.31
382.43	980.68
382.63	1067.28
382.83	1135.16
383.02	1156.22
383.22	1144.52
383.41	1064.94
383.61	1116.44
383.80	1186.65
384.00	1074.31
384.19	1158.57
384.39	1226.44
384.58	1139.84
384.78	1137.50
384.97	1172.61
385.17	1172.61
385.36	1217.08
385.56	1212.40
385.75	1240.48
385.95	1196.01
386.14	1242.82
386.34	1203.04
386.53	1170.27
386.72	1249.85
386.92	1352.83
387.11	1235.80
387.31	1198.35
387.50	1207.72
387.70	1240.48
387.89	1303.68
388.09	1277.93
388.28	1252.19
388.48	1284.95
388.67	1401.98
388.86	1249.85
389.06	1362.19
389.25	1324.74
389.45	1315.38
389.64	1320.06
389.84	1394.96
390.03	1380.92
390.22	1394.96
390.42	1420.71
390.61	1416.02
390.81	1427.73
391.00	1460.49
391.19	1490.92
391.39	1369.21
391.58	1444.11
391.78	1430.07
391.97	1451.13
392.16	1385.60
392.36	1528.37
392.55	1509.65
392.75	1514.33
392.94	1540.07
393.13	1514.33
393.33	1504.96
393.52	1591.56
393.71	1612.63
393.91	1582.20
394.10	1586.88
394.29	1640.72
394.49	1617.31
394.68	1685.19
394.88	1659.44
395.07	1689.87
395.26	1668.80
395.46	1640.72
395.65	1682.85
395.84	1753.06
396.04	1741.36
396.23	1748.38
396.42	1724.97
396.62	1687.53
396.81	1839.66
397.00	1727.32
397.19	1804.55
397.39	1813.92
397.58	1870.09
397.77	1842.00
397.97	1830.30
398.16	1884.13
398.35	1952.01
398.55	1881.79
398.74	1893.49
398.93	1984.77
399.12	2017.54
399.32	1907.54
399.51	1802.21
399.70	1987.11
399.90	2024.56
400.09	1930.94
400.28	2076.06
400.47	2005.84
400.67	2054.99
400.86	2010.52
401.05	2139.25
401.24	2076.06
401.44	2242.23
401.63	2148.61
401.82	2200.10
402.01	2017.54
402.21	2249.25
402.40	2118.18
402.59	2122.87
402.78	2160.31
402.97	2338.20
403.17	2242.23
403.36	2267.98
403.55	2328.83
403.74	2373.30
403.93	2385.01
404.13	2349.90
404.32	2436.50
404.51	2338.20
404.70	2349.90
404.89	2387.35
405.09	2389.69
405.28	2511.39
405.47	2534.80
405.66	2513.74
405.85	2541.82
406.05	2457.56
406.24	2633.10
406.43	2560.55
406.62	2579.27
406.81	2642.46
407.00	2602.68
407.20	2619.06
407.39	2565.23
407.58	2672.89
407.77	2855.45
407.96	2733.75
408.15	2801.62
408.34	2815.66
408.54	2698.64
408.73	2801.62
408.92	2773.53
409.11	2810.98
409.30	2958.44
409.49	2958.44
409.68	2920.99
409.87	2832.05
410.07	2874.18
410.26	2883.54
410.45	2920.99
410.64	2944.39
410.83	3033.33
411.02	3220.58
411.21	3232.28
411.40	3124.62
411.59	3236.96
411.78	3162.06
411.98	3185.47
412.17	3279.09
412.36	3389.10
412.55	3353.99
412.74	3361.01
412.93	3405.48
413.12	3377.39
413.31	3435.91
413.50	3480.38
413.69	3562.30
413.88	3756.56
414.07	3508.46
414.26	3578.68
414.45	3616.13
414.64	3758.90
414.83	3859.54
415.02	3794.01
415.22	3808.05
415.41	3824.44
415.60	3747.20
415.79	3939.12
415.98	3939.12
416.17	3960.19
416.36	4011.68
416.55	4070.19
416.74	4056.15
416.93	4060.83
417.12	4184.88
417.31	4105.30
417.50	4201.26
417.69	4276.16
417.88	4182.54
418.07	4074.87
418.26	4210.62
418.45	4402.55
418.64	4339.35
418.83	4365.10
419.02	4528.94
419.21	4472.76
419.39	4498.51
419.58	4348.72
419.77	4489.15
419.96	4547.66
420.15	4568.73
420.34	4660.01
420.53	4683.41
420.72	4751.29
420.91	4699.80
421.10	4720.86
421.29	4772.35
421.48	4601.49
421.67	4674.05
421.86	4802.78
422.05	4788.74
422.24	4692.77
422.43	4809.80
422.61	4926.83
422.80	4978.32
422.99	4880.02
423.18	4964.28
423.37	5048.54
423.56	4926.83
423.75	5001.72
423.94	4891.72
424.13	4554.68
424.32	4669.37
424.50	5034.49
424.69	5177.26
424.88	5135.14
425.07	4936.19
425.26	4943.21
425.45	4865.97
425.64	4954.91
425.83	4975.98
426.01	4926.83
426.20	5062.58
426.39	5053.22
426.58	5160.88
426.77	5102.37
426.96	5053.22
427.15	5053.22
427.33	5308.34
427.52	5085.98
427.71	5193.65
427.90	5263.86
428.09	5163.22
428.28	5416.00
428.46	5460.47
428.65	5390.25
428.84	5401.96
429.03	5586.86
429.22	5387.91
429.40	5341.10
429.59	5434.72
429.78	5418.34
429.97	5308.34
430.16	5617.29
430.34	5544.73
430.53	5675.80
430.72	5659.42
430.91	5607.92
431.10	5738.99
431.28	5727.29
431.47	5865.38
431.66	5804.53
431.85	5830.27
432.03	5851.34
432.22	6022.20
432.41	5757.72
432.60	6033.90
432.79	5942.62
432.97	6005.81
433.16	5881.77
433.35	5940.28
433.54	6059.65
433.72	6188.38
433.91	6136.88
434.10	6106.46
434.28	5926.24
434.47	6232.85
434.66	6157.95
434.85	6291.36
435.03	6527.75
435.22	6333.49
435.41	6319.45
435.59	6342.85
435.78	6359.24
435.97	6431.79
436.16	6410.73
436.34	6340.51
436.53	6525.41
436.72	6567.54
436.90	6499.67
437.09	6691.59
437.28	6473.92
437.46	6590.95
437.65	6661.16
437.84	6813.30
438.02	6567.54
438.21	6698.61
438.40	6677.55
438.58	7037.99
438.77	7005.22
438.96	6920.96
439.14	7061.40
439.33	7101.19
439.52	7325.88
439.70	7190.13
439.89	7295.45
440.08	7372.69
440.26	7283.75
440.45	7403.11
440.63	7552.91
440.82	7494.40
441.01	7363.33
441.19	7625.47
441.38	7569.29
441.57	7691.00
441.75	7775.26
441.94	8067.83
442.12	7903.99
442.31	7971.86
442.50	8013.99
442.68	7922.71
442.87	8004.63
443.05	8039.74
443.24	8100.59
443.43	8156.77
443.61	8203.58
443.80	8348.69
443.98	8250.39
444.17	7892.29
444.35	8018.68
444.54	8229.32
444.73	8184.85
444.91	8091.23
445.10	8266.77
445.28	8177.83
445.47	8219.96
445.65	8149.75
445.84	8353.37
446.02	8500.83
446.21	8285.50
446.39	8353.37
446.58	8468.06
446.77	8339.33
446.95	8313.58
447.14	8486.78
447.32	8561.68
447.51	8573.38
447.69	8638.92
447.88	8496.14
448.06	8241.03
448.25	8564.02
448.43	8479.76
448.62	8496.14
448.80	8545.30
448.99	8514.87
449.17	8493.80
449.36	8678.71
449.54	8732.54
449.73	8959.57
449.91	8971.27
450.10	8943.19
450.28	9107.02
450.46	8968.93
450.65	9001.70
450.83	9092.98
451.02	9050.85
451.20	9191.28
451.39	9123.41
451.57	9039.15
451.76	9015.74
451.94	8964.25
452.13	9343.42
452.31	9221.71
452.49	9118.73
452.68	9348.10
452.86	9338.74
453.05	9448.74
453.23	9415.98
453.42	9289.59
453.60	9284.91
453.78	9645.35
453.97	9369.16
454.15	9369.16
454.34	9504.92
454.52	9738.97
454.70	9645.35
454.89	9757.69
455.07	9891.10
455.26	9778.76
455.44	9930.89
455.62	9846.63
455.81	9830.25
455.99	9776.42
456.17	10162.61
456.36	9966.00
456.54	10024.51
456.73	10307.72
456.91	10310.06
457.09	10576.88
457.28	10406.02
457.46	10305.38
457.64	10331.12
457.83	10462.19
458.01	10253.89
458.19	10558.16
458.38	10499.64
458.56	10691.57
458.74	10464.54
458.93	10630.71
459.11	10794.55
459.29	10714.97
459.48	10953.71
459.66	10813.28
459.84	10740.72
460.03	10813.28
460.21	10743.06
460.39	10988.82
460.57	11117.54
460.76	11405.43
460.94	11206.48
461.12	11286.06
461.31	11337.56
461.49	11021.58
461.67	11023.92
461.85	11534.16
462.04	11414.79
462.22	11808.00
462.40	11721.40
462.59	11506.07
462.77	11548.20
462.95	11639.48
463.13	11681.61
463.32	11796.30
463.50	12030.35
463.68	11742.47
463.86	11934.39
464.05	11597.35
464.23	11456.92
464.41	11662.89
464.59	11667.57
464.78	11889.92
464.96	11695.66
465.14	11859.49
465.32	12035.03
465.50	12067.80
465.69	12299.52
465.87	11943.75
466.05	12170.79
466.23	12390.80
466.41	12222.28
466.60	12538.25
466.78	12189.51
466.96	12313.56
467.14	12388.46
467.32	12503.14
467.51	12496.12
467.69	12294.83
467.87	12313.56
468.05	12510.16
468.23	12554.63
468.41	12367.39
468.60	12716.13
468.78	12816.77
468.96	12620.17
469.14	12737.20
469.32	12634.21
469.50	12659.96
469.69	13137.43
469.87	12872.95
470.05	12947.84
470.23	13137.43
470.41	13097.64
470.59	13444.04
470.77	13036.78
470.95	13083.59
471.14	13654.69
471.32	13013.38
471.50	13830.23
471.68	13570.43
471.86	13547.02
472.04	13586.81
472.22	14190.67
472.40	13467.44
472.58	13671.07
472.77	13973.00
472.95	14176.62
473.13	14785.16
473.31	13921.51
473.49	14059.60
473.67	14019.81
473.85	14153.22
474.03	14541.75
474.21	14600.26
474.39	14803.89
474.57	14518.34
474.75	14642.39
474.93	14731.33
475.12	14986.45
475.30	15103.48
475.48	14965.39
475.66	15164.33
475.84	15122.20
476.02	15379.66
476.20	15272.00
476.38	15913.30
476.56	16091.18
476.74	15618.39
476.92	16006.92
477.10	15728.40
477.28	16355.66
477.46	15992.88
477.64	16119.27
477.82	16566.31
478.00	16711.42
478.18	16889.31
478.36	16849.52
478.54	17193.58
478.72	17074.21
478.90	17514.23
479.08	17635.94
479.26	17401.88
479.44	17649.98
479.62	17860.63
479.80	17935.53
479.98	18258.52
480.16	18745.35
480.34	18073.62
480.52	18340.44
480.70	18878.76
480.88	18396.61
481.06	18490.23
481.24	19103.45
481.41	18874.08
481.59	19183.03
481.77	19358.57
481.95	19594.96
482.13	19606.67
482.31	19697.95
482.49	20386.07
482.67	20074.77
482.85	20453.94
483.03	20734.81
483.21	20680.97
483.39	20973.54
483.57	20570.97
483.74	21221.64
483.92	21301.22
484.10	21460.37
484.28	21825.50
484.46	22003.38
484.64	22221.05
484.82	21771.66
485.00	22431.69
485.18	22387.22
485.35	22944.27
485.53	22860.01
485.71	23040.23
485.89	23431.10
486.07	23054.28
486.25	22993.42
486.43	23234.50
486.61	24063.05
486.78	24198.80
486.96	23807.93
487.14	24400.08
487.32	24659.88
487.50	24781.59
487.68	24886.92
487.85	25200.55
488.03	25551.63
488.21	25722.49
488.39	25928.45
488.57	26008.03
488.75	25958.88
488.92	26450.39
489.10	26855.31
489.28	26766.37
489.46	27072.98
489.64	26682.11
489.81	27513.00
489.99	27529.38
490.17	27906.21
490.35	28173.03
490.53	28491.34
490.70	28180.05
490.88	28259.63
491.06	28554.54
491.24	28872.85
491.41	28982.85
491.59	29165.42
491.77	29139.67
491.95	29750.55
492.13	29476.71
492.30	30185.89
492.48	30429.30
492.66	30160.14
492.84	30242.06
493.01	30808.47
493.19	30621.23
493.37	30974.65
493.54	31079.97
493.72	31271.90
493.90	31381.90
494.08	31585.53
494.25	31761.07
494.43	31665.11
494.61	32308.76
494.79	32210.45
494.96	32128.53
495.14	32800.27
495.32	33151.35
495.49	33017.94
495.67	33015.60
495.85	33228.59
496.02	33605.41
496.20	33982.24
496.38	34082.88
496.55	33928.41
496.73	34632.91
496.91	34520.56
497.09	34808.45
497.26	34623.54
497.44	34866.96
497.62	34974.63
497.79	35669.76
497.97	35257.83
498.14	36081.70
498.32	36086.38
498.50	36236.17
498.67	36547.47
498.85	36081.70
499.03	36362.56
499.20	36638.75
499.38	36680.88
499.56	36795.56
499.73	37427.51
499.91	37060.04
500.08	37605.39
500.26	37439.21
500.44	37251.97
500.61	37839.44
500.79	37867.53
500.97	38127.33
501.14	38539.26
501.32	38410.53
501.49	38572.03
501.67	38492.45
501.84	39035.45
502.02	38543.94
502.20	38836.51
502.37	39021.41
502.55	39037.80
502.72	39140.78
502.90	39402.92
503.07	39311.64
503.25	39728.25
503.43	39920.18
503.60	40179.98
503.78	40224.45
503.95	40119.12
504.13	40559.14
504.30	40942.99
504.48	40212.74
504.65	40484.25
504.83	41139.60
505.01	41031.93
505.18	41088.10
505.36	41668.56
505.53	41298.75
505.71	41755.16
505.88	41577.28
506.06	41237.90
506.23	41933.04
506.41	41771.54
506.58	42082.83
506.76	41977.51
506.93	42040.70
507.11	42115.60
507.28	42256.03
507.46	42630.52
507.63	42712.44
507.81	43096.28
507.98	43208.63
508.16	43089.26
508.33	43196.93
508.50	43763.34
508.68	43587.80
508.85	43702.48
509.03	43508.22
509.20	43641.63
509.38	43971.64
509.55	43948.24
509.73	44343.79
509.90	44718.28
510.08	44313.36
510.25	44458.48
510.42	44486.56
510.60	44856.37
510.77	45013.18
510.95	45595.98
511.12	44706.57
511.30	44933.60
511.47	45607.68
511.64	45523.42
511.82	45642.79
511.99	45689.60
512.17	45553.85
512.34	45993.87
512.51	46183.45
512.69	46536.87
512.86	46569.64
513.04	46763.90
513.21	46522.83
513.38	46600.07
513.56	46738.16
513.73	46672.62
513.90	46759.22
514.08	46532.19
514.25	47035.41
514.43	47180.52
514.60	47157.11
514.77	47590.11
514.95	47569.05
515.12	47199.24
515.29	47433.30
515.47	48041.84
515.64	48034.81
515.81	47662.67
515.99	48392.92
516.16	48336.74
516.33	48289.93
516.51	48582.50
516.68	48451.43
516.85	48034.81
517.03	48725.27
517.20	48659.74
517.37	48573.14
517.54	49034.22
517.72	48531.01
517.89	48720.59
518.06	48947.62
518.24	49078.69
518.41	48779.10
518.58	49221.47
518.75	48968.69
518.93	49677.87
519.10	49375.94
519.27	49792.56
519.45	49684.89
519.62	49928.31
519.79	49581.91
519.96	49979.80
520.14	50138.96
520.31	49560.84
520.48	50450.25
520.65	50218.53
520.83	50197.47
521.00	50202.15
521.17	50150.66
521.34	50553.23
521.52	50710.05
521.69	50761.54
521.86	50972.19
522.03	50871.54
522.20	51351.35
522.38	51407.53
522.55	51346.67
522.72	51164.11
522.89	51105.60
523.07	51428.59
523.24	51299.86
523.41	51632.22
523.58	51538.60
523.75	51723.50
523.92	51503.49
524.10	52044.15
524.27	51971.60
524.44	52081.60
524.61	52261.82
524.78	52182.24
524.96	52109.69
525.13	51987.98
525.30	52456.09
525.47	52327.36
525.64	52446.72
525.81	52378.85
525.98	52610.56
526.16	52596.52
526.33	52521.62
526.50	52690.14
526.67	52750.99
526.84	52849.30
527.01	52720.57
527.18	52741.63
527.36	52832.91
527.53	52989.73
527.70	53371.24
527.87	53387.62
528.04	53137.18
528.21	53485.92
528.38	53106.76
528.55	53509.33
528.72	53013.13
528.89	53226.12
529.07	53570.18
529.24	53389.96
529.41	53305.70
529.58	53579.54
529.75	53708.27
529.92	53827.64
530.09	53818.28
530.26	53762.11
530.43	54010.20
530.60	53492.94
530.77	53712.95
530.94	53764.45
531.11	54237.23
531.28	53858.07
531.46	54239.57
531.63	54012.54
531.80	54064.03
531.97	54213.83
532.14	54417.46
532.31	54335.54
532.48	54569.59
532.65	54749.81
532.82	54401.07
532.99	54382.35
533.16	54422.14
533.33	54656.19
533.50	54885.56
533.67	54782.58
533.84	54501.71
534.01	54564.91
534.18	54859.82
534.35	55047.06
534.52	55096.21
534.69	55136.00
534.86	55344.31
535.03	54993.23
535.20	55341.97
535.37	55353.67
535.54	55192.17
535.71	55292.82
535.88	55311.54
536.05	55449.63
536.22	55597.09
536.38	55290.48
536.55	55398.14
536.72	55611.13
536.89	55466.02
537.06	55489.42
537.23	55728.16
537.40	55550.27
537.57	55620.49
537.74	55777.31
537.91	55877.95
538.08	55894.33
538.25	55803.05
538.42	55655.60
538.59	56083.92
538.75	55735.18
538.92	55924.76
539.09	56229.03
539.26	56231.37
539.43	56278.18
539.60	56479.47
539.77	56140.09
539.94	56388.19
540.11	56271.16
540.28	56023.06
540.44	56292.22
540.61	56442.02
540.78	56205.62
540.95	56212.65
541.12	56341.38
541.29	56322.65
541.46	56376.48
541.62	56395.21
541.79	56734.59
541.96	56315.63
542.13	56418.61
542.30	56507.55
542.47	56765.01
542.63	56835.23
542.80	57029.49
542.97	57080.98
543.14	57277.59
543.31	56994.39
543.48	57097.37
543.64	57228.44
543.81	57347.81
543.98	57214.40
544.15	57272.91
544.32	57366.53
544.48	57546.75
544.65	57183.97
544.82	57425.04
544.99	57228.44
545.16	57338.44
545.32	57352.49
545.49	57570.16
545.66	57890.81
545.83	57357.17
546.00	57684.84
546.16	57780.81
546.33	57453.13
546.50	57509.30
546.67	57558.45
546.83	57450.79
547.00	57600.58
547.17	57712.93
547.34	57776.12
547.50	57794.85
547.67	58078.05
547.84	57703.57
548.00	58038.26
548.17	58253.59
548.34	58096.78
548.51	58384.66
548.67	57923.58
548.84	58094.44
549.01	57930.60
549.18	58012.52
549.34	58129.54
549.51	58307.43
549.68	58159.97
549.84	58267.64
550.01	58377.64
550.18	58286.36
550.34	58363.60
550.51	58398.71
550.68	58164.65
550.84	58052.31
551.01	58492.33
551.18	58515.73
551.34	58454.88
551.51	58461.90
551.68	58450.20
551.84	58298.06
552.01	58333.17
552.18	58511.05
552.34	58405.73
552.51	58576.59
552.68	58372.96
552.84	58447.86
553.01	58951.07
553.18	58745.11
553.34	58946.39
553.51	58635.10
553.67	58777.87
553.84	58944.05
554.01	58869.15
554.17	58997.88
554.34	59035.33
554.51	58920.65
554.67	58934.69
554.84	58915.96
555.00	58997.88
555.17	58752.13
555.33	58944.05
555.50	58791.92
555.67	58925.33
555.83	58897.24
556.00	59089.16
556.16	59161.72
556.33	59325.56
556.50	59309.18
556.66	59028.31
556.83	59105.55
556.99	59468.33
557.16	59414.50
557.32	59487.06
557.49	59449.61
557.65	58901.92
557.82	59360.67
557.98	59283.43
558.15	59365.35
558.32	59285.77
558.48	59243.64
558.65	59547.91
558.81	59405.14
558.98	59458.97
559.14	59554.93
559.31	59510.46
559.47	59533.87
559.64	59550.25
559.80	59545.57
559.97	59650.89
560.13	59550.25
560.30	59557.27
560.46	59601.74
560.63	59852.18
560.79	59707.07
560.96	59571.32
561.12	59765.58
561.29	59861.54
561.45	59725.79
561.61	59760.90
561.78	59508.12
561.94	59657.91
562.11	59746.86
562.27	59824.09
562.44	59898.99
562.60	59831.11
562.77	59831.11
562.93	59788.98
563.10	59971.55
563.26	59772.60
563.42	60083.89
563.59	59906.01
563.75	60088.57
563.92	59849.84
564.08	59920.05
564.24	59980.91
564.41	60233.69
564.57	60004.31
564.74	60074.53
564.90	60128.36
565.07	60144.75
565.23	60175.17
565.39	59997.29
565.56	60104.96
565.72	60011.34
565.88	60334.33
566.05	60034.74
566.21	60168.15
566.38	60123.68
566.54	60135.38
566.70	60231.35
566.87	60444.33
567.03	59955.16
567.19	60231.35
567.36	60128.36
567.52	60355.39
567.68	60533.28
567.85	60378.80
568.01	60467.74
568.17	60334.33
568.34	60458.38
568.50	60224.32
568.66	60322.63
568.83	60395.18
568.99	60151.77
569.15	60287.52
569.32	60378.80
569.48	60030.06
569.64	60645.62
569.81	60374.12
569.97	60306.24
570.13	60395.18
570.30	60130.70
570.46	60467.74
570.62	60437.31
570.78	60388.16
570.95	60437.31
571.11	60584.77
571.27	60374.12
571.43	60343.69
571.60	60554.34
571.76	60339.01
571.92	60460.72
572.09	60364.76
572.25	60425.61
572.41	60566.04
572.57	60474.76
572.74	60559.02
572.90	60636.26
573.06	60458.38
573.22	60774.35
573.38	60453.70
573.55	60437.31
573.71	60729.88
573.87	60624.56
574.03	60594.13
574.20	60652.64
574.36	60601.15
574.52	60521.57
574.68	60786.05
574.84	60753.29
575.01	60624.56
575.17	60568.38
575.33	60512.21
575.49	60430.29
575.65	60711.16
575.82	60769.67
575.98	60673.71
576.14	60832.86
576.30	60638.60
576.46	60486.46
576.62	60701.79
576.79	60629.24
576.95	60654.98
577.11	60523.91
577.27	60774.35
577.43	60870.31
577.59	60615.19
577.75	60685.41
577.92	60617.53
578.08	60832.86
578.24	60699.45
578.40	60800.10
578.56	60889.04
578.72	60500.51
578.88	61022.45
579.04	60832.86
579.21	60851.59
579.37	60970.96
579.53	60870.31
579.69	60605.83
579.85	60776.69
580.01	60757.97
580.17	60713.50
580.33	60891.38
580.49	60947.55
580.65	60886.70
580.82	60809.46
580.98	60797.76
581.14	60736.90
581.30	60832.86
581.46	60743.92
581.62	60882.02
581.78	60718.18
581.94	60879.67
582.10	60746.26
582.26	60809.46
582.42	60711.16
582.58	60645.62
582.74	60706.47
582.90	60788.39
583.06	61001.38
583.22	60736.90
583.38	60669.03
583.54	61013.08
583.70	60907.76
583.86	61043.51
584.02	60879.67
584.18	61134.79
584.34	60879.67
584.50	60905.42
584.66	60823.50
584.82	60678.39
584.98	61146.50
585.14	60846.91
585.30	60795.42
585.46	60931.17
585.62	60931.17
585.78	61057.56
585.94	60762.65
586.10	60940.53
586.26	60882.02
586.42	60973.30
586.58	61048.19
586.74	60987.34
586.90	60795.42
587.06	60924.14
587.22	61247.14
587.38	61066.92
587.54	60987.34
587.70	61174.58
587.86	61022.45
588.02	61015.43
588.18	61071.60
588.34	61062.24
588.49	61038.83
