SpectraSuite Data File
++++++++++++++++++++++++++++++++++++
Date: Fri Oct 25 11:33:09 EDT 2013
User: price-jones
Dark Spectrum Present: No
Reference Spectrum Present: No
Number of Sampled Component Spectra: 1
Spectrometers: USB2+H05261
Integration Time (usec): 100000 (USB2+H05261)
Spectra Averaged: 1 (USB2+H05261)
Boxcar Smoothing: 0 (USB2+H05261)
Correct for Electrical Dark: No (USB2+H05261)
Strobe/Lamp Enabled: No (USB2+H05261)
Correct for Detector Non-linearity: No (USB2+H05261)
Correct for Stray Light: No (USB2+H05261)
Number of Pixels in Processed Spectrum: 2048
>>>>>Begin Processed Spectral Data<<<<<
365.73	227.03
365.92	227.03
366.12	227.03
366.32	196.60
366.52	147.45
366.72	177.88
366.91	163.84
367.11	147.45
367.31	173.20
367.51	142.77
367.70	128.73
367.90	220.01
368.10	159.16
368.30	201.29
368.49	229.37
368.69	184.90
368.89	138.09
369.09	229.37
369.28	208.31
369.48	217.67
369.68	227.03
369.87	285.55
370.07	205.97
370.27	301.93
370.47	322.99
370.66	402.57
370.86	482.15
371.06	540.66
371.25	617.90
371.45	561.73
371.65	620.24
371.84	512.58
372.04	561.73
372.24	585.13
372.44	510.24
372.63	594.50
372.83	594.50
373.03	653.01
373.22	641.31
373.42	629.60
373.62	634.29
373.81	589.82
374.01	608.54
374.21	599.18
374.40	711.52
374.60	610.88
374.79	634.29
374.99	610.88
375.19	692.80
375.38	716.20
375.58	648.33
375.78	638.97
375.97	791.10
376.17	720.88
376.37	718.54
376.56	653.01
376.76	587.47
376.95	695.14
377.15	653.01
377.35	709.18
377.54	688.12
377.74	638.97
377.93	685.78
378.13	692.80
378.33	746.63
378.52	667.05
378.72	650.67
378.91	748.97
379.11	758.33
379.31	702.16
379.50	603.86
379.70	720.88
379.89	723.23
380.09	744.29
380.28	716.20
380.48	739.61
380.68	739.61
380.87	716.20
381.07	798.12
381.26	699.82
381.46	706.84
381.65	791.10
381.85	772.38
382.04	755.99
382.24	755.99
382.43	814.51
382.63	814.51
382.83	814.51
383.02	763.01
383.22	793.44
383.41	711.52
383.61	793.44
383.80	798.12
384.00	795.78
384.19	854.30
384.39	802.80
384.58	784.08
384.78	823.87
384.97	863.66
385.17	816.85
385.36	772.38
385.56	882.38
385.75	826.21
385.95	772.38
386.14	929.19
386.34	880.04
386.53	924.51
386.72	858.98
386.92	915.15
387.11	898.77
387.31	882.38
387.50	835.57
387.70	866.00
387.89	959.62
388.09	905.79
388.28	844.93
388.48	922.17
388.67	929.19
388.86	882.38
389.06	987.71
389.25	936.21
389.45	924.51
389.64	912.81
389.84	983.02
390.03	943.24
390.22	926.85
390.42	873.02
390.61	873.02
390.81	929.19
391.00	990.05
391.19	1062.60
391.39	992.39
391.58	964.30
391.78	940.90
391.97	1071.97
392.16	1015.79
392.36	985.37
392.55	1088.35
392.75	1107.07
392.94	1139.84
393.13	1095.37
393.33	1090.69
393.52	1043.88
393.71	1071.97
393.91	1086.01
394.10	1116.44
394.29	1130.48
394.49	1132.82
394.68	1128.14
394.88	1125.80
395.07	1238.14
395.26	1151.54
395.46	1167.93
395.65	1142.18
395.84	1165.59
396.04	1254.53
396.23	1207.72
396.42	1172.61
396.62	1193.67
396.81	1252.19
397.00	1200.69
397.19	1139.84
397.39	1266.23
397.58	1362.19
397.77	1270.91
397.97	1158.57
398.16	1231.12
398.35	1235.80
398.55	1287.29
398.74	1308.36
398.93	1299.00
399.12	1256.87
399.32	1324.74
399.51	1294.32
399.70	1299.00
399.90	1343.47
400.09	1369.21
400.28	1420.71
400.47	1399.64
400.67	1397.30
400.86	1427.73
401.05	1378.58
401.24	1493.26
401.44	1490.92
401.63	1345.81
401.82	1425.39
402.01	1472.20
402.21	1579.86
402.40	1455.81
402.59	1460.49
402.78	1509.65
402.97	1551.78
403.17	1572.84
403.36	1624.33
403.55	1509.65
403.74	1593.90
403.93	1514.33
404.13	1565.82
404.32	1540.07
404.51	1626.67
404.70	1589.22
404.89	1654.76
405.09	1617.31
405.28	1643.06
405.47	1624.33
405.66	1685.19
405.85	1748.38
406.05	1724.97
406.24	1675.82
406.43	1797.53
406.62	1811.57
406.81	1902.86
407.00	1856.04
407.20	1748.38
407.39	1764.76
407.58	1809.23
407.77	1851.36
407.96	1867.75
408.15	1895.83
408.34	1849.02
408.54	1959.03
408.73	1895.83
408.92	1947.33
409.11	2043.29
409.30	1944.99
409.49	2026.90
409.68	1994.14
409.87	2029.24
410.07	2026.90
410.26	2064.35
410.45	2069.03
410.64	2127.55
410.83	2195.42
411.02	2106.48
411.21	2179.04
411.40	2165.00
411.59	2342.88
411.78	2146.27
411.98	2143.93
412.17	2265.64
412.36	2289.04
412.55	2396.71
412.74	2368.62
412.93	2389.69
413.12	2239.89
413.31	2459.90
413.50	2373.30
413.69	2429.48
413.88	2370.96
414.07	2368.62
414.26	2429.48
414.45	2562.89
414.64	2520.76
414.83	2572.25
415.02	2677.57
415.22	2672.89
415.41	2668.21
415.60	2738.43
415.79	2703.32
415.98	2848.43
416.17	2761.83
416.36	2691.62
416.55	2705.66
416.74	2822.69
416.93	2768.85
417.12	2801.62
417.31	2916.31
417.50	2918.65
417.69	2998.23
417.88	2991.20
418.07	2937.37
418.26	3063.76
418.45	3030.99
418.64	3094.19
418.83	3141.00
419.02	3052.06
419.21	3236.96
419.39	3141.00
419.58	3213.56
419.77	3049.72
419.96	3204.19
420.15	3094.19
420.34	3281.43
420.53	3119.93
420.72	3300.16
420.91	3265.05
421.10	3321.22
421.29	3272.07
421.48	3218.24
421.67	3318.88
421.86	3445.27
422.05	3300.16
422.24	3361.01
422.43	3372.71
422.61	3393.78
422.80	3417.18
422.99	3370.37
423.18	3522.51
423.37	3323.56
423.56	3421.86
423.75	3353.99
423.94	3293.13
424.13	3262.71
424.32	3258.03
424.50	3456.97
424.69	3478.04
424.88	3459.31
425.07	3407.82
425.26	3428.88
425.45	3421.86
425.64	3435.91
425.83	3485.06
426.01	3396.12
426.20	3487.40
426.39	3412.50
426.58	3604.42
426.77	3538.89
426.96	3571.66
427.15	3609.11
427.33	3595.06
427.52	3595.06
427.71	3630.17
427.90	3522.51
428.09	3651.24
428.28	3698.05
428.46	3695.71
428.65	3639.53
428.84	3850.18
429.03	3808.05
429.22	3571.66
429.40	3810.39
429.59	3698.05
429.78	3756.56
429.97	3714.43
430.16	3756.56
430.34	3899.33
430.53	3854.86
430.72	3878.27
430.91	3871.25
431.10	3864.22
431.28	3922.74
431.47	4025.72
431.66	4168.49
431.85	4007.00
432.03	3971.89
432.22	4117.00
432.41	4109.98
432.60	4056.15
432.79	4131.05
432.97	4161.47
433.16	4163.81
433.35	4121.68
433.54	4273.82
433.72	4180.20
433.91	4278.50
434.10	4173.18
434.28	4201.26
434.47	4454.04
434.66	4334.67
434.85	4451.70
435.03	4493.83
435.22	4376.80
435.41	4582.77
435.59	4451.70
435.78	4432.97
435.97	4521.92
436.16	4383.82
436.34	4402.55
436.53	4421.27
436.72	4578.09
436.90	4301.90
437.09	4498.51
437.28	4461.06
437.46	4351.06
437.65	4564.04
437.84	4807.46
438.02	4573.41
438.21	4681.07
438.40	4589.79
438.58	4723.20
438.77	4959.60
438.96	4767.67
439.14	4858.95
439.33	4762.99
439.52	4994.70
439.70	4884.70
439.89	5125.77
440.08	5008.75
440.26	5093.01
440.45	5043.85
440.63	5195.99
440.82	5242.80
441.01	5266.21
441.19	5268.55
441.38	5266.21
441.57	5275.57
441.75	5406.64
441.94	5488.56
442.12	5366.85
442.31	5320.04
442.50	5507.28
442.68	5540.05
442.87	5561.11
443.05	5647.71
443.24	5610.26
443.43	5430.04
443.61	5614.95
443.80	5666.44
443.98	5654.73
444.17	5294.29
444.35	5518.98
444.54	5762.40
444.73	5717.93
444.91	5451.11
445.10	5682.82
445.28	5724.95
445.47	5617.29
445.65	5729.63
445.84	5736.65
446.02	5860.70
446.21	5680.48
446.39	5717.93
446.58	5841.98
446.77	5724.95
446.95	5605.58
447.14	5713.25
447.32	5783.46
447.51	5811.55
447.69	5888.79
447.88	5720.27
448.06	5816.23
448.25	5685.16
448.43	5891.13
448.62	5818.57
448.80	5783.46
448.99	5856.02
449.17	5996.45
449.36	5863.04
449.54	6057.31
449.73	6183.70
449.91	6244.55
450.10	6099.44
450.28	6022.20
450.46	6211.78
450.65	5980.07
450.83	6181.35
451.02	6094.76
451.20	6366.26
451.39	6277.32
451.57	6150.93
451.76	6050.28
451.94	6272.64
452.13	6464.56
452.31	6146.25
452.49	6118.16
452.68	6530.09
452.86	6274.98
453.05	6483.28
453.23	6424.77
453.42	6394.34
453.60	6277.32
453.78	6352.21
453.97	6368.60
454.15	6553.50
454.34	6406.05
454.52	6513.71
454.70	6675.21
454.89	6569.88
455.07	6558.18
455.26	6619.04
455.44	6764.15
455.62	6794.58
455.81	6567.54
455.99	6911.60
456.17	6761.81
456.36	6967.77
456.54	6839.05
456.73	6785.21
456.91	7096.50
457.09	7145.66
457.28	7070.76
457.46	7014.59
457.64	7026.29
457.83	7143.32
458.01	7108.21
458.19	7211.19
458.38	7091.82
458.56	7290.77
458.74	7276.73
458.93	7321.20
459.11	7309.49
459.29	7286.09
459.48	7250.98
459.66	7293.11
459.84	7475.67
460.03	7461.63
460.21	7487.37
460.39	7449.93
460.57	7372.69
460.76	7393.75
460.94	7571.63
461.12	7573.97
461.31	7557.59
461.49	7592.70
461.67	7538.87
461.85	7721.43
462.04	7569.29
462.22	8159.11
462.40	7775.26
462.59	7808.03
462.77	7669.94
462.95	7815.05
463.13	7889.95
463.32	7864.20
463.50	7936.76
463.68	8037.40
463.86	8379.12
464.05	7765.90
464.23	7976.55
464.41	8138.04
464.59	7946.12
464.78	8231.66
464.96	7976.55
465.14	8056.12
465.32	8093.57
465.50	8081.87
465.69	8219.96
465.87	8203.58
466.05	8201.24
466.23	8294.86
466.41	8124.00
466.60	8599.13
466.78	8210.60
466.96	8301.88
467.14	8138.04
467.32	8493.80
467.51	8493.80
467.69	8142.72
467.87	8362.73
468.05	8505.51
468.23	8283.16
468.41	8601.47
468.60	8402.52
468.78	8585.08
468.96	8561.68
469.14	8559.34
469.32	8798.07
469.50	8608.49
469.69	8578.06
469.87	8947.87
470.05	8645.94
470.23	8964.25
470.41	8739.56
470.59	8908.08
470.77	8975.95
470.95	8896.38
471.14	8966.59
471.32	8898.72
471.50	9076.60
471.68	9156.18
471.86	9336.40
472.04	9282.56
472.22	9432.36
472.40	9144.47
472.58	9352.78
472.77	9170.22
472.95	9378.53
473.13	9750.67
473.31	9423.00
473.49	9509.60
473.67	9575.13
473.85	9846.63
474.03	9680.46
474.21	9724.93
474.39	9813.87
474.57	9951.96
474.75	10001.11
474.93	10249.21
475.12	10010.47
475.30	10413.04
475.48	10038.56
475.66	10214.10
475.84	10197.71
476.02	10125.16
476.20	10237.50
476.38	10413.04
476.56	10668.16
476.74	10682.20
476.92	10752.42
477.10	10775.83
477.28	10766.46
477.46	10813.28
477.64	10822.64
477.82	11068.39
478.00	11398.41
478.18	11166.70
478.36	11405.43
478.54	11241.59
478.72	11433.52
478.90	11550.54
479.08	11793.96
479.26	11721.40
479.44	11758.85
479.62	11850.13
479.80	11946.09
479.98	11976.52
480.16	12257.39
480.34	12198.87
480.52	12264.41
480.70	12196.53
480.88	12320.58
481.06	12652.94
481.24	12486.76
481.41	12861.24
481.59	12779.32
481.77	12870.61
481.95	12816.77
482.13	13327.01
482.31	12945.50
482.49	13385.52
482.67	13535.32
482.85	13647.66
483.03	13734.26
483.21	13902.78
483.39	14045.55
483.57	13654.69
483.74	13874.70
483.92	14427.06
484.10	14141.52
484.28	14375.57
484.46	14551.11
484.64	14754.74
484.82	14721.97
485.00	14679.84
485.18	15059.01
485.35	15199.44
485.53	15211.14
485.71	15363.28
485.89	15538.82
486.07	15269.66
486.25	15466.26
486.43	15618.39
486.61	15648.82
486.78	15974.16
486.96	16156.72
487.14	16262.04
487.32	16407.16
487.50	16418.86
487.68	16606.10
487.85	16849.52
488.03	16933.78
488.21	17165.49
488.39	16870.58
488.57	17242.73
488.75	17247.41
488.92	17493.16
489.10	17624.23
489.28	17500.19
489.46	17956.59
489.64	17935.53
489.81	18012.76
489.99	18382.57
490.17	18338.10
490.35	18579.17
490.53	18356.82
490.70	18836.63
490.88	18817.91
491.06	19154.94
491.24	19250.91
491.41	18953.66
491.59	19555.18
491.77	19449.85
491.95	19543.47
492.13	19756.46
492.30	19885.19
492.48	19721.35
492.66	20020.94
492.84	19829.02
493.01	20315.85
493.19	20355.64
493.37	20496.07
493.54	20439.90
493.72	20704.38
493.90	20671.61
494.08	20709.06
494.25	20987.58
494.43	20809.70
494.61	21120.99
494.79	21645.27
494.96	21352.71
495.14	21371.43
495.32	21666.34
495.49	21769.32
495.67	22164.87
495.85	21905.07
496.02	22370.84
496.20	22647.02
496.38	22733.62
496.55	22551.06
496.73	22932.57
496.91	22742.99
497.09	22963.00
497.26	22932.57
497.44	23094.07
497.62	23543.45
497.79	23737.71
497.97	23358.55
498.14	23723.67
498.32	23920.28
498.50	23791.55
498.67	24147.31
498.85	24039.64
499.03	24243.27
499.20	24215.18
499.38	24126.24
499.56	24510.09
499.73	24362.64
499.91	24500.73
500.08	25605.46
500.26	24479.66
500.44	25149.06
500.61	24999.26
500.79	24954.79
500.97	25867.60
501.14	25708.44
501.32	25539.93
501.49	25415.88
501.67	25511.84
501.84	25869.94
502.02	25717.81
502.20	26024.42
502.37	25680.36
502.55	25736.53
502.72	26038.46
502.90	26246.77
503.07	26345.07
503.25	26270.17
503.43	26197.62
503.60	26623.59
503.78	26677.43
503.95	26817.86
504.13	26759.34
504.30	26813.18
504.48	26728.92
504.65	26953.61
504.83	27520.02
505.01	27307.03
505.18	27342.14
505.36	27672.15
505.53	27601.94
505.71	27702.58
505.88	27704.92
506.06	27475.55
506.23	27758.75
506.41	27807.90
506.58	28041.96
506.76	27630.02
506.93	28027.92
507.11	28194.09
507.28	28580.28
507.46	28276.01
507.63	28432.83
507.81	28423.47
507.98	28685.61
508.16	28701.99
508.33	29333.93
508.50	28879.87
508.68	28868.17
508.85	29024.98
509.03	29041.37
509.20	29029.66
509.38	29486.07
509.55	29481.39
509.73	29546.92
509.90	29460.32
510.08	29804.38
510.25	29710.76
510.42	29755.23
510.60	30263.13
510.77	30197.59
510.95	30487.82
511.12	30178.87
511.30	30141.42
511.47	30347.39
511.64	30136.74
511.82	30595.48
511.99	30618.89
512.17	30787.41
512.34	30806.13
512.51	31180.62
512.69	31512.97
512.86	30944.22
513.04	31302.32
513.21	31262.54
513.38	31049.55
513.56	31232.11
513.73	31519.99
513.90	31363.18
514.08	31473.18
514.25	31826.60
514.43	32079.38
514.60	32135.56
514.77	31751.71
514.95	31899.16
515.12	31646.38
515.29	32173.00
515.47	32472.59
515.64	32177.68
515.81	32325.14
515.99	32397.70
516.16	32662.18
516.33	32769.84
516.51	32716.01
516.68	32748.78
516.85	32704.31
517.03	33090.49
517.20	33125.60
517.37	33074.11
517.54	33141.99
517.72	33338.59
517.89	32786.22
518.06	33113.90
518.24	33277.74
518.41	33551.58
518.58	33401.79
518.75	33380.72
518.93	33291.78
519.10	33701.37
519.27	33879.25
519.45	33972.88
519.62	33963.51
519.79	34103.95
519.96	34108.63
520.14	34504.18
520.31	33954.15
520.48	34230.33
520.65	34110.97
520.83	34485.45
521.00	34756.96
521.17	34827.17
521.34	35014.41
521.52	34906.75
521.69	34998.03
521.86	35381.88
522.03	35180.59
522.20	34967.60
522.38	35489.54
522.55	35253.15
522.72	35372.52
522.89	35620.61
523.07	36147.23
523.24	35674.45
523.41	36023.19
523.58	35775.09
523.75	35948.29
523.92	35697.85
524.10	35573.80
524.27	35901.48
524.44	35903.82
524.61	36432.78
524.78	36254.90
524.96	35978.72
525.13	36116.81
525.30	36194.04
525.47	36336.82
525.64	36432.78
525.81	36474.91
525.98	36816.63
526.16	36449.16
526.33	36753.43
526.50	36851.73
526.67	36285.33
526.84	36821.31
527.01	37083.45
527.18	36863.44
527.36	37013.23
527.53	37357.29
527.70	37221.54
527.87	37443.89
528.04	37464.96
528.21	37455.59
528.38	37572.62
528.55	37673.26
528.72	37205.16
528.89	37830.08
529.07	37184.09
529.24	37572.62
529.41	37970.51
529.58	38024.34
529.75	37755.18
529.92	37607.73
530.09	37958.81
530.26	38136.69
530.43	38211.59
530.60	38185.84
530.77	37937.74
530.94	37912.00
531.11	38611.82
531.28	38174.14
531.46	38377.76
531.63	38443.30
531.80	38068.81
531.97	38916.09
532.14	38686.71
532.31	38864.60
532.48	39012.05
532.65	39138.44
532.82	38918.43
532.99	38754.59
533.16	38855.23
533.33	39445.05
533.50	39234.40
533.67	38792.04
533.84	38546.28
534.01	39489.52
534.18	39061.20
534.35	39632.29
534.52	39559.73
534.69	39552.71
534.86	39580.80
535.03	39615.91
535.20	39793.79
535.37	39384.19
535.54	39952.94
535.71	39817.19
535.88	40016.14
536.05	39817.19
536.22	40081.67
536.38	40081.67
536.55	40332.11
536.72	40076.99
536.89	39878.05
537.06	39894.43
537.23	40580.21
537.40	40060.61
537.57	40594.25
537.74	40245.51
537.91	40692.55
538.08	40371.90
538.25	40418.71
538.42	40938.31
538.59	40870.43
538.75	40591.91
538.92	40545.10
539.09	41148.96
539.26	40844.69
539.43	40797.88
539.60	41193.43
539.77	40414.03
539.94	41041.29
540.11	40840.01
540.28	41191.09
540.44	41345.56
540.61	41113.85
540.78	41048.32
540.95	40924.27
541.12	41036.61
541.29	41310.46
541.46	41638.13
541.62	41556.21
541.79	41605.36
541.96	41343.22
542.13	41179.39
542.30	41591.32
542.47	41631.11
542.63	41717.71
542.80	41607.70
542.97	42272.42
543.14	42307.52
543.31	42492.43
543.48	41832.39
543.64	42564.98
543.81	42356.67
543.98	42298.16
544.15	42181.13
544.32	42572.00
544.48	42815.42
544.65	42796.70
544.82	42359.02
544.99	42316.89
545.16	42417.53
545.32	42377.74
545.49	42934.79
545.66	43449.70
545.83	42717.12
546.00	42902.02
546.16	42887.98
546.33	42927.77
546.50	42955.85
546.67	42625.84
546.83	42784.99
547.00	43117.35
547.17	43103.31
547.34	42918.40
547.50	43524.60
547.67	43756.32
547.84	43686.10
548.00	43349.06
548.17	43634.61
548.34	43384.17
548.51	43807.81
548.67	43690.78
548.84	43615.88
549.01	43351.40
549.18	43730.57
549.34	43688.44
549.51	43910.79
549.68	44119.10
549.84	43714.19
550.01	43931.86
550.18	43288.21
550.34	43908.45
550.51	44259.53
550.68	44629.34
550.84	43901.43
551.01	44575.50
551.18	43920.15
551.34	43749.29
551.51	44472.52
551.68	44292.30
551.84	44144.84
552.01	44367.20
552.18	44266.55
552.34	44308.68
552.51	44758.06
552.68	44013.77
552.84	44428.05
553.01	44622.31
553.18	44348.47
553.34	44601.25
553.51	44617.63
553.67	44659.76
553.84	44931.26
554.01	45088.08
554.17	44744.02
554.34	45219.15
554.51	44772.11
554.67	45055.31
554.84	44900.84
555.00	45212.13
555.17	44727.64
555.33	45251.92
555.50	44949.99
555.67	45352.56
555.83	45254.26
556.00	45235.53
556.16	45605.34
556.33	45059.99
556.50	45130.21
556.66	45268.30
556.83	45003.82
556.99	45682.58
557.16	45612.36
557.32	45741.09
557.49	45556.19
557.65	45380.65
557.82	45338.52
557.98	45565.55
558.15	45165.32
558.32	45680.24
558.48	45502.35
558.65	45516.40
558.81	46120.26
558.98	45638.11
559.14	45305.75
559.31	45815.99
559.47	45446.18
559.64	45881.52
559.80	45696.62
559.97	45677.90
560.13	45895.56
560.30	45642.79
560.46	46045.36
560.63	45865.14
560.79	45654.49
560.96	45958.76
561.12	46096.85
561.29	46256.01
561.45	46373.03
561.61	45677.90
561.78	46167.07
561.94	45762.15
562.11	45984.51
562.27	46286.43
562.44	46043.02
562.60	46024.29
562.77	46412.82
562.93	46192.81
563.10	46438.57
563.26	46412.82
563.42	46593.04
563.59	46394.10
563.75	46085.15
563.92	46469.00
564.08	46284.09
564.24	46340.27
564.41	46103.87
564.57	46586.02
564.74	46529.85
564.90	46073.45
565.07	46464.32
565.23	46293.46
565.39	46831.78
565.56	46586.02
565.72	46454.95
565.88	46595.38
566.05	46766.24
566.21	46604.75
566.38	46279.41
566.54	46705.39
566.70	46579.00
566.87	47009.66
567.03	46511.13
567.19	46967.53
567.36	47145.41
567.52	46422.19
567.68	47309.25
567.85	47000.30
568.01	47334.99
568.17	46960.51
568.34	46913.70
568.50	46583.68
568.66	46174.09
568.83	47033.07
568.99	47004.98
569.15	47122.01
569.32	46822.42
569.48	46387.08
569.64	47363.08
569.81	46838.80
569.97	47133.71
570.13	47105.62
570.30	46887.95
570.46	47105.62
570.62	47086.90
570.78	47442.66
570.95	46740.50
571.11	47208.61
571.27	47327.97
571.43	47206.26
571.60	47084.56
571.76	46920.72
571.92	47260.10
572.09	47019.02
572.25	47063.49
572.41	47019.02
572.57	47323.29
572.74	47311.59
572.90	47255.42
573.06	47409.89
573.22	47217.97
573.38	47688.42
573.55	47220.31
573.71	47817.14
573.87	47409.89
574.03	47229.67
574.20	47599.47
574.36	47070.51
574.52	47538.62
574.68	47365.42
574.84	47599.47
575.01	47564.37
575.17	47636.92
575.33	47175.84
575.49	46997.96
575.65	47772.67
575.82	47229.67
575.98	46836.46
576.14	47435.64
576.30	47604.16
576.46	47250.74
576.62	47536.28
576.79	47220.31
576.95	47264.78
577.11	47342.02
577.27	47330.31
577.43	47613.52
577.59	47377.12
577.75	47501.17
577.92	47213.29
578.08	47423.93
578.24	47110.30
578.40	47599.47
578.56	47634.58
578.72	47262.44
578.88	47248.39
579.04	47863.96
579.21	47342.02
579.37	47629.90
579.53	47812.46
579.69	47662.67
579.85	47297.55
580.01	47295.21
580.17	47503.51
580.33	47672.03
580.49	47540.96
580.65	47681.39
580.82	47402.87
580.98	47540.96
581.14	46995.62
581.30	47896.72
581.46	47313.93
581.62	47522.24
581.78	47632.24
581.94	47533.94
582.10	47423.93
582.26	47704.80
582.42	47201.58
582.58	47929.49
582.74	47583.09
582.90	47356.06
583.06	47753.95
583.22	47529.26
583.38	48102.69
583.54	47772.67
583.70	47234.35
583.86	47648.63
584.02	47653.31
584.18	48046.52
584.34	48142.48
584.50	48076.94
584.66	47833.53
584.82	47627.56
584.98	47665.01
585.14	48065.24
585.30	47676.71
585.46	48051.20
585.62	47529.26
585.78	47716.50
585.94	47704.80
586.10	47817.14
586.26	47533.94
586.42	47641.60
586.58	47777.36
586.74	47697.78
586.90	47859.27
587.06	48191.63
587.22	47913.11
587.38	47662.67
587.54	48135.46
587.70	48327.38
587.86	48100.35
588.02	47990.34
588.18	47702.46
588.34	47625.22
588.49	47980.98
588.65	47908.43
588.81	47580.75
588.97	47943.53
589.13	47758.63
589.29	47629.90
589.45	47915.45
589.61	48402.28
589.77	48037.16
589.93	48282.91
590.08	48203.33
