SpectraSuite Data File
++++++++++++++++++++++++++++++++++++
Date: Fri Oct 25 10:47:32 EDT 2013
User: price-jones
Dark Spectrum Present: No
Reference Spectrum Present: No
Number of Sampled Component Spectra: 1
Spectrometers: USB2+H05261
Integration Time (usec): 100000 (USB2+H05261)
Spectra Averaged: 1 (USB2+H05261)
Boxcar Smoothing: 0 (USB2+H05261)
Correct for Electrical Dark: No (USB2+H05261)
Strobe/Lamp Enabled: No (USB2+H05261)
Correct for Detector Non-linearity: No (USB2+H05261)
Correct for Stray Light: No (USB2+H05261)
Number of Pixels in Processed Spectrum: 2048
>>>>>Begin Processed Spectral Data<<<<<
365.73	163.84
365.92	163.84
366.12	163.84
366.32	65.54
366.52	0.00
366.72	74.90
366.91	56.17
367.11	58.51
367.31	37.45
367.51	0.00
367.70	37.45
367.90	65.54
368.10	37.45
368.30	112.35
368.49	51.49
368.69	86.60
368.89	0.00
369.09	77.24
369.28	77.24
369.48	126.39
369.68	30.43
369.87	147.45
370.07	77.24
370.27	102.98
370.47	220.01
370.66	355.76
370.86	444.70
371.06	440.02
371.25	454.06
371.45	440.02
371.65	468.11
371.84	465.77
372.04	433.00
372.24	409.59
372.44	505.56
372.63	477.47
372.83	491.51
373.03	507.90
373.22	533.64
373.42	543.00
373.62	489.17
373.81	454.06
374.01	561.73
374.21	535.98
374.40	573.43
374.60	578.11
374.79	496.19
374.99	486.83
375.19	482.15
375.38	521.94
375.58	538.32
375.78	610.88
375.97	594.50
376.17	547.69
376.37	622.58
376.56	505.56
376.76	533.64
376.95	547.69
377.15	587.47
377.35	585.13
377.54	554.71
377.74	599.18
377.93	596.84
378.13	554.71
378.33	631.94
378.52	573.43
378.72	650.67
378.91	603.86
379.11	601.52
379.31	587.47
379.50	641.31
379.70	678.76
379.89	599.18
380.09	557.05
380.28	589.82
380.48	580.45
380.68	589.82
380.87	578.11
381.07	557.05
381.26	716.20
381.46	685.78
381.65	587.47
381.85	683.44
382.04	674.07
382.24	608.54
382.43	702.16
382.63	620.24
382.83	711.52
383.02	727.91
383.22	702.16
383.41	624.92
383.61	748.97
383.80	727.91
384.00	774.72
384.19	727.91
384.39	725.57
384.58	702.16
384.78	755.99
384.97	753.65
385.17	664.71
385.36	725.57
385.56	856.64
385.75	737.27
385.95	674.07
386.14	826.21
386.34	706.84
386.53	833.23
386.72	746.63
386.92	812.17
387.11	746.63
387.31	854.30
387.50	788.76
387.70	821.53
387.89	856.64
388.09	842.59
388.28	784.08
388.48	777.06
388.67	870.68
388.86	802.80
389.06	791.10
389.25	858.98
389.45	861.32
389.64	835.57
389.84	917.49
390.03	926.85
390.22	936.21
390.42	973.66
390.61	884.72
390.81	903.45
391.00	922.17
391.19	877.70
391.39	1001.75
391.58	1069.62
391.78	882.38
391.97	905.79
392.16	936.21
392.36	938.55
392.55	901.11
392.75	980.68
392.94	926.85
393.13	997.07
393.33	936.21
393.52	1018.13
393.71	978.34
393.91	1029.84
394.10	1036.86
394.29	1062.60
394.49	999.41
394.68	1118.78
394.88	1121.12
395.07	1083.67
395.26	1064.94
395.46	1069.62
395.65	1041.54
395.84	1076.65
396.04	1184.31
396.23	1015.79
396.42	1128.14
396.62	1046.22
396.81	1135.16
397.00	1163.25
397.19	1118.78
397.39	1177.29
397.58	1200.69
397.77	1118.78
397.97	1179.63
398.16	1174.95
398.35	1263.89
398.55	1315.38
398.74	1275.59
398.93	1263.89
399.12	1324.74
399.32	1362.19
399.51	1299.00
399.70	1376.24
399.90	1338.79
400.09	1291.98
400.28	1308.36
400.47	1341.13
400.67	1378.58
400.86	1380.92
401.05	1341.13
401.24	1455.81
401.44	1504.96
401.63	1554.12
401.82	1434.75
402.01	1479.22
402.21	1392.62
402.40	1551.78
402.59	1474.54
402.78	1523.69
402.97	1589.22
403.17	1481.56
403.36	1572.84
403.55	1589.22
403.74	1563.48
403.93	1547.09
404.13	1549.43
404.32	1678.16
404.51	1647.74
404.70	1572.84
404.89	1607.95
405.09	1675.82
405.28	1696.89
405.47	1717.95
405.66	1734.34
405.85	1696.89
406.05	1769.44
406.24	1708.59
406.43	1795.19
406.62	1645.40
406.81	1802.21
407.00	1781.15
407.20	1746.04
407.39	1764.76
407.58	1689.87
407.77	1877.11
407.96	1830.30
408.15	1879.45
408.34	1830.30
408.54	1811.57
408.73	1839.66
408.92	1987.11
409.11	1956.69
409.30	2038.61
409.49	2005.84
409.68	1930.94
409.87	2076.06
410.07	1949.67
410.26	1949.67
410.45	2134.57
410.64	2211.81
410.83	2157.97
411.02	2221.17
411.21	2216.49
411.40	2218.83
411.59	2235.21
411.78	2122.87
411.98	2232.87
412.17	2202.44
412.36	2289.04
412.55	2366.28
412.74	2312.45
412.93	2443.52
413.12	2328.83
413.31	2520.76
413.50	2368.62
413.69	2394.37
413.88	2499.69
414.07	2574.59
414.26	2476.29
414.45	2574.59
414.64	2471.61
414.83	2527.78
415.02	2565.23
415.22	2731.41
415.41	2691.62
415.60	2747.79
415.79	2715.02
415.98	2747.79
416.17	2808.64
416.36	2822.69
416.55	2829.71
416.74	2792.26
416.93	2771.19
417.12	2864.82
417.31	2871.84
417.50	2787.58
417.69	2958.44
417.88	3059.08
418.07	3045.04
418.26	2918.65
418.45	3049.72
418.64	3157.38
418.83	3068.44
419.02	2960.78
419.21	3199.51
419.39	3108.23
419.58	3122.27
419.77	3148.02
419.96	3180.79
420.15	3248.66
420.34	3157.38
420.53	3258.03
420.72	3288.45
420.91	3307.18
421.10	3325.90
421.29	3389.10
421.48	3243.98
421.67	3234.62
421.86	3208.87
422.05	3227.60
422.24	3321.22
422.43	3293.13
422.61	3325.90
422.80	3272.07
422.99	3543.57
423.18	3328.24
423.37	3419.52
423.56	3524.85
423.75	3328.24
423.94	3379.73
424.13	3150.36
424.32	3323.56
424.50	3276.75
424.69	3501.44
424.88	3534.21
425.07	3386.76
425.26	3267.39
425.45	3272.07
425.64	3356.33
425.83	3440.59
426.01	3417.18
426.20	3496.76
426.39	3489.74
426.58	3414.84
426.77	3417.18
426.96	3571.66
427.15	3548.25
427.33	3583.36
427.52	3585.70
427.71	3599.74
427.90	3583.36
428.09	3562.30
428.28	3646.55
428.46	3623.15
428.65	3707.41
428.84	3777.62
429.03	3749.54
429.22	3723.79
429.40	3691.02
429.59	3658.26
429.78	3655.92
429.97	3637.19
430.16	3829.12
430.34	3777.62
430.53	3838.48
430.72	3770.60
430.91	3777.62
431.10	4004.66
431.28	3925.08
431.47	4081.89
431.66	4042.11
431.85	3983.59
432.03	4124.02
432.22	4100.62
432.41	4107.64
432.60	4011.68
432.79	4072.53
432.97	4198.92
433.16	4102.96
433.35	4077.21
433.54	4128.70
433.72	4124.02
433.91	4329.99
434.10	4173.18
434.28	4072.53
434.47	4198.92
434.66	4301.90
434.85	4278.50
435.03	4315.95
435.22	4339.35
435.41	4449.36
435.59	4440.00
435.78	4329.99
435.97	4540.64
436.16	4559.36
436.34	4484.47
436.53	4374.46
436.72	4538.30
436.90	4451.70
437.09	4596.81
437.28	4585.11
437.46	4587.45
437.65	4631.92
437.84	4559.36
438.02	4540.64
438.21	4538.30
438.40	4662.35
438.58	4823.84
438.77	4741.93
438.96	4816.82
439.14	4997.04
439.33	4901.08
439.52	5093.01
439.70	4791.08
439.89	4915.12
440.08	4924.49
440.26	4980.66
440.45	4919.81
440.63	5139.82
440.82	5188.97
441.01	5121.09
441.19	5432.38
441.38	5163.22
441.57	5231.10
441.75	5441.75
441.94	5483.88
442.12	5455.79
442.31	5575.16
442.50	5460.47
442.68	5582.18
442.87	5439.40
443.05	5460.47
443.24	5556.43
443.43	5528.35
443.61	5607.92
443.80	5650.05
443.98	5439.40
444.17	5420.68
444.35	5617.29
444.54	5720.27
444.73	5746.02
444.91	5591.54
445.10	5659.42
445.28	5708.57
445.47	5614.95
445.65	5633.67
445.84	5769.42
446.02	5680.48
446.21	5652.39
446.39	5781.12
446.58	5764.74
446.77	5818.57
446.95	5727.29
447.14	5804.53
447.32	6005.81
447.51	5715.59
447.69	5865.38
447.88	5788.14
448.06	5870.06
448.25	5724.95
448.43	5762.40
448.62	5813.89
448.80	5856.02
448.99	5916.87
449.17	5916.87
449.36	5900.49
449.54	6230.51
449.73	6108.80
449.91	6031.56
450.10	6274.98
450.28	6204.76
450.46	6342.85
450.65	6251.57
450.83	6324.13
451.02	6160.29
451.20	6314.77
451.39	6286.68
451.57	6251.57
451.76	6232.85
451.94	6162.63
452.13	6562.86
452.31	6399.02
452.49	6232.85
452.68	6401.37
452.86	6211.78
453.05	6462.22
453.23	6511.37
453.42	6441.15
453.60	6324.13
453.78	6607.33
453.97	6209.44
454.15	6516.05
454.34	6494.99
454.52	6661.16
454.70	6597.97
454.89	6541.80
455.07	6569.88
455.26	6693.93
455.44	6661.16
455.62	6583.93
455.81	6560.52
455.99	6899.90
456.17	6846.07
456.36	6768.83
456.54	6925.65
456.73	6853.09
456.91	7054.37
457.09	7075.44
457.28	7269.70
457.46	7101.19
457.64	7101.19
457.83	7035.65
458.01	6953.73
458.19	7087.14
458.38	7140.97
458.56	7164.38
458.74	7206.51
458.93	7255.66
459.11	7162.04
459.29	7148.00
459.48	7435.88
459.66	7227.57
459.84	7302.47
460.03	7337.58
460.21	7538.87
460.39	7513.12
460.57	7513.12
460.76	7449.93
460.94	7522.48
461.12	7634.83
461.31	7735.47
461.49	7592.70
461.67	7578.65
461.85	7665.25
462.04	7613.76
462.22	8161.45
462.40	7803.35
462.59	7452.27
462.77	7695.68
462.95	7744.83
463.13	7798.66
463.32	8077.19
463.50	7852.50
463.68	8018.68
463.86	7866.54
464.05	7592.70
464.23	7854.84
464.41	7878.24
464.59	8004.63
464.78	8196.56
464.96	7892.29
465.14	8049.10
465.32	7749.51
465.50	8112.30
465.69	8208.26
465.87	8018.68
466.05	8156.77
466.23	8056.12
466.41	7962.50
466.60	8259.75
466.78	8009.31
466.96	8161.45
467.14	8201.24
467.32	8294.86
467.51	8236.35
467.69	7936.76
467.87	8336.99
468.05	8411.89
468.23	8407.20
468.41	8163.79
468.60	8287.84
468.78	8308.90
468.96	8505.51
469.14	8706.79
469.32	8847.22
469.50	8367.42
469.69	8542.96
469.87	8655.30
470.05	8706.79
470.23	8592.11
470.41	8624.87
470.59	8711.47
470.77	8688.07
470.95	8861.27
471.14	9081.28
471.32	8805.10
471.50	9083.62
471.68	9151.49
471.86	8901.06
472.04	8968.93
472.22	9324.69
472.40	9041.49
472.58	9088.30
472.77	9111.71
472.95	9390.23
473.13	9804.50
473.31	9394.91
473.49	9364.48
473.67	9399.59
473.85	9490.87
474.03	9533.00
474.21	9713.22
474.39	9647.69
474.57	9792.80
474.75	9785.78
474.93	10127.50
475.12	9816.21
475.30	9797.48
475.48	9783.44
475.66	10003.45
475.84	10003.45
476.02	10181.33
476.20	10237.50
476.38	10417.72
476.56	10729.02
476.74	10429.43
476.92	10441.13
477.10	10317.08
477.28	10466.88
477.46	10616.67
477.64	10829.66
477.82	10890.51
478.00	11096.48
478.18	10768.80
478.36	10995.84
478.54	11187.76
478.72	11234.57
478.90	11367.98
479.08	11648.85
479.26	11683.95
479.44	11508.41
479.62	11995.25
479.80	12028.01
479.98	11906.31
480.16	11868.86
480.34	12039.72
480.52	12184.83
480.70	12049.08
480.88	12121.63
481.06	12224.62
481.24	12236.32
481.41	12599.10
481.59	12774.64
481.77	12666.98
481.95	12741.88
482.13	12842.52
482.31	12922.10
482.49	13415.95
482.67	13177.22
482.85	13446.38
483.03	13362.12
483.21	13455.74
483.39	13741.29
483.57	14057.26
483.74	13523.62
483.92	13865.33
484.10	13860.65
484.28	14139.18
484.46	14609.62
484.64	14555.79
484.82	14499.62
485.00	14420.04
485.18	14464.51
485.35	15073.05
485.53	14602.60
485.71	14794.53
485.89	15007.52
486.07	14815.59
486.25	14876.44
486.43	15475.62
486.61	15311.78
486.78	15499.03
486.96	15967.13
487.14	16091.18
487.32	15981.18
487.50	16093.52
487.68	16491.41
487.85	16346.30
488.03	16477.37
488.21	16791.00
488.39	16812.07
488.57	16893.99
488.75	16849.52
488.92	17128.04
489.10	17212.30
489.28	17324.65
489.46	17605.51
489.64	17509.55
489.81	17972.97
489.99	18029.15
490.17	17900.42
490.35	18181.28
490.53	18253.84
490.70	18384.91
490.88	18324.05
491.06	18597.90
491.24	18513.64
491.41	18527.68
491.59	18855.36
491.77	18560.45
491.95	19173.67
492.13	19232.18
492.30	19566.88
492.48	19499.00
492.66	19524.75
492.84	19728.38
493.01	19894.55
493.19	19915.62
493.37	19840.72
493.54	20294.79
493.72	20414.15
493.90	20198.82
494.08	20498.41
494.25	20648.21
494.43	20554.58
494.61	20840.13
494.79	20926.73
494.96	20643.52
495.14	21003.97
495.32	21284.83
495.49	21378.45
495.67	21764.64
495.85	21666.34
496.02	21673.36
496.20	21881.67
496.38	22019.76
496.55	22031.46
496.73	22689.15
496.91	22225.73
497.09	22499.57
497.26	22586.17
497.44	22478.50
497.62	22602.55
497.79	22534.68
497.97	22892.78
498.14	23178.33
498.32	22857.67
498.50	23168.96
498.67	23274.29
498.85	23328.12
499.03	23606.64
499.20	23807.93
499.38	23950.70
499.56	23646.43
499.73	23880.49
499.91	23805.59
500.08	24210.50
500.26	23985.81
500.44	23892.19
500.61	24240.93
500.79	23985.81
500.97	24570.94
501.14	25043.73
501.32	24524.13
501.49	24816.70
501.67	24786.27
501.84	25172.46
502.02	24826.06
502.20	25315.23
502.37	25366.73
502.55	24961.81
502.72	25104.59
502.90	25507.16
503.07	25383.11
503.25	25301.19
503.43	25322.26
503.60	25724.83
503.78	25701.42
503.95	25598.44
504.13	25752.91
504.30	25912.07
504.48	26167.19
504.65	26363.79
504.83	26305.28
505.01	26223.36
505.18	26499.55
505.36	26600.19
505.53	26412.95
505.71	26906.80
505.88	27323.41
506.06	27012.12
506.23	26628.27
506.41	26843.60
506.58	27115.11
506.76	26888.07
506.93	26878.71
507.11	27049.57
507.28	27307.03
507.46	27297.67
507.63	27318.73
507.81	27428.74
507.98	27372.57
508.16	27826.63
508.33	27681.52
508.50	27534.06
508.68	27854.72
508.85	28266.65
509.03	28051.32
509.20	28287.71
509.38	28577.94
509.55	28573.26
509.73	28599.01
509.90	28954.77
510.08	28446.87
510.25	28577.94
510.42	28580.28
510.60	28933.70
510.77	29282.44
510.95	29385.43
511.12	28973.49
511.30	29064.77
511.47	29392.45
511.64	29579.69
511.82	29425.22
511.99	29514.16
512.17	29710.76
512.34	29511.81
512.51	29809.06
512.69	29956.52
512.86	29895.66
513.04	30019.71
513.21	29968.22
513.38	29914.39
513.56	29905.02
513.73	30108.65
513.90	30326.32
514.08	30375.47
514.25	30328.66
514.43	30389.52
514.60	30417.60
514.77	30773.36
514.95	30609.53
515.12	30707.83
515.29	31063.59
515.47	30677.40
515.64	31253.17
515.81	31009.76
515.99	31262.54
516.16	31147.85
516.33	31278.92
516.51	31054.23
516.68	30845.92
516.85	31089.34
517.03	31564.46
517.20	31571.49
517.37	31548.08
517.54	31735.32
517.72	31772.77
517.89	31316.37
518.06	31803.20
518.24	31880.44
518.41	31960.02
518.58	31962.36
518.75	32044.27
518.93	32165.98
519.10	31669.79
519.27	32362.59
519.45	32407.06
519.62	32154.28
519.79	32568.55
519.96	32496.00
520.14	32835.38
520.31	32563.87
520.48	32730.05
520.65	32496.00
520.83	33003.89
521.00	33099.86
521.17	33254.33
521.34	33017.94
521.52	33589.03
521.69	32940.70
521.86	33380.72
522.03	33603.07
522.20	33516.47
522.38	33876.91
522.55	33528.17
522.72	33701.37
522.89	33256.67
523.07	33874.57
523.24	33219.22
523.41	33684.99
523.58	33970.54
523.75	34356.72
523.92	34300.55
524.10	34108.63
524.27	34408.22
524.44	34501.84
524.61	34539.29
524.78	34607.16
524.96	34448.00
525.13	34836.53
525.30	35360.81
525.47	34913.77
525.64	34881.00
525.81	34724.19
525.98	34890.37
526.16	35250.81
526.33	34637.59
526.50	35061.22
526.67	35112.72
526.84	34810.79
527.01	34623.54
527.18	34916.11
527.36	35332.73
527.53	35260.17
527.70	35754.02
527.87	35658.06
528.04	35328.05
528.21	35714.23
528.38	35316.34
528.55	35702.53
528.72	35374.86
528.89	35983.40
529.07	36133.19
529.24	35744.66
529.41	36404.69
529.58	36039.57
529.75	35941.27
529.92	36055.95
530.09	36329.80
530.26	36100.42
530.43	36568.53
530.60	36638.75
530.77	36430.44
530.94	36542.78
531.11	36201.07
531.28	36505.34
531.46	36231.49
531.63	36751.09
531.80	36631.72
531.97	36624.70
532.14	36622.36
532.31	36825.99
532.48	36746.41
532.65	36891.52
532.82	36835.35
532.99	37038.98
533.16	36643.43
533.33	37273.03
533.50	37298.78
533.67	37366.65
533.84	37130.26
534.01	37551.56
534.18	37317.50
534.35	37558.58
534.52	37392.40
534.69	37633.47
534.86	37689.65
535.03	37188.77
535.20	37904.98
535.37	38139.03
535.54	38251.38
535.71	37738.80
535.88	38319.25
536.05	37907.32
536.22	38279.46
536.38	37801.99
536.55	37787.95
536.72	38539.26
536.89	38005.62
537.06	37680.28
537.23	38010.30
537.40	38157.75
537.57	38326.27
537.74	38286.48
537.91	38307.55
538.08	38536.92
538.25	38337.98
538.42	38579.05
538.59	38396.49
538.75	38417.55
538.92	38707.78
539.09	38632.88
539.26	38735.87
539.43	38543.94
539.60	38703.10
539.77	38234.99
539.94	38986.30
540.11	38719.48
540.28	39042.48
540.44	39061.20
540.61	38862.26
540.78	38366.06
540.95	38904.38
541.12	38813.10
541.29	39068.22
541.46	39199.29
541.62	38667.99
541.79	39590.16
541.96	39028.43
542.13	39372.49
542.30	39260.15
542.47	39550.37
542.63	39587.82
542.80	39688.46
542.97	39629.95
543.14	40126.14
543.31	39784.43
543.48	39433.35
543.64	40156.57
543.81	40236.15
543.98	40189.34
544.15	39737.62
544.32	40360.20
544.48	40425.73
544.65	39974.01
544.82	40484.25
544.99	39749.32
545.16	40135.51
545.32	40069.97
545.49	40687.87
545.66	40240.83
545.83	40268.92
546.00	40788.52
546.16	40297.00
546.33	40252.53
546.50	40149.55
546.67	40563.82
546.83	40259.55
547.00	40514.67
547.17	40652.76
547.34	40292.32
547.50	40638.72
547.67	41064.70
547.84	41158.32
548.00	40882.14
548.17	40914.90
548.34	41036.61
548.51	41036.61
548.67	41268.33
548.84	41282.37
549.01	41193.43
549.18	41221.52
549.34	41055.34
549.51	41352.58
549.68	41212.15
549.84	41191.09
550.01	41277.69
550.18	41385.35
550.34	41298.75
550.51	41462.59
550.68	41427.48
550.84	41371.31
551.01	41282.37
551.18	41228.54
551.34	41097.47
551.51	41675.58
551.68	41689.62
551.84	42171.77
552.01	41319.82
552.18	41811.33
552.34	41883.89
552.51	42045.38
552.68	42204.54
552.84	41759.84
553.01	41780.90
553.18	41745.80
553.34	41488.34
553.51	41694.30
553.67	41766.86
553.84	42188.16
554.01	42574.34
554.17	42438.59
554.34	42003.25
554.51	42120.28
554.67	42436.25
554.84	42220.92
555.00	42188.16
555.17	42033.68
555.33	42314.55
555.50	42476.04
555.67	42412.85
555.83	42211.56
556.00	42349.65
556.16	42941.81
556.33	42766.27
556.50	42412.85
556.66	42564.98
556.83	42326.25
556.99	42522.85
557.16	42387.10
557.32	42618.81
557.49	42387.10
557.65	42237.31
557.82	42291.14
557.98	42733.50
558.15	42707.76
558.32	42527.53
558.48	42806.06
558.65	42876.27
558.81	42623.50
558.98	42820.10
559.14	42342.63
559.31	42344.97
559.47	42801.38
559.64	43145.44
559.80	43232.04
559.97	42930.11
560.13	42787.33
560.30	42674.99
560.46	42660.94
560.63	43203.95
560.79	43363.11
560.96	43136.07
561.12	43107.99
561.29	43304.59
561.45	43072.88
561.61	42990.96
561.78	42993.30
561.94	43042.45
562.11	43395.87
562.27	42815.42
562.44	43346.72
562.60	43033.09
562.77	43302.25
562.93	43292.89
563.10	43016.71
563.26	43456.73
563.42	43320.98
563.59	43583.12
563.75	43096.28
563.92	43749.29
564.08	43328.00
564.24	43508.22
564.41	43332.68
564.57	43260.12
564.74	43213.31
564.90	43187.56
565.07	43482.47
565.23	43332.68
565.39	43290.55
565.56	43325.66
565.72	43208.63
565.88	43246.08
566.05	43449.70
566.21	43583.12
566.38	43487.15
566.54	43386.51
566.70	43779.72
566.87	44083.99
567.03	43824.19
567.19	44002.07
567.36	43342.04
567.52	43634.61
567.68	44189.31
567.85	43873.34
568.01	43800.79
568.17	43674.40
568.34	44060.58
568.50	43800.79
568.66	43489.49
568.83	43964.62
568.99	43840.57
569.15	43615.88
569.32	43751.63
569.48	43302.25
569.64	43915.47
569.81	43716.53
569.97	43969.30
570.13	43887.39
570.30	43985.69
570.46	42988.62
570.62	43351.40
570.78	43929.51
570.95	43611.20
571.11	43995.05
571.27	43894.41
571.43	43810.15
571.60	43803.13
571.76	43807.81
571.92	43714.19
572.09	43592.48
572.25	43519.92
572.41	44046.54
572.57	43950.58
572.74	44533.37
572.90	44179.95
573.06	43863.98
573.22	44102.71
573.38	44308.68
573.55	43271.82
573.71	44093.35
573.87	43976.33
574.03	43538.65
574.20	43702.48
574.36	44081.65
574.52	44278.25
574.68	43966.96
574.84	43952.92
575.01	44149.53
575.17	44098.03
575.33	43835.89
575.49	43758.66
575.65	43833.55
575.82	44311.02
575.98	44060.58
576.14	44446.77
576.30	44287.62
576.46	43742.27
576.62	43412.26
576.79	44079.31
576.95	43676.74
577.11	43962.28
577.27	43878.02
577.43	44233.78
577.59	43992.71
577.75	44252.51
577.92	43749.29
578.08	43887.39
578.24	43641.63
578.40	43941.22
578.56	44357.83
578.72	44053.56
578.88	44037.18
579.04	43941.22
579.21	43973.98
579.37	44116.76
579.53	44325.07
579.69	43784.40
579.85	43983.35
580.01	44402.30
580.17	44458.48
580.33	44147.18
580.49	44432.73
580.65	44292.30
580.82	44203.36
580.98	44540.39
581.14	44402.30
581.30	44645.72
581.46	44130.80
581.62	44107.40
581.78	44058.24
581.94	44201.02
582.10	44172.93
582.26	44453.79
582.42	44301.66
582.58	44156.55
582.74	43873.34
582.90	44079.31
583.06	44481.88
583.22	44624.65
583.38	44376.56
583.54	44500.61
583.70	44027.82
583.86	44069.95
584.02	43688.44
584.18	44240.81
584.34	44318.04
584.50	44098.03
584.66	44676.15
584.82	43934.20
584.98	44060.58
585.14	44357.83
585.30	44081.65
585.46	44282.94
585.62	44278.25
585.78	44514.65
585.94	44076.97
586.10	43971.64
586.26	44371.88
586.42	44151.87
586.58	44392.94
586.74	44018.46
586.90	44018.46
587.06	44348.47
587.22	44196.34
587.38	44264.21
587.54	44346.13
587.70	44034.84
587.86	44114.42
588.02	44369.54
588.18	44617.63
588.34	44612.95
588.49	43990.37
588.65	44098.03
588.81	44133.14
588.97	44271.23
589.13	43992.71
589.29	44158.89
589.45	44296.98
589.61	44161.23
589.77	44587.21
589.93	44636.36
590.08	44896.16
590.24	44465.50
590.40	44456.14
