SpectraSuite Data File
++++++++++++++++++++++++++++++++++++
Date: Fri Oct 25 10:47:50 EDT 2013
User: price-jones
Dark Spectrum Present: No
Reference Spectrum Present: No
Number of Sampled Component Spectra: 1
Spectrometers: USB2+H05261
Integration Time (usec): 100000 (USB2+H05261)
Spectra Averaged: 1 (USB2+H05261)
Boxcar Smoothing: 0 (USB2+H05261)
Correct for Electrical Dark: No (USB2+H05261)
Strobe/Lamp Enabled: No (USB2+H05261)
Correct for Detector Non-linearity: No (USB2+H05261)
Correct for Stray Light: No (USB2+H05261)
Number of Pixels in Processed Spectrum: 2048
>>>>>Begin Processed Spectral Data<<<<<
365.73	135.75
365.92	135.75
366.12	135.75
366.32	112.35
366.52	95.96
366.72	42.13
366.91	23.41
367.11	32.77
367.31	4.68
367.51	0.00
367.70	0.00
367.90	0.00
368.10	18.72
368.30	0.00
368.49	81.92
368.69	149.79
368.89	25.75
369.09	53.83
369.28	44.47
369.48	21.06
369.68	126.39
369.87	79.58
370.07	124.05
370.27	140.43
370.47	175.54
370.66	299.59
370.86	306.61
371.06	402.57
371.25	407.25
371.45	367.46
371.65	458.74
371.84	416.62
372.04	351.08
372.24	517.26
372.44	514.92
372.63	489.17
372.83	538.32
373.03	514.92
373.22	535.98
373.42	505.56
373.62	500.87
373.81	573.43
374.01	596.84
374.21	564.07
374.40	465.77
374.60	580.45
374.79	615.56
374.99	547.69
375.19	526.62
375.38	608.54
375.58	564.07
375.78	545.34
375.97	596.84
376.17	587.47
376.37	524.28
376.56	578.11
376.76	587.47
376.95	629.60
377.15	582.79
377.35	575.77
377.54	617.90
377.74	557.05
377.93	641.31
378.13	622.58
378.33	594.50
378.52	603.86
378.72	641.31
378.91	683.44
379.11	648.33
379.31	575.77
379.50	624.92
379.70	662.37
379.89	688.12
380.09	653.01
380.28	718.54
380.48	720.88
380.68	704.50
380.87	681.10
381.07	697.48
381.26	683.44
381.46	634.29
381.65	660.03
381.85	678.76
382.04	688.12
382.24	704.50
382.43	645.99
382.63	683.44
382.83	653.01
383.02	704.50
383.22	760.67
383.41	709.18
383.61	594.50
383.80	734.93
384.00	692.80
384.19	802.80
384.39	753.65
384.58	786.42
384.78	767.70
384.97	720.88
385.17	746.63
385.36	741.95
385.56	816.85
385.75	727.91
385.95	763.01
386.14	770.04
386.34	767.70
386.53	772.38
386.72	802.80
386.92	791.10
387.11	828.55
387.31	777.06
387.50	777.06
387.70	744.29
387.89	858.98
388.09	842.59
388.28	812.17
388.48	779.40
388.67	936.21
388.86	891.74
389.06	882.38
389.25	898.77
389.45	880.04
389.64	901.11
389.84	950.26
390.03	861.32
390.22	936.21
390.42	1004.09
390.61	866.00
390.81	976.00
391.00	959.62
391.19	957.28
391.39	978.34
391.58	994.73
391.78	971.32
391.97	875.36
392.16	964.30
392.36	959.62
392.55	1067.28
392.75	889.40
392.94	950.26
393.13	926.85
393.33	945.58
393.52	954.94
393.71	1097.71
393.91	1069.62
394.10	1032.18
394.29	1135.16
394.49	1107.07
394.68	1179.63
394.88	1064.94
395.07	1093.03
395.26	1053.24
395.46	1102.39
395.65	1181.97
395.84	1118.78
396.04	1100.05
396.23	1130.48
396.42	1210.06
396.62	1226.44
396.81	1167.93
397.00	1198.35
397.19	1102.39
397.39	1245.16
397.58	1165.59
397.77	1249.85
397.97	1336.45
398.16	1268.57
398.35	1256.87
398.55	1362.19
398.74	1324.74
398.93	1334.11
399.12	1320.06
399.32	1357.51
399.51	1404.32
399.70	1376.24
399.90	1376.24
400.09	1380.92
400.28	1430.07
400.47	1439.43
400.67	1486.24
400.86	1504.96
401.05	1446.45
401.24	1490.92
401.44	1589.22
401.63	1507.30
401.82	1577.52
402.01	1488.58
402.21	1530.71
402.40	1549.43
402.59	1439.43
402.78	1479.22
402.97	1636.03
403.17	1495.60
403.36	1621.99
403.55	1629.01
403.74	1682.85
403.93	1671.14
404.13	1605.61
404.32	1614.97
404.51	1689.87
404.70	1629.01
404.89	1804.55
405.09	1689.87
405.28	1739.02
405.47	1710.93
405.66	1760.08
405.85	1760.08
406.05	1666.46
406.24	1823.28
406.43	1767.10
406.62	1856.04
406.81	1846.68
407.00	1902.86
407.20	1839.66
407.39	1776.47
407.58	1849.02
407.77	1863.07
407.96	2078.40
408.15	1977.75
408.34	1923.92
408.54	2003.50
408.73	2094.78
408.92	1919.24
409.11	2092.44
409.30	1940.30
409.49	1966.05
409.68	2012.86
409.87	2026.90
410.07	2050.31
410.26	2120.53
410.45	2071.37
410.64	2181.38
410.83	2181.38
411.02	2125.21
411.21	2249.25
411.40	2296.07
411.59	2310.11
411.78	2342.88
411.98	2380.32
412.17	2366.28
412.36	2387.35
412.55	2394.37
412.74	2574.59
412.93	2450.54
413.12	2436.50
413.31	2628.42
413.50	2401.39
413.69	2520.76
413.88	2480.97
414.07	2445.86
414.26	2480.97
414.45	2572.25
414.64	2642.46
414.83	2682.25
415.02	2640.12
415.22	2853.11
415.41	2661.19
415.60	2654.17
415.79	2869.50
415.98	2876.52
416.17	3047.38
416.36	2871.84
416.55	2801.62
416.74	2956.10
416.93	2829.71
417.12	2960.78
417.31	3042.70
417.50	3009.93
417.69	3096.53
417.88	3112.91
418.07	3077.80
418.26	3070.78
418.45	3105.89
418.64	3251.00
418.83	3131.64
419.02	3166.74
419.21	3213.56
419.39	3304.84
419.58	3248.66
419.77	3251.00
419.96	3145.68
420.15	3335.26
420.34	3133.98
420.53	3363.35
420.72	3475.70
420.91	3344.63
421.10	3597.40
421.29	3548.25
421.48	3353.99
421.67	3351.65
421.86	3419.52
422.05	3435.91
422.24	3316.54
422.43	3440.59
422.61	3606.77
422.80	3524.85
422.99	3426.54
423.18	3515.48
423.37	3639.53
423.56	3566.98
423.75	3557.61
423.94	3515.48
424.13	3410.16
424.32	3405.48
424.50	3463.99
424.69	3599.74
424.88	3562.30
425.07	3403.14
425.26	3562.30
425.45	3428.88
425.64	3456.97
425.83	3461.65
426.01	3658.26
426.20	3529.53
426.39	3651.24
426.58	3478.04
426.77	3639.53
426.96	3726.13
427.15	3700.39
427.33	3613.79
427.52	3672.30
427.71	3714.43
427.90	3623.15
428.09	3896.99
428.28	3712.09
428.46	3730.81
428.65	3644.21
428.84	3953.16
429.03	3847.84
429.22	3803.37
429.40	3747.20
429.59	3747.20
429.78	3700.39
429.97	3658.26
430.16	3833.80
430.34	3749.54
430.53	3941.46
430.72	3885.29
430.91	3843.16
431.10	3871.25
431.28	4067.85
431.47	4131.05
431.66	3981.25
431.85	3992.95
432.03	4077.21
432.22	4255.09
432.41	4205.94
432.60	4147.43
432.79	4147.43
432.97	4313.61
433.16	4173.18
433.35	4156.79
433.54	4259.78
433.72	4327.65
433.91	4339.35
434.10	4337.01
434.28	4301.90
434.47	4341.69
434.66	4381.48
434.85	4454.04
435.03	4374.46
435.22	4423.61
435.41	4856.61
435.59	4561.70
435.78	4489.15
435.97	4592.13
436.16	4538.30
436.34	4582.77
436.53	4613.20
436.72	4681.07
436.90	4610.86
437.09	4704.48
437.28	4657.67
437.46	4690.43
437.65	4615.54
437.84	4655.33
438.02	4865.97
438.21	4713.84
438.40	4812.14
438.58	4915.12
438.77	4791.08
438.96	4762.99
439.14	5043.85
439.33	5004.07
439.52	5172.58
439.70	5029.81
439.89	5266.21
440.08	5146.84
440.26	5188.97
440.45	5057.90
440.63	5451.11
440.82	5392.59
441.01	5322.38
441.19	5399.62
441.38	5511.96
441.57	5432.38
441.75	5664.10
441.94	5570.48
442.12	5469.83
442.31	5710.91
442.50	5544.73
442.68	5614.95
442.87	5738.99
443.05	5598.56
443.24	5614.95
443.43	5621.97
443.61	5638.35
443.80	5944.96
443.98	5708.57
444.17	5687.50
444.35	5834.96
444.54	5764.74
444.73	6026.88
444.91	5731.97
445.10	5886.45
445.28	5968.37
445.47	5837.30
445.65	5643.03
445.84	5769.42
446.02	5987.09
446.21	5717.93
446.39	6043.26
446.58	6024.54
446.77	5977.73
446.95	5891.13
447.14	5837.30
447.32	6101.78
447.51	6179.01
447.69	5956.66
447.88	6099.44
448.06	5940.28
448.25	6029.22
448.43	6111.14
448.62	6061.99
448.80	5961.34
448.99	6090.07
449.17	6127.52
449.36	6235.19
449.54	6270.30
449.73	6345.19
449.91	6356.90
450.10	6296.04
450.28	6338.17
450.46	6455.20
450.65	6480.94
450.83	6279.66
451.02	6445.84
451.20	6553.50
451.39	6537.12
451.57	6424.77
451.76	6445.84
451.94	6689.25
452.13	6567.54
452.31	6576.91
452.49	6487.96
452.68	6553.50
452.86	6525.41
453.05	6614.35
453.23	6677.55
453.42	6469.24
453.60	6555.84
453.78	6672.87
453.97	6623.72
454.15	6778.19
454.34	6558.18
454.52	6698.61
454.70	6752.45
454.89	6700.95
455.07	6846.07
455.26	6672.87
455.44	6951.39
455.62	6935.01
455.81	6967.77
455.99	7098.84
456.17	7033.31
456.36	6916.28
456.54	7082.46
456.73	7201.83
456.91	7281.41
457.09	7316.51
457.28	7297.79
457.46	7293.11
457.64	7227.57
457.83	7307.15
458.01	7143.32
458.19	7370.35
458.38	7351.62
458.56	7400.77
458.74	7328.22
458.93	7337.58
459.11	7552.91
459.29	7267.36
459.48	7510.78
459.66	7421.84
459.84	7541.21
460.03	7681.64
460.21	7564.61
460.39	7630.15
460.57	7585.68
460.76	7573.97
460.94	7702.70
461.12	7585.68
461.31	7824.41
461.49	7700.36
461.67	7812.71
461.85	7901.65
462.04	7927.39
462.22	8395.50
462.40	7964.84
462.59	7896.97
462.77	8006.97
462.95	8081.87
463.13	7950.80
463.32	8081.87
463.50	8152.09
463.68	8098.25
463.86	8135.70
464.05	8044.42
464.23	7847.82
464.41	8374.44
464.59	7831.43
464.78	8421.25
464.96	8320.60
465.14	8308.90
465.32	8369.76
465.50	8402.52
465.69	8585.08
465.87	8482.10
466.05	8491.46
466.23	8297.20
466.41	8402.52
466.60	8547.64
466.78	8299.54
466.96	8528.91
467.14	8573.38
467.32	8533.59
467.51	8613.17
467.69	8486.78
467.87	8627.21
468.05	8718.50
468.23	8683.39
468.41	8608.49
468.60	8489.12
468.78	8713.81
468.96	8383.80
469.14	8716.16
469.32	8872.97
469.50	8631.90
469.69	8952.55
469.87	8973.61
470.05	8999.36
470.23	9050.85
470.41	8840.20
470.59	8947.87
470.77	8952.55
470.95	8992.34
471.14	9132.77
471.32	8966.59
471.50	9334.06
471.68	9205.33
471.86	9455.76
472.04	9373.85
472.22	9621.94
472.40	9249.80
472.58	9441.72
472.77	9678.12
472.95	9481.51
473.13	9980.04
473.31	9394.91
473.49	9624.28
473.67	9706.20
473.85	9652.37
474.03	9947.28
474.21	9879.40
474.39	10022.17
474.57	9996.43
474.75	10052.60
474.93	10244.52
475.12	10066.64
475.30	10347.51
475.48	10024.51
475.66	10410.70
475.84	10200.05
476.02	10356.87
476.20	10380.28
476.38	10595.61
476.56	10693.91
476.74	10469.22
476.92	10651.78
477.10	10782.85
477.28	11028.60
477.46	11056.69
477.64	10738.38
477.82	11192.44
478.00	11243.93
478.18	11246.27
478.36	11454.58
478.54	11623.10
478.72	11517.78
478.90	11501.39
479.08	11683.95
479.26	11948.43
479.44	11864.18
479.62	12152.06
479.80	12170.79
479.98	11974.18
480.16	12496.12
480.34	12351.01
480.52	12643.57
480.70	12484.42
480.88	12297.17
481.06	12622.51
481.24	12634.21
481.41	12954.87
481.59	13174.88
481.77	13022.74
481.95	13235.73
482.13	13404.25
482.31	13125.72
482.49	13350.42
482.67	13701.50
482.85	13750.65
483.03	13823.20
483.21	13961.30
483.39	14352.16
483.57	14101.73
483.74	14043.21
483.92	14279.61
484.10	14260.88
484.28	14408.34
484.46	14637.71
484.64	14740.69
484.82	14527.71
485.00	14782.82
485.18	15044.96
485.35	15133.90
485.53	14890.49
485.71	14930.28
485.89	15445.20
486.07	15239.23
486.25	15426.47
486.43	15585.63
486.61	15693.29
486.78	15988.20
486.96	16325.24
487.14	16430.56
487.32	16395.45
487.50	16528.86
487.68	16477.37
487.85	17020.38
488.03	16992.29
488.21	17266.13
488.39	16954.84
488.57	16999.31
488.75	17345.71
488.92	17331.67
489.10	17640.62
489.28	17818.50
489.46	18090.00
489.64	17905.10
489.81	18200.01
489.99	18214.05
490.17	18466.83
490.35	18785.14
490.53	18862.38
490.70	18827.27
490.88	18995.79
491.06	19220.48
491.24	18960.68
491.41	19145.58
491.59	19370.27
491.77	19157.28
491.95	19463.90
492.13	19601.99
492.30	19550.49
492.48	19723.69
492.66	20056.05
492.84	19924.98
493.01	20112.22
493.19	20372.02
493.37	20428.20
493.54	20809.70
493.72	20842.47
493.90	21081.21
494.08	21081.21
494.25	21008.65
494.43	21212.28
494.61	21556.33
494.79	21568.04
494.96	21671.02
495.14	21610.17
495.32	22176.58
495.49	21902.73
495.67	21921.46
495.85	22155.51
496.02	22478.50
496.20	22001.04
496.38	22317.01
496.55	22583.83
496.73	23180.67
496.91	22815.54
497.09	23040.23
497.26	23297.69
497.44	22888.10
497.62	23454.51
497.79	23501.32
497.97	23068.32
498.14	23384.29
498.32	23749.42
498.50	23594.94
498.67	24194.12
498.85	23924.96
499.03	24416.47
499.20	24098.16
499.38	24318.17
499.56	24428.17
499.73	24269.01
499.91	24690.31
500.08	24893.94
500.26	24842.45
500.44	24425.83
500.61	24840.11
500.79	24568.60
500.97	25188.85
501.14	25315.23
501.32	25081.18
501.49	25348.00
501.67	25277.79
501.84	25668.66
502.02	25759.94
502.20	25703.76
502.37	26199.96
502.55	25455.67
502.72	26017.40
502.90	26169.53
503.07	26223.36
503.25	26274.85
503.43	26293.58
503.60	26501.89
503.78	26101.65
503.95	26473.80
504.13	26649.34
504.30	26869.35
504.48	26714.87
504.65	26728.92
504.83	26810.84
505.01	26932.54
505.18	26785.09
505.36	27316.39
505.53	27129.15
505.71	27325.75
505.88	27363.20
506.06	27260.22
506.23	27482.57
506.41	27358.52
506.58	27835.99
506.76	27360.86
506.93	27658.11
507.11	27641.73
507.28	28018.55
507.46	27946.00
507.63	28231.54
507.81	28189.41
507.98	28257.29
508.16	28177.71
508.33	28704.33
508.50	28348.57
508.68	28622.41
508.85	28896.25
509.03	28889.23
509.20	28762.84
509.38	29020.30
509.55	29099.88
509.73	29682.67
509.90	29303.51
510.08	29017.96
510.25	29338.62
510.42	29621.82
510.60	29282.44
510.77	29333.93
510.95	29867.58
511.12	29792.68
511.30	29701.40
511.47	30312.28
511.64	30347.39
511.82	30099.29
511.99	29937.79
512.17	30211.64
512.34	30146.10
512.51	30438.67
512.69	30974.65
512.86	30728.89
513.04	30438.67
513.21	30696.13
513.38	30843.58
513.56	30859.96
513.73	30380.15
513.90	30960.61
514.08	30932.52
514.25	31295.30
514.43	30838.90
514.60	30955.93
514.77	31248.49
514.95	31218.07
515.12	31271.90
515.29	31592.55
515.47	31866.39
515.64	31627.66
515.81	31718.94
515.99	31585.53
516.16	31810.22
516.33	31414.67
516.51	31791.50
516.68	31655.75
516.85	31683.83
517.03	31960.02
517.20	32046.62
517.37	31981.08
517.54	32652.81
517.72	32173.00
517.89	31990.44
518.06	31922.57
518.24	32203.43
518.41	32147.26
518.58	32275.99
518.75	32460.89
518.93	32659.84
519.10	32762.82
519.27	32734.73
519.45	32641.11
519.62	33462.64
519.79	33081.13
519.96	33378.38
520.14	33385.40
520.31	32929.00
520.48	33736.48
520.65	33221.56
520.83	33614.77
521.00	33727.12
521.17	33673.29
521.34	34029.05
521.52	34136.71
521.69	33996.28
521.86	34239.70
522.03	34227.99
522.20	34260.76
522.38	34066.50
522.55	34499.50
522.72	34588.44
522.89	34253.74
523.07	34050.11
523.24	34162.46
523.41	34775.68
523.58	34546.31
523.75	34700.78
523.92	34827.17
524.10	34672.70
524.27	34771.00
524.44	35566.78
524.61	35239.11
524.78	35416.99
524.96	35161.87
525.13	35468.48
525.30	35452.09
525.47	35903.82
525.64	35693.17
525.81	35466.14
525.98	35096.33
526.16	35365.49
526.33	35288.26
526.50	35625.29
526.67	35264.85
526.84	35641.68
527.01	35552.74
527.18	35475.50
527.36	36158.94
527.53	36123.83
527.70	36732.37
527.87	35943.61
528.04	36182.34
528.21	36093.40
528.38	36343.84
528.55	36540.44
528.72	36727.69
528.89	36804.92
529.07	36669.17
529.24	36498.31
529.41	36484.27
529.58	36051.27
529.75	36388.31
529.92	36910.25
530.09	37078.77
530.26	36594.28
530.43	36943.02
530.60	36603.64
530.77	36978.12
530.94	37801.99
531.11	37247.29
531.28	37280.05
531.46	37251.97
531.63	37420.48
531.80	37303.46
531.97	37645.18
532.14	37727.10
532.31	37235.58
532.48	37462.61
532.65	38246.69
532.82	37521.13
532.99	37647.52
533.16	37493.04
533.33	37717.73
533.50	37944.76
533.67	37874.55
533.84	37317.50
534.01	38089.88
534.18	37916.68
534.35	38230.31
534.52	38082.86
534.69	38127.33
534.86	38394.15
535.03	37516.45
535.20	38487.77
535.37	38710.12
535.54	38958.22
535.71	38703.10
535.88	38476.07
536.05	38291.16
536.22	38841.19
536.38	38656.29
536.55	38738.21
536.72	38621.18
536.89	38820.13
537.06	38579.05
537.23	39161.84
537.40	38646.93
537.57	38974.60
537.74	39089.29
537.91	38880.98
538.08	39131.42
538.25	38714.80
538.42	39236.74
538.59	39328.02
538.75	39229.72
538.92	39250.78
539.09	39536.33
539.26	39384.19
539.43	39283.55
539.60	38972.26
539.77	39210.99
539.94	39512.92
540.11	39431.01
540.28	39487.18
540.44	39311.64
540.61	39051.84
540.78	39468.45
540.95	39849.96
541.12	39793.79
541.29	39901.45
541.46	39517.60
541.62	39620.59
541.79	40144.87
541.96	39826.56
542.13	39761.02
542.30	39908.47
542.47	40282.96
542.63	39880.39
542.80	40201.04
542.97	40407.01
543.14	40519.35
543.31	40652.76
543.48	40622.34
543.64	41170.02
543.81	41228.54
543.98	40559.14
544.15	40542.76
544.32	40708.94
544.48	41474.29
544.65	40823.62
544.82	40856.39
544.99	40161.25
545.16	40898.52
545.32	40849.37
545.49	41509.40
545.66	41214.49
545.83	41167.68
546.00	41577.28
546.16	40966.40
546.33	40830.65
546.50	40790.86
546.67	41308.11
546.83	40975.76
547.00	41263.64
547.17	40921.93
547.34	41074.06
547.50	41315.14
547.67	41855.80
547.84	41118.53
548.00	41457.91
548.17	41963.46
548.34	41198.11
548.51	41787.92
548.67	42256.03
548.84	41556.21
549.01	41853.46
549.18	41816.01
549.34	41991.55
549.51	41876.86
549.68	41893.25
549.84	41565.57
550.01	42684.35
550.18	42010.28
550.34	42113.26
550.51	41869.84
550.68	42581.37
550.84	41607.70
551.01	42291.14
551.18	42171.77
551.34	42199.86
551.51	42426.89
551.68	42347.31
551.84	42408.17
552.01	42246.67
552.18	42330.93
552.34	42314.55
552.51	42759.25
552.68	42293.48
552.84	42724.14
553.01	42604.77
553.18	42370.72
553.34	42663.28
553.51	42576.69
553.67	42572.00
553.84	42534.56
554.01	42843.51
554.17	42958.19
554.34	43035.43
554.51	42616.47
554.67	42752.23
554.84	42925.42
555.00	42520.51
555.17	42742.86
555.33	42925.42
555.50	42658.60
555.67	43051.81
555.83	42784.99
556.00	43068.20
556.16	42976.92
556.33	43107.99
556.50	43079.90
556.66	43079.90
556.83	42572.00
556.99	43232.04
557.16	43430.98
557.32	43576.09
557.49	42918.40
557.65	42859.89
557.82	42976.92
557.98	43372.47
558.15	43475.45
558.32	43620.56
558.48	43681.42
558.65	43335.02
558.81	43313.95
558.98	43381.83
559.14	43627.59
559.31	43538.65
559.47	43203.95
559.64	43454.39
559.80	44020.80
559.97	43545.67
560.13	43707.16
560.30	43063.52
560.46	43501.20
560.63	43473.11
560.79	43821.85
560.96	43606.52
561.12	43793.76
561.29	43622.90
561.45	43732.91
561.61	43922.49
561.78	43559.71
561.94	43531.62
562.11	43826.53
562.27	43718.87
562.44	43468.43
562.60	43723.55
562.77	43681.42
562.93	43634.61
563.10	44275.91
563.26	43660.35
563.42	44053.56
563.59	43840.57
563.75	43615.88
563.92	44369.54
564.08	43807.81
564.24	44430.39
564.41	44584.86
564.57	43952.92
564.74	44177.61
564.90	44350.81
565.07	44378.90
565.23	44360.17
565.39	43728.23
565.56	44102.71
565.72	43817.17
565.88	44289.96
566.05	43964.62
566.21	44245.49
566.38	43770.36
566.54	44357.83
566.70	44023.14
566.87	44488.90
567.03	43901.43
567.19	44460.82
567.36	44524.01
567.52	43945.90
567.68	44184.63
567.85	43952.92
568.01	44301.66
568.17	43765.68
568.34	44552.10
568.50	44058.24
568.66	44179.95
568.83	44069.95
568.99	44495.92
569.15	43976.33
569.32	44144.84
569.48	44102.71
569.64	44322.72
569.81	44507.63
569.97	44172.93
570.13	44362.51
570.30	44175.27
570.46	44205.70
570.62	44430.39
570.78	43798.44
570.95	44116.76
571.11	44306.34
571.27	44191.65
571.43	44554.44
571.60	44238.47
571.76	44648.06
571.92	44053.56
572.09	44390.60
572.25	44694.87
572.41	44477.20
572.57	44233.78
572.74	44823.60
572.90	44566.14
573.06	44481.88
573.22	44350.81
573.38	44327.41
573.55	44369.54
573.71	44322.72
573.87	44589.55
574.03	44378.90
574.20	44563.80
574.36	44442.09
574.52	44900.84
574.68	44664.44
574.84	44488.90
575.01	44250.17
575.17	44481.88
575.33	44524.01
575.49	44409.32
575.65	44629.34
575.82	44790.83
575.98	44378.90
576.14	45055.31
576.30	44706.57
576.46	44212.72
576.62	44318.04
576.79	44624.65
576.95	44039.52
577.11	44610.61
577.27	44666.78
577.43	44676.15
577.59	44573.16
577.75	44673.81
577.92	44502.95
578.08	44322.72
578.24	44376.56
578.40	44877.43
578.56	44856.37
578.72	44481.88
578.88	44739.34
579.04	44725.30
579.21	44463.16
579.37	44568.48
579.53	44638.70
579.69	44100.37
579.85	44790.83
580.01	44863.39
580.17	44842.32
580.33	44980.42
580.49	45057.65
580.65	44729.98
580.82	45057.65
580.98	44535.71
581.14	44659.76
581.30	44746.36
581.46	44692.53
581.62	44666.78
581.78	44837.64
581.94	44893.82
582.10	44568.48
582.26	44919.56
582.42	44605.93
582.58	44945.31
582.74	44734.66
582.90	44631.68
583.06	45141.91
583.22	44830.62
583.38	44987.44
583.54	44790.83
583.70	44900.84
583.86	45031.91
584.02	44385.92
584.18	44783.81
584.34	44334.43
584.50	44671.46
584.66	44596.57
584.82	44311.02
584.98	45043.61
585.14	45188.72
585.30	44931.26
585.46	44706.57
585.62	44423.37
585.78	44601.25
585.94	44458.48
586.10	44870.41
586.26	44844.66
586.42	44783.81
586.58	44706.57
586.74	44931.26
586.90	44659.76
587.06	44561.46
587.22	45216.81
587.38	44832.96
587.54	45338.52
587.70	44966.37
587.86	44884.45
588.02	44893.82
588.18	45123.19
588.34	44907.86
588.49	44500.61
588.65	44795.51
588.81	44411.67
588.97	44369.54
589.13	44385.92
589.29	44790.83
589.45	44971.05
589.61	45153.62
589.77	44978.07
589.93	45205.11
590.08	45170.00
590.24	45146.59
