SpectraSuite Data File
++++++++++++++++++++++++++++++++++++
Date: Fri Oct 25 11:24:06 EDT 2013
User: price-jones
Dark Spectrum Present: No
Reference Spectrum Present: No
Number of Sampled Component Spectra: 1
Spectrometers: USB2+H05261
Integration Time (usec): 100000 (USB2+H05261)
Spectra Averaged: 1 (USB2+H05261)
Boxcar Smoothing: 0 (USB2+H05261)
Correct for Electrical Dark: No (USB2+H05261)
Strobe/Lamp Enabled: No (USB2+H05261)
Correct for Detector Non-linearity: No (USB2+H05261)
Correct for Stray Light: No (USB2+H05261)
Number of Pixels in Processed Spectrum: 2048
>>>>>Begin Processed Spectral Data<<<<<
365.73	252.78
365.92	252.78
366.12	252.78
366.32	198.95
366.52	51.49
366.72	154.48
366.91	210.65
367.11	156.82
367.31	149.79
367.51	182.56
367.70	91.28
367.90	117.03
368.10	196.60
368.30	114.69
368.49	184.90
368.69	142.77
368.89	184.90
369.09	147.45
369.28	224.69
369.48	217.67
369.68	222.35
369.87	149.79
370.07	184.90
370.27	173.20
370.47	339.38
370.66	589.82
370.86	641.31
371.06	760.67
371.25	622.58
371.45	566.41
371.65	622.58
371.84	660.03
372.04	650.67
372.24	798.12
372.44	737.27
372.63	767.70
372.83	690.46
373.03	779.40
373.22	681.10
373.42	807.48
373.62	753.65
373.81	833.23
374.01	905.79
374.21	774.72
374.40	781.74
374.60	915.15
374.79	840.25
374.99	812.17
375.19	870.68
375.38	706.84
375.58	887.06
375.78	940.90
375.97	760.67
376.17	898.77
376.37	959.62
376.56	844.93
376.76	835.57
376.95	912.81
377.15	863.66
377.35	894.08
377.54	809.83
377.74	908.13
377.93	938.55
378.13	952.60
378.33	987.71
378.52	882.38
378.72	961.96
378.91	931.53
379.11	887.06
379.31	966.64
379.50	978.34
379.70	1008.77
379.89	924.51
380.09	940.90
380.28	1004.09
380.48	964.30
380.68	994.73
380.87	1029.84
381.07	919.83
381.26	1013.45
381.46	1027.50
381.65	1053.24
381.85	1083.67
382.04	1036.86
382.24	1097.71
382.43	980.68
382.63	1027.50
382.83	1001.75
383.02	1095.37
383.22	1114.10
383.41	1057.92
383.61	1081.33
383.80	1018.13
384.00	1078.99
384.19	1172.61
384.39	1146.86
384.58	1032.18
384.78	1181.97
384.97	1165.59
385.17	1144.52
385.36	1104.73
385.56	1151.54
385.75	1163.25
385.95	1200.69
386.14	1266.23
386.34	1217.08
386.53	1245.16
386.72	1231.12
386.92	1214.74
387.11	1282.61
387.31	1245.16
387.50	1390.28
387.70	1261.55
387.89	1245.16
388.09	1177.29
388.28	1287.29
388.48	1212.40
388.67	1306.02
388.86	1273.25
389.06	1299.00
389.25	1404.32
389.45	1425.39
389.64	1397.30
389.84	1373.89
390.03	1362.19
390.22	1420.71
390.42	1376.24
390.61	1334.11
390.81	1432.41
391.00	1441.77
391.19	1533.05
391.39	1369.21
391.58	1490.92
391.78	1584.54
391.97	1441.77
392.16	1474.54
392.36	1540.07
392.55	1582.20
392.75	1558.80
392.94	1582.20
393.13	1565.82
393.33	1572.84
393.52	1570.50
393.71	1643.06
393.91	1680.50
394.10	1558.80
394.29	1530.71
394.49	1572.84
394.68	1734.34
394.88	1692.21
395.07	1579.86
395.26	1617.31
395.46	1746.04
395.65	1624.33
395.84	1739.02
396.04	1783.49
396.23	1748.38
396.42	1842.00
396.62	1813.92
396.81	1818.60
397.00	1767.10
397.19	1668.80
397.39	1783.49
397.58	1818.60
397.77	1921.58
397.97	1867.75
398.16	1764.76
398.35	1900.52
398.55	1914.56
398.74	1949.67
398.93	1984.77
399.12	1919.24
399.32	1959.03
399.51	1942.64
399.70	2033.93
399.90	1963.71
400.09	1963.71
400.28	2015.20
400.47	2036.27
400.67	2101.80
400.86	2017.54
401.05	2165.00
401.24	2106.48
401.44	2076.06
401.63	2125.21
401.82	2115.84
402.01	2150.95
402.21	2153.29
402.40	2249.25
402.59	2193.08
402.78	2155.63
402.97	2190.74
403.17	2237.55
403.36	2265.64
403.55	2289.04
403.74	2314.79
403.93	2284.36
404.13	2361.60
404.32	2328.83
404.51	2443.52
404.70	2525.44
404.89	2457.56
405.09	2534.80
405.28	2443.52
405.47	2345.22
405.66	2422.45
405.85	2410.75
406.05	2443.52
406.24	2565.23
406.43	2612.04
406.62	2579.27
406.81	2649.49
407.00	2754.81
407.20	2635.44
407.39	2569.91
407.58	2820.35
407.77	2682.25
407.96	2754.81
408.15	2799.28
408.34	2649.49
408.54	2754.81
408.73	2775.88
408.92	2764.17
409.11	2967.80
409.30	2869.50
409.49	3019.29
409.68	2984.18
409.87	3061.42
410.07	3073.12
410.26	3101.21
410.45	3038.02
410.64	3096.53
410.83	3108.23
411.02	3094.19
411.21	3227.60
411.40	3112.91
411.59	3194.83
411.78	3180.79
411.98	3115.25
412.17	3335.26
412.36	3281.43
412.55	3386.76
412.74	3414.84
412.93	3391.44
413.12	3309.52
413.31	3588.04
413.50	3515.48
413.69	3590.38
413.88	3669.96
414.07	3616.13
414.26	3485.06
414.45	3721.45
414.64	3574.00
414.83	3777.62
415.02	3796.35
415.22	3896.99
415.41	3974.23
415.60	4042.11
415.79	3953.16
415.98	3983.59
416.17	3948.48
416.36	3999.98
416.55	4037.42
416.74	4131.05
416.93	3943.80
417.12	4170.83
417.31	4311.27
417.50	4243.39
417.69	4329.99
417.88	4234.03
418.07	4112.32
418.26	4290.20
418.45	4297.22
418.64	4571.07
418.83	4432.97
419.02	4461.06
419.21	4505.53
419.39	4554.68
419.58	4603.83
419.77	4503.19
419.96	4533.62
420.15	4627.24
420.34	4587.45
420.53	4643.62
420.72	4795.76
420.91	4706.82
421.10	4793.42
421.29	4940.87
421.48	4741.93
421.67	4851.93
421.86	4762.99
422.05	4830.87
422.24	4868.31
422.43	4711.50
422.61	4880.02
422.80	5039.17
422.99	5029.81
423.18	5081.30
423.37	5008.75
423.56	4830.87
423.75	4933.85
423.94	5022.79
424.13	4650.64
424.32	4833.21
424.50	5032.15
424.69	5097.69
424.88	5160.88
425.07	5060.24
425.26	4964.28
425.45	5029.81
425.64	4863.63
425.83	4940.87
426.01	5055.56
426.20	5093.01
426.39	5109.39
426.58	5142.16
426.77	5076.62
426.96	5102.37
427.15	5149.18
427.33	5350.46
427.52	5156.20
427.71	5401.96
427.90	5334.08
428.09	5245.14
428.28	5497.92
428.46	5425.36
428.65	5432.38
428.84	5554.09
429.03	5579.84
429.22	5416.00
429.40	5666.44
429.59	5504.94
429.78	5350.46
429.97	5270.89
430.16	5575.16
430.34	5523.66
430.53	5729.63
430.72	5628.99
430.91	5703.89
431.10	5586.86
431.28	5671.12
431.47	5783.46
431.66	5940.28
431.85	5762.40
432.03	6003.47
432.22	5980.07
432.41	5996.45
432.60	6019.86
432.79	5944.96
432.97	6225.82
433.16	6094.76
433.35	6136.88
433.54	6111.14
433.72	6104.12
433.91	6197.74
434.10	6221.14
434.28	6139.23
434.47	6136.88
434.66	6181.35
434.85	6394.34
435.03	6167.31
435.22	6272.64
435.41	6410.73
435.59	6333.49
435.78	6455.20
435.97	6516.05
436.16	6415.41
436.34	6609.67
436.53	6623.72
436.72	6602.65
436.90	6616.69
437.09	6581.59
437.28	6562.86
437.46	6656.48
437.65	6700.95
437.84	6808.62
438.02	6815.64
438.21	6967.77
438.40	6717.34
438.58	7115.23
438.77	7030.97
438.96	7087.14
439.14	7155.02
439.33	7302.47
439.52	7232.26
439.70	7215.87
439.89	7368.01
440.08	7531.84
440.26	7459.29
440.45	7405.46
440.63	7442.90
440.82	7618.44
441.01	7545.89
441.19	7602.06
441.38	7786.96
441.57	7595.04
441.75	7934.42
441.94	7840.79
442.12	7981.23
442.31	8182.51
442.50	8161.45
442.68	7974.21
442.87	8189.53
443.05	8194.22
443.24	8348.69
443.43	8271.45
443.61	8182.51
443.80	8510.19
443.98	8074.85
444.17	7985.91
444.35	8210.60
444.54	8372.10
444.73	8435.29
444.91	8313.58
445.10	8393.16
445.28	8418.91
445.47	8215.28
445.65	8578.06
445.84	8564.02
446.02	8526.57
446.21	8575.72
446.39	8367.42
446.58	8418.91
446.77	8805.10
446.95	8402.52
447.14	8437.63
447.32	8727.86
447.51	8528.91
447.69	8631.90
447.88	8720.84
448.06	8573.38
448.25	8599.13
448.43	8571.04
448.62	8606.15
448.80	8664.66
448.99	8716.16
449.17	8774.67
449.36	8739.56
449.54	8936.17
449.73	8964.25
449.91	9027.45
450.10	9004.04
450.28	9132.77
450.46	9245.12
450.65	9139.79
450.83	9128.09
451.02	9067.24
451.20	9291.93
451.39	9315.33
451.57	9233.41
451.76	9282.56
451.94	9228.73
452.13	9392.57
452.31	9453.42
452.49	9198.31
452.68	9287.25
452.86	9348.10
453.05	9633.64
453.23	9586.83
453.42	9401.93
453.60	9497.89
453.78	9521.30
453.97	9364.48
454.15	9682.80
454.34	9348.10
454.52	9708.54
454.70	9666.41
454.89	9736.63
455.07	9935.57
455.26	9771.74
455.44	10061.96
455.62	10012.81
455.81	9989.41
455.99	10015.15
456.17	10136.86
456.36	9973.02
456.54	10281.97
456.73	10239.84
456.91	10466.88
457.09	10497.30
457.28	10623.69
457.46	10511.35
457.64	10532.41
457.83	10724.33
458.01	10394.32
458.19	10743.06
458.38	10565.18
458.56	10640.08
458.74	10593.26
458.93	10832.00
459.11	10824.98
459.29	10619.01
459.48	10967.75
459.66	10874.13
459.84	10951.37
460.03	11068.39
460.21	11049.67
460.39	11126.91
460.57	11356.28
460.76	11084.78
460.94	11276.70
461.12	11290.74
461.31	11201.80
461.49	11466.28
461.67	11311.81
461.85	11377.34
462.04	11417.13
462.22	11445.22
462.40	11742.47
462.59	11510.75
462.77	11477.99
462.95	11414.79
463.13	11606.72
463.32	11723.74
463.50	12088.87
463.68	11997.59
463.86	12250.36
464.05	11873.54
464.23	11798.64
464.41	12175.47
464.59	11775.24
464.78	12191.85
464.96	12116.95
465.14	11941.41
465.32	12196.53
465.50	12156.74
465.69	12191.85
465.87	12166.10
466.05	12475.06
466.23	12456.33
466.41	12372.07
466.60	12617.83
466.78	12107.59
466.96	12355.69
467.14	12397.82
467.32	12404.84
467.51	12786.35
467.69	12217.60
467.87	12685.70
468.05	12713.79
468.23	12613.15
468.41	12601.44
468.60	12784.01
468.78	12720.81
468.96	12786.35
469.14	12868.27
469.32	12975.93
469.50	12835.50
469.69	13034.44
469.87	13392.55
470.05	13310.63
470.23	13357.44
470.41	13111.68
470.59	13511.91
470.77	13249.77
470.95	13200.62
471.14	13664.05
471.32	13137.43
471.50	13678.09
471.68	13928.53
471.86	13708.52
472.04	13748.31
472.22	13855.97
472.40	13928.53
472.58	13977.68
472.77	14085.34
472.95	14136.84
473.13	14881.13
473.31	14099.39
473.49	14420.04
473.67	14256.20
473.85	14228.12
474.03	14581.54
474.21	14951.34
474.39	14824.95
474.57	14827.29
474.75	15138.58
474.93	15218.16
475.12	15089.43
475.30	15272.00
475.48	15136.24
475.66	15194.76
475.84	15456.90
476.02	15321.15
476.20	15407.75
476.38	15824.36
476.56	16259.70
476.74	16376.73
476.92	15943.73
477.10	15992.88
477.28	16203.53
477.46	16086.50
477.64	16556.95
477.82	16629.51
478.00	17078.89
478.18	16805.05
478.36	17067.19
478.54	17289.54
478.72	17245.07
478.90	17135.06
479.08	17762.33
479.26	18026.81
479.44	17862.97
479.62	18054.89
479.80	18200.01
479.98	18361.50
480.16	18916.21
480.34	18427.04
480.52	18593.22
480.70	18759.39
480.88	18434.06
481.06	18831.95
481.24	19033.24
481.41	19433.47
481.59	19646.46
481.77	19662.84
481.95	19606.67
482.13	20093.50
482.31	19995.20
482.49	20372.02
482.67	20402.45
482.85	20554.58
483.03	20861.19
483.21	21088.23
483.39	21256.75
483.57	20896.30
483.74	21069.50
483.92	21706.13
484.10	21504.84
484.28	21715.49
484.46	22087.64
484.64	22635.32
484.82	22075.93
485.00	22483.19
485.18	22750.01
485.35	23379.61
485.53	23068.32
485.71	23185.35
485.89	23459.19
486.07	23517.70
486.25	23608.98
486.43	24081.77
486.61	24367.32
486.78	24027.94
486.96	24383.70
487.14	24840.11
487.32	24879.89
487.50	25048.41
487.68	24809.68
487.85	25450.99
488.03	25804.41
488.21	26096.97
488.39	25935.48
488.57	26384.86
488.75	26480.82
488.92	26686.79
489.10	26658.70
489.28	27122.13
489.46	27543.42
489.64	27042.55
489.81	27805.56
489.99	27831.31
490.17	27714.28
490.35	28421.13
490.53	28493.68
490.70	28325.16
490.88	28772.21
491.06	29024.98
491.24	28938.38
491.41	29017.96
491.59	29642.88
491.77	29338.62
491.95	29591.39
492.13	29862.90
492.30	30162.48
492.48	30141.42
492.66	30321.64
492.84	30452.71
493.01	30890.39
493.19	30661.02
493.37	31009.76
493.54	31662.77
493.72	31669.79
493.90	31798.52
494.08	32020.87
494.25	32184.71
494.43	32292.37
494.61	32566.21
494.79	32938.36
494.96	32868.14
495.14	32912.61
495.32	33558.60
495.49	33689.67
495.67	33432.21
495.85	33865.21
496.02	33912.02
496.20	34132.03
496.38	34160.12
496.55	34384.81
496.73	35093.99
496.91	34534.60
497.09	34883.34
497.26	35138.46
497.44	35072.93
497.62	35386.56
497.79	35899.14
497.97	35674.45
498.14	36236.17
498.32	36680.88
498.50	36460.87
498.67	37336.23
498.85	36329.80
499.03	36631.72
499.20	37067.06
499.38	36886.84
499.56	37076.43
499.73	37333.89
499.91	37474.32
500.08	37993.92
500.26	37368.99
500.44	37720.07
500.61	38146.05
500.79	37668.58
500.97	38178.82
501.14	38672.67
501.32	38930.13
501.49	38651.61
501.67	38789.70
501.84	39335.04
502.02	39196.95
502.20	39360.79
502.37	39428.66
502.55	39920.18
502.72	39812.51
502.90	40009.12
503.07	39548.03
503.25	39962.31
503.43	39938.90
503.60	40381.26
503.78	40421.05
503.95	40821.28
504.13	40823.62
504.30	40781.49
504.48	41191.09
504.65	41146.62
504.83	41132.57
505.01	41734.09
505.18	41013.21
505.36	42155.39
505.53	41717.71
505.71	42087.51
505.88	41666.22
506.06	41879.21
506.23	42146.03
506.41	42389.44
506.58	41963.46
506.76	42445.62
506.93	42700.73
507.11	42780.31
507.28	42485.40
507.46	42724.14
507.63	42986.28
507.81	43278.85
507.98	43356.08
508.16	43470.77
508.33	43920.15
508.50	44013.77
508.68	43957.60
508.85	44266.55
509.03	44194.00
509.20	44299.32
509.38	44622.31
509.55	44694.87
509.73	44554.44
509.90	45139.57
510.08	45111.49
510.25	44863.39
510.42	45212.13
510.60	45130.21
510.77	45336.18
510.95	45605.34
511.12	45750.45
511.30	45675.55
511.47	45911.95
511.64	45958.76
511.82	46038.34
511.99	45921.31
512.17	46234.94
512.34	45916.63
512.51	46567.30
512.69	46752.20
512.86	46784.97
513.04	46834.12
513.21	47009.66
513.38	46960.51
513.56	47084.56
513.73	47290.52
513.90	47646.29
514.08	47150.09
514.25	47571.39
514.43	47901.40
514.60	47636.92
514.77	47243.71
514.95	48142.48
515.12	48067.58
515.29	48055.88
515.47	48313.34
515.64	48421.00
515.81	48318.02
515.99	48184.61
516.16	48645.69
516.33	48538.03
516.51	49066.99
516.68	48928.90
516.85	48886.77
517.03	48863.36
517.20	49179.34
517.37	49099.76
517.54	49343.17
517.72	49649.78
517.89	49408.71
518.06	49228.49
518.24	49656.81
518.41	49329.13
518.58	49722.34
518.75	49294.02
518.93	49947.03
519.10	49689.57
519.27	50057.04
519.45	49958.73
519.62	50319.18
519.79	50019.59
519.96	50272.37
520.14	50401.10
520.31	50443.23
520.48	50422.16
520.65	50639.83
520.83	50820.05
521.00	51047.08
521.17	50363.65
521.34	51157.09
521.52	51150.07
521.69	51227.31
521.86	50986.23
522.03	51077.51
522.20	51501.15
522.38	51475.40
522.55	51786.69
522.72	51470.72
522.89	51643.92
523.07	51962.23
523.24	51760.95
523.41	52058.20
523.58	51569.02
523.75	52144.80
523.92	51997.34
524.10	52170.54
524.27	52229.05
524.44	52128.41
524.61	52271.18
524.78	52381.19
524.96	52261.82
525.13	52739.29
525.30	52449.06
525.47	52755.68
525.64	52786.10
525.81	52980.37
525.98	53057.60
526.16	52830.57
526.33	52797.80
526.50	53333.79
526.67	52814.19
526.84	53151.23
527.01	53226.12
527.18	53219.10
527.36	53247.19
527.53	53167.61
527.70	53600.61
527.87	53668.48
528.04	53235.48
528.21	53616.99
528.38	53631.04
528.55	53614.65
528.72	53647.42
528.89	53741.04
529.07	53593.59
529.24	53399.32
529.41	53703.59
529.58	53921.26
529.75	53942.33
529.92	53762.11
530.09	53979.78
530.26	54211.49
530.43	54251.28
530.60	53872.11
530.77	54113.19
530.94	54312.13
531.11	54244.26
531.28	54225.53
531.46	54426.82
531.63	54822.37
531.80	54328.52
531.97	54429.16
532.14	54473.63
532.31	54494.69
532.48	54574.27
532.65	54983.86
532.82	54691.30
532.99	54653.85
533.16	54642.15
533.33	55000.25
533.50	54997.91
533.67	55140.68
533.84	55054.08
534.01	55236.64
534.18	55150.04
534.35	55524.53
534.52	55243.66
534.69	55419.20
534.86	55508.14
535.03	55395.80
535.20	55360.69
535.37	55508.14
535.54	55646.24
535.71	55510.49
535.88	55622.83
536.05	55859.23
536.22	55807.73
536.38	55657.94
536.55	55774.97
536.72	55730.50
536.89	55552.62
537.06	55819.44
537.23	56083.92
537.40	55812.41
537.57	55835.82
537.74	56006.68
537.91	56268.82
538.08	56102.64
538.25	56062.85
538.42	56226.69
538.59	56437.34
538.75	56104.98
538.92	56329.67
539.09	56308.61
539.26	56175.20
539.43	56596.49
539.60	56395.21
539.77	56474.79
539.94	56535.64
540.11	56329.67
540.28	56500.53
540.44	56769.69
540.61	56692.46
540.78	56619.90
540.95	56629.26
541.12	56601.18
541.29	56671.39
541.46	56512.23
541.62	56781.40
541.79	57158.22
541.96	56619.90
542.13	56786.08
542.30	56662.03
542.47	57048.22
542.63	57221.42
542.80	57202.69
542.97	57125.46
543.14	57244.82
543.31	57366.53
543.48	57347.81
543.64	57642.71
543.81	57476.54
543.98	57336.10
544.15	57476.54
544.32	57509.30
544.48	57888.47
544.65	57581.86
544.82	57513.98
544.99	57425.04
545.16	57696.55
545.32	57588.88
545.49	57916.56
545.66	57741.02
545.83	57799.53
546.00	57956.35
546.16	57841.66
546.33	58012.52
546.50	57853.36
546.67	58033.58
546.83	57626.33
547.00	57696.55
547.17	57869.75
547.34	57970.39
547.50	58082.73
547.67	58501.69
547.84	58061.67
548.00	58473.60
548.17	58365.94
548.34	58281.68
548.51	58284.02
548.67	58511.05
548.84	58277.00
549.01	58527.44
549.18	58164.65
549.34	58482.97
549.51	58412.75
549.68	58681.91
549.84	58433.81
550.01	58686.59
550.18	58520.41
550.34	58546.16
550.51	58789.58
550.68	58665.53
550.84	58358.92
551.01	58714.68
551.18	58698.30
551.34	58707.66
551.51	58742.77
551.68	58768.51
551.84	58637.44
552.01	58752.13
552.18	58986.18
552.34	58459.56
552.51	58960.44
552.68	58698.30
552.84	58894.90
553.01	58932.35
553.18	58791.92
553.34	59140.66
553.51	58864.47
553.67	59016.61
553.84	59152.36
554.01	59168.74
554.17	59245.98
554.34	59199.17
554.51	58974.48
554.67	59150.02
554.84	59110.23
555.00	59182.79
555.17	59274.07
555.33	59311.52
555.50	59381.73
555.67	59222.58
555.83	59171.08
556.00	59440.24
556.16	59622.81
556.33	59604.08
556.50	59491.74
556.66	59601.74
556.83	59367.69
556.99	59494.08
557.16	59552.59
557.32	59592.38
557.49	59882.61
557.65	59484.72
557.82	59564.29
557.98	59447.27
558.15	59395.77
558.32	59732.81
558.48	59491.74
558.65	59728.13
558.81	59882.61
558.98	59746.86
559.14	59554.93
559.31	59805.37
559.47	59943.46
559.64	59847.50
559.80	59901.33
559.97	59891.97
560.13	59730.47
560.30	59950.48
560.46	59934.10
560.63	59800.69
560.79	59854.52
560.96	60027.72
561.12	59915.37
561.29	60116.66
561.45	59891.97
561.61	60018.36
561.78	60210.28
561.94	60168.15
562.11	59884.95
562.27	60044.10
562.44	60083.89
562.60	60252.41
562.77	60266.45
562.93	59833.46
563.10	60093.25
563.26	60025.38
563.42	60097.94
563.59	60130.70
563.75	60268.79
563.92	60212.62
564.08	60210.28
564.24	60491.15
564.41	60360.08
564.57	60364.76
564.74	60381.14
564.90	60285.18
565.07	60179.85
565.23	60350.71
565.39	60350.71
565.56	60292.20
565.72	60374.12
565.88	60491.15
566.05	60315.61
566.21	60182.19
566.38	60708.82
566.54	60685.41
566.70	60474.76
566.87	60556.68
567.03	60292.20
567.19	60474.76
567.36	60434.97
567.52	60750.94
567.68	60619.88
567.85	60575.40
568.01	60601.15
568.17	60575.40
568.34	60743.92
568.50	60519.23
568.66	60617.53
568.83	60711.16
568.99	60439.65
569.15	60570.72
569.32	60596.47
569.48	60624.56
569.64	60676.05
569.81	60327.31
569.97	60624.56
570.13	60516.89
570.30	60619.88
570.46	60631.58
570.62	60598.81
570.78	60589.45
570.95	60575.40
571.11	60638.60
571.27	60643.28
571.43	60662.00
571.60	60662.00
571.76	60821.16
571.92	60846.91
572.09	60835.20
572.25	60715.84
572.41	60608.17
572.57	60863.29
572.74	61003.72
572.90	60788.39
573.06	60807.12
573.22	60882.02
573.38	60793.07
573.55	60809.46
573.71	60928.83
573.87	60999.04
574.03	60769.67
574.20	60973.30
574.36	60814.14
574.52	60980.32
574.68	61013.08
574.84	61052.87
575.01	60884.36
575.17	60739.24
575.33	60736.90
575.49	60729.88
575.65	60949.89
575.82	60893.72
575.98	60921.80
576.14	60961.59
576.30	61139.47
576.46	60830.52
576.62	60858.61
576.79	60996.70
576.95	60872.65
577.11	60982.66
577.27	61048.19
577.43	60917.12
577.59	60867.97
577.75	60825.84
577.92	60844.57
578.08	60853.93
578.24	61038.83
578.40	61099.68
578.56	61024.79
578.72	60961.59
578.88	61052.87
579.04	61282.25
579.21	61022.45
579.37	61111.39
579.53	61226.07
579.69	60870.31
579.85	60945.21
580.01	61001.38
580.17	60905.42
580.33	60938.19
580.49	61279.91
580.65	61137.13
580.82	61006.06
580.98	61057.56
581.14	61078.62
581.30	61317.35
581.46	61017.77
581.62	61055.21
581.78	61183.94
581.94	61282.25
582.10	61219.05
582.26	61097.34
582.42	61029.47
582.58	61073.94
582.74	60860.95
582.90	61193.31
583.06	61153.52
583.22	61015.43
583.38	60933.51
583.54	61247.14
583.70	61270.54
583.86	61048.19
584.02	61055.21
584.18	61226.07
584.34	61212.03
584.50	61331.40
584.66	61092.66
584.82	61069.26
584.98	61235.44
585.14	61385.23
585.30	61029.47
585.46	61375.87
585.62	61132.45
585.78	61387.57
585.94	61022.45
586.10	61099.68
586.26	61183.94
586.42	61331.40
586.58	61123.09
586.74	61130.11
586.90	61144.16
587.06	61139.47
587.22	61392.25
587.38	61263.52
587.54	61319.70
587.70	61455.45
587.86	61324.38
588.02	61256.50
588.18	61408.64
588.34	61202.67
588.49	61155.86
