SpectraSuite Data File
++++++++++++++++++++++++++++++++++++
Date: Fri Oct 25 11:22:40 EDT 2013
User: price-jones
Dark Spectrum Present: No
Reference Spectrum Present: No
Number of Sampled Component Spectra: 1
Spectrometers: USB2+H05261
Integration Time (usec): 100000 (USB2+H05261)
Spectra Averaged: 1 (USB2+H05261)
Boxcar Smoothing: 0 (USB2+H05261)
Correct for Electrical Dark: No (USB2+H05261)
Strobe/Lamp Enabled: No (USB2+H05261)
Correct for Detector Non-linearity: No (USB2+H05261)
Correct for Stray Light: No (USB2+H05261)
Number of Pixels in Processed Spectrum: 2048
>>>>>Begin Processed Spectral Data<<<<<
365.73	222.35
365.92	222.35
366.12	222.35
366.32	98.30
366.52	100.64
366.72	131.07
366.91	124.05
367.11	142.77
367.31	189.58
367.51	105.32
367.70	63.19
367.90	149.79
368.10	145.11
368.30	166.18
368.49	159.16
368.69	187.24
368.89	107.66
369.09	175.54
369.28	152.13
369.48	194.26
369.68	168.52
369.87	231.71
370.07	163.84
370.27	278.52
370.47	315.97
370.66	589.82
370.86	671.73
371.06	662.37
371.25	664.71
371.45	592.16
371.65	629.60
371.84	650.67
372.04	706.84
372.24	667.05
372.44	709.18
372.63	695.14
372.83	774.72
373.03	807.48
373.22	784.08
373.42	753.65
373.62	781.74
373.81	753.65
374.01	767.70
374.21	805.14
374.40	812.17
374.60	840.25
374.79	807.48
374.99	765.36
375.19	833.23
375.38	854.30
375.58	798.12
375.78	844.93
375.97	898.77
376.17	889.40
376.37	851.96
376.56	858.98
376.76	866.00
376.95	847.27
377.15	837.91
377.35	840.25
377.54	952.60
377.74	809.83
377.93	877.70
378.13	844.93
378.33	940.90
378.52	945.58
378.72	905.79
378.91	901.11
379.11	943.24
379.31	910.47
379.50	912.81
379.70	999.41
379.89	1046.22
380.09	929.19
380.28	924.51
380.48	987.71
380.68	903.45
380.87	976.00
381.07	952.60
381.26	1034.52
381.46	1062.60
381.65	1034.52
381.85	987.71
382.04	1086.01
382.24	1004.09
382.43	1004.09
382.63	1128.14
382.83	1057.92
383.02	1025.15
383.22	1114.10
383.41	992.39
383.61	1041.54
383.80	1142.18
384.00	1025.15
384.19	1132.82
384.39	1135.16
384.58	1128.14
384.78	1097.71
384.97	1146.86
385.17	1111.75
385.36	1064.94
385.56	1191.33
385.75	1240.48
385.95	1270.91
386.14	1200.69
386.34	1163.25
386.53	1217.08
386.72	1153.88
386.92	1200.69
387.11	1352.83
387.31	1306.02
387.50	1259.21
387.70	1287.29
387.89	1235.80
388.09	1284.95
388.28	1299.00
388.48	1310.70
388.67	1284.95
388.86	1306.02
389.06	1308.36
389.25	1352.83
389.45	1343.47
389.64	1376.24
389.84	1423.05
390.03	1462.83
390.22	1362.19
390.42	1362.19
390.61	1322.40
390.81	1446.45
391.00	1378.58
391.19	1392.62
391.39	1366.87
391.58	1376.24
391.78	1425.39
391.97	1392.62
392.16	1490.92
392.36	1535.39
392.55	1490.92
392.75	1479.22
392.94	1554.12
393.13	1490.92
393.33	1497.94
393.52	1593.90
393.71	1638.38
393.91	1577.52
394.10	1549.43
394.29	1535.39
394.49	1511.99
394.68	1659.44
394.88	1668.80
395.07	1753.06
395.26	1556.46
395.46	1600.93
395.65	1664.12
395.84	1699.23
396.04	1788.17
396.23	1729.66
396.42	1799.87
396.62	1806.89
396.81	1844.34
397.00	1785.83
397.19	1797.53
397.39	1818.60
397.58	1874.77
397.77	1851.36
397.97	1942.64
398.16	1818.60
398.35	1928.60
398.55	1921.58
398.74	1893.49
398.93	1919.24
399.12	1980.09
399.32	1909.88
399.51	1944.99
399.70	2108.82
399.90	2001.16
400.09	2087.76
400.28	2017.54
400.47	2073.71
400.67	2059.67
400.86	2092.44
401.05	2115.84
401.24	2106.48
401.44	2239.89
401.63	1991.80
401.82	2099.46
402.01	2160.31
402.21	2165.00
402.40	2242.23
402.59	2200.10
402.78	2167.34
402.97	2303.09
403.17	2272.66
403.36	2249.25
403.55	2317.13
403.74	2347.56
403.93	2452.88
404.13	2469.27
404.32	2291.38
404.51	2363.94
404.70	2389.69
404.89	2370.96
405.09	2527.78
405.28	2452.88
405.47	2511.39
405.66	2534.80
405.85	2420.11
406.05	2558.21
406.24	2576.93
406.43	2605.02
406.62	2635.44
406.81	2621.40
407.00	2541.82
407.20	2614.38
407.39	2614.38
407.58	2724.38
407.77	2682.25
407.96	2803.96
408.15	2717.36
408.34	2703.32
408.54	2953.76
408.73	2862.48
408.92	2862.48
409.11	2885.88
409.30	2991.20
409.49	2888.22
409.68	2939.71
409.87	3035.67
410.07	3157.38
410.26	2963.12
410.45	2988.86
410.64	3021.63
410.83	3054.40
411.02	3222.92
411.21	3171.43
411.40	3162.06
411.59	3304.84
411.78	3286.11
411.98	3131.64
412.17	3274.41
412.36	3307.18
412.55	3473.36
412.74	3452.29
412.93	3557.61
413.12	3403.14
413.31	3463.99
413.50	3527.19
413.69	3482.72
413.88	3651.24
414.07	3545.91
414.26	3510.80
414.45	3712.09
414.64	3772.94
414.83	3693.37
415.02	3772.94
415.22	3824.44
415.41	3808.05
415.60	3798.69
415.79	3948.48
415.98	3983.59
416.17	4088.92
416.36	4037.42
416.55	4035.08
416.74	4098.28
416.93	4018.70
417.12	4002.32
417.31	4285.52
417.50	4180.20
417.69	4318.29
417.88	4308.93
418.07	4191.90
418.26	4217.65
418.45	4397.87
418.64	4425.95
418.83	4390.84
419.02	4367.44
419.21	4507.87
419.39	4510.21
419.58	4486.81
419.77	4519.57
419.96	4559.36
420.15	4685.75
420.34	4697.46
420.53	4589.79
420.72	4812.14
420.91	4758.31
421.10	4802.78
421.29	4882.36
421.48	4685.75
421.67	4781.71
421.86	4702.14
422.05	4901.08
422.24	4746.61
422.43	4847.25
422.61	4966.62
422.80	5022.79
422.99	5032.15
423.18	4922.15
423.37	4898.74
423.56	4983.00
423.75	5160.88
423.94	4858.95
424.13	4650.64
424.32	4676.39
424.50	4919.81
424.69	5210.03
424.88	5071.94
425.07	5022.79
425.26	4903.42
425.45	5020.45
425.64	4882.36
425.83	4959.60
426.01	5170.24
426.20	5259.18
426.39	4971.30
426.58	5013.43
426.77	5039.17
426.96	5090.67
427.15	5186.63
427.33	5203.01
427.52	5210.03
427.71	5207.69
427.90	5296.63
428.09	5348.12
428.28	5404.30
428.46	5331.74
428.65	5418.34
428.84	5675.80
429.03	5481.53
429.22	5238.12
429.40	5575.16
429.59	5547.07
429.78	5270.89
429.97	5451.11
430.16	5453.45
430.34	5682.82
430.53	5631.33
430.72	5743.67
430.91	5727.29
431.10	5727.29
431.28	5853.68
431.47	5727.29
431.66	5870.06
431.85	5860.70
432.03	5907.51
432.22	6050.28
432.41	6162.63
432.60	5898.15
432.79	5954.32
432.97	6038.58
433.16	6024.54
433.35	5987.09
433.54	6171.99
433.72	6106.46
433.91	6171.99
434.10	6300.72
434.28	6298.38
434.47	6218.80
434.66	6370.94
434.85	6347.53
435.03	6312.42
435.22	6347.53
435.41	6541.80
435.59	6434.13
435.78	6504.35
435.97	6452.86
436.16	6359.24
436.34	6677.55
436.53	6562.86
436.72	6710.32
436.90	6532.44
437.09	6649.46
437.28	6621.38
437.46	6766.49
437.65	6691.59
437.84	6857.77
438.02	6752.45
438.21	6881.18
438.40	6750.10
438.58	6979.48
438.77	7169.06
438.96	6782.87
439.14	7176.08
439.33	7232.26
439.52	7164.38
439.70	7206.51
439.89	7321.20
440.08	7478.01
440.26	7379.71
440.45	7283.75
440.63	7536.52
440.82	7709.72
441.01	7595.04
441.19	7681.64
441.38	7791.64
441.57	7808.03
441.75	7831.43
441.94	7922.71
442.12	7906.33
442.31	7861.86
442.50	8191.88
442.68	8156.77
442.87	8180.17
443.05	8332.31
443.24	8257.41
443.43	8070.17
443.61	8217.62
443.80	8561.68
443.98	8077.19
444.17	7918.03
444.35	8262.09
444.54	8390.82
444.73	8435.29
444.91	8339.33
445.10	8519.55
445.28	8252.73
445.47	8348.69
445.65	8454.02
445.84	8547.64
446.02	8615.51
446.21	8463.38
446.39	8575.72
446.58	8634.24
446.77	8430.61
446.95	8458.70
447.14	8454.02
447.32	8727.86
447.51	8510.19
447.69	8320.60
447.88	8472.74
448.06	8559.34
448.25	8634.24
448.43	8723.18
448.62	8741.90
448.80	8638.92
448.99	8580.40
449.17	8905.74
449.36	8674.03
449.54	8947.87
449.73	9261.50
449.91	9132.77
450.10	9074.26
450.28	9029.79
450.46	9121.07
450.65	9111.71
450.83	9085.96
451.02	9083.62
451.20	9036.81
451.39	9282.56
451.57	9331.72
451.76	9184.26
451.94	9364.48
452.13	9383.21
452.31	9320.01
452.49	9100.00
452.68	9385.55
452.86	9533.00
453.05	9584.49
453.23	9451.08
453.42	9621.94
453.60	9439.38
453.78	9650.03
453.97	9401.93
454.15	9626.62
454.34	9427.68
454.52	9926.21
454.70	9586.83
454.89	9647.69
455.07	9767.06
455.26	9891.10
455.44	10015.15
455.62	10036.22
455.81	10136.86
455.99	9961.32
456.17	10225.80
456.36	10090.05
456.54	10289.00
456.73	10448.15
456.91	10501.98
457.09	10377.94
457.28	10441.13
457.46	10391.98
457.64	10579.22
457.83	10628.37
458.01	10321.76
458.19	10754.76
458.38	10649.44
458.56	10895.19
458.74	10689.23
458.93	10740.72
459.11	10977.11
459.29	10651.78
459.48	10974.77
459.66	10799.23
459.84	10850.72
460.03	11183.08
460.21	11115.20
460.39	11063.71
460.57	11122.23
460.76	11351.60
460.94	11192.44
461.12	11028.60
461.31	11363.30
461.49	11183.08
461.67	11164.36
461.85	11419.47
462.04	11239.25
462.22	11859.49
462.40	11826.73
462.59	11632.46
462.77	11658.21
462.95	11667.57
463.13	11798.64
463.32	11587.99
463.50	11882.90
463.68	11798.64
463.86	11889.92
464.05	11611.40
464.23	11852.47
464.41	11918.01
464.59	11843.11
464.78	12243.34
464.96	12035.03
465.14	12006.95
465.32	12252.70
465.50	12009.29
465.69	12376.75
465.87	12311.22
466.05	12535.91
466.23	12173.13
466.41	12306.54
466.60	12479.74
466.78	12131.00
466.96	12507.82
467.14	12372.07
467.32	12409.52
467.51	12444.63
467.69	12320.58
467.87	12491.44
468.05	12943.16
468.23	12552.29
468.41	12521.87
468.60	12596.76
468.78	12615.49
468.96	12582.72
469.14	12800.39
469.32	13193.60
469.50	12884.65
469.69	13107.00
469.87	13034.44
470.05	13146.79
470.23	13057.85
470.41	13472.12
470.59	13532.98
470.77	13289.56
470.95	13135.09
471.14	13710.86
471.32	13242.75
471.50	13855.97
471.68	13572.77
471.86	13734.26
472.04	14045.55
472.22	14197.69
472.40	14043.21
472.58	13874.70
472.77	14249.18
472.95	14242.16
473.13	14670.48
473.31	14401.32
473.49	14078.32
473.67	14551.11
473.85	14246.84
474.03	14721.97
474.21	14647.07
474.39	14609.62
474.57	14682.18
474.75	15215.82
474.93	15136.24
475.12	14855.38
475.30	15220.50
475.48	15005.17
475.66	15346.89
475.84	15253.27
476.02	15405.41
476.20	15625.42
476.38	15545.84
476.56	15887.56
476.74	16121.61
476.92	16079.48
477.10	15831.38
477.28	16149.70
477.46	16276.09
477.64	16592.06
477.82	16739.51
478.00	16959.52
478.18	16905.69
478.36	17247.41
478.54	17322.30
478.72	17221.66
478.90	17781.05
479.08	17706.15
479.26	17916.80
479.44	17624.23
479.62	18001.06
479.80	18052.55
479.98	18246.82
480.16	18703.22
480.34	18586.19
480.52	18630.66
480.70	18984.09
480.88	18621.30
481.06	18752.37
481.24	19323.46
481.41	18916.21
481.59	19499.00
481.77	19506.02
481.95	19859.45
482.13	19658.16
482.31	19822.00
482.49	20362.66
482.67	20482.03
482.85	20875.24
483.03	20840.13
483.21	20828.43
483.39	21268.45
483.57	21074.18
483.74	21238.02
483.92	21568.04
484.10	21301.22
484.28	21916.78
484.46	22717.24
484.64	22668.09
484.82	22544.04
485.00	22632.98
485.18	22864.69
485.35	23367.91
485.53	22724.26
485.71	23152.58
485.89	23688.56
486.07	23527.06
486.25	23590.26
486.43	24065.39
486.61	24226.89
486.78	24217.52
486.96	24409.45
487.14	24746.48
487.32	25020.33
487.50	25015.65
487.68	25043.73
487.85	25212.25
488.03	25556.31
488.21	25809.09
488.39	26061.87
488.57	26384.86
488.75	26075.91
488.92	26700.83
489.10	26979.36
489.28	26625.93
489.46	27080.00
489.64	27576.19
489.81	27718.96
489.99	28170.69
490.17	27999.83
490.35	28472.62
490.53	28077.07
490.70	28493.68
490.88	28615.39
491.06	29160.73
491.24	29001.58
491.41	29380.74
491.59	29743.53
491.77	29766.93
491.95	29813.74
492.13	30415.26
492.30	30213.98
492.48	30455.05
492.66	30553.35
492.84	30593.14
493.01	30883.37
493.19	30991.03
493.37	30913.80
493.54	31115.08
493.72	32006.83
493.90	31901.50
494.08	32070.02
494.25	32416.42
494.43	32393.01
494.61	32596.64
494.79	32701.96
494.96	32741.75
495.14	33432.21
495.32	33235.61
495.49	33184.12
495.67	33230.93
495.85	33567.96
496.02	34139.05
496.20	34190.55
496.38	34176.50
496.55	34312.25
496.73	35409.96
496.91	35143.14
497.09	35323.36
497.26	35175.91
497.44	35295.28
497.62	35744.66
497.79	35845.30
497.97	35613.59
498.14	36264.26
498.32	36196.38
498.50	36339.16
498.67	36788.54
498.85	36907.91
499.03	37256.65
499.20	36996.85
499.38	37537.51
499.56	37312.82
499.73	37453.25
499.91	37425.17
500.08	37895.61
500.26	37626.45
500.44	38061.79
500.61	38543.94
500.79	37624.11
500.97	38326.27
501.14	38742.89
501.32	38710.12
501.49	38565.01
501.67	39070.56
501.84	39321.00
502.02	39426.32
502.20	39201.63
502.37	39466.11
502.55	39852.30
502.72	39428.66
502.90	39894.43
503.07	39878.05
503.25	39875.71
503.43	40114.44
503.60	40669.15
503.78	40580.21
503.95	40495.95
504.13	40678.51
504.30	41186.41
504.48	41001.50
504.65	41001.50
504.83	41390.03
505.01	41443.87
505.18	41904.95
505.36	41820.69
505.53	41511.74
505.71	41785.58
505.88	42564.98
506.06	41706.01
506.23	42548.60
506.41	42424.55
506.58	42649.24
506.76	42614.13
506.93	42696.05
507.11	42557.96
507.28	42913.72
507.46	42918.40
507.63	43290.55
507.81	43517.58
507.98	43306.93
508.16	43833.55
508.33	43739.93
508.50	44079.31
508.68	43447.36
508.85	44133.14
509.03	44343.79
509.20	43988.03
509.38	44671.46
509.55	44666.78
509.73	44739.34
509.90	44772.11
510.08	44425.71
510.25	44982.76
510.42	44914.88
510.60	45034.25
510.77	45361.92
510.95	45841.73
511.12	45642.79
511.30	45797.26
511.47	45975.14
511.64	45659.17
511.82	46431.55
511.99	45933.01
512.17	46447.93
512.34	46251.33
512.51	46667.94
512.69	46499.42
512.86	46820.08
513.04	47129.03
513.21	47105.62
513.38	47056.47
513.56	47304.57
513.73	46948.81
513.90	47400.53
514.08	47201.58
514.25	47828.85
514.43	47643.94
514.60	47646.29
514.77	48020.77
514.95	48252.48
515.12	47894.38
515.29	47863.96
515.47	47817.14
515.64	48296.95
515.81	48413.98
515.99	48467.81
516.16	49090.40
516.33	48907.83
516.51	49434.45
516.68	48659.74
516.85	48898.47
517.03	48924.22
517.20	49284.66
517.37	49364.24
517.54	49165.29
517.72	49249.55
517.89	49338.49
518.06	49516.37
518.24	49535.10
518.41	49731.70
518.58	49909.58
518.75	49722.34
518.93	49989.16
519.10	49951.71
519.27	50117.89
519.45	49963.42
519.62	50148.32
519.79	50141.30
519.96	50520.46
520.14	50618.77
520.31	50447.91
520.48	50609.40
520.65	50677.28
520.83	50948.78
521.00	51040.06
521.17	50834.10
521.34	50777.92
521.52	51295.18
521.69	51145.39
521.86	51119.64
522.03	51367.74
522.20	51810.10
522.38	52046.49
522.55	51849.89
522.72	51721.16
522.89	51934.15
523.07	51870.95
523.24	51852.23
523.41	51786.69
523.58	51721.16
523.75	52224.37
523.92	52360.12
524.10	52456.09
524.27	52069.90
524.44	52465.45
524.61	52444.38
524.78	52528.64
524.96	52444.38
525.13	52582.48
525.30	52708.86
525.47	52783.76
525.64	52383.53
525.81	52842.27
525.98	52966.32
526.16	52758.02
526.33	53102.07
526.50	53532.73
526.67	53137.18
526.84	53176.97
527.01	53333.79
527.18	53258.89
527.36	53336.13
527.53	53368.90
527.70	53324.43
527.87	53614.65
528.04	53198.04
528.21	53680.19
528.38	53432.09
528.55	53689.55
528.72	53698.91
528.89	53881.47
529.07	53635.72
529.24	53612.31
529.41	54003.18
529.58	53944.67
529.75	53757.42
529.92	53890.83
530.09	54176.38
530.26	54281.70
530.43	54052.33
530.60	53947.01
530.77	53977.43
530.94	54365.96
531.11	54417.46
531.28	54305.11
531.46	54457.24
531.63	54314.47
531.80	54564.91
531.97	54440.86
532.14	54688.96
532.31	54766.20
532.48	54820.03
532.65	54862.16
532.82	54731.09
532.99	55351.33
533.16	54887.90
533.33	54969.82
533.50	55224.94
533.67	54958.12
533.84	55002.59
534.01	55306.86
534.18	55224.94
534.35	55447.29
534.52	55353.67
534.69	55325.58
534.86	55779.65
535.03	55306.86
535.20	55447.29
535.37	55599.43
535.54	55484.74
535.71	55662.62
535.88	55634.53
536.05	55695.39
536.22	55819.44
536.38	55767.94
536.55	55959.87
536.72	55671.98
536.89	55718.79
537.06	56009.02
537.23	56137.75
537.40	55891.99
537.57	55821.78
537.74	55817.10
537.91	56107.32
538.08	56114.34
538.25	55938.80
538.42	55959.87
538.59	56329.67
538.75	56023.06
538.92	56100.30
539.09	56416.27
539.26	56292.22
539.43	56346.06
539.60	56612.88
539.77	56397.55
539.94	56402.23
540.11	56683.09
540.28	56432.66
540.44	56676.07
540.61	56694.80
540.78	56605.86
540.95	56584.79
541.12	56776.72
541.29	56587.13
541.46	56772.03
541.62	56589.47
541.79	56821.19
541.96	56629.26
542.13	56781.40
542.30	56753.31
542.47	57102.05
542.63	56811.82
542.80	57186.31
542.97	57338.44
543.14	57485.90
543.31	57654.42
543.48	57268.23
543.64	57598.24
543.81	57722.29
543.98	57570.16
544.15	57741.02
544.32	57567.82
544.48	57928.26
544.65	57691.86
544.82	57635.69
544.99	57593.56
545.16	57645.05
545.32	57380.57
545.49	57696.55
545.66	58021.88
545.83	57874.43
546.00	57961.03
546.16	57904.85
546.33	57785.49
546.50	57598.24
546.67	57902.51
546.83	57729.31
547.00	57961.03
547.17	58166.99
547.34	57972.73
547.50	58258.27
547.67	58377.64
547.84	58017.20
548.00	58326.15
548.17	58358.92
548.34	58232.53
548.51	58628.08
548.67	58550.84
548.84	58291.04
549.01	58372.96
549.18	58096.78
549.34	58279.34
549.51	58323.81
549.68	58714.68
549.84	58501.69
550.01	58543.82
550.18	58417.43
550.34	58471.26
550.51	58787.24
550.68	58529.78
550.84	58618.72
551.01	58897.24
551.18	58752.13
551.34	58784.90
551.51	58714.68
551.68	58841.07
551.84	58667.87
552.01	58817.66
552.18	58953.41
552.34	58623.40
552.51	59133.63
552.68	58913.62
552.84	59056.40
553.01	59063.42
553.18	59009.59
553.34	59093.85
553.51	58944.05
553.67	59040.01
553.84	59278.75
554.01	59011.93
554.17	59014.27
554.34	59297.47
554.51	59114.91
554.67	59283.43
554.84	58948.73
555.00	59150.02
555.17	59121.93
555.33	59325.56
555.50	58983.84
555.67	59131.29
555.83	58951.07
556.00	59473.01
556.16	59678.98
556.33	59423.86
556.50	59428.54
556.66	59648.55
556.83	59554.93
556.99	59831.11
557.16	59702.38
557.32	59693.02
557.49	59859.20
557.65	59433.22
557.82	59393.43
557.98	59686.00
558.15	59711.75
558.32	59503.44
558.48	59608.76
558.65	59594.72
558.81	59634.51
558.98	59599.40
559.14	59915.37
559.31	59742.17
559.47	60062.83
559.64	59803.03
559.80	59835.80
559.97	59945.80
560.13	59842.82
560.30	59971.55
560.46	59723.45
560.63	59887.29
560.79	59831.11
560.96	60116.66
561.12	60072.19
561.29	59962.18
561.45	60198.58
561.61	60020.70
561.78	60083.89
561.94	59955.16
562.11	60182.19
562.27	60051.12
562.44	60004.31
562.60	60308.58
562.77	59994.95
562.93	60027.72
563.10	60137.72
563.26	60074.53
563.42	60427.95
563.59	60168.15
563.75	60261.77
563.92	60193.90
564.08	60172.83
564.24	60282.84
564.41	60388.16
564.57	60287.52
564.74	60200.92
564.90	60041.76
565.07	60287.52
565.23	60381.14
565.39	60266.45
565.56	60528.59
565.72	60346.03
565.88	60383.48
566.05	60158.79
566.21	60350.71
566.38	60287.52
566.54	60449.02
566.70	60701.79
566.87	60643.28
567.03	60299.22
567.19	60594.13
567.36	60470.08
567.52	60643.28
567.68	60797.76
567.85	60617.53
568.01	60626.90
568.17	60418.59
568.34	60643.28
568.50	60678.39
568.66	60470.08
568.83	60610.51
568.99	60568.38
569.15	60640.94
569.32	60533.28
569.48	60460.72
569.64	60828.18
569.81	60603.49
569.97	60725.20
570.13	60736.90
570.30	60624.56
570.46	60664.35
570.62	60643.28
570.78	60718.18
570.95	60795.42
571.11	60839.89
571.27	60727.54
571.43	60617.53
571.60	60914.78
571.76	61006.06
571.92	60839.89
572.09	60816.48
572.25	61034.15
572.41	60673.71
572.57	60898.40
572.74	61160.54
572.90	60877.33
573.06	60980.32
573.22	61043.51
573.38	60800.10
573.55	60734.56
573.71	60987.34
573.87	60853.93
574.03	60734.56
574.20	60945.21
574.36	60662.00
574.52	60963.93
574.68	60884.36
574.84	61092.66
575.01	61090.32
575.17	60715.84
575.33	60713.50
575.49	60940.53
575.65	60940.53
575.82	60926.49
575.98	60935.85
576.14	61153.52
576.30	60938.19
576.46	60907.76
576.62	60807.12
576.79	60977.98
576.95	60966.27
577.11	61188.63
577.27	61073.94
577.43	60851.59
577.59	61048.19
577.75	60860.95
577.92	60835.20
578.08	60912.44
578.24	61029.47
578.40	61286.93
578.56	61160.54
578.72	60982.66
578.88	61165.22
579.04	61146.50
579.21	61043.51
579.37	61319.70
579.53	61118.41
579.69	60898.40
579.85	61024.79
580.01	60996.70
580.17	60987.34
580.33	61146.50
580.49	61148.84
580.65	60996.70
580.82	61254.16
580.98	61242.46
581.14	60905.42
581.30	61240.12
581.46	61080.96
581.62	61183.94
581.78	61006.06
581.94	60961.59
582.10	61078.62
582.26	61188.63
582.42	61106.71
582.58	61066.92
582.74	61303.31
582.90	60905.42
583.06	61010.74
583.22	61043.51
583.38	61172.24
583.54	61200.33
583.70	61389.91
583.86	61200.33
584.02	60999.04
584.18	61317.35
584.34	61073.94
584.50	61338.42
584.66	61057.56
584.82	61034.15
584.98	61263.52
585.14	61265.86
585.30	60903.08
585.46	61144.16
585.62	61228.41
585.78	61359.48
585.94	61052.87
586.10	61200.33
586.26	61155.86
586.42	61268.20
586.58	61317.35
586.74	61155.86
586.90	61116.07
587.06	61202.67
587.22	61373.53
587.38	61155.86
587.54	61474.17
587.70	61471.83
587.86	61240.12
588.02	61265.86
588.18	61420.34
588.34	61205.01
588.49	61298.63
