SpectraSuite Data File
++++++++++++++++++++++++++++++++++++
Date: Fri Oct 25 10:44:46 EDT 2013
User: price-jones
Dark Spectrum Present: No
Reference Spectrum Present: No
Number of Sampled Component Spectra: 1
Spectrometers: USB2+H05261
Integration Time (usec): 100000 (USB2+H05261)
Spectra Averaged: 1 (USB2+H05261)
Boxcar Smoothing: 0 (USB2+H05261)
Correct for Electrical Dark: No (USB2+H05261)
Strobe/Lamp Enabled: No (USB2+H05261)
Correct for Detector Non-linearity: No (USB2+H05261)
Correct for Stray Light: No (USB2+H05261)
Number of Pixels in Processed Spectrum: 2048
>>>>>Begin Processed Spectral Data<<<<<
365.73	163.84
365.92	163.84
366.12	163.84
366.32	0.00
366.52	37.45
366.72	79.58
366.91	0.00
367.11	0.00
367.31	51.49
367.51	28.09
367.70	0.00
367.90	84.26
368.10	51.49
368.30	53.83
368.49	2.34
368.69	107.66
368.89	70.22
369.09	16.38
369.28	107.66
369.48	91.28
369.68	11.70
369.87	140.43
370.07	88.94
370.27	159.16
370.47	161.50
370.66	358.10
370.86	407.25
371.06	411.93
371.25	421.30
371.45	407.25
371.65	535.98
371.84	447.04
372.04	449.38
372.24	503.22
372.44	409.59
372.63	456.40
372.83	514.92
373.03	519.60
373.22	524.28
373.42	437.68
373.62	482.15
373.81	477.47
374.01	585.13
374.21	503.22
374.40	498.53
374.60	524.28
374.79	510.24
374.99	519.60
375.19	550.03
375.38	526.62
375.58	528.96
375.78	592.16
375.97	503.22
376.17	631.94
376.37	613.22
376.56	674.07
376.76	552.37
376.95	559.39
377.15	610.88
377.35	538.32
377.54	655.35
377.74	561.73
377.93	622.58
378.13	594.50
378.33	585.13
378.52	606.20
378.72	613.22
378.91	641.31
379.11	634.29
379.31	648.33
379.50	592.16
379.70	725.57
379.89	653.01
380.09	664.71
380.28	641.31
380.48	650.67
380.68	638.97
380.87	653.01
381.07	688.12
381.26	765.36
381.46	655.35
381.65	585.13
381.85	638.97
382.04	709.18
382.24	636.63
382.43	655.35
382.63	641.31
382.83	667.05
383.02	704.50
383.22	720.88
383.41	657.69
383.61	723.23
383.80	741.95
384.00	697.48
384.19	760.67
384.39	713.86
384.58	732.59
384.78	842.59
384.97	770.04
385.17	760.67
385.36	746.63
385.56	791.10
385.75	748.97
385.95	800.46
386.14	709.18
386.34	734.93
386.53	786.42
386.72	765.36
386.92	807.48
387.11	828.55
387.31	760.67
387.50	807.48
387.70	788.76
387.89	866.00
388.09	812.17
388.28	734.93
388.48	856.64
388.67	891.74
388.86	903.45
389.06	882.38
389.25	875.36
389.45	896.43
389.64	903.45
389.84	933.87
390.03	868.34
390.22	873.02
390.42	954.94
390.61	980.68
390.81	908.13
391.00	884.72
391.19	884.72
391.39	936.21
391.58	847.27
391.78	929.19
391.97	992.39
392.16	983.02
392.36	908.13
392.55	950.26
392.75	887.06
392.94	854.30
393.13	987.71
393.33	929.19
393.52	952.60
393.71	1020.47
393.91	1039.20
394.10	1111.75
394.29	1032.18
394.49	1041.54
394.68	1008.77
394.88	1081.33
395.07	1156.22
395.26	1181.97
395.46	1116.44
395.65	1104.73
395.84	1093.03
396.04	1184.31
396.23	1107.07
396.42	1041.54
396.62	1036.86
396.81	1095.37
397.00	1100.05
397.19	1198.35
397.39	1144.52
397.58	1217.08
397.77	1301.34
397.97	1259.21
398.16	1235.80
398.35	1280.27
398.55	1306.02
398.74	1371.55
398.93	1378.58
399.12	1352.83
399.32	1345.81
399.51	1350.49
399.70	1448.79
399.90	1486.24
400.09	1371.55
400.28	1490.92
400.47	1500.28
400.67	1507.30
400.86	1502.62
401.05	1476.88
401.24	1519.01
401.44	1591.56
401.63	1551.78
401.82	1467.52
402.01	1549.43
402.21	1549.43
402.40	1661.78
402.59	1460.49
402.78	1502.62
402.97	1549.43
403.17	1607.95
403.36	1605.61
403.55	1701.57
403.74	1598.59
403.93	1666.46
404.13	1666.46
404.32	1636.03
404.51	1650.08
404.70	1692.21
404.89	1675.82
405.09	1764.76
405.28	1696.89
405.47	1671.14
405.66	1799.87
405.85	1867.75
406.05	1713.27
406.24	1858.39
406.43	1783.49
406.62	1923.92
406.81	1865.41
407.00	1853.70
407.20	1886.47
407.39	1893.49
407.58	1912.22
407.77	1914.56
407.96	2026.90
408.15	2017.54
408.34	2033.93
408.54	2090.10
408.73	2059.67
408.92	1996.48
409.11	1956.69
409.30	2047.97
409.49	2064.35
409.68	2015.20
409.87	2085.42
410.07	2069.03
410.26	2080.74
410.45	2071.37
410.64	2165.00
410.83	2143.93
411.02	2172.02
411.21	2338.20
411.40	2300.75
411.59	2385.01
411.78	2354.58
411.98	2291.38
412.17	2359.26
412.36	2370.96
412.55	2401.39
412.74	2462.24
412.93	2424.80
413.12	2525.44
413.31	2649.49
413.50	2581.61
413.69	2569.91
413.88	2700.98
414.07	2628.42
414.26	2672.89
414.45	2712.68
414.64	2675.23
414.83	2764.17
415.02	2745.45
415.22	2768.85
415.41	2904.60
415.60	2801.62
415.79	2897.58
415.98	2909.29
416.17	2860.13
416.36	2839.07
416.55	2818.00
416.74	2979.50
416.93	2972.48
417.12	2923.33
417.31	2967.80
417.50	3021.63
417.69	3115.25
417.88	3133.98
418.07	3115.25
418.26	3094.19
418.45	3150.36
418.64	3138.66
418.83	3159.72
419.02	3232.28
419.21	3162.06
419.39	3293.13
419.58	3286.11
419.77	3213.56
419.96	3248.66
420.15	3365.69
420.34	3300.16
420.53	3370.37
420.72	3363.35
420.91	3492.08
421.10	3510.80
421.29	3478.04
421.48	3578.68
421.67	3588.04
421.86	3506.12
422.05	3332.92
422.24	3379.73
422.43	3288.45
422.61	3454.63
422.80	3590.38
422.99	3494.42
423.18	3667.62
423.37	3637.19
423.56	3562.30
423.75	3569.32
423.94	3543.57
424.13	3363.35
424.32	3400.80
424.50	3646.55
424.69	3595.06
424.88	3646.55
425.07	3461.65
425.26	3508.46
425.45	3653.58
425.64	3637.19
425.83	3548.25
426.01	3606.77
426.20	3620.81
426.39	3723.79
426.58	3623.15
426.77	3655.92
426.96	3665.28
427.15	3613.79
427.33	3639.53
427.52	3604.42
427.71	3878.27
427.90	3733.15
428.09	3833.80
428.28	3770.60
428.46	3716.77
428.65	3786.99
428.84	3936.78
429.03	3749.54
429.22	3786.99
429.40	3812.73
429.59	3889.97
429.78	3674.64
429.97	3665.28
430.16	3728.47
430.34	3850.18
430.53	3896.99
430.72	3840.82
430.91	4011.68
431.10	4021.04
431.28	4100.62
431.47	4168.49
431.66	4173.18
431.85	4079.55
432.03	4175.52
432.22	4383.82
432.41	4154.45
432.60	4212.96
432.79	4184.88
432.97	4138.07
433.16	4332.33
433.35	4234.03
433.54	4329.99
433.72	4294.88
433.91	4243.39
434.10	4397.87
434.28	4320.63
434.47	4372.12
434.66	4521.92
434.85	4393.19
435.03	4465.74
435.22	4435.32
435.41	4620.22
435.59	4578.09
435.78	4578.09
435.97	4676.39
436.16	4662.35
436.34	4606.17
436.53	4713.84
436.72	4915.12
436.90	4517.23
437.09	4821.50
437.28	4720.86
437.46	4723.20
437.65	4816.82
437.84	4814.48
438.02	4603.83
438.21	4805.12
438.40	4697.46
438.58	4840.23
438.77	4896.40
438.96	4950.23
439.14	5074.28
439.33	5022.79
439.52	5011.09
439.70	5071.94
439.89	5179.61
440.08	5146.84
440.26	5238.12
440.45	5064.92
440.63	5404.30
440.82	5465.15
441.01	5507.28
441.19	5437.06
441.38	5528.35
441.57	5472.17
441.75	5401.96
441.94	5767.08
442.12	5652.39
442.31	5736.65
442.50	5809.21
442.68	5628.99
442.87	5804.53
443.05	5753.04
443.24	5884.11
443.43	5699.20
443.61	5795.17
443.80	6045.60
443.98	5769.42
444.17	5685.16
444.35	5940.28
444.54	5872.40
444.73	5900.49
444.91	5851.34
445.10	5863.04
445.28	5872.40
445.47	5916.87
445.65	5959.00
445.84	5996.45
446.02	5865.38
446.21	5940.28
446.39	6026.88
446.58	6005.81
446.77	5914.53
446.95	5933.26
447.14	6047.94
447.32	6054.97
447.51	6038.58
447.69	6069.01
447.88	5966.03
448.06	6146.25
448.25	6097.10
448.43	6087.73
448.62	6115.82
448.80	6141.57
448.99	6033.90
449.17	6223.48
449.36	6108.80
449.54	6272.64
449.73	6445.84
449.91	6399.02
450.10	6431.79
450.28	6506.69
450.46	6506.69
450.65	6473.92
450.83	6413.07
451.02	6396.68
451.20	6530.09
451.39	6525.41
451.57	6415.41
451.76	6443.49
451.94	6581.59
452.13	6555.84
452.31	6675.21
452.49	6270.30
452.68	6504.35
452.86	6509.03
453.05	6764.15
453.23	6658.82
453.42	6427.11
453.60	6700.95
453.78	6815.64
453.97	6579.25
454.15	6633.08
454.34	6635.42
454.52	6855.43
454.70	6722.02
454.89	6855.43
455.07	7035.65
455.26	6853.09
455.44	6956.07
455.62	6864.79
455.81	6970.12
455.99	7110.55
456.17	7045.01
456.36	7201.83
456.54	7061.40
456.73	7166.72
456.91	7379.71
457.09	7377.37
457.28	7517.80
457.46	7328.22
457.64	7386.73
457.83	7187.79
458.01	7466.31
458.19	7400.77
458.38	7391.41
458.56	7449.93
458.74	7424.18
458.93	7442.90
459.11	7269.70
459.29	7335.24
459.48	7496.74
459.66	7681.64
459.84	7644.19
460.03	7730.79
460.21	7798.66
460.39	7756.54
460.57	7775.26
460.76	7887.61
460.94	7962.50
461.12	7840.79
461.31	7875.90
461.49	7803.35
461.67	7971.86
461.85	7985.91
462.04	7995.27
462.22	8168.47
462.40	8166.13
462.59	7990.59
462.77	8126.34
462.95	8135.70
463.13	8039.74
463.32	8131.02
463.50	7925.05
463.68	8159.11
463.86	8423.59
464.05	8063.15
464.23	8184.85
464.41	8194.22
464.59	8124.00
464.78	8411.89
464.96	8135.70
465.14	8294.86
465.32	8461.04
465.50	8320.60
465.69	8390.82
465.87	8177.83
466.05	8439.97
466.23	8397.84
466.41	8404.86
466.60	8517.21
466.78	8353.37
466.96	8486.78
467.14	8507.85
467.32	8503.17
467.51	8762.97
467.69	8224.64
467.87	8779.35
468.05	8709.13
468.23	8624.87
468.41	8456.36
468.60	8561.68
468.78	8851.91
468.96	8585.08
469.14	8781.69
469.32	8856.59
469.50	8510.19
469.69	9006.38
469.87	9036.81
470.05	9006.38
470.23	9034.47
470.41	9071.92
470.59	9156.18
470.77	9032.13
470.95	9238.09
471.14	9268.52
471.32	9034.47
471.50	9479.17
471.68	9233.41
471.86	9170.22
472.04	9359.80
472.22	9511.94
472.40	9434.70
472.58	9708.54
472.77	9394.91
472.95	9530.66
473.13	9912.17
473.31	9664.07
473.49	9771.74
473.67	9760.03
473.85	9907.49
474.03	9958.98
474.21	10040.90
474.39	10356.87
474.57	10174.31
474.75	10073.67
474.93	10258.57
475.12	10279.63
475.30	10448.15
475.48	10328.78
475.66	10331.12
475.84	10291.34
476.02	10626.03
476.20	10492.62
476.38	10600.29
476.56	10923.28
476.74	10813.28
476.92	10768.80
477.10	10754.76
477.28	11171.38
477.46	10960.73
477.64	11211.17
477.82	11344.58
478.00	11445.22
478.18	11557.57
478.36	11297.77
478.54	11311.81
478.72	11728.42
478.90	11850.13
479.08	11702.68
479.26	12018.65
479.44	11922.69
479.62	12025.67
479.80	11960.14
479.98	12180.15
480.16	12395.48
480.34	12355.69
480.52	12685.70
480.70	12446.97
480.88	12435.27
481.06	12709.11
481.24	12688.04
481.41	13097.64
481.59	13245.09
481.77	13043.81
481.95	13179.56
482.13	13301.26
482.31	13460.42
482.49	13724.90
482.67	13654.69
482.85	13804.48
483.03	13806.82
483.21	14171.94
483.39	14080.66
483.57	14068.96
483.74	14157.90
483.92	14551.11
484.10	14335.78
484.28	14616.65
484.46	14970.07
484.64	15051.99
484.82	14958.36
485.00	14937.30
485.18	14860.06
485.35	15140.93
485.53	14965.39
485.71	15288.38
485.89	15569.24
486.07	15372.64
486.25	15452.22
486.43	15798.62
486.61	15709.68
486.78	16049.05
486.96	16248.00
487.14	16414.18
487.32	16226.93
487.50	16514.82
487.68	16538.23
487.85	16896.33
488.03	17188.89
488.21	17071.87
488.39	16975.91
488.57	17673.39
488.75	17427.63
488.92	17640.62
489.10	17572.74
489.28	17895.74
489.46	17865.31
489.64	18209.37
489.81	18558.11
489.99	18459.81
490.17	18731.31
490.35	18546.40
490.53	18382.57
490.70	18792.16
490.88	18794.50
491.06	19176.01
491.24	18923.23
491.41	19112.81
491.59	19548.15
491.77	19232.18
491.95	19721.35
492.13	19833.70
492.30	19941.36
492.48	19660.50
492.66	20285.42
492.84	19836.04
493.01	20308.83
493.19	20437.56
493.37	20514.80
493.54	20645.87
493.72	20807.36
493.90	20542.88
494.08	21053.12
494.25	21329.30
494.43	21504.84
494.61	21591.44
494.79	21926.14
494.96	21596.12
495.14	21745.92
495.32	22134.45
495.49	21797.41
495.67	21902.73
495.85	22099.34
496.02	22230.41
496.20	22869.37
496.38	22677.45
496.55	22623.62
496.73	23215.77
496.91	23040.23
497.09	23358.55
497.26	23171.30
497.44	22979.38
497.62	23398.34
497.79	23426.42
497.97	23295.35
498.14	23616.01
498.32	24151.99
498.50	23817.29
498.67	23711.97
498.85	24079.43
499.03	24566.26
499.20	24114.54
499.38	24404.77
499.56	24217.52
499.73	24430.51
499.91	24439.87
500.08	24779.25
500.26	24402.43
500.44	24819.04
500.61	25041.39
500.79	24802.66
500.97	25074.16
501.14	25036.71
501.32	25469.71
501.49	25013.31
501.67	25074.16
501.84	25544.61
502.02	25703.76
502.20	25769.30
502.37	26064.21
502.55	25825.47
502.72	25919.09
502.90	25876.96
503.07	26206.98
503.25	26162.51
503.43	26024.42
503.60	26199.96
503.78	26319.32
503.95	26501.89
504.13	26380.18
504.30	26808.50
504.48	27098.72
504.65	26862.33
504.83	26815.52
505.01	27227.45
505.18	26984.04
505.36	27466.19
505.53	27527.04
505.71	27194.68
505.88	27634.71
506.06	27091.70
506.23	27800.88
506.41	27601.94
506.58	27672.15
506.76	27756.41
506.93	27950.68
507.11	27800.88
507.28	28053.66
507.46	27953.02
507.63	28301.76
507.81	28416.44
507.98	28268.99
508.16	28357.93
508.33	28538.15
508.50	28666.88
508.68	28353.25
508.85	29017.96
509.03	29228.61
509.20	29090.52
509.38	28973.49
509.55	29104.56
509.73	29298.83
509.90	29380.74
510.08	28985.19
510.25	29415.85
510.42	29319.89
510.60	29591.39
510.77	29926.09
510.95	29912.05
511.12	29893.32
511.30	30080.56
511.47	30560.37
511.64	30249.08
511.82	30497.18
511.99	30237.38
512.17	30300.58
512.34	30164.82
512.51	30525.27
512.69	30576.76
512.86	30607.19
513.04	30728.89
513.21	30820.17
513.38	30415.26
513.56	30998.06
513.73	30553.35
513.90	30834.22
514.08	31126.78
514.25	31068.27
514.43	31157.21
514.60	31185.30
514.77	31330.41
514.95	31524.68
515.12	31590.21
515.29	31735.32
515.47	31957.67
515.64	31728.30
515.81	31831.29
515.99	31838.31
516.16	31995.12
516.33	31407.65
516.51	31871.07
516.68	31896.82
516.85	31564.46
517.03	31796.18
517.20	32112.15
517.37	32676.22
517.54	32912.61
517.72	32252.58
517.89	32542.81
518.06	32168.32
518.24	32257.26
518.41	32393.01
518.58	32369.61
518.75	32458.55
518.93	32697.28
519.10	32566.21
519.27	32636.43
519.45	32893.89
519.62	33102.20
519.79	32905.59
519.96	33443.91
520.14	33481.36
520.31	33495.41
520.48	33392.42
520.65	33443.91
520.83	33738.82
521.00	33617.11
521.17	33574.98
521.34	33982.24
521.52	33677.97
521.69	33750.52
521.86	34171.82
522.03	34185.86
522.20	34508.86
522.38	34663.33
522.55	34209.27
522.72	34267.78
522.89	34295.87
523.07	34873.98
523.24	34911.43
523.41	34534.60
523.58	34815.47
523.75	34775.68
523.92	35208.68
524.10	35126.76
524.27	35056.54
524.44	35374.86
524.61	35077.61
524.78	35910.84
524.96	35152.51
525.13	35505.93
525.30	35234.42
525.47	35929.56
525.64	35431.03
525.81	35248.47
525.98	35344.43
526.16	35302.30
526.33	35402.94
526.50	35620.61
526.67	35234.42
526.84	35618.27
527.01	35332.73
527.18	35873.39
527.36	35756.36
527.53	36053.61
527.70	36266.60
527.87	36172.98
528.04	36102.76
528.21	36357.88
528.38	36495.97
528.55	36666.83
528.72	36402.35
528.89	36563.85
529.07	36121.49
529.24	36715.98
529.41	36889.18
529.58	36987.49
529.75	36793.22
529.92	36748.75
530.09	36849.39
530.26	37132.60
530.43	37230.90
530.60	36982.80
530.77	36903.23
530.94	37483.68
531.11	37111.53
531.28	37324.52
531.46	37301.12
531.63	37172.39
531.80	37235.58
531.97	37256.65
532.14	37373.67
532.31	37074.09
532.48	37493.04
532.65	37294.10
532.82	37345.59
532.99	37476.66
533.16	37469.64
533.33	37551.56
533.50	37961.15
533.67	37745.82
533.84	37954.13
534.01	37977.53
534.18	37799.65
534.35	38050.09
534.52	38082.86
534.69	38110.94
534.86	38345.00
535.03	37837.10
535.20	38649.27
535.37	39098.65
535.54	38286.48
535.71	38611.82
535.88	38700.76
536.05	38817.78
536.22	38658.63
536.38	38557.99
536.55	38623.52
536.72	38740.55
536.89	38719.48
537.06	38363.72
537.23	38614.16
537.40	39058.86
537.57	38773.31
537.74	39091.63
537.91	39201.63
538.08	39288.23
538.25	38721.82
538.42	38836.51
538.59	39477.82
538.75	39042.48
538.92	39552.71
539.09	39070.56
539.26	39391.22
539.43	39648.68
539.60	39328.02
539.77	39725.91
539.94	39037.80
540.11	39023.75
540.28	39351.43
540.44	39672.08
540.61	39133.76
540.78	39557.39
540.95	39234.40
541.12	39878.05
541.29	39611.23
541.46	39555.05
541.62	39489.52
541.79	40229.13
541.96	39302.28
542.13	39337.38
542.30	39819.53
542.47	39936.56
542.63	40065.29
542.80	40423.39
542.97	39934.22
543.14	40458.50
543.31	40444.46
543.48	40519.35
543.64	41193.43
543.81	40837.67
543.98	40872.78
544.15	40570.85
544.32	40781.49
544.48	41104.49
544.65	40776.81
544.82	40919.59
544.99	40725.32
545.16	40889.16
545.32	41146.62
545.49	41053.00
545.66	41347.90
545.83	41380.67
546.00	41432.16
546.16	41205.13
546.33	40669.15
546.50	41078.74
546.67	41092.79
546.83	40552.12
547.00	41354.93
547.17	41406.42
547.34	41127.89
547.50	41446.21
547.67	41319.82
547.84	41766.86
548.00	41652.17
548.17	41556.21
548.34	41579.62
548.51	41603.02
548.67	41844.10
548.84	41600.68
549.01	41551.53
549.18	41502.38
549.34	41525.78
549.51	41647.49
549.68	41392.37
549.84	42108.58
550.01	42347.31
550.18	41710.69
550.34	42122.62
550.51	41689.62
550.68	41930.70
550.84	42059.43
551.01	42150.71
551.18	42010.28
551.34	41991.55
551.51	42394.12
551.68	42476.04
551.84	42185.82
552.01	41940.06
552.18	42230.29
552.34	41888.57
552.51	42169.43
552.68	42316.89
552.84	42759.25
553.01	42555.62
553.18	42862.23
553.34	42422.21
553.51	42178.79
553.67	42181.13
553.84	42918.40
554.01	42600.09
554.17	43119.69
554.34	42766.27
554.51	42656.26
554.67	43103.31
554.84	42796.70
555.00	42958.19
555.17	42799.04
555.33	42843.51
555.50	42497.11
555.67	42429.23
555.83	43075.22
556.00	42777.97
556.16	42693.71
556.33	42885.64
556.50	42948.83
556.66	42976.92
556.83	42777.97
556.99	43007.34
557.16	43370.13
557.32	43154.80
557.49	43311.61
557.65	42808.40
557.82	42836.48
557.98	43323.32
558.15	42986.28
558.32	44018.46
558.48	43419.28
558.65	43442.68
558.81	43166.50
558.98	43309.27
559.14	43267.14
559.31	43126.71
559.47	43384.17
559.64	43658.01
559.80	43316.29
559.97	43449.70
560.13	42990.96
560.30	43505.88
560.46	43157.14
560.63	43320.98
560.79	43903.77
560.96	43973.98
561.12	43468.43
561.29	43477.79
561.45	43770.36
561.61	43463.75
561.78	43508.22
561.94	43356.08
562.11	43491.83
562.27	43592.48
562.44	43339.70
562.60	43882.70
562.77	43683.76
562.93	43711.84
563.10	44011.43
563.26	43489.49
563.42	43885.04
563.59	43580.78
563.75	43562.05
563.92	44135.48
564.08	44072.29
564.24	43665.03
564.41	43779.72
564.57	43643.97
564.74	44067.61
564.90	44123.78
565.07	44226.76
565.23	43702.48
565.39	43831.21
565.56	44280.60
565.72	43573.75
565.88	43971.64
566.05	44081.65
566.21	44023.14
566.38	44395.28
566.54	44219.74
566.70	44474.86
566.87	44271.23
567.03	44020.80
567.19	44542.74
567.36	44156.55
567.52	44224.42
567.68	44346.13
567.85	44444.43
568.01	44320.38
568.17	44280.60
568.34	44240.81
568.50	44231.44
568.66	43969.30
568.83	44367.20
568.99	44177.61
569.15	43779.72
569.32	44027.82
569.48	44095.69
569.64	44360.17
569.81	44521.67
569.97	44254.85
570.13	44311.02
570.30	43711.84
570.46	43725.89
570.62	44205.70
570.78	43880.36
570.95	44296.98
571.11	44383.58
571.27	43814.83
571.43	44332.09
571.60	44065.27
571.76	43875.68
571.92	43915.47
572.09	44051.22
572.25	44165.91
572.41	44137.82
572.57	44488.90
572.74	44896.16
572.90	44107.40
573.06	44612.95
573.22	44327.41
573.38	44540.39
573.55	44107.40
573.71	44509.97
573.87	44549.76
574.03	44093.35
574.20	44505.29
574.36	44479.54
574.52	44552.10
574.68	44336.77
574.84	44872.75
575.01	44261.87
575.17	44814.24
575.33	44044.20
575.49	44320.38
575.65	44062.93
575.82	44886.79
575.98	44018.46
576.14	44458.48
576.30	44584.86
576.46	44282.94
576.62	44257.19
576.79	44275.91
576.95	44088.67
577.11	43887.39
577.27	43973.98
577.43	44650.40
577.59	44285.28
577.75	44484.22
577.92	43828.87
578.08	44285.28
578.24	43981.01
578.40	44748.70
578.56	44381.24
578.72	44332.09
578.88	44769.77
579.04	44701.89
579.21	44662.10
579.37	44140.16
579.53	44458.48
579.69	44170.59
579.85	44362.51
580.01	44917.22
580.17	44172.93
580.33	44556.78
580.49	44446.77
580.65	44430.39
580.82	44729.98
580.98	44460.82
581.14	44449.11
581.30	44648.06
581.46	44500.61
581.62	44577.84
581.78	44397.62
581.94	44650.40
582.10	44191.65
582.26	44559.12
582.42	44587.21
582.58	44556.78
582.74	44051.22
582.90	44516.99
583.06	44989.78
583.22	44528.69
583.38	44641.04
583.54	45170.00
583.70	44830.62
583.86	44868.07
584.02	44418.69
584.18	44357.83
584.34	44282.94
584.50	44491.24
584.66	44622.31
584.82	44390.60
584.98	44765.09
585.14	44474.86
585.30	44449.11
585.46	44435.07
585.62	44259.53
585.78	44603.59
585.94	44346.13
586.10	44224.42
586.26	44800.19
586.42	44964.03
586.58	44907.86
586.74	44657.42
586.90	44065.27
587.06	44123.78
587.22	44573.16
587.38	44318.04
587.54	44767.43
587.70	44898.50
587.86	45062.33
588.02	44664.44
588.18	44287.62
588.34	44402.30
588.49	44083.99
588.65	44542.74
588.81	44282.94
588.97	45106.80
589.13	44264.21
589.29	44837.64
589.45	45024.89
589.61	44949.99
589.77	44474.86
589.93	44842.32
590.08	45001.48
590.24	44835.30
