SpectraSuite Data File
++++++++++++++++++++++++++++++++++++
Date: Fri Oct 25 11:23:20 EDT 2013
User: price-jones
Dark Spectrum Present: No
Reference Spectrum Present: No
Number of Sampled Component Spectra: 1
Spectrometers: USB2+H05261
Integration Time (usec): 100000 (USB2+H05261)
Spectra Averaged: 1 (USB2+H05261)
Boxcar Smoothing: 0 (USB2+H05261)
Correct for Electrical Dark: No (USB2+H05261)
Strobe/Lamp Enabled: No (USB2+H05261)
Correct for Detector Non-linearity: No (USB2+H05261)
Correct for Stray Light: No (USB2+H05261)
Number of Pixels in Processed Spectrum: 2048
>>>>>Begin Processed Spectral Data<<<<<
365.73	224.69
365.92	224.69
366.12	224.69
366.32	107.66
366.52	77.24
366.72	168.52
366.91	156.82
367.11	105.32
367.31	166.18
367.51	102.98
367.70	154.48
367.90	124.05
368.10	81.92
368.30	152.13
368.49	128.73
368.69	156.82
368.89	152.13
369.09	81.92
369.28	135.75
369.48	154.48
369.68	168.52
369.87	166.18
370.07	149.79
370.27	236.39
370.47	313.63
370.66	615.56
370.86	601.52
371.06	734.93
371.25	751.31
371.45	683.44
371.65	608.54
371.84	727.91
372.04	620.24
372.24	641.31
372.44	716.20
372.63	751.31
372.83	763.01
373.03	685.78
373.22	753.65
373.42	795.78
373.62	856.64
373.81	805.14
374.01	844.93
374.21	650.67
374.40	784.08
374.60	830.89
374.79	812.17
374.99	816.85
375.19	830.89
375.38	875.36
375.58	784.08
375.78	819.19
375.97	873.02
376.17	912.81
376.37	856.64
376.56	798.12
376.76	856.64
376.95	875.36
377.15	912.81
377.35	894.08
377.54	894.08
377.74	887.06
377.93	940.90
378.13	901.11
378.33	931.53
378.52	954.94
378.72	887.06
378.91	936.21
379.11	910.47
379.31	861.32
379.50	978.34
379.70	1048.56
379.89	1086.01
380.09	985.37
380.28	1048.56
380.48	1093.03
380.68	1006.43
380.87	964.30
381.07	1011.11
381.26	1013.45
381.46	987.71
381.65	1078.99
381.85	1078.99
382.04	1055.58
382.24	1022.81
382.43	1060.26
382.63	1048.56
382.83	1071.97
383.02	1083.67
383.22	1078.99
383.41	1090.69
383.61	1158.57
383.80	1078.99
384.00	1121.12
384.19	1104.73
384.39	1142.18
384.58	1167.93
384.78	1060.26
384.97	1146.86
385.17	1151.54
385.36	1149.20
385.56	1184.31
385.75	1210.06
385.95	1118.78
386.14	1240.48
386.34	1121.12
386.53	1191.33
386.72	1238.14
386.92	1228.78
387.11	1240.48
387.31	1376.24
387.50	1249.85
387.70	1217.08
387.89	1301.34
388.09	1270.91
388.28	1254.53
388.48	1214.74
388.67	1357.51
388.86	1380.92
389.06	1336.45
389.25	1352.83
389.45	1352.83
389.64	1275.59
389.84	1317.72
390.03	1357.51
390.22	1423.05
390.42	1380.92
390.61	1275.59
390.81	1376.24
391.00	1383.26
391.19	1409.00
391.39	1387.94
391.58	1453.47
391.78	1469.86
391.97	1502.62
392.16	1397.30
392.36	1514.33
392.55	1528.37
392.75	1519.01
392.94	1465.18
393.13	1687.53
393.33	1584.54
393.52	1533.05
393.71	1624.33
393.91	1537.73
394.10	1605.61
394.29	1572.84
394.49	1614.97
394.68	1666.46
394.88	1626.67
395.07	1666.46
395.26	1598.59
395.46	1659.44
395.65	1685.19
395.84	1710.93
396.04	1790.51
396.23	1713.27
396.42	1764.76
396.62	1760.08
396.81	1612.63
397.00	1778.81
397.19	1776.47
397.39	1877.11
397.58	1858.39
397.77	1851.36
397.97	1767.10
398.16	1842.00
398.35	1837.32
398.55	1881.79
398.74	1923.92
398.93	1980.09
399.12	1881.79
399.32	1933.28
399.51	1987.11
399.70	2003.50
399.90	2080.74
400.09	2092.44
400.28	2024.56
400.47	2122.87
400.67	2092.44
400.86	2092.44
401.05	2127.55
401.24	2136.91
401.44	2087.76
401.63	2136.91
401.82	2197.76
402.01	2087.76
402.21	2293.72
402.40	2232.87
402.59	2134.57
402.78	2207.13
402.97	2242.23
403.17	2230.53
403.36	2207.13
403.55	2282.02
403.74	2312.45
403.93	2356.92
404.13	2312.45
404.32	2377.98
404.51	2434.16
404.70	2509.05
404.89	2415.43
405.09	2504.37
405.28	2466.92
405.47	2473.95
405.66	2586.29
405.85	2473.95
406.05	2511.39
406.24	2499.69
406.43	2497.35
406.62	2649.49
406.81	2605.02
407.00	2605.02
407.20	2663.53
407.39	2712.68
407.58	2757.15
407.77	2768.85
407.96	2750.13
408.15	2850.77
408.34	2635.44
408.54	2836.73
408.73	2743.11
408.92	2818.00
409.11	2867.16
409.30	2785.24
409.49	2920.99
409.68	2981.84
409.87	2935.03
410.07	2956.10
410.26	3038.02
410.45	3035.67
410.64	3084.83
410.83	3084.83
411.02	3178.45
411.21	3286.11
411.40	3164.40
411.59	3262.71
411.78	3246.32
411.98	3138.66
412.17	3325.90
412.36	3396.12
412.55	3353.99
412.74	3431.23
412.93	3543.57
413.12	3412.50
413.31	3651.24
413.50	3564.64
413.69	3545.91
413.88	3627.83
414.07	3576.34
414.26	3744.86
414.45	3805.71
414.64	3737.84
414.83	3817.41
415.02	3634.85
415.22	3829.12
415.41	3871.25
415.60	3836.14
415.79	4037.42
415.98	4065.51
416.17	4084.23
416.36	4002.32
416.55	3995.29
416.74	4011.68
416.93	4091.26
417.12	4168.49
417.31	4269.14
417.50	4081.89
417.69	4299.56
417.88	4194.24
418.07	4187.22
418.26	4484.47
418.45	4355.74
418.64	4573.41
418.83	4465.74
419.02	4465.74
419.21	4510.21
419.39	4493.83
419.58	4575.75
419.77	4601.49
419.96	4578.09
420.15	4575.75
420.34	4685.75
420.53	4674.05
420.72	4802.78
420.91	4800.44
421.10	4819.16
421.29	5008.75
421.48	4671.71
421.67	4947.89
421.86	4741.93
422.05	4805.12
422.24	4706.82
422.43	4858.95
422.61	4992.36
422.80	5020.45
422.99	4950.23
423.18	5102.37
423.37	5076.62
423.56	4917.47
423.75	5067.26
423.94	4926.83
424.13	4554.68
424.32	4826.18
424.50	5132.79
424.69	5158.54
424.88	5074.28
425.07	5020.45
425.26	4856.61
425.45	4933.85
425.64	4997.04
425.83	5060.24
426.01	5093.01
426.20	5067.26
426.39	5214.71
426.58	5046.20
426.77	5025.13
426.96	5111.73
427.15	5160.88
427.33	5331.74
427.52	5167.90
427.71	5423.02
427.90	5233.44
428.09	5296.63
428.28	5303.65
428.46	5364.51
428.65	5350.46
428.84	5614.95
429.03	5575.16
429.22	5495.58
429.40	5481.53
429.59	5547.07
429.78	5486.22
429.97	5348.12
430.16	5390.25
430.34	5678.14
430.53	5750.70
430.72	5692.18
430.91	5673.46
431.10	5673.46
431.28	5827.93
431.47	5935.60
431.66	6127.52
431.85	5636.01
432.03	5909.85
432.22	6022.20
432.41	5919.21
432.60	5968.37
432.79	5966.03
432.97	6181.35
433.16	6134.54
433.35	6031.56
433.54	6111.14
433.72	6197.74
433.91	6214.12
434.10	6443.49
434.28	6200.08
434.47	6209.44
434.66	6267.95
434.85	6441.15
435.03	6387.32
435.22	6293.70
435.41	6630.74
435.59	6583.93
435.78	6523.07
435.97	6562.86
436.16	6473.92
436.34	6630.74
436.53	6525.41
436.72	6621.38
436.90	6546.48
437.09	6782.87
437.28	6609.67
437.46	6525.41
437.65	6574.56
437.84	6825.00
438.02	6827.34
438.21	6834.36
438.40	6916.28
438.58	7105.87
438.77	7054.37
438.96	6848.41
439.14	7288.43
439.33	7243.96
439.52	7279.07
439.70	7232.26
439.89	7269.70
440.08	7424.18
440.26	7440.56
440.45	7360.98
440.63	7517.80
440.82	7508.44
441.01	7611.42
441.19	7695.68
441.38	7756.54
441.57	7843.14
441.75	7751.85
441.94	7974.21
442.12	8042.08
442.31	7997.61
442.50	8065.49
442.68	7925.05
442.87	8006.97
443.05	8229.32
443.24	8278.47
443.43	8161.45
443.61	8348.69
443.80	8353.37
443.98	8255.07
444.17	7775.26
444.35	8241.03
444.54	8264.43
444.73	8229.32
444.91	8418.91
445.10	8451.67
445.28	8404.86
445.47	8306.56
445.65	8500.83
445.84	8379.12
446.02	8503.17
446.21	8692.75
446.39	8564.02
446.58	8638.92
446.77	8573.38
446.95	8306.56
447.14	8568.70
447.32	8664.66
447.51	8561.68
447.69	8407.20
447.88	8674.03
448.06	8769.99
448.25	8526.57
448.43	8697.43
448.62	8659.98
448.80	8716.16
448.99	8720.84
449.17	8760.63
449.36	8608.49
449.54	9055.53
449.73	8957.23
449.91	9053.19
450.10	9027.45
450.28	9247.46
450.46	9174.90
450.65	9125.75
450.83	9235.75
451.02	8985.32
451.20	9366.82
451.39	9188.94
451.57	9371.50
451.76	9034.47
451.94	9202.99
452.13	9446.40
452.31	9334.06
452.49	9348.10
452.68	9518.96
452.86	9329.38
453.05	9481.51
453.23	9666.41
453.42	9561.09
453.60	9310.65
453.78	9549.39
453.97	9591.52
454.15	9638.33
454.34	9596.20
454.52	9799.82
454.70	9645.35
454.89	9860.68
455.07	9874.72
455.26	9947.28
455.44	10106.43
455.62	10139.20
455.81	9982.38
455.99	10143.88
456.17	10146.22
456.36	10303.04
456.54	10291.34
456.73	10176.65
456.91	10476.24
457.09	10200.05
457.28	10733.70
457.46	10314.74
457.64	10656.46
457.83	10518.37
458.01	10415.38
458.19	10771.15
458.38	10375.59
458.56	10785.19
458.74	10679.86
458.93	10806.25
459.11	10810.93
459.29	10906.90
459.48	10993.50
459.66	10822.64
459.84	11272.02
460.03	11185.42
460.21	11042.65
460.39	11206.48
460.57	11199.46
460.76	11166.70
460.94	11328.19
461.12	11257.98
461.31	11239.25
461.49	11297.77
461.67	11218.19
461.85	11604.38
462.04	11494.37
462.22	11679.27
462.40	11655.87
462.59	11485.01
462.77	11789.28
462.95	11744.81
463.13	11920.35
463.32	11747.15
463.50	12044.40
463.68	11777.58
463.86	11875.88
464.05	11838.43
464.23	11906.31
464.41	12049.08
464.59	11789.28
464.78	12301.86
464.96	12248.02
465.14	11854.81
465.32	12252.70
465.50	12219.94
465.69	12472.71
465.87	12175.47
466.05	12343.99
466.23	12400.16
466.41	12341.64
466.60	12636.55
466.78	12088.87
466.96	12404.84
467.14	12325.26
467.32	12608.47
467.51	12608.47
467.69	12353.35
467.87	12409.52
468.05	12746.56
468.23	12482.08
468.41	12446.97
468.60	12545.27
468.78	13018.06
468.96	12720.81
469.14	12805.07
469.32	12961.89
469.50	12816.77
469.69	12933.80
469.87	13231.05
470.05	13366.80
470.23	13497.87
470.41	13282.54
470.59	13750.65
470.77	13312.97
470.95	13294.24
471.14	13383.18
471.32	13352.76
471.50	13465.10
471.68	13589.15
471.86	13827.88
472.04	13750.65
472.22	14291.31
472.40	14019.81
472.58	13865.33
472.77	14024.49
472.95	14277.27
473.13	14860.06
473.31	14176.62
473.49	14284.29
473.67	14162.58
473.85	14284.29
474.03	14796.87
474.21	14817.93
474.39	14890.49
474.57	14951.34
474.75	14984.11
474.93	15243.91
475.12	15255.61
475.30	15262.63
475.48	15286.04
475.66	15283.70
475.84	15344.55
476.02	15573.92
476.20	15482.64
476.38	15864.15
476.56	16194.17
476.74	16266.72
476.92	15873.51
477.10	15957.77
477.28	16219.91
477.46	16374.39
477.64	16177.78
477.82	16692.70
478.00	17067.19
478.18	17020.38
478.36	17029.74
478.54	17331.67
478.72	17404.22
478.90	17462.74
479.08	17759.98
479.26	17699.13
479.44	17628.92
479.62	18073.62
479.80	18356.82
479.98	18431.72
480.16	18789.82
480.34	18588.53
480.52	18810.89
480.70	18963.02
480.88	18773.44
481.06	18754.71
481.24	19241.54
481.41	19323.46
481.59	19609.01
481.77	19782.21
481.95	19812.63
482.13	19920.30
482.31	19859.45
482.49	20582.67
482.67	20416.49
482.85	20489.05
483.03	20966.52
483.21	21020.35
483.39	21076.52
483.57	21034.39
483.74	21476.76
483.92	21610.17
484.10	21207.59
484.28	21795.07
484.46	22235.09
484.64	22361.48
484.82	22340.41
485.00	22703.20
485.18	23225.14
485.35	23126.83
485.53	23033.21
485.71	23323.44
485.89	23852.40
486.07	23660.48
486.25	23901.55
486.43	24196.46
486.61	23995.17
486.78	24250.29
486.96	24414.13
487.14	24975.86
487.32	24594.35
487.50	25067.14
487.68	25397.15
487.85	25525.88
488.03	25724.83
488.21	26256.13
488.39	26082.93
488.57	26134.42
488.75	26635.30
488.92	26548.70
489.10	26953.61
489.28	26852.97
489.46	27644.07
489.64	26885.73
489.81	28128.56
489.99	28128.56
490.17	27950.68
490.35	28173.03
490.53	28591.98
490.70	28701.99
490.88	28547.51
491.06	29085.84
491.24	29462.66
491.41	29347.98
491.59	29668.63
491.77	29387.77
491.95	29921.41
492.13	29926.09
492.30	30312.28
492.48	30146.10
492.66	30424.62
492.84	30787.41
493.01	31035.50
493.19	30733.57
493.37	31374.88
493.54	31604.25
493.72	31824.26
493.90	32086.40
494.08	32266.63
494.25	32301.73
494.43	32077.04
494.61	32643.45
494.79	32767.50
494.96	32774.52
495.14	33277.74
495.32	33263.69
495.49	33591.37
495.67	33226.24
495.85	34305.23
496.02	34279.49
496.20	34384.81
496.38	34370.77
496.55	34546.31
496.73	35136.12
496.91	34686.74
497.09	35065.91
497.26	35466.14
497.44	35391.24
497.62	35416.99
497.79	36194.04
497.97	36020.84
498.14	36634.06
498.32	36175.32
498.50	36865.78
498.67	36989.83
498.85	36961.74
499.03	37095.15
499.20	37422.83
499.38	37097.49
499.56	37488.36
499.73	37329.20
499.91	37846.46
500.08	38384.79
500.26	38113.28
500.44	38354.36
500.61	38277.12
500.79	37993.92
500.97	38506.49
501.14	38436.28
501.32	38876.30
501.49	39040.14
501.67	38660.97
501.84	39611.23
502.02	39342.06
502.20	39253.12
502.37	39796.13
502.55	39812.51
502.72	39756.34
502.90	39749.32
503.07	40224.45
503.25	40084.01
503.43	40196.36
503.60	40804.90
503.78	40428.07
503.95	40622.34
504.13	40868.09
504.30	41022.57
504.48	41226.20
504.65	40821.28
504.83	41092.79
505.01	42169.43
505.18	41598.34
505.36	42003.25
505.53	41916.65
505.71	41804.31
505.88	42326.25
506.06	42085.17
506.23	42291.14
506.41	42124.96
506.58	42852.87
506.76	42827.12
506.93	42611.79
507.11	42913.72
507.28	43058.84
507.46	43278.85
507.63	43470.77
507.81	43807.81
507.98	43222.67
508.16	43739.93
508.33	43739.93
508.50	43615.88
508.68	43730.57
508.85	44336.77
509.03	44100.37
509.20	44224.42
509.38	44369.54
509.55	45057.65
509.73	44713.59
509.90	45067.02
510.08	45256.60
510.25	44919.56
510.42	45305.75
510.60	45542.14
510.77	45776.20
510.95	45907.27
511.12	45507.04
511.30	45272.98
511.47	45741.09
511.64	45815.99
511.82	46277.07
511.99	45986.85
512.17	46450.27
512.34	46251.33
512.51	46684.33
512.69	46763.90
512.86	46581.34
513.04	47063.49
513.21	46885.61
513.38	47222.65
513.56	47334.99
513.73	46724.11
513.90	47016.68
514.08	47374.78
514.25	47180.52
514.43	47875.66
514.60	47737.57
514.77	47693.10
514.95	47985.66
515.12	47672.03
515.29	47805.44
515.47	48362.49
515.64	48399.94
515.81	48086.31
515.99	48493.56
516.16	49045.93
516.33	48509.94
516.51	49167.63
516.68	48729.95
516.85	48608.25
517.03	49322.11
517.20	49474.24
517.37	49144.23
517.54	49399.35
517.72	49272.96
517.89	49270.62
518.06	49874.48
518.24	49422.75
518.41	49443.82
518.58	49614.68
518.75	49467.22
518.93	49813.62
519.10	49865.11
519.27	50094.49
519.45	50103.85
519.62	50586.00
519.79	50309.82
519.96	50440.89
520.14	50454.93
520.31	50337.90
520.48	50747.50
520.65	50930.06
520.83	51276.46
521.00	50817.71
521.17	51110.28
521.34	51033.04
521.52	51386.46
521.69	51049.42
521.86	51489.45
522.03	51583.07
522.20	51435.61
522.38	51753.93
522.55	51613.49
522.72	51885.00
522.89	51707.12
523.07	51938.83
523.24	52011.38
523.41	52179.90
523.58	51585.41
523.75	52067.56
523.92	52149.48
524.10	52481.83
524.27	52261.82
524.44	52453.75
524.61	52425.66
524.78	52584.82
524.96	52390.55
525.13	52566.09
525.30	52781.42
525.47	52807.17
525.64	52687.80
525.81	53045.90
525.98	53111.44
526.16	52963.98
526.33	52783.76
526.50	53258.89
526.67	52994.41
526.84	53230.80
527.01	53205.06
527.18	53326.77
527.36	53219.10
527.53	53261.23
527.70	53717.64
527.87	53715.29
528.04	53448.47
528.21	53626.35
528.38	53602.95
528.55	54080.42
528.72	53572.52
528.89	54031.27
529.07	53638.06
529.24	54059.35
529.41	54216.17
529.58	54064.03
529.75	53867.43
529.92	54075.74
530.09	54178.72
530.26	54059.35
530.43	54328.52
530.60	54232.55
530.77	54213.83
530.94	54391.71
531.11	54232.55
531.28	54429.16
531.46	54623.42
531.63	54578.95
531.80	54391.71
531.97	54763.85
532.14	54927.69
532.31	54803.64
532.48	54618.74
532.65	54820.03
532.82	54927.69
532.99	55007.27
533.16	55037.70
533.33	54986.21
533.50	55222.60
533.67	55231.96
533.84	55096.21
534.01	55241.32
534.18	55398.14
534.35	55613.47
534.52	55393.46
534.69	55264.73
534.86	55587.72
535.03	55407.50
535.20	55339.63
535.37	55451.97
535.54	55891.99
535.71	55700.07
535.88	55653.26
536.05	55653.26
536.22	55962.21
536.38	55927.10
536.55	55779.65
536.72	56074.55
536.89	56144.77
537.06	56088.60
537.23	56177.54
537.40	55807.73
537.57	56086.26
537.74	55728.16
537.91	56282.86
538.08	56322.65
538.25	56013.70
538.42	56313.29
538.59	56573.09
538.75	56123.71
538.92	56210.31
539.09	56376.48
539.26	56278.18
539.43	56175.20
539.60	56371.80
539.77	56552.02
539.94	56814.16
540.11	56804.80
540.28	56725.22
540.44	56537.98
540.61	56673.73
540.78	56750.97
540.95	56765.01
541.12	56523.94
541.29	56975.66
541.46	56940.55
541.62	56591.81
541.79	56907.79
541.96	56816.50
542.13	56872.68
542.30	56954.60
542.47	57029.49
542.63	57076.30
542.80	57020.13
542.97	57492.92
543.14	57539.73
543.31	57422.70
543.48	57605.26
543.64	57516.32
543.81	57736.34
543.98	57539.73
544.15	57733.99
544.32	57827.62
544.48	57806.55
544.65	57528.03
544.82	57654.42
544.99	57645.05
545.16	57605.26
545.32	57663.78
545.49	57918.90
545.66	57972.73
545.83	58113.16
546.00	58028.90
546.16	57979.75
546.33	57855.70
546.50	57881.45
546.67	58038.26
546.83	57769.10
547.00	58087.42
547.17	58141.25
547.34	57916.56
547.50	58082.73
547.67	58377.64
547.84	58148.27
548.00	58209.12
548.17	58660.85
548.34	58323.81
548.51	58569.57
548.67	58459.56
548.84	58408.07
549.01	58412.75
549.18	58295.72
549.34	58482.97
549.51	58459.56
549.68	58415.09
549.84	58660.85
550.01	58871.49
550.18	58358.92
550.34	58700.64
550.51	59011.93
550.68	58595.31
550.84	58534.46
551.01	58775.53
551.18	58852.77
551.34	58967.46
551.51	59025.97
551.68	58817.66
551.84	58672.55
552.01	58724.04
552.18	58988.52
552.34	58777.87
552.51	59192.15
552.68	58796.60
552.84	58878.52
553.01	59131.29
553.18	59100.87
553.34	59187.47
553.51	59070.44
553.67	59007.25
553.84	59152.36
554.01	59124.27
554.17	59260.02
554.34	59168.74
554.51	59131.29
554.67	59341.94
554.84	59276.41
555.00	59248.32
555.17	59458.97
555.33	59313.86
555.50	59203.85
555.67	59253.00
555.83	59168.74
556.00	59250.66
556.16	59875.58
556.33	59660.26
556.50	59510.46
556.66	59681.32
556.83	59260.02
556.99	59671.96
557.16	59835.80
557.32	59765.58
557.49	59908.35
557.65	59641.53
557.82	59730.47
557.98	59730.47
558.15	59718.77
558.32	59767.92
558.48	59611.10
558.65	59711.75
558.81	59863.88
558.98	59831.11
559.14	59784.30
559.31	60025.38
559.47	59807.71
559.64	60020.70
559.80	60020.70
559.97	60011.34
560.13	59910.69
560.30	59973.89
560.46	60053.47
560.63	60135.38
560.79	60102.62
560.96	60140.07
561.12	60165.81
561.29	60083.89
561.45	60086.23
561.61	60051.12
561.78	60023.04
561.94	60041.76
562.11	60100.28
562.27	59959.84
562.44	60233.69
562.60	60409.23
562.77	60296.88
562.93	60111.98
563.10	59990.27
563.26	60229.01
563.42	60313.26
563.59	60102.62
563.75	60320.29
563.92	60327.31
564.08	60123.68
564.24	60610.51
564.41	60416.25
564.57	60463.06
564.74	60243.05
564.90	60196.24
565.07	60179.85
565.23	60521.57
565.39	60315.61
565.56	60411.57
565.72	60233.69
565.88	60530.93
566.05	60350.71
566.21	60341.35
566.38	60294.54
566.54	60404.55
566.70	60533.28
566.87	60453.70
567.03	60411.57
567.19	60739.24
567.36	60451.36
567.52	60453.70
567.68	60652.64
567.85	60521.57
568.01	60577.75
568.17	60502.85
568.34	60458.38
568.50	60413.91
568.66	60636.26
568.83	60788.39
568.99	60479.44
569.15	60671.37
569.32	60444.33
569.48	60776.69
569.64	60734.56
569.81	60743.92
569.97	60617.53
570.13	60577.75
570.30	60647.96
570.46	60762.65
570.62	60786.05
570.78	60725.20
570.95	60676.05
571.11	60912.44
571.27	60631.58
571.43	60846.91
571.60	60933.51
571.76	60858.61
571.92	60643.28
572.09	60741.58
572.25	60900.74
572.41	60874.99
572.57	60809.46
572.74	61013.08
572.90	60764.99
573.06	60931.17
573.22	60987.34
573.38	60727.54
573.55	60729.88
573.71	61036.49
573.87	60795.42
574.03	60860.95
574.20	60891.38
574.36	60818.82
574.52	61043.51
574.68	60994.36
574.84	61125.43
575.01	60896.06
575.17	60851.59
575.33	60924.14
575.49	60750.94
575.65	61151.18
575.82	61017.77
575.98	61186.28
576.14	61137.13
576.30	61162.88
576.46	60722.86
576.62	61038.83
576.79	61038.83
576.95	60774.35
577.11	60896.06
577.27	61130.11
577.43	61076.28
577.59	61118.41
577.75	61022.45
577.92	60959.25
578.08	61001.38
578.24	61116.07
578.40	61347.78
578.56	61200.33
578.72	61132.45
578.88	61230.75
579.04	61085.64
579.21	61155.86
579.37	61064.58
579.53	61258.84
579.69	60996.70
579.85	61120.75
580.01	61052.87
580.17	61057.56
580.33	61209.69
580.49	61207.35
580.65	61127.77
580.82	61003.72
580.98	60980.32
581.14	61132.45
581.30	61226.07
581.46	61214.37
581.62	61263.52
581.78	61333.74
581.94	61104.37
582.10	61186.28
582.26	61263.52
582.42	61237.78
582.58	61188.63
582.74	60973.30
582.90	60968.61
583.06	61221.39
583.22	61190.97
583.38	61310.33
583.54	61092.66
583.70	61048.19
583.86	61141.81
584.02	61050.53
584.18	61193.31
584.34	61315.01
584.50	61272.88
584.66	61013.08
584.82	61165.22
584.98	61270.54
585.14	61148.84
585.30	61073.94
585.46	61223.73
585.62	61193.31
585.78	61359.48
585.94	61073.94
586.10	61427.36
586.26	60954.57
586.42	61263.52
586.58	61277.57
586.74	61293.95
586.90	61059.90
587.06	61244.80
587.22	61322.04
587.38	61462.47
587.54	61565.45
587.70	61457.79
587.86	61326.72
588.02	61439.06
588.18	61394.59
588.34	61282.25
