SpectraSuite Data File
++++++++++++++++++++++++++++++++++++
Date: Fri Oct 25 10:43:31 EDT 2013
User: price-jones
Dark Spectrum Present: No
Reference Spectrum Present: No
Number of Sampled Component Spectra: 1
Spectrometers: USB2+H05261
Integration Time (usec): 100000 (USB2+H05261)
Spectra Averaged: 1 (USB2+H05261)
Boxcar Smoothing: 0 (USB2+H05261)
Correct for Electrical Dark: No (USB2+H05261)
Strobe/Lamp Enabled: No (USB2+H05261)
Correct for Detector Non-linearity: No (USB2+H05261)
Correct for Stray Light: No (USB2+H05261)
Number of Pixels in Processed Spectrum: 2048
>>>>>Begin Processed Spectral Data<<<<<
365.73	95.96
365.92	95.96
366.12	95.96
366.32	32.77
366.52	0.00
366.72	9.36
366.91	11.70
367.11	32.77
367.31	0.00
367.51	42.13
367.70	56.17
367.90	37.45
368.10	25.75
368.30	91.28
368.49	37.45
368.69	67.88
368.89	0.00
369.09	25.75
369.28	67.88
369.48	0.00
369.68	46.81
369.87	37.45
370.07	84.26
370.27	156.82
370.47	196.60
370.66	369.80
370.86	444.70
371.06	465.77
371.25	519.60
371.45	437.68
371.65	531.30
371.84	397.89
372.04	423.64
372.24	479.81
372.44	437.68
372.63	447.04
372.83	531.30
373.03	526.62
373.22	500.87
373.42	463.43
373.62	519.60
373.81	493.85
374.01	575.77
374.21	564.07
374.40	587.47
374.60	538.32
374.79	547.69
374.99	568.75
375.19	580.45
375.38	575.77
375.58	571.09
375.78	585.13
375.97	629.60
376.17	648.33
376.37	582.79
376.56	552.37
376.76	526.62
376.95	575.77
377.15	662.37
377.35	664.71
377.54	720.88
377.74	681.10
377.93	608.54
378.13	650.67
378.33	650.67
378.52	606.20
378.72	657.69
378.91	678.76
379.11	674.07
379.31	613.22
379.50	648.33
379.70	699.82
379.89	662.37
380.09	760.67
380.28	641.31
380.48	671.73
380.68	723.23
380.87	706.84
381.07	706.84
381.26	730.25
381.46	716.20
381.65	734.93
381.85	645.99
382.04	755.99
382.24	660.03
382.43	643.65
382.63	627.26
382.83	770.04
383.02	741.95
383.22	823.87
383.41	702.16
383.61	692.80
383.80	739.61
384.00	746.63
384.19	713.86
384.39	753.65
384.58	737.27
384.78	744.29
384.97	779.40
385.17	725.57
385.36	739.61
385.56	840.25
385.75	821.53
385.95	863.66
386.14	887.06
386.34	781.74
386.53	898.77
386.72	877.70
386.92	870.68
387.11	903.45
387.31	894.08
387.50	854.30
387.70	770.04
387.89	784.08
388.09	856.64
388.28	868.34
388.48	908.13
388.67	873.02
388.86	891.74
389.06	882.38
389.25	1018.13
389.45	896.43
389.64	1020.47
389.84	1006.43
390.03	990.05
390.22	1004.09
390.42	1008.77
390.61	1069.62
390.81	999.41
391.00	1090.69
391.19	1011.11
391.39	1020.47
391.58	1104.73
391.78	1116.44
391.97	1008.77
392.16	1062.60
392.36	1111.75
392.55	1022.81
392.75	954.94
392.94	985.37
393.13	945.58
393.33	968.98
393.52	985.37
393.71	1064.94
393.91	1043.88
394.10	1086.01
394.29	1135.16
394.49	1149.20
394.68	1212.40
394.88	1203.04
395.07	1205.38
395.26	1259.21
395.46	1219.42
395.65	1329.42
395.84	1235.80
396.04	1198.35
396.23	1181.97
396.42	1259.21
396.62	1181.97
396.81	1191.33
397.00	1245.16
397.19	1306.02
397.39	1270.91
397.58	1343.47
397.77	1380.92
397.97	1420.71
398.16	1446.45
398.35	1511.99
398.55	1432.41
398.74	1490.92
398.93	1483.90
399.12	1556.46
399.32	1490.92
399.51	1638.38
399.70	1547.09
399.90	1486.24
400.09	1516.67
400.28	1626.67
400.47	1619.65
400.67	1629.01
400.86	1593.90
401.05	1682.85
401.24	1638.38
401.44	1720.29
401.63	1643.06
401.82	1720.29
402.01	1614.97
402.21	1710.93
402.40	1685.19
402.59	1727.32
402.78	1729.66
402.97	1696.89
403.17	1795.19
403.36	1799.87
403.55	1757.74
403.74	1867.75
403.93	1797.53
404.13	1839.66
404.32	1792.85
404.51	1736.68
404.70	1944.99
404.89	1895.83
405.09	1944.99
405.28	1930.94
405.47	1907.54
405.66	2005.84
405.85	2012.86
406.05	1942.64
406.24	2062.01
406.43	2043.29
406.62	1994.14
406.81	2162.66
407.00	2076.06
407.20	1991.80
407.39	2078.40
407.58	2097.12
407.77	2136.91
407.96	2246.91
408.15	2190.74
408.34	2249.25
408.54	2207.13
408.73	2380.32
408.92	2216.49
409.11	2326.49
409.30	2387.35
409.49	2139.25
409.68	2256.28
409.87	2349.90
410.07	2326.49
410.26	2244.57
410.45	2338.20
410.64	2354.58
410.83	2509.05
411.02	2471.61
411.21	2736.09
411.40	2562.89
411.59	2607.36
411.78	2684.59
411.98	2670.55
412.17	2548.84
412.36	2609.70
412.55	2626.08
412.74	2780.56
412.93	2677.57
413.12	2649.49
413.31	2782.90
413.50	2782.90
413.69	2848.43
413.88	2991.20
414.07	2869.50
414.26	2890.56
414.45	2930.35
414.64	2878.86
414.83	2874.18
415.02	3052.06
415.22	3084.83
415.41	3068.44
415.60	3054.40
415.79	3126.96
415.98	3255.69
416.17	3246.32
416.36	3199.51
416.55	3286.11
416.74	3213.56
416.93	3276.75
417.12	3269.73
417.31	3368.03
417.50	3293.13
417.69	3389.10
417.88	3356.33
418.07	3435.91
418.26	3531.87
418.45	3552.93
418.64	3655.92
418.83	3592.72
419.02	3620.81
419.21	3562.30
419.39	3510.80
419.58	3531.87
419.77	3625.49
419.96	3581.02
420.15	3653.58
420.34	3672.30
420.53	3630.17
420.72	3735.50
420.91	3726.13
421.10	3730.81
421.29	3815.07
421.48	3808.05
421.67	3913.38
421.86	3801.03
422.05	3742.52
422.24	3784.65
422.43	3751.88
422.61	3880.61
422.80	3831.46
422.99	4049.13
423.18	3871.25
423.37	3939.12
423.56	3812.73
423.75	3786.99
423.94	3950.82
424.13	3719.11
424.32	3803.37
424.50	3950.82
424.69	4070.19
424.88	4201.26
425.07	3918.06
425.26	3906.35
425.45	3904.01
425.64	3922.74
425.83	3885.29
426.01	3964.87
426.20	4079.55
426.39	3976.57
426.58	4028.06
426.77	4014.02
426.96	3969.55
427.15	3967.21
427.33	3941.46
427.52	3999.98
427.71	4145.09
427.90	4002.32
428.09	4077.21
428.28	4212.96
428.46	4173.18
428.65	4070.19
428.84	4243.39
429.03	4088.92
429.22	4135.73
429.40	3995.29
429.59	4182.54
429.78	3936.78
429.97	3927.42
430.16	4011.68
430.34	4056.15
430.53	4208.28
430.72	4117.00
430.91	4217.65
431.10	4325.31
431.28	4470.42
431.47	4496.17
431.66	4791.08
431.85	4479.79
432.03	4533.62
432.22	4606.17
432.41	4524.26
432.60	4552.34
432.79	4746.61
432.97	4638.94
433.16	4737.24
433.35	4699.80
433.54	4617.88
433.72	4660.01
433.91	4589.79
434.10	4526.60
434.28	4643.62
434.47	4858.95
434.66	4936.19
434.85	4858.95
435.03	4748.95
435.22	4823.84
435.41	5135.14
435.59	5153.86
435.78	4880.02
435.97	4978.32
436.16	5057.90
436.34	5043.85
436.53	5289.61
436.72	5245.14
436.90	5167.90
437.09	5224.08
437.28	5123.43
437.46	5116.41
437.65	5146.84
437.84	5167.90
438.02	5144.50
438.21	5078.96
438.40	5146.84
438.58	5259.18
438.77	5479.19
438.96	5420.68
439.14	5549.41
439.33	5654.73
439.52	5490.90
439.70	5481.53
439.89	5710.91
440.08	5741.33
440.26	5703.89
440.45	5802.19
440.63	5825.59
440.82	5827.93
441.01	5961.34
441.19	6080.71
441.38	6207.10
441.57	6108.80
441.75	6200.08
441.94	6150.93
442.12	6237.53
442.31	6345.19
442.50	6333.49
442.68	6242.21
442.87	6181.35
443.05	6354.55
443.24	6436.47
443.43	6380.30
443.61	6331.15
443.80	6520.73
443.98	6356.90
444.17	6118.16
444.35	6408.39
444.54	6581.59
444.73	6518.39
444.91	6387.32
445.10	6370.94
445.28	6328.81
445.47	6389.66
445.65	6249.23
445.84	6544.14
446.02	6516.05
446.21	6377.96
446.39	6562.86
446.58	6677.55
446.77	6761.81
446.95	6466.90
447.14	6738.40
447.32	6729.04
447.51	6759.47
447.69	6689.25
447.88	6628.40
448.06	6820.32
448.25	6668.19
448.43	6670.53
448.62	6815.64
448.80	6841.39
448.99	6848.41
449.17	6724.36
449.36	6754.79
449.54	6848.41
449.73	6981.82
449.91	7112.89
450.10	7206.51
450.28	7295.45
450.46	7035.65
450.65	7133.95
450.83	7215.87
451.02	7190.13
451.20	7014.59
451.39	7129.27
451.57	7143.32
451.76	7080.12
451.94	7178.42
452.13	7293.11
452.31	7236.94
452.49	6995.86
452.68	7234.60
452.86	7124.59
453.05	7323.54
453.23	7358.64
453.42	7262.68
453.60	7148.00
453.78	7330.56
453.97	7433.54
454.15	7384.39
454.34	7192.47
454.52	7627.81
454.70	7543.55
454.89	7442.90
455.07	7569.29
455.26	7620.78
455.44	7562.27
455.62	7620.78
455.81	7660.57
455.99	7831.43
456.17	7651.21
456.36	7903.99
456.54	7854.84
456.73	7873.56
456.91	8009.31
457.09	8177.83
457.28	8245.71
457.46	8142.72
457.64	8009.31
457.83	7971.86
458.01	8049.10
458.19	8063.15
458.38	7995.27
458.56	8191.88
458.74	8156.77
458.93	8168.47
459.11	8114.64
459.29	8231.66
459.48	8198.90
459.66	8215.28
459.84	8348.69
460.03	8659.98
460.21	8386.14
460.39	8468.06
460.57	8510.19
460.76	8465.72
460.94	8505.51
461.12	8308.90
461.31	8748.92
461.49	8704.45
461.67	8491.46
461.85	8819.14
462.04	8732.54
462.22	9090.64
462.40	8769.99
462.59	8624.87
462.77	8908.08
462.95	8849.57
463.13	8975.95
463.32	8819.14
463.50	8882.33
463.68	9153.84
463.86	9074.26
464.05	8772.33
464.23	8868.29
464.41	9107.02
464.59	8774.67
464.78	9036.81
464.96	9135.11
465.14	8964.25
465.32	9001.70
465.50	9240.44
465.69	9252.14
465.87	8875.31
466.05	9170.22
466.23	8842.54
466.41	9116.39
466.60	9418.32
466.78	9001.70
466.96	9167.88
467.14	9273.20
467.32	9336.40
467.51	9455.76
467.69	9151.49
467.87	9383.21
468.05	9282.56
468.23	9362.14
468.41	9483.85
468.60	9490.87
468.78	9537.68
468.96	9542.36
469.14	9664.07
469.32	9722.59
469.50	9497.89
469.69	9720.24
469.87	9715.56
470.05	9708.54
470.23	9600.88
470.41	9839.61
470.59	9797.48
470.77	10040.90
470.95	9902.81
471.14	9994.09
471.32	9818.55
471.50	10284.31
471.68	10190.69
471.86	10178.99
472.04	10270.27
472.22	10551.14
472.40	10167.29
472.58	10242.18
472.77	10319.42
472.95	10487.94
473.13	10813.28
473.31	10434.11
473.49	10595.61
473.67	10565.18
473.85	10668.16
474.03	10817.96
474.21	10803.91
474.39	10970.09
474.57	10885.83
474.75	10902.22
474.93	11138.61
475.12	11073.07
475.30	11236.91
475.48	11112.86
475.66	11206.48
475.84	11265.00
476.02	11407.77
476.20	11360.96
476.38	11419.47
476.56	11761.19
476.74	11580.97
476.92	11765.87
477.10	11477.99
477.28	12079.50
477.46	12095.89
477.64	12095.89
477.82	12222.28
478.00	12301.86
478.18	12421.22
478.36	12346.33
478.54	12479.74
478.72	12711.45
478.90	12936.14
479.08	12961.89
479.26	12856.56
479.44	13156.15
479.62	13111.68
479.80	13165.51
479.98	13364.46
480.16	13612.56
480.34	13565.74
480.52	13717.88
480.70	13607.87
480.88	13460.42
481.06	13884.06
481.24	13736.60
481.41	14005.77
481.59	14118.11
481.77	14319.40
481.95	14298.33
482.13	14349.82
482.31	14338.12
482.49	14941.98
482.67	14871.76
482.85	14644.73
483.03	15157.31
483.21	15040.28
483.39	15201.78
483.57	15257.95
483.74	15543.50
483.92	15697.97
484.10	15618.39
484.28	15782.23
484.46	15988.20
484.64	15997.56
484.82	15887.56
485.00	16058.42
485.18	16191.83
485.35	16395.45
485.53	15971.82
485.71	16091.18
485.89	16266.72
486.07	16217.57
486.25	16381.41
486.43	16999.31
486.61	17121.02
486.78	17205.28
486.96	17294.22
487.14	17436.99
487.32	17710.83
487.50	17767.01
487.68	17956.59
487.85	18265.54
488.03	18216.39
488.21	18618.96
488.39	18471.51
488.57	18635.35
488.75	18771.10
488.92	19002.81
489.10	18785.14
489.28	19290.70
489.46	19358.57
489.64	19524.75
489.81	20109.88
489.99	20086.48
490.17	19889.87
490.35	20142.65
490.53	20182.44
490.70	20166.06
490.88	20013.92
491.06	20966.52
491.24	20634.16
491.41	20505.43
491.59	20776.94
491.77	20538.20
491.95	21039.08
492.13	21158.44
492.30	21652.30
492.48	21380.79
492.66	21649.96
492.84	21518.89
493.01	22155.51
493.19	21965.93
493.37	22256.15
493.54	22127.42
493.72	22689.15
493.90	22590.85
494.08	22925.55
494.25	22991.08
494.43	23033.21
494.61	23314.08
494.79	23260.24
494.96	23491.96
495.14	23356.21
495.32	23646.43
495.49	23545.79
495.67	23910.91
495.85	23791.55
496.02	23878.15
496.20	24486.68
496.38	24254.97
496.55	24290.08
496.73	25046.07
496.91	24554.56
497.09	24919.68
497.26	24879.89
497.44	25006.28
497.62	25109.27
497.79	25111.61
497.97	24910.32
498.14	25153.74
498.32	25841.85
498.50	25242.68
498.67	25806.75
498.85	25752.91
499.03	26052.50
499.20	25876.96
499.38	26089.95
499.56	26075.91
499.73	26417.63
499.91	26253.79
500.08	26426.99
500.26	26417.63
500.44	26300.60
500.61	26841.26
500.79	26897.44
500.97	26881.05
501.14	26852.97
501.32	26888.07
501.49	26939.57
501.67	27349.16
501.84	27388.95
502.02	27058.93
502.20	27180.64
502.37	27864.08
502.55	27611.30
502.72	27931.95
502.90	27817.27
503.07	27992.81
503.25	27978.76
503.43	27716.62
503.60	27941.32
503.78	27871.10
503.95	28116.86
504.13	28334.53
504.30	28341.55
504.48	28615.39
504.65	29067.11
504.83	28570.92
505.01	28933.70
505.18	28896.25
505.36	29146.69
505.53	29097.54
505.71	29603.10
505.88	29621.82
506.06	29160.73
506.23	29493.09
506.41	29376.06
506.58	29567.99
506.76	29888.64
506.93	30043.12
507.11	30026.73
507.28	29823.11
507.46	29888.64
507.63	29766.93
507.81	29785.66
507.98	30242.06
508.16	30614.21
508.33	30277.17
508.50	30366.11
508.68	30815.49
508.85	30738.26
509.03	30803.79
509.20	30703.15
509.38	30962.95
509.55	30965.29
509.73	31208.70
509.90	31365.52
510.08	30974.65
510.25	31307.01
510.42	31510.63
510.60	30841.24
510.77	31417.01
510.95	31594.89
511.12	31637.02
511.30	31651.06
511.47	31531.70
511.64	32107.47
511.82	32367.27
511.99	31847.67
512.17	31981.08
512.34	31969.38
512.51	32313.44
512.69	32257.26
512.86	32510.04
513.04	32989.85
513.21	32856.44
513.38	32355.57
513.56	32538.13
513.73	32713.67
513.90	33212.20
514.08	32643.45
514.25	33097.52
514.43	32570.90
514.60	32797.93
514.77	32929.00
514.95	33069.43
515.12	33558.60
515.29	33261.35
515.47	33532.86
515.64	34146.08
515.81	33553.92
515.99	33713.08
516.16	33659.24
516.33	33472.00
516.51	33820.74
516.68	33106.88
516.85	32950.06
517.03	33710.74
517.20	33677.97
517.37	33881.60
517.54	34330.98
517.72	34330.98
517.89	33720.10
518.06	34162.46
518.24	33965.85
518.41	34015.01
518.58	33874.57
518.75	34211.61
518.93	34817.81
519.10	34759.30
519.27	34967.60
519.45	34597.80
519.62	34916.11
519.79	35140.80
519.96	35585.50
520.14	35384.22
520.31	34902.07
520.48	35241.45
520.65	35232.08
520.83	35360.81
521.00	35927.22
521.17	35950.63
521.34	35676.79
521.52	35835.94
521.69	35803.17
521.86	36079.36
522.03	35864.03
522.20	35995.10
522.38	36203.41
522.55	36329.80
522.72	35861.69
522.89	35955.31
523.07	36378.95
523.24	36114.47
523.41	36526.40
523.58	36395.33
523.75	37549.21
523.92	37270.69
524.10	37034.30
524.27	37092.81
524.44	36928.97
524.61	37055.36
524.78	37156.00
524.96	37312.82
525.13	37055.36
525.30	37439.21
525.47	37603.05
525.64	37324.52
525.81	37769.22
525.98	37347.93
526.16	37354.95
526.33	37074.09
526.50	37287.07
526.67	36978.12
526.84	37266.01
527.01	37060.04
527.18	37165.37
527.36	37855.82
527.53	38274.78
527.70	38340.32
527.87	38382.45
528.04	37750.50
528.21	37890.93
528.38	38361.38
528.55	38450.32
528.72	38700.76
528.89	38667.99
529.07	38691.40
529.24	38569.69
529.41	38476.07
529.58	38555.64
529.75	38927.79
529.92	38836.51
530.09	38700.76
530.26	38714.80
530.43	39203.97
530.60	39033.11
530.77	39236.74
530.94	38951.20
531.11	39339.72
531.28	39255.46
531.46	39267.17
531.63	39665.06
531.80	39098.65
531.97	39445.05
532.14	39381.85
532.31	39131.42
532.48	39339.72
532.65	39309.30
532.82	39442.71
532.99	39363.13
533.16	39138.44
533.33	39812.51
533.50	39601.86
533.67	39786.77
533.84	39512.92
534.01	39526.97
534.18	40062.95
534.35	40364.88
534.52	39569.10
534.69	40273.60
534.86	40346.15
535.03	40580.21
535.20	40797.88
535.37	40308.71
535.54	40500.63
535.71	40392.97
535.88	40355.52
536.05	40502.97
536.22	40720.64
536.38	40292.32
536.55	40559.14
536.72	40657.45
536.89	40573.19
537.06	40502.97
537.23	41301.09
537.40	40563.82
537.57	40900.86
537.74	40971.08
537.91	40730.00
538.08	41013.21
538.25	40713.62
538.42	40746.39
538.59	41074.06
538.75	40699.58
538.92	41303.43
539.09	41095.13
539.26	41214.49
539.43	41163.00
539.60	41256.62
539.77	41036.61
539.94	41441.53
540.11	41219.17
540.28	41146.62
540.44	41270.67
540.61	41418.12
540.78	41422.80
540.95	41263.64
541.12	41235.56
541.29	41411.10
541.46	41539.83
541.62	41507.06
541.79	41759.84
541.96	41221.52
542.13	41385.35
542.30	41406.42
542.47	41797.29
542.63	41741.11
542.80	42368.38
542.97	42127.30
543.14	42108.58
543.31	41874.52
543.48	42258.37
543.64	42380.08
543.81	42536.90
543.98	42440.93
544.15	42557.96
544.32	42670.31
544.48	43454.39
544.65	42550.94
544.82	42941.81
544.99	42515.83
545.16	42667.97
545.32	42836.48
545.49	43339.70
545.66	42880.95
545.83	42611.79
546.00	43220.33
546.16	42749.88
546.33	42904.36
546.50	43030.75
546.67	42869.25
546.83	42356.67
547.00	43260.12
547.17	43100.97
547.34	42782.65
547.50	43047.13
547.67	43536.30
547.84	43213.31
548.00	43182.88
548.17	43372.47
548.34	43365.45
548.51	44137.82
548.67	43892.07
548.84	43653.33
549.01	43426.30
549.18	43154.80
549.34	43217.99
549.51	43386.51
549.68	43812.49
549.84	43856.96
550.01	43821.85
550.18	43320.98
550.34	43847.60
550.51	43889.73
550.68	43805.47
550.84	43337.36
551.01	43861.64
551.18	43948.24
551.34	43772.70
551.51	44507.63
551.68	44439.75
551.84	44076.97
552.01	43887.39
552.18	43927.17
552.34	43856.96
552.51	44243.15
552.68	44299.32
552.84	43892.07
553.01	44201.02
553.18	43934.20
553.34	44285.28
553.51	44196.34
553.67	44196.34
553.84	44624.65
554.01	44486.56
554.17	44545.08
554.34	44591.89
554.51	44502.95
554.67	44165.91
554.84	44259.53
555.00	44357.83
555.17	44327.41
555.33	44818.92
555.50	44491.24
555.67	44486.56
555.83	44701.89
556.00	44528.69
556.16	45244.90
556.33	44208.04
556.50	44516.99
556.66	44587.21
556.83	44575.50
556.99	44545.08
557.16	44713.59
557.32	44912.54
557.49	44402.30
557.65	44755.72
557.82	44945.31
557.98	44912.54
558.15	45097.44
558.32	44985.10
558.48	44655.08
558.65	44584.86
558.81	44444.43
558.98	44669.12
559.14	45050.63
559.31	44748.70
559.47	44818.92
559.64	45188.72
559.80	44905.52
559.97	44952.33
560.13	44704.23
560.30	45280.00
560.46	44734.66
560.63	44994.46
560.79	45558.53
560.96	45434.48
561.12	45212.13
561.29	45394.69
561.45	45336.18
561.61	45338.52
561.78	45148.93
561.94	45024.89
562.11	44800.19
562.27	45069.36
562.44	45045.95
562.60	45631.08
562.77	45539.80
562.93	45233.19
563.10	45134.89
563.26	45078.72
563.42	45563.21
563.59	44996.80
563.75	45315.11
563.92	45827.69
564.08	45567.89
564.24	45427.46
564.41	45088.08
564.57	45244.90
564.74	45301.07
564.90	45188.72
565.07	45109.14
565.23	45619.38
565.39	45254.26
565.56	45893.22
565.72	45027.23
565.88	45172.34
566.05	45504.70
566.21	45392.35
566.38	45228.51
566.54	45404.05
566.70	45736.41
566.87	45687.26
567.03	45507.04
567.19	45944.72
567.36	45813.65
567.52	45240.21
567.68	45640.45
567.85	45284.68
568.01	45694.28
568.17	45628.74
568.34	46094.51
568.50	46057.06
568.66	45612.36
568.83	45514.06
568.99	45443.84
569.15	45422.78
569.32	45331.50
569.48	45516.40
569.64	45900.25
569.81	45844.07
569.97	45752.79
570.13	45420.44
570.30	45272.98
570.46	45254.26
570.62	45036.59
570.78	45137.23
570.95	45317.45
571.11	45724.71
571.27	45312.77
571.43	45450.86
571.60	45446.18
571.76	45467.25
571.92	45853.44
572.09	45811.31
572.25	45942.38
572.41	46124.94
572.57	46216.22
572.74	46529.85
572.90	45666.19
573.06	45619.38
573.22	45993.87
573.38	45343.20
573.55	45734.07
573.71	45918.97
573.87	46080.47
574.03	46059.40
574.20	45963.44
574.36	45422.78
574.52	45862.80
574.68	45984.51
574.84	45799.60
575.01	45832.37
575.17	46157.70
575.33	45619.38
575.49	45249.58
575.65	46108.55
575.82	45989.19
575.98	45698.96
576.14	45680.24
576.30	45815.99
576.46	45925.99
576.62	45825.35
576.79	45762.15
576.95	45511.72
577.11	45825.35
577.27	45993.87
577.43	45727.05
577.59	45462.57
577.75	45977.48
577.92	45326.81
578.08	45481.29
578.24	45139.57
578.40	45586.61
578.56	45443.84
578.72	45944.72
578.88	46148.34
579.04	45900.25
579.21	45701.30
579.37	45567.89
579.53	46363.67
579.69	45649.81
579.85	45614.70
580.01	45818.33
580.17	45935.35
580.33	45911.95
580.49	45991.53
580.65	46197.49
580.82	45745.77
580.98	45572.57
581.14	45137.23
581.30	46169.41
581.46	45633.42
581.62	45773.86
581.78	45907.27
581.94	45968.12
582.10	46127.28
582.26	46127.28
582.42	46036.00
582.58	45911.95
582.74	46038.34
582.90	46258.35
583.06	45794.92
583.22	45900.25
583.38	46174.09
583.54	46024.29
583.70	46010.25
583.86	46089.83
584.02	45638.11
584.18	46019.61
584.34	46096.85
584.50	45869.82
584.66	45825.35
584.82	45970.46
584.98	46078.13
585.14	46110.89
585.30	45474.27
585.46	45855.78
585.62	45584.27
585.78	45743.43
585.94	45652.15
586.10	45598.32
586.26	45701.30
586.42	45731.73
586.58	46298.14
586.74	45876.84
586.90	46192.81
587.06	46232.60
587.22	45844.07
587.38	45865.14
587.54	46286.43
587.70	45680.24
587.86	46131.96
588.02	45769.18
588.18	46155.36
588.34	45617.04
588.49	45397.03
588.65	45558.53
588.81	45382.99
588.97	45621.72
589.13	45448.52
589.29	45691.94
589.45	45893.22
589.61	46024.29
589.77	46150.68
589.93	45904.93
590.08	46115.58
