SpectraSuite Data File
++++++++++++++++++++++++++++++++++++
Date: Fri Oct 25 11:23:45 EDT 2013
User: price-jones
Dark Spectrum Present: No
Reference Spectrum Present: No
Number of Sampled Component Spectra: 1
Spectrometers: USB2+H05261
Integration Time (usec): 100000 (USB2+H05261)
Spectra Averaged: 1 (USB2+H05261)
Boxcar Smoothing: 0 (USB2+H05261)
Correct for Electrical Dark: No (USB2+H05261)
Strobe/Lamp Enabled: No (USB2+H05261)
Correct for Detector Non-linearity: No (USB2+H05261)
Correct for Stray Light: No (USB2+H05261)
Number of Pixels in Processed Spectrum: 2048
>>>>>Begin Processed Spectral Data<<<<<
365.73	346.40
365.92	346.40
366.12	346.40
366.32	114.69
366.52	114.69
366.72	147.45
366.91	147.45
367.11	191.92
367.31	138.09
367.51	138.09
367.70	114.69
367.90	88.94
368.10	79.58
368.30	91.28
368.49	72.56
368.69	131.07
368.89	159.16
369.09	86.60
369.28	51.49
369.48	142.77
369.68	163.84
369.87	227.03
370.07	131.07
370.27	271.50
370.47	297.25
370.66	596.84
370.86	524.28
371.06	695.14
371.25	690.46
371.45	685.78
371.65	662.37
371.84	650.67
372.04	685.78
372.24	725.57
372.44	739.61
372.63	636.63
372.83	828.55
373.03	725.57
373.22	763.01
373.42	851.96
373.62	692.80
373.81	732.59
374.01	823.87
374.21	779.40
374.40	840.25
374.60	891.74
374.79	842.59
374.99	805.14
375.19	894.08
375.38	884.72
375.58	849.61
375.78	887.06
375.97	828.55
376.17	870.68
376.37	777.06
376.56	896.43
376.76	828.55
376.95	894.08
377.15	887.06
377.35	903.45
377.54	894.08
377.74	997.07
377.93	940.90
378.13	875.36
378.33	950.26
378.52	950.26
378.72	1057.92
378.91	973.66
379.11	992.39
379.31	1048.56
379.50	1018.13
379.70	1029.84
379.89	940.90
380.09	1011.11
380.28	959.62
380.48	964.30
380.68	954.94
380.87	952.60
381.07	1015.79
381.26	1071.97
381.46	1025.15
381.65	1081.33
381.85	1078.99
382.04	992.39
382.24	1034.52
382.43	1041.54
382.63	1078.99
382.83	1039.20
383.02	1165.59
383.22	1114.10
383.41	1043.88
383.61	1015.79
383.80	1111.75
384.00	1093.03
384.19	1214.74
384.39	1184.31
384.58	1097.71
384.78	1217.08
384.97	1240.48
385.17	1137.50
385.36	1132.82
385.56	1179.63
385.75	1172.61
385.95	1090.69
386.14	1203.04
386.34	1111.75
386.53	1221.76
386.72	1235.80
386.92	1217.08
387.11	1231.12
387.31	1198.35
387.50	1324.74
387.70	1179.63
387.89	1315.38
388.09	1343.47
388.28	1376.24
388.48	1359.85
388.67	1252.19
388.86	1315.38
389.06	1327.08
389.25	1317.72
389.45	1418.36
389.64	1427.73
389.84	1411.34
390.03	1301.34
390.22	1362.19
390.42	1371.55
390.61	1369.21
390.81	1387.94
391.00	1355.17
391.19	1334.11
391.39	1390.28
391.58	1533.05
391.78	1423.05
391.97	1434.75
392.16	1453.47
392.36	1472.20
392.55	1493.26
392.75	1530.71
392.94	1504.96
393.13	1516.67
393.33	1507.30
393.52	1544.75
393.71	1682.85
393.91	1568.16
394.10	1584.54
394.29	1572.84
394.49	1645.40
394.68	1575.18
394.88	1694.55
395.07	1582.20
395.26	1570.50
395.46	1675.82
395.65	1694.55
395.84	1753.06
396.04	1785.83
396.23	1701.57
396.42	1668.80
396.62	1743.70
396.81	1820.94
397.00	1788.17
397.19	1781.15
397.39	1797.53
397.58	1888.81
397.77	1781.15
397.97	1872.43
398.16	1860.73
398.35	1856.04
398.55	1940.30
398.74	1923.92
398.93	2015.20
399.12	1949.67
399.32	1952.01
399.51	1956.69
399.70	1977.75
399.90	2071.37
400.09	2001.16
400.28	2033.93
400.47	1961.37
400.67	1942.64
400.86	2071.37
401.05	2029.24
401.24	2087.76
401.44	2115.84
401.63	2143.93
401.82	2008.18
402.01	2165.00
402.21	2190.74
402.40	2214.15
402.59	2153.29
402.78	2148.61
402.97	2312.45
403.17	2263.30
403.36	2284.36
403.55	2340.54
403.74	2375.64
403.93	2335.85
404.13	2389.69
404.32	2354.58
404.51	2471.61
404.70	2415.43
404.89	2448.20
405.09	2516.08
405.28	2434.16
405.47	2464.58
405.66	2499.69
405.85	2476.29
406.05	2534.80
406.24	2572.25
406.43	2572.25
406.62	2532.46
406.81	2635.44
407.00	2541.82
407.20	2583.95
407.39	2698.64
407.58	2789.92
407.77	2801.62
407.96	2731.41
408.15	2717.36
408.34	2693.96
408.54	2848.43
408.73	2810.98
408.92	2827.37
409.11	2930.35
409.30	2897.58
409.49	2878.86
409.68	2862.48
409.87	2902.26
410.07	2998.23
410.26	3005.25
410.45	3096.53
410.64	3000.57
410.83	3026.31
411.02	3218.24
411.21	3283.77
411.40	3190.15
411.59	3258.03
411.78	3232.28
411.98	3274.41
412.17	3215.90
412.36	3162.06
412.55	3442.93
412.74	3365.69
412.93	3524.85
413.12	3365.69
413.31	3571.66
413.50	3473.36
413.69	3520.17
413.88	3604.42
414.07	3534.21
414.26	3548.25
414.45	3585.70
414.64	3585.70
414.83	3714.43
415.02	3688.68
415.22	3925.08
415.41	3995.29
415.60	3878.27
415.79	3829.12
415.98	4063.17
416.17	3913.38
416.36	4035.08
416.55	4051.47
416.74	4184.88
416.93	4009.34
417.12	4128.70
417.31	4196.58
417.50	4259.78
417.69	4273.82
417.88	4191.90
418.07	4297.22
418.26	4285.52
418.45	4409.57
418.64	4535.96
418.83	4486.81
419.02	4425.95
419.21	4524.26
419.39	4461.06
419.58	4477.44
419.77	4411.91
419.96	4578.09
420.15	4631.92
420.34	4685.75
420.53	4760.65
420.72	4767.67
420.91	4802.78
421.10	4662.35
421.29	4805.12
421.48	4777.03
421.67	4699.80
421.86	4854.27
422.05	4863.63
422.24	4957.25
422.43	4870.65
422.61	4826.18
422.80	4940.87
422.99	4851.93
423.18	4936.19
423.37	5095.35
423.56	4943.21
423.75	4978.32
423.94	5043.85
424.13	4622.56
424.32	4922.15
424.50	4865.97
424.69	5069.60
424.88	5163.22
425.07	5125.77
425.26	4865.97
425.45	4945.55
425.64	5027.47
425.83	4933.85
426.01	4961.94
426.20	5018.11
426.39	5135.14
426.58	5027.47
426.77	5160.88
426.96	5240.46
427.15	5179.61
427.33	5217.05
427.52	5085.98
427.71	5247.48
427.90	5139.82
428.09	5446.43
428.28	5270.89
428.46	5352.81
428.65	5481.53
428.84	5610.26
429.03	5633.67
429.22	5334.08
429.40	5554.09
429.59	5500.26
429.78	5467.49
429.97	5308.34
430.16	5378.55
430.34	5631.33
430.53	5678.14
430.72	5661.76
430.91	5678.14
431.10	5495.58
431.28	5928.58
431.47	5954.32
431.66	5834.96
431.85	5926.24
432.03	6031.56
432.22	6017.52
432.41	6033.90
432.60	6078.37
432.79	6134.54
432.97	6071.35
433.16	6040.92
433.35	6031.56
433.54	5966.03
433.72	5991.77
433.91	6136.88
434.10	6204.76
434.28	6263.27
434.47	6310.08
434.66	6221.14
434.85	6338.17
435.03	6342.85
435.22	6312.42
435.41	6523.07
435.59	6335.83
435.78	6408.39
435.97	6469.24
436.16	6492.65
436.34	6267.95
436.53	6586.27
436.72	6548.82
436.90	6471.58
437.09	6637.76
437.28	6497.33
437.46	6689.25
437.65	6726.70
437.84	6761.81
438.02	6944.37
438.21	6834.36
438.40	6794.58
438.58	7035.65
438.77	7030.97
438.96	6916.28
439.14	7311.83
439.33	7250.98
439.52	7091.82
439.70	7337.58
439.89	7473.33
440.08	7414.82
440.26	7557.59
440.45	7164.38
440.63	7524.82
440.82	7723.77
441.01	7524.82
441.19	7623.12
441.38	7789.30
441.57	7779.94
441.75	7911.01
441.94	8030.38
442.12	7939.10
442.31	7992.93
442.50	8166.13
442.68	8074.85
442.87	7932.08
443.05	8126.34
443.24	8294.86
443.43	8367.42
443.61	8189.53
443.80	8737.22
443.98	8102.93
444.17	8037.40
444.35	8196.56
444.54	8549.98
444.73	8313.58
444.91	8463.38
445.10	8580.40
445.28	8301.88
445.47	8231.66
445.65	8500.83
445.84	8390.82
446.02	8535.93
446.21	8648.28
446.39	8376.78
446.58	8578.06
446.77	8432.95
446.95	8390.82
447.14	8475.08
447.32	8559.34
447.51	8704.45
447.69	8416.57
447.88	8407.20
448.06	8454.02
448.25	8538.27
448.43	8634.24
448.62	8468.06
448.80	8706.79
448.99	8645.94
449.17	8762.97
449.36	8664.66
449.54	9025.11
449.73	9043.83
449.91	9025.11
450.10	9121.07
450.28	8985.32
450.46	9057.87
450.65	9032.13
450.83	9191.28
451.02	8961.91
451.20	9085.96
451.39	9287.25
451.57	9305.97
451.76	9214.69
451.94	9238.09
452.13	9399.59
452.31	9214.69
452.49	9088.30
452.68	9408.95
452.86	9392.57
453.05	9327.03
453.23	9619.60
453.42	9413.63
453.60	9540.02
453.78	9767.06
453.97	9540.02
454.15	9462.79
454.34	9551.73
454.52	9874.72
454.70	9753.01
454.89	9881.74
455.07	9839.61
455.26	9921.53
455.44	9996.43
455.62	9996.43
455.81	10029.20
455.99	9954.30
456.17	10157.92
456.36	10132.18
456.54	10045.58
456.73	10361.55
456.91	10443.47
457.09	10527.73
457.28	10635.39
457.46	10546.45
457.64	10558.16
457.83	10513.69
458.01	10368.57
458.19	10621.35
458.38	10324.10
458.56	10965.41
458.74	10792.21
458.93	10766.46
459.11	10832.00
459.29	11103.50
459.48	10956.05
459.66	10635.39
459.84	10839.02
460.03	10946.69
460.21	11089.46
460.39	10862.43
460.57	11030.94
460.76	11225.21
460.94	11248.61
461.12	11229.89
461.31	11335.21
461.49	11173.72
461.67	11276.70
461.85	11492.03
462.04	11442.88
462.22	11506.07
462.40	11707.36
462.59	11524.80
462.77	11513.10
462.95	11637.14
463.13	11463.94
463.32	11609.06
463.50	11758.85
463.68	11908.65
463.86	11831.41
464.05	11742.47
464.23	11810.34
464.41	11957.80
464.59	11618.42
464.78	12135.68
464.96	12058.44
465.14	11775.24
465.32	12257.39
465.50	12311.22
465.69	12105.25
465.87	12138.02
466.05	12131.00
466.23	12133.34
466.41	12154.40
466.60	12482.08
466.78	12128.66
466.96	12339.30
467.14	12376.75
467.32	12379.09
467.51	12751.24
467.69	12322.92
467.87	12599.10
468.05	12819.11
468.23	12339.30
468.41	12535.91
468.60	12776.98
468.78	12863.58
468.96	12676.34
469.14	13013.38
469.32	13116.36
469.50	12861.24
469.69	12936.14
469.87	13319.99
470.05	13055.51
470.23	13142.11
470.41	13287.22
470.59	13390.20
470.77	13149.13
470.95	13441.70
471.14	13666.39
471.32	13280.20
471.50	13603.19
471.68	13654.69
471.86	13610.22
472.04	13844.27
472.22	14319.40
472.40	13710.86
472.58	13839.59
472.77	14092.37
472.95	14230.46
473.13	14658.78
473.31	14139.18
473.49	14108.75
473.67	14263.22
473.85	14516.00
474.03	14881.13
474.21	14707.93
474.39	14579.20
474.57	14752.40
474.75	14841.34
474.93	15009.86
475.12	15012.20
475.30	15103.48
475.48	15169.01
475.66	15536.48
475.84	15140.93
476.02	15515.41
476.20	15272.00
476.38	15651.16
476.56	16077.14
476.74	15927.35
476.92	16002.24
477.10	15866.49
477.28	16210.55
477.46	16505.46
477.64	16376.73
477.82	16589.72
478.00	17172.51
478.18	16821.43
478.36	16961.86
478.54	17291.88
478.72	17249.75
478.90	17284.86
479.08	17717.86
479.26	17432.31
479.44	17661.68
479.62	17951.91
479.80	18087.66
479.98	18078.30
480.16	18623.64
480.34	18764.07
480.52	18824.93
480.70	18656.41
480.88	18455.12
481.06	18948.98
481.24	18860.04
481.41	18972.38
481.59	19365.59
481.77	19662.84
481.95	19983.49
482.13	20278.40
482.31	19772.85
482.49	20222.23
482.67	20367.34
482.85	20559.27
483.03	20622.46
483.21	20821.41
483.39	21081.21
483.57	20863.54
483.74	21263.77
483.92	21458.03
484.10	21254.40
484.28	21846.56
484.46	21954.22
484.64	22478.50
484.82	21811.45
485.00	22522.98
485.18	23061.30
485.35	23000.44
485.53	22951.29
485.71	23215.77
485.89	23491.96
486.07	23435.78
486.25	23403.02
486.43	23779.84
486.61	24114.54
486.78	24402.43
486.96	24278.38
487.14	24692.65
487.32	24650.52
487.50	25109.27
487.68	25174.80
487.85	25699.08
488.03	25539.93
488.21	25919.09
488.39	26171.87
488.57	26281.88
488.75	26249.11
488.92	26962.97
489.10	26621.25
489.28	26621.25
489.46	27271.92
489.64	27421.72
489.81	27936.63
489.99	27620.66
490.17	28018.55
490.35	27983.44
490.53	28491.34
490.70	28554.54
490.88	28716.03
491.06	28898.59
491.24	28793.27
491.41	29294.14
491.59	29312.87
491.77	29638.20
491.95	30209.29
492.13	30267.81
492.30	30115.67
492.48	30340.36
492.66	30270.15
492.84	30469.09
493.01	30756.98
493.19	30670.38
493.37	31271.90
493.54	31262.54
493.72	31545.74
493.90	31840.65
494.08	32297.05
494.25	32374.29
494.43	32552.17
494.61	32194.07
494.79	32652.81
494.96	32669.20
495.14	32683.24
495.32	33284.76
495.49	33270.72
495.67	33177.09
495.85	33687.33
496.02	34087.56
496.20	33912.02
496.38	34204.59
496.55	34284.17
496.73	34918.45
496.91	34768.66
497.09	35180.59
497.26	35122.08
497.44	35445.07
497.62	35442.73
497.79	36226.81
497.97	35433.37
498.14	35559.76
498.32	36439.80
498.50	36975.78
498.67	36884.50
498.85	36385.97
499.03	36828.33
499.20	36933.65
499.38	37125.58
499.56	37361.97
499.73	37514.11
499.91	37537.51
500.08	37919.02
500.26	37757.52
500.44	37727.10
500.61	37724.75
500.79	37907.32
500.97	38312.23
501.14	38443.30
501.32	38822.47
501.49	38967.58
501.67	38630.54
501.84	39433.35
502.02	39297.59
502.20	39253.12
502.37	39243.76
502.55	39269.51
502.72	39487.18
502.90	39732.93
503.07	39859.32
503.25	40030.18
503.43	39807.83
503.60	40238.49
503.78	40376.58
503.95	40545.10
504.13	40561.48
504.30	40711.28
504.48	40605.95
504.65	40851.71
504.83	41326.84
505.01	41729.41
505.18	41420.46
505.36	42061.77
505.53	41617.07
505.71	41820.69
505.88	41900.27
506.06	41738.77
506.23	42316.89
506.41	41745.80
506.58	41970.49
506.76	42344.97
506.93	42546.26
507.11	42567.32
507.28	42485.40
507.46	43054.15
507.63	43105.65
507.81	43566.73
507.98	42983.94
508.16	43260.12
508.33	43604.18
508.50	43957.60
508.68	43849.94
508.85	44329.75
509.03	44381.24
509.20	44182.29
509.38	44292.30
509.55	44573.16
509.73	44802.53
509.90	45097.44
510.08	45017.86
510.25	44722.96
510.42	45071.70
510.60	45123.19
510.77	45368.94
510.95	45722.37
511.12	45436.82
511.30	45853.44
511.47	45584.27
511.64	45600.66
511.82	46380.06
511.99	45841.73
512.17	46333.24
512.34	46284.09
512.51	46286.43
512.69	46810.71
512.86	46351.97
513.04	46721.77
513.21	46824.76
513.38	46791.99
513.56	47222.65
513.73	46976.89
513.90	46855.18
514.08	47117.32
514.25	47826.51
514.43	47669.69
514.60	47758.63
514.77	47571.39
514.95	48053.54
515.12	47847.57
515.29	47791.40
515.47	47880.34
515.64	48325.04
515.81	48254.82
515.99	48603.56
516.16	48315.68
516.33	48397.60
516.51	48835.28
516.68	48346.11
516.85	49027.20
517.03	49029.54
517.20	48907.83
517.37	49205.08
517.54	49034.22
517.72	49422.75
517.89	49050.61
518.06	49612.34
518.24	49406.37
518.41	49516.37
518.58	49338.49
518.75	49207.42
518.93	49897.88
519.10	49902.56
519.27	50014.91
519.45	50188.11
519.62	50227.90
519.79	50089.80
519.96	50616.43
520.14	50576.64
520.31	50541.53
520.48	50808.35
520.65	50574.30
520.83	50906.65
521.00	50934.74
521.17	50901.97
521.34	51033.04
521.52	51119.64
521.69	50937.08
521.86	51332.63
522.03	51625.20
522.20	51227.31
522.38	51695.41
522.55	51751.59
522.72	51646.26
522.89	51774.99
523.07	51901.38
523.24	51536.26
523.41	51777.33
523.58	51423.91
523.75	51847.55
523.92	51952.87
524.10	52236.08
524.27	52514.60
524.44	52266.50
524.61	52203.31
524.78	52317.99
524.96	52406.94
525.13	52563.75
525.30	52556.73
525.47	53071.65
525.64	52657.37
525.81	53064.63
525.98	52640.99
526.16	52933.56
526.33	52655.03
526.50	53340.81
526.67	52830.57
526.84	52928.87
527.01	52905.47
527.18	52877.38
527.36	53188.67
527.53	53294.00
527.70	53661.46
527.87	53441.45
528.04	53104.41
528.21	53677.85
528.38	53413.37
528.55	53769.13
528.72	53551.46
528.89	53488.26
529.07	53661.46
529.24	53577.20
529.41	54122.55
529.58	53841.68
529.75	53846.36
529.92	54012.54
530.09	53907.22
530.26	53984.46
530.43	54152.97
530.60	54073.40
530.77	54059.35
530.94	54087.44
531.11	54377.67
531.28	54600.02
531.46	53860.41
531.63	54614.06
531.80	54316.81
531.97	54593.00
532.14	54553.21
532.31	54644.49
532.48	54773.22
532.65	54873.86
532.82	54607.04
532.99	54948.76
533.16	54508.74
533.33	55011.95
533.50	55063.44
533.67	54915.99
533.84	54894.92
534.01	54798.96
534.18	55056.42
534.35	55569.00
534.52	55339.63
534.69	55257.71
534.86	55646.24
535.03	55276.43
535.20	55363.03
535.37	55489.42
535.54	55449.63
535.71	55538.57
535.88	55540.91
536.05	55735.18
536.22	55770.28
536.38	55723.47
536.55	56027.74
536.72	55835.82
536.89	55564.32
537.06	55704.75
537.23	55994.98
537.40	55840.50
537.57	55753.90
537.74	55978.59
537.91	56074.55
538.08	56137.75
538.25	55838.16
538.42	55899.01
538.59	56364.78
538.75	56114.34
538.92	56254.78
539.09	56346.06
539.26	56205.62
539.43	56170.52
539.60	56144.77
539.77	56364.78
539.94	56699.48
540.11	56711.18
540.28	56629.26
540.44	56633.94
540.61	56526.28
540.78	56519.26
540.95	56629.26
541.12	56519.26
541.29	56683.09
541.46	56715.86
541.62	56701.82
541.79	56980.34
541.96	56573.09
542.13	56884.38
542.30	56893.74
542.47	57078.64
542.63	56757.99
542.80	57272.91
542.97	57268.23
543.14	57324.40
543.31	57422.70
543.48	57523.35
543.64	57656.76
543.81	57497.60
543.98	57425.04
544.15	57567.82
544.32	57691.86
544.48	57869.75
544.65	57687.18
544.82	57633.35
544.99	57305.68
545.16	57712.93
545.32	57565.48
545.49	57745.70
545.66	57836.98
545.83	57855.70
546.00	58019.54
546.16	57839.32
546.33	57773.78
546.50	57703.57
546.67	57834.64
546.83	57621.65
547.00	58155.29
547.17	57893.15
547.34	57851.02
547.50	58298.06
547.67	58349.56
547.84	58195.08
548.00	58300.40
548.17	58370.62
548.34	58169.33
548.51	58468.92
548.67	58316.79
548.84	58075.71
549.01	58164.65
549.18	58209.12
549.34	58401.05
549.51	58553.18
549.68	58585.95
549.84	58511.05
550.01	58674.89
550.18	58581.27
550.34	58681.91
550.51	58901.92
550.68	58562.54
550.84	58459.56
551.01	58714.68
551.18	58532.12
551.34	58681.91
551.51	58707.66
551.68	58812.98
551.84	58581.27
552.01	58628.08
552.18	58866.81
552.34	58557.86
552.51	59086.82
552.68	58564.88
552.84	58859.79
553.01	59040.01
553.18	59154.70
553.34	58922.99
553.51	58773.19
553.67	59016.61
553.84	59061.08
554.01	58967.46
554.17	59267.05
554.34	59388.75
554.51	59224.92
554.67	59215.55
554.84	58997.88
555.00	59257.68
555.17	59112.57
555.33	59274.07
555.50	59124.27
555.67	59098.53
555.83	59112.57
556.00	59210.87
556.16	59522.16
556.33	59482.37
556.50	59365.35
556.66	59475.35
556.83	59114.91
556.99	59238.96
557.16	59503.44
557.32	59648.55
557.49	59742.17
557.65	59372.37
557.82	59540.89
557.98	59477.69
558.15	59578.34
558.32	59559.61
558.48	59554.93
558.65	59543.23
558.81	59702.38
558.98	59676.64
559.14	59952.82
559.31	59849.84
559.47	59784.30
559.64	59711.75
559.80	59791.33
559.97	59826.43
560.13	59681.32
560.30	59648.55
560.46	59877.93
560.63	59800.69
560.79	59910.69
560.96	59999.63
561.12	60086.23
561.29	59962.18
561.45	59955.16
561.61	59894.31
561.78	59948.14
561.94	59756.22
562.11	60088.57
562.27	60102.62
562.44	60111.98
562.60	59870.90
562.77	60034.74
562.93	59877.93
563.10	60334.33
563.26	60027.72
563.42	60418.59
563.59	60179.85
563.75	59976.23
563.92	60247.73
564.08	60074.53
564.24	60245.39
564.41	60182.19
564.57	60310.92
564.74	60306.24
564.90	60544.98
565.07	60207.94
565.23	60133.04
565.39	60516.89
565.56	60434.97
565.72	60294.54
565.88	60294.54
566.05	60378.80
566.21	60390.50
566.38	60437.31
566.54	60411.57
566.70	60664.35
566.87	60741.58
567.03	60114.32
567.19	60683.07
567.36	60732.22
567.52	60280.50
567.68	60577.75
567.85	60470.08
568.01	60528.59
568.17	60589.45
568.34	60549.66
568.50	60427.95
568.66	60523.91
568.83	60729.88
568.99	60449.02
569.15	60577.75
569.32	60566.04
569.48	60456.04
569.64	60779.03
569.81	60622.22
569.97	60484.12
570.13	60509.87
570.30	60530.93
570.46	60537.96
570.62	60884.36
570.78	60575.40
570.95	60542.64
571.11	60790.73
571.27	60678.39
571.43	60685.41
571.60	60884.36
571.76	60652.64
571.92	60570.72
572.09	60856.27
572.25	60928.83
572.41	60685.41
572.57	60671.37
572.74	60865.63
572.90	60811.80
573.06	60874.99
573.22	60788.39
573.38	60659.66
573.55	60626.90
573.71	60926.49
573.87	60718.18
574.03	60617.53
574.20	60657.32
574.36	60720.52
574.52	61003.72
574.68	60893.72
574.84	61052.87
575.01	61193.31
575.17	61055.21
575.33	60772.01
575.49	60750.94
575.65	60839.89
575.82	60928.83
575.98	60863.29
576.14	61036.49
576.30	60940.53
576.46	60722.86
576.62	60748.60
576.79	61020.11
576.95	60757.97
577.11	60949.89
577.27	60982.66
577.43	60905.42
577.59	60807.12
577.75	60949.89
577.92	60886.70
578.08	60996.70
578.24	60970.96
578.40	60973.30
578.56	61038.83
578.72	61123.09
578.88	61130.11
579.04	61031.81
579.21	60811.80
579.37	61277.57
579.53	61195.65
579.69	60882.02
579.85	61055.21
580.01	61066.92
580.17	60896.06
580.33	60956.91
580.49	61109.05
580.65	60968.61
580.82	60830.52
580.98	60989.68
581.14	60882.02
581.30	61134.79
581.46	61052.87
581.62	61102.03
581.78	61118.41
581.94	61057.56
582.10	61076.28
582.26	61197.99
582.42	60935.85
582.58	61006.06
582.74	61113.73
582.90	61024.79
583.06	61085.64
583.22	60994.36
583.38	61029.47
583.54	61298.63
583.70	61181.60
583.86	61034.15
584.02	60874.99
584.18	61197.99
584.34	61050.53
584.50	61190.97
584.66	61066.92
584.82	61015.43
584.98	61268.20
585.14	61233.10
585.30	61106.71
585.46	61247.14
585.62	61172.24
585.78	61460.13
585.94	61001.38
586.10	61258.84
586.26	61268.20
586.42	61209.69
586.58	61401.61
586.74	61036.49
586.90	61226.07
587.06	61043.51
587.22	61258.84
587.38	61249.48
587.54	61410.98
587.70	61434.38
587.86	61029.47
588.02	61027.13
588.18	61237.78
588.34	61095.00
588.49	61256.50
