SpectraSuite Data File
++++++++++++++++++++++++++++++++++++
Date: Fri Oct 25 10:48:31 EDT 2013
User: price-jones
Dark Spectrum Present: No
Reference Spectrum Present: No
Number of Sampled Component Spectra: 1
Spectrometers: USB2+H05261
Integration Time (usec): 100000 (USB2+H05261)
Spectra Averaged: 1 (USB2+H05261)
Boxcar Smoothing: 0 (USB2+H05261)
Correct for Electrical Dark: No (USB2+H05261)
Strobe/Lamp Enabled: No (USB2+H05261)
Correct for Detector Non-linearity: No (USB2+H05261)
Correct for Stray Light: No (USB2+H05261)
Number of Pixels in Processed Spectrum: 2048
>>>>>Begin Processed Spectral Data<<<<<
365.73	142.77
365.92	142.77
366.12	142.77
366.32	138.09
366.52	44.47
366.72	60.85
366.91	51.49
367.11	72.56
367.31	65.54
367.51	65.54
367.70	28.09
367.90	0.00
368.10	0.00
368.30	32.77
368.49	124.05
368.69	102.98
368.89	63.19
369.09	2.34
369.28	128.73
369.48	88.94
369.68	102.98
369.87	105.32
370.07	88.94
370.27	152.13
370.47	217.67
370.66	421.30
370.86	418.96
371.06	472.79
371.25	435.34
371.45	559.39
371.65	500.87
371.84	475.13
372.04	465.77
372.24	526.62
372.44	498.53
372.63	512.58
372.83	538.32
373.03	505.56
373.22	589.82
373.42	496.19
373.62	559.39
373.81	575.77
374.01	528.96
374.21	564.07
374.40	557.05
374.60	552.37
374.79	613.22
374.99	554.71
375.19	599.18
375.38	631.94
375.58	594.50
375.78	662.37
375.97	641.31
376.17	688.12
376.37	622.58
376.56	578.11
376.76	561.73
376.95	601.52
377.15	622.58
377.35	655.35
377.54	594.50
377.74	774.72
377.93	674.07
378.13	620.24
378.33	648.33
378.52	737.27
378.72	702.16
378.91	662.37
379.11	650.67
379.31	676.41
379.50	683.44
379.70	772.38
379.89	748.97
380.09	690.46
380.28	676.41
380.48	716.20
380.68	720.88
380.87	692.80
381.07	690.46
381.26	732.59
381.46	624.92
381.65	746.63
381.85	880.04
382.04	777.06
382.24	737.27
382.43	697.48
382.63	732.59
382.83	748.97
383.02	786.42
383.22	774.72
383.41	695.14
383.61	699.82
383.80	779.40
384.00	844.93
384.19	795.78
384.39	828.55
384.58	873.02
384.78	821.53
384.97	770.04
385.17	809.83
385.36	760.67
385.56	863.66
385.75	844.93
385.95	791.10
386.14	851.96
386.34	837.91
386.53	894.08
386.72	851.96
386.92	887.06
387.11	889.40
387.31	936.21
387.50	898.77
387.70	877.70
387.89	957.28
388.09	997.07
388.28	896.43
388.48	926.85
388.67	940.90
388.86	952.60
389.06	933.87
389.25	959.62
389.45	1022.81
389.64	971.32
389.84	1004.09
390.03	1088.35
390.22	1116.44
390.42	1074.31
390.61	1008.77
390.81	1100.05
391.00	1114.10
391.19	1074.31
391.39	1179.63
391.58	1046.22
391.78	1062.60
391.97	1018.13
392.16	1057.92
392.36	1149.20
392.55	1022.81
392.75	1027.50
392.94	1008.77
393.13	1011.11
393.33	1053.24
393.52	1057.92
393.71	1116.44
393.91	1111.75
394.10	1165.59
394.29	1196.01
394.49	1149.20
394.68	1324.74
394.88	1287.29
395.07	1341.13
395.26	1221.76
395.46	1322.40
395.65	1259.21
395.84	1212.40
396.04	1324.74
396.23	1149.20
396.42	1170.27
396.62	1210.06
396.81	1217.08
397.00	1252.19
397.19	1306.02
397.39	1355.17
397.58	1366.87
397.77	1401.98
397.97	1376.24
398.16	1394.96
398.35	1582.20
398.55	1474.54
398.74	1554.12
398.93	1497.94
399.12	1600.93
399.32	1416.02
399.51	1561.14
399.70	1528.37
399.90	1582.20
400.09	1722.63
400.28	1675.82
400.47	1631.35
400.67	1687.53
400.86	1844.34
401.05	1617.31
401.24	1643.06
401.44	1741.36
401.63	1834.98
401.82	1792.85
402.01	1790.51
402.21	1783.49
402.40	1778.81
402.59	1877.11
402.78	1727.32
402.97	1739.02
403.17	1863.07
403.36	1914.56
403.55	1891.15
403.74	1933.28
403.93	1788.17
404.13	1823.28
404.32	1877.11
404.51	2024.56
404.70	1914.56
404.89	1963.71
405.09	1956.69
405.28	1949.67
405.47	1961.37
405.66	1919.24
405.85	2001.16
406.05	1954.35
406.24	2010.52
406.43	2127.55
406.62	2090.10
406.81	2153.29
407.00	2094.78
407.20	2078.40
407.39	2076.06
407.58	2225.85
407.77	2169.68
407.96	2300.75
408.15	2232.87
408.34	2174.36
408.54	2385.01
408.73	2375.64
408.92	2333.51
409.11	2396.71
409.30	2387.35
409.49	2267.98
409.68	2373.30
409.87	2394.37
410.07	2401.39
410.26	2340.54
410.45	2389.69
410.64	2490.33
410.83	2457.56
411.02	2520.76
411.21	2595.65
411.40	2558.21
411.59	2637.78
411.78	2583.95
411.98	2569.91
412.17	2663.53
412.36	2689.28
412.55	2747.79
412.74	2708.00
412.93	2820.35
413.12	2677.57
413.31	2862.48
413.50	2860.13
413.69	2883.54
413.88	2864.82
414.07	2899.92
414.26	2960.78
414.45	2862.48
414.64	3096.53
414.83	3185.47
415.02	3021.63
415.22	3136.32
415.41	3192.49
415.60	3150.36
415.79	3162.06
415.98	3246.32
416.17	3398.46
416.36	3337.60
416.55	3229.94
416.74	3272.07
416.93	3157.38
417.12	3449.95
417.31	3372.71
417.50	3365.69
417.69	3611.45
417.88	3517.83
418.07	3506.12
418.26	3538.89
418.45	3440.59
418.64	3524.85
418.83	3599.74
419.02	3487.40
419.21	3585.70
419.39	3742.52
419.58	3475.70
419.77	3686.34
419.96	3735.50
420.15	3712.09
420.34	3684.00
420.53	3756.56
420.72	3861.88
420.91	3847.84
421.10	3782.31
421.29	3763.58
421.48	3950.82
421.67	3925.08
421.86	3775.28
422.05	3857.20
422.24	3953.16
422.43	3906.35
422.61	3904.01
422.80	3904.01
422.99	4046.79
423.18	3997.64
423.37	4133.39
423.56	3995.29
423.75	3922.74
423.94	3918.06
424.13	3761.24
424.32	3779.97
424.50	3985.93
424.69	3978.91
424.88	4093.60
425.07	4014.02
425.26	3892.31
425.45	3990.61
425.64	4107.64
425.83	3925.08
426.01	4203.60
426.20	4161.47
426.39	4112.32
426.58	4091.26
426.77	3950.82
426.96	4014.02
427.15	4180.20
427.33	4124.02
427.52	4084.23
427.71	4273.82
427.90	4266.80
428.09	4203.60
428.28	4128.70
428.46	4250.41
428.65	4229.35
428.84	4327.65
429.03	4362.76
429.22	4238.71
429.40	4065.51
429.59	4095.94
429.78	4257.43
429.97	4072.53
430.16	4250.41
430.34	4161.47
430.53	4081.89
430.72	4320.63
430.91	4332.33
431.10	4339.35
431.28	4582.77
431.47	4718.52
431.66	4746.61
431.85	4578.09
432.03	4676.39
432.22	4669.37
432.41	4664.69
432.60	4739.58
432.79	4772.35
432.97	4774.69
433.16	4802.78
433.35	4601.49
433.54	4734.90
433.72	4723.20
433.91	4727.88
434.10	4784.06
434.28	4704.48
434.47	4793.42
434.66	4985.34
434.85	4966.62
435.03	4919.81
435.22	5191.31
435.41	5128.11
435.59	4957.25
435.78	5132.79
435.97	5245.14
436.16	5186.63
436.34	5067.26
436.53	5214.71
436.72	5298.97
436.90	5095.35
437.09	5364.51
437.28	5280.25
437.46	5160.88
437.65	5373.87
437.84	5233.44
438.02	5193.65
438.21	5280.25
438.40	5100.03
438.58	5472.17
438.77	5345.78
438.96	5535.37
439.14	5755.38
439.33	5797.51
439.52	5554.09
439.70	5493.24
439.89	5678.14
440.08	5685.16
440.26	5856.02
440.45	5722.61
440.63	5914.53
440.82	6115.82
441.01	5930.92
441.19	6003.47
441.38	6207.10
441.57	6115.82
441.75	6324.13
441.94	6441.15
442.12	6354.55
442.31	6380.30
442.50	6375.62
442.68	6314.77
442.87	6455.20
443.05	6242.21
443.24	6635.42
443.43	6644.78
443.61	6436.47
443.80	6616.69
443.98	6431.79
444.17	6286.68
444.35	6527.75
444.54	6705.63
444.73	6483.28
444.91	6583.93
445.10	6574.56
445.28	6729.04
445.47	6579.25
445.65	6586.27
445.84	6700.95
446.02	6707.98
446.21	6628.40
446.39	6665.85
446.58	6740.74
446.77	6642.44
446.95	6768.83
447.14	6738.40
447.32	6656.48
447.51	6782.87
447.69	6836.70
447.88	6771.17
448.06	6792.23
448.25	6654.14
448.43	6932.67
448.62	6803.94
448.80	6860.11
448.99	6789.89
449.17	6913.94
449.36	7173.74
449.54	7019.27
449.73	7225.23
449.91	7169.06
450.10	7131.61
450.28	7178.42
450.46	7342.26
450.65	7260.34
450.83	7220.55
451.02	7094.16
451.20	7234.60
451.39	7157.36
451.57	7180.76
451.76	7227.57
451.94	7342.26
452.13	7318.86
452.31	7253.32
452.49	7028.63
452.68	7379.71
452.86	7335.24
453.05	7585.68
453.23	7431.20
453.42	7513.12
453.60	7337.58
453.78	7583.34
453.97	7588.02
454.15	7442.90
454.34	7442.90
454.52	7660.57
454.70	7466.31
454.89	7655.89
455.07	7669.94
455.26	7698.02
455.44	7859.52
455.62	7866.54
455.81	7817.39
455.99	8175.49
456.17	7981.23
456.36	8039.74
456.54	7974.21
456.73	8107.62
456.91	8248.05
457.09	8245.71
457.28	8517.21
457.46	8037.40
457.64	8313.58
457.83	8182.51
458.01	8067.83
458.19	8287.84
458.38	8187.19
458.56	8554.66
458.74	8292.52
458.93	8259.75
459.11	8217.62
459.29	8341.67
459.48	8432.95
459.66	8280.82
459.84	8439.97
460.03	8594.45
460.21	8723.18
460.39	8662.32
460.57	8454.02
460.76	8641.26
460.94	8741.90
461.12	8725.52
461.31	8795.73
461.49	8793.39
461.67	8718.50
461.85	8891.70
462.04	8772.33
462.22	9453.42
462.40	9090.64
462.59	8896.38
462.77	8905.74
462.95	9041.49
463.13	9067.24
463.32	8945.53
463.50	9188.94
463.68	9254.48
463.86	9088.30
464.05	9057.87
464.23	8884.67
464.41	9142.13
464.59	9006.38
464.78	9350.44
464.96	9301.29
465.14	9107.02
465.32	9139.79
465.50	9261.50
465.69	9305.97
465.87	9287.25
466.05	9268.52
466.23	9238.09
466.41	9397.25
466.60	9509.60
466.78	9287.25
466.96	9399.59
467.14	9268.52
467.32	9509.60
467.51	9617.26
467.69	9399.59
467.87	9523.64
468.05	9816.21
468.23	9504.92
468.41	9439.38
468.60	9547.05
468.78	9661.73
468.96	9699.18
469.14	9837.27
469.32	9888.76
469.50	9738.97
469.69	9834.93
469.87	9996.43
470.05	9977.70
470.23	9963.66
470.41	9863.02
470.59	10239.84
470.77	10061.96
470.95	10115.80
471.14	10246.87
471.32	10003.45
471.50	10499.64
471.68	10363.89
471.86	10663.48
472.04	10567.52
472.22	10773.49
472.40	10242.18
472.58	10452.83
472.77	10544.11
472.95	10703.27
473.13	11143.29
473.31	10693.91
473.49	10815.62
473.67	10918.60
473.85	10836.68
474.03	10848.38
474.21	10967.75
474.39	11105.84
474.57	11248.61
474.75	11208.83
474.93	11417.13
475.12	11220.53
475.30	11335.21
475.48	11569.27
475.66	11634.80
475.84	11454.58
476.02	11527.14
476.20	11630.12
476.38	11815.02
476.56	12035.03
476.74	11922.69
476.92	12051.42
477.10	12044.40
477.28	12407.18
477.46	12138.02
477.64	12421.22
477.82	12418.88
478.00	12528.89
478.18	12659.96
478.36	12945.50
478.54	12989.97
478.72	12732.51
478.90	12945.50
479.08	13081.25
479.26	13245.09
479.44	13319.99
479.62	13554.04
479.80	13394.89
479.98	13598.51
480.16	13958.96
480.34	13556.38
480.52	13771.71
480.70	14001.08
480.88	14052.58
481.06	14185.99
481.24	14080.66
481.41	14459.83
481.59	14530.05
481.77	14553.45
481.95	14689.20
482.13	14677.50
482.31	14778.14
482.49	15037.94
482.67	15178.37
482.85	15211.14
483.03	15578.61
483.21	15190.08
483.39	15583.29
483.57	15623.08
483.74	15819.68
483.92	15723.72
484.10	15550.52
484.28	15941.39
484.46	16226.93
484.64	16463.33
484.82	16205.87
485.00	16535.88
485.18	16692.70
485.35	16631.85
485.53	16243.32
485.71	16388.43
485.89	16734.83
486.07	16751.21
486.25	16893.99
486.43	16879.94
486.61	17160.81
486.78	17661.68
486.96	17614.87
487.14	18125.11
487.32	17834.88
487.50	18022.12
487.68	18410.65
487.85	18483.21
488.03	18609.60
488.21	18796.84
488.39	18787.48
488.57	18827.27
488.75	18815.57
488.92	19501.34
489.10	19564.54
489.28	19695.61
489.46	19737.74
489.64	20023.28
489.81	20393.09
489.99	20250.32
490.17	20365.00
490.35	20847.15
490.53	20444.58
490.70	20709.06
490.88	20847.15
491.06	21064.82
491.24	20947.79
491.41	20978.22
491.59	21355.05
491.77	21071.84
491.95	21284.83
492.13	22089.98
492.30	21598.46
492.48	22132.11
492.66	22253.81
492.84	22431.69
493.01	22218.71
493.19	22277.22
493.37	22604.89
493.54	22831.93
493.72	22700.86
493.90	22892.78
494.08	22974.70
494.25	23374.93
494.43	23604.30
494.61	23871.12
494.79	24109.86
494.96	23604.30
495.14	23616.01
495.32	24184.76
495.49	24016.24
495.67	24016.24
495.85	24348.59
496.02	24687.97
496.20	24809.68
496.38	24924.36
496.55	24973.52
496.73	25434.60
496.91	25142.03
497.09	25474.39
497.26	25724.83
497.44	25193.53
497.62	25572.69
497.79	25907.39
497.97	25298.85
498.14	26073.57
498.32	25802.07
498.50	26082.93
498.67	26705.51
498.85	26412.95
499.03	26452.73
499.20	26487.84
499.38	26518.27
499.56	26738.28
499.73	26859.99
499.91	26698.49
500.08	27199.37
500.26	26738.28
500.44	27115.11
500.61	27353.84
500.79	27117.45
500.97	27154.90
501.14	27412.35
501.32	27601.94
501.49	27428.74
501.67	27417.04
501.84	27655.77
502.02	27847.69
502.20	27967.06
502.37	28304.10
502.55	28301.76
502.72	28463.25
502.90	28727.74
503.07	28533.47
503.25	28449.21
503.43	28519.43
503.60	28362.61
503.78	28739.44
503.95	28442.19
504.13	28877.53
504.30	29256.70
504.48	28854.12
504.65	29055.41
504.83	29362.02
505.01	29530.54
505.18	29619.48
505.36	30019.71
505.53	29890.98
505.71	30239.72
505.88	30024.39
506.06	29816.08
506.23	29961.20
506.41	29860.55
506.58	30567.40
506.76	30157.80
506.93	30363.77
507.11	30679.74
507.28	30672.72
507.46	30583.78
507.63	30436.33
507.81	30843.58
507.98	30581.44
508.16	30761.66
508.33	30953.58
508.50	31192.32
508.68	31363.18
508.85	31983.42
509.03	31639.36
509.20	31384.24
509.38	31756.39
509.55	31899.16
509.73	31473.18
509.90	31981.08
510.08	31749.37
510.25	32133.21
510.42	32006.83
510.60	32439.82
510.77	32222.16
510.95	32966.45
511.12	32243.22
511.30	32428.12
511.47	32804.95
511.64	33165.39
511.82	32636.43
511.99	32652.81
512.17	33111.56
512.34	32465.57
512.51	33207.52
512.69	32765.16
512.86	32987.51
513.04	33123.26
513.21	33467.32
513.38	32917.29
513.56	33198.16
513.73	33773.93
513.90	33542.22
514.08	33532.86
514.25	33673.29
514.43	33979.90
514.60	33443.91
514.77	33902.66
514.95	34052.45
515.12	34092.24
515.29	34071.18
515.47	34323.96
515.64	34354.38
515.81	34462.05
515.99	34293.53
516.16	34370.77
516.33	34068.84
516.51	34342.68
516.68	33701.37
516.85	34106.29
517.03	34113.31
517.20	34106.29
517.37	34459.71
517.54	34831.85
517.72	34609.50
517.89	34548.65
518.06	34916.11
518.24	34448.00
518.41	34878.66
518.58	35133.78
518.75	35208.68
518.93	35402.94
519.10	35412.31
519.27	35459.12
519.45	35356.13
519.62	35833.60
519.79	35971.69
519.96	36273.62
520.14	36041.91
520.31	35644.02
520.48	35962.33
520.65	36215.11
520.83	36044.25
521.00	36458.52
521.17	36624.70
521.34	36477.25
521.52	36769.82
521.69	36823.65
521.86	36704.28
522.03	36811.95
522.20	36491.29
522.38	36589.59
522.55	37153.66
522.72	36931.31
522.89	36900.89
523.07	37134.94
523.24	36938.33
523.41	37504.74
523.58	37226.22
523.75	37656.88
523.92	37626.45
524.10	37893.27
524.27	37816.04
524.44	38014.98
524.61	38349.68
524.78	38260.74
524.96	37942.42
525.13	38520.54
525.30	38117.96
525.47	38220.95
525.64	37888.59
525.81	38389.47
525.98	37914.34
526.16	37825.40
526.33	38007.96
526.50	37668.58
526.67	37713.05
526.84	38094.56
527.01	38251.38
527.18	38508.83
527.36	38267.76
527.53	39161.84
527.70	39159.50
527.87	39075.24
528.04	39051.84
528.21	39054.18
528.38	39047.16
528.55	39365.47
528.72	39416.96
528.89	39323.34
529.07	39283.55
529.24	39215.68
529.41	39374.83
529.58	39349.09
529.75	39470.79
529.92	39449.73
530.09	39545.69
530.26	39524.63
530.43	39971.67
530.60	40006.78
530.77	39981.03
530.94	39952.94
531.11	39503.56
531.28	39910.82
531.46	40409.35
531.63	40664.47
531.80	40259.55
531.97	40172.96
532.14	39981.03
532.31	39845.28
532.48	40060.61
532.65	40261.90
532.82	40236.15
532.99	40371.90
533.16	39964.65
533.33	40346.15
533.50	40690.21
533.67	40458.50
533.84	40538.08
534.01	40512.33
534.18	40751.07
534.35	41167.68
534.52	40584.89
534.69	40952.35
534.86	40884.48
535.03	41081.08
535.20	41308.11
535.37	41535.15
535.54	41301.09
535.71	41331.52
535.88	41167.68
536.05	41502.38
536.22	41275.35
536.38	41598.34
536.55	41174.70
536.72	41659.20
536.89	41055.34
537.06	41591.32
537.23	41670.90
537.40	41375.99
537.57	41385.35
537.74	41989.21
537.91	42150.71
538.08	42415.19
538.25	41462.59
538.42	41738.77
538.59	42241.99
538.75	41205.13
538.92	41748.14
539.09	42171.77
539.26	41532.81
539.43	42124.96
539.60	41588.98
539.77	41958.78
539.94	42169.43
540.11	42019.64
540.28	42272.42
540.44	41998.57
540.61	42185.82
540.78	42263.05
540.95	42234.97
541.12	42082.83
541.29	42433.91
541.46	42202.20
541.62	42752.23
541.79	42696.05
541.96	42340.29
542.13	42707.76
542.30	42866.91
542.47	42361.36
542.63	42450.30
542.80	42724.14
542.97	43220.33
543.14	43173.52
543.31	43107.99
543.48	43264.80
543.64	43484.81
543.81	43564.39
543.98	43138.41
544.15	43232.04
544.32	43590.14
544.48	44135.48
544.65	43753.97
544.82	43606.52
544.99	43648.65
545.16	44009.09
545.32	43318.64
545.49	43973.98
545.66	44091.01
545.83	43688.44
546.00	43943.56
546.16	44194.00
546.33	43636.95
546.50	43730.57
546.67	43880.36
546.83	43405.23
547.00	44023.14
547.17	43892.07
547.34	43934.20
547.50	44109.74
547.67	44116.76
547.84	44229.10
548.00	44339.11
548.17	44334.43
548.34	44498.26
548.51	44425.71
548.67	44664.44
548.84	44329.75
549.01	44648.06
549.18	44156.55
549.34	44879.77
549.51	44397.62
549.68	44374.22
549.84	44917.22
550.01	45214.47
550.18	44364.85
550.34	44718.28
550.51	44491.24
550.68	44629.34
550.84	44470.18
551.01	44547.42
551.18	44741.68
551.34	44598.91
551.51	45008.50
551.68	45270.64
551.84	44985.10
552.01	44868.07
552.18	44779.13
552.34	44825.94
552.51	45036.59
552.68	45041.27
552.84	45106.80
553.01	45308.09
553.18	44577.84
553.34	45111.49
553.51	45588.95
553.67	44818.92
553.84	45443.84
554.01	45605.34
554.17	45441.50
554.34	45841.73
554.51	45153.62
554.67	45476.61
554.84	45654.49
555.00	45464.91
555.17	45127.87
555.33	45214.47
555.50	45310.43
555.67	45525.76
555.83	45680.24
556.00	45771.52
556.16	45769.18
556.33	45928.33
556.50	45673.21
556.66	45907.27
556.83	45488.31
556.99	45656.83
557.16	45741.09
557.32	45823.01
557.49	45888.54
557.65	45340.86
557.82	45661.51
557.98	45909.61
558.15	46043.02
558.32	45904.93
558.48	45666.19
558.65	45720.02
558.81	45560.87
558.98	45942.38
559.14	46038.34
559.31	45621.72
559.47	46309.84
559.64	45748.11
559.80	46337.93
559.97	46003.23
560.13	45698.96
560.30	46061.74
560.46	46401.12
560.63	45595.98
560.79	46129.62
560.96	46490.06
561.12	46204.52
561.29	45935.35
561.45	45986.85
561.61	46438.57
561.78	46260.69
561.94	45808.96
562.11	45860.46
562.27	46108.55
562.44	46583.68
562.60	46541.55
562.77	46887.95
562.93	46234.94
563.10	46911.36
563.26	46071.10
563.42	46263.03
563.59	46155.36
563.75	46394.10
563.92	46459.63
564.08	46607.09
564.24	46506.44
564.41	46581.34
564.57	46497.08
564.74	46309.84
564.90	46845.82
565.07	46115.58
565.23	46588.36
565.39	46099.19
565.56	46422.19
565.72	46518.15
565.88	46274.73
566.05	46335.59
566.21	46206.86
566.38	46270.05
566.54	46190.47
566.70	46583.68
566.87	47023.70
567.03	46396.44
567.19	46909.02
567.36	46791.99
567.52	46536.87
567.68	46672.62
567.85	46616.45
568.01	46050.04
568.17	46419.84
568.34	46813.05
568.50	46522.83
568.66	46536.87
568.83	47234.35
568.99	46237.28
569.15	46712.41
569.32	46167.07
569.48	46536.87
569.64	47047.11
569.81	46852.84
569.97	46799.01
570.13	46855.18
570.30	46609.43
570.46	46457.29
570.62	46185.79
570.78	46714.75
570.95	46504.10
571.11	46747.52
571.27	46499.42
571.43	46190.47
571.60	46972.21
571.76	46499.42
571.92	46876.25
572.09	46784.97
572.25	46337.93
572.41	46642.20
572.57	46459.63
572.74	47084.56
572.90	46728.80
573.06	46827.10
573.22	46906.68
573.38	46742.84
573.55	46571.98
573.71	46939.44
573.87	46630.49
574.03	46534.53
574.20	46471.34
574.36	46511.13
574.52	46824.76
574.68	46993.28
574.84	47033.07
575.01	47004.98
575.17	46909.02
575.33	46227.92
575.49	46436.23
575.65	46681.98
575.82	47278.82
575.98	47000.30
576.14	47313.93
576.30	46431.55
576.46	46239.62
576.62	46731.14
576.79	46735.82
576.95	46621.13
577.11	46780.29
577.27	46855.18
577.43	46410.48
577.59	46466.66
577.75	46731.14
577.92	46464.32
578.08	45909.61
578.24	46122.60
578.40	46616.45
578.56	46677.30
578.72	46927.74
578.88	46974.55
579.04	46887.95
579.21	47147.75
579.37	46691.35
579.53	46806.03
579.69	46939.44
579.85	46815.40
580.01	47274.14
580.17	46976.89
580.33	47147.75
580.49	46848.16
580.65	47021.36
580.82	46864.55
580.98	47150.09
581.14	46754.54
581.30	47512.88
581.46	46506.44
581.62	47229.67
581.78	47189.88
581.94	47072.85
582.10	46897.31
582.26	47117.32
582.42	46855.18
582.58	47075.19
582.74	46651.56
582.90	46906.68
583.06	47082.22
583.22	47147.75
583.38	47014.34
583.54	46967.53
583.70	47086.90
583.86	46679.64
584.02	46916.04
584.18	47030.72
584.34	46822.42
584.50	47096.26
584.66	46607.09
584.82	47203.92
584.98	47098.60
585.14	46955.83
585.30	47007.32
585.46	47138.39
585.62	46665.60
585.78	46593.04
585.94	46766.24
586.10	46911.36
586.26	46478.36
586.42	47147.75
586.58	47185.20
586.74	47026.04
586.90	46625.81
587.06	46487.72
587.22	47161.79
587.38	47114.98
587.54	46969.87
587.70	46916.04
587.86	46754.54
588.02	46836.46
588.18	47220.31
588.34	46890.29
588.49	46630.49
588.65	46649.22
588.81	46141.32
588.97	46677.30
589.13	46525.17
589.29	46574.32
589.45	46504.10
589.61	46789.65
589.77	46913.70
