SpectraSuite Data File
++++++++++++++++++++++++++++++++++++
Date: Fri Oct 25 10:43:37 EDT 2013
User: price-jones
Dark Spectrum Present: No
Reference Spectrum Present: No
Number of Sampled Component Spectra: 1
Spectrometers: USB2+H05261
Integration Time (usec): 100000 (USB2+H05261)
Spectra Averaged: 1 (USB2+H05261)
Boxcar Smoothing: 0 (USB2+H05261)
Correct for Electrical Dark: No (USB2+H05261)
Strobe/Lamp Enabled: No (USB2+H05261)
Correct for Detector Non-linearity: No (USB2+H05261)
Correct for Stray Light: No (USB2+H05261)
Number of Pixels in Processed Spectrum: 2048
>>>>>Begin Processed Spectral Data<<<<<
365.73	121.71
365.92	121.71
366.12	121.71
366.32	131.07
366.52	49.15
366.72	39.79
366.91	67.88
367.11	25.75
367.31	0.00
367.51	0.00
367.70	35.11
367.90	72.56
368.10	30.43
368.30	16.38
368.49	46.81
368.69	100.64
368.89	7.02
369.09	42.13
369.28	77.24
369.48	95.96
369.68	70.22
369.87	74.90
370.07	70.22
370.27	135.75
370.47	285.55
370.66	341.72
370.86	409.59
371.06	458.74
371.25	470.45
371.45	458.74
371.65	498.53
371.84	458.74
372.04	425.98
372.24	442.36
372.44	514.92
372.63	507.90
372.83	517.26
373.03	528.96
373.22	594.50
373.42	540.66
373.62	564.07
373.81	505.56
374.01	535.98
374.21	526.62
374.40	571.09
374.60	550.03
374.79	603.86
374.99	580.45
375.19	601.52
375.38	615.56
375.58	587.47
375.78	587.47
375.97	559.39
376.17	699.82
376.37	620.24
376.56	547.69
376.76	655.35
376.95	582.79
377.15	641.31
377.35	634.29
377.54	746.63
377.74	681.10
377.93	610.88
378.13	629.60
378.33	688.12
378.52	671.73
378.72	676.41
378.91	699.82
379.11	603.86
379.31	669.39
379.50	643.65
379.70	711.52
379.89	741.95
380.09	692.80
380.28	716.20
380.48	727.91
380.68	690.46
380.87	706.84
381.07	636.63
381.26	732.59
381.46	725.57
381.65	688.12
381.85	746.63
382.04	746.63
382.24	753.65
382.43	727.91
382.63	688.12
382.83	725.57
383.02	751.31
383.22	765.36
383.41	641.31
383.61	660.03
383.80	772.38
384.00	791.10
384.19	755.99
384.39	770.04
384.58	905.79
384.78	882.38
384.97	805.14
385.17	807.48
385.36	793.44
385.56	737.27
385.75	828.55
385.95	870.68
386.14	877.70
386.34	739.61
386.53	798.12
386.72	882.38
386.92	868.34
387.11	875.36
387.31	884.72
387.50	800.46
387.70	880.04
387.89	844.93
388.09	908.13
388.28	854.30
388.48	947.92
388.67	938.55
388.86	1015.79
389.06	905.79
389.25	908.13
389.45	1109.41
389.64	919.83
389.84	1057.92
390.03	994.73
390.22	976.00
390.42	1018.13
390.61	1107.07
390.81	1020.47
391.00	1025.15
391.19	1076.65
391.39	1029.84
391.58	1081.33
391.78	1013.45
391.97	1069.62
392.16	1055.58
392.36	1083.67
392.55	961.96
392.75	959.62
392.94	915.15
393.13	1057.92
393.33	1006.43
393.52	1071.97
393.71	1111.75
393.91	1149.20
394.10	1076.65
394.29	1174.95
394.49	1139.84
394.68	1165.59
394.88	1266.23
395.07	1146.86
395.26	1210.06
395.46	1282.61
395.65	1310.70
395.84	1231.12
396.04	1238.14
396.23	1151.54
396.42	1139.84
396.62	1186.65
396.81	1221.76
397.00	1256.87
397.19	1282.61
397.39	1336.45
397.58	1355.17
397.77	1467.52
397.97	1451.13
398.16	1476.88
398.35	1533.05
398.55	1493.26
398.74	1476.88
398.93	1577.52
399.12	1542.41
399.32	1535.39
399.51	1504.96
399.70	1596.25
399.90	1535.39
400.09	1612.63
400.28	1652.42
400.47	1535.39
400.67	1710.93
400.86	1699.23
401.05	1685.19
401.24	1682.85
401.44	1724.97
401.63	1713.27
401.82	1781.15
402.01	1757.74
402.21	1863.07
402.40	1802.21
402.59	1755.40
402.78	1673.48
402.97	1806.89
403.17	1799.87
403.36	1860.73
403.55	1905.20
403.74	1851.36
403.93	1966.05
404.13	1895.83
404.32	1930.94
404.51	1947.33
404.70	1961.37
404.89	1905.20
405.09	2045.63
405.28	1874.77
405.47	2033.93
405.66	1802.21
405.85	1947.33
406.05	1959.03
406.24	2085.42
406.43	2029.24
406.62	2115.84
406.81	2090.10
407.00	2078.40
407.20	2022.22
407.39	2036.27
407.58	2176.70
407.77	2211.81
407.96	2258.62
408.15	2179.04
408.34	2267.98
408.54	2356.92
408.73	2436.50
408.92	2303.09
409.11	2300.75
409.30	2415.43
409.49	2406.07
409.68	2251.60
409.87	2314.79
410.07	2361.60
410.26	2394.37
410.45	2361.60
410.64	2457.56
410.83	2497.35
411.02	2476.29
411.21	2462.24
411.40	2616.72
411.59	2644.81
411.78	2633.10
411.98	2818.00
412.17	2766.51
412.36	2705.66
412.55	2775.88
412.74	2832.05
412.93	2693.96
413.12	2703.32
413.31	2986.52
413.50	2832.05
413.69	2923.33
413.88	2874.18
414.07	2909.29
414.26	2888.22
414.45	2974.82
414.64	3002.91
414.83	3068.44
415.02	3119.93
415.22	3126.96
415.41	3155.04
415.60	3122.27
415.79	3353.99
415.98	3290.79
416.17	3262.71
416.36	3314.20
416.55	3241.64
416.74	3302.50
416.93	3279.09
417.12	3372.71
417.31	3480.38
417.50	3510.80
417.69	3445.27
417.88	3496.76
418.07	3304.84
418.26	3604.42
418.45	3473.36
418.64	3646.55
418.83	3597.40
419.02	3611.45
419.21	3719.11
419.39	3555.27
419.58	3510.80
419.77	3637.19
419.96	3681.66
420.15	3815.07
420.34	3707.41
420.53	3847.84
420.72	3932.10
420.91	3812.73
421.10	3906.35
421.29	3932.10
421.48	3740.18
421.67	4028.06
421.86	3960.19
422.05	3805.71
422.24	3805.71
422.43	3894.65
422.61	3861.88
422.80	4063.17
422.99	3878.27
423.18	3948.48
423.37	4084.23
423.56	3941.46
423.75	4166.15
423.94	3878.27
424.13	3721.45
424.32	3868.91
424.50	3915.72
424.69	4014.02
424.88	4039.76
425.07	4014.02
425.26	3962.53
425.45	3974.23
425.64	3999.98
425.83	4058.49
426.01	4107.64
426.20	3978.91
426.39	3999.98
426.58	4060.83
426.77	4009.34
426.96	4002.32
427.15	4065.51
427.33	4028.06
427.52	4212.96
427.71	4187.22
427.90	4170.83
428.09	4248.07
428.28	4198.92
428.46	4241.05
428.65	4184.88
428.84	4287.86
429.03	4332.33
429.22	4161.47
429.40	4290.20
429.59	4173.18
429.78	3943.80
429.97	4109.98
430.16	4177.86
430.34	4030.40
430.53	4147.43
430.72	4236.37
430.91	4278.50
431.10	4294.88
431.28	4631.92
431.47	4770.01
431.66	4645.96
431.85	4587.45
432.03	4697.46
432.22	4564.04
432.41	4706.82
432.60	4807.46
432.79	4613.20
432.97	4858.95
433.16	4837.89
433.35	4676.39
433.54	4732.56
433.72	4643.62
433.91	4774.69
434.10	4835.55
434.28	4819.16
434.47	5004.07
434.66	4919.81
434.85	4990.02
435.03	4964.28
435.22	5107.05
435.41	5104.71
435.59	4978.32
435.78	5071.94
435.97	5139.82
436.16	5167.90
436.34	5055.56
436.53	5179.61
436.72	5193.65
436.90	5186.63
437.09	5188.97
437.28	5123.43
437.46	5151.52
437.65	5266.21
437.84	5188.97
438.02	5245.14
438.21	5364.51
438.40	5137.48
438.58	5390.25
438.77	5476.85
438.96	5476.85
439.14	5633.67
439.33	5774.10
439.52	5778.78
439.70	5762.40
439.89	5790.49
440.08	5657.07
440.26	5743.67
440.45	5703.89
440.63	6059.65
440.82	6134.54
441.01	5895.81
441.19	6043.26
441.38	6202.42
441.57	6263.27
441.75	6207.10
441.94	6324.13
442.12	6445.84
442.31	6455.20
442.50	6408.39
442.68	6394.34
442.87	6401.37
443.05	6413.07
443.24	6647.12
443.43	6518.39
443.61	6422.43
443.80	6745.42
443.98	6427.11
444.17	6293.70
444.35	6602.65
444.54	6745.42
444.73	6541.80
444.91	6572.22
445.10	6532.44
445.28	6525.41
445.47	6494.99
445.65	6663.51
445.84	6583.93
446.02	6567.54
446.21	6551.16
446.39	6633.08
446.58	6780.53
446.77	6726.70
446.95	6647.12
447.14	6719.68
447.32	6876.49
447.51	6642.44
447.69	6785.21
447.88	6717.34
448.06	6801.60
448.25	6825.00
448.43	6925.65
448.62	6899.90
448.80	6862.45
448.99	6902.24
449.17	6972.46
449.36	6946.71
449.54	6925.65
449.73	7166.72
449.91	7250.98
450.10	7000.54
450.28	7426.52
450.46	7300.13
450.65	7365.67
450.83	7190.13
451.02	7421.84
451.20	7344.60
451.39	7339.92
451.57	7398.43
451.76	7290.77
451.94	7269.70
452.13	7342.26
452.31	7508.44
452.49	7382.05
452.68	7227.57
452.86	7314.17
453.05	7360.98
453.23	7410.14
453.42	7339.92
453.60	7412.48
453.78	7597.38
453.97	7456.95
454.15	7417.16
454.34	7368.01
454.52	7758.88
454.70	7641.85
454.89	7641.85
455.07	7749.51
455.26	7513.12
455.44	7899.31
455.62	7803.35
455.81	7730.79
455.99	8053.78
456.17	7911.01
456.36	7880.58
456.54	8044.42
456.73	8070.17
456.91	8224.64
457.09	8381.46
457.28	8308.90
457.46	8023.36
457.64	8229.32
457.83	8219.96
458.01	8222.30
458.19	8287.84
458.38	8304.22
458.56	8461.04
458.74	8374.44
458.93	8308.90
459.11	8334.65
459.29	8458.70
459.48	8416.57
459.66	8334.65
459.84	8421.25
460.03	8685.73
460.21	8552.32
460.39	8641.26
460.57	8809.78
460.76	8905.74
460.94	8589.77
461.12	8769.99
461.31	8725.52
461.49	8692.75
461.67	8723.18
461.85	8877.65
462.04	8748.92
462.22	9357.46
462.40	8992.34
462.59	8847.22
462.77	8793.39
462.95	9116.39
463.13	9074.26
463.32	8997.02
463.50	8879.99
463.68	9027.45
463.86	8999.36
464.05	8990.00
464.23	8992.34
464.41	8975.95
464.59	9043.83
464.78	9207.67
464.96	9240.44
465.14	9430.02
465.32	9437.04
465.50	9504.92
465.69	9549.39
465.87	9308.31
466.05	9163.20
466.23	9217.03
466.41	9266.18
466.60	9469.81
466.78	9181.92
466.96	9305.97
467.14	9341.08
467.32	9554.07
467.51	9596.20
467.69	9156.18
467.87	9556.41
468.05	9724.93
468.23	9518.96
468.41	9476.83
468.60	9666.41
468.78	9696.84
468.96	9907.49
469.14	9825.57
469.32	10031.54
469.50	9682.80
469.69	9783.44
469.87	9870.04
470.05	9963.66
470.23	10033.88
470.41	10176.65
470.59	10029.20
470.77	10022.17
470.95	10120.48
471.14	10207.08
471.32	10033.88
471.50	10394.32
471.68	10324.10
471.86	10366.23
472.04	10684.55
472.22	10520.71
472.40	10513.69
472.58	10607.31
472.77	10551.14
472.95	10621.35
473.13	10958.39
473.31	10661.14
473.49	10761.78
473.67	10658.80
473.85	10988.82
474.03	11047.33
474.21	11049.67
474.39	10979.45
474.57	11066.05
474.75	11356.28
474.93	11379.68
475.12	11241.59
475.30	11377.34
475.48	11002.86
475.66	11290.74
475.84	11503.73
476.02	11698.00
476.20	11583.31
476.38	11913.33
476.56	12098.23
476.74	11889.92
476.92	11845.45
477.10	12229.30
477.28	12257.39
477.46	12409.52
477.64	12507.82
477.82	12475.06
478.00	12475.06
478.18	12681.02
478.36	12526.55
478.54	12744.22
478.72	13029.76
478.90	12800.39
479.08	13284.88
479.26	13263.82
479.44	13392.55
479.62	13296.58
479.80	13474.46
479.98	13621.92
480.16	13827.88
480.34	13830.23
480.52	13823.20
480.70	14202.37
480.88	13736.60
481.06	14125.13
481.24	14047.90
481.41	14288.97
481.59	14438.76
481.77	14684.52
481.95	14565.15
482.13	14944.32
482.31	14705.59
482.49	15243.91
482.67	15236.89
482.85	15234.55
483.03	15494.35
483.21	15372.64
483.39	15786.91
483.57	15543.50
483.74	15438.17
483.92	15798.62
484.10	15686.27
484.28	16215.23
484.46	16259.70
484.64	16533.54
484.82	16102.89
485.00	16500.78
485.18	16475.03
485.35	16772.28
485.53	16395.45
485.71	16273.74
485.89	16475.03
486.07	16901.01
486.25	16931.44
486.43	16992.29
486.61	17336.35
486.78	17373.80
486.96	17635.94
487.14	17886.37
487.32	18080.64
487.50	18136.81
487.68	18391.93
487.85	18792.16
488.03	18513.64
488.21	18920.89
488.39	18633.00
488.57	18785.14
488.75	18853.02
488.92	19351.55
489.10	19351.55
489.28	19496.66
489.46	19936.68
489.64	19843.06
489.81	20524.16
489.99	20467.98
490.17	20360.32
490.35	20680.97
490.53	20659.91
490.70	20467.98
490.88	20833.11
491.06	20807.36
491.24	20692.68
491.41	21001.63
491.59	21027.37
491.77	20844.81
491.95	21364.41
492.13	21715.49
492.30	21722.51
492.48	21860.60
492.66	22300.62
492.84	22071.25
493.01	22190.62
493.19	22125.08
493.37	22490.21
493.54	22504.25
493.72	22658.73
493.90	22785.12
494.08	23372.59
494.25	23798.57
494.43	23641.75
494.61	23613.66
494.79	23672.18
494.96	23662.82
495.14	23840.70
495.32	23859.42
495.49	23908.57
495.67	23983.47
495.85	24233.91
496.02	24580.31
496.20	24435.19
496.38	24823.72
496.55	24837.76
496.73	25247.36
496.91	25111.61
497.09	25610.14
497.26	25184.16
497.44	25434.60
497.62	25439.28
497.79	25612.48
497.97	25245.02
498.14	25301.19
498.32	25816.11
498.50	26108.68
498.67	26160.17
498.85	26504.23
499.03	26499.55
499.20	26401.24
499.38	27138.51
499.56	26590.83
499.73	26768.71
499.91	26993.40
500.08	26834.24
500.26	26740.62
500.44	26808.50
500.61	26934.88
500.79	27122.13
500.97	27084.68
501.14	27168.94
501.32	27101.06
501.49	27393.63
501.67	27534.06
501.84	27693.22
502.02	27646.41
502.20	27957.70
502.37	28245.58
502.55	28222.18
502.72	28268.99
502.90	28411.76
503.07	28081.75
503.25	28369.63
503.43	28081.75
503.60	28311.12
503.78	28100.47
503.95	28507.72
504.13	29001.58
504.30	28519.43
504.48	28753.48
504.65	29113.92
504.83	29193.50
505.01	29352.66
505.18	29170.10
505.36	30000.99
505.53	29893.32
505.71	29986.94
505.88	30295.89
506.06	30101.63
506.23	30466.75
506.41	29670.97
506.58	30087.59
506.76	30148.44
506.93	30466.75
507.11	30190.57
507.28	30604.84
507.46	30380.15
507.63	30008.01
507.81	30684.42
507.98	30649.32
508.16	30518.25
508.33	30642.29
508.50	31161.89
508.68	31274.24
508.85	31243.81
509.03	31260.20
509.20	31232.11
509.38	31323.39
509.55	31594.89
509.73	31585.53
509.90	31807.88
510.08	31637.02
510.25	31744.69
510.42	31737.66
510.60	32102.79
510.77	32266.63
510.95	32144.92
511.12	32250.24
511.30	32453.87
511.47	32568.55
511.64	32727.71
511.82	32765.16
511.99	32542.81
512.17	32683.24
512.34	32737.07
512.51	32701.96
512.69	32961.76
512.86	32964.10
513.04	33254.33
513.21	33490.73
513.38	33074.11
513.56	33144.33
513.73	32947.72
513.90	33652.22
514.08	33404.13
514.25	33383.06
514.43	33495.41
514.60	33795.00
514.77	34057.14
514.95	33834.78
515.12	33935.43
515.29	34115.65
515.47	34050.11
515.64	34632.91
515.81	34422.26
515.99	34050.11
516.16	33949.47
516.33	34115.65
516.51	33837.12
516.68	33764.57
516.85	33378.38
517.03	33982.24
517.20	34117.99
517.37	34918.45
517.54	34918.45
517.72	34593.12
517.89	34202.25
518.06	34117.99
518.24	34670.36
518.41	34410.56
518.58	35021.44
518.75	34628.23
518.93	35126.76
519.10	35309.32
519.27	35370.18
519.45	35711.89
519.62	35534.01
519.79	35803.17
519.96	35667.42
520.14	36060.63
520.31	35480.18
520.48	35585.50
520.65	35805.52
520.83	36217.45
521.00	35812.54
521.17	36524.06
521.34	36617.68
521.52	36301.71
521.69	36282.98
521.86	36786.20
522.03	36524.06
522.20	36861.10
522.38	36704.28
522.55	36397.67
522.72	37055.36
522.89	37008.55
523.07	37083.45
523.24	37132.60
523.41	37226.22
523.58	37291.76
523.75	37418.14
523.92	37364.31
524.10	37266.01
524.27	37649.86
524.44	37666.24
524.61	37584.32
524.78	38064.13
524.96	37574.96
525.13	37935.40
525.30	37944.76
525.47	37706.03
525.64	37766.88
525.81	37951.79
525.98	37502.40
526.16	37881.57
526.33	37961.15
526.50	37745.82
526.67	37858.17
526.84	37605.39
527.01	37972.85
527.18	38616.50
527.36	38497.13
527.53	38031.36
527.70	39012.05
527.87	38366.06
528.04	38745.23
528.21	38494.79
528.38	38557.99
528.55	39115.03
528.72	39028.43
528.89	39187.59
529.07	38951.20
529.24	38639.90
529.41	39159.50
529.58	39033.11
529.75	38946.51
529.92	38976.94
530.09	39330.36
530.26	39241.42
530.43	39519.95
530.60	39313.98
530.77	39744.64
530.94	39821.87
531.11	39824.22
531.28	39880.39
531.46	40009.12
531.63	39971.67
531.80	39913.16
531.97	39845.28
532.14	39845.28
532.31	39915.50
532.48	39562.08
532.65	39711.87
532.82	39856.98
532.99	40210.40
533.16	40268.92
533.33	40203.38
533.50	40416.37
533.67	40631.70
533.84	40004.44
534.01	40505.31
534.18	40313.39
534.35	40491.27
534.52	40940.65
534.69	40828.30
534.86	40620.00
535.03	40837.67
535.20	41003.85
535.37	41443.87
535.54	40985.12
535.71	41188.75
535.88	40755.75
536.05	40842.35
536.22	41029.59
536.38	41060.02
536.55	40776.81
536.72	40823.62
536.89	41010.87
537.06	41137.26
537.23	41717.71
537.40	41347.90
537.57	41549.19
537.74	41645.15
537.91	42038.36
538.08	41696.64
538.25	41490.68
538.42	41338.54
538.59	42038.36
538.75	41214.49
538.92	41577.28
539.09	41818.35
539.26	41558.55
539.43	41537.49
539.60	41848.78
539.77	41155.98
539.94	41298.75
540.11	41975.17
540.28	41949.42
540.44	42141.35
540.61	41684.94
540.78	41647.49
540.95	41706.01
541.12	41888.57
541.29	42190.50
541.46	42014.96
541.62	42375.40
541.79	42171.77
541.96	41713.03
542.13	42122.62
542.30	42351.99
542.47	42026.66
542.63	42323.91
542.80	42391.78
542.97	42848.19
543.14	42562.64
543.31	42752.23
543.48	42740.52
543.64	43171.18
543.81	43157.14
543.98	43049.47
544.15	42848.19
544.32	43365.45
544.48	43739.93
544.65	43196.93
544.82	43384.17
544.99	42909.04
545.16	42876.27
545.32	42995.64
545.49	43840.57
545.66	44076.97
545.83	43517.58
546.00	43826.53
546.16	43201.61
546.33	43072.88
546.50	42920.74
546.67	43763.34
546.83	43414.60
547.00	43440.34
547.17	43112.67
547.34	43154.80
547.50	43440.34
547.67	43805.47
547.84	43269.48
548.00	43981.01
548.17	44186.97
548.34	43728.23
548.51	44313.36
548.67	43981.01
548.84	44154.21
549.01	43770.36
549.18	43819.51
549.34	44046.54
549.51	43765.68
549.68	44212.72
549.84	43805.47
550.01	44245.49
550.18	44362.51
550.34	44210.38
550.51	44411.67
550.68	44081.65
550.84	43587.80
551.01	44194.00
551.18	44589.55
551.34	43941.22
551.51	44435.07
551.68	44421.03
551.84	44552.10
552.01	44430.39
552.18	44528.69
552.34	44360.17
552.51	44463.16
552.68	44451.45
552.84	44601.25
553.01	44561.46
553.18	44596.57
553.34	45125.53
553.51	44528.69
553.67	44830.62
553.84	45198.09
554.01	45268.30
554.17	45228.51
554.34	44912.54
554.51	44715.93
554.67	45312.77
554.84	44830.62
555.00	44795.51
555.17	44900.84
555.33	44854.03
555.50	44903.18
555.67	45247.24
555.83	45083.40
556.00	44896.16
556.16	45530.44
556.33	45045.95
556.50	45324.47
556.66	45251.92
556.83	44531.03
556.99	45055.31
557.16	45137.23
557.32	45338.52
557.49	45600.66
557.65	45109.14
557.82	45406.39
557.98	45432.14
558.15	45483.63
558.32	45591.30
558.48	45301.07
558.65	45413.41
558.81	44772.11
558.98	45209.79
559.14	45336.18
559.31	45172.34
559.47	45277.66
559.64	45965.78
559.80	45382.99
559.97	45471.93
560.13	45507.04
560.30	45265.96
560.46	45956.42
560.63	45841.73
560.79	45792.58
560.96	45869.82
561.12	45373.63
561.29	45418.10
561.45	45244.90
561.61	45689.60
561.78	45588.95
561.94	45514.06
562.11	45670.87
562.27	45329.16
562.44	46000.89
562.60	45773.86
562.77	46024.29
562.93	45626.40
563.10	46204.52
563.26	45546.82
563.42	45982.16
563.59	45593.64
563.75	45801.94
563.92	45865.14
564.08	45879.18
564.24	45933.01
564.41	45963.44
564.57	45830.03
564.74	46007.91
564.90	45518.74
565.07	45759.81
565.23	45827.69
565.39	46146.00
565.56	45600.66
565.72	45581.93
565.88	45542.14
566.05	45860.46
566.21	45979.82
566.38	45624.06
566.54	45928.33
566.70	46167.07
566.87	46314.52
567.03	46204.52
567.19	46916.04
567.36	46384.74
567.52	45954.08
567.68	46155.36
567.85	46410.48
568.01	45935.35
568.17	45998.55
568.34	46277.07
568.50	46115.58
568.66	45991.53
568.83	45949.40
568.99	45680.24
569.15	46298.14
569.32	45827.69
569.48	45642.79
569.64	46232.60
569.81	46108.55
569.97	45940.04
570.13	46101.53
570.30	45642.79
570.46	45745.77
570.62	45654.49
570.78	45745.77
570.95	45748.11
571.11	46213.88
571.27	46141.32
571.43	45900.25
571.60	46354.31
571.76	46532.19
571.92	46127.28
572.09	46316.86
572.25	46494.74
572.41	46326.22
572.57	46351.97
572.74	46698.37
572.90	46248.99
573.06	46733.48
573.22	46045.36
573.38	46038.34
573.55	45993.87
573.71	46513.47
573.87	46415.16
574.03	46127.28
574.20	45794.92
574.36	46141.32
574.52	45956.42
574.68	46124.94
574.84	46239.62
575.01	46080.47
575.17	46330.90
575.33	45975.14
575.49	46043.02
575.65	46038.34
575.82	46031.32
575.98	45858.12
576.14	46588.36
576.30	46532.19
576.46	46419.84
576.62	46506.44
576.79	46588.36
576.95	46071.10
577.11	46185.79
577.27	46485.38
577.43	46256.01
577.59	46293.46
577.75	45815.99
577.92	46122.60
578.08	45556.19
578.24	46066.42
578.40	46209.20
578.56	46354.31
578.72	46330.90
578.88	46457.29
579.04	46447.93
579.21	46078.13
579.37	46309.84
579.53	46361.33
579.69	46237.28
579.85	46394.10
580.01	46417.50
580.17	46080.47
580.33	46202.18
580.49	46616.45
580.65	46307.50
580.82	46780.29
580.98	46501.76
581.14	45989.19
581.30	46265.37
581.46	46609.43
581.62	46436.23
581.78	46553.26
581.94	46777.95
582.10	46670.28
582.26	46660.92
582.42	46361.33
582.58	46349.63
582.74	46258.35
582.90	46270.05
583.06	46532.19
583.22	46450.27
583.38	46710.07
583.54	46614.11
583.70	46476.02
583.86	46251.33
584.02	46284.09
584.18	46527.51
584.34	46291.12
584.50	46394.10
584.66	46461.97
584.82	46279.41
584.98	46693.69
585.14	46424.53
585.30	46192.81
585.46	46438.57
585.62	46064.08
585.78	46028.98
585.94	45834.71
586.10	46230.26
586.26	45867.48
586.42	46174.09
586.58	46560.28
586.74	46618.79
586.90	46223.24
587.06	46534.53
587.22	46543.89
587.38	46134.30
587.54	46511.13
587.70	46616.45
587.86	46457.29
588.02	46445.59
588.18	46749.86
588.34	46059.40
588.49	46003.23
588.65	45551.51
588.81	45759.81
588.97	46043.02
589.13	45450.86
589.29	45642.79
589.45	45998.55
589.61	46248.99
589.77	46398.78
589.93	46623.47
