SpectraSuite Data File
++++++++++++++++++++++++++++++++++++
Date: Fri Oct 25 11:24:05 EDT 2013
User: price-jones
Dark Spectrum Present: No
Reference Spectrum Present: No
Number of Sampled Component Spectra: 1
Spectrometers: USB2+H05261
Integration Time (usec): 100000 (USB2+H05261)
Spectra Averaged: 1 (USB2+H05261)
Boxcar Smoothing: 0 (USB2+H05261)
Correct for Electrical Dark: No (USB2+H05261)
Strobe/Lamp Enabled: No (USB2+H05261)
Correct for Detector Non-linearity: No (USB2+H05261)
Correct for Stray Light: No (USB2+H05261)
Number of Pixels in Processed Spectrum: 2048
>>>>>Begin Processed Spectral Data<<<<<
365.73	212.99
365.92	212.99
366.12	212.99
366.32	205.97
366.52	95.96
366.72	110.01
366.91	140.43
367.11	119.37
367.31	154.48
367.51	95.96
367.70	93.62
367.90	152.13
368.10	142.77
368.30	154.48
368.49	131.07
368.69	145.11
368.89	187.24
369.09	198.95
369.28	191.92
369.48	189.58
369.68	184.90
369.87	217.67
370.07	173.20
370.27	238.73
370.47	362.78
370.66	617.90
370.86	648.33
371.06	634.29
371.25	671.73
371.45	641.31
371.65	767.70
371.84	662.37
372.04	636.63
372.24	683.44
372.44	732.59
372.63	669.39
372.83	755.99
373.03	763.01
373.22	774.72
373.42	739.61
373.62	713.86
373.81	772.38
374.01	863.66
374.21	770.04
374.40	781.74
374.60	870.68
374.79	844.93
374.99	851.96
375.19	781.74
375.38	835.57
375.58	809.83
375.78	844.93
375.97	835.57
376.17	912.81
376.37	990.05
376.56	847.27
376.76	936.21
376.95	912.81
377.15	936.21
377.35	915.15
377.54	856.64
377.74	898.77
377.93	943.24
378.13	870.68
378.33	870.68
378.52	908.13
378.72	985.37
378.91	1041.54
379.11	945.58
379.31	912.81
379.50	952.60
379.70	1071.97
379.89	929.19
380.09	985.37
380.28	987.71
380.48	1025.15
380.68	973.66
380.87	936.21
381.07	1015.79
381.26	1053.24
381.46	1057.92
381.65	1043.88
381.85	1057.92
382.04	1046.22
382.24	1015.79
382.43	1078.99
382.63	1004.09
382.83	1069.62
383.02	1121.12
383.22	1137.50
383.41	1132.82
383.61	1184.31
383.80	1212.40
384.00	1151.54
384.19	1158.57
384.39	1086.01
384.58	1118.78
384.78	1196.01
384.97	1144.52
385.17	1200.69
385.36	1233.46
385.56	1210.06
385.75	1217.08
385.95	1184.31
386.14	1198.35
386.34	1231.12
386.53	1174.95
386.72	1249.85
386.92	1270.91
387.11	1240.48
387.31	1280.27
387.50	1296.66
387.70	1296.66
387.89	1205.38
388.09	1224.10
388.28	1341.13
388.48	1266.23
388.67	1249.85
388.86	1345.81
389.06	1329.42
389.25	1385.60
389.45	1380.92
389.64	1369.21
389.84	1418.36
390.03	1378.58
390.22	1345.81
390.42	1345.81
390.61	1380.92
390.81	1329.42
391.00	1401.98
391.19	1444.11
391.39	1514.33
391.58	1530.71
391.78	1425.39
391.97	1451.13
392.16	1521.35
392.36	1551.78
392.55	1467.52
392.75	1540.07
392.94	1526.03
393.13	1511.99
393.33	1556.46
393.52	1479.22
393.71	1605.61
393.91	1640.72
394.10	1600.93
394.29	1624.33
394.49	1650.08
394.68	1579.86
394.88	1645.40
395.07	1710.93
395.26	1659.44
395.46	1666.46
395.65	1722.63
395.84	1685.19
396.04	1820.94
396.23	1701.57
396.42	1757.74
396.62	1813.92
396.81	1785.83
397.00	1795.19
397.19	1729.66
397.39	1834.98
397.58	1834.98
397.77	1783.49
397.97	1839.66
398.16	1846.68
398.35	1867.75
398.55	1916.90
398.74	1919.24
398.93	1942.64
399.12	2022.22
399.32	1877.11
399.51	1858.39
399.70	2003.50
399.90	1856.04
400.09	2033.93
400.28	2005.84
400.47	2057.33
400.67	2111.16
400.86	2113.50
401.05	2083.08
401.24	2122.87
401.44	2057.33
401.63	2069.03
401.82	2111.16
402.01	2181.38
402.21	2150.95
402.40	2193.08
402.59	2246.91
402.78	2200.10
402.97	2246.91
403.17	2265.64
403.36	2228.19
403.55	2291.38
403.74	2275.00
403.93	2363.94
404.13	2303.09
404.32	2403.73
404.51	2363.94
404.70	2326.49
404.89	2326.49
405.09	2609.70
405.28	2532.46
405.47	2485.65
405.66	2509.05
405.85	2509.05
406.05	2544.16
406.24	2572.25
406.43	2576.93
406.62	2679.91
406.81	2696.30
407.00	2583.95
407.20	2544.16
407.39	2710.34
407.58	2700.98
407.77	2703.32
407.96	2740.77
408.15	2834.39
408.34	2696.30
408.54	2864.82
408.73	2740.77
408.92	2768.85
409.11	2932.69
409.30	2871.84
409.49	2977.16
409.68	2965.46
409.87	2913.97
410.07	3019.29
410.26	2836.73
410.45	2946.73
410.64	3091.85
410.83	2988.86
411.02	3056.74
411.21	3129.30
411.40	3234.62
411.59	3164.40
411.78	3117.59
411.98	3241.64
412.17	3321.22
412.36	3262.71
412.55	3398.46
412.74	3370.37
412.93	3494.42
413.12	3410.16
413.31	3492.08
413.50	3471.01
413.69	3606.77
413.88	3613.79
414.07	3538.89
414.26	3548.25
414.45	3543.57
414.64	3768.26
414.83	3976.57
415.02	3810.39
415.22	3824.44
415.41	3911.04
415.60	3908.69
415.79	4035.08
415.98	3960.19
416.17	3955.51
416.36	4088.92
416.55	3957.85
416.74	4142.75
416.93	4046.79
417.12	4035.08
417.31	4170.83
417.50	4344.03
417.69	4344.03
417.88	4301.90
418.07	4133.39
418.26	4379.14
418.45	4315.95
418.64	4358.08
418.83	4531.28
419.02	4407.23
419.21	4325.31
419.39	4561.70
419.58	4461.06
419.77	4526.60
419.96	4472.76
420.15	4601.49
420.34	4716.18
420.53	4592.13
420.72	4592.13
420.91	4702.14
421.10	4669.37
421.29	4727.88
421.48	4645.96
421.67	4833.21
421.86	4695.11
422.05	4798.10
422.24	4990.02
422.43	4774.69
422.61	4903.42
422.80	4858.95
422.99	5067.26
423.18	5032.15
423.37	5018.11
423.56	4819.16
423.75	4898.74
423.94	4760.65
424.13	4615.54
424.32	4880.02
424.50	4973.64
424.69	5100.03
424.88	5109.39
425.07	4933.85
425.26	4929.17
425.45	4966.62
425.64	4812.14
425.83	4966.62
426.01	5036.83
426.20	5069.60
426.39	5207.69
426.58	4961.94
426.77	5093.01
426.96	5046.20
427.15	5085.98
427.33	5228.76
427.52	5102.37
427.71	5294.29
427.90	5303.65
428.09	5329.40
428.28	5256.84
428.46	5462.81
428.65	5460.47
428.84	5490.90
429.03	5593.88
429.22	5392.59
429.40	5453.45
429.59	5490.90
429.78	5364.51
429.97	5181.95
430.16	5397.28
430.34	5727.29
430.53	5617.29
430.72	5628.99
430.91	5647.71
431.10	5631.33
431.28	5778.78
431.47	5799.85
431.66	5844.32
431.85	5928.58
432.03	5942.62
432.22	6090.07
432.41	6029.22
432.60	5900.49
432.79	6092.41
432.97	5944.96
433.16	5980.07
433.35	6099.44
433.54	6228.17
433.72	6167.31
433.91	6242.21
434.10	6113.48
434.28	6047.94
434.47	6324.13
434.66	6258.59
434.85	6373.28
435.03	6157.95
435.22	6417.75
435.41	6366.26
435.59	6492.65
435.78	6523.07
435.97	6590.95
436.16	6370.94
436.34	6490.31
436.53	6574.56
436.72	6691.59
436.90	6469.24
437.09	6710.32
437.28	6628.40
437.46	6696.27
437.65	6817.98
437.84	6726.70
438.02	6607.33
438.21	6693.93
438.40	6623.72
438.58	6876.49
438.77	7033.31
438.96	7066.08
439.14	7162.04
439.33	7122.25
439.52	7241.62
439.70	7342.26
439.89	7461.63
440.08	7295.45
440.26	7405.46
440.45	7389.07
440.63	7557.59
440.82	7576.31
441.01	7545.89
441.19	7527.16
441.38	7789.30
441.57	7817.39
441.75	8030.38
441.94	8053.78
442.12	8035.06
442.31	7957.82
442.50	8236.35
442.68	8025.70
442.87	7918.03
443.05	8060.80
443.24	8212.94
443.43	8159.11
443.61	8285.50
443.80	8524.23
443.98	8142.72
444.17	7920.37
444.35	8236.35
444.54	8486.78
444.73	8379.12
444.91	8234.00
445.10	8496.14
445.28	8451.67
445.47	8386.14
445.65	8369.76
445.84	8493.80
446.02	8442.31
446.21	8500.83
446.39	8313.58
446.58	8526.57
446.77	8514.87
446.95	8217.62
447.14	8479.76
447.32	8446.99
447.51	8514.87
447.69	8535.93
447.88	8552.32
448.06	8484.44
448.25	8451.67
448.43	8613.17
448.62	8482.10
448.80	8627.21
448.99	8758.28
449.17	8828.50
449.36	8898.72
449.54	8671.68
449.73	8917.44
449.91	9071.92
450.10	8968.93
450.28	9149.15
450.46	9193.62
450.65	9011.06
450.83	9392.57
451.02	8952.55
451.20	9200.65
451.39	9310.65
451.57	9212.35
451.76	9039.15
451.94	9331.72
452.13	9465.13
452.31	9401.93
452.49	9341.08
452.68	9500.23
452.86	9359.80
453.05	9455.76
453.23	9544.70
453.42	9516.62
453.60	9366.82
453.78	9617.26
453.97	9563.43
454.15	9495.55
454.34	9521.30
454.52	9790.46
454.70	9848.97
454.89	9738.97
455.07	9715.56
455.26	9762.37
455.44	10164.95
455.62	9916.85
455.81	9738.97
455.99	10031.54
456.17	10190.69
456.36	10202.40
456.54	10237.50
456.73	10352.19
456.91	10417.72
457.09	10494.96
457.28	10682.20
457.46	10389.64
457.64	10738.38
457.83	10862.43
458.01	10459.85
458.19	10719.65
458.38	10572.20
458.56	10904.56
458.74	10761.78
458.93	10799.23
459.11	10780.51
459.29	10719.65
459.48	11063.71
459.66	10764.12
459.84	10918.60
460.03	10970.09
460.21	10956.05
460.39	11126.91
460.57	11021.58
460.76	11220.53
460.94	11110.52
461.12	11276.70
461.31	11328.19
461.49	11080.10
461.67	11372.66
461.85	11494.37
462.04	11524.80
462.22	11564.59
462.40	11515.44
462.59	11609.06
462.77	11557.57
462.95	11627.78
463.13	11426.50
463.32	11548.20
463.50	11808.00
463.68	11702.68
463.86	11861.84
464.05	11789.28
464.23	11906.31
464.41	12210.57
464.59	11826.73
464.78	12210.57
464.96	12145.04
465.14	11833.75
465.32	12044.40
465.50	12470.37
465.69	12329.94
465.87	12156.74
466.05	12358.03
466.23	12306.54
466.41	12379.09
466.60	12465.69
466.78	12131.00
466.96	12285.47
467.14	12444.63
467.32	12301.86
467.51	12814.43
467.69	12273.77
467.87	12545.27
468.05	12758.26
468.23	12472.71
468.41	12706.77
468.60	12683.36
468.78	12741.88
468.96	12594.42
469.14	12964.23
469.32	13137.43
469.50	12718.47
469.69	13121.04
469.87	13226.37
470.05	13233.39
470.23	13233.39
470.41	13233.39
470.59	13439.36
470.77	13235.73
470.95	13355.10
471.14	13619.58
471.32	13308.29
471.50	13619.58
471.68	13593.83
471.86	13870.01
472.04	13703.84
472.22	13977.68
472.40	13549.36
472.58	13820.86
472.77	13811.50
472.95	14221.10
473.13	14499.62
473.31	14340.46
473.49	14384.93
473.67	14401.32
473.85	14209.39
474.03	14970.07
474.21	14738.35
474.39	14958.36
474.57	14677.50
474.75	14906.87
474.93	15026.24
475.12	14909.21
475.30	14815.59
475.48	15066.03
475.66	15253.27
475.84	15122.20
476.02	15157.31
476.20	15187.74
476.38	15803.30
476.56	16229.27
476.74	16095.86
476.92	15866.49
477.10	16046.71
477.28	16255.02
477.46	16095.86
477.64	16563.97
477.82	16795.68
478.00	16659.93
478.18	17170.17
478.36	17057.82
478.54	17326.99
478.72	17331.67
478.90	17310.60
479.08	17619.55
479.26	18075.96
479.44	17811.48
479.62	17991.70
479.80	18174.26
479.98	18162.56
480.16	18518.32
480.34	18302.99
480.52	18471.51
480.70	18602.58
480.88	18424.70
481.06	18757.05
481.24	18977.06
481.41	19161.97
481.59	19585.60
481.77	19384.32
481.95	19777.53
482.13	19913.28
482.31	19597.31
482.49	20638.84
482.67	20306.49
482.85	20428.20
483.03	20807.36
483.21	21048.44
483.39	21226.32
483.57	20683.31
483.74	21214.62
483.92	21394.84
484.10	21212.28
484.28	21975.29
484.46	22026.78
484.64	22546.38
484.82	22043.17
485.00	22422.33
485.18	22993.42
485.35	22831.93
485.53	22843.63
485.71	23246.20
485.89	23470.89
486.07	23618.35
486.25	23744.73
486.43	23828.99
486.61	24123.90
486.78	24196.46
486.96	24360.30
487.14	24929.05
487.32	24362.64
487.50	24964.15
487.68	25146.72
487.85	25425.24
488.03	25748.23
488.21	26314.64
488.39	26111.02
488.57	26239.75
488.75	26288.90
488.92	26572.10
489.10	27096.38
489.28	26969.99
489.46	27206.39
489.64	27480.23
489.81	27807.90
489.99	27845.35
490.17	28233.88
490.35	28004.51
490.53	28486.66
490.70	28741.78
490.88	28493.68
491.06	28865.83
491.24	29223.93
491.41	29167.76
491.59	29350.32
491.77	29450.96
491.95	29773.95
492.13	30204.61
492.30	29820.77
492.48	30181.21
492.66	30396.54
492.84	30476.12
493.01	31000.40
493.19	30796.77
493.37	31323.39
493.54	31402.97
493.72	31669.79
493.90	31417.01
494.08	31599.57
494.25	32299.39
494.43	32250.24
494.61	32547.49
494.79	33060.07
494.96	32804.95
495.14	32664.52
495.32	33336.25
495.49	32786.22
495.67	33373.70
495.85	33961.17
496.02	33839.47
496.20	34029.05
496.38	34153.10
496.55	34455.03
496.73	34794.40
496.91	34873.98
497.09	34932.50
497.26	34960.58
497.44	35124.42
497.62	35526.99
497.79	35880.41
497.97	35639.34
498.14	36084.04
498.32	36130.85
498.50	36561.51
498.67	36488.95
498.85	36868.12
499.03	37029.62
499.20	36964.08
499.38	37118.56
499.56	37455.59
499.73	37329.20
499.91	37483.68
500.08	37846.46
500.26	37446.23
500.44	37879.23
500.61	37708.37
500.79	38045.41
500.97	38403.51
501.14	38796.72
501.32	38918.43
501.49	38862.26
501.67	38754.59
501.84	39047.16
502.02	38857.57
502.20	39182.91
502.37	39599.52
502.55	39236.74
502.72	39739.96
502.90	39690.80
503.07	39435.69
503.25	39955.29
503.43	40142.53
503.60	39936.56
503.78	40409.35
503.95	40399.99
504.13	40533.40
504.30	40657.45
504.48	40891.50
504.65	41067.04
504.83	41408.76
505.01	41729.41
505.18	41607.70
505.36	42139.00
505.53	41605.36
505.71	41890.91
505.88	42007.94
506.06	41174.70
506.23	42082.83
506.41	42101.56
506.58	42363.70
506.76	42806.06
506.93	42579.03
507.11	42735.84
507.28	42670.31
507.46	42983.94
507.63	43405.23
507.81	43440.34
507.98	42986.28
508.16	43569.07
508.33	43241.40
508.50	43686.10
508.68	43704.82
508.85	44369.54
509.03	43992.71
509.20	44392.94
509.38	44570.82
509.55	44371.88
509.73	44313.36
509.90	44500.61
510.08	44800.19
510.25	44800.19
510.42	44683.17
510.60	45174.68
510.77	45619.38
510.95	45439.16
511.12	45069.36
511.30	45195.74
511.47	45638.11
511.64	46253.67
511.82	46061.74
511.99	45813.65
512.17	46246.65
512.34	45935.35
512.51	46731.14
512.69	46461.97
512.86	46569.64
513.04	46824.76
513.21	46546.23
513.38	46651.56
513.56	46911.36
513.73	47077.54
513.90	47208.61
514.08	46995.62
514.25	47229.67
514.43	47496.49
514.60	47760.97
514.77	47580.75
514.95	47899.06
515.12	47885.02
515.29	47859.27
515.47	48067.58
515.64	48329.72
515.81	48250.14
515.99	48516.96
516.16	48322.70
516.33	48561.44
516.51	48772.08
516.68	48669.10
516.85	48861.02
517.03	48851.66
517.20	49439.14
517.37	49312.75
517.54	49357.22
517.72	49099.76
517.89	49228.49
518.06	49556.16
518.24	49272.96
518.41	49453.18
518.58	49792.56
518.75	49542.12
518.93	49879.16
519.10	50007.89
519.27	49879.16
519.45	49682.55
519.62	50363.65
519.79	50092.15
519.96	49991.50
520.14	49982.14
520.31	50508.76
520.48	50380.03
520.65	50220.87
520.83	50904.31
521.00	50941.76
521.17	50911.33
521.34	50951.12
521.52	50913.67
521.69	51131.34
521.86	51341.99
522.03	51433.27
522.20	51702.43
522.38	51683.71
522.55	51662.64
522.72	51409.87
522.89	51550.30
523.07	52006.70
523.24	51892.02
523.41	51889.68
523.58	51550.30
523.75	52055.85
523.92	52034.79
524.10	52158.84
524.27	52149.48
524.44	52184.58
524.61	52203.31
524.78	52428.00
524.96	52140.11
525.13	52507.58
525.30	52507.58
525.47	52903.13
525.64	52444.38
525.81	52631.63
525.98	52804.83
526.16	52397.57
526.33	52898.45
526.50	53113.78
526.67	53221.44
526.84	53191.01
527.01	52818.87
527.18	53158.25
527.36	53141.86
527.53	53191.01
527.70	53457.84
527.87	53294.00
528.04	53165.27
528.21	53588.91
528.38	53652.10
528.55	53808.92
528.72	53586.57
528.89	53687.21
529.07	53551.46
529.24	53558.48
529.41	53937.65
529.58	53944.67
529.75	53532.73
529.92	53813.60
530.09	53961.05
530.26	54110.85
530.43	54162.34
530.60	54028.93
530.77	53909.56
530.94	54162.34
531.11	53862.75
531.28	54464.27
531.46	54284.04
531.63	54646.83
531.80	54237.23
531.97	54370.64
532.14	54684.28
532.31	54536.82
532.48	54607.04
532.65	54625.76
532.82	54438.52
532.99	54855.14
533.16	54852.80
533.33	55037.70
533.50	54979.18
533.67	54859.82
533.84	55105.57
534.01	55107.91
534.18	55253.03
534.35	55337.29
534.52	55292.82
534.69	55569.00
534.86	55257.71
535.03	55131.32
535.20	55133.66
535.37	55669.64
535.54	55484.74
535.71	55231.96
535.88	55599.43
536.05	55529.21
536.22	55730.50
536.38	55653.26
536.55	55641.56
536.72	55646.24
536.89	55688.37
537.06	55774.97
537.23	55812.41
537.40	55688.37
537.57	55955.19
537.74	55891.99
537.91	56163.50
538.08	56224.35
538.25	56072.21
538.42	56083.92
538.59	56009.02
538.75	56018.38
538.92	56280.52
539.09	56388.19
539.26	56214.99
539.43	56273.50
539.60	56320.31
539.77	56512.23
539.94	56474.79
540.11	56566.07
540.28	56584.79
540.44	56521.60
540.61	56594.15
540.78	56765.01
540.95	56570.75
541.12	56736.93
541.29	56715.86
541.46	56779.06
541.62	56992.04
541.79	56769.69
541.96	56406.91
542.13	56610.54
542.30	56741.61
542.47	56779.06
542.63	56970.98
542.80	56905.44
542.97	57123.11
543.14	57361.85
543.31	57319.72
543.48	57467.17
543.64	57745.70
543.81	57628.67
543.98	57549.09
544.15	57446.11
544.32	57656.76
544.48	57794.85
544.65	57396.96
544.82	57677.82
544.99	57687.18
545.16	57846.34
545.32	57371.21
545.49	57677.82
545.66	57932.94
545.83	58019.54
546.00	57951.66
546.16	57701.23
546.33	57785.49
546.50	57654.42
546.67	57939.96
546.83	57677.82
547.00	58040.60
547.17	57961.03
547.34	57799.53
547.50	58145.93
547.67	58166.99
547.84	57944.64
548.00	58145.93
548.17	58211.46
548.34	58342.53
548.51	58225.51
548.67	58347.21
548.84	58267.64
549.01	58372.96
549.18	58401.05
549.34	58468.92
549.51	58305.09
549.68	58312.11
549.84	58499.35
550.01	58541.48
550.18	58351.90
550.34	58501.69
550.51	58597.65
550.68	58560.20
550.84	58543.82
551.01	58541.48
551.18	58599.99
551.34	58649.14
551.51	58787.24
551.68	58567.23
551.84	58691.27
552.01	58602.33
552.18	58684.25
552.34	58812.98
552.51	58953.41
552.68	58812.98
552.84	58845.75
553.01	59262.36
553.18	58660.85
553.34	58871.49
553.51	59042.35
553.67	58899.58
553.84	59093.85
554.01	59346.62
554.17	59138.32
554.34	59185.13
554.51	59075.12
554.67	59243.64
554.84	59313.86
555.00	59086.82
555.17	59096.19
555.33	59119.59
555.50	59047.04
555.67	59281.09
555.83	59243.64
556.00	59355.99
556.16	59697.70
556.33	59341.94
556.50	59449.61
556.66	59604.08
556.83	59313.86
556.99	59536.21
557.16	59746.86
557.32	59707.07
557.49	59746.86
557.65	59430.88
557.82	59400.46
557.98	59660.26
558.15	59688.34
558.32	59756.22
558.48	59398.12
558.65	59643.87
558.81	59554.93
558.98	59604.08
559.14	59625.15
559.31	59554.93
559.47	59728.13
559.64	59943.46
559.80	59758.56
559.97	59929.42
560.13	59615.79
560.30	59784.30
560.46	59955.16
560.63	59976.23
560.79	59868.56
560.96	60252.41
561.12	59917.71
561.29	59735.15
561.45	59826.43
561.61	59969.21
561.78	59826.43
561.94	59723.45
562.11	59910.69
562.27	59929.42
562.44	60067.51
562.60	60081.55
562.77	60039.42
562.93	59915.37
563.10	60308.58
563.26	60154.11
563.42	60254.75
563.59	60285.18
563.75	60074.53
563.92	60062.83
564.08	60261.77
564.24	60324.97
564.41	60273.48
564.57	60238.37
564.74	60285.18
564.90	60193.90
565.07	60142.41
565.23	60247.73
565.39	60275.82
565.56	60214.96
565.72	60292.20
565.88	60184.54
566.05	60259.43
566.21	60109.64
566.38	60451.36
566.54	60449.02
566.70	60395.18
566.87	60423.27
567.03	60217.30
567.19	60544.98
567.36	60434.97
567.52	60357.74
567.68	60615.19
567.85	60582.43
568.01	60734.56
568.17	60561.36
568.34	60530.93
568.50	60664.35
568.66	60294.54
568.83	60589.45
568.99	60371.78
569.15	60491.15
569.32	60484.12
569.48	60582.43
569.64	60673.71
569.81	60559.02
569.97	60444.33
570.13	60704.13
570.30	60598.81
570.46	60821.16
570.62	60830.52
570.78	60786.05
570.95	60491.15
571.11	61006.06
571.27	60502.85
571.43	60711.16
571.60	60708.82
571.76	60748.60
571.92	60769.67
572.09	60654.98
572.25	60708.82
572.41	60659.66
572.57	60552.00
572.74	60896.06
572.90	60575.40
573.06	60856.27
573.22	60645.62
573.38	60814.14
573.55	60842.23
573.71	60935.85
573.87	60800.10
574.03	60722.86
574.20	60673.71
574.36	60750.94
574.52	60914.78
574.68	60811.80
574.84	60982.66
575.01	60750.94
575.17	60795.42
575.33	60800.10
575.49	60772.01
575.65	60872.65
575.82	60963.93
575.98	60807.12
576.14	60973.30
576.30	60863.29
576.46	60919.46
576.62	60849.25
576.79	60690.09
576.95	60832.86
577.11	60882.02
577.27	60905.42
577.43	60985.00
577.59	60942.87
577.75	60945.21
577.92	60919.46
578.08	60940.53
578.24	61022.45
578.40	61097.34
578.56	61104.37
578.72	61080.96
578.88	61076.28
579.04	61151.18
579.21	60973.30
579.37	61240.12
579.53	61226.07
579.69	60879.67
579.85	60879.67
580.01	60891.38
580.17	60938.19
580.33	61169.90
580.49	61080.96
580.65	61057.56
580.82	60860.95
580.98	61020.11
581.14	60989.68
581.30	61256.50
581.46	61151.18
581.62	61214.37
581.78	60961.59
581.94	61057.56
582.10	61015.43
582.26	61141.81
582.42	60931.17
582.58	60886.70
582.74	61038.83
582.90	61071.60
583.06	60933.51
583.22	61027.13
583.38	60924.14
583.54	61095.00
583.70	61188.63
583.86	60992.02
584.02	60844.57
584.18	61059.90
584.34	61181.60
584.50	61003.72
584.66	61109.05
584.82	60903.08
584.98	61303.31
585.14	61228.41
585.30	60985.00
585.46	61207.35
585.62	61130.11
585.78	61368.85
585.94	60856.27
586.10	61141.81
586.26	61144.16
586.42	61279.91
586.58	61104.37
586.74	61116.07
586.90	61085.64
587.06	61169.90
587.22	61270.54
587.38	61066.92
587.54	61190.97
587.70	61317.35
587.86	61116.07
588.02	61296.29
588.18	61326.72
588.34	60931.17
588.49	61221.39
