SpectraSuite Data File
++++++++++++++++++++++++++++++++++++
Date: Fri Oct 25 10:44:12 EDT 2013
User: price-jones
Dark Spectrum Present: No
Reference Spectrum Present: No
Number of Sampled Component Spectra: 1
Spectrometers: USB2+H05261
Integration Time (usec): 100000 (USB2+H05261)
Spectra Averaged: 1 (USB2+H05261)
Boxcar Smoothing: 0 (USB2+H05261)
Correct for Electrical Dark: No (USB2+H05261)
Strobe/Lamp Enabled: No (USB2+H05261)
Correct for Detector Non-linearity: No (USB2+H05261)
Correct for Stray Light: No (USB2+H05261)
Number of Pixels in Processed Spectrum: 2048
>>>>>Begin Processed Spectral Data<<<<<
365.73	102.98
365.92	102.98
366.12	102.98
366.32	14.04
366.52	35.11
366.72	42.13
366.91	72.56
367.11	0.00
367.31	0.00
367.51	18.72
367.70	95.96
367.90	37.45
368.10	0.00
368.30	30.43
368.49	46.81
368.69	65.54
368.89	53.83
369.09	4.68
369.28	44.47
369.48	39.79
369.68	121.71
369.87	88.94
370.07	117.03
370.27	140.43
370.47	112.35
370.66	386.19
370.86	388.53
371.06	533.64
371.25	514.92
371.45	512.58
371.65	491.51
371.84	428.32
372.04	475.13
372.24	491.51
372.44	538.32
372.63	587.47
372.83	533.64
373.03	465.77
373.22	496.19
373.42	521.94
373.62	404.91
373.81	540.66
374.01	519.60
374.21	578.11
374.40	547.69
374.60	601.52
374.79	561.73
374.99	540.66
375.19	580.45
375.38	571.09
375.58	711.52
375.78	575.77
375.97	580.45
376.17	643.65
376.37	608.54
376.56	622.58
376.76	631.94
376.95	571.09
377.15	648.33
377.35	636.63
377.54	645.99
377.74	669.39
377.93	690.46
378.13	732.59
378.33	660.03
378.52	596.84
378.72	681.10
378.91	685.78
379.11	624.92
379.31	678.76
379.50	559.39
379.70	641.31
379.89	697.48
380.09	648.33
380.28	713.86
380.48	669.39
380.68	685.78
380.87	671.73
381.07	699.82
381.26	835.57
381.46	713.86
381.65	716.20
381.85	690.46
382.04	681.10
382.24	711.52
382.43	704.50
382.63	755.99
382.83	734.93
383.02	713.86
383.22	791.10
383.41	718.54
383.61	723.23
383.80	767.70
384.00	812.17
384.19	711.52
384.39	723.23
384.58	669.39
384.78	800.46
384.97	830.89
385.17	833.23
385.36	842.59
385.56	784.08
385.75	791.10
385.95	793.44
386.14	807.48
386.34	933.87
386.53	866.00
386.72	814.51
386.92	910.47
387.11	912.81
387.31	887.06
387.50	760.67
387.70	840.25
387.89	875.36
388.09	816.85
388.28	847.27
388.48	910.47
388.67	926.85
388.86	870.68
389.06	858.98
389.25	1001.75
389.45	1001.75
389.64	905.79
389.84	924.51
390.03	1015.79
390.22	1046.22
390.42	997.07
390.61	1015.79
390.81	910.47
391.00	1018.13
391.19	1088.35
391.39	1149.20
391.58	1097.71
391.78	1036.86
391.97	1076.65
392.16	1102.39
392.36	1093.03
392.55	1029.84
392.75	971.32
392.94	980.68
393.13	1069.62
393.33	1076.65
393.52	1048.56
393.71	1095.37
393.91	1039.20
394.10	1107.07
394.29	1146.86
394.49	1228.78
394.68	1245.16
394.88	1270.91
395.07	1320.06
395.26	1160.91
395.46	1289.64
395.65	1207.72
395.84	1114.10
396.04	1254.53
396.23	1146.86
396.42	1219.42
396.62	1163.25
396.81	1214.74
397.00	1263.89
397.19	1231.12
397.39	1294.32
397.58	1331.76
397.77	1373.89
397.97	1390.28
398.16	1327.08
398.35	1437.09
398.55	1549.43
398.74	1432.41
398.93	1511.99
399.12	1507.30
399.32	1528.37
399.51	1460.49
399.70	1640.72
399.90	1507.30
400.09	1474.54
400.28	1547.09
400.47	1511.99
400.67	1640.72
400.86	1551.78
401.05	1715.61
401.24	1713.27
401.44	1776.47
401.63	1706.25
401.82	1673.48
402.01	1593.90
402.21	1664.12
402.40	1781.15
402.59	1741.36
402.78	1750.72
402.97	1624.33
403.17	1767.10
403.36	1750.72
403.55	1755.40
403.74	1816.26
403.93	1825.62
404.13	1823.28
404.32	1771.79
404.51	1799.87
404.70	1919.24
404.89	1879.45
405.09	1940.30
405.28	1937.96
405.47	1977.75
405.66	1961.37
405.85	1982.43
406.05	1942.64
406.24	2015.20
406.43	1984.77
406.62	2033.93
406.81	2150.95
407.00	2071.37
407.20	2062.01
407.39	1996.48
407.58	2193.08
407.77	2104.14
407.96	2188.40
408.15	2153.29
408.34	2150.95
408.54	2218.83
408.73	2221.17
408.92	2244.57
409.11	2200.10
409.30	2267.98
409.49	2183.72
409.68	2270.32
409.87	2265.64
410.07	2235.21
410.26	2342.88
410.45	2441.18
410.64	2284.36
410.83	2420.11
411.02	2614.38
411.21	2511.39
411.40	2595.65
411.59	2693.96
411.78	2609.70
411.98	2504.37
412.17	2661.19
412.36	2623.74
412.55	2647.15
412.74	2675.23
412.93	2736.09
413.12	2717.36
413.31	2850.77
413.50	2644.81
413.69	2780.56
413.88	2963.12
414.07	2885.88
414.26	2855.45
414.45	2972.48
414.64	2946.73
414.83	2928.01
415.02	3098.87
415.22	3101.21
415.41	3110.57
415.60	3002.91
415.79	3080.14
415.98	3204.19
416.17	3248.66
416.36	3199.51
416.55	3194.83
416.74	3307.18
416.93	3349.31
417.12	3286.11
417.31	3241.64
417.50	3272.07
417.69	3438.25
417.88	3365.69
418.07	3527.19
418.26	3361.01
418.45	3522.51
418.64	3527.19
418.83	3606.77
419.02	3588.04
419.21	3583.36
419.39	3541.23
419.58	3363.35
419.77	3602.08
419.96	3529.53
420.15	3679.32
420.34	3627.83
420.53	3796.35
420.72	3756.56
420.91	3751.88
421.10	3730.81
421.29	3857.20
421.48	3808.05
421.67	3943.80
421.86	3805.71
422.05	3756.56
422.24	3698.05
422.43	3840.82
422.61	3974.23
422.80	3857.20
422.99	3971.89
423.18	3948.48
423.37	3927.42
423.56	4039.76
423.75	3843.16
423.94	3815.07
424.13	3651.24
424.32	3779.97
424.50	3913.38
424.69	3894.65
424.88	4058.49
425.07	3922.74
425.26	3831.46
425.45	3918.06
425.64	3920.40
425.83	3859.54
426.01	3988.27
426.20	4065.51
426.39	4032.74
426.58	4032.74
426.77	3894.65
426.96	4035.08
427.15	3892.31
427.33	3955.51
427.52	4173.18
427.71	4117.00
427.90	4196.58
428.09	4180.20
428.28	4067.85
428.46	4095.94
428.65	4168.49
428.84	4348.72
429.03	4210.62
429.22	4102.96
429.40	4053.81
429.59	4091.26
429.78	4056.15
429.97	3904.01
430.16	4114.66
430.34	4243.39
430.53	4313.61
430.72	4278.50
430.91	4276.16
431.10	4248.07
431.28	4451.70
431.47	4564.04
431.66	4643.62
431.85	4594.47
432.03	4535.96
432.22	4550.00
432.41	4664.69
432.60	4681.07
432.79	4889.38
432.97	4835.55
433.16	4751.29
433.35	4711.50
433.54	4793.42
433.72	4697.46
433.91	4627.24
434.10	4744.27
434.28	4781.71
434.47	4758.31
434.66	4779.37
434.85	4990.02
435.03	5081.30
435.22	4898.74
435.41	5107.05
435.59	5132.79
435.78	5074.28
435.97	4945.55
436.16	5144.50
436.34	5247.48
436.53	5076.62
436.72	5275.57
436.90	5121.09
437.09	5203.01
437.28	5020.45
437.46	5020.45
437.65	5207.69
437.84	5158.54
438.02	5125.77
438.21	5280.25
438.40	5071.94
438.58	5394.93
438.77	5387.91
438.96	5455.79
439.14	5341.10
439.33	5427.70
439.52	5495.58
439.70	5596.22
439.89	5593.88
440.08	5643.03
440.26	5495.58
440.45	5755.38
440.63	5884.11
440.82	6008.16
441.01	5916.87
441.19	5987.09
441.38	5947.30
441.57	6026.88
441.75	6073.69
441.94	6176.67
442.12	6190.72
442.31	6361.58
442.50	6197.74
442.68	6312.42
442.87	6277.32
443.05	6277.32
443.24	6464.56
443.43	6544.14
443.61	6331.15
443.80	6525.41
443.98	6310.08
444.17	6258.59
444.35	6408.39
444.54	6590.95
444.73	6370.94
444.91	6476.26
445.10	6387.32
445.28	6450.52
445.47	6370.94
445.65	6267.95
445.84	6438.81
446.02	6562.86
446.21	6457.54
446.39	6469.24
446.58	6579.25
446.77	6705.63
446.95	6581.59
447.14	6572.22
447.32	6761.81
447.51	6672.87
447.69	6682.23
447.88	6569.88
448.06	6796.92
448.25	6705.63
448.43	6820.32
448.62	6670.53
448.80	6733.72
448.99	6806.28
449.17	6937.35
449.36	6757.13
449.54	6787.55
449.73	6923.30
449.91	7307.15
450.10	7089.48
450.28	7197.15
450.46	7080.12
450.65	7248.64
450.83	7265.02
451.02	7054.37
451.20	7204.17
451.39	7096.50
451.57	7030.97
451.76	7045.01
451.94	7016.93
452.13	7248.64
452.31	7105.87
452.49	7091.82
452.68	7265.02
452.86	7171.40
453.05	7239.28
453.23	7258.00
453.42	7105.87
453.60	7424.18
453.78	7417.16
453.97	7403.11
454.15	7243.96
454.34	7487.37
454.52	7581.00
454.70	7581.00
454.89	7332.90
455.07	7726.11
455.26	7513.12
455.44	7808.03
455.62	7735.47
455.81	7765.90
455.99	7681.64
456.17	7793.98
456.36	8056.12
456.54	7896.97
456.73	7936.76
456.91	8140.38
457.09	8112.30
457.28	8306.56
457.46	7967.18
457.64	8266.77
457.83	7915.69
458.01	7992.93
458.19	8329.97
458.38	8262.09
458.56	8292.52
458.74	8187.19
458.93	8121.66
459.11	8138.04
459.29	8334.65
459.48	8231.66
459.66	8226.98
459.84	8351.03
460.03	8491.46
460.21	8547.64
460.39	8521.89
460.57	8404.86
460.76	8524.23
460.94	8557.00
461.12	8400.18
461.31	8503.17
461.49	8512.53
461.67	8409.54
461.85	8643.60
462.04	8627.21
462.22	8978.30
462.40	8751.26
462.59	8908.08
462.77	8999.36
462.95	8762.97
463.13	9022.77
463.32	8793.39
463.50	9004.04
463.68	8861.27
463.86	8844.88
464.05	8901.06
464.23	8992.34
464.41	9188.94
464.59	8826.16
464.78	9214.69
464.96	9188.94
465.14	8985.32
465.32	9135.11
465.50	9188.94
465.69	9107.02
465.87	9104.68
466.05	9156.18
466.23	9111.71
466.41	9198.31
466.60	9238.09
466.78	9221.71
466.96	9198.31
467.14	9282.56
467.32	9214.69
467.51	9415.98
467.69	9177.24
467.87	9254.48
468.05	9645.35
468.23	9366.82
468.41	9525.98
468.60	9652.37
468.78	9554.07
468.96	9600.88
469.14	9975.36
469.32	9753.01
469.50	9547.05
469.69	9839.61
469.87	9682.80
470.05	9788.12
470.23	9781.10
470.41	9753.01
470.59	9795.14
470.77	9940.26
470.95	9841.95
471.14	10239.84
471.32	9860.68
471.50	10104.09
471.68	10296.02
471.86	10296.02
472.04	10401.34
472.22	10417.72
472.40	10298.36
472.58	10223.46
472.77	10471.56
472.95	10480.92
473.13	10677.52
473.31	10455.17
473.49	10258.57
473.67	10544.11
473.85	10501.98
474.03	10883.49
474.21	10860.09
474.39	11009.88
474.57	10806.25
474.75	11005.20
474.93	11173.72
475.12	11178.40
475.30	11234.57
475.48	10972.43
475.66	11255.64
475.84	11143.29
476.02	11370.32
476.20	11351.60
476.38	11438.20
476.56	11822.05
476.74	11641.82
476.92	11782.26
477.10	12046.74
477.28	12056.10
477.46	12002.27
477.64	12383.77
477.82	12379.09
478.00	12819.11
478.18	12432.93
478.36	12425.90
478.54	12592.08
478.72	12655.28
478.90	12814.43
479.08	13095.30
479.26	13165.51
479.44	13015.72
479.62	13095.30
479.80	13104.66
479.98	13018.06
480.16	13518.93
480.34	13474.46
480.52	13727.24
480.70	13741.29
480.88	13724.90
481.06	13750.65
481.24	13975.34
481.41	14286.63
481.59	14480.89
481.77	14516.00
481.95	14230.46
482.13	14377.91
482.31	14572.18
482.49	14773.46
482.67	15194.76
482.85	15016.88
483.03	15136.24
483.21	15487.32
483.39	15468.60
483.57	15311.78
483.74	15517.75
483.92	15468.60
484.10	15325.83
484.28	16051.39
484.46	15995.22
484.64	16418.86
484.82	16070.12
485.00	16140.33
485.18	16381.41
485.35	16393.11
485.53	16114.59
485.71	16086.50
485.89	16297.15
486.07	16276.09
486.25	16788.66
486.43	16699.72
486.61	16938.46
486.78	17205.28
486.96	17170.17
487.14	17783.39
487.32	17486.14
487.50	17937.87
487.68	17907.44
487.85	18314.69
488.03	18363.84
488.21	18761.73
488.39	18366.18
488.57	18583.85
488.75	18504.28
488.92	19176.01
489.10	19330.48
489.28	19421.77
489.46	19674.54
489.64	19623.05
489.81	20173.08
489.99	20269.04
490.17	20245.63
490.35	20467.98
490.53	20123.93
490.70	20208.19
490.88	20362.66
491.06	20790.98
491.24	20725.44
491.41	20601.40
491.59	20835.45
491.77	20528.84
491.95	21001.63
492.13	21303.56
492.30	21184.19
492.48	21668.68
492.66	21813.79
492.84	21731.87
493.01	22214.02
493.19	22075.93
493.37	22375.52
493.54	22129.77
493.72	22483.19
493.90	22251.47
494.08	22668.09
494.25	22850.65
494.43	23307.05
494.61	23133.86
494.79	23578.56
494.96	23161.94
495.14	23288.33
495.32	23737.71
495.49	23363.23
495.67	23943.68
495.85	24077.09
496.02	24187.10
496.20	24393.06
496.38	24187.10
496.55	24584.99
496.73	24702.01
496.91	24669.25
497.09	25001.60
497.26	24868.19
497.44	24931.39
497.62	25226.29
497.79	25315.23
497.97	25298.85
498.14	25310.55
498.32	25521.20
498.50	25773.98
498.67	26244.43
498.85	25610.14
499.03	26125.06
499.20	26539.33
499.38	26185.91
499.56	26073.57
499.73	26469.12
499.91	26441.03
500.08	26630.62
500.26	26497.20
500.44	26656.36
500.61	26806.16
500.79	26525.29
500.97	26960.63
501.14	27302.35
501.32	27323.41
501.49	26991.06
501.67	27021.48
501.84	27047.23
502.02	27477.89
502.20	27983.44
502.37	27761.09
502.55	27908.55
502.72	27812.59
502.90	27999.83
503.07	27814.93
503.25	28376.66
503.43	27971.74
503.60	28313.46
503.78	27908.55
503.95	28151.96
504.13	28587.30
504.30	28765.18
504.48	28510.07
504.65	29022.64
504.83	29149.03
505.01	29062.43
505.18	29071.79
505.36	29369.04
505.53	29598.41
505.71	30122.69
505.88	29539.90
506.06	29804.38
506.23	29280.10
506.41	29535.22
506.58	29750.55
506.76	29771.61
506.93	30008.01
507.11	29790.34
507.28	29954.18
507.46	30092.27
507.63	29830.13
507.81	30221.00
507.98	30057.16
508.16	30342.70
508.33	30735.92
508.50	30995.71
508.68	30759.32
508.85	30771.02
509.03	30541.65
509.20	30939.54
509.38	31384.24
509.55	31110.40
509.73	31587.87
509.90	31007.42
510.08	31433.39
510.25	31604.25
510.42	31548.08
510.60	31555.10
510.77	31742.35
510.95	32088.74
511.12	31667.45
511.30	32053.64
511.47	32526.42
511.64	32329.82
511.82	32477.27
511.99	32395.35
512.17	32353.23
512.34	32165.98
512.51	32863.46
512.69	32591.96
512.86	32591.96
513.04	32938.36
513.21	32767.50
513.38	32940.70
513.56	32755.80
513.73	32910.27
513.90	33092.83
514.08	32987.51
514.25	33156.03
514.43	32872.82
514.60	33544.56
514.77	33305.82
514.95	33748.18
515.12	33207.52
515.29	33654.56
515.47	33947.13
515.64	33949.47
515.81	33710.74
515.99	33766.91
516.16	33916.70
516.33	33582.01
516.51	33607.75
516.68	33251.99
516.85	33584.35
517.03	33560.94
517.20	34150.76
517.37	34110.97
517.54	34398.85
517.72	34012.66
517.89	34075.86
518.06	33771.59
518.24	33846.49
518.41	34064.16
518.58	34700.78
518.75	34478.43
518.93	34897.39
519.10	34389.49
519.27	34948.88
519.45	34923.13
519.62	35271.87
519.79	35234.42
519.96	35171.23
520.14	35709.55
520.31	35405.28
520.48	35585.50
520.65	35655.72
520.83	35695.51
521.00	35959.99
521.17	35775.09
521.34	36098.08
521.52	35744.66
521.69	36484.27
521.86	36458.52
522.03	36524.06
522.20	36531.08
522.38	36233.83
522.55	36694.92
522.72	36467.89
522.89	36535.76
523.07	36781.52
523.24	36299.37
523.41	37263.67
523.58	36692.58
523.75	37310.48
523.92	36825.99
524.10	37275.37
524.27	37291.76
524.44	37268.35
524.61	37184.09
524.78	37340.91
524.96	37261.33
525.13	37762.20
525.30	37647.52
525.47	37937.74
525.64	37785.61
525.81	37266.01
525.98	37069.40
526.16	37713.05
526.33	37605.39
526.50	37776.25
526.67	37504.74
526.84	37340.91
527.01	37242.60
527.18	38080.52
527.36	38197.54
527.53	37872.21
527.70	38642.24
527.87	38553.30
528.04	38583.73
528.21	38401.17
528.38	38417.55
528.55	38499.47
528.72	38796.72
528.89	39335.04
529.07	38974.60
529.24	38621.18
529.41	38822.47
529.58	39012.05
529.75	38799.06
529.92	39274.19
530.09	39302.28
530.26	38998.01
530.43	39105.67
530.60	39150.14
530.77	38969.92
530.94	39168.87
531.11	39597.18
531.28	39363.13
531.46	39643.99
531.63	39709.53
531.80	39845.28
531.97	39681.44
532.14	39384.19
532.31	39047.16
532.48	39665.06
532.65	39590.16
532.82	39552.71
532.99	39913.16
533.16	39786.77
533.33	40006.78
533.50	40458.50
533.67	40311.05
533.84	40378.92
534.01	39976.35
534.18	40133.17
534.35	40084.01
534.52	40076.99
534.69	40460.84
534.86	40446.80
535.03	40526.38
535.20	40996.82
535.37	40610.64
535.54	41088.10
535.71	40830.65
535.88	40620.00
536.05	40624.68
536.22	40882.14
536.38	40931.29
536.55	40655.11
536.72	40840.01
536.89	40830.65
537.06	40856.39
537.23	40814.26
537.40	41153.64
537.57	40982.78
537.74	40746.39
537.91	41308.11
538.08	40854.05
538.25	41172.36
538.42	41184.07
538.59	41104.49
538.75	40840.01
538.92	41282.37
539.09	41450.89
539.26	41401.74
539.43	41471.95
539.60	41654.51
539.77	40872.78
539.94	41549.19
540.11	41612.38
540.28	41457.91
540.44	41207.47
540.61	41441.53
540.78	41256.62
540.95	41378.33
541.12	41235.56
541.29	41649.83
541.46	41935.38
541.62	41755.16
541.79	42211.56
541.96	41528.13
542.13	41710.69
542.30	41748.14
542.47	41893.25
542.63	41851.12
542.80	42178.79
542.97	42440.93
543.14	42801.38
543.31	42787.33
543.48	42522.85
543.64	43019.05
543.81	42717.12
543.98	42899.68
544.15	42649.24
544.32	42717.12
544.48	43374.81
544.65	43075.22
544.82	43035.43
544.99	42862.23
545.16	43105.65
545.32	43208.63
545.49	43524.60
545.66	43459.07
545.83	42965.21
546.00	43182.88
546.16	42841.17
546.33	43164.16
546.50	43112.67
546.67	43536.30
546.83	43009.68
547.00	43222.67
547.17	43372.47
547.34	43454.39
547.50	43304.59
547.67	43906.11
547.84	43409.92
548.00	43669.72
548.17	43803.13
548.34	43824.19
548.51	44327.41
548.67	43957.60
548.84	43468.43
549.01	43660.35
549.18	43948.24
549.34	43831.21
549.51	44004.41
549.68	43938.88
549.84	44100.37
550.01	44233.78
550.18	44091.01
550.34	44039.52
550.51	44109.74
550.68	43966.96
550.84	43814.83
551.01	44264.21
551.18	44079.31
551.34	44259.53
551.51	43920.15
551.68	44399.96
551.84	44430.39
552.01	44182.29
552.18	44271.23
552.34	43859.30
552.51	44762.75
552.68	44229.10
552.84	44458.48
553.01	44622.31
553.18	44229.10
553.34	43854.62
553.51	44203.36
553.67	44505.29
553.84	45123.19
554.01	44942.97
554.17	44615.29
554.34	44793.17
554.51	44402.30
554.67	44837.64
554.84	44940.63
555.00	44825.94
555.17	44559.12
555.33	44875.09
555.50	44919.56
555.67	44921.90
555.83	44563.80
556.00	45345.54
556.16	45097.44
556.33	44641.04
556.50	44928.92
556.66	44879.77
556.83	44542.74
556.99	45205.11
557.16	45202.77
557.32	45006.16
557.49	45642.79
557.65	44676.15
557.82	44893.82
557.98	45223.83
558.15	44758.06
558.32	44783.81
558.48	44634.02
558.65	45579.59
558.81	45427.46
558.98	45104.46
559.14	45104.46
559.31	45057.65
559.47	45635.77
559.64	45326.81
559.80	45635.77
559.97	45432.14
560.13	45298.73
560.30	45172.34
560.46	45406.39
560.63	45783.22
560.79	45317.45
560.96	45593.64
561.12	45654.49
561.29	45500.01
561.45	45258.94
561.61	45345.54
561.78	45317.45
561.94	45509.38
562.11	45656.83
562.27	45666.19
562.44	45221.49
562.60	45834.71
562.77	45722.37
562.93	45720.02
563.10	45872.16
563.26	45420.44
563.42	45439.16
563.59	45495.33
563.75	45776.20
563.92	45659.17
564.08	45930.67
564.24	45902.59
564.41	45956.42
564.57	45514.06
564.74	45549.17
564.90	45872.16
565.07	45918.97
565.23	45696.62
565.39	45413.41
565.56	45755.13
565.72	45305.75
565.88	45659.17
566.05	45368.94
566.21	45771.52
566.38	45617.04
566.54	45867.48
566.70	45846.41
566.87	45886.20
567.03	45663.85
567.19	46256.01
567.36	46136.64
567.52	45593.64
567.68	45705.98
567.85	46087.49
568.01	46251.33
568.17	45963.44
568.34	46003.23
568.50	46192.81
568.66	45790.24
568.83	45881.52
568.99	45343.20
569.15	45874.50
569.32	45881.52
569.48	45537.46
569.64	45687.26
569.81	46316.86
569.97	46045.36
570.13	46136.64
570.30	46045.36
570.46	45553.85
570.62	45645.13
570.78	46036.00
570.95	45422.78
571.11	45869.82
571.27	45614.70
571.43	46017.27
571.60	45897.91
571.76	46075.79
571.92	46096.85
572.09	46293.46
572.25	46176.43
572.41	46218.56
572.57	46052.38
572.74	46375.37
572.90	46279.41
573.06	46731.14
573.22	46066.42
573.38	46583.68
573.55	46164.73
573.71	46333.24
573.87	46141.32
574.03	46326.22
574.20	45759.81
574.36	46169.41
574.52	46190.47
574.68	46127.28
574.84	46026.63
575.01	46057.06
575.17	45851.09
575.33	46007.91
575.49	45911.95
575.65	46206.86
575.82	46426.87
575.98	46141.32
576.14	46286.43
576.30	46234.94
576.46	46127.28
576.62	45872.16
576.79	46059.40
576.95	45811.31
577.11	46183.45
577.27	46171.75
577.43	45825.35
577.59	45771.52
577.75	45998.55
577.92	45603.00
578.08	45705.98
578.24	46019.61
578.40	45975.14
578.56	46361.33
578.72	46225.58
578.88	46277.07
579.04	46354.31
579.21	45900.25
579.37	46199.83
579.53	46309.84
579.69	46124.94
579.85	46047.70
580.01	46017.27
580.17	46380.06
580.33	46085.15
580.49	46326.22
580.65	46026.63
580.82	46410.48
580.98	45698.96
581.14	46176.43
581.30	46232.60
581.46	46534.53
581.62	46256.01
581.78	46216.22
581.94	46426.87
582.10	46347.29
582.26	46092.17
582.42	46094.51
582.58	46143.66
582.74	46387.08
582.90	46457.29
583.06	46712.41
583.22	46387.08
583.38	46476.02
583.54	46483.04
583.70	46550.91
583.86	46213.88
584.02	46054.72
584.18	46670.28
584.34	46209.20
584.50	46649.22
584.66	46396.44
584.82	45947.06
584.98	46672.62
585.14	46279.41
585.30	46436.23
585.46	46511.13
585.62	46155.36
585.78	46291.12
585.94	45624.06
586.10	46234.94
586.26	46506.44
586.42	46405.80
586.58	46335.59
586.74	46712.41
586.90	46031.32
587.06	46630.49
587.22	46199.83
587.38	46054.72
587.54	46670.28
587.70	46747.52
587.86	46461.97
588.02	46808.37
588.18	46401.12
588.34	46373.03
588.49	45991.53
588.65	45471.93
588.81	45521.08
588.97	46167.07
589.13	45654.49
589.29	45937.69
589.45	45827.69
589.61	46197.49
589.77	46564.96
589.93	46256.01
