SpectraSuite Data File
++++++++++++++++++++++++++++++++++++
Date: Fri Oct 25 11:23:07 EDT 2013
User: price-jones
Dark Spectrum Present: No
Reference Spectrum Present: No
Number of Sampled Component Spectra: 1
Spectrometers: USB2+H05261
Integration Time (usec): 100000 (USB2+H05261)
Spectra Averaged: 1 (USB2+H05261)
Boxcar Smoothing: 0 (USB2+H05261)
Correct for Electrical Dark: No (USB2+H05261)
Strobe/Lamp Enabled: No (USB2+H05261)
Correct for Detector Non-linearity: No (USB2+H05261)
Correct for Stray Light: No (USB2+H05261)
Number of Pixels in Processed Spectrum: 2048
>>>>>Begin Processed Spectral Data<<<<<
365.73	187.24
365.92	187.24
366.12	187.24
366.32	168.52
366.52	147.45
366.72	227.03
366.91	163.84
367.11	149.79
367.31	86.60
367.51	79.58
367.70	72.56
367.90	110.01
368.10	128.73
368.30	124.05
368.49	229.37
368.69	112.35
368.89	147.45
369.09	138.09
369.28	154.48
369.48	194.26
369.68	189.58
369.87	236.39
370.07	166.18
370.27	250.44
370.47	280.86
370.66	571.09
370.86	676.41
371.06	669.39
371.25	725.57
371.45	779.40
371.65	727.91
371.84	636.63
372.04	692.80
372.24	716.20
372.44	690.46
372.63	737.27
372.83	739.61
373.03	816.85
373.22	739.61
373.42	823.87
373.62	835.57
373.81	821.53
374.01	875.36
374.21	840.25
374.40	812.17
374.60	861.32
374.79	821.53
374.99	767.70
375.19	777.06
375.38	861.32
375.58	877.70
375.78	814.51
375.97	849.61
376.17	980.68
376.37	847.27
376.56	849.61
376.76	812.17
376.95	844.93
377.15	875.36
377.35	929.19
377.54	877.70
377.74	795.78
377.93	903.45
378.13	905.79
378.33	915.15
378.52	870.68
378.72	1036.86
378.91	966.64
379.11	896.43
379.31	1011.11
379.50	950.26
379.70	887.06
379.89	997.07
380.09	933.87
380.28	945.58
380.48	959.62
380.68	1001.75
380.87	987.71
381.07	1039.20
381.26	1034.52
381.46	992.39
381.65	1039.20
381.85	1015.79
382.04	1001.75
382.24	1118.78
382.43	999.41
382.63	985.37
382.83	994.73
383.02	1125.80
383.22	1156.22
383.41	1069.62
383.61	1034.52
383.80	1167.93
384.00	1132.82
384.19	1104.73
384.39	1205.38
384.58	1130.48
384.78	1123.46
384.97	1167.93
385.17	1153.88
385.36	1116.44
385.56	1231.12
385.75	1128.14
385.95	1139.84
386.14	1184.31
386.34	1235.80
386.53	1224.10
386.72	1256.87
386.92	1270.91
387.11	1320.06
387.31	1277.93
387.50	1294.32
387.70	1240.48
387.89	1331.76
388.09	1273.25
388.28	1296.66
388.48	1261.55
388.67	1390.28
388.86	1378.58
389.06	1275.59
389.25	1341.13
389.45	1380.92
389.64	1284.95
389.84	1345.81
390.03	1416.02
390.22	1364.53
390.42	1399.64
390.61	1411.34
390.81	1399.64
391.00	1350.49
391.19	1427.73
391.39	1460.49
391.58	1542.41
391.78	1451.13
391.97	1535.39
392.16	1598.59
392.36	1434.75
392.55	1547.09
392.75	1547.09
392.94	1565.82
393.13	1549.43
393.33	1598.59
393.52	1521.35
393.71	1497.94
393.91	1610.29
394.10	1565.82
394.29	1603.27
394.49	1526.03
394.68	1732.00
394.88	1668.80
395.07	1614.97
395.26	1710.93
395.46	1645.40
395.65	1760.08
395.84	1788.17
396.04	1769.44
396.23	1703.91
396.42	1717.95
396.62	1760.08
396.81	1729.66
397.00	1802.21
397.19	1739.02
397.39	1823.28
397.58	1825.62
397.77	1797.53
397.97	1844.34
398.16	1860.73
398.35	1813.92
398.55	1870.09
398.74	2038.61
398.93	1977.75
399.12	1909.88
399.32	1914.56
399.51	1923.92
399.70	2015.20
399.90	1884.13
400.09	1977.75
400.28	2122.87
400.47	2092.44
400.67	2111.16
400.86	2087.76
401.05	2129.89
401.24	2113.50
401.44	2141.59
401.63	2106.48
401.82	2188.40
402.01	2141.59
402.21	2134.57
402.40	2193.08
402.59	2176.70
402.78	2291.38
402.97	2242.23
403.17	2289.04
403.36	2153.29
403.55	2305.43
403.74	2373.30
403.93	2431.82
404.13	2331.17
404.32	2385.01
404.51	2387.35
404.70	2457.56
404.89	2394.37
405.09	2466.92
405.28	2602.68
405.47	2424.80
405.66	2537.14
405.85	2359.26
406.05	2649.49
406.24	2593.31
406.43	2647.15
406.62	2668.21
406.81	2712.68
407.00	2506.71
407.20	2630.76
407.39	2579.27
407.58	2785.24
407.77	2672.89
407.96	2750.13
408.15	2745.45
408.34	2813.32
408.54	2832.05
408.73	2883.54
408.92	2857.79
409.11	2871.84
409.30	2796.94
409.49	2874.18
409.68	3028.65
409.87	2888.22
410.07	3073.12
410.26	3110.57
410.45	2909.29
410.64	3122.27
410.83	3028.65
411.02	3112.91
411.21	3089.51
411.40	3103.55
411.59	3122.27
411.78	3262.71
411.98	3185.47
412.17	3283.77
412.36	3400.80
412.55	3351.65
412.74	3384.41
412.93	3485.06
413.12	3363.35
413.31	3571.66
413.50	3595.06
413.69	3489.74
413.88	3611.45
414.07	3522.51
414.26	3602.08
414.45	3606.77
414.64	3786.99
414.83	3698.05
415.02	3922.74
415.22	3831.46
415.41	4044.45
415.60	3861.88
415.79	4002.32
415.98	3957.85
416.17	3915.72
416.36	4002.32
416.55	3995.29
416.74	3985.93
416.93	4109.98
417.12	4191.90
417.31	4236.37
417.50	4264.46
417.69	4362.76
417.88	4138.07
418.07	4348.72
418.26	4337.01
418.45	4266.80
418.64	4610.86
418.83	4535.96
419.02	4489.15
419.21	4454.04
419.39	4636.60
419.58	4353.40
419.77	4449.36
419.96	4688.09
420.15	4559.36
420.34	4683.41
420.53	4727.88
420.72	4774.69
420.91	4683.41
421.10	4723.20
421.29	4791.08
421.48	4751.29
421.67	4826.18
421.86	4739.58
422.05	5015.77
422.24	4880.02
422.43	5114.07
422.61	4875.34
422.80	4844.91
422.99	4992.36
423.18	5006.41
423.37	5205.35
423.56	4931.51
423.75	4994.70
423.94	4868.31
424.13	4645.96
424.32	4858.95
424.50	5041.51
424.69	5186.63
424.88	5121.09
425.07	4926.83
425.26	4903.42
425.45	4964.28
425.64	5011.09
425.83	5036.83
426.01	5217.05
426.20	5200.67
426.39	4983.00
426.58	5130.45
426.77	5172.58
426.96	5249.82
427.15	5156.20
427.33	5301.31
427.52	5284.93
427.71	5228.76
427.90	5341.10
428.09	5193.65
428.28	5401.96
428.46	5331.74
428.65	5437.06
428.84	5582.18
429.03	5621.97
429.22	5387.91
429.40	5565.79
429.59	5554.09
429.78	5341.10
429.97	5322.38
430.16	5472.17
430.34	5621.97
430.53	5607.92
430.72	5727.29
430.91	5458.13
431.10	5661.76
431.28	5659.42
431.47	5884.11
431.66	6083.05
431.85	5797.51
432.03	5912.19
432.22	6029.22
432.41	5769.42
432.60	5818.57
432.79	5940.28
432.97	6008.16
433.16	6010.50
433.35	5987.09
433.54	6143.91
433.72	6272.64
433.91	6162.63
434.10	6141.57
434.28	6176.67
434.47	6230.51
434.66	6441.15
434.85	6251.57
435.03	6392.00
435.22	6342.85
435.41	6473.92
435.59	6317.11
435.78	6417.75
435.97	6525.41
436.16	6476.26
436.34	6466.90
436.53	6754.79
436.72	6726.70
436.90	6497.33
437.09	6661.16
437.28	6595.63
437.46	6808.62
437.65	6597.97
437.84	6965.43
438.02	6906.92
438.21	6834.36
438.40	6815.64
438.58	7026.29
438.77	7110.55
438.96	6979.48
439.14	7129.27
439.33	7265.02
439.52	7225.23
439.70	7208.85
439.89	7517.80
440.08	7515.46
440.26	7433.54
440.45	7461.63
440.63	7662.91
440.82	7639.51
441.01	7709.72
441.19	7810.37
441.38	7693.34
441.57	7805.69
441.75	7927.39
441.94	8098.25
442.12	7976.55
442.31	8145.06
442.50	8119.32
442.68	7894.63
442.87	8109.96
443.05	8252.73
443.24	8205.92
443.43	8299.54
443.61	8259.75
443.80	8711.47
443.98	8430.61
444.17	8018.68
444.35	8444.65
444.54	8552.32
444.73	8437.63
444.91	8437.63
445.10	8442.31
445.28	8498.49
445.47	8369.76
445.65	8479.76
445.84	8603.81
446.02	8402.52
446.21	8276.13
446.39	8381.46
446.58	8472.74
446.77	8669.34
446.95	8397.84
447.14	8592.11
447.32	8659.98
447.51	8627.21
447.69	8645.94
447.88	8587.43
448.06	8568.70
448.25	8608.49
448.43	8559.34
448.62	8854.25
448.80	8599.13
448.99	8844.88
449.17	8631.90
449.36	8844.88
449.54	9149.15
449.73	8889.35
449.91	8954.89
450.10	9177.24
450.28	9207.67
450.46	9336.40
450.65	9004.04
450.83	9163.20
451.02	9109.36
451.20	9273.20
451.39	9226.39
451.57	9170.22
451.76	9067.24
451.94	9240.44
452.13	9303.63
452.31	9291.93
452.49	9348.10
452.68	9418.32
452.86	9390.23
453.05	9462.79
453.23	9516.62
453.42	9453.42
453.60	9476.83
453.78	9563.43
453.97	9486.19
454.15	9654.71
454.34	9682.80
454.52	9816.21
454.70	9745.99
454.89	9884.08
455.07	9841.95
455.26	10001.11
455.44	10211.76
455.62	9991.75
455.81	9956.64
455.99	10317.08
456.17	10040.90
456.36	10279.63
456.54	10373.25
456.73	10359.21
456.91	10647.10
457.09	10595.61
457.28	10663.48
457.46	10476.24
457.64	10661.14
457.83	10789.87
458.01	10523.05
458.19	10832.00
458.38	10806.25
458.56	10977.11
458.74	10803.91
458.93	10771.15
459.11	10988.82
459.29	10911.58
459.48	10986.47
459.66	11061.37
459.84	11241.59
460.03	11183.08
460.21	10981.79
460.39	11213.51
460.57	11330.53
460.76	11248.61
460.94	11367.98
461.12	11229.89
461.31	11304.79
461.49	11286.06
461.67	11236.91
461.85	11793.96
462.04	11433.52
462.22	11618.42
462.40	11648.85
462.59	11508.41
462.77	11510.75
462.95	11683.95
463.13	11653.53
463.32	11770.55
463.50	12112.27
463.68	11913.33
463.86	12086.53
464.05	12245.68
464.23	11901.62
464.41	11934.39
464.59	11592.67
464.78	12257.39
464.96	12273.77
465.14	12088.87
465.32	12203.55
465.50	12020.99
465.69	12383.77
465.87	12332.28
466.05	12077.16
466.23	12273.77
466.41	12290.15
466.60	12629.53
466.78	12421.22
466.96	12343.99
467.14	12437.61
467.32	12496.12
467.51	12547.61
467.69	12414.20
467.87	12643.57
468.05	13067.21
468.23	12732.51
468.41	12372.07
468.60	12784.01
468.78	13011.04
468.96	12762.94
469.14	12957.21
469.32	12926.78
469.50	12959.55
469.69	13301.26
469.87	13418.29
470.05	13315.31
470.23	13341.05
470.41	13469.78
470.59	13446.38
470.77	13455.74
470.95	13797.46
471.14	13699.16
471.32	13238.07
471.50	13752.99
471.68	13640.64
471.86	13668.73
472.04	13839.59
472.22	14244.50
472.40	13830.23
472.58	13951.93
472.77	14176.62
472.95	14569.83
473.13	14743.03
473.31	14073.64
473.49	14052.58
473.67	14258.54
473.85	14532.39
474.03	14633.03
474.21	14785.16
474.39	14890.49
474.57	14656.43
474.75	15054.33
474.93	15302.42
475.12	15229.87
475.30	15199.44
475.48	15040.28
475.66	15321.15
475.84	15405.41
476.02	15716.70
476.20	15379.66
476.38	15967.13
476.56	16306.51
476.74	16341.62
476.92	16180.12
477.10	16051.39
477.28	16313.53
477.46	16318.22
477.64	16517.16
477.82	16659.93
478.00	17205.28
478.18	16959.52
478.36	17006.33
478.54	17095.27
478.72	17350.39
478.90	17572.74
479.08	17736.58
479.26	17717.86
479.44	17874.67
479.62	18326.39
479.80	18031.49
479.98	18427.04
480.16	18956.00
480.34	18705.56
480.52	18778.12
480.70	18995.79
480.88	18506.62
481.06	19234.52
481.24	19192.39
481.41	19159.63
481.59	19370.27
481.77	19674.54
481.95	20123.93
482.13	19969.45
482.31	19943.70
482.49	20334.57
482.67	20329.89
482.85	21022.69
483.03	20947.79
483.21	21001.63
483.39	21088.23
483.57	21010.99
483.74	21427.60
483.92	21614.85
484.10	21406.54
484.28	21769.32
484.46	21977.63
484.64	22565.10
484.82	22345.09
485.00	22387.22
485.18	23101.09
485.35	23468.55
485.53	22998.10
485.71	23208.75
485.89	24070.07
486.07	23573.88
486.25	24032.62
486.43	24013.90
486.61	23924.96
486.78	24247.95
486.96	24233.91
487.14	24690.31
487.32	24631.80
487.50	24793.29
487.68	25207.57
487.85	25317.57
488.03	25720.15
488.21	26103.99
488.39	25818.45
488.57	26312.30
488.75	26691.47
488.92	26742.96
489.10	27180.64
489.28	27028.51
489.46	27323.41
489.64	27000.42
489.81	27850.03
489.99	28046.64
490.17	28168.35
490.35	28336.87
490.53	28669.22
490.70	28479.64
490.88	28748.80
491.06	29261.38
491.24	29347.98
491.41	29682.67
491.59	29788.00
491.77	29755.23
491.95	29685.01
492.13	30263.13
492.30	30457.39
492.48	30185.89
492.66	30850.60
492.84	30611.87
493.01	30906.77
493.19	31077.63
493.37	31250.83
493.54	31147.85
493.72	31910.86
493.90	31571.49
494.08	32524.08
494.25	32477.27
494.43	32140.24
494.61	32540.47
494.79	32500.68
494.96	33039.00
495.14	32833.04
495.32	33692.01
495.49	33631.16
495.67	33989.26
495.85	33570.30
496.02	34235.02
496.20	34363.75
496.38	34249.06
496.55	34476.09
496.73	35400.60
496.91	35381.88
497.09	35096.33
497.26	35370.18
497.44	34976.97
497.62	35887.43
497.79	36154.26
497.97	35997.44
498.14	36154.26
498.32	36222.13
498.50	36596.62
498.67	36673.85
498.85	36690.24
499.03	37120.90
499.20	36987.49
499.38	37003.87
499.56	37315.16
499.73	37401.76
499.91	37710.71
500.08	38052.43
500.26	38045.41
500.44	38068.81
500.61	38316.91
500.79	38010.30
500.97	38689.06
501.14	38965.24
501.32	38965.24
501.49	39068.22
501.67	38972.26
501.84	39194.61
502.02	39152.48
502.20	39489.52
502.37	39398.24
502.55	39639.31
502.72	39805.49
502.90	40264.24
503.07	39941.24
503.25	40311.05
503.43	40046.57
503.60	40268.92
503.78	40987.46
503.95	40755.75
504.13	40556.80
504.30	40854.05
504.48	41223.86
504.65	41214.49
504.83	41399.40
505.01	41633.45
505.18	41638.13
505.36	41893.25
505.53	41640.47
505.71	42005.59
505.88	42431.57
506.06	41591.32
506.23	42567.32
506.41	42328.59
506.58	42513.49
506.76	43002.66
506.93	42843.51
507.11	42883.30
507.28	43117.35
507.46	43157.14
507.63	43587.80
507.81	43714.19
507.98	43405.23
508.16	43559.71
508.33	43845.26
508.50	44107.40
508.68	44055.90
508.85	44378.90
509.03	44261.87
509.20	44671.46
509.38	44774.45
509.55	44933.60
509.73	44891.48
509.90	45095.10
510.08	45069.36
510.25	44821.26
510.42	45436.82
510.60	45432.14
510.77	46003.23
510.95	45624.06
511.12	45851.09
511.30	45666.19
511.47	45811.31
511.64	45853.44
511.82	46361.33
511.99	45886.20
512.17	46314.52
512.34	46192.81
512.51	47075.19
512.69	46721.77
512.86	46700.71
513.04	47288.18
513.21	47260.10
513.38	47166.48
513.56	47430.96
513.73	47529.26
513.90	47555.00
514.08	47461.38
514.25	47767.99
514.43	47779.70
514.60	47920.13
514.77	48011.41
514.95	48133.12
515.12	47899.06
515.29	47941.19
515.47	48168.22
515.64	48542.71
515.81	48704.21
515.99	48783.79
516.16	48741.66
516.33	48949.96
516.51	49029.54
516.68	49198.06
516.85	48945.28
517.03	49205.08
517.20	49322.11
517.37	48982.73
517.54	49530.42
517.72	49277.64
517.89	49490.63
518.06	49881.50
518.24	49612.34
518.41	49818.30
518.58	49701.28
518.75	49757.45
518.93	49970.44
519.10	49778.51
519.27	50092.15
519.45	50204.49
519.62	50255.98
519.79	50272.37
519.96	50370.67
520.14	50686.64
520.31	50389.39
520.48	50768.56
520.65	50993.25
520.83	51107.94
521.00	50871.54
521.17	51126.66
521.34	50913.67
521.52	51700.09
521.69	51428.59
521.86	51545.62
522.03	51662.64
522.20	51538.60
522.38	51723.50
522.55	51786.69
522.72	51782.01
522.89	51583.07
523.07	52041.81
523.24	51650.94
523.41	51831.16
523.58	51938.83
523.75	52376.51
523.92	52250.12
524.10	52154.16
524.27	52601.20
524.44	52425.66
524.61	52523.96
524.78	52772.06
524.96	52563.75
525.13	52587.16
525.30	52830.57
525.47	53073.99
525.64	52978.03
525.81	52678.44
525.98	53111.44
526.16	52889.09
526.33	53277.61
526.50	53286.98
526.67	53102.07
526.84	53265.91
527.01	53343.15
527.18	53228.46
527.36	53558.48
527.53	53425.07
527.70	53635.72
527.87	53567.84
528.04	53443.79
528.21	53663.80
528.38	53694.23
528.55	54143.61
528.72	53506.99
528.89	53673.16
529.07	53558.48
529.24	53771.47
529.41	54340.22
529.58	54075.74
529.75	53890.83
529.92	53841.68
530.09	54047.65
530.26	54309.79
530.43	54450.22
530.60	54295.75
530.77	54167.02
530.94	54281.70
531.11	54066.38
531.28	54501.71
531.46	54410.43
531.63	54686.62
531.80	54466.61
531.97	54766.20
532.14	54887.90
532.31	54742.79
532.48	54995.57
532.65	54997.91
532.82	54684.28
532.99	54967.48
533.16	55023.65
533.33	54906.63
533.50	55178.13
533.67	55014.29
533.84	55037.70
534.01	55173.45
534.18	55505.80
534.35	55564.32
534.52	55091.53
534.69	55395.80
534.86	55625.17
535.03	55021.31
535.20	55524.53
535.37	55700.07
535.54	55569.00
535.71	55505.80
535.88	55627.51
536.05	55758.58
536.22	55664.96
536.38	55842.84
536.55	55917.74
536.72	55901.36
536.89	55781.99
537.06	56100.30
537.23	56264.14
537.40	55819.44
537.57	56128.39
537.74	55877.95
537.91	56214.99
538.08	56301.59
538.25	55955.19
538.42	56151.79
538.59	56509.89
538.75	56334.35
538.92	56442.02
539.09	56418.61
539.26	56498.19
539.43	56395.21
539.60	56624.58
539.77	56397.55
539.94	56734.59
540.11	56715.86
540.28	56949.92
540.44	56837.57
540.61	56765.01
540.78	56559.05
540.95	56783.74
541.12	56823.53
541.29	56603.52
541.46	56811.82
541.62	56884.38
541.79	56907.79
541.96	56556.70
542.13	56765.01
542.30	56985.02
542.47	57085.67
542.63	57088.01
542.80	57242.48
542.97	57450.79
543.14	57556.11
543.31	57212.06
543.48	57375.89
543.64	57577.18
543.81	57708.25
543.98	57521.01
544.15	57677.82
544.32	57687.18
544.48	57652.08
544.65	57719.95
544.82	57551.43
544.99	57528.03
545.16	57963.37
545.32	57652.08
545.49	57834.64
545.66	57932.94
545.83	58108.48
546.00	57851.02
546.16	57848.68
546.33	57874.43
546.50	57944.64
546.67	57918.90
546.83	57539.73
547.00	57876.77
547.17	58148.27
547.34	57991.45
547.50	58028.90
547.67	58443.18
547.84	58157.63
548.00	58588.29
548.17	58557.86
548.34	58415.09
548.51	58415.09
548.67	58372.96
548.84	58492.33
549.01	58478.28
549.18	58288.70
549.34	58550.84
549.51	58447.86
549.68	58459.56
549.84	58569.57
550.01	58721.70
550.18	58497.01
550.34	58684.25
550.51	58817.66
550.68	58726.38
550.84	58621.06
551.01	58742.77
551.18	58908.94
551.34	58761.49
551.51	58937.03
551.68	58796.60
551.84	58688.93
552.01	58836.39
552.18	59171.08
552.34	58812.98
552.51	59032.99
552.68	58857.45
552.84	58960.44
553.01	59351.30
553.18	59194.49
553.34	59164.06
553.51	59110.23
553.67	59100.87
553.84	59269.39
554.01	59173.42
554.17	59187.47
554.34	59274.07
554.51	59164.06
554.67	59473.01
554.84	59402.80
555.00	59238.96
555.17	59098.53
555.33	59274.07
555.50	59222.58
555.67	59381.73
555.83	59299.81
556.00	59463.65
556.16	59395.77
556.33	59629.83
556.50	59510.46
556.66	59491.74
556.83	59313.86
556.99	59522.16
557.16	59856.86
557.32	59742.17
557.49	59831.11
557.65	59618.13
557.82	59592.38
557.98	59737.49
558.15	59608.76
558.32	59779.62
558.48	59437.90
558.65	59760.90
558.81	59742.17
558.98	59908.35
559.14	59948.14
559.31	59931.76
559.47	59793.67
559.64	59990.27
559.80	59957.50
559.97	60090.91
560.13	59929.42
560.30	60041.76
560.46	60016.02
560.63	60093.25
560.79	60032.40
560.96	60107.30
561.12	60327.31
561.29	60156.45
561.45	59896.65
561.61	60097.94
561.78	60009.00
561.94	59999.63
562.11	60062.83
562.27	60449.02
562.44	60310.92
562.60	60245.39
562.77	60451.36
562.93	60058.15
563.10	60434.97
563.26	60243.05
563.42	60575.40
563.59	60303.90
563.75	60252.41
563.92	60119.00
564.08	60463.06
564.24	60542.64
564.41	60425.61
564.57	60343.69
564.74	60434.97
564.90	60491.15
565.07	60339.01
565.23	60385.82
565.39	60404.55
565.56	60353.05
565.72	60472.42
565.88	60526.25
566.05	60554.34
566.21	60458.38
566.38	60652.64
566.54	60502.85
566.70	60430.29
566.87	60790.73
567.03	60259.43
567.19	60474.76
567.36	60713.50
567.52	60711.16
567.68	60657.32
567.85	60596.47
568.01	60549.66
568.17	60683.07
568.34	60676.05
568.50	60867.97
568.66	60587.11
568.83	60802.44
568.99	60683.07
569.15	60439.65
569.32	60760.31
569.48	60556.68
569.64	60882.02
569.81	60610.51
569.97	60481.78
570.13	60601.15
570.30	60626.90
570.46	60800.10
570.62	61043.51
570.78	60699.45
570.95	60832.86
571.11	60746.26
571.27	60830.52
571.43	60715.84
571.60	60893.72
571.76	60928.83
571.92	60772.01
572.09	60898.40
572.25	60842.23
572.41	60828.18
572.57	60821.16
572.74	61055.21
572.90	60793.07
573.06	60924.14
573.22	60823.50
573.38	60753.29
573.55	60924.14
573.71	60973.30
573.87	61069.26
574.03	60662.00
574.20	60963.93
574.36	60781.37
574.52	60959.25
574.68	60973.30
574.84	61162.88
575.01	60870.31
575.17	60884.36
575.33	61097.34
575.49	60872.65
575.65	60921.80
575.82	61118.41
575.98	61001.38
576.14	61207.35
576.30	60982.66
576.46	61041.17
576.62	61064.58
576.79	61059.90
576.95	60697.11
577.11	61045.85
577.27	60992.02
577.43	61146.50
577.59	61020.11
577.75	61038.83
577.92	60926.49
578.08	61153.52
578.24	61006.06
578.40	61286.93
578.56	61174.58
578.72	61179.26
578.88	61120.75
579.04	61134.79
579.21	61221.39
579.37	61167.56
579.53	61272.88
579.69	60772.01
579.85	61083.30
580.01	61118.41
580.17	60954.57
580.33	61254.16
580.49	61354.80
580.65	61127.77
580.82	61071.60
580.98	61106.71
581.14	61120.75
581.30	61221.39
581.46	61202.67
581.62	61190.97
581.78	61116.07
581.94	61263.52
582.10	61293.95
582.26	61233.10
582.42	61197.99
582.58	61324.38
582.74	61102.03
582.90	61118.41
583.06	61197.99
583.22	61155.86
583.38	61190.97
583.54	61165.22
583.70	61242.46
583.86	61272.88
584.02	61118.41
584.18	61233.10
584.34	61385.23
584.50	61254.16
584.66	61123.09
584.82	60985.00
584.98	61441.40
585.14	61324.38
585.30	61069.26
585.46	61261.18
585.62	61420.34
585.78	61453.11
585.94	60959.25
586.10	61141.81
586.26	61223.73
586.42	61441.40
586.58	61392.25
586.74	61467.15
586.90	61160.54
587.06	61338.42
587.22	61366.51
587.38	61256.50
587.54	61450.77
587.70	61684.82
587.86	61242.46
588.02	61401.61
588.18	61542.05
588.34	61263.52
588.49	61176.92
