SpectraSuite Data File
++++++++++++++++++++++++++++++++++++
Date: Fri Oct 25 11:22:41 EDT 2013
User: price-jones
Dark Spectrum Present: No
Reference Spectrum Present: No
Number of Sampled Component Spectra: 1
Spectrometers: USB2+H05261
Integration Time (usec): 100000 (USB2+H05261)
Spectra Averaged: 1 (USB2+H05261)
Boxcar Smoothing: 0 (USB2+H05261)
Correct for Electrical Dark: No (USB2+H05261)
Strobe/Lamp Enabled: No (USB2+H05261)
Correct for Detector Non-linearity: No (USB2+H05261)
Correct for Stray Light: No (USB2+H05261)
Number of Pixels in Processed Spectrum: 2048
>>>>>Begin Processed Spectral Data<<<<<
365.73	269.16
365.92	269.16
366.12	269.16
366.32	177.88
366.52	72.56
366.72	184.90
366.91	147.45
367.11	107.66
367.31	100.64
367.51	81.92
367.70	159.16
367.90	142.77
368.10	98.30
368.30	138.09
368.49	203.63
368.69	95.96
368.89	138.09
369.09	194.26
369.28	121.71
369.48	133.41
369.68	229.37
369.87	205.97
370.07	191.92
370.27	241.08
370.47	318.31
370.66	638.97
370.86	500.87
371.06	645.99
371.25	645.99
371.45	620.24
371.65	678.76
371.84	624.92
372.04	582.79
372.24	709.18
372.44	681.10
372.63	676.41
372.83	732.59
373.03	746.63
373.22	770.04
373.42	770.04
373.62	704.50
373.81	800.46
374.01	774.72
374.21	739.61
374.40	800.46
374.60	791.10
374.79	791.10
374.99	821.53
375.19	793.44
375.38	802.80
375.58	805.14
375.78	891.74
375.97	873.02
376.17	945.58
376.37	856.64
376.56	912.81
376.76	863.66
376.95	830.89
377.15	917.49
377.35	873.02
377.54	894.08
377.74	809.83
377.93	873.02
378.13	795.78
378.33	915.15
378.52	901.11
378.72	929.19
378.91	938.55
379.11	908.13
379.31	954.94
379.50	980.68
379.70	1022.81
379.89	959.62
380.09	936.21
380.28	873.02
380.48	990.05
380.68	947.92
380.87	973.66
381.07	922.17
381.26	999.41
381.46	990.05
381.65	1142.18
381.85	985.37
382.04	1039.20
382.24	1090.69
382.43	1018.13
382.63	1071.97
382.83	1139.84
383.02	1132.82
383.22	1170.27
383.41	1043.88
383.61	1062.60
383.80	1097.71
384.00	1151.54
384.19	1086.01
384.39	1114.10
384.58	1135.16
384.78	1188.99
384.97	1111.75
385.17	1104.73
385.36	1181.97
385.56	1256.87
385.75	1179.63
385.95	1226.44
386.14	1205.38
386.34	1167.93
386.53	1144.52
386.72	1144.52
386.92	1217.08
387.11	1235.80
387.31	1191.33
387.50	1158.57
387.70	1240.48
387.89	1280.27
388.09	1263.89
388.28	1329.42
388.48	1317.72
388.67	1291.98
388.86	1329.42
389.06	1277.93
389.25	1273.25
389.45	1308.36
389.64	1277.93
389.84	1308.36
390.03	1446.45
390.22	1331.76
390.42	1376.24
390.61	1313.04
390.81	1425.39
391.00	1425.39
391.19	1411.34
391.39	1390.28
391.58	1448.79
391.78	1392.62
391.97	1584.54
392.16	1540.07
392.36	1486.24
392.55	1586.88
392.75	1600.93
392.94	1600.93
393.13	1465.18
393.33	1568.16
393.52	1584.54
393.71	1568.16
393.91	1734.34
394.10	1577.52
394.29	1605.61
394.49	1572.84
394.68	1659.44
394.88	1619.65
395.07	1696.89
395.26	1643.06
395.46	1708.59
395.65	1699.23
395.84	1748.38
396.04	1736.68
396.23	1732.00
396.42	1706.25
396.62	1734.34
396.81	1734.34
397.00	1729.66
397.19	1685.19
397.39	1778.81
397.58	1788.17
397.77	1729.66
397.97	1802.21
398.16	1849.02
398.35	1860.73
398.55	1867.75
398.74	1865.41
398.93	1942.64
399.12	1989.46
399.32	1895.83
399.51	1935.62
399.70	1961.37
399.90	1900.52
400.09	2052.65
400.28	1998.82
400.47	1923.92
400.67	2045.63
400.86	2047.97
401.05	2010.52
401.24	2101.80
401.44	2122.87
401.63	2148.61
401.82	2157.97
402.01	2139.25
402.21	2172.02
402.40	2214.15
402.59	2120.53
402.78	2179.04
402.97	2303.09
403.17	2253.94
403.36	2223.51
403.55	2239.89
403.74	2305.43
403.93	2366.28
404.13	2335.85
404.32	2385.01
404.51	2363.94
404.70	2406.07
404.89	2389.69
405.09	2537.14
405.28	2541.82
405.47	2562.89
405.66	2487.99
405.85	2478.63
406.05	2537.14
406.24	2644.81
406.43	2593.31
406.62	2665.87
406.81	2740.77
407.00	2495.01
407.20	2600.34
407.39	2717.36
407.58	2738.43
407.77	2766.51
407.96	2771.19
408.15	2747.79
408.34	2780.56
408.54	2832.05
408.73	2890.56
408.92	2794.60
409.11	2899.92
409.30	2928.01
409.49	2911.63
409.68	2902.26
409.87	2909.29
410.07	3030.99
410.26	3042.70
410.45	2920.99
410.64	3152.70
410.83	3105.89
411.02	3084.83
411.21	3171.43
411.40	3176.11
411.59	3150.36
411.78	3183.13
411.98	3227.60
412.17	3166.74
412.36	3342.28
412.55	3297.81
412.74	3403.14
412.93	3368.03
413.12	3407.82
413.31	3674.64
413.50	3440.59
413.69	3435.91
413.88	3442.93
414.07	3599.74
414.26	3609.11
414.45	3585.70
414.64	3604.42
414.83	3763.58
415.02	3765.92
415.22	3831.46
415.41	3840.82
415.60	3864.22
415.79	3988.27
415.98	4002.32
416.17	4021.04
416.36	3960.19
416.55	4056.15
416.74	4072.53
416.93	4016.36
417.12	4182.54
417.31	4252.75
417.50	4257.43
417.69	4280.84
417.88	4447.02
418.07	4161.47
418.26	4182.54
418.45	4379.14
418.64	4461.06
418.83	4554.68
419.02	4400.21
419.21	4573.41
419.39	4608.51
419.58	4528.94
419.77	4484.47
419.96	4559.36
420.15	4589.79
420.34	4496.17
420.53	4610.86
420.72	4812.14
420.91	4657.67
421.10	4713.84
421.29	4861.29
421.48	4751.29
421.67	4755.97
421.86	4744.27
422.05	4800.44
422.24	4884.70
422.43	4851.93
422.61	4847.25
422.80	4973.64
422.99	5011.09
423.18	5121.09
423.37	5027.47
423.56	5001.72
423.75	5027.47
423.94	4795.76
424.13	4699.80
424.32	4891.72
424.50	5032.15
424.69	5071.94
424.88	5011.09
425.07	4975.98
425.26	4922.15
425.45	5041.51
425.64	5067.26
425.83	4947.89
426.01	5053.22
426.20	5172.58
426.39	5160.88
426.58	5050.88
426.77	5139.82
426.96	5224.08
427.15	5111.73
427.33	5203.01
427.52	5085.98
427.71	5341.10
427.90	5231.10
428.09	5441.75
428.28	5392.59
428.46	5476.85
428.65	5219.39
428.84	5598.56
429.03	5638.35
429.22	5289.61
429.40	5490.90
429.59	5596.22
429.78	5441.75
429.97	5369.19
430.16	5764.74
430.34	5460.47
430.53	5483.88
430.72	5870.06
430.91	5673.46
431.10	5589.20
431.28	5823.25
431.47	5888.79
431.66	5989.43
431.85	5870.06
432.03	5898.15
432.22	6209.44
432.41	6024.54
432.60	5942.62
432.79	5987.09
432.97	6155.61
433.16	6052.63
433.35	5849.00
433.54	6183.70
433.72	6162.63
433.91	6127.52
434.10	6176.67
434.28	6153.27
434.47	6186.04
434.66	6310.08
434.85	6492.65
435.03	6176.67
435.22	6164.97
435.41	6450.52
435.59	6366.26
435.78	6394.34
435.97	6590.95
436.16	6410.73
436.34	6424.77
436.53	6408.39
436.72	6654.14
436.90	6424.77
437.09	6658.82
437.28	6469.24
437.46	6637.76
437.65	6698.61
437.84	6801.60
438.02	6817.98
438.21	6832.02
438.40	6729.04
438.58	7133.95
438.77	7068.42
438.96	7180.76
439.14	7047.35
439.33	7026.29
439.52	7124.59
439.70	7281.41
439.89	7335.24
440.08	7400.77
440.26	7218.21
440.45	7466.31
440.63	7625.47
440.82	7669.94
441.01	7337.58
441.19	7700.36
441.38	7705.04
441.57	7864.20
441.75	7793.98
441.94	7990.59
442.12	8037.40
442.31	8212.94
442.50	7899.31
442.68	8159.11
442.87	8098.25
443.05	8119.32
443.24	8381.46
443.43	8170.81
443.61	8404.86
443.80	8416.57
443.98	8248.05
444.17	8058.46
444.35	8257.41
444.54	8339.33
444.73	8355.71
444.91	8166.13
445.10	8512.53
445.28	8280.82
445.47	8390.82
445.65	8603.81
445.84	8456.36
446.02	8421.25
446.21	8526.57
446.39	8381.46
446.58	8360.39
446.77	8549.98
446.95	8444.65
447.14	8416.57
447.32	8601.47
447.51	8540.61
447.69	8386.14
447.88	8671.68
448.06	8564.02
448.25	8524.23
448.43	8648.28
448.62	8781.69
448.80	8549.98
448.99	8786.37
449.17	8901.06
449.36	8671.68
449.54	8926.80
449.73	8987.66
449.91	9006.38
450.10	8891.70
450.28	9195.96
450.46	8964.25
450.65	8997.02
450.83	9071.92
451.02	9158.52
451.20	9329.38
451.39	9348.10
451.57	9242.78
451.76	9233.41
451.94	9535.34
452.13	9338.74
452.31	9165.54
452.49	9254.48
452.68	9329.38
452.86	9476.83
453.05	9568.11
453.23	9657.05
453.42	9591.52
453.60	9355.12
453.78	9738.97
453.97	9495.55
454.15	9596.20
454.34	9680.46
454.52	9734.29
454.70	9727.27
454.89	9771.74
455.07	9846.63
455.26	10022.17
455.44	10026.86
455.62	9963.66
455.81	9858.34
455.99	10078.35
456.17	10111.11
456.36	10106.43
456.54	10265.59
456.73	10246.87
456.91	10326.44
457.09	10448.15
457.28	10583.90
457.46	10361.55
457.64	10651.78
457.83	10394.32
458.01	10321.76
458.19	10511.35
458.38	10642.42
458.56	10712.63
458.74	10883.49
458.93	10729.02
459.11	10665.82
459.29	10860.09
459.48	10963.07
459.66	10974.77
459.84	10813.28
460.03	11171.38
460.21	10909.24
460.39	11035.63
460.57	10979.45
460.76	11180.74
460.94	11379.68
461.12	11328.19
461.31	11225.21
461.49	11253.30
461.67	11309.47
461.85	11410.11
462.04	11384.37
462.22	12081.85
462.40	11613.74
462.59	11503.73
462.77	11545.86
462.95	11641.82
463.13	11857.15
463.32	11775.24
463.50	11822.05
463.68	11925.03
463.86	11761.19
464.05	11768.21
464.23	11864.18
464.41	11836.09
464.59	11908.65
464.78	12084.19
464.96	12203.55
465.14	11609.06
465.32	12091.21
465.50	12168.45
465.69	12245.68
465.87	12180.15
466.05	12105.25
466.23	12205.89
466.41	12255.04
466.60	12585.06
466.78	12145.04
466.96	12245.68
467.14	12177.81
467.32	12472.71
467.51	12683.36
467.69	12601.44
467.87	12498.46
468.05	12648.26
468.23	12545.27
468.41	12535.91
468.60	12737.20
468.78	12793.37
468.96	12685.70
469.14	12889.33
469.32	13067.21
469.50	12774.64
469.69	12987.63
469.87	13174.88
470.05	13329.35
470.23	13240.41
470.41	13219.35
470.59	13521.27
470.77	13224.03
470.95	13495.53
471.14	13444.04
471.32	13338.71
471.50	13671.07
471.68	13788.10
471.86	13675.75
472.04	14045.55
472.22	14136.84
472.40	13650.00
472.58	14111.09
472.77	14132.15
472.95	14054.92
473.13	14726.65
473.31	14001.08
473.49	14253.86
473.67	14354.51
473.85	14450.47
474.03	14487.92
474.21	14705.59
474.39	15033.26
474.57	14630.69
474.75	15190.08
474.93	15178.37
475.12	15129.22
475.30	15489.67
475.48	15000.49
475.66	15389.02
475.84	15274.34
476.02	15536.48
476.20	15566.90
476.38	15793.94
476.56	16095.86
476.74	16056.08
476.92	15936.71
477.10	15927.35
477.28	16355.66
477.46	16154.38
477.64	16610.78
477.82	16500.78
478.00	17214.64
478.18	17139.74
478.36	16989.95
478.54	17277.83
478.72	17338.69
478.90	17289.54
479.08	17397.20
479.26	17818.50
479.44	17813.82
479.62	18029.15
479.80	17984.68
479.98	18314.69
480.16	18569.81
480.34	18256.18
480.52	18932.59
480.70	18838.97
480.88	18565.13
481.06	18883.44
481.24	18958.34
481.41	19208.78
481.59	19655.82
481.77	19754.12
481.95	19730.72
482.13	20133.29
482.31	19840.72
482.49	20264.36
482.67	20622.46
482.85	20526.50
483.03	20650.55
483.21	20854.17
483.39	21160.78
483.57	20996.95
483.74	21497.82
483.92	21558.67
484.10	21029.71
484.28	21759.96
484.46	22272.54
484.64	22462.12
484.82	21982.31
485.00	22675.11
485.18	22689.15
485.35	23208.75
485.53	23183.01
485.71	23417.06
485.89	23498.98
486.07	23538.77
486.25	23384.29
486.43	23583.24
486.61	23936.66
486.78	24123.90
486.96	24404.77
487.14	24627.12
487.32	24847.13
487.50	25216.93
487.68	25654.61
487.85	25556.31
488.03	25362.04
488.21	25881.64
488.39	25876.96
488.57	26174.21
488.75	26565.08
488.92	26443.37
489.10	26988.72
489.28	27206.39
489.46	27094.04
489.64	27159.58
489.81	27964.72
489.99	28030.26
490.17	27789.18
490.35	28381.34
490.53	28872.85
490.70	28650.50
490.88	28273.67
491.06	29069.45
491.24	29186.48
491.41	29287.12
491.59	29158.39
491.77	29628.84
491.95	29773.95
492.13	30132.06
492.30	30525.27
492.48	30059.50
492.66	30551.01
492.84	30190.57
493.01	30930.18
493.19	30373.13
493.37	31211.04
493.54	31702.56
493.72	31817.24
493.90	31758.73
494.08	32041.93
494.25	32383.65
494.43	32250.24
494.61	32519.40
494.79	33109.22
494.96	32830.69
495.14	33036.66
495.32	32950.06
495.49	33593.71
495.67	33310.50
495.85	33823.08
496.02	33809.04
496.20	34295.87
496.38	34190.55
496.55	34455.03
496.73	35016.75
496.91	34717.17
497.09	34733.55
497.26	35318.68
497.44	34986.33
497.62	35515.29
497.79	35899.14
497.97	36020.84
498.14	36318.09
498.32	37013.23
498.50	36463.21
498.67	36666.83
498.85	36678.54
499.03	36783.86
499.20	36657.47
499.38	37301.12
499.56	37773.91
499.73	37380.70
499.91	37682.62
500.08	37720.07
500.26	38110.94
500.44	37867.53
500.61	38199.88
500.79	38089.88
500.97	38492.45
501.14	38904.38
501.32	38553.30
501.49	38586.07
501.67	38934.81
501.84	39421.64
502.02	39236.74
502.20	39384.19
502.37	39906.13
502.55	39693.15
502.72	39620.59
502.90	39618.25
503.07	39646.33
503.25	40201.04
503.43	39957.63
503.60	40364.88
503.78	40442.12
503.95	40411.69
504.13	40975.76
504.30	40950.01
504.48	40620.00
504.65	41198.11
504.83	41251.94
505.01	41900.27
505.18	41123.21
505.36	42192.84
505.53	41872.18
505.71	41900.27
505.88	41858.14
506.06	41851.12
506.23	42300.50
506.41	42260.71
506.58	42246.67
506.76	42146.03
506.93	42981.60
507.11	42660.94
507.28	42799.04
507.46	43033.09
507.63	43068.20
507.81	43559.71
507.98	43782.06
508.16	43613.54
508.33	43370.13
508.50	43262.46
508.68	43765.68
508.85	44547.42
509.03	44177.61
509.20	44062.93
509.38	44964.03
509.55	44746.36
509.73	44568.48
509.90	44737.00
510.08	45319.79
510.25	44933.60
510.42	45261.28
510.60	44992.12
510.77	45607.68
510.95	45502.35
511.12	45839.39
511.30	45312.77
511.47	45837.05
511.64	45993.87
511.82	46117.92
511.99	45710.66
512.17	46412.82
512.34	45825.35
512.51	46251.33
512.69	46710.07
512.86	46670.28
513.04	46653.90
513.21	47147.75
513.38	46742.84
513.56	47323.29
513.73	47222.65
513.90	47194.56
514.08	47283.50
514.25	47700.12
514.43	47732.89
514.60	47807.78
514.77	47632.24
514.95	48130.78
515.12	47522.24
515.29	48116.73
515.47	48390.58
515.64	48229.08
515.81	48126.10
515.99	48467.81
516.16	48884.43
516.33	48575.48
516.51	48903.15
516.68	48849.32
516.85	49223.81
517.03	49282.32
517.20	49254.23
517.37	49078.69
517.54	49645.10
517.72	49233.17
517.89	49542.12
518.06	49689.57
518.24	49310.41
518.41	49560.84
518.58	49598.29
518.75	49724.68
518.93	49834.69
519.10	49656.81
519.27	50164.70
519.45	50309.82
519.62	50361.31
519.79	50405.78
519.96	50377.69
520.14	50447.91
520.31	50246.62
520.48	50820.05
520.65	50618.77
520.83	50789.62
521.00	50953.46
521.17	50852.82
521.34	51129.00
521.52	51302.20
521.69	51171.13
521.86	51344.33
522.03	51229.65
522.20	51421.57
522.38	51571.36
522.55	51503.49
522.72	51662.64
522.89	51522.21
523.07	51882.66
523.24	51803.08
523.41	52144.80
523.58	51824.14
523.75	52271.18
523.92	52168.20
524.10	52278.21
524.27	52200.97
524.44	52299.27
524.61	52502.90
524.78	52491.19
524.96	52219.69
525.13	52697.16
525.30	52664.39
525.47	52519.28
525.64	52640.99
525.81	52650.35
525.98	52898.45
526.16	52772.06
526.33	52807.17
526.50	53326.77
526.67	52802.49
526.84	53158.25
527.01	52999.09
527.18	53045.90
527.36	53298.68
527.53	53244.85
527.70	53418.05
527.87	53574.86
528.04	53521.03
528.21	53347.83
528.38	53652.10
528.55	53755.08
528.72	53642.74
528.89	53598.27
529.07	53567.84
529.24	53462.52
529.41	53916.58
529.58	53661.46
529.75	53780.83
529.92	54120.21
530.09	54085.10
530.26	54333.20
530.43	54403.41
530.60	54047.65
530.77	53727.00
530.94	54363.62
531.11	54192.76
531.28	54445.54
531.46	54532.14
531.63	54625.76
531.80	54532.14
531.97	54403.41
532.14	54831.73
532.31	54780.24
532.48	54920.67
532.65	54995.57
532.82	54464.27
532.99	54820.03
533.16	54728.75
533.33	55033.02
533.50	55217.92
533.67	55075.15
533.84	55014.29
534.01	55444.95
534.18	55224.94
534.35	55414.52
534.52	55494.10
534.69	55444.95
534.86	55554.96
535.03	55330.26
535.20	55409.84
535.37	55381.76
535.54	55426.23
535.71	55393.46
535.88	55868.59
536.05	55807.73
536.22	55758.58
536.38	56037.11
536.55	55828.80
536.72	55686.03
536.89	55779.65
537.06	55943.48
537.23	56051.15
537.40	55896.67
537.57	55655.60
537.74	56069.87
537.91	56069.87
538.08	56020.72
538.25	56062.85
538.42	55969.23
538.59	56299.25
538.75	55908.38
538.92	56336.69
539.09	56399.89
539.26	56324.99
539.43	56584.79
539.60	56292.22
539.77	56308.61
539.94	56655.01
540.11	56720.54
540.28	56458.40
540.44	56835.23
540.61	56570.75
540.78	56584.79
540.95	56617.56
541.12	56420.95
541.29	56556.70
541.46	57020.13
541.62	56884.38
541.79	56809.48
541.96	56577.77
542.13	56779.06
542.30	56793.10
542.47	56919.49
542.63	56975.66
542.80	57345.47
542.97	57176.95
543.14	57242.48
543.31	57195.67
543.48	57497.60
543.64	57729.31
543.81	57455.47
543.98	57638.03
544.15	57499.94
544.32	57694.21
544.48	57687.18
544.65	57558.45
544.82	57546.75
544.99	57607.61
545.16	57762.08
545.32	57752.72
545.49	57876.77
545.66	57862.72
545.83	58075.71
546.00	57911.88
546.16	57865.06
546.33	57790.17
546.50	57834.64
546.67	57914.22
546.83	57780.81
547.00	57904.85
547.17	57858.04
547.34	57836.98
547.50	58387.00
547.67	58241.89
547.84	58326.15
548.00	58543.82
548.17	58333.17
548.34	58181.04
548.51	58396.37
548.67	58515.73
548.84	58321.47
549.01	58356.58
549.18	58394.03
549.34	58354.24
549.51	58501.69
549.68	58403.39
549.84	58714.68
550.01	58497.01
550.18	58328.49
550.34	58702.98
550.51	58745.11
550.68	58616.38
550.84	58274.66
551.01	58628.08
551.18	58632.76
551.34	58817.66
551.51	58698.30
551.68	58663.19
551.84	58588.29
552.01	58595.31
552.18	58735.74
552.34	58656.17
552.51	58770.85
552.68	58733.40
552.84	58934.69
553.01	59180.45
553.18	59068.10
553.34	59023.63
553.51	58951.07
553.67	58738.08
553.84	59304.49
554.01	59063.42
554.17	59253.00
554.34	59051.72
554.51	59157.04
554.67	58972.14
554.84	59264.70
555.00	59161.72
555.17	59084.48
555.33	59391.09
555.50	59077.46
555.67	59372.37
555.83	59105.55
556.00	59405.14
556.16	59650.89
556.33	59348.96
556.50	59435.56
556.66	59648.55
556.83	59320.88
556.99	59716.43
557.16	59632.17
557.32	59608.76
557.49	59721.11
557.65	59568.97
557.82	59547.91
557.98	59463.65
558.15	59496.42
558.32	59716.43
558.48	59587.70
558.65	59779.62
558.81	59849.84
558.98	59667.28
559.14	59824.09
559.31	59873.24
559.47	59913.03
559.64	60179.85
559.80	59997.29
559.97	59980.91
560.13	59863.88
560.30	59798.35
560.46	59784.30
560.63	60095.60
560.79	60032.40
560.96	60109.64
561.12	60048.78
561.29	60175.17
561.45	60030.06
561.61	59873.24
561.78	59971.55
561.94	59980.91
562.11	60060.49
562.27	60116.66
562.44	60226.66
562.60	60086.23
562.77	60198.58
562.93	59770.26
563.10	60317.95
563.26	60046.44
563.42	60236.03
563.59	60114.32
563.75	60170.49
563.92	60151.77
564.08	60287.52
564.24	60357.74
564.41	60250.07
564.57	60404.55
564.74	60472.42
564.90	60229.01
565.07	60175.17
565.23	60282.84
565.39	60088.57
565.56	60402.21
565.72	60437.31
565.88	60392.84
566.05	60350.71
566.21	60200.92
566.38	60296.88
566.54	60549.66
566.70	60371.78
566.87	60528.59
567.03	60418.59
567.19	60903.08
567.36	60470.08
567.52	60437.31
567.68	60685.41
567.85	60624.56
568.01	60601.15
568.17	60383.48
568.34	60645.62
568.50	60795.42
568.66	60594.13
568.83	60467.74
568.99	60542.64
569.15	60547.32
569.32	60397.52
569.48	60512.21
569.64	60781.37
569.81	60523.91
569.97	60467.74
570.13	60781.37
570.30	60692.43
570.46	60706.47
570.62	60699.45
570.78	60790.73
570.95	60587.11
571.11	60718.18
571.27	60608.17
571.43	60832.86
571.60	60856.27
571.76	60657.32
571.92	60800.10
572.09	60690.09
572.25	60980.32
572.41	60626.90
572.57	60795.42
572.74	61071.60
572.90	60544.98
573.06	60863.29
573.22	60776.69
573.38	60851.59
573.55	60725.20
573.71	61062.24
573.87	60851.59
574.03	60748.60
574.20	60807.12
574.36	60694.77
574.52	60832.86
574.68	60825.84
574.84	60994.36
575.01	60867.97
575.17	60879.67
575.33	60734.56
575.49	60865.63
575.65	61020.11
575.82	60931.17
575.98	60832.86
576.14	61139.47
576.30	61165.22
576.46	60879.67
576.62	60968.61
576.79	60959.25
576.95	60912.44
577.11	60835.20
577.27	60919.46
577.43	60966.27
577.59	60844.57
577.75	60914.78
577.92	60928.83
578.08	60938.19
578.24	61113.73
578.40	61076.28
578.56	60973.30
578.72	60917.12
578.88	61174.58
579.04	61120.75
579.21	61254.16
579.37	61130.11
579.53	61097.34
579.69	60872.65
579.85	61109.05
580.01	60811.80
580.17	61055.21
580.33	61099.68
580.49	61223.73
580.65	61029.47
580.82	61109.05
580.98	61071.60
581.14	60825.84
581.30	61249.48
581.46	61013.08
581.62	61254.16
581.78	60968.61
581.94	60980.32
582.10	60903.08
582.26	61172.24
582.42	61176.92
582.58	61172.24
582.74	61022.45
582.90	61291.61
583.06	61017.77
583.22	60987.34
583.38	61186.28
583.54	61202.67
583.70	61116.07
583.86	61188.63
584.02	61020.11
584.18	61097.34
584.34	61237.78
584.50	61123.09
584.66	60999.04
584.82	60774.35
584.98	61221.39
585.14	61214.37
585.30	61080.96
585.46	61200.33
585.62	61160.54
585.78	61513.96
585.94	61003.72
586.10	61137.13
586.26	61242.46
586.42	61268.20
586.58	61329.06
586.74	61244.80
586.90	61165.22
587.06	61251.82
587.22	61425.02
587.38	61291.61
587.54	61448.42
587.70	61394.59
587.86	61455.45
588.02	61439.06
588.18	61392.25
588.34	61237.78
588.49	61195.65
