SpectraSuite Data File
++++++++++++++++++++++++++++++++++++
Date: Fri Oct 25 11:33:22 EDT 2013
User: price-jones
Dark Spectrum Present: No
Reference Spectrum Present: No
Number of Sampled Component Spectra: 1
Spectrometers: USB2+H05261
Integration Time (usec): 100000 (USB2+H05261)
Spectra Averaged: 1 (USB2+H05261)
Boxcar Smoothing: 0 (USB2+H05261)
Correct for Electrical Dark: No (USB2+H05261)
Strobe/Lamp Enabled: No (USB2+H05261)
Correct for Detector Non-linearity: No (USB2+H05261)
Correct for Stray Light: No (USB2+H05261)
Number of Pixels in Processed Spectrum: 2048
>>>>>Begin Processed Spectral Data<<<<<
365.73	294.91
365.92	294.91
366.12	294.91
366.32	131.07
366.52	135.75
366.72	215.33
366.91	212.99
367.11	138.09
367.31	194.26
367.51	156.82
367.70	182.56
367.90	135.75
368.10	184.90
368.30	191.92
368.49	161.50
368.69	255.12
368.89	262.14
369.09	191.92
369.28	191.92
369.48	264.48
369.68	243.42
369.87	212.99
370.07	276.18
370.27	250.44
370.47	285.55
370.66	470.45
370.86	451.72
371.06	582.79
371.25	554.71
371.45	517.26
371.65	500.87
371.84	472.79
372.04	571.09
372.24	578.11
372.44	578.11
372.63	636.63
372.83	559.39
373.03	601.52
373.22	559.39
373.42	571.09
373.62	711.52
373.81	645.99
374.01	674.07
374.21	685.78
374.40	575.77
374.60	704.50
374.79	617.90
374.99	631.94
375.19	596.84
375.38	650.67
375.58	716.20
375.78	695.14
375.97	669.39
376.17	697.48
376.37	681.10
376.56	716.20
376.76	662.37
376.95	650.67
377.15	746.63
377.35	566.41
377.54	678.76
377.74	723.23
377.93	664.71
378.13	653.01
378.33	723.23
378.52	610.88
378.72	748.97
378.91	709.18
379.11	650.67
379.31	718.54
379.50	716.20
379.70	739.61
379.89	779.40
380.09	711.52
380.28	755.99
380.48	755.99
380.68	704.50
380.87	723.23
381.07	821.53
381.26	758.33
381.46	781.74
381.65	798.12
381.85	748.97
382.04	795.78
382.24	816.85
382.43	753.65
382.63	758.33
382.83	781.74
383.02	809.83
383.22	880.04
383.41	763.01
383.61	915.15
383.80	889.40
384.00	725.57
384.19	866.00
384.39	835.57
384.58	781.74
384.78	793.44
384.97	891.74
385.17	786.42
385.36	812.17
385.56	805.14
385.75	844.93
385.95	851.96
386.14	922.17
386.34	847.27
386.53	919.83
386.72	910.47
386.92	938.55
387.11	919.83
387.31	945.58
387.50	947.92
387.70	875.36
387.89	877.70
388.09	919.83
388.28	971.32
388.48	851.96
388.67	898.77
388.86	924.51
389.06	901.11
389.25	926.85
389.45	898.77
389.64	924.51
389.84	976.00
390.03	1029.84
390.22	943.24
390.42	945.58
390.61	966.64
390.81	910.47
391.00	959.62
391.19	1013.45
391.39	983.02
391.58	1046.22
391.78	983.02
391.97	1081.33
392.16	1015.79
392.36	1057.92
392.55	1121.12
392.75	1036.86
392.94	1088.35
393.13	1055.58
393.33	968.98
393.52	1027.50
393.71	1196.01
393.91	990.05
394.10	1034.52
394.29	1046.22
394.49	1132.82
394.68	1135.16
394.88	1203.04
395.07	1156.22
395.26	1153.88
395.46	1217.08
395.65	1181.97
395.84	1186.65
396.04	1193.67
396.23	1142.18
396.42	1135.16
396.62	1104.73
396.81	1188.99
397.00	1198.35
397.19	1238.14
397.39	1172.61
397.58	1224.10
397.77	1306.02
397.97	1280.27
398.16	1322.40
398.35	1301.34
398.55	1303.68
398.74	1186.65
398.93	1310.70
399.12	1338.79
399.32	1376.24
399.51	1394.96
399.70	1280.27
399.90	1390.28
400.09	1401.98
400.28	1399.64
400.47	1486.24
400.67	1413.68
400.86	1338.79
401.05	1399.64
401.24	1425.39
401.44	1364.53
401.63	1416.02
401.82	1490.92
402.01	1479.22
402.21	1500.28
402.40	1500.28
402.59	1540.07
402.78	1596.25
402.97	1549.43
403.17	1476.88
403.36	1521.35
403.55	1523.69
403.74	1547.09
403.93	1612.63
404.13	1563.48
404.32	1668.80
404.51	1561.14
404.70	1652.42
404.89	1678.16
405.09	1736.68
405.28	1591.56
405.47	1631.35
405.66	1715.61
405.85	1753.06
406.05	1743.70
406.24	1753.06
406.43	1757.74
406.62	1795.19
406.81	1802.21
407.00	1806.89
407.20	1809.23
407.39	1792.85
407.58	1818.60
407.77	1846.68
407.96	1930.94
408.15	1870.09
408.34	1823.28
408.54	1863.07
408.73	1853.70
408.92	1860.73
409.11	1919.24
409.30	2005.84
409.49	1956.69
409.68	2059.67
409.87	1973.07
410.07	2097.12
410.26	2165.00
410.45	2043.29
410.64	2069.03
410.83	2111.16
411.02	2040.95
411.21	2172.02
411.40	2038.61
411.59	2195.42
411.78	2230.53
411.98	2267.98
412.17	2286.70
412.36	2230.53
412.55	2370.96
412.74	2375.64
412.93	2347.56
413.12	2359.26
413.31	2422.45
413.50	2403.73
413.69	2354.58
413.88	2504.37
414.07	2485.65
414.26	2356.92
414.45	2466.92
414.64	2551.18
414.83	2600.34
415.02	2623.74
415.22	2644.81
415.41	2703.32
415.60	2672.89
415.79	2708.00
415.98	2778.22
416.17	2675.23
416.36	2785.24
416.55	2703.32
416.74	2841.41
416.93	2883.54
417.12	2846.09
417.31	2883.54
417.50	2960.78
417.69	2932.69
417.88	2946.73
418.07	2960.78
418.26	2956.10
418.45	2967.80
418.64	3080.14
418.83	3021.63
419.02	3103.55
419.21	3129.30
419.39	3115.25
419.58	3141.00
419.77	3159.72
419.96	3222.92
420.15	3176.11
420.34	3204.19
420.53	3155.04
420.72	3258.03
420.91	3272.07
421.10	3293.13
421.29	3361.01
421.48	3346.97
421.67	3272.07
421.86	3255.69
422.05	3283.77
422.24	3349.31
422.43	3405.48
422.61	3492.08
422.80	3386.76
422.99	3410.16
423.18	3344.63
423.37	3461.65
423.56	3442.93
423.75	3356.33
423.94	3463.99
424.13	3143.34
424.32	3243.98
424.50	3524.85
424.69	3583.36
424.88	3606.77
425.07	3396.12
425.26	3365.69
425.45	3562.30
425.64	3410.16
425.83	3541.23
426.01	3445.27
426.20	3433.57
426.39	3389.10
426.58	3520.17
426.77	3585.70
426.96	3644.21
427.15	3475.70
427.33	3590.38
427.52	3545.91
427.71	3756.56
427.90	3688.68
428.09	3644.21
428.28	3716.77
428.46	3702.73
428.65	3658.26
428.84	3880.61
429.03	3791.67
429.22	3791.67
429.40	3819.75
429.59	3744.86
429.78	3726.13
429.97	3674.64
430.16	3726.13
430.34	3796.35
430.53	3969.55
430.72	3927.42
430.91	3964.87
431.10	3808.05
431.28	4016.36
431.47	4049.13
431.66	4063.17
431.85	3913.38
432.03	3981.25
432.22	4229.35
432.41	4063.17
432.60	4098.28
432.79	4117.00
432.97	4060.83
433.16	4210.62
433.35	4236.37
433.54	4088.92
433.72	4236.37
433.91	4203.60
434.10	4301.90
434.28	4280.84
434.47	4283.18
434.66	4334.67
434.85	4252.75
435.03	4287.86
435.22	4339.35
435.41	4479.79
435.59	4341.69
435.78	4332.33
435.97	4341.69
436.16	4528.94
436.34	4425.95
436.53	4594.47
436.72	4629.58
436.90	4409.57
437.09	4341.69
437.28	4472.76
437.46	4519.57
437.65	4671.71
437.84	4589.79
438.02	4620.22
438.21	4592.13
438.40	4461.06
438.58	4837.89
438.77	4755.97
438.96	4774.69
439.14	4830.87
439.33	4873.00
439.52	4931.51
439.70	4837.89
439.89	5076.62
440.08	5064.92
440.26	5020.45
440.45	5217.05
440.63	5151.52
440.82	5259.18
441.01	5041.51
441.19	5200.67
441.38	5221.74
441.57	5287.27
441.75	5432.38
441.94	5334.08
442.12	5465.15
442.31	5502.60
442.50	5535.37
442.68	5554.09
442.87	5397.28
443.05	5708.57
443.24	5500.26
443.43	5549.41
443.61	5570.48
443.80	5731.97
443.98	5568.13
444.17	5254.50
444.35	5488.56
444.54	5823.25
444.73	5612.60
444.91	5657.07
445.10	5664.10
445.28	5664.10
445.47	5654.73
445.65	5701.54
445.84	5858.36
446.02	5935.60
446.21	5748.36
446.39	5673.46
446.58	5650.05
446.77	5582.18
446.95	5628.99
447.14	5673.46
447.32	5790.49
447.51	5675.80
447.69	5818.57
447.88	5762.40
448.06	5767.08
448.25	5975.39
448.43	5867.72
448.62	5879.43
448.80	5781.12
448.99	5930.92
449.17	5858.36
449.36	5813.89
449.54	5907.51
449.73	5980.07
449.91	6083.05
450.10	6118.16
450.28	6090.07
450.46	6052.63
450.65	6001.13
450.83	6218.80
451.02	6300.72
451.20	6394.34
451.39	6253.91
451.57	6057.31
451.76	6289.02
451.94	6223.48
452.13	6193.06
452.31	6413.07
452.49	6214.12
452.68	6441.15
452.86	6417.75
453.05	6375.62
453.23	6239.87
453.42	6375.62
453.60	6368.60
453.78	6555.84
453.97	6408.39
454.15	6466.90
454.34	6352.21
454.52	6626.06
454.70	6698.61
454.89	6647.12
455.07	6764.15
455.26	6747.76
455.44	6757.13
455.62	6817.98
455.81	6853.09
455.99	6911.60
456.17	6827.34
456.36	6707.98
456.54	6834.36
456.73	6904.58
456.91	7030.97
457.09	7126.93
457.28	7225.23
457.46	7110.55
457.64	7049.69
457.83	7054.37
458.01	7082.46
458.19	7250.98
458.38	7250.98
458.56	7243.96
458.74	7267.36
458.93	7122.25
459.11	7330.56
459.29	7211.19
459.48	7309.49
459.66	7246.30
459.84	7309.49
460.03	7414.82
460.21	7349.28
460.39	7351.62
460.57	7489.71
460.76	7559.93
460.94	7581.00
461.12	7625.47
461.31	7712.07
461.49	7573.97
461.67	7487.37
461.85	7843.14
462.04	7709.72
462.22	8161.45
462.40	7726.11
462.59	7896.97
462.77	7810.37
462.95	7817.39
463.13	7864.20
463.32	7978.89
463.50	8063.15
463.68	7978.89
463.86	7918.03
464.05	7936.76
464.23	8107.62
464.41	8093.57
464.59	7967.18
464.78	8238.69
464.96	7925.05
465.14	7948.46
465.32	8119.32
465.50	8168.47
465.69	8182.51
465.87	8154.43
466.05	8032.72
466.23	8109.96
466.41	8163.79
466.60	8226.98
466.78	8369.76
466.96	8161.45
467.14	8304.22
467.32	8315.92
467.51	8374.44
467.69	8369.76
467.87	8535.93
468.05	8566.36
468.23	8496.14
468.41	8243.37
468.60	8437.63
468.78	8564.02
468.96	8571.04
469.14	8606.15
469.32	8615.51
469.50	8587.43
469.69	8800.41
469.87	8716.16
470.05	8645.94
470.23	8769.99
470.41	8718.50
470.59	8847.22
470.77	8849.57
470.95	8968.93
471.14	8985.32
471.32	8769.99
471.50	9210.01
471.68	9107.02
471.86	9165.54
472.04	8994.68
472.22	9303.63
472.40	9245.12
472.58	9341.08
472.77	9406.61
472.95	9352.78
473.13	9844.29
473.31	9401.93
473.49	9425.34
473.67	9525.98
473.85	9514.28
474.03	9834.93
474.21	9832.59
474.39	9968.34
474.57	9893.44
474.75	9706.20
474.93	9928.55
475.12	10068.98
475.30	10162.61
475.48	10038.56
475.66	10008.13
475.84	10347.51
476.02	10242.18
476.20	10396.66
476.38	10501.98
476.56	10619.01
476.74	10567.52
476.92	10630.71
477.10	10665.82
477.28	10771.15
477.46	10628.37
477.64	10981.79
477.82	10909.24
478.00	11225.21
478.18	11246.27
478.36	11330.53
478.54	11307.13
478.72	11473.31
478.90	11641.82
479.08	11454.58
479.26	11733.11
479.44	11676.93
479.62	11995.25
479.80	12081.85
479.98	11976.52
480.16	12533.57
480.34	12065.46
480.52	12379.09
480.70	12294.83
480.88	12049.08
481.06	12367.39
481.24	12348.67
481.41	12741.88
481.59	13027.42
481.77	13074.23
481.95	12908.05
482.13	13221.69
482.31	13099.98
482.49	13619.58
482.67	13554.04
482.85	13682.77
483.03	13820.86
483.21	13486.17
483.39	13965.98
483.57	13884.06
483.74	14073.64
483.92	13940.23
484.10	13980.02
484.28	14281.95
484.46	14527.71
484.64	14789.85
484.82	14654.09
485.00	14855.38
485.18	15117.52
485.35	15461.58
485.53	15136.24
485.71	15449.88
485.89	15110.50
486.07	15515.41
486.25	15379.66
486.43	15590.31
486.61	15915.64
486.78	16231.62
486.96	16135.65
487.14	16152.04
487.32	16170.76
487.50	16266.72
487.68	16358.00
487.85	16877.60
488.03	16713.77
488.21	17315.28
488.39	17153.79
488.57	17376.14
488.75	17216.98
488.92	17385.50
489.10	17589.13
489.28	17951.91
489.46	17764.67
489.64	18111.07
489.81	18082.98
489.99	18169.58
490.17	18197.67
490.35	18544.06
490.53	18527.68
490.70	18855.36
490.88	18787.48
491.06	19122.18
491.24	19302.40
491.41	19468.58
491.59	19594.96
491.77	19484.96
491.95	19573.90
492.13	19704.97
492.30	19976.47
492.48	19962.43
492.66	19957.75
492.84	20002.22
493.01	20210.53
493.19	20327.55
493.37	20521.82
493.54	20503.09
493.72	21158.44
493.90	20748.85
494.08	20835.45
494.25	21064.82
494.43	21013.33
494.61	21301.22
494.79	21160.78
494.96	21446.33
495.14	21619.53
495.32	21848.90
495.49	22036.14
495.67	21979.97
495.85	22349.78
496.02	21991.67
496.20	22335.73
496.38	22356.80
496.55	22415.31
496.73	23379.61
496.91	22827.24
497.09	23136.20
497.26	23161.94
497.44	23037.89
497.62	23283.65
497.79	23587.92
497.97	23314.08
498.14	23775.16
498.32	24056.03
498.50	23946.02
498.67	24194.12
498.85	24212.84
499.03	24135.60
499.20	24332.21
499.38	24484.34
499.56	24339.23
499.73	24514.77
499.91	24737.12
500.08	24823.72
500.26	25076.50
500.44	24938.41
500.61	25034.37
500.79	25200.55
500.97	25088.20
501.14	25404.17
501.32	25404.17
501.49	25565.67
501.67	25755.26
501.84	25865.26
502.02	25853.56
502.20	26111.02
502.37	25764.62
502.55	25881.64
502.72	25977.61
502.90	26134.42
503.07	26293.58
503.25	26438.69
503.43	26256.13
503.60	26363.79
503.78	26581.46
503.95	26609.55
504.13	27047.23
504.30	26749.98
504.48	27098.72
504.65	26862.33
504.83	27248.52
505.01	27220.43
505.18	27428.74
505.36	27915.57
505.53	27288.31
505.71	27452.14
505.88	27749.39
506.06	27541.08
506.23	27791.52
506.41	27798.54
506.58	28053.66
506.76	27807.90
506.93	28308.78
507.11	28060.68
507.28	28247.93
507.46	28088.77
507.63	28343.89
507.81	28638.80
507.98	28481.98
508.16	28498.36
508.33	28786.25
508.50	29130.31
508.68	28978.17
508.85	29298.83
509.03	29338.62
509.20	29240.31
509.38	29572.67
509.55	29612.46
509.73	29607.78
509.90	29406.49
510.08	29780.98
510.25	29647.57
510.42	30225.68
510.60	29895.66
510.77	30103.97
510.95	30277.17
511.12	30293.55
511.30	30429.30
511.47	30316.96
511.64	30302.92
511.82	30747.62
511.99	30527.61
512.17	30930.18
512.34	30773.36
512.51	31012.10
512.69	31082.31
512.86	31014.44
513.04	30677.40
513.21	31103.38
513.38	31491.91
513.56	31087.00
513.73	31505.95
513.90	31044.87
514.08	31587.87
514.25	31812.56
514.43	32109.81
514.60	32044.27
514.77	31686.17
514.95	32362.59
515.12	31878.10
515.29	32011.51
515.47	31896.82
515.64	32460.89
515.81	31969.38
515.99	32533.45
516.16	32652.81
516.33	32283.01
516.51	32952.40
516.68	32545.15
516.85	32830.69
517.03	32804.95
517.20	33127.94
517.37	32720.69
517.54	33195.82
517.72	33120.92
517.89	33041.34
518.06	33179.43
518.24	33411.15
518.41	33546.90
518.58	33432.21
518.75	33139.65
518.93	33600.73
519.10	33537.54
519.27	33703.71
519.45	33635.84
519.62	34040.75
519.79	33956.49
519.96	34099.26
520.14	34071.18
520.31	34267.78
520.48	33937.77
520.65	34113.31
520.83	34419.92
521.00	35147.82
521.17	34541.63
521.34	34796.74
521.52	34866.96
521.69	34733.55
521.86	34895.05
522.03	34843.56
522.20	35372.52
522.38	35491.88
522.55	35108.04
522.72	35349.11
522.89	35386.56
523.07	35402.94
523.24	35409.96
523.41	35136.12
523.58	35704.87
523.75	36163.62
523.92	35606.57
524.10	35608.91
524.27	35768.07
524.44	35751.68
524.61	36297.03
524.78	36034.89
524.96	36067.66
525.13	36467.89
525.30	36486.61
525.47	36526.40
525.64	36495.97
525.81	36172.98
525.98	36685.56
526.16	36594.28
526.33	36292.35
526.50	37340.91
526.67	36943.02
526.84	36884.50
527.01	36917.27
527.18	37106.85
527.36	36914.93
527.53	37008.55
527.70	37687.31
527.87	37041.32
528.04	37174.73
528.21	37567.94
528.38	37687.31
528.55	37331.54
528.72	37577.30
528.89	37661.56
529.07	37593.68
529.24	37504.74
529.41	38073.49
529.58	37858.17
529.75	37624.11
529.92	38012.64
530.09	37605.39
530.26	38171.80
530.43	38323.93
530.60	37769.22
530.77	37930.72
530.94	38382.45
531.11	38155.41
531.28	38153.07
531.46	38532.24
531.63	38541.60
531.80	38639.90
531.97	38579.05
532.14	38763.95
532.31	38499.47
532.48	38703.10
532.65	39096.31
532.82	38815.44
532.99	38848.21
533.16	38948.85
533.33	38948.85
533.50	39196.95
533.67	38911.41
533.84	38675.01
534.01	39173.55
534.18	39215.68
534.35	39463.77
534.52	39744.64
534.69	39402.92
534.86	39349.09
535.03	39477.82
535.20	39501.22
535.37	40027.84
535.54	39646.33
535.71	39695.49
535.88	39566.76
536.05	40098.06
536.22	39887.41
536.38	40552.12
536.55	39730.59
536.72	40238.49
536.89	40032.52
537.06	40212.74
537.23	40154.23
537.40	40222.11
537.57	39959.97
537.74	40268.92
537.91	40353.18
538.08	40421.05
538.25	40151.89
538.42	40568.51
538.59	41074.06
538.75	40495.95
538.92	40832.99
539.09	40631.70
539.26	40718.30
539.43	40706.60
539.60	40718.30
539.77	41022.57
539.94	41525.78
540.11	41064.70
540.28	41188.75
540.44	40835.33
540.61	40830.65
540.78	41078.74
540.95	41031.93
541.12	41060.02
541.29	40982.78
541.46	41198.11
541.62	42096.88
541.79	41722.39
541.96	41193.43
542.13	41106.83
542.30	41467.27
542.47	41380.67
542.63	41975.17
542.80	41855.80
542.97	42127.30
543.14	42213.90
543.31	41944.74
543.48	42483.06
543.64	42630.52
543.81	42241.99
543.98	41893.25
544.15	42548.60
544.32	42564.98
544.48	42597.75
544.65	42295.82
544.82	42501.79
544.99	42288.80
545.16	42504.13
545.32	42918.40
545.49	42990.96
545.66	42562.64
545.83	42691.37
546.00	43107.99
546.16	42799.04
546.33	42997.98
546.50	42782.65
546.67	42621.16
546.83	42724.14
547.00	42831.80
547.17	42429.23
547.34	42932.45
547.50	43292.89
547.67	43452.05
547.84	43337.36
548.00	43323.32
548.17	43922.49
548.34	43674.40
548.51	43803.13
548.67	43716.53
548.84	43707.16
549.01	43416.94
549.18	43625.25
549.34	43690.78
549.51	44088.67
549.68	43746.95
549.84	43522.26
550.01	43700.14
550.18	43555.03
550.34	43388.85
550.51	43786.74
550.68	44151.87
550.84	43812.49
551.01	43971.64
551.18	43763.34
551.34	44367.20
551.51	44329.75
551.68	44018.46
551.84	44208.04
552.01	44034.84
552.18	44535.71
552.34	44388.26
552.51	44371.88
552.68	43913.13
552.84	44271.23
553.01	44404.64
553.18	44184.63
553.34	44870.41
553.51	44746.36
553.67	44626.99
553.84	44495.92
554.01	44947.65
554.17	44839.98
554.34	44938.29
554.51	44666.78
554.67	45050.63
554.84	44886.79
555.00	44940.63
555.17	44945.31
555.33	45092.76
555.50	45064.67
555.67	45228.51
555.83	45153.62
556.00	44919.56
556.16	45734.07
556.33	45523.42
556.50	44835.30
556.66	45237.87
556.83	44905.52
556.99	45748.11
557.16	45490.65
557.32	45677.90
557.49	45488.31
557.65	45167.66
557.82	45198.09
557.98	45368.94
558.15	45509.38
558.32	45776.20
558.48	45216.81
558.65	45455.54
558.81	45813.65
558.98	45483.63
559.14	45504.70
559.31	45404.05
559.47	45439.16
559.64	45675.55
559.80	45883.86
559.97	45684.92
560.13	45600.66
560.30	45628.74
560.46	45947.06
560.63	46003.23
560.79	45963.44
560.96	46340.27
561.12	46078.13
561.29	45921.31
561.45	45853.44
561.61	46043.02
561.78	45799.60
561.94	46089.83
562.11	45888.54
562.27	46045.36
562.44	46050.04
562.60	46206.86
562.77	46108.55
562.93	46103.87
563.10	46499.42
563.26	46401.12
563.42	46810.71
563.59	45972.80
563.75	46213.88
563.92	46263.03
564.08	46368.35
564.24	46492.40
564.41	46513.47
564.57	46457.29
564.74	46141.32
564.90	46452.61
565.07	46169.41
565.23	46328.56
565.39	46321.54
565.56	46246.65
565.72	46258.35
565.88	46394.10
566.05	46504.10
566.21	46309.84
566.38	46403.46
566.54	46431.55
566.70	46747.52
566.87	47056.47
567.03	46834.12
567.19	46777.95
567.36	46501.76
567.52	46246.65
567.68	46878.59
567.85	46677.30
568.01	47000.30
568.17	46518.15
568.34	47166.48
568.50	47199.24
568.66	46857.52
568.83	47318.61
568.99	46639.86
569.15	47304.57
569.32	46387.08
569.48	46749.86
569.64	47206.26
569.81	46841.14
569.97	46700.71
570.13	46897.31
570.30	46801.35
570.46	46979.23
570.62	47054.13
570.78	47220.31
570.95	46927.74
571.11	47320.95
571.27	47061.15
571.43	46796.67
571.60	46658.58
571.76	46941.78
571.92	46796.67
572.09	46892.63
572.25	47129.03
572.41	47000.30
572.57	46696.03
572.74	47700.12
572.90	47114.98
573.06	47227.33
573.22	47278.82
573.38	47398.19
573.55	47007.32
573.71	47428.62
573.87	47278.82
574.03	47159.45
574.20	47704.80
574.36	47580.75
574.52	47323.29
574.68	47122.01
574.84	47606.50
575.01	47580.75
575.17	47161.79
575.33	47267.12
575.49	47320.95
575.65	47494.15
575.82	47538.62
575.98	47175.84
576.14	47311.59
576.30	47587.77
576.46	47576.07
576.62	47096.26
576.79	47292.86
576.95	46902.00
577.11	47075.19
577.27	47327.97
577.43	47224.99
577.59	47440.32
577.75	47344.36
577.92	47257.76
578.08	47447.34
578.24	47002.64
578.40	47735.23
578.56	47655.65
578.72	47737.57
578.88	47531.60
579.04	47234.35
579.21	47583.09
579.37	47533.94
579.53	47374.78
579.69	47377.12
579.85	47276.48
580.01	47536.28
580.17	47334.99
580.33	47442.66
580.49	47718.84
580.65	47625.22
580.82	47669.69
580.98	47824.17
581.14	47185.20
581.30	47604.16
581.46	47136.05
581.62	47487.13
581.78	47342.02
581.94	47805.44
582.10	47433.30
582.26	47608.84
582.42	47325.63
582.58	47409.89
582.74	47688.42
582.90	47489.47
583.06	47611.18
583.22	46937.10
583.38	47512.88
583.54	47592.45
583.70	47669.69
583.86	48123.75
584.02	47571.39
584.18	47980.98
584.34	47674.37
584.50	47906.08
584.66	47573.73
584.82	47852.25
584.98	47632.24
585.14	47725.86
585.30	47510.53
585.46	47800.76
585.62	47597.13
585.78	47913.11
585.94	47136.05
586.10	47386.49
586.26	47421.59
586.42	47653.31
586.58	47526.92
586.74	47707.14
586.90	47466.06
587.06	47859.27
587.22	47779.70
587.38	47955.24
587.54	48100.35
587.70	47913.11
587.86	47817.14
588.02	47384.15
588.18	47866.30
588.34	47428.62
588.49	47613.52
588.65	47585.43
588.81	47683.73
588.97	47983.32
589.13	47833.53
589.29	47863.96
589.45	48114.39
589.61	48217.38
589.77	47999.71
589.93	47917.79
590.08	47700.12
