SpectraSuite Data File
++++++++++++++++++++++++++++++++++++
Date: Fri Oct 25 11:23:09 EDT 2013
User: price-jones
Dark Spectrum Present: No
Reference Spectrum Present: No
Number of Sampled Component Spectra: 1
Spectrometers: USB2+H05261
Integration Time (usec): 100000 (USB2+H05261)
Spectra Averaged: 1 (USB2+H05261)
Boxcar Smoothing: 0 (USB2+H05261)
Correct for Electrical Dark: No (USB2+H05261)
Strobe/Lamp Enabled: No (USB2+H05261)
Correct for Detector Non-linearity: No (USB2+H05261)
Correct for Stray Light: No (USB2+H05261)
Number of Pixels in Processed Spectrum: 2048
>>>>>Begin Processed Spectral Data<<<<<
365.73	231.71
365.92	231.71
366.12	231.71
366.32	126.39
366.52	110.01
366.72	168.52
366.91	79.58
367.11	142.77
367.31	154.48
367.51	159.16
367.70	95.96
367.90	147.45
368.10	102.98
368.30	159.16
368.49	124.05
368.69	128.73
368.89	121.71
369.09	236.39
369.28	124.05
369.48	152.13
369.68	163.84
369.87	217.67
370.07	184.90
370.27	257.46
370.47	278.52
370.66	645.99
370.86	655.35
371.06	664.71
371.25	624.92
371.45	592.16
371.65	641.31
371.84	645.99
372.04	671.73
372.24	774.72
372.44	669.39
372.63	732.59
372.83	720.88
373.03	767.70
373.22	690.46
373.42	713.86
373.62	730.25
373.81	802.80
374.01	835.57
374.21	741.95
374.40	842.59
374.60	828.55
374.79	795.78
374.99	821.53
375.19	819.19
375.38	882.38
375.58	830.89
375.78	833.23
375.97	866.00
376.17	873.02
376.37	894.08
376.56	791.10
376.76	912.81
376.95	823.87
377.15	901.11
377.35	926.85
377.54	898.77
377.74	978.34
377.93	861.32
378.13	973.66
378.33	901.11
378.52	882.38
378.72	926.85
378.91	940.90
379.11	1018.13
379.31	1025.15
379.50	952.60
379.70	1020.47
379.89	1015.79
380.09	959.62
380.28	971.32
380.48	903.45
380.68	1022.81
380.87	985.37
381.07	961.96
381.26	1071.97
381.46	947.92
381.65	1128.14
381.85	1053.24
382.04	1097.71
382.24	1064.94
382.43	1018.13
382.63	1050.90
382.83	1132.82
383.02	1076.65
383.22	1104.73
383.41	1004.09
383.61	1097.71
383.80	1114.10
384.00	1116.44
384.19	1048.56
384.39	1111.75
384.58	1186.65
384.78	1121.12
384.97	1118.78
385.17	1125.80
385.36	1135.16
385.56	1266.23
385.75	1167.93
385.95	1268.57
386.14	1228.78
386.34	1121.12
386.53	1163.25
386.72	1109.41
386.92	1240.48
387.11	1170.27
387.31	1217.08
387.50	1270.91
387.70	1191.33
387.89	1294.32
388.09	1277.93
388.28	1310.70
388.48	1352.83
388.67	1329.42
388.86	1324.74
389.06	1308.36
389.25	1427.73
389.45	1362.19
389.64	1327.08
389.84	1423.05
390.03	1334.11
390.22	1448.79
390.42	1376.24
390.61	1341.13
390.81	1401.98
391.00	1488.58
391.19	1519.01
391.39	1404.32
391.58	1385.60
391.78	1369.21
391.97	1479.22
392.16	1465.18
392.36	1530.71
392.55	1423.05
392.75	1603.27
392.94	1483.90
393.13	1554.12
393.33	1586.88
393.52	1535.39
393.71	1708.59
393.91	1523.69
394.10	1732.00
394.29	1732.00
394.49	1586.88
394.68	1708.59
394.88	1661.78
395.07	1767.10
395.26	1724.97
395.46	1645.40
395.65	1685.19
395.84	1621.99
396.04	1715.61
396.23	1715.61
396.42	1820.94
396.62	1802.21
396.81	1762.42
397.00	1755.40
397.19	1776.47
397.39	1809.23
397.58	1816.26
397.77	1834.98
397.97	1790.51
398.16	1837.32
398.35	1891.15
398.55	1905.20
398.74	1956.69
398.93	1839.66
399.12	1930.94
399.32	1991.80
399.51	1919.24
399.70	1865.41
399.90	1895.83
400.09	1996.48
400.28	2052.65
400.47	2029.24
400.67	2106.48
400.86	2071.37
401.05	2083.08
401.24	2160.31
401.44	2104.14
401.63	2190.74
401.82	2186.06
402.01	2008.18
402.21	2134.57
402.40	2176.70
402.59	2270.32
402.78	2148.61
402.97	2223.51
403.17	2239.89
403.36	2235.21
403.55	2305.43
403.74	2415.43
403.93	2354.58
404.13	2462.24
404.32	2396.71
404.51	2401.39
404.70	2333.51
404.89	2396.71
405.09	2532.46
405.28	2431.82
405.47	2438.84
405.66	2516.08
405.85	2567.57
406.05	2516.08
406.24	2600.34
406.43	2649.49
406.62	2691.62
406.81	2773.53
407.00	2626.08
407.20	2696.30
407.39	2558.21
407.58	2696.30
407.77	2703.32
407.96	2780.56
408.15	2775.88
408.34	2761.83
408.54	2909.29
408.73	2796.94
408.92	2860.13
409.11	2867.16
409.30	2953.76
409.49	2956.10
409.68	2951.42
409.87	2953.76
410.07	3033.33
410.26	3068.44
410.45	2960.78
410.64	2995.89
410.83	3126.96
411.02	3155.04
411.21	3171.43
411.40	3096.53
411.59	3204.19
411.78	3152.70
411.98	3155.04
412.17	3218.24
412.36	3342.28
412.55	3358.67
412.74	3372.71
412.93	3351.65
413.12	3431.23
413.31	3517.83
413.50	3604.42
413.69	3583.36
413.88	3627.83
414.07	3559.95
414.26	3644.21
414.45	3712.09
414.64	3679.32
414.83	3801.03
415.02	3721.45
415.22	3854.86
415.41	3896.99
415.60	3765.92
415.79	3918.06
415.98	3922.74
416.17	4004.66
416.36	3892.31
416.55	4063.17
416.74	4152.11
416.93	4058.49
417.12	4234.03
417.31	4170.83
417.50	4255.09
417.69	4451.70
417.88	4313.61
418.07	4273.82
418.26	4418.93
418.45	4355.74
418.64	4512.55
418.83	4519.57
419.02	4278.50
419.21	4730.22
419.39	4531.28
419.58	4531.28
419.77	4496.17
419.96	4770.01
420.15	4599.15
420.34	4578.09
420.53	4624.90
420.72	4676.39
420.91	4770.01
421.10	4723.20
421.29	4746.61
421.48	4662.35
421.67	4807.46
421.86	4634.26
422.05	4873.00
422.24	4798.10
422.43	4901.08
422.61	4840.23
422.80	5050.88
422.99	4973.64
423.18	5004.07
423.37	5018.11
423.56	5064.92
423.75	4910.44
423.94	4882.36
424.13	4709.16
424.32	4821.50
424.50	5198.33
424.69	5193.65
424.88	5076.62
425.07	4901.08
425.26	4959.60
425.45	5078.96
425.64	4966.62
425.83	5015.77
426.01	5104.71
426.20	4961.94
426.39	5006.41
426.58	5153.86
426.77	5088.32
426.96	5277.91
427.15	5118.75
427.33	5418.34
427.52	5158.54
427.71	5303.65
427.90	5095.35
428.09	5476.85
428.28	5350.46
428.46	5362.17
428.65	5533.03
428.84	5586.86
429.03	5612.60
429.22	5441.75
429.40	5547.07
429.59	5413.66
429.78	5387.91
429.97	5490.90
430.16	5544.73
430.34	5696.86
430.53	5504.94
430.72	5654.73
430.91	5586.86
431.10	5771.76
431.28	5769.42
431.47	5804.53
431.66	6052.63
431.85	5825.59
432.03	5909.85
432.22	6047.94
432.41	6036.24
432.60	6160.29
432.79	6059.65
432.97	6090.07
433.16	6139.23
433.35	5898.15
433.54	6162.63
433.72	6169.65
433.91	6099.44
434.10	6167.31
434.28	6164.97
434.47	6307.74
434.66	6296.04
434.85	6408.39
435.03	6267.95
435.22	6335.83
435.41	6609.67
435.59	6282.00
435.78	6335.83
435.97	6455.20
436.16	6286.68
436.34	6551.16
436.53	6558.18
436.72	6719.68
436.90	6443.49
437.09	6719.68
437.28	6544.14
437.46	6492.65
437.65	6555.84
437.84	6794.58
438.02	6754.79
438.21	6932.67
438.40	6698.61
438.58	6970.12
438.77	7112.89
438.96	7000.54
439.14	7119.91
439.33	7155.02
439.52	7269.70
439.70	7258.00
439.89	7487.37
440.08	7489.71
440.26	7566.95
440.45	7328.22
440.63	7538.87
440.82	7648.87
441.01	7527.16
441.19	7513.12
441.38	7826.75
441.57	7616.10
441.75	7779.94
441.94	8039.74
442.12	7960.16
442.31	8058.46
442.50	8023.36
442.68	7772.92
442.87	8088.89
443.05	8306.56
443.24	8348.69
443.43	8119.32
443.61	8294.86
443.80	8512.53
443.98	8056.12
444.17	8006.97
444.35	8376.78
444.54	8374.44
444.73	8386.14
444.91	8449.33
445.10	8545.30
445.28	8578.06
445.47	8271.45
445.65	8386.14
445.84	8339.33
446.02	8865.95
446.21	8533.59
446.39	8320.60
446.58	8528.91
446.77	8559.34
446.95	8346.35
447.14	8613.17
447.32	8657.64
447.51	8615.51
447.69	8456.36
447.88	8587.43
448.06	8386.14
448.25	8554.66
448.43	8723.18
448.62	8566.36
448.80	8833.18
448.99	8739.56
449.17	8828.50
449.36	8854.25
449.54	8891.70
449.73	9095.32
449.91	8922.12
450.10	8910.42
450.28	9160.86
450.46	9172.56
450.65	9217.03
450.83	9071.92
451.02	9315.33
451.20	9240.44
451.39	9188.94
451.57	9177.24
451.76	9121.07
451.94	9507.26
452.13	9472.15
452.31	9441.72
452.49	9029.79
452.68	9390.23
452.86	9380.87
453.05	9523.64
453.23	9668.75
453.42	9462.79
453.60	9533.00
453.78	9528.32
453.97	9521.30
454.15	9525.98
454.34	9741.31
454.52	9703.86
454.70	9867.70
454.89	9928.55
455.07	9659.39
455.26	10066.64
455.44	10174.31
455.62	10087.71
455.81	9853.66
455.99	10050.26
456.17	10010.47
456.36	10157.92
456.54	10071.33
456.73	10310.06
456.91	10721.99
457.09	10588.58
457.28	10677.52
457.46	10328.78
457.64	10668.16
457.83	10513.69
458.01	10429.43
458.19	10686.89
458.38	10663.48
458.56	11005.20
458.74	10864.77
458.93	10869.45
459.11	10773.49
459.29	10827.32
459.48	10841.36
459.66	10778.17
459.84	11019.24
460.03	11185.42
460.21	11351.60
460.39	11033.29
460.57	11213.51
460.76	11075.42
460.94	11218.19
461.12	11279.04
461.31	11234.57
461.49	11314.15
461.67	11190.10
461.85	11557.57
462.04	11513.10
462.22	11424.15
462.40	11536.50
462.59	11569.27
462.77	11454.58
462.95	11606.72
463.13	11791.62
463.32	11864.18
463.50	11925.03
463.68	11892.26
463.86	12182.49
464.05	11808.00
464.23	11843.11
464.41	12147.38
464.59	11939.07
464.78	12271.43
464.96	11997.59
465.14	11910.99
465.32	12205.89
465.50	12100.57
465.69	12369.73
465.87	12259.73
466.05	12212.92
466.23	12084.19
466.41	12327.60
466.60	12744.22
466.78	12198.87
466.96	12484.42
467.14	12404.84
467.32	12580.38
467.51	12549.95
467.69	12224.62
467.87	12624.85
468.05	12695.07
468.23	12510.16
468.41	12343.99
468.60	12542.93
468.78	12894.01
468.96	12624.85
469.14	12872.95
469.32	13116.36
469.50	12720.81
469.69	13029.76
469.87	13259.13
470.05	13261.48
470.23	13509.57
470.41	13270.84
470.59	13451.06
470.77	13439.36
470.95	13521.27
471.14	13776.39
471.32	13509.57
471.50	13638.30
471.68	13708.52
471.86	13682.77
472.04	14024.49
472.22	14120.45
472.40	13867.67
472.58	13933.21
472.77	14431.74
472.95	14295.99
473.13	14775.80
473.31	14134.50
473.49	14335.78
473.67	14338.12
473.85	14618.99
474.03	14934.96
474.21	14614.30
474.39	14927.94
474.57	14810.91
474.75	15091.77
474.93	15290.72
475.12	15257.95
475.30	14988.79
475.48	15117.52
475.66	15239.23
475.84	15356.25
476.02	15466.26
476.20	15501.37
476.38	15805.64
476.56	15983.52
476.74	16240.98
476.92	16018.63
477.10	15880.53
477.28	16095.86
477.46	16065.44
477.64	16498.44
477.82	16725.47
478.00	17043.78
478.18	17099.95
478.36	17132.72
478.54	17181.87
478.72	17305.92
478.90	17659.34
479.08	17687.43
479.26	18031.49
479.44	17657.00
479.62	18040.85
479.80	18267.88
479.98	18373.21
480.16	18803.86
480.34	18607.26
480.52	19037.92
480.70	19021.53
480.88	18693.86
481.06	18740.67
481.24	19115.16
481.41	19143.24
481.59	19824.34
481.77	19693.27
481.95	20180.10
482.13	20159.03
482.31	19913.28
482.49	20538.20
482.67	20538.20
482.85	20465.64
483.03	20692.68
483.21	20828.43
483.39	20950.14
483.57	21223.98
483.74	21579.74
483.92	21591.44
484.10	21238.02
484.28	21874.65
484.46	21975.29
484.64	22682.13
484.82	22260.84
485.00	22651.70
485.18	22953.63
485.35	22995.76
485.53	23201.73
485.71	23218.11
485.89	23709.63
486.07	23531.75
486.25	23538.77
486.43	23634.73
486.61	24051.34
486.78	24034.96
486.96	24191.78
487.14	24650.52
487.32	24702.01
487.50	25055.43
487.68	25357.36
487.85	25310.55
488.03	25394.81
488.21	26089.95
488.39	26050.16
488.57	26426.99
488.75	26408.26
488.92	26686.79
489.10	27061.27
489.28	27152.55
489.46	27190.00
489.64	27377.25
489.81	27983.44
489.99	27974.08
490.17	27906.21
490.35	28308.78
490.53	28453.89
490.70	28350.91
490.88	28343.89
491.06	29078.82
491.24	28992.22
491.41	29088.18
491.59	29261.38
491.77	29280.10
491.95	29680.33
492.13	30082.91
492.30	30188.23
492.48	30071.20
492.66	30279.51
492.84	30796.77
493.01	31213.38
493.19	30913.80
493.37	31136.15
493.54	31098.70
493.72	31737.66
493.90	31718.94
494.08	31826.60
494.25	31955.33
494.43	32109.81
494.61	32664.52
494.79	32739.41
494.96	32980.49
495.14	33310.50
495.32	33612.43
495.49	33521.15
495.67	33511.79
495.85	33607.75
496.02	34141.39
496.20	33937.77
496.38	34007.98
496.55	34553.33
496.73	35154.85
496.91	34787.38
497.09	35236.77
497.26	35040.16
497.44	35454.44
497.62	35393.58
497.79	36102.76
497.97	35648.70
498.14	36271.28
498.32	36011.48
498.50	36371.92
498.67	36975.78
498.85	36748.75
499.03	36835.35
499.20	36837.69
499.38	37067.06
499.56	37457.93
499.73	37102.17
499.91	37736.46
500.08	38043.07
500.26	37645.18
500.44	38316.91
500.61	37979.87
500.79	38164.78
500.97	38450.32
501.14	38857.57
501.32	39061.20
501.49	38663.31
501.67	39313.98
501.84	39576.12
502.02	39321.00
502.20	39632.29
502.37	39358.45
502.55	39782.09
502.72	39952.94
502.90	40168.27
503.07	39805.49
503.25	40229.13
503.43	39784.43
503.60	40697.24
503.78	40645.74
503.95	40493.61
504.13	40732.34
504.30	41120.87
504.48	40912.56
504.65	41113.85
504.83	41219.17
505.01	41949.42
505.18	41450.89
505.36	41956.44
505.53	41799.63
505.71	42068.79
505.88	42506.47
506.06	41752.82
506.23	42153.05
506.41	42117.94
506.58	42541.58
506.76	42607.11
506.93	42878.61
507.11	43012.02
507.28	42759.25
507.46	43131.39
507.63	43164.16
507.81	43758.66
507.98	43604.18
508.16	43515.24
508.33	43880.36
508.50	43723.55
508.68	44067.61
508.85	44261.87
509.03	44378.90
509.20	44350.81
509.38	45006.16
509.55	44664.44
509.73	44774.45
509.90	44903.18
510.08	44641.04
510.25	45258.94
510.42	44830.62
510.60	45663.85
510.77	45244.90
510.95	45624.06
511.12	45340.86
511.30	45713.00
511.47	46122.60
511.64	46150.68
511.82	46120.26
511.99	46253.67
512.17	46169.41
512.34	46213.88
512.51	46583.68
512.69	46859.87
512.86	46644.54
513.04	46787.31
513.21	46820.08
513.38	47100.94
513.56	47061.15
513.73	47344.36
513.90	47332.65
514.08	47402.87
514.25	47650.97
514.43	47908.43
514.60	47772.67
514.77	47927.15
514.95	48278.23
515.12	48116.73
515.29	48037.16
515.47	48158.86
515.64	48540.37
515.81	48311.00
515.99	48481.86
516.16	48779.10
516.33	48697.19
516.51	48905.49
516.68	48779.10
516.85	48842.30
517.03	49287.00
517.20	49244.87
517.37	49404.03
517.54	49331.47
517.72	49542.12
517.89	49385.30
518.06	49787.88
518.24	49326.79
518.41	49364.24
518.58	49815.96
518.75	49715.32
518.93	50153.00
519.10	49673.19
519.27	49776.17
519.45	50087.46
519.62	50368.33
519.79	50099.17
519.96	50305.13
520.14	50506.42
520.31	50429.18
520.48	51021.34
520.65	50810.69
520.83	50749.84
521.00	51150.07
521.17	50681.96
521.34	50801.33
521.52	51166.45
521.69	51250.71
521.86	50941.76
522.03	51264.75
522.20	51774.99
522.38	51856.91
522.55	51669.67
522.72	51686.05
522.89	51889.68
523.07	52046.49
523.24	52016.07
523.41	52172.88
523.58	51873.29
523.75	52100.32
523.92	52004.36
524.10	52107.35
524.27	52308.63
524.44	52273.52
524.61	52186.92
524.78	52619.92
524.96	52664.39
525.13	52549.71
525.30	52633.97
525.47	52987.39
525.64	52526.30
525.81	52786.10
525.98	52844.62
526.16	53109.10
526.33	53003.77
526.50	53556.14
526.67	53219.10
526.84	53338.47
527.01	53069.31
527.18	53272.93
527.36	53221.44
527.53	53308.04
527.70	53731.68
527.87	53666.14
528.04	53277.61
528.21	53551.46
528.38	53745.72
528.55	53921.26
528.72	53783.17
528.89	53848.71
529.07	53734.02
529.24	53490.60
529.41	53881.47
529.58	53930.62
529.75	53872.11
529.92	54064.03
530.09	54454.90
530.26	54461.93
530.43	54340.22
530.60	54049.99
530.77	54052.33
530.94	54749.81
531.11	54475.97
531.28	54248.94
531.46	54452.56
531.63	54759.17
531.80	54518.10
531.97	54609.38
532.14	54452.56
532.31	54803.64
532.48	54752.15
532.65	54911.31
532.82	54810.67
532.99	54857.48
533.16	55070.46
533.33	54890.24
533.50	55243.66
533.67	55070.46
533.84	54857.48
534.01	55238.98
534.18	55086.85
534.35	55384.10
534.52	55241.32
534.69	55538.57
534.86	55407.50
535.03	55515.17
535.20	55592.40
535.37	55679.00
535.54	55643.90
535.71	55386.44
535.88	55391.12
536.05	55838.16
536.22	55789.01
536.38	55903.70
536.55	55789.01
536.72	55639.22
536.89	55721.13
537.06	55702.41
537.23	56179.88
537.40	56002.00
537.57	55929.44
537.74	55863.91
537.91	56427.98
538.08	56268.82
538.25	55756.24
538.42	56243.07
538.59	56350.74
538.75	56324.99
538.92	55957.53
539.09	56479.47
539.26	56203.28
539.43	56573.09
539.60	56456.06
539.77	56540.32
539.94	56734.59
540.11	56619.90
540.28	56809.48
540.44	56835.23
540.61	56687.78
540.78	56521.60
540.95	56875.02
541.12	56699.48
541.29	56605.86
541.46	56860.97
541.62	56839.91
541.79	57176.95
541.96	56608.20
542.13	56725.22
542.30	56912.47
542.47	57092.69
542.63	57013.11
542.80	57038.86
542.97	57394.62
543.14	57549.09
543.31	57373.55
543.48	57303.34
543.64	57565.48
543.81	57581.86
543.98	57373.55
544.15	57352.49
544.32	57609.95
544.48	57790.17
544.65	57715.27
544.82	57628.67
544.99	57462.49
545.16	57841.66
545.32	57333.76
545.49	57858.04
545.66	58047.63
545.83	57865.06
546.00	57982.09
546.16	57869.75
546.33	57869.75
546.50	57975.07
546.67	58056.99
546.83	57911.88
547.00	57916.56
547.17	57811.23
547.34	57930.60
547.50	58447.86
547.67	58459.56
547.84	58218.49
548.00	58532.12
548.17	58422.11
548.34	58300.40
548.51	58464.24
548.67	58361.26
548.84	58274.66
549.01	58480.63
549.18	58354.24
549.34	58522.76
549.51	58555.52
549.68	58665.53
549.84	58667.87
550.01	58883.20
550.18	58482.97
550.34	58684.25
550.51	58850.43
550.68	58681.91
550.84	58515.73
551.01	58869.15
551.18	58836.39
551.34	58864.47
551.51	58815.32
551.68	58794.26
551.84	58623.40
552.01	58782.55
552.18	59110.23
552.34	58646.80
552.51	58857.45
552.68	58805.96
552.84	58880.86
553.01	59325.56
553.18	59068.10
553.34	59079.80
553.51	58969.80
553.67	59107.89
553.84	59166.40
554.01	59379.39
554.17	59208.53
554.34	59250.66
554.51	58965.12
554.67	59138.32
554.84	59363.01
555.00	59164.06
555.17	59339.60
555.33	59206.19
555.50	59220.23
555.67	59269.39
555.83	59332.58
556.00	59299.81
556.16	59643.87
556.33	59433.22
556.50	59468.33
556.66	59554.93
556.83	59363.01
556.99	59718.77
557.16	59833.46
557.32	59550.25
557.49	59987.93
557.65	59552.59
557.82	59568.97
557.98	59718.77
558.15	59810.05
558.32	59737.49
558.48	59781.96
558.65	59721.11
558.81	59739.83
558.98	59831.11
559.14	59788.98
559.31	59999.63
559.47	59863.88
559.64	60013.68
559.80	59957.50
559.97	60156.45
560.13	59707.07
560.30	60018.36
560.46	59943.46
560.63	59985.59
560.79	60130.70
560.96	60109.64
561.12	60236.03
561.29	60240.71
561.45	59990.27
561.61	60065.17
561.78	60069.85
561.94	60058.15
562.11	60137.72
562.27	60069.85
562.44	60285.18
562.60	60329.65
562.77	60203.26
562.93	59873.24
563.10	60322.63
563.26	60083.89
563.42	60559.02
563.59	60275.82
563.75	60315.61
563.92	60416.25
564.08	60060.49
564.24	60339.01
564.41	60240.71
564.57	60374.12
564.74	60530.93
564.90	60399.86
565.07	60378.80
565.23	60324.97
565.39	60437.31
565.56	60458.38
565.72	60158.79
565.88	60500.51
566.05	60182.19
566.21	60537.96
566.38	60474.76
566.54	60467.74
566.70	60530.93
566.87	60477.10
567.03	60374.12
567.19	60654.98
567.36	60568.38
567.52	60456.04
567.68	60748.60
567.85	60479.44
568.01	60657.32
568.17	60549.66
568.34	60701.79
568.50	60596.47
568.66	60355.39
568.83	60662.00
568.99	60554.34
569.15	60722.86
569.32	60533.28
569.48	60589.45
569.64	60753.29
569.81	60402.21
569.97	60610.51
570.13	60692.43
570.30	60577.75
570.46	60795.42
570.62	60685.41
570.78	60739.24
570.95	60671.37
571.11	60938.19
571.27	60650.30
571.43	60727.54
571.60	60942.87
571.76	60853.93
571.92	60734.56
572.09	60938.19
572.25	60757.97
572.41	60842.23
572.57	60935.85
572.74	61139.47
572.90	60748.60
573.06	60697.11
573.22	60870.31
573.38	60879.67
573.55	60858.61
573.71	61008.40
573.87	60926.49
574.03	60793.07
574.20	60816.48
574.36	60860.95
574.52	61013.08
574.68	60903.08
574.84	61069.26
575.01	61034.15
575.17	60900.74
575.33	60779.03
575.49	60762.65
575.65	60907.76
575.82	61146.50
575.98	60884.36
576.14	61190.97
576.30	61050.53
576.46	61048.19
576.62	61003.72
576.79	61076.28
576.95	60856.27
577.11	61003.72
577.27	61001.38
577.43	61041.17
577.59	60704.13
577.75	60870.31
577.92	60956.91
578.08	60849.25
578.24	60989.68
578.40	60961.59
578.56	61066.92
578.72	61413.32
578.88	61104.37
579.04	61378.21
579.21	60980.32
579.37	61263.52
579.53	61279.91
579.69	60977.98
579.85	61038.83
580.01	61031.81
580.17	60912.44
580.33	61130.11
580.49	61113.73
580.65	61125.43
580.82	61022.45
580.98	61029.47
581.14	60933.51
581.30	61212.03
581.46	60973.30
581.62	61106.71
581.78	61123.09
581.94	61214.37
582.10	61080.96
582.26	61219.05
582.42	61205.01
582.58	60912.44
582.74	61083.30
582.90	61097.34
583.06	61200.33
583.22	61010.74
583.38	61256.50
583.54	61375.87
583.70	61240.12
583.86	61179.26
584.02	61020.11
584.18	61289.27
584.34	61045.85
584.50	61078.62
584.66	61024.79
584.82	61113.73
584.98	61516.30
585.14	61137.13
585.30	60985.00
585.46	61453.11
585.62	61251.82
585.78	61165.22
585.94	61048.19
586.10	61261.18
586.26	61352.46
586.42	61410.98
586.58	61249.48
586.74	61230.75
586.90	61076.28
587.06	61141.81
587.22	61282.25
587.38	61399.27
587.54	61315.01
587.70	61539.71
587.86	61326.72
588.02	61343.10
588.18	61354.80
588.34	61172.24
