SpectraSuite Data File
++++++++++++++++++++++++++++++++++++
Date: Fri Oct 25 11:33:51 EDT 2013
User: price-jones
Dark Spectrum Present: No
Reference Spectrum Present: No
Number of Sampled Component Spectra: 1
Spectrometers: USB2+H05261
Integration Time (usec): 100000 (USB2+H05261)
Spectra Averaged: 1 (USB2+H05261)
Boxcar Smoothing: 0 (USB2+H05261)
Correct for Electrical Dark: No (USB2+H05261)
Strobe/Lamp Enabled: No (USB2+H05261)
Correct for Detector Non-linearity: No (USB2+H05261)
Correct for Stray Light: No (USB2+H05261)
Number of Pixels in Processed Spectrum: 2048
>>>>>Begin Processed Spectral Data<<<<<
365.73	339.38
365.92	339.38
366.12	339.38
366.32	161.50
366.52	205.97
366.72	161.50
366.91	189.58
367.11	201.29
367.31	138.09
367.51	105.32
367.70	112.35
367.90	166.18
368.10	107.66
368.30	184.90
368.49	145.11
368.69	159.16
368.89	182.56
369.09	168.52
369.28	180.22
369.48	173.20
369.68	177.88
369.87	224.69
370.07	224.69
370.27	280.86
370.47	294.91
370.66	498.53
370.86	491.51
371.06	507.90
371.25	514.92
371.45	538.32
371.65	554.71
371.84	512.58
372.04	510.24
372.24	589.82
372.44	519.60
372.63	620.24
372.83	533.64
373.03	594.50
373.22	566.41
373.42	624.92
373.62	615.56
373.81	636.63
374.01	608.54
374.21	638.97
374.40	617.90
374.60	678.76
374.79	653.01
374.99	683.44
375.19	681.10
375.38	638.97
375.58	634.29
375.78	678.76
375.97	660.03
376.17	716.20
376.37	634.29
376.56	709.18
376.76	720.88
376.95	725.57
377.15	753.65
377.35	685.78
377.54	660.03
377.74	631.94
377.93	620.24
378.13	770.04
378.33	660.03
378.52	695.14
378.72	732.59
378.91	638.97
379.11	674.07
379.31	725.57
379.50	741.95
379.70	751.31
379.89	753.65
380.09	699.82
380.28	713.86
380.48	760.67
380.68	772.38
380.87	725.57
381.07	781.74
381.26	772.38
381.46	755.99
381.65	798.12
381.85	809.83
382.04	770.04
382.24	781.74
382.43	704.50
382.63	744.29
382.83	798.12
383.02	788.76
383.22	706.84
383.41	763.01
383.61	798.12
383.80	821.53
384.00	758.33
384.19	751.31
384.39	784.08
384.58	833.23
384.78	933.87
384.97	781.74
385.17	772.38
385.36	856.64
385.56	858.98
385.75	819.19
385.95	814.51
386.14	873.02
386.34	849.61
386.53	772.38
386.72	823.87
386.92	884.72
387.11	915.15
387.31	884.72
387.50	910.47
387.70	826.21
387.89	819.19
388.09	912.81
388.28	938.55
388.48	891.74
388.67	908.13
388.86	947.92
389.06	926.85
389.25	945.58
389.45	983.02
389.64	940.90
389.84	961.96
390.03	1004.09
390.22	1039.20
390.42	997.07
390.61	929.19
390.81	987.71
391.00	1013.45
391.19	1004.09
391.39	1020.47
391.58	1029.84
391.78	959.62
391.97	980.68
392.16	1039.20
392.36	1046.22
392.55	1055.58
392.75	1022.81
392.94	1025.15
393.13	1029.84
393.33	1006.43
393.52	1191.33
393.71	1043.88
393.91	1032.18
394.10	1090.69
394.29	1109.41
394.49	1125.80
394.68	1165.59
394.88	1137.50
395.07	1184.31
395.26	1221.76
395.46	1249.85
395.65	1142.18
395.84	1107.07
396.04	1282.61
396.23	1184.31
396.42	1191.33
396.62	1273.25
396.81	1151.54
397.00	1203.04
397.19	1235.80
397.39	1184.31
397.58	1287.29
397.77	1275.59
397.97	1322.40
398.16	1228.78
398.35	1369.21
398.55	1247.51
398.74	1294.32
398.93	1219.42
399.12	1352.83
399.32	1343.47
399.51	1299.00
399.70	1430.07
399.90	1432.41
400.09	1306.02
400.28	1327.08
400.47	1364.53
400.67	1380.92
400.86	1401.98
401.05	1355.17
401.24	1289.64
401.44	1497.94
401.63	1493.26
401.82	1378.58
402.01	1441.77
402.21	1500.28
402.40	1446.45
402.59	1486.24
402.78	1479.22
402.97	1537.73
403.17	1495.60
403.36	1488.58
403.55	1631.35
403.74	1605.61
403.93	1617.31
404.13	1577.52
404.32	1624.33
404.51	1633.69
404.70	1591.56
404.89	1593.90
405.09	1621.99
405.28	1678.16
405.47	1652.42
405.66	1746.04
405.85	1678.16
406.05	1809.23
406.24	1743.70
406.43	1785.83
406.62	1755.40
406.81	1842.00
407.00	1739.02
407.20	1736.68
407.39	1771.79
407.58	1825.62
407.77	1912.22
407.96	1769.44
408.15	1907.54
408.34	1788.17
408.54	1959.03
408.73	1921.58
408.92	2003.50
409.11	2015.20
409.30	1921.58
409.49	1919.24
409.68	1982.43
409.87	1874.77
410.07	1996.48
410.26	2033.93
410.45	2045.63
410.64	2036.27
410.83	2162.66
411.02	2099.46
411.21	2181.38
411.40	2038.61
411.59	2221.17
411.78	2136.91
411.98	2150.95
412.17	2207.13
412.36	2122.87
412.55	2319.47
412.74	2314.79
412.93	2298.41
413.12	2347.56
413.31	2399.05
413.50	2387.35
413.69	2387.35
413.88	2436.50
414.07	2445.86
414.26	2509.05
414.45	2502.03
414.64	2588.63
414.83	2628.42
415.02	2619.06
415.22	2698.64
415.41	2614.38
415.60	2597.99
415.79	2679.91
415.98	2780.56
416.17	2679.91
416.36	2846.09
416.55	2644.81
416.74	2715.02
416.93	2740.77
417.12	2853.11
417.31	2815.66
417.50	2881.20
417.69	2953.76
417.88	3054.40
418.07	2928.01
418.26	3068.44
418.45	3030.99
418.64	3002.91
418.83	3012.27
419.02	2972.48
419.21	3059.08
419.39	3054.40
419.58	2995.89
419.77	2988.86
419.96	3131.64
420.15	3033.33
420.34	3150.36
420.53	3098.87
420.72	3173.77
420.91	3185.47
421.10	3229.94
421.29	3316.54
421.48	3185.47
421.67	3241.64
421.86	3218.24
422.05	3316.54
422.24	3433.57
422.43	3304.84
422.61	3330.58
422.80	3499.10
422.99	3304.84
423.18	3370.37
423.37	3361.01
423.56	3412.50
423.75	3335.26
423.94	3269.73
424.13	3162.06
424.32	3314.20
424.50	3527.19
424.69	3501.44
424.88	3576.34
425.07	3447.61
425.26	3407.82
425.45	3442.93
425.64	3391.44
425.83	3386.76
426.01	3494.42
426.20	3428.88
426.39	3438.25
426.58	3424.20
426.77	3461.65
426.96	3555.27
427.15	3445.27
427.33	3592.72
427.52	3602.08
427.71	3639.53
427.90	3489.74
428.09	3588.04
428.28	3695.71
428.46	3763.58
428.65	3700.39
428.84	3786.99
429.03	3744.86
429.22	3681.66
429.40	3721.45
429.59	3768.26
429.78	3698.05
429.97	3740.18
430.16	3616.13
430.34	3789.33
430.53	3955.51
430.72	3878.27
430.91	3772.94
431.10	3761.24
431.28	3861.88
431.47	4049.13
431.66	4093.60
431.85	3896.99
432.03	3927.42
432.22	4095.94
432.41	4042.11
432.60	4208.28
432.79	4042.11
432.97	3971.89
433.16	4028.06
433.35	4035.08
433.54	4252.75
433.72	4180.20
433.91	4351.06
434.10	4252.75
434.28	4088.92
434.47	4306.59
434.66	4243.39
434.85	4348.72
435.03	4318.29
435.22	4234.03
435.41	4388.50
435.59	4353.40
435.78	4269.14
435.97	4468.08
436.16	4360.42
436.34	4442.34
436.53	4423.61
436.72	4416.59
436.90	4404.89
437.09	4528.94
437.28	4435.32
437.46	4519.57
437.65	4547.66
437.84	4564.04
438.02	4638.94
438.21	4695.11
438.40	4589.79
438.58	4898.74
438.77	4732.56
438.96	4847.25
439.14	4786.40
439.33	4781.71
439.52	4847.25
439.70	4711.50
439.89	5081.30
440.08	5032.15
440.26	4954.91
440.45	5184.29
440.63	5123.43
440.82	5313.02
441.01	5135.14
441.19	5203.01
441.38	5348.12
441.57	5062.58
441.75	5224.08
441.94	5280.25
442.12	5448.77
442.31	5467.49
442.50	5474.51
442.68	5359.83
442.87	5408.98
443.05	5460.47
443.24	5582.18
443.43	5495.58
443.61	5568.13
443.80	5659.42
443.98	5453.45
444.17	5221.74
444.35	5652.39
444.54	5706.23
444.73	5497.92
444.91	5774.10
445.10	5542.39
445.28	5699.20
445.47	5554.09
445.65	5689.84
445.84	5701.54
446.02	5764.74
446.21	5738.99
446.39	5713.25
446.58	5851.34
446.77	5767.08
446.95	5561.11
447.14	5781.12
447.32	5818.57
447.51	5804.53
447.69	5729.63
447.88	5804.53
448.06	5729.63
448.25	5675.80
448.43	5685.16
448.62	5694.52
448.80	5849.00
448.99	5984.75
449.17	5928.58
449.36	5947.30
449.54	6069.01
449.73	5975.39
449.91	6246.89
450.10	6005.81
450.28	6101.78
450.46	6197.74
450.65	6272.64
450.83	6228.17
451.02	6003.47
451.20	6092.41
451.39	6127.52
451.57	6204.76
451.76	6228.17
451.94	6146.25
452.13	6207.10
452.31	6190.72
452.49	6113.48
452.68	6384.98
452.86	6202.42
453.05	6370.94
453.23	6427.11
453.42	6258.59
453.60	6183.70
453.78	6352.21
453.97	6242.21
454.15	6532.44
454.34	6392.00
454.52	6422.43
454.70	6567.54
454.89	6548.82
455.07	6476.26
455.26	6469.24
455.44	6499.67
455.62	6586.27
455.81	6750.10
455.99	6752.45
456.17	6764.15
456.36	6600.31
456.54	6890.54
456.73	6796.92
456.91	6995.86
457.09	6930.33
457.28	7140.97
457.46	6857.77
457.64	7026.29
457.83	6998.20
458.01	6911.60
458.19	7101.19
458.38	6827.34
458.56	7262.68
458.74	7157.36
458.93	7157.36
459.11	7171.40
459.29	7293.11
459.48	7169.06
459.66	7363.33
459.84	7318.86
460.03	7559.93
460.21	7468.65
460.39	7391.41
460.57	7506.10
460.76	7431.20
460.94	7375.03
461.12	7375.03
461.31	7609.08
461.49	7595.04
461.67	7604.40
461.85	7599.72
462.04	7475.67
462.22	8016.33
462.40	7803.35
462.59	7637.17
462.77	7653.55
462.95	7758.88
463.13	7641.85
463.32	7955.48
463.50	7992.93
463.68	7749.51
463.86	7939.10
464.05	7896.97
464.23	7723.77
464.41	7918.03
464.59	7880.58
464.78	8250.39
464.96	7861.86
465.14	7878.24
465.32	8140.38
465.50	8060.80
465.69	8154.43
465.87	7964.84
466.05	8049.10
466.23	8154.43
466.41	8224.64
466.60	8175.49
466.78	8121.66
466.96	8248.05
467.14	8285.50
467.32	8404.86
467.51	8432.95
467.69	8119.32
467.87	8234.00
468.05	8458.70
468.23	8423.59
468.41	8400.18
468.60	8491.46
468.78	8528.91
468.96	8411.89
469.14	8514.87
469.32	8667.00
469.50	8388.48
469.69	8901.06
469.87	8758.28
470.05	8568.70
470.23	8851.91
470.41	8723.18
470.59	8879.99
470.77	8636.58
470.95	8772.33
471.14	9036.81
471.32	8613.17
471.50	9156.18
471.68	9200.65
471.86	9144.47
472.04	9217.03
472.22	9291.93
472.40	9048.51
472.58	9294.27
472.77	9483.85
472.95	9437.04
473.13	9476.83
473.31	9174.90
473.49	9247.46
473.67	9540.02
473.85	9488.53
474.03	9710.88
474.21	9678.12
474.39	9696.84
474.57	9724.93
474.75	9912.17
474.93	9886.42
475.12	9825.57
475.30	9884.08
475.48	9951.96
475.66	10127.50
475.84	10111.11
476.02	10171.97
476.20	10059.62
476.38	10305.38
476.56	10445.81
476.74	10593.26
476.92	10497.30
477.10	10485.60
477.28	10707.95
477.46	10750.08
477.64	10850.72
477.82	10930.30
478.00	11126.91
478.18	11059.03
478.36	11199.46
478.54	11433.52
478.72	11098.82
478.90	11328.19
479.08	11625.44
479.26	11712.04
479.44	11929.71
479.62	11716.72
479.80	12079.50
479.98	11925.03
480.16	12023.33
480.34	12245.68
480.52	12053.76
480.70	12166.10
480.88	12177.81
481.06	12233.98
481.24	12613.15
481.41	12477.40
481.59	12746.56
481.77	12657.62
481.95	12706.77
482.13	13085.94
482.31	12978.27
482.49	13308.29
482.67	13224.03
482.85	13280.20
483.03	13404.25
483.21	13802.14
483.39	13937.89
483.57	13748.31
483.74	13963.64
483.92	14036.19
484.10	13729.58
484.28	14197.69
484.46	14427.06
484.64	14682.18
484.82	14635.37
485.00	14628.35
485.18	14710.27
485.35	15023.90
485.53	15171.35
485.71	15094.11
485.89	15236.89
486.07	15082.41
486.25	15330.51
486.43	15435.83
486.61	15218.16
486.78	15662.86
486.96	15917.98
487.14	16079.48
487.32	16065.44
487.50	16299.49
487.68	16332.26
487.85	16393.11
488.03	16844.84
488.21	16528.86
488.39	16858.88
488.57	17027.40
488.75	17181.87
488.92	17436.99
489.10	17235.70
489.28	17619.55
489.46	17755.30
489.64	17865.31
489.81	18118.09
489.99	17750.62
490.17	18085.32
490.35	18459.81
490.53	18441.08
490.70	18539.38
490.88	18249.16
491.06	18544.06
491.24	18984.09
491.41	18721.95
491.59	19337.51
491.77	19201.76
491.95	19171.33
492.13	19683.91
492.30	19761.14
492.48	19861.79
492.66	19564.54
492.84	19576.24
493.01	20262.02
493.19	20030.30
493.37	20554.58
493.54	20320.53
493.72	20339.26
493.90	20744.17
494.08	20872.90
494.25	20709.06
494.43	20615.44
494.61	21120.99
494.79	21095.25
494.96	21221.64
495.14	21289.51
495.32	21397.18
495.49	21476.76
495.67	21958.91
495.85	21874.65
496.02	21888.69
496.20	22218.71
496.38	22115.72
496.55	22104.02
496.73	22813.20
496.91	22466.80
497.09	22640.00
497.26	22677.45
497.44	22658.73
497.62	23033.21
497.79	23236.84
497.97	23344.50
498.14	23681.54
498.32	23393.65
498.50	23269.61
498.67	23784.52
498.85	23583.24
499.03	24142.63
499.20	24063.05
499.38	24346.25
499.56	24189.44
499.73	24594.35
499.91	24662.22
500.08	24474.98
500.26	24397.74
500.44	24404.77
500.61	24863.51
500.79	24608.39
500.97	24828.40
501.14	25053.09
501.32	25369.07
501.49	25308.21
501.67	25345.66
501.84	25598.44
502.02	25153.74
502.20	25483.75
502.37	25546.95
502.55	25687.38
502.72	25682.70
502.90	25757.60
503.07	25640.57
503.25	25993.99
503.43	25710.78
503.60	26419.97
503.78	26499.55
503.95	26361.45
504.13	26401.24
504.30	26710.19
504.48	26455.08
504.65	26700.83
504.83	26827.22
505.01	27105.74
505.18	27075.32
505.36	27065.96
505.53	26850.63
505.71	27400.65
505.88	27220.43
506.06	27115.11
506.23	27639.39
506.41	27330.44
506.58	27250.86
506.76	27440.44
506.93	27648.75
507.11	28100.47
507.28	27667.47
507.46	28243.24
507.63	27938.97
507.81	28765.18
507.98	28158.99
508.16	28645.82
508.33	28659.86
508.50	28840.08
508.68	28542.83
508.85	28863.49
509.03	28575.60
509.20	28840.08
509.38	29153.71
509.55	29188.82
509.73	29507.13
509.90	29266.06
510.08	29322.23
510.25	29385.43
510.42	29270.74
510.60	29591.39
510.77	29745.87
510.95	30094.61
511.12	29699.06
511.30	29804.38
511.47	30204.61
511.64	29993.97
511.82	30202.27
511.99	29858.21
512.17	30162.48
512.34	30099.29
512.51	30749.96
512.69	30874.01
512.86	30562.72
513.04	30906.77
513.21	30541.65
513.38	30913.80
513.56	31381.90
513.73	31028.48
513.90	31234.45
514.08	31412.33
514.25	31618.30
514.43	31475.52
514.60	31515.31
514.77	31391.26
514.95	31634.68
515.12	31328.07
515.29	31751.71
515.47	31730.64
515.64	31758.73
515.81	31618.30
515.99	31990.44
516.16	32353.23
516.33	31952.99
516.51	32411.74
516.68	32149.60
516.85	32638.77
517.03	32886.87
517.20	32517.06
517.37	32416.42
517.54	33333.91
517.72	32938.36
517.89	32971.13
518.06	32910.27
518.24	33029.64
518.41	32734.73
518.58	32840.06
518.75	32748.78
518.93	33544.56
519.10	33132.62
519.27	33165.39
519.45	33097.52
519.62	33787.97
519.79	33397.10
519.96	33518.81
520.14	33593.71
520.31	33816.06
520.48	33769.25
520.65	33855.85
520.83	34199.91
521.00	34307.57
521.17	33694.35
521.34	34211.61
521.52	34419.92
521.69	34274.80
521.86	34092.24
522.03	34747.59
522.20	34588.44
522.38	35105.70
522.55	35353.79
522.72	34869.30
522.89	35028.46
523.07	34958.24
523.24	35016.75
523.41	35431.03
523.58	35178.25
523.75	35295.28
523.92	35180.59
524.10	34878.66
524.27	35913.18
524.44	35658.06
524.61	35592.53
524.78	36004.46
524.96	35634.66
525.13	36121.49
525.30	36018.50
525.47	35950.63
525.64	36006.80
525.81	36187.02
525.98	35864.03
526.16	36137.87
526.33	35985.74
526.50	36172.98
526.67	35985.74
526.84	36545.12
527.01	36311.07
527.18	36507.68
527.36	36526.40
527.53	36687.90
527.70	37425.17
527.87	37060.04
528.04	36842.37
528.21	36510.02
528.38	36889.18
528.55	37090.47
528.72	37167.71
528.89	37017.91
529.07	37120.90
529.24	36680.88
529.41	37113.87
529.58	37516.45
529.75	37408.78
529.92	37399.42
530.09	37586.66
530.26	37296.44
530.43	37474.32
530.60	37497.72
530.77	37434.53
530.94	38047.75
531.11	37940.08
531.28	37773.91
531.46	37486.02
531.63	38019.66
531.80	37542.19
531.97	38176.48
532.14	38064.13
532.31	38188.18
532.48	38265.42
532.65	38665.65
532.82	38628.20
532.99	38302.87
533.16	38508.83
533.33	38920.77
533.50	38934.81
533.67	38822.47
533.84	38263.08
534.01	38845.87
534.18	38909.07
534.35	39014.39
534.52	39250.78
534.69	38873.96
534.86	38747.57
535.03	39321.00
535.20	38855.23
535.37	39721.23
535.54	38946.51
535.71	39138.44
535.88	39393.56
536.05	39592.50
536.22	39807.83
536.38	39608.89
536.55	39470.79
536.72	39454.41
536.89	39679.10
537.06	39711.87
537.23	39873.37
537.40	39945.92
537.57	39512.92
537.74	39955.29
537.91	40086.36
538.08	39878.05
538.25	39889.75
538.42	40179.98
538.59	39894.43
538.75	39739.96
538.92	40252.53
539.09	40238.49
539.26	40231.47
539.43	40041.88
539.60	40809.58
539.77	40390.62
539.94	40460.84
540.11	40652.76
540.28	40825.96
540.44	40563.82
540.61	40549.78
540.78	40346.15
540.95	40683.19
541.12	40875.12
541.29	40538.08
541.46	41324.50
541.62	41083.42
541.79	41216.83
541.96	40907.88
542.13	40348.50
542.30	40601.27
542.47	41270.67
542.63	41572.60
542.80	41404.08
542.97	41476.63
543.14	42122.62
543.31	41542.17
543.48	41663.88
543.64	42000.91
543.81	42096.88
543.98	41553.87
544.15	41764.52
544.32	42005.59
544.48	42225.60
544.65	42160.07
544.82	42314.55
544.99	42146.03
545.16	42443.27
545.32	42014.96
545.49	42569.66
545.66	42899.68
545.83	42522.85
546.00	42447.96
546.16	42555.62
546.33	42277.10
546.50	42178.79
546.67	42665.63
546.83	41935.38
547.00	42227.95
547.17	42396.46
547.34	43103.31
547.50	42866.91
547.67	43306.93
547.84	42579.03
548.00	43257.78
548.17	43079.90
548.34	42836.48
548.51	43185.22
548.67	43243.74
548.84	42899.68
549.01	42752.23
549.18	43395.87
549.34	43335.02
549.51	43587.80
549.68	43129.05
549.84	43290.55
550.01	43332.68
550.18	43007.34
550.34	43426.30
550.51	43318.64
550.68	43433.32
550.84	43143.09
551.01	43449.70
551.18	43779.72
551.34	43679.08
551.51	43573.75
551.68	43690.78
551.84	43386.51
552.01	43213.31
552.18	43817.17
552.34	43459.07
552.51	43711.84
552.68	43899.09
552.84	44023.14
553.01	43821.85
553.18	43934.20
553.34	44102.71
553.51	44023.14
553.67	44320.38
553.84	44243.15
554.01	44114.42
554.17	44402.30
554.34	44205.70
554.51	44275.91
554.67	44587.21
554.84	44128.46
555.00	44238.47
555.17	44121.44
555.33	44610.61
555.50	44339.11
555.67	44371.88
555.83	44596.57
556.00	44722.96
556.16	45221.49
556.33	44669.12
556.50	44933.60
556.66	44659.76
556.83	44318.04
556.99	44882.11
557.16	44734.66
557.32	44795.51
557.49	45130.21
557.65	44575.50
557.82	45146.59
557.98	45081.06
558.15	44900.84
558.32	44978.07
558.48	44762.75
558.65	45340.86
558.81	44996.80
558.98	44994.46
559.14	44762.75
559.31	44797.85
559.47	45125.53
559.64	45162.98
559.80	45081.06
559.97	45380.65
560.13	44966.37
560.30	45296.39
560.46	45792.58
560.63	45471.93
560.79	45457.88
560.96	45392.35
561.12	45488.31
561.29	45212.13
561.45	45310.43
561.61	45057.65
561.78	45544.48
561.94	45031.91
562.11	45528.10
562.27	45289.37
562.44	45549.17
562.60	46302.82
562.77	45605.34
562.93	45502.35
563.10	45858.12
563.26	45656.83
563.42	46293.46
563.59	45207.45
563.75	45256.60
563.92	45308.09
564.08	45675.55
564.24	45848.75
564.41	45911.95
564.57	46092.17
564.74	45661.51
564.90	45942.38
565.07	45794.92
565.23	45771.52
565.39	46157.70
565.56	45925.99
565.72	45879.18
565.88	46319.20
566.05	46234.94
566.21	46220.90
566.38	45865.14
566.54	46209.20
566.70	46546.23
566.87	46153.02
567.03	46344.95
567.19	46206.86
567.36	46642.20
567.52	45844.07
567.68	46335.59
567.85	46309.84
568.01	46609.43
568.17	46199.83
568.34	46450.27
568.50	46380.06
568.66	46108.55
568.83	46265.37
568.99	46169.41
569.15	46204.52
569.32	46141.32
569.48	46450.27
569.64	46302.82
569.81	46752.20
569.97	46518.15
570.13	46471.34
570.30	45975.14
570.46	46696.03
570.62	46586.02
570.78	46316.86
570.95	46293.46
571.11	46637.51
571.27	46417.50
571.43	46588.36
571.60	46541.55
571.76	46127.28
571.92	46478.36
572.09	46286.43
572.25	46527.51
572.41	46293.46
572.57	46550.91
572.74	47004.98
572.90	46740.50
573.06	46672.62
573.22	46803.69
573.38	47138.39
573.55	46897.31
573.71	47255.42
573.87	47208.61
574.03	46356.65
574.20	46859.87
574.36	46616.45
574.52	47217.97
574.68	46728.80
574.84	46504.10
575.01	46843.48
575.17	46541.55
575.33	46997.96
575.49	46415.16
575.65	47143.07
575.82	46588.36
575.98	47026.04
576.14	47030.72
576.30	46988.60
576.46	47037.75
576.62	46330.90
576.79	46663.26
576.95	46684.33
577.11	46759.22
577.27	46916.04
577.43	46731.14
577.59	47196.90
577.75	46794.33
577.92	46628.15
578.08	47309.25
578.24	46829.44
578.40	47318.61
578.56	47159.45
578.72	47136.05
578.88	46852.84
579.04	46815.40
579.21	46494.74
579.37	46960.51
579.53	47171.16
579.69	47185.20
579.85	46452.61
580.01	47051.79
580.17	46827.10
580.33	47260.10
580.49	46916.04
580.65	47196.90
580.82	47091.58
580.98	46759.22
581.14	46457.29
581.30	47262.44
581.46	46714.75
581.62	46880.93
581.78	46761.56
581.94	47098.60
582.10	47182.86
582.26	47199.24
582.42	47007.32
582.58	47337.33
582.74	47171.16
582.90	47510.53
583.06	47143.07
583.22	46815.40
583.38	46710.07
583.54	47114.98
583.70	47047.11
583.86	47463.72
584.02	47016.68
584.18	47192.22
584.34	47447.34
584.50	47370.10
584.66	47267.12
584.82	47482.45
584.98	47491.81
585.14	47536.28
585.30	47227.33
585.46	47224.99
585.62	47173.50
585.78	47070.51
585.94	46803.69
586.10	47278.82
586.26	47164.14
586.42	47145.41
586.58	47552.66
586.74	47288.18
586.90	47082.22
587.06	46946.47
587.22	47122.01
587.38	46951.15
587.54	47611.18
587.70	47339.68
587.86	47428.62
588.02	47187.54
588.18	47042.43
588.34	46775.61
588.49	47229.67
588.65	47400.53
588.81	47360.74
588.97	47269.46
589.13	47463.72
589.29	47442.66
589.45	47555.00
589.61	47384.15
589.77	47400.53
589.93	47330.31
590.08	47437.98
