SpectraSuite Data File
++++++++++++++++++++++++++++++++++++
Date: Fri Oct 25 10:44:26 EDT 2013
User: price-jones
Dark Spectrum Present: No
Reference Spectrum Present: No
Number of Sampled Component Spectra: 1
Spectrometers: USB2+H05261
Integration Time (usec): 100000 (USB2+H05261)
Spectra Averaged: 1 (USB2+H05261)
Boxcar Smoothing: 0 (USB2+H05261)
Correct for Electrical Dark: No (USB2+H05261)
Strobe/Lamp Enabled: No (USB2+H05261)
Correct for Detector Non-linearity: No (USB2+H05261)
Correct for Stray Light: No (USB2+H05261)
Number of Pixels in Processed Spectrum: 2048
>>>>>Begin Processed Spectral Data<<<<<
365.73	149.79
365.92	149.79
366.12	149.79
366.32	39.79
366.52	0.00
366.72	51.49
366.91	25.75
367.11	0.00
367.31	28.09
367.51	32.77
367.70	25.75
367.90	21.06
368.10	0.00
368.30	51.49
368.49	63.19
368.69	49.15
368.89	18.72
369.09	72.56
369.28	84.26
369.48	0.00
369.68	30.43
369.87	140.43
370.07	114.69
370.27	180.22
370.47	152.13
370.66	306.61
370.86	386.19
371.06	423.64
371.25	470.45
371.45	376.83
371.65	531.30
371.84	421.30
372.04	421.30
372.24	564.07
372.44	472.79
372.63	519.60
372.83	613.22
373.03	463.43
373.22	561.73
373.42	564.07
373.62	554.71
373.81	533.64
374.01	505.56
374.21	559.39
374.40	606.20
374.60	624.92
374.79	613.22
374.99	589.82
375.19	594.50
375.38	603.86
375.58	545.34
375.78	716.20
375.97	589.82
376.17	622.58
376.37	613.22
376.56	566.41
376.76	559.39
376.95	596.84
377.15	634.29
377.35	664.71
377.54	690.46
377.74	711.52
377.93	697.48
378.13	681.10
378.33	634.29
378.52	617.90
378.72	760.67
378.91	648.33
379.11	585.13
379.31	559.39
379.50	634.29
379.70	667.05
379.89	734.93
380.09	648.33
380.28	741.95
380.48	671.73
380.68	702.16
380.87	692.80
381.07	706.84
381.26	744.29
381.46	753.65
381.65	631.94
381.85	634.29
382.04	732.59
382.24	711.52
382.43	718.54
382.63	702.16
382.83	723.23
383.02	732.59
383.22	812.17
383.41	730.25
383.61	755.99
383.80	763.01
384.00	791.10
384.19	805.14
384.39	800.46
384.58	819.19
384.78	861.32
384.97	781.74
385.17	830.89
385.36	880.04
385.56	826.21
385.75	781.74
385.95	910.47
386.14	950.26
386.34	891.74
386.53	844.93
386.72	842.59
386.92	978.34
387.11	812.17
387.31	891.74
387.50	880.04
387.70	919.83
387.89	849.61
388.09	945.58
388.28	917.49
388.48	866.00
388.67	1027.50
388.86	929.19
389.06	931.53
389.25	1050.90
389.45	1043.88
389.64	912.81
389.84	1022.81
390.03	987.71
390.22	1062.60
390.42	1102.39
390.61	1043.88
390.81	945.58
391.00	1151.54
391.19	1067.28
391.39	1139.84
391.58	1198.35
391.78	1107.07
391.97	1067.28
392.16	1128.14
392.36	1046.22
392.55	1165.59
392.75	1062.60
392.94	987.71
393.13	1013.45
393.33	992.39
393.52	987.71
393.71	1097.71
393.91	1100.05
394.10	1022.81
394.29	1228.78
394.49	1165.59
394.68	1221.76
394.88	1224.10
395.07	1341.13
395.26	1284.95
395.46	1224.10
395.65	1200.69
395.84	1186.65
396.04	1266.23
396.23	1212.40
396.42	1163.25
396.62	1186.65
396.81	1123.46
397.00	1242.82
397.19	1188.99
397.39	1376.24
397.58	1451.13
397.77	1409.00
397.97	1467.52
398.16	1409.00
398.35	1451.13
398.55	1441.77
398.74	1500.28
398.93	1607.95
399.12	1572.84
399.32	1582.20
399.51	1563.48
399.70	1528.37
399.90	1516.67
400.09	1678.16
400.28	1617.31
400.47	1621.99
400.67	1621.99
400.86	1696.89
401.05	1701.57
401.24	1682.85
401.44	1659.44
401.63	1732.00
401.82	1685.19
402.01	1743.70
402.21	1764.76
402.40	1825.62
402.59	1877.11
402.78	1767.10
402.97	1830.30
403.17	1830.30
403.36	1832.64
403.55	1816.26
403.74	1930.94
403.93	1959.03
404.13	1923.92
404.32	1846.68
404.51	1947.33
404.70	2045.63
404.89	1884.13
405.09	2113.50
405.28	2129.89
405.47	2132.23
405.66	2031.58
405.85	2134.57
406.05	2050.31
406.24	1998.82
406.43	2076.06
406.62	2111.16
406.81	2267.98
407.00	2120.53
407.20	2085.42
407.39	2207.13
407.58	2122.87
407.77	2289.04
407.96	2293.72
408.15	2312.45
408.34	2375.64
408.54	2410.75
408.73	2422.45
408.92	2382.67
409.11	2340.54
409.30	2504.37
409.49	2331.17
409.68	2310.11
409.87	2356.92
410.07	2495.01
410.26	2466.92
410.45	2394.37
410.64	2579.27
410.83	2612.04
411.02	2597.99
411.21	2677.57
411.40	2607.36
411.59	2745.45
411.78	2825.03
411.98	2686.94
412.17	2754.81
412.36	2764.17
412.55	2773.53
412.74	2780.56
412.93	2700.98
413.12	2904.60
413.31	2974.82
413.50	2963.12
413.69	2773.53
413.88	2918.65
414.07	2792.26
414.26	3033.33
414.45	3129.30
414.64	3124.62
414.83	3138.66
415.02	3169.09
415.22	3353.99
415.41	3192.49
415.60	3253.34
415.79	3213.56
415.98	3316.54
416.17	3391.44
416.36	3262.71
416.55	3351.65
416.74	3438.25
416.93	3424.20
417.12	3471.01
417.31	3393.78
417.50	3428.88
417.69	3536.55
417.88	3541.23
418.07	3548.25
418.26	3478.04
418.45	3557.61
418.64	3651.24
418.83	3761.24
419.02	3611.45
419.21	3681.66
419.39	3531.87
419.58	3618.47
419.77	3492.08
419.96	3763.58
420.15	3742.52
420.34	3749.54
420.53	3845.50
420.72	3882.95
420.91	3983.59
421.10	4037.42
421.29	3887.63
421.48	3960.19
421.67	3927.42
421.86	4002.32
422.05	3899.33
422.24	3765.92
422.43	3950.82
422.61	3882.95
422.80	4091.26
422.99	4056.15
423.18	3904.01
423.37	4112.32
423.56	4009.34
423.75	3995.29
423.94	4044.45
424.13	3754.22
424.32	3777.62
424.50	4128.70
424.69	4067.85
424.88	4184.88
425.07	3999.98
425.26	3981.25
425.45	3964.87
425.64	3922.74
425.83	3967.21
426.01	4114.66
426.20	4152.11
426.39	4063.17
426.58	4124.02
426.77	3927.42
426.96	3983.59
427.15	4009.34
427.33	4283.18
427.52	3943.80
427.71	4266.80
427.90	4367.44
428.09	4280.84
428.28	4241.05
428.46	4320.63
428.65	4315.95
428.84	4465.74
429.03	4290.20
429.22	4163.81
429.40	4269.14
429.59	4325.31
429.78	4018.70
429.97	3969.55
430.16	4065.51
430.34	4266.80
430.53	4351.06
430.72	4245.73
430.91	4271.48
431.10	4395.53
431.28	4643.62
431.47	4657.67
431.66	4667.03
431.85	4636.60
432.03	4652.98
432.22	4924.49
432.41	4882.36
432.60	4788.74
432.79	4912.78
432.97	4847.25
433.16	4931.51
433.35	4821.50
433.54	4737.24
433.72	4931.51
433.91	4762.99
434.10	4739.58
434.28	4931.51
434.47	5043.85
434.66	5025.13
434.85	5125.77
435.03	5085.98
435.22	4990.02
435.41	5313.02
435.59	5188.97
435.78	5245.14
435.97	5345.78
436.16	5277.91
436.34	5298.97
436.53	5490.90
436.72	5420.68
436.90	5226.42
437.09	5310.68
437.28	5282.59
437.46	5369.19
437.65	5224.08
437.84	5488.56
438.02	5301.31
438.21	5242.80
438.40	5078.96
438.58	5486.22
438.77	5507.28
438.96	5523.66
439.14	5699.20
439.33	5692.18
439.52	5884.11
439.70	5795.17
439.89	5631.33
440.08	5846.66
440.26	5837.30
440.45	5933.26
440.63	6179.01
440.82	6153.27
441.01	6040.92
441.19	6176.67
441.38	6207.10
441.57	6188.38
441.75	6443.49
441.94	6377.96
442.12	6396.68
442.31	6413.07
442.50	6469.24
442.68	6534.78
442.87	6305.40
443.05	6422.43
443.24	6862.45
443.43	6686.91
443.61	6647.12
443.80	6825.00
443.98	6581.59
444.17	6558.18
444.35	6715.00
444.54	6607.33
444.73	6820.32
444.91	6654.14
445.10	6644.78
445.28	6588.61
445.47	6581.59
445.65	6464.56
445.84	6670.53
446.02	6813.30
446.21	6586.27
446.39	6679.89
446.58	6850.75
446.77	6829.68
446.95	6773.51
447.14	6874.15
447.32	7059.06
447.51	6867.13
447.69	6860.11
447.88	6867.13
448.06	6944.37
448.25	6937.35
448.43	6988.84
448.62	6899.90
448.80	6902.24
448.99	7112.89
449.17	7009.90
449.36	6911.60
449.54	7281.41
449.73	7290.77
449.91	7260.34
450.10	7262.68
450.28	7487.37
450.46	7435.88
450.65	7379.71
450.83	7445.24
451.02	7412.48
451.20	7321.20
451.39	7389.07
451.57	7311.83
451.76	7620.78
451.94	7290.77
452.13	7452.27
452.31	7281.41
452.49	7218.21
452.68	7625.47
452.86	7501.42
453.05	7452.27
453.23	7726.11
453.42	7339.92
453.60	7653.55
453.78	7660.57
453.97	7606.74
454.15	7475.67
454.34	7747.17
454.52	7789.30
454.70	7871.22
454.89	7784.62
455.07	7555.25
455.26	7985.91
455.44	8030.38
455.62	7918.03
455.81	7903.99
455.99	8119.32
456.17	7964.84
456.36	7911.01
456.54	8201.24
456.73	8294.86
456.91	8388.48
457.09	8280.82
457.28	8585.08
457.46	8493.80
457.64	8381.46
457.83	8432.95
458.01	8276.13
458.19	8299.54
458.38	8442.31
458.56	8655.30
458.74	8528.91
458.93	8400.18
459.11	8505.51
459.29	8521.89
459.48	8631.90
459.66	8451.67
459.84	8720.84
460.03	8718.50
460.21	8901.06
460.39	8739.56
460.57	8903.40
460.76	8723.18
460.94	9018.08
461.12	8898.72
461.31	8861.27
461.49	8835.52
461.67	8847.22
461.85	9224.05
462.04	8982.98
462.22	9156.18
462.40	9132.77
462.59	8968.93
462.77	9118.73
462.95	9240.44
463.13	9348.10
463.32	9221.71
463.50	9245.12
463.68	9408.95
463.86	9228.73
464.05	9022.77
464.23	9100.00
464.41	9219.37
464.59	9067.24
464.78	9441.72
464.96	9415.98
465.14	9088.30
465.32	9614.92
465.50	9645.35
465.69	9860.68
465.87	9565.77
466.05	9399.59
466.23	9315.33
466.41	9362.14
466.60	9633.64
466.78	9408.95
466.96	9437.04
467.14	9605.56
467.32	9678.12
467.51	9872.38
467.69	9490.87
467.87	9671.09
468.05	9818.55
468.23	9685.14
468.41	9776.42
468.60	9881.74
468.78	9870.04
468.96	9846.63
469.14	9923.87
469.32	10214.10
469.50	9706.20
469.69	9949.62
469.87	10242.18
470.05	9982.38
470.23	10132.18
470.41	10178.99
470.59	10317.08
470.77	9900.47
470.95	10195.37
471.14	10143.88
471.32	10511.35
471.50	10602.63
471.68	10441.13
471.86	10672.84
472.04	10750.08
472.22	10640.08
472.40	10483.26
472.58	10651.78
472.77	10745.40
472.95	10855.40
473.13	11103.50
473.31	10878.81
473.49	11002.86
473.67	10902.22
473.85	10977.11
474.03	11379.68
474.21	11133.93
474.39	11133.93
474.57	11234.57
474.75	11510.75
474.93	11557.57
475.12	11421.81
475.30	11557.57
475.48	11803.32
475.66	11592.67
475.84	11576.29
476.02	11679.27
476.20	11707.36
476.38	11847.79
476.56	11999.93
476.74	12147.38
476.92	12208.23
477.10	12404.84
477.28	12475.06
477.46	12571.02
477.64	12877.63
477.82	12758.26
478.00	12823.80
478.18	12807.41
478.36	12809.75
478.54	13401.91
478.72	13027.42
478.90	13193.60
479.08	13345.73
479.26	13350.42
479.44	13458.08
479.62	13427.65
479.80	13661.71
479.98	13549.36
480.16	14073.64
480.34	14024.49
480.52	14052.58
480.70	14080.66
480.88	13867.67
481.06	14134.50
481.24	14422.38
481.41	14745.38
481.59	14846.02
481.77	14829.63
481.95	14843.68
482.13	14918.57
482.31	14836.66
482.49	15447.54
482.67	15475.62
482.85	15330.51
483.03	15470.94
483.21	15599.67
483.39	15875.85
483.57	15700.31
483.74	15903.94
483.92	15943.73
484.10	16077.14
484.28	16699.72
484.46	16446.94
484.64	17104.64
484.82	16510.14
485.00	16631.85
485.18	16739.51
485.35	16877.60
485.53	16645.89
485.71	16397.79
485.89	16889.31
486.07	17034.42
486.25	16987.61
486.43	17284.86
486.61	17188.89
486.78	17474.44
486.96	17823.18
487.14	18295.97
487.32	18143.83
487.50	18607.26
487.68	18490.23
487.85	18984.09
488.03	19140.90
488.21	19075.37
488.39	19091.75
488.57	19140.90
488.75	19140.90
488.92	19583.26
489.10	20027.96
489.28	20100.52
489.46	20002.22
489.64	20362.66
489.81	20383.73
489.99	20879.92
490.17	20671.61
490.35	21245.04
490.53	20814.38
490.70	20943.11
490.88	21039.08
491.06	21605.49
491.24	21373.77
491.41	21462.71
491.59	21179.51
491.77	21256.75
491.95	21546.97
492.13	22164.87
492.30	21951.88
492.48	21994.01
492.66	22225.73
492.84	22630.64
493.01	22595.53
493.19	22813.20
493.37	22705.54
493.54	22654.05
493.72	23028.53
493.90	23019.17
494.08	23445.15
494.25	23833.68
494.43	23960.06
494.61	23782.18
494.79	24297.10
494.96	23964.75
495.14	23812.61
495.32	24439.87
495.49	24336.89
495.67	24334.55
495.85	24704.35
496.02	24980.54
496.20	24893.94
496.38	25137.35
496.55	25046.07
496.73	25525.88
496.91	25528.22
497.09	25394.81
497.26	25874.62
497.44	25535.24
497.62	25905.05
497.79	26059.52
497.97	25631.21
498.14	26129.74
498.32	26181.23
498.50	26316.98
498.67	26293.58
498.85	26698.49
499.03	26946.59
499.20	27005.10
499.38	26773.39
499.56	27271.92
499.73	27042.55
499.91	27115.11
500.08	27033.19
500.26	26625.93
500.44	27721.30
500.61	27529.38
500.79	26958.29
500.97	27644.07
501.14	27880.46
501.32	27330.44
501.49	27693.22
501.67	27922.59
501.84	28072.39
502.02	28238.56
502.20	28212.82
502.37	28301.76
502.55	28601.35
502.72	28945.41
502.90	28711.35
503.07	28599.01
503.25	28790.93
503.43	28467.94
503.60	29095.20
503.78	29067.11
503.95	29017.96
504.13	29425.22
504.30	29516.50
504.48	29633.52
504.65	29525.86
504.83	29701.40
505.01	29933.11
505.18	29909.71
505.36	30206.95
505.53	30197.59
505.71	30403.56
505.88	30618.89
506.06	30328.66
506.23	30321.64
506.41	30490.16
506.58	30426.96
506.76	30885.71
506.93	31016.78
507.11	30785.07
507.28	30532.29
507.46	30616.55
507.63	30803.79
507.81	30899.75
507.98	31054.23
508.16	30951.24
508.33	30721.87
508.50	31367.86
508.68	31442.76
508.85	31686.17
509.03	32287.69
509.20	31810.22
509.38	32154.28
509.55	31936.61
509.73	31819.58
509.90	32060.66
510.08	32292.37
510.25	32252.58
510.42	32123.85
510.60	32418.76
510.77	32409.40
510.95	32622.39
511.12	32060.66
511.30	33017.94
511.47	33249.65
511.64	33345.61
511.82	33464.98
511.99	32678.56
512.17	32879.85
512.34	33359.66
512.51	33184.12
512.69	33326.89
512.86	33184.12
513.04	33816.06
513.21	33020.28
513.38	33308.16
513.56	33420.51
513.73	33701.37
513.90	33956.49
514.08	33972.88
514.25	33958.83
514.43	34057.14
514.60	33893.30
514.77	34043.09
514.95	34752.27
515.12	34333.32
515.29	34483.11
515.47	34904.41
515.64	34520.56
515.81	33734.14
515.99	34525.24
516.16	34391.83
516.33	33940.11
516.51	34668.02
516.68	34082.88
516.85	33963.51
517.03	33619.46
517.20	34576.73
517.37	34705.46
517.54	35089.31
517.72	35119.74
517.89	34593.12
518.06	34941.86
518.24	34604.82
518.41	35124.42
518.58	34995.69
518.75	35096.33
518.93	35665.08
519.10	35543.38
519.27	35562.10
519.45	35456.78
519.62	36027.87
519.79	36423.42
519.96	36261.92
520.14	36311.07
520.31	36264.26
520.48	35938.93
520.65	36378.95
520.83	36678.54
521.00	36617.68
521.17	36584.91
521.34	36851.73
521.52	36500.65
521.69	37127.92
521.86	37366.65
522.03	37156.00
522.20	36961.74
522.38	37495.38
522.55	37427.51
522.72	37223.88
522.89	37228.56
523.07	37268.35
523.24	37331.54
523.41	37804.33
523.58	37593.68
523.75	37816.04
523.92	38459.68
524.10	37785.61
524.27	38160.09
524.44	37902.64
524.61	38363.72
524.78	38424.57
524.96	38066.47
525.13	38443.30
525.30	38782.68
525.47	38831.83
525.64	38387.13
525.81	38789.70
525.98	38373.08
526.16	38377.76
526.33	38443.30
526.50	38122.65
526.67	37542.19
526.84	38267.76
527.01	38068.81
527.18	38532.24
527.36	39040.14
527.53	39428.66
527.70	39166.52
527.87	39201.63
528.04	38630.54
528.21	39105.67
528.38	39405.26
528.55	39920.18
528.72	39658.04
528.89	39627.61
529.07	39782.09
529.24	39489.52
529.41	39515.26
529.58	39342.06
529.75	39175.89
529.92	39887.41
530.09	39903.79
530.26	40102.74
530.43	40119.12
530.60	40165.93
530.77	40229.13
530.94	40385.94
531.11	40048.91
531.28	40238.49
531.46	40343.81
531.63	40437.44
531.80	40341.47
531.97	40371.90
532.14	40266.58
532.31	39964.65
532.48	39775.06
532.65	40545.10
532.82	40170.61
532.99	40786.18
533.16	40334.45
533.33	40975.76
533.50	40793.20
533.67	41045.97
533.84	40620.00
534.01	40795.54
534.18	40751.07
534.35	41235.56
534.52	40828.30
534.69	40858.73
534.86	41354.93
535.03	41188.75
535.20	41827.71
535.37	41687.28
535.54	41846.44
535.71	41301.09
535.88	41537.49
536.05	41563.23
536.22	41619.41
536.38	41350.24
536.55	41343.22
536.72	41628.77
536.89	41525.78
537.06	41689.62
537.23	41734.09
537.40	41837.08
537.57	42043.04
537.74	41954.10
537.91	42417.53
538.08	42136.66
538.25	41823.03
538.42	42209.22
538.59	42314.55
538.75	41975.17
538.92	42263.05
539.09	41888.57
539.26	42251.35
539.43	41830.05
539.60	42754.57
539.77	42143.69
539.94	42047.72
540.11	41930.70
540.28	42160.07
540.44	42075.81
540.61	42183.48
540.78	42375.40
540.95	42377.74
541.12	42417.53
541.29	42429.23
541.46	42534.56
541.62	42787.33
541.79	42920.74
541.96	42330.93
542.13	42639.88
542.30	42593.07
542.47	43007.34
542.63	42932.45
542.80	43065.86
542.97	43171.18
543.14	43313.95
543.31	43896.75
543.48	43320.98
543.64	43901.43
543.81	43828.87
543.98	43901.43
544.15	43655.67
544.32	44102.71
544.48	44060.58
544.65	43421.62
544.82	43665.03
544.99	43791.42
545.16	43606.52
545.32	43997.39
545.49	43985.69
545.66	44278.25
545.83	43999.73
546.00	44287.62
546.16	44296.98
546.33	43608.86
546.50	43882.70
546.67	43854.62
546.83	43824.19
547.00	44044.20
547.17	43941.22
547.34	43859.30
547.50	43821.85
547.67	44311.02
547.84	44292.30
548.00	44327.41
548.17	45106.80
548.34	44821.26
548.51	44744.02
548.67	44596.57
548.84	44851.69
549.01	44409.32
549.18	44500.61
549.34	44582.52
549.51	44519.33
549.68	44928.92
549.84	45144.25
550.01	44971.05
550.18	44435.07
550.34	44870.41
550.51	44879.77
550.68	45226.17
550.84	44849.35
551.01	45315.11
551.18	44687.85
551.34	44481.88
551.51	45198.09
551.68	45071.70
551.84	45492.99
552.01	44524.01
552.18	44729.98
552.34	44741.68
552.51	44856.37
552.68	44987.44
552.84	45104.46
553.01	45818.33
553.18	45200.43
553.34	45448.52
553.51	44886.79
553.67	45216.81
553.84	45661.51
554.01	45518.74
554.17	45542.14
554.34	45366.60
554.51	45698.96
554.67	45830.03
554.84	45418.10
555.00	45336.18
555.17	45083.40
555.33	45605.34
555.50	45202.77
555.67	45572.57
555.83	45563.21
556.00	45834.71
556.16	46036.00
556.33	45258.94
556.50	45198.09
556.66	45848.75
556.83	45151.27
556.99	45778.54
557.16	45649.81
557.32	46010.25
557.49	45839.39
557.65	45598.32
557.82	45904.93
557.98	45963.44
558.15	46094.51
558.32	45724.71
558.48	45654.49
558.65	45872.16
558.81	45951.74
558.98	45684.92
559.14	45771.52
559.31	45900.25
559.47	46064.08
559.64	46064.08
559.80	45874.50
559.97	46000.89
560.13	45815.99
560.30	45815.99
560.46	45750.45
560.63	46162.39
560.79	46047.70
560.96	46857.52
561.12	46377.72
561.29	46522.83
561.45	46380.06
561.61	46349.63
561.78	46068.76
561.94	45741.09
562.11	46403.46
562.27	46057.06
562.44	46197.49
562.60	46710.07
562.77	46122.60
562.93	46288.77
563.10	46686.67
563.26	46375.37
563.42	46429.21
563.59	46160.05
563.75	46361.33
563.92	46560.28
564.08	46344.95
564.24	46787.31
564.41	46368.35
564.57	46499.42
564.74	46295.80
564.90	46319.20
565.07	46323.88
565.23	46410.48
565.39	46546.23
565.56	46295.80
565.72	45893.22
565.88	46520.49
566.05	46188.13
566.21	46618.79
566.38	46426.87
566.54	46349.63
566.70	46841.14
566.87	46630.49
567.03	46483.04
567.19	46761.56
567.36	46768.58
567.52	46375.37
567.68	46644.54
567.85	46092.17
568.01	46309.84
568.17	46260.69
568.34	46562.62
568.50	46684.33
568.66	46197.49
568.83	46548.57
568.99	46667.94
569.15	46373.03
569.32	46820.08
569.48	46925.40
569.64	46780.29
569.81	46583.68
569.97	46681.98
570.13	46642.20
570.30	46277.07
570.46	46202.18
570.62	46597.73
570.78	46483.04
570.95	46756.88
571.11	46834.12
571.27	46412.82
571.43	46506.44
571.60	46691.35
571.76	46419.84
571.92	46543.89
572.09	46663.26
572.25	46717.09
572.41	46911.36
572.57	46864.55
572.74	47086.90
572.90	46532.19
573.06	46927.74
573.22	46497.08
573.38	46579.00
573.55	46225.58
573.71	46490.06
573.87	46532.19
574.03	46780.29
574.20	46787.31
574.36	46836.46
574.52	46714.75
574.68	46684.33
574.84	47061.15
575.01	46588.36
575.17	46789.65
575.33	46763.90
575.49	46471.34
575.65	46791.99
575.82	46747.52
575.98	46761.56
576.14	46845.82
576.30	46827.10
576.46	46440.91
576.62	46272.39
576.79	47136.05
576.95	46366.01
577.11	46693.69
577.27	46564.96
577.43	47042.43
577.59	46822.42
577.75	46700.71
577.92	46024.29
578.08	46480.70
578.24	46527.51
578.40	46733.48
578.56	46777.95
578.72	47033.07
578.88	47065.83
579.04	46803.69
579.21	46967.53
579.37	46717.09
579.53	46789.65
579.69	46459.63
579.85	46974.55
580.01	47220.31
580.17	46681.98
580.33	46862.21
580.49	46803.69
580.65	46983.91
580.82	46677.30
580.98	46700.71
581.14	46415.16
581.30	47044.77
581.46	46749.86
581.62	46923.06
581.78	46876.25
581.94	47290.52
582.10	47241.37
582.26	46532.19
582.42	46251.33
582.58	46705.39
582.74	46553.26
582.90	47264.78
583.06	47276.48
583.22	46873.91
583.38	47480.11
583.54	47257.76
583.70	47206.26
583.86	46770.93
584.02	46319.20
584.18	47016.68
584.34	47117.32
584.50	46958.17
584.66	46665.60
584.82	46588.36
584.98	46773.27
585.14	46806.03
585.30	46747.52
585.46	46878.59
585.62	46614.11
585.78	46831.78
585.94	46602.41
586.10	46773.27
586.26	46705.39
586.42	47239.03
586.58	46930.08
586.74	47559.69
586.90	46794.33
587.06	46733.48
587.22	46913.70
587.38	46504.10
587.54	47077.54
587.70	46829.44
587.86	46712.41
588.02	47077.54
588.18	47014.34
588.34	46738.16
588.49	46227.92
588.65	46000.89
588.81	46220.90
588.97	46550.91
589.13	46375.37
589.29	46499.42
589.45	46490.06
589.61	46897.31
589.77	47313.93
589.93	47175.84
