SpectraSuite Data File
++++++++++++++++++++++++++++++++++++
Date: Fri Oct 25 11:23:55 EDT 2013
User: price-jones
Dark Spectrum Present: No
Reference Spectrum Present: No
Number of Sampled Component Spectra: 1
Spectrometers: USB2+H05261
Integration Time (usec): 100000 (USB2+H05261)
Spectra Averaged: 1 (USB2+H05261)
Boxcar Smoothing: 0 (USB2+H05261)
Correct for Electrical Dark: No (USB2+H05261)
Strobe/Lamp Enabled: No (USB2+H05261)
Correct for Detector Non-linearity: No (USB2+H05261)
Correct for Stray Light: No (USB2+H05261)
Number of Pixels in Processed Spectrum: 2048
>>>>>Begin Processed Spectral Data<<<<<
365.73	180.22
365.92	180.22
366.12	180.22
366.32	147.45
366.52	77.24
366.72	177.88
366.91	170.86
367.11	58.51
367.31	98.30
367.51	149.79
367.70	133.41
367.90	86.60
368.10	159.16
368.30	112.35
368.49	142.77
368.69	191.92
368.89	154.48
369.09	227.03
369.28	187.24
369.48	74.90
369.68	177.88
369.87	227.03
370.07	205.97
370.27	259.80
370.47	332.36
370.66	676.41
370.86	608.54
371.06	674.07
371.25	669.39
371.45	599.18
371.65	706.84
371.84	641.31
372.04	739.61
372.24	634.29
372.44	725.57
372.63	723.23
372.83	779.40
373.03	767.70
373.22	744.29
373.42	770.04
373.62	767.70
373.81	779.40
374.01	901.11
374.21	896.43
374.40	800.46
374.60	767.70
374.79	826.21
374.99	781.74
375.19	840.25
375.38	863.66
375.58	894.08
375.78	896.43
375.97	854.30
376.17	961.96
376.37	819.19
376.56	866.00
376.76	798.12
376.95	894.08
377.15	933.87
377.35	772.38
377.54	856.64
377.74	910.47
377.93	887.06
378.13	938.55
378.33	903.45
378.52	905.79
378.72	999.41
378.91	990.05
379.11	919.83
379.31	901.11
379.50	917.49
379.70	952.60
379.89	1032.18
380.09	940.90
380.28	929.19
380.48	971.32
380.68	983.02
380.87	1067.28
381.07	1060.26
381.26	1032.18
381.46	985.37
381.65	1039.20
381.85	1067.28
382.04	1025.15
382.24	1102.39
382.43	1086.01
382.63	1093.03
382.83	1107.07
383.02	1086.01
383.22	1015.79
383.41	1015.79
383.61	1078.99
383.80	1128.14
384.00	1125.80
384.19	1125.80
384.39	1174.95
384.58	1018.13
384.78	1100.05
384.97	1104.73
385.17	1123.46
385.36	1156.22
385.56	1254.53
385.75	1160.91
385.95	1153.88
386.14	1203.04
386.34	1172.61
386.53	1242.82
386.72	1170.27
386.92	1266.23
387.11	1172.61
387.31	1219.42
387.50	1165.59
387.70	1228.78
387.89	1226.44
388.09	1198.35
388.28	1247.51
388.48	1284.95
388.67	1299.00
388.86	1341.13
389.06	1320.06
389.25	1331.76
389.45	1301.34
389.64	1313.04
389.84	1369.21
390.03	1324.74
390.22	1366.87
390.42	1387.94
390.61	1345.81
390.81	1371.55
391.00	1366.87
391.19	1338.79
391.39	1444.11
391.58	1462.83
391.78	1432.41
391.97	1474.54
392.16	1383.26
392.36	1474.54
392.55	1561.14
392.75	1507.30
392.94	1453.47
393.13	1460.49
393.33	1514.33
393.52	1504.96
393.71	1643.06
393.91	1607.95
394.10	1586.88
394.29	1612.63
394.49	1497.94
394.68	1530.71
394.88	1682.85
395.07	1732.00
395.26	1636.03
395.46	1600.93
395.65	1722.63
395.84	1720.29
396.04	1809.23
396.23	1701.57
396.42	1696.89
396.62	1673.48
396.81	1732.00
397.00	1811.57
397.19	1820.94
397.39	1769.44
397.58	1776.47
397.77	1858.39
397.97	1739.02
398.16	1806.89
398.35	1865.41
398.55	1827.96
398.74	1909.88
398.93	1989.46
399.12	1942.64
399.32	1952.01
399.51	1959.03
399.70	1975.41
399.90	1886.47
400.09	2043.29
400.28	2153.29
400.47	2033.93
400.67	2064.35
400.86	1952.01
401.05	2134.57
401.24	2169.68
401.44	2143.93
401.63	2087.76
401.82	2143.93
402.01	2190.74
402.21	2181.38
402.40	2237.55
402.59	2319.47
402.78	2291.38
402.97	2228.19
403.17	2148.61
403.36	2230.53
403.55	2289.04
403.74	2424.80
403.93	2380.32
404.13	2361.60
404.32	2434.16
404.51	2373.30
404.70	2471.61
404.89	2331.17
405.09	2548.84
405.28	2464.58
405.47	2532.46
405.66	2478.63
405.85	2562.89
406.05	2530.12
406.24	2679.91
406.43	2560.55
406.62	2640.12
406.81	2605.02
407.00	2565.23
407.20	2478.63
407.39	2504.37
407.58	2677.57
407.77	2834.39
407.96	2738.43
408.15	2869.50
408.34	2736.09
408.54	2841.41
408.73	2712.68
408.92	2853.11
409.11	2850.77
409.30	2789.92
409.49	2822.69
409.68	2864.82
409.87	2848.43
410.07	2951.42
410.26	3026.31
410.45	2932.69
410.64	3021.63
410.83	2913.97
411.02	3194.83
411.21	3150.36
411.40	3185.47
411.59	3199.51
411.78	3183.13
411.98	3190.15
412.17	3162.06
412.36	3398.46
412.55	3353.99
412.74	3403.14
412.93	3384.41
413.12	3445.27
413.31	3485.06
413.50	3442.93
413.69	3473.36
413.88	3506.12
414.07	3536.55
414.26	3665.28
414.45	3672.30
414.64	3779.97
414.83	3782.31
415.02	3761.24
415.22	3819.75
415.41	3758.90
415.60	3857.20
415.79	3882.95
415.98	3932.10
416.17	3878.27
416.36	3974.23
416.55	3927.42
416.74	3978.91
416.93	3995.29
417.12	4023.38
417.31	4086.58
417.50	4344.03
417.69	4493.83
417.88	4238.71
418.07	4271.48
418.26	4397.87
418.45	4320.63
418.64	4512.55
418.83	4425.95
419.02	4292.54
419.21	4491.49
419.39	4615.54
419.58	4348.72
419.77	4432.97
419.96	4610.86
420.15	4547.66
420.34	4505.53
420.53	4664.69
420.72	4627.24
420.91	4718.52
421.10	4807.46
421.29	4805.12
421.48	4624.90
421.67	4861.29
421.86	4798.10
422.05	4821.50
422.24	4767.67
422.43	4816.82
422.61	4844.91
422.80	4868.31
422.99	4812.14
423.18	4905.76
423.37	4898.74
423.56	4912.78
423.75	4922.15
423.94	4821.50
424.13	4449.36
424.32	4744.27
424.50	4980.66
424.69	5163.22
424.88	5029.81
425.07	4807.46
425.26	4997.04
425.45	5008.75
425.64	4980.66
425.83	4992.36
426.01	4936.19
426.20	5121.09
426.39	5029.81
426.58	5018.11
426.77	5022.79
426.96	5235.78
427.15	5043.85
427.33	5235.78
427.52	5268.55
427.71	5305.99
427.90	5369.19
428.09	5357.49
428.28	5270.89
428.46	5355.15
428.65	5240.46
428.84	5664.10
429.03	5544.73
429.22	5217.05
429.40	5411.32
429.59	5554.09
429.78	5240.46
429.97	5366.85
430.16	5540.05
430.34	5469.83
430.53	5678.14
430.72	5535.37
430.91	5577.50
431.10	5444.09
431.28	5792.83
431.47	5778.78
431.66	5919.21
431.85	5729.63
432.03	5900.49
432.22	6057.31
432.41	5940.28
432.60	5984.75
432.79	5987.09
432.97	6113.48
433.16	5973.05
433.35	6129.86
433.54	5987.09
433.72	5951.98
433.91	6022.20
434.10	6160.29
434.28	6164.97
434.47	6221.14
434.66	6193.06
434.85	6286.68
435.03	6574.56
435.22	6321.79
435.41	6403.71
435.59	6415.41
435.78	6441.15
435.97	6485.62
436.16	6326.47
436.34	6396.68
436.53	6462.22
436.72	6574.56
436.90	6609.67
437.09	6726.70
437.28	6487.96
437.46	6637.76
437.65	6546.48
437.84	6878.83
438.02	6630.74
438.21	6836.70
438.40	6740.74
438.58	6988.84
438.77	7145.66
438.96	6869.47
439.14	7131.61
439.33	7040.33
439.52	7342.26
439.70	7140.97
439.89	7176.08
440.08	7393.75
440.26	7328.22
440.45	7337.58
440.63	7590.36
440.82	7597.38
441.01	7351.62
441.19	7693.34
441.38	7700.36
441.57	7803.35
441.75	7908.67
441.94	7983.57
442.12	7934.42
442.31	7995.27
442.50	8203.58
442.68	7864.20
442.87	7918.03
443.05	8159.11
443.24	8236.35
443.43	8344.01
443.61	8432.95
443.80	8456.36
443.98	8182.51
444.17	7955.48
444.35	8257.41
444.54	8482.10
444.73	8294.86
444.91	8535.93
445.10	8166.13
445.28	8435.29
445.47	8283.16
445.65	8353.37
445.84	8439.97
446.02	8568.70
446.21	8243.37
446.39	8339.33
446.58	8400.18
446.77	8659.98
446.95	8362.73
447.14	8428.27
447.32	8442.31
447.51	8493.80
447.69	8421.25
447.88	8477.42
448.06	8507.85
448.25	8346.35
448.43	8510.19
448.62	8638.92
448.80	8524.23
448.99	8638.92
449.17	8769.99
449.36	8620.19
449.54	8819.14
449.73	8779.35
449.91	9018.08
450.10	8961.91
450.28	9188.94
450.46	9025.11
450.65	8877.65
450.83	9090.64
451.02	8997.02
451.20	9156.18
451.39	9020.42
451.57	9027.45
451.76	9011.06
451.94	9060.21
452.13	9198.31
452.31	9451.08
452.49	9158.52
452.68	9460.45
452.86	9233.41
453.05	9392.57
453.23	9558.75
453.42	9294.27
453.60	9383.21
453.78	9846.63
453.97	9549.39
454.15	9483.85
454.34	9598.54
454.52	9760.03
454.70	9802.16
454.89	9738.97
455.07	9579.81
455.26	9738.97
455.44	9998.77
455.62	9926.21
455.81	9834.93
455.99	9961.32
456.17	9916.85
456.36	10164.95
456.54	10078.35
456.73	10291.34
456.91	10574.54
457.09	10523.05
457.28	10537.09
457.46	10509.01
457.64	10380.28
457.83	10626.03
458.01	10387.30
458.19	10532.41
458.38	10394.32
458.56	10572.20
458.74	10661.14
458.93	10682.20
459.11	10738.38
459.29	10733.70
459.48	10810.93
459.66	10841.36
459.84	11030.94
460.03	10988.82
460.21	11052.01
460.39	10897.53
460.57	11201.80
460.76	11295.43
460.94	11257.98
461.12	11140.95
461.31	11112.86
461.49	11021.58
461.67	11297.77
461.85	11489.69
462.04	11171.38
462.22	11435.86
462.40	11431.18
462.59	11536.50
462.77	11604.38
462.95	11576.29
463.13	11674.59
463.32	11646.51
463.50	11690.98
463.68	11960.14
463.86	11843.11
464.05	11618.42
464.23	11672.25
464.41	11810.34
464.59	11508.41
464.78	11964.82
464.96	11793.96
465.14	11714.38
465.32	11953.12
465.50	12044.40
465.69	12180.15
465.87	12023.33
466.05	12231.64
466.23	12280.79
466.41	12182.49
466.60	12219.94
466.78	12149.72
466.96	12128.66
467.14	12182.49
467.32	12662.30
467.51	12514.84
467.69	12187.17
467.87	12468.03
468.05	12444.63
468.23	12346.33
468.41	12592.08
468.60	12776.98
468.78	13001.68
468.96	12786.35
469.14	12971.25
469.32	12989.97
469.50	12755.92
469.69	12964.23
469.87	12957.21
470.05	13111.68
470.23	13011.04
470.41	13266.16
470.59	13327.01
470.77	13238.07
470.95	13640.64
471.14	13635.96
471.32	13139.77
471.50	13624.26
471.68	13621.92
471.86	13631.28
472.04	13666.39
472.22	14043.21
472.40	13507.23
472.58	13884.06
472.77	13919.17
472.95	14120.45
473.13	14534.73
473.31	13980.02
473.49	14267.91
473.67	14293.65
473.85	14366.21
474.03	14810.91
474.21	14703.25
474.39	14970.07
474.57	14590.90
474.75	14963.04
474.93	14993.47
475.12	14806.23
475.30	15112.84
475.48	15075.39
475.66	15267.31
475.84	15054.33
476.02	15543.50
476.20	15473.28
476.38	15770.53
476.56	16198.85
476.74	16133.31
476.92	15749.46
477.10	15892.24
477.28	16276.09
477.46	15857.13
477.64	16336.94
477.82	16589.72
478.00	16802.71
478.18	16905.69
478.36	17013.35
478.54	17046.12
478.72	17228.68
478.90	17502.53
479.08	17476.78
479.26	17862.97
479.44	17652.32
479.62	17869.99
479.80	18253.84
479.98	18291.29
480.16	18469.17
480.34	18450.44
480.52	18581.51
480.70	18555.77
480.88	18501.93
481.06	18831.95
481.24	18754.71
481.41	19042.60
481.59	19161.97
481.77	19672.20
481.95	19599.65
482.13	19793.91
482.31	19833.70
482.49	20409.47
482.67	20472.67
482.85	20329.89
483.03	20798.00
483.21	20709.06
483.39	21184.19
483.57	20844.81
483.74	21006.31
483.92	21273.13
484.10	21151.42
484.28	21649.96
484.46	22162.53
484.64	22312.33
484.82	21923.80
485.00	22546.38
485.18	22441.06
485.35	23199.39
485.53	23178.33
485.71	23232.16
485.89	23658.14
486.07	23009.81
486.25	23372.59
486.43	23548.13
486.61	24159.01
486.78	24397.74
486.96	24063.05
487.14	24603.71
487.32	24732.44
487.50	25139.69
487.68	25165.44
487.85	25350.34
488.03	25785.68
488.21	25865.26
488.39	26012.71
488.57	25998.67
488.75	26307.62
488.92	26436.35
489.10	27009.78
489.28	26551.04
489.46	27070.64
489.64	27199.37
489.81	28140.26
489.99	27747.05
490.17	27810.25
490.35	28163.67
490.53	28285.37
490.70	28287.71
490.88	28596.67
491.06	28577.94
491.24	28709.01
491.41	28889.23
491.59	29221.59
491.77	29219.25
491.95	29823.11
492.13	29621.82
492.30	30036.09
492.48	30146.10
492.66	30143.76
492.84	30469.09
493.01	30871.67
493.19	30546.33
493.37	30602.50
493.54	31576.17
493.72	31529.36
493.90	32006.83
494.08	31482.55
494.25	31988.10
494.43	31969.38
494.61	32329.82
494.79	32378.97
494.96	32697.28
495.14	32790.91
495.32	33233.27
495.49	33263.69
495.67	33207.52
495.85	33376.04
496.02	33579.67
496.20	33771.59
496.38	34033.73
496.55	34036.07
496.73	34927.81
496.91	34497.16
497.09	34675.04
497.26	35070.59
497.44	35058.88
497.62	35711.89
497.79	35903.82
497.97	35697.85
498.14	36348.52
498.32	36524.06
498.50	35924.88
498.67	36683.22
498.85	36540.44
499.03	36463.21
499.20	36498.31
499.38	36617.68
499.56	36985.15
499.73	37273.03
499.91	37380.70
500.08	37663.90
500.26	37205.16
500.44	37399.42
500.61	38345.00
500.79	38127.33
500.97	38232.65
501.14	38307.55
501.32	38637.56
501.49	38780.34
501.67	38462.02
501.84	39182.91
502.02	38932.47
502.20	39007.37
502.37	39112.69
502.55	39653.36
502.72	39384.19
502.90	39693.15
503.07	39966.99
503.25	39742.30
503.43	39990.39
503.60	39938.90
503.78	40175.30
503.95	40217.43
504.13	40521.69
504.30	40435.10
504.48	40514.67
504.65	40840.01
504.83	41261.30
505.01	41401.74
505.18	41221.52
505.36	41486.00
505.53	41455.57
505.71	41340.88
505.88	41921.34
506.06	41766.86
506.23	41921.34
506.41	42328.59
506.58	42059.43
506.76	42410.51
506.93	42405.83
507.11	42525.19
507.28	42579.03
507.46	43133.73
507.63	42880.95
507.81	43262.46
507.98	43227.35
508.16	43248.42
508.33	43803.13
508.50	43882.70
508.68	43578.43
508.85	43941.22
509.03	43992.71
509.20	44048.88
509.38	44348.47
509.55	44641.04
509.73	44624.65
509.90	44893.82
510.08	44865.73
510.25	44657.42
510.42	45038.93
510.60	44732.32
510.77	45453.20
510.95	45453.20
511.12	44966.37
511.30	45577.25
511.47	45823.01
511.64	45448.52
511.82	45869.82
511.99	45666.19
512.17	45879.18
512.34	46361.33
512.51	46532.19
512.69	46829.44
512.86	46527.51
513.04	46773.27
513.21	46595.38
513.38	46681.98
513.56	46969.87
513.73	46916.04
513.90	46969.87
514.08	47253.08
514.25	47482.45
514.43	47466.06
514.60	47358.40
514.77	47075.19
514.95	47674.37
515.12	47402.87
515.29	47573.73
515.47	47742.25
515.64	48065.24
515.81	47688.42
515.99	48193.97
516.16	48744.00
516.33	48528.67
516.51	48528.67
516.68	48385.89
516.85	48582.50
517.03	48900.81
517.20	49191.04
517.37	48903.15
517.54	49013.16
517.72	48617.61
517.89	49151.25
518.06	49380.62
518.24	49345.51
518.41	49265.94
518.58	49408.71
518.75	49392.33
518.93	49797.24
519.10	49570.21
519.27	49855.75
519.45	49909.58
519.62	50312.16
519.79	50021.93
519.96	49778.51
520.14	49998.52
520.31	50122.57
520.48	50419.82
520.65	50541.53
520.83	50557.91
521.00	50607.06
521.17	50827.07
521.34	50756.86
521.52	50859.84
521.69	51114.96
521.86	50897.29
522.03	51330.29
522.20	51339.65
522.38	51283.48
522.55	51580.73
522.72	51447.32
522.89	51452.00
523.07	51784.35
523.24	51529.23
523.41	51798.40
523.58	51789.03
523.75	52236.08
523.92	51704.77
524.10	52332.04
524.27	51976.28
524.44	51751.59
524.61	52034.79
524.78	52348.42
524.96	52116.71
525.13	52254.80
525.30	52385.87
525.47	52601.20
525.64	52570.77
525.81	52605.88
525.98	52594.18
526.16	52446.72
526.33	52697.16
526.50	53125.48
526.67	52741.63
526.84	52811.85
527.01	52762.70
527.18	52898.45
527.36	52940.58
527.53	52903.13
527.70	53673.16
527.87	53485.92
528.04	53354.85
528.21	53457.84
528.38	53134.84
528.55	53682.53
528.72	53764.45
528.89	53347.83
529.07	53357.19
529.24	53436.77
529.41	53553.80
529.58	53708.27
529.75	53743.38
529.92	53818.28
530.09	53893.18
530.26	53935.30
530.43	54003.18
530.60	54033.61
530.77	53635.72
530.94	53970.41
531.11	53748.06
531.28	54284.04
531.46	54330.86
531.63	54213.83
531.80	54120.21
531.97	54410.43
532.14	54597.68
532.31	54602.36
532.48	54501.71
532.65	54677.25
532.82	54635.13
532.99	54703.00
533.16	54630.44
533.33	54805.98
533.50	54946.42
533.67	54766.20
533.84	54864.50
534.01	54794.28
534.18	55112.59
534.35	55227.28
534.52	55044.72
534.69	55241.32
534.86	55229.62
535.03	55157.06
535.20	55351.33
535.37	55290.48
535.54	55437.93
535.71	55124.30
535.88	55365.37
536.05	55213.24
536.22	55793.69
536.38	55615.81
536.55	55847.52
536.72	55480.06
536.89	55693.05
537.06	55751.56
537.23	56142.43
537.40	55646.24
537.57	55690.71
537.74	55861.57
537.91	55824.12
538.08	55957.53
538.25	55826.46
538.42	56044.13
538.59	56104.98
538.75	56023.06
538.92	56086.26
539.09	56231.37
539.26	56189.24
539.43	56196.26
539.60	56348.40
539.77	56292.22
539.94	56477.13
540.11	56465.42
540.28	56540.32
540.44	56528.62
540.61	56545.00
540.78	56734.59
540.95	56313.29
541.12	56521.60
541.29	56278.18
541.46	56348.40
541.62	56678.41
541.79	56657.35
541.96	56594.15
542.13	56793.10
542.30	56638.62
542.47	56722.88
542.63	57069.28
542.80	56875.02
542.97	57352.49
543.14	57319.72
543.31	57125.46
543.48	57123.11
543.64	57513.98
543.81	57411.00
543.98	57354.83
544.15	57233.12
544.32	57722.29
544.48	57602.92
544.65	57378.23
544.82	57609.95
544.99	57352.49
545.16	57579.52
545.32	57633.35
545.49	57916.56
545.66	57804.21
545.83	57670.80
546.00	57766.76
546.16	57579.52
546.33	57502.28
546.50	57441.43
546.67	57614.63
546.83	57701.23
547.00	57907.19
547.17	57595.90
547.34	57733.99
547.50	58040.60
547.67	58101.46
547.84	58005.50
548.00	58183.38
548.17	58239.55
548.34	58164.65
548.51	58000.82
548.67	58241.89
548.84	58298.06
549.01	58234.87
549.18	58131.89
549.34	58272.32
549.51	58415.09
549.68	58515.73
549.84	58415.09
550.01	58522.76
550.18	58185.72
550.34	58321.47
550.51	58529.78
550.68	58536.80
550.84	58232.53
551.01	58450.20
551.18	58375.30
551.34	58415.09
551.51	58567.23
551.68	58630.42
551.84	58663.19
552.01	58518.07
552.18	58824.68
552.34	58672.55
552.51	58735.74
552.68	58604.67
552.84	58859.79
553.01	59061.08
553.18	58857.45
553.34	58925.33
553.51	58838.73
553.67	58885.54
553.84	58960.44
554.01	59047.04
554.17	58974.48
554.34	59075.12
554.51	58974.48
554.67	59133.63
554.84	59040.01
555.00	59093.85
555.17	59096.19
555.33	58857.45
555.50	59091.51
555.67	59121.93
555.83	58960.44
556.00	59318.54
556.16	59512.80
556.33	59477.69
556.50	59290.45
556.66	59601.74
556.83	59166.40
556.99	59208.53
557.16	59648.55
557.32	59482.37
557.49	59573.66
557.65	59391.09
557.82	59519.82
557.98	59524.50
558.15	59519.82
558.32	59590.04
558.48	59372.37
558.65	59543.23
558.81	59578.34
558.98	59693.02
559.14	59653.23
559.31	59615.79
559.47	59856.86
559.64	59838.14
559.80	59826.43
559.97	59976.23
560.13	59662.60
560.30	59847.50
560.46	59746.86
560.63	59887.29
560.79	59891.97
560.96	60102.62
561.12	59969.21
561.29	59884.95
561.45	59786.64
561.61	59884.95
561.78	59777.28
561.94	59648.55
562.11	59910.69
562.27	59920.05
562.44	59990.27
562.60	59980.91
562.77	60149.43
562.93	59894.31
563.10	60013.68
563.26	60006.65
563.42	60292.20
563.59	60093.25
563.75	60254.75
563.92	59938.78
564.08	59826.43
564.24	60210.28
564.41	60030.06
564.57	60083.89
564.74	60055.81
564.90	60243.05
565.07	60081.55
565.23	60097.94
565.39	60296.88
565.56	60285.18
565.72	60051.12
565.88	60097.94
566.05	59969.21
566.21	59990.27
566.38	60364.76
566.54	60392.84
566.70	60346.03
566.87	60542.64
567.03	60158.79
567.19	60413.91
567.36	60308.58
567.52	60530.93
567.68	60556.68
567.85	60346.03
568.01	60460.72
568.17	60458.38
568.34	60598.81
568.50	60353.05
568.66	60460.72
568.83	60315.61
568.99	60364.76
569.15	60308.58
569.32	60374.12
569.48	60507.53
569.64	60514.55
569.81	60568.38
569.97	60327.31
570.13	60481.78
570.30	60334.33
570.46	60456.04
570.62	60753.29
570.78	60537.96
570.95	60636.26
571.11	60643.28
571.27	60753.29
571.43	60846.91
571.60	60746.26
571.76	60720.52
571.92	60542.64
572.09	60664.35
572.25	60809.46
572.41	60842.23
572.57	60376.46
572.74	60889.04
572.90	60643.28
573.06	60713.50
573.22	60643.28
573.38	60760.31
573.55	60699.45
573.71	60985.00
573.87	60865.63
574.03	60456.04
574.20	60832.86
574.36	60725.20
574.52	60856.27
574.68	60816.48
574.84	60917.12
575.01	60863.29
575.17	60823.50
575.33	60636.26
575.49	60559.02
575.65	60774.35
575.82	60949.89
575.98	60746.26
576.14	61017.77
576.30	60896.06
576.46	60779.03
576.62	60912.44
576.79	60739.24
576.95	60659.66
577.11	60891.38
577.27	61034.15
577.43	60809.46
577.59	60790.73
577.75	60809.46
577.92	60657.32
578.08	60781.37
578.24	60860.95
578.40	60980.32
578.56	61050.53
578.72	60975.64
578.88	61003.72
579.04	61020.11
579.21	60863.29
579.37	61010.74
579.53	60945.21
579.69	60741.58
579.85	60874.99
580.01	60907.76
580.17	60823.50
580.33	60917.12
580.49	61003.72
580.65	60816.48
580.82	60781.37
580.98	60860.95
581.14	61001.38
581.30	60893.72
581.46	60795.42
581.62	60903.08
581.78	61008.40
581.94	61076.28
582.10	60865.63
582.26	60982.66
582.42	61041.17
582.58	60928.83
582.74	61036.49
582.90	60886.70
583.06	60879.67
583.22	60853.93
583.38	60835.20
583.54	60977.98
583.70	60980.32
583.86	61080.96
584.02	60870.31
584.18	61010.74
584.34	60914.78
584.50	61048.19
584.66	60898.40
584.82	60832.86
584.98	61216.71
585.14	60977.98
585.30	61001.38
585.46	61001.38
585.62	60973.30
585.78	61338.42
585.94	60828.18
586.10	61249.48
586.26	60921.80
586.42	61160.54
586.58	61116.07
586.74	61216.71
586.90	61151.18
587.06	61010.74
587.22	61083.30
587.38	60968.61
587.54	61214.37
587.70	61366.51
587.86	61106.71
588.02	61073.94
588.18	61209.69
588.34	60860.95
588.49	61141.81
