SpectraSuite Data File
++++++++++++++++++++++++++++++++++++
Date: Fri Oct 25 10:44:44 EDT 2013
User: price-jones
Dark Spectrum Present: No
Reference Spectrum Present: No
Number of Sampled Component Spectra: 1
Spectrometers: USB2+H05261
Integration Time (usec): 100000 (USB2+H05261)
Spectra Averaged: 1 (USB2+H05261)
Boxcar Smoothing: 0 (USB2+H05261)
Correct for Electrical Dark: No (USB2+H05261)
Strobe/Lamp Enabled: No (USB2+H05261)
Correct for Detector Non-linearity: No (USB2+H05261)
Correct for Stray Light: No (USB2+H05261)
Number of Pixels in Processed Spectrum: 2048
>>>>>Begin Processed Spectral Data<<<<<
365.73	107.66
365.92	107.66
366.12	107.66
366.32	42.13
366.52	0.00
366.72	35.11
366.91	7.02
367.11	21.06
367.31	0.00
367.51	37.45
367.70	56.17
367.90	21.06
368.10	44.47
368.30	58.51
368.49	9.36
368.69	35.11
368.89	0.00
369.09	114.69
369.28	0.00
369.48	35.11
369.68	77.24
369.87	60.85
370.07	49.15
370.27	117.03
370.47	161.50
370.66	369.80
370.86	475.13
371.06	416.62
371.25	435.34
371.45	425.98
371.65	505.56
371.84	456.40
372.04	367.46
372.24	505.56
372.44	430.66
372.63	472.79
372.83	470.45
373.03	517.26
373.22	507.90
373.42	531.30
373.62	585.13
373.81	535.98
374.01	566.41
374.21	531.30
374.40	517.26
374.60	638.97
374.79	512.58
374.99	496.19
375.19	599.18
375.38	533.64
375.58	535.98
375.78	517.26
375.97	489.17
376.17	594.50
376.37	599.18
376.56	517.26
376.76	505.56
376.95	545.34
377.15	613.22
377.35	669.39
377.54	645.99
377.74	589.82
377.93	550.03
378.13	580.45
378.33	627.26
378.52	695.14
378.72	615.56
378.91	650.67
379.11	615.56
379.31	622.58
379.50	533.64
379.70	720.88
379.89	634.29
380.09	653.01
380.28	580.45
380.48	671.73
380.68	629.60
380.87	657.69
381.07	744.29
381.26	746.63
381.46	664.71
381.65	641.31
381.85	603.86
382.04	669.39
382.24	603.86
382.43	699.82
382.63	653.01
382.83	641.31
383.02	620.24
383.22	777.06
383.41	688.12
383.61	720.88
383.80	781.74
384.00	641.31
384.19	734.93
384.39	660.03
384.58	751.31
384.78	805.14
384.97	800.46
385.17	751.31
385.36	739.61
385.56	826.21
385.75	755.99
385.95	767.70
386.14	851.96
386.34	826.21
386.53	739.61
386.72	753.65
386.92	835.57
387.11	854.30
387.31	858.98
387.50	828.55
387.70	816.85
387.89	744.29
388.09	826.21
388.28	842.59
388.48	826.21
388.67	851.96
388.86	866.00
389.06	884.72
389.25	903.45
389.45	887.06
389.64	912.81
389.84	980.68
390.03	978.34
390.22	884.72
390.42	950.26
390.61	858.98
390.81	910.47
391.00	966.64
391.19	1053.24
391.39	990.05
391.58	1032.18
391.78	961.96
391.97	997.07
392.16	966.64
392.36	1011.11
392.55	917.49
392.75	933.87
392.94	938.55
393.13	954.94
393.33	931.53
393.52	987.71
393.71	1020.47
393.91	1083.67
394.10	1018.13
394.29	1018.13
394.49	1074.31
394.68	1186.65
394.88	1069.62
395.07	1088.35
395.26	1160.91
395.46	1118.78
395.65	1142.18
395.84	1111.75
396.04	1130.48
396.23	1081.33
396.42	1104.73
396.62	1048.56
396.81	1139.84
397.00	1177.29
397.19	1114.10
397.39	1210.06
397.58	1270.91
397.77	1289.64
397.97	1317.72
398.16	1200.69
398.35	1378.58
398.55	1268.57
398.74	1341.13
398.93	1352.83
399.12	1399.64
399.32	1383.26
399.51	1364.53
399.70	1425.39
399.90	1320.06
400.09	1345.81
400.28	1516.67
400.47	1437.09
400.67	1521.35
400.86	1516.67
401.05	1465.18
401.24	1427.73
401.44	1509.65
401.63	1666.46
401.82	1584.54
402.01	1521.35
402.21	1476.88
402.40	1551.78
402.59	1610.29
402.78	1530.71
402.97	1610.29
403.17	1584.54
403.36	1682.85
403.55	1631.35
403.74	1600.93
403.93	1682.85
404.13	1776.47
404.32	1661.78
404.51	1675.82
404.70	1802.21
404.89	1582.20
405.09	1699.23
405.28	1732.00
405.47	1664.12
405.66	1823.28
405.85	1816.26
406.05	1872.43
406.24	1795.19
406.43	1825.62
406.62	1790.51
406.81	1858.39
407.00	1858.39
407.20	1961.37
407.39	1991.80
407.58	1973.07
407.77	1994.14
407.96	1980.09
408.15	2050.31
408.34	1874.77
408.54	2019.88
408.73	2099.46
408.92	2092.44
409.11	2017.54
409.30	2094.78
409.49	2106.48
409.68	2150.95
409.87	1926.26
410.07	2113.50
410.26	2134.57
410.45	2253.94
410.64	2181.38
410.83	2298.41
411.02	2270.32
411.21	2279.68
411.40	2293.72
411.59	2338.20
411.78	2382.67
411.98	2368.62
412.17	2413.09
412.36	2438.84
412.55	2345.22
412.74	2612.04
412.93	2495.01
413.12	2373.30
413.31	2495.01
413.50	2511.39
413.69	2579.27
413.88	2492.67
414.07	2555.86
414.26	2691.62
414.45	2539.48
414.64	2698.64
414.83	2693.96
415.02	2637.78
415.22	2834.39
415.41	2822.69
415.60	2726.72
415.79	2932.69
415.98	2965.46
416.17	2951.42
416.36	2864.82
416.55	2904.60
416.74	2998.23
416.93	3030.99
417.12	2956.10
417.31	2986.52
417.50	3089.51
417.69	3129.30
417.88	3152.70
418.07	3133.98
418.26	3061.42
418.45	3241.64
418.64	3295.47
418.83	3234.62
419.02	3318.88
419.21	3267.39
419.39	3194.83
419.58	3171.43
419.77	3215.90
419.96	3288.45
420.15	3344.63
420.34	3382.07
420.53	3389.10
420.72	3428.88
420.91	3363.35
421.10	3452.29
421.29	3585.70
421.48	3463.99
421.67	3421.86
421.86	3358.67
422.05	3428.88
422.24	3433.57
422.43	3492.08
422.61	3501.44
422.80	3576.34
422.99	3541.23
423.18	3506.12
423.37	3552.93
423.56	3707.41
423.75	3552.93
423.94	3487.40
424.13	3330.58
424.32	3372.71
424.50	3733.15
424.69	3632.51
424.88	3777.62
425.07	3707.41
425.26	3634.85
425.45	3517.83
425.64	3482.72
425.83	3543.57
426.01	3620.81
426.20	3700.39
426.39	3735.50
426.58	3648.90
426.77	3590.38
426.96	3552.93
427.15	3812.73
427.33	3712.09
427.52	3761.24
427.71	3819.75
427.90	3768.26
428.09	3915.72
428.28	3815.07
428.46	3836.14
428.65	3737.84
428.84	3955.51
429.03	3908.69
429.22	3698.05
429.40	3782.31
429.59	3847.84
429.78	3679.32
429.97	3590.38
430.16	3836.14
430.34	3815.07
430.53	4053.81
430.72	3929.76
430.91	3943.80
431.10	3941.46
431.28	4119.34
431.47	4205.94
431.66	4278.50
431.85	4234.03
432.03	4252.75
432.22	4294.88
432.41	4177.86
432.60	4325.31
432.79	4407.23
432.97	4346.37
433.16	4430.63
433.35	4266.80
433.54	4367.44
433.72	4304.25
433.91	4386.16
434.10	4360.42
434.28	4379.14
434.47	4360.42
434.66	4425.95
434.85	4603.83
435.03	4409.57
435.22	4489.15
435.41	4716.18
435.59	4484.47
435.78	4629.58
435.97	4648.30
436.16	4688.09
436.34	4475.10
436.53	4739.58
436.72	4744.27
436.90	4692.77
437.09	4791.08
437.28	4517.23
437.46	4896.40
437.65	4669.37
437.84	4877.68
438.02	4671.71
438.21	4760.65
438.40	4751.29
438.58	4957.25
438.77	4919.81
438.96	4896.40
439.14	5064.92
439.33	5109.39
439.52	5226.42
439.70	5116.41
439.89	5123.43
440.08	5219.39
440.26	5320.04
440.45	5366.85
440.63	5261.52
440.82	5355.15
441.01	5371.53
441.19	5493.24
441.38	5465.15
441.57	5528.35
441.75	5570.48
441.94	5598.56
442.12	5706.23
442.31	5790.49
442.50	5776.44
442.68	5720.27
442.87	5703.89
443.05	5722.61
443.24	5970.71
443.43	5762.40
443.61	5804.53
443.80	6071.35
443.98	5844.32
444.17	5561.11
444.35	6005.81
444.54	6076.03
444.73	5825.59
444.91	5884.11
445.10	5811.55
445.28	5914.53
445.47	5839.64
445.65	5944.96
445.84	6092.41
446.02	6040.92
446.21	5984.75
446.39	5851.34
446.58	6150.93
446.77	6071.35
446.95	5870.06
447.14	6045.60
447.32	6094.76
447.51	6195.40
447.69	6033.90
447.88	6207.10
448.06	6066.67
448.25	6176.67
448.43	6228.17
448.62	6171.99
448.80	6181.35
448.99	6265.61
449.17	6345.19
449.36	6157.95
449.54	6291.36
449.73	6422.43
449.91	6471.58
450.10	6670.53
450.28	6572.22
450.46	6422.43
450.65	6321.79
450.83	6539.46
451.02	6382.64
451.20	6595.63
451.39	6693.93
451.57	6516.05
451.76	6499.67
451.94	6462.22
452.13	6691.59
452.31	6602.65
452.49	6602.65
452.68	6595.63
452.86	6644.78
453.05	6525.41
453.23	6878.83
453.42	6761.81
453.60	6789.89
453.78	6918.62
453.97	6647.12
454.15	6773.51
454.34	6670.53
454.52	6820.32
454.70	6796.92
454.89	6960.75
455.07	6782.87
455.26	7110.55
455.44	7133.95
455.62	7126.93
455.81	7169.06
455.99	7098.84
456.17	7274.38
456.36	7269.70
456.54	7281.41
456.73	7279.07
456.91	7445.24
457.09	7290.77
457.28	7763.56
457.46	7375.03
457.64	7339.92
457.83	7499.08
458.01	7382.05
458.19	7524.82
458.38	7360.98
458.56	7529.50
458.74	7712.07
458.93	7559.93
459.11	7639.51
459.29	7478.01
459.48	7702.70
459.66	7611.42
459.84	7581.00
460.03	7894.63
460.21	7873.56
460.39	7920.37
460.57	7824.41
460.76	7693.34
460.94	7777.60
461.12	7812.71
461.31	7999.95
461.49	7875.90
461.67	7864.20
461.85	8088.89
462.04	8053.78
462.22	8180.17
462.40	8189.53
462.59	8042.08
462.77	8035.06
462.95	8126.34
463.13	8152.09
463.32	7992.93
463.50	8236.35
463.68	8248.05
463.86	8266.77
464.05	8306.56
464.23	8402.52
464.41	8367.42
464.59	8084.21
464.78	8681.05
464.96	8224.64
465.14	8219.96
465.32	8507.85
465.50	8517.21
465.69	8549.98
465.87	8533.59
466.05	8255.07
466.23	8547.64
466.41	8498.49
466.60	8549.98
466.78	8278.47
466.96	8645.94
467.14	8461.04
467.32	8674.03
467.51	8819.14
467.69	8479.76
467.87	8734.88
468.05	8685.73
468.23	8765.31
468.41	8393.16
468.60	8861.27
468.78	8683.39
468.96	8706.79
469.14	9076.60
469.32	9095.32
469.50	8748.92
469.69	8908.08
469.87	9221.71
470.05	8978.30
470.23	9097.66
470.41	9027.45
470.59	9202.99
470.77	8882.33
470.95	9235.75
471.14	9350.44
471.32	9310.65
471.50	9486.19
471.68	9408.95
471.86	9575.13
472.04	9479.17
472.22	9554.07
472.40	9434.70
472.58	9600.88
472.77	9626.62
472.95	9500.23
473.13	10073.67
473.31	9591.52
473.49	9935.57
473.67	9781.10
473.85	9823.23
474.03	10171.97
474.21	10066.64
474.39	10115.80
474.57	10209.42
474.75	10305.38
474.93	10284.31
475.12	10132.18
475.30	10272.61
475.48	10436.45
475.66	10443.47
475.84	10338.15
476.02	10553.48
476.20	10553.48
476.38	10712.63
476.56	10904.56
476.74	10876.47
476.92	10794.55
477.10	11056.69
477.28	11140.95
477.46	10991.16
477.64	11281.38
477.82	11417.13
478.00	11449.90
478.18	11461.60
478.36	11555.22
478.54	11674.59
478.72	11620.76
478.90	11714.38
479.08	12119.29
479.26	12119.29
479.44	12166.10
479.62	12187.17
479.80	12084.19
479.98	12343.99
480.16	12634.21
480.34	12491.44
480.52	12498.46
480.70	12657.62
480.88	12601.44
481.06	12912.74
481.24	12856.56
481.41	12919.76
481.59	13336.37
481.77	13514.25
481.95	13179.56
482.13	13315.31
482.31	13586.81
482.49	13752.99
482.67	13745.97
482.85	13792.78
483.03	14106.41
483.21	13991.72
483.39	14256.20
483.57	14085.34
483.74	14450.47
483.92	14623.67
484.10	14094.71
484.28	14633.03
484.46	14869.42
484.64	15218.16
484.82	14986.45
485.00	14977.09
485.18	15318.81
485.35	15166.67
485.53	15133.90
485.71	15246.25
485.89	15428.81
486.07	15651.16
486.25	15943.73
486.43	15573.92
486.61	15913.30
486.78	15976.50
486.96	16393.11
487.14	16341.62
487.32	16496.10
487.50	16636.53
487.68	16816.75
487.85	16954.84
488.03	17235.70
488.21	17535.29
488.39	16931.44
488.57	17448.69
488.75	17591.47
488.92	17987.02
489.10	17743.60
489.28	18176.60
489.46	17998.72
489.64	18293.63
489.81	18565.13
489.99	18740.67
490.17	19063.66
490.35	19063.66
490.53	18948.98
490.70	19269.63
490.88	19140.90
491.06	19466.24
491.24	19508.37
491.41	19447.51
491.59	19281.33
491.77	19267.29
491.95	19653.48
492.13	19735.40
492.30	19845.40
492.48	20294.79
492.66	20212.87
492.84	20395.43
493.01	20652.89
493.19	20709.06
493.37	20680.97
493.54	20568.63
493.72	21284.83
493.90	20994.61
494.08	21287.17
494.25	21619.53
494.43	21844.22
494.61	22141.47
494.79	21729.53
494.96	21656.98
495.14	21968.27
495.32	21694.43
495.49	22125.08
495.67	21937.84
495.85	22237.43
496.02	22726.60
496.20	22520.63
496.38	22747.67
496.55	22794.48
496.73	23325.78
496.91	23154.92
497.09	23117.47
497.26	23344.50
497.44	23173.64
497.62	23440.47
497.79	23534.09
497.97	23681.54
498.14	23721.33
498.32	24119.22
498.50	23791.55
498.67	23969.43
498.85	24095.82
499.03	24081.77
499.20	24470.30
499.38	24493.71
499.56	24453.92
499.73	24741.80
499.91	24589.67
500.08	25062.46
500.26	24694.99
500.44	25174.80
500.61	25160.76
500.79	24751.17
500.97	24950.11
501.14	25568.01
501.32	25296.51
501.49	25483.75
501.67	25699.08
501.84	25685.04
502.02	25628.87
502.20	25781.00
502.37	26031.44
502.55	26094.63
502.72	26029.10
502.90	26228.04
503.07	25951.86
503.25	26574.44
503.43	26171.87
503.60	26574.44
503.78	26511.25
503.95	26408.26
504.13	26836.58
504.30	26850.63
504.48	26960.63
504.65	27400.65
504.83	27187.66
505.01	27470.87
505.18	27190.00
505.36	27725.99
505.53	27384.27
505.71	27454.48
505.88	27728.33
506.06	27220.43
506.23	28315.80
506.41	27576.19
506.58	27702.58
506.76	28056.00
506.93	28187.07
507.11	27969.40
507.28	27913.23
507.46	28107.49
507.63	28444.53
507.81	28570.92
507.98	28580.28
508.16	28650.50
508.33	28875.19
508.50	28638.80
508.68	29142.01
508.85	29474.37
509.03	29146.69
509.20	29078.82
509.38	29495.43
509.55	29282.44
509.73	29521.18
509.90	29362.02
510.08	29511.81
510.25	29881.62
510.42	29720.12
510.60	29984.60
510.77	30391.86
510.95	30216.32
511.12	30265.47
511.30	30197.59
511.47	30228.02
511.64	30162.48
511.82	30459.73
511.99	30195.25
512.17	30773.36
512.34	30103.97
512.51	30237.38
512.69	30831.88
512.86	30728.89
513.04	30932.52
513.21	31063.59
513.38	30831.88
513.56	31023.80
513.73	30618.89
513.90	31487.23
514.08	31269.56
514.25	31248.49
514.43	31225.09
514.60	31405.31
514.77	31339.77
514.95	32018.53
515.12	31541.06
515.29	31318.71
515.47	32315.78
515.64	32229.18
515.81	31700.22
515.99	31889.80
516.16	32231.52
516.33	31910.86
516.51	32055.98
516.68	31398.29
516.85	31784.48
517.03	31735.32
517.20	32435.14
517.37	32535.79
517.54	32432.80
517.72	32156.62
517.89	32154.28
518.06	32290.03
518.24	32411.74
518.41	32449.19
518.58	32355.57
518.75	32666.86
518.93	33015.60
519.10	32943.04
519.27	33184.12
519.45	32676.22
519.62	32907.93
519.79	33549.24
519.96	33462.64
520.14	33951.81
520.31	33476.68
520.48	33383.06
520.65	33818.40
520.83	33535.20
521.00	34007.98
521.17	33951.81
521.34	34223.31
521.52	33818.40
521.69	34167.14
521.86	34506.52
522.03	34508.86
522.20	34295.87
522.38	34768.66
522.55	34515.88
522.72	34586.10
522.89	34705.46
523.07	34726.53
523.24	34513.54
523.41	34986.33
523.58	34731.21
523.75	35325.71
523.92	35548.06
524.10	35442.73
524.27	35526.99
524.44	35381.88
524.61	35173.57
524.78	35524.65
524.96	35225.06
525.13	35704.87
525.30	35967.01
525.47	36044.25
525.64	36268.94
525.81	35456.78
525.98	35819.56
526.16	35704.87
526.33	35786.79
526.50	36180.00
526.67	35360.81
526.84	35442.73
527.01	35840.62
527.18	35817.22
527.36	36032.55
527.53	35906.16
527.70	36720.66
527.87	36304.05
528.04	36053.61
528.21	36744.07
528.38	36243.20
528.55	36631.72
528.72	36432.78
528.89	37273.03
529.07	36900.89
529.24	36517.04
529.41	36617.68
529.58	37064.72
529.75	37034.30
529.92	37376.01
530.09	37083.45
530.26	37123.24
530.43	37516.45
530.60	36971.10
530.77	36753.43
530.94	37724.75
531.11	37680.28
531.28	37471.98
531.46	37322.18
531.63	37479.00
531.80	37446.23
531.97	37378.36
532.14	37574.96
532.31	37401.76
532.48	37663.90
532.65	37769.22
532.82	38003.28
532.99	37794.97
533.16	37752.84
533.33	37907.32
533.50	38422.23
533.67	38012.64
533.84	38071.15
534.01	38206.90
534.18	38258.40
534.35	38515.86
534.52	38658.63
534.69	38983.96
534.86	38373.08
535.03	38492.45
535.20	38726.50
535.37	38880.98
535.54	38700.76
535.71	39157.16
535.88	39021.41
536.05	38593.09
536.22	39033.11
536.38	38635.22
536.55	39026.09
536.72	39115.03
536.89	38639.90
537.06	38670.33
537.23	39206.31
537.40	39096.31
537.57	39098.65
537.74	38916.09
537.91	39459.09
538.08	39487.18
538.25	39440.37
538.42	39218.02
538.59	39498.88
538.75	39423.98
538.92	39119.71
539.09	39672.08
539.26	39636.97
539.43	39456.75
539.60	39613.57
539.77	39283.55
539.94	39440.37
540.11	39416.96
540.28	39583.14
540.44	39840.60
540.61	39709.53
540.78	39615.91
540.95	39838.26
541.12	39634.63
541.29	39564.42
541.46	39803.15
541.62	40172.96
541.79	39674.42
541.96	40032.52
542.13	39983.37
542.30	40179.98
542.47	40161.25
542.63	40123.80
542.80	40184.66
542.97	40835.33
543.14	41270.67
543.31	40919.59
543.48	40533.40
543.64	41165.34
543.81	40966.40
543.98	40854.05
544.15	41153.64
544.32	41244.92
544.48	41331.52
544.65	41387.69
544.82	40982.78
544.99	41333.86
545.16	41013.21
545.32	40985.12
545.49	41270.67
545.66	41619.41
545.83	41504.72
546.00	41612.38
546.16	41280.03
546.33	41345.56
546.50	41134.92
546.67	41076.40
546.83	41249.60
547.00	41610.04
547.17	41610.04
547.34	41310.46
547.50	41399.40
547.67	41977.51
547.84	41434.50
548.00	41839.42
548.17	41762.18
548.34	41806.65
548.51	41813.67
548.67	42377.74
548.84	42066.45
549.01	41478.97
549.18	41996.23
549.34	41769.20
549.51	41965.81
549.68	42188.16
549.84	42108.58
550.01	42122.62
550.18	42192.84
550.34	41935.38
550.51	41979.85
550.68	42094.53
550.84	42080.49
551.01	42611.79
551.18	42139.00
551.34	42218.58
551.51	42284.12
551.68	42548.60
551.84	42251.35
552.01	42616.47
552.18	42347.31
552.34	42410.51
552.51	42422.21
552.68	42391.78
552.84	42712.44
553.01	42789.67
553.18	42508.81
553.34	42410.51
553.51	42447.96
553.67	42644.56
553.84	43316.29
554.01	43225.01
554.17	43152.46
554.34	42726.48
554.51	42918.40
554.67	42801.38
554.84	42897.34
555.00	42927.77
555.17	42656.26
555.33	42712.44
555.50	42995.64
555.67	42934.79
555.83	43496.52
556.00	42911.38
556.16	43576.09
556.33	42913.72
556.50	42944.15
556.66	43786.74
556.83	43370.13
556.99	43543.33
557.16	43421.62
557.32	43384.17
557.49	43384.17
557.65	43555.03
557.82	43351.40
557.98	43421.62
558.15	43281.19
558.32	43793.76
558.48	43674.40
558.65	43461.41
558.81	43274.16
558.98	43309.27
559.14	43611.20
559.31	43868.66
559.47	43576.09
559.64	43779.72
559.80	43735.25
559.97	43749.29
560.13	43452.05
560.30	43433.32
560.46	43318.64
560.63	43849.94
560.79	43819.51
560.96	44264.21
561.12	43573.75
561.29	43620.56
561.45	43360.76
561.61	43880.36
561.78	43669.72
561.94	43800.79
562.11	43604.18
562.27	43896.75
562.44	43973.98
562.60	43988.03
562.77	44137.82
562.93	43999.73
563.10	44278.25
563.26	43580.78
563.42	43894.41
563.59	43569.07
563.75	44013.77
563.92	44135.48
564.08	44198.68
564.24	44430.39
564.41	44109.74
564.57	44116.76
564.74	44259.53
564.90	44072.29
565.07	44545.08
565.23	43735.25
565.39	44083.99
565.56	43854.62
565.72	44357.83
565.88	44013.77
566.05	44023.14
566.21	43983.35
566.38	43920.15
566.54	44224.42
566.70	44502.95
566.87	44741.68
567.03	44708.91
567.19	44765.09
567.36	44556.78
567.52	44140.16
567.68	44243.15
567.85	43810.15
568.01	44472.52
568.17	44191.65
568.34	44137.82
568.50	44327.41
568.66	43964.62
568.83	43957.60
568.99	43838.23
569.15	43943.56
569.32	44423.37
569.48	44025.48
569.64	45214.47
569.81	44788.49
569.97	44603.59
570.13	44542.74
570.30	44341.45
570.46	44006.75
570.62	44240.81
570.78	44189.31
570.95	44811.90
571.11	44587.21
571.27	44428.05
571.43	44437.41
571.60	44456.14
571.76	44421.03
571.92	44428.05
572.09	44624.65
572.25	44729.98
572.41	44250.17
572.57	44851.69
572.74	44844.66
572.90	44856.37
573.06	44741.68
573.22	44715.93
573.38	44257.19
573.55	43871.00
573.71	45090.42
573.87	44414.01
574.03	44353.15
574.20	44779.13
574.36	44411.67
574.52	44903.18
574.68	44570.82
574.84	44402.30
575.01	44783.81
575.17	44477.20
575.33	44371.88
575.49	44648.06
575.65	44938.29
575.82	44582.52
575.98	44348.47
576.14	44797.85
576.30	44765.09
576.46	44718.28
576.62	44725.30
576.79	44404.64
576.95	44034.84
577.11	44872.75
577.27	44238.47
577.43	44655.08
577.59	44563.80
577.75	44402.30
577.92	44538.05
578.08	44481.88
578.24	44231.44
578.40	44165.91
578.56	44512.31
578.72	44739.34
578.88	45010.84
579.04	44804.88
579.21	44823.60
579.37	44818.92
579.53	44949.99
579.69	44648.06
579.85	44451.45
580.01	44928.92
580.17	44994.46
580.33	44793.17
580.49	45123.19
580.65	44989.78
580.82	44617.63
580.98	44645.72
581.14	44245.49
581.30	45305.75
581.46	44800.19
581.62	44708.91
581.78	44610.61
581.94	44924.24
582.10	44257.19
582.26	44706.57
582.42	44711.25
582.58	44919.56
582.74	44769.77
582.90	44767.43
583.06	45134.89
583.22	45153.62
583.38	44856.37
583.54	44835.30
583.70	44917.22
583.86	44748.70
584.02	44879.77
584.18	44996.80
584.34	44767.43
584.50	44559.12
584.66	44360.17
584.82	44350.81
584.98	45123.19
585.14	44669.12
585.30	44451.45
585.46	45083.40
585.62	44673.81
585.78	44346.13
585.94	44390.60
586.10	44748.70
586.26	44781.47
586.42	45137.23
586.58	45212.13
586.74	44570.82
586.90	44591.89
587.06	44514.65
587.22	45162.98
587.38	44818.92
587.54	44758.06
587.70	44535.71
587.86	45301.07
588.02	45001.48
588.18	45230.85
588.34	44568.48
588.49	44465.50
588.65	44236.12
588.81	44201.02
588.97	44746.36
589.13	44409.32
589.29	44966.37
589.45	45144.25
589.61	44732.32
589.77	45034.25
589.93	45268.30
590.08	45319.79
590.24	44449.11
