SpectraSuite Data File
++++++++++++++++++++++++++++++++++++
Date: Fri Oct 25 10:44:04 EDT 2013
User: price-jones
Dark Spectrum Present: No
Reference Spectrum Present: No
Number of Sampled Component Spectra: 1
Spectrometers: USB2+H05261
Integration Time (usec): 100000 (USB2+H05261)
Spectra Averaged: 1 (USB2+H05261)
Boxcar Smoothing: 0 (USB2+H05261)
Correct for Electrical Dark: No (USB2+H05261)
Strobe/Lamp Enabled: No (USB2+H05261)
Correct for Detector Non-linearity: No (USB2+H05261)
Correct for Stray Light: No (USB2+H05261)
Number of Pixels in Processed Spectrum: 2048
>>>>>Begin Processed Spectral Data<<<<<
365.73	114.69
365.92	114.69
366.12	114.69
366.32	9.36
366.52	23.41
366.72	60.85
366.91	0.00
367.11	32.77
367.31	30.43
367.51	60.85
367.70	2.34
367.90	86.60
368.10	9.36
368.30	14.04
368.49	0.00
368.69	56.17
368.89	16.38
369.09	105.32
369.28	28.09
369.48	58.51
369.68	56.17
369.87	112.35
370.07	51.49
370.27	112.35
370.47	131.07
370.66	400.23
370.86	458.74
371.06	528.96
371.25	521.94
371.45	477.47
371.65	444.70
371.84	433.00
372.04	367.46
372.24	545.34
372.44	482.15
372.63	559.39
372.83	486.83
373.03	524.28
373.22	573.43
373.42	585.13
373.62	559.39
373.81	575.77
374.01	589.82
374.21	568.75
374.40	594.50
374.60	603.86
374.79	596.84
374.99	627.26
375.19	622.58
375.38	613.22
375.58	615.56
375.78	643.65
375.97	566.41
376.17	650.67
376.37	615.56
376.56	629.60
376.76	669.39
376.95	608.54
377.15	599.18
377.35	624.92
377.54	704.50
377.74	671.73
377.93	674.07
378.13	650.67
378.33	620.24
378.52	704.50
378.72	695.14
378.91	620.24
379.11	599.18
379.31	681.10
379.50	641.31
379.70	730.25
379.89	723.23
380.09	676.41
380.28	711.52
380.48	681.10
380.68	713.86
380.87	727.91
381.07	716.20
381.26	716.20
381.46	777.06
381.65	744.29
381.85	739.61
382.04	669.39
382.24	741.95
382.43	653.01
382.63	688.12
382.83	631.94
383.02	674.07
383.22	732.59
383.41	760.67
383.61	781.74
383.80	798.12
384.00	809.83
384.19	730.25
384.39	851.96
384.58	786.42
384.78	882.38
384.97	887.06
385.17	891.74
385.36	830.89
385.56	770.04
385.75	816.85
385.95	854.30
386.14	868.34
386.34	741.95
386.53	863.66
386.72	910.47
386.92	1043.88
387.11	851.96
387.31	924.51
387.50	858.98
387.70	842.59
387.89	910.47
388.09	873.02
388.28	947.92
388.48	950.26
388.67	1013.45
388.86	933.87
389.06	994.73
389.25	1015.79
389.45	1015.79
389.64	997.07
389.84	1025.15
390.03	1057.92
390.22	1020.47
390.42	940.90
390.61	978.34
390.81	999.41
391.00	1013.45
391.19	1081.33
391.39	1086.01
391.58	1146.86
391.78	1048.56
391.97	1043.88
392.16	971.32
392.36	1137.50
392.55	1090.69
392.75	1078.99
392.94	1025.15
393.13	1067.28
393.33	1055.58
393.52	1015.79
393.71	1177.29
393.91	1153.88
394.10	1097.71
394.29	1111.75
394.49	1268.57
394.68	1270.91
394.88	1200.69
395.07	1266.23
395.26	1273.25
395.46	1210.06
395.65	1303.68
395.84	1313.04
396.04	1233.46
396.23	1231.12
396.42	1224.10
396.62	1205.38
396.81	1188.99
397.00	1247.51
397.19	1350.49
397.39	1425.39
397.58	1425.39
397.77	1413.68
397.97	1458.15
398.16	1474.54
398.35	1514.33
398.55	1519.01
398.74	1565.82
398.93	1549.43
399.12	1563.48
399.32	1610.29
399.51	1540.07
399.70	1654.76
399.90	1675.82
400.09	1682.85
400.28	1741.36
400.47	1664.12
400.67	1750.72
400.86	1699.23
401.05	1834.98
401.24	1909.88
401.44	1781.15
401.63	1778.81
401.82	1816.26
402.01	1820.94
402.21	1902.86
402.40	1785.83
402.59	1900.52
402.78	1750.72
402.97	1877.11
403.17	1860.73
403.36	1891.15
403.55	1912.22
403.74	1975.41
403.93	1886.47
404.13	1921.58
404.32	1947.33
404.51	1942.64
404.70	1914.56
404.89	1830.30
405.09	2057.33
405.28	2078.40
405.47	2045.63
405.66	2083.08
405.85	2092.44
406.05	2022.22
406.24	2076.06
406.43	2005.84
406.62	2223.51
406.81	2345.22
407.00	2141.59
407.20	2076.06
407.39	2148.61
407.58	2162.66
407.77	2293.72
407.96	2307.77
408.15	2324.15
408.34	2370.96
408.54	2326.49
408.73	2380.32
408.92	2464.58
409.11	2476.29
409.30	2455.22
409.49	2286.70
409.68	2370.96
409.87	2296.07
410.07	2377.98
410.26	2504.37
410.45	2616.72
410.64	2352.24
410.83	2569.91
411.02	2569.91
411.21	2715.02
411.40	2705.66
411.59	2752.47
411.78	2738.43
411.98	2665.87
412.17	2808.64
412.36	2775.88
412.55	2766.51
412.74	2806.30
412.93	2808.64
413.12	2780.56
413.31	3005.25
413.50	2846.09
413.69	2846.09
413.88	3033.33
414.07	3133.98
414.26	3063.76
414.45	3080.14
414.64	2963.12
414.83	3157.38
415.02	3159.72
415.22	3171.43
415.41	3351.65
415.60	3215.90
415.79	3293.13
415.98	3342.28
416.17	3449.95
416.36	3307.18
416.55	3309.52
416.74	3300.16
416.93	3330.58
417.12	3515.48
417.31	3412.50
417.50	3400.80
417.69	3592.72
417.88	3660.60
418.07	3473.36
418.26	3674.64
418.45	3719.11
418.64	3735.50
418.83	3796.35
419.02	3681.66
419.21	3571.66
419.39	3798.69
419.58	3604.42
419.77	3630.17
419.96	3702.73
420.15	3770.60
420.34	3770.60
420.53	3836.14
420.72	3908.69
420.91	3882.95
421.10	3969.55
421.29	4163.81
421.48	4004.66
421.67	4004.66
421.86	3889.97
422.05	4021.04
422.24	3838.48
422.43	3864.22
422.61	3995.29
422.80	4081.89
422.99	4035.08
423.18	4100.62
423.37	4189.56
423.56	4093.60
423.75	4119.34
423.94	4060.83
424.13	3892.31
424.32	3950.82
424.50	4203.60
424.69	4102.96
424.88	4383.82
425.07	4074.87
425.26	4128.70
425.45	4152.11
425.64	4205.94
425.83	4131.05
426.01	4149.77
426.20	4175.52
426.39	4283.18
426.58	4112.32
426.77	4053.81
426.96	4058.49
427.15	4168.49
427.33	4095.94
427.52	4241.05
427.71	4395.53
427.90	4212.96
428.09	4283.18
428.28	4390.84
428.46	4271.48
428.65	4435.32
428.84	4430.63
429.03	4437.66
429.22	4308.93
429.40	4411.91
429.59	4241.05
429.78	4035.08
429.97	3918.06
430.16	4201.26
430.34	4290.20
430.53	4327.65
430.72	4287.86
430.91	4365.10
431.10	4400.21
431.28	4837.89
431.47	4798.10
431.66	4748.95
431.85	4798.10
432.03	4854.27
432.22	4917.47
432.41	4788.74
432.60	4844.91
432.79	4924.49
432.97	4971.30
433.16	4774.69
433.35	4777.03
433.54	4788.74
433.72	4856.61
433.91	4741.93
434.10	4891.72
434.28	4835.55
434.47	4910.44
434.66	5100.03
434.85	5060.24
435.03	5163.22
435.22	4875.34
435.41	5289.61
435.59	5163.22
435.78	5359.83
435.97	5254.50
436.16	5320.04
436.34	5294.29
436.53	5369.19
436.72	5617.29
436.90	5170.24
437.09	5479.19
437.28	5329.40
437.46	5397.28
437.65	5411.32
437.84	5324.72
438.02	5315.36
438.21	5416.00
438.40	5193.65
438.58	5767.08
438.77	5650.05
438.96	5561.11
439.14	5736.65
439.33	5893.47
439.52	5771.76
439.70	5820.91
439.89	5949.64
440.08	5872.40
440.26	5947.30
440.45	5895.81
440.63	6015.18
440.82	6122.84
441.01	6111.14
441.19	6179.01
441.38	6272.64
441.57	6321.79
441.75	6312.42
441.94	6509.03
442.12	6464.56
442.31	6581.59
442.50	6583.93
442.68	6511.37
442.87	6663.51
443.05	6530.09
443.24	6572.22
443.43	6691.59
443.61	6775.85
443.80	6883.52
443.98	6473.92
444.17	6490.31
444.35	6876.49
444.54	6832.02
444.73	6937.35
444.91	6729.04
445.10	6626.06
445.28	6619.04
445.47	6736.06
445.65	6633.08
445.84	6712.66
446.02	6698.61
446.21	6855.43
446.39	6780.53
446.58	7045.01
446.77	6942.03
446.95	6717.34
447.14	6958.41
447.32	7052.03
447.51	7056.72
447.69	6958.41
447.88	6977.14
448.06	6960.75
448.25	6988.84
448.43	6984.16
448.62	6855.43
448.80	7077.78
448.99	7117.57
449.17	7056.72
449.36	7162.04
449.54	7260.34
449.73	7435.88
449.91	7520.14
450.10	7522.48
450.28	7595.04
450.46	7555.25
450.65	7442.90
450.83	7419.50
451.02	7527.16
451.20	7569.29
451.39	7496.74
451.57	7543.55
451.76	7445.24
451.94	7470.99
452.13	7669.94
452.31	7449.93
452.49	7377.37
452.68	7618.44
452.86	7566.95
453.05	7702.70
453.23	7543.55
453.42	7536.52
453.60	7578.65
453.78	7754.19
453.97	7588.02
454.15	7693.34
454.34	7662.91
454.52	7819.73
454.70	8046.76
454.89	7880.58
455.07	7796.32
455.26	7978.89
455.44	8109.96
455.62	7864.20
455.81	8131.02
455.99	8088.89
456.17	8290.18
456.36	8114.64
456.54	8116.98
456.73	8243.37
456.91	8362.73
457.09	8498.49
457.28	8617.85
457.46	8210.60
457.64	8521.89
457.83	8367.42
458.01	8407.20
458.19	8498.49
458.38	8606.15
458.56	8470.40
458.74	8554.66
458.93	8561.68
459.11	8711.47
459.29	8716.16
459.48	8655.30
459.66	8599.13
459.84	8699.77
460.03	9121.07
460.21	8791.05
460.39	8856.59
460.57	8819.14
460.76	8814.46
460.94	8938.51
461.12	8971.27
461.31	9170.22
461.49	8861.27
461.67	9071.92
461.85	9139.79
462.04	8997.02
462.22	9617.26
462.40	9282.56
462.59	9200.65
462.77	9107.02
462.95	9376.19
463.13	9357.46
463.32	9266.18
463.50	9221.71
463.68	9202.99
463.86	9263.84
464.05	9202.99
464.23	9355.12
464.41	9268.52
464.59	9252.14
464.78	9741.31
464.96	9378.53
465.14	9380.87
465.32	9638.33
465.50	9509.60
465.69	9837.27
465.87	9530.66
466.05	9441.72
466.23	9413.63
466.41	9418.32
466.60	9645.35
466.78	9364.48
466.96	9441.72
467.14	9647.69
467.32	9638.33
467.51	9823.23
467.69	9748.33
467.87	9816.21
468.05	9926.21
468.23	9741.31
468.41	9905.15
468.60	9947.28
468.78	9919.19
468.96	9848.97
469.14	10015.15
469.32	10223.46
469.50	10036.22
469.69	9947.28
469.87	10080.69
470.05	10153.24
470.23	10284.31
470.41	10230.48
470.59	10417.72
470.77	10115.80
470.95	10427.09
471.14	10469.22
471.32	10249.21
471.50	10590.92
471.68	10712.63
471.86	10733.70
472.04	10707.95
472.22	10862.43
472.40	10829.66
472.58	10944.34
472.77	10717.31
472.95	10843.70
473.13	11133.93
473.31	10801.57
473.49	10890.51
473.67	10878.81
473.85	10995.84
474.03	11384.37
474.21	11169.04
474.39	11318.83
474.57	11267.34
474.75	11712.04
474.93	11552.88
475.12	11234.57
475.30	11545.86
475.48	11566.93
475.66	11733.11
475.84	11541.18
476.02	11833.75
476.20	11946.09
476.38	12236.32
476.56	12287.81
476.74	12430.59
476.92	12163.76
477.10	12280.79
477.28	12564.00
477.46	12435.27
477.64	12643.57
477.82	12975.93
478.00	12915.08
478.18	12784.01
478.36	12863.58
478.54	13039.12
478.72	13146.79
478.90	13254.45
479.08	13376.16
479.26	13617.24
479.44	13790.44
479.62	13731.92
479.80	13841.93
479.98	14047.90
480.16	14150.88
480.34	14258.54
480.52	14420.04
480.70	14272.59
480.88	14328.76
481.06	14562.81
481.24	14494.94
481.41	14714.95
481.59	14949.00
481.77	15049.64
481.95	14740.69
482.13	15044.96
482.31	15103.48
482.49	15274.34
482.67	15166.67
482.85	15475.62
483.03	15501.37
483.21	15541.16
483.39	16039.69
483.57	15763.51
483.74	16142.67
483.92	16042.03
484.10	15960.11
484.28	16470.35
484.46	16472.69
484.64	16966.54
484.82	16556.95
485.00	16807.39
485.18	16650.57
485.35	17212.30
485.53	16655.25
485.71	16943.14
485.89	16767.60
486.07	16919.73
486.25	17422.95
486.43	17584.44
486.61	17703.81
486.78	17664.02
486.96	17867.65
487.14	18267.88
487.32	18473.85
487.50	18331.08
487.68	19051.96
487.85	18827.27
488.03	19201.76
488.21	18974.72
488.39	19197.07
488.57	19293.04
488.75	19197.07
488.92	19889.87
489.10	19756.46
489.28	20086.48
489.46	20430.54
489.64	20187.12
489.81	20924.39
489.99	20809.70
490.17	21305.90
490.35	21263.77
490.53	21254.40
490.70	21179.51
490.88	21436.97
491.06	21490.80
491.24	21584.42
491.41	21649.96
491.59	21605.49
491.77	21792.73
491.95	21717.83
492.13	22207.00
492.30	22061.89
492.48	22607.23
492.66	22485.53
492.84	22703.20
493.01	23094.07
493.19	22501.91
493.37	23080.02
493.54	22841.29
493.72	23379.61
493.90	23428.76
494.08	23676.86
494.25	24119.22
494.43	23910.91
494.61	24016.24
494.79	24315.83
494.96	24098.16
495.14	24381.36
495.32	24355.61
495.49	24538.18
495.67	24790.95
495.85	24929.05
496.02	24971.18
496.20	25156.08
496.38	25715.47
496.55	25212.25
496.73	26001.01
496.91	25570.35
497.09	25802.07
497.26	26148.46
497.44	25998.67
497.62	26457.42
497.79	26265.49
497.97	26096.97
498.14	26235.06
498.32	26501.89
498.50	26394.22
498.67	26906.80
498.85	26586.15
499.03	26831.90
499.20	27288.31
499.38	27325.75
499.56	27014.46
499.73	27452.14
499.91	27288.31
500.08	27557.47
500.26	26953.61
500.44	27311.71
500.61	27363.20
500.79	27344.48
500.97	27618.32
501.14	28002.17
501.32	27828.97
501.49	28004.51
501.67	28074.73
501.84	28379.00
502.02	28439.85
502.20	28484.32
502.37	28535.81
502.55	28659.86
502.72	28797.95
502.90	28753.48
503.07	28945.41
503.25	29160.73
503.43	28840.08
503.60	28898.59
503.78	28730.08
503.95	28870.51
504.13	29446.28
504.30	29703.74
504.48	29219.25
504.65	29942.47
504.83	29947.15
505.01	29993.97
505.18	30230.36
505.36	30256.11
505.53	30244.40
505.71	30749.96
505.88	30476.12
506.06	30288.87
506.23	30586.12
506.41	30539.31
506.58	30642.29
506.76	30359.09
506.93	30897.41
507.11	30782.73
507.28	31042.53
507.46	30888.05
507.63	31087.00
507.81	31002.74
507.98	30909.11
508.16	31395.95
508.33	31686.17
508.50	31660.43
508.68	31611.28
508.85	32093.43
509.03	32161.30
509.20	32156.62
509.38	32421.10
509.55	31960.02
509.73	31831.29
509.90	32257.26
510.08	32037.25
510.25	32287.69
510.42	32512.38
510.60	32561.53
510.77	32929.00
510.95	33181.77
511.12	32933.68
511.30	33242.63
511.47	33188.80
511.64	32980.49
511.82	33076.45
511.99	32975.81
512.17	33378.38
512.34	32776.86
512.51	33916.70
512.69	33670.95
512.86	33677.97
513.04	34059.48
513.21	34064.16
513.38	33596.05
513.56	33731.80
513.73	33483.70
513.90	34017.35
514.08	33907.34
514.25	33961.17
514.43	34199.91
514.60	33769.25
514.77	34541.63
514.95	34803.77
515.12	34164.80
515.29	34831.85
515.47	35037.82
515.64	34614.18
515.81	34843.56
515.99	34703.12
516.16	34562.69
516.33	34703.12
516.51	34581.42
516.68	34136.71
516.85	34206.93
517.03	34417.58
517.20	34836.53
517.37	35026.12
517.54	35543.38
517.72	34951.22
517.89	35037.82
518.06	34492.47
518.24	35063.57
518.41	35234.42
518.58	35470.82
518.75	35431.03
518.93	36023.19
519.10	35728.28
519.27	35941.27
519.45	35938.93
519.62	36421.08
519.79	36041.91
519.96	36212.77
520.14	36535.76
520.31	36596.62
520.48	36161.28
520.65	36165.96
520.83	37029.62
521.00	36795.56
521.17	37261.33
521.34	36957.06
521.52	37209.84
521.69	37240.26
521.86	37139.62
522.03	37329.20
522.20	37368.99
522.38	37399.42
522.55	37366.65
522.72	37326.86
522.89	37373.67
523.07	37507.08
523.24	37364.31
523.41	38181.16
523.58	37944.76
523.75	38586.07
523.92	38728.84
524.10	38347.34
524.27	38029.02
524.44	38096.90
524.61	38614.16
524.78	38934.81
524.96	38504.15
525.13	38822.47
525.30	38728.84
525.47	38937.15
525.64	38761.61
525.81	38653.95
525.98	38469.04
526.16	38265.42
526.33	37986.89
526.50	38237.33
526.67	37787.95
526.84	38038.39
527.01	38487.77
527.18	38775.66
527.36	39255.46
527.53	39115.03
527.70	39185.25
527.87	39838.26
528.04	39756.34
528.21	39166.52
528.38	39583.14
528.55	39615.91
528.72	40091.04
528.89	39910.82
529.07	39875.71
529.24	39906.13
529.41	39880.39
529.58	39999.76
529.75	39838.26
529.92	39835.92
530.09	40048.91
530.26	40383.60
530.43	40142.53
530.60	39985.71
530.77	40147.21
530.94	40318.07
531.11	40622.34
531.28	40519.35
531.46	40521.69
531.63	40861.07
531.80	40744.05
531.97	40168.27
532.14	40299.34
532.31	40072.31
532.48	40367.22
532.65	40994.48
532.82	40378.92
532.99	41120.87
533.16	40318.07
533.33	41301.09
533.50	41170.02
533.67	41333.86
533.84	40891.50
534.01	41282.37
534.18	41345.56
534.35	41390.03
534.52	40952.35
534.69	41567.91
534.86	41539.83
535.03	41132.57
535.20	42258.37
535.37	41794.95
535.54	41600.68
535.71	41797.29
535.88	41460.25
536.05	41448.55
536.22	41329.18
536.38	42029.00
536.55	42031.34
536.72	41757.50
536.89	41399.40
537.06	41649.83
537.23	42368.38
537.40	42574.34
537.57	42546.26
537.74	42375.40
537.91	42326.25
538.08	42541.58
538.25	41638.13
538.42	41874.52
538.59	42607.11
538.75	41921.34
538.92	42281.78
539.09	42686.69
539.26	42635.20
539.43	42284.12
539.60	42532.22
539.77	41979.85
539.94	42471.36
540.11	42440.93
540.28	42415.19
540.44	42740.52
540.61	42389.44
540.78	42672.65
540.95	42789.67
541.12	42529.87
541.29	42770.95
541.46	42674.99
541.62	43213.31
541.79	42836.48
541.96	42340.29
542.13	42422.21
542.30	42864.57
542.47	43232.04
542.63	42866.91
542.80	43171.18
542.97	43573.75
543.14	43618.22
543.31	43271.82
543.48	43826.53
543.64	44058.24
543.81	43941.22
543.98	43835.89
544.15	43634.61
544.32	43995.05
544.48	44306.34
544.65	44224.42
544.82	43517.58
544.99	43812.49
545.16	44083.99
545.32	43529.28
545.49	44304.00
545.66	44491.24
545.83	43938.88
546.00	44196.34
546.16	44109.74
546.33	44292.30
546.50	44222.08
546.67	44430.39
546.83	43725.89
547.00	44376.56
547.17	44495.92
547.34	44280.60
547.50	44095.69
547.67	44636.36
547.84	44580.18
548.00	44751.04
548.17	44631.68
548.34	44947.65
548.51	44839.98
548.67	45052.97
548.84	45085.74
549.01	44615.29
549.18	45031.91
549.34	44786.15
549.51	45022.54
549.68	45022.54
549.84	45010.84
550.01	45247.24
550.18	45193.40
550.34	45062.33
550.51	44708.91
550.68	44751.04
550.84	44699.55
551.01	45581.93
551.18	45017.86
551.34	45368.94
551.51	45394.69
551.68	45497.67
551.84	45471.93
552.01	45090.42
552.18	45284.68
552.34	45223.83
552.51	45106.80
552.68	44957.01
552.84	45469.59
553.01	45808.96
553.18	45521.08
553.34	45202.77
553.51	45523.42
553.67	45553.85
553.84	45635.77
554.01	45649.81
554.17	45923.65
554.34	46045.36
554.51	45478.95
554.67	45893.22
554.84	46089.83
555.00	45247.24
555.17	45619.38
555.33	45886.20
555.50	45949.40
555.67	45228.51
555.83	45415.76
556.00	45607.68
556.16	46085.15
556.33	45729.39
556.50	45668.53
556.66	45705.98
556.83	45488.31
556.99	46305.16
557.16	45911.95
557.32	45677.90
557.49	45600.66
557.65	45530.44
557.82	45804.28
557.98	45610.02
558.15	46162.39
558.32	46014.93
558.48	46024.29
558.65	45900.25
558.81	45897.91
558.98	45722.37
559.14	46230.26
559.31	46284.09
559.47	45933.01
559.64	46246.65
559.80	46286.43
559.97	46227.92
560.13	46005.57
560.30	46288.77
560.46	46281.75
560.63	46419.84
560.79	46719.43
560.96	47016.68
561.12	46103.87
561.29	46646.88
561.45	46515.81
561.61	46525.17
561.78	46155.36
561.94	46045.36
562.11	46403.46
562.27	46101.53
562.44	46405.80
562.60	46443.25
562.77	46754.54
562.93	46080.47
563.10	46806.03
563.26	46436.23
563.42	46375.37
563.59	46361.33
563.75	46815.40
563.92	46707.73
564.08	46995.62
564.24	46838.80
564.41	46649.22
564.57	46443.25
564.74	46499.42
564.90	46859.87
565.07	46948.81
565.23	46408.14
565.39	46691.35
565.56	46813.05
565.72	46302.82
565.88	46330.90
566.05	46719.43
566.21	46429.21
566.38	46494.74
566.54	46831.78
566.70	46918.38
566.87	46892.63
567.03	46473.68
567.19	46897.31
567.36	46855.18
567.52	46696.03
567.68	46590.70
567.85	46712.41
568.01	46894.97
568.17	46705.39
568.34	47030.72
568.50	46761.56
568.66	46583.68
568.83	47157.11
568.99	46305.16
569.15	46557.94
569.32	46775.61
569.48	46099.19
569.64	47140.73
569.81	46717.09
569.97	46887.95
570.13	46698.37
570.30	46569.64
570.46	46733.48
570.62	46232.60
570.78	46274.73
570.95	46583.68
571.11	47133.71
571.27	46665.60
571.43	46351.97
571.60	46384.74
571.76	46653.90
571.92	46852.84
572.09	46927.74
572.25	46953.49
572.41	46726.46
572.57	46878.59
572.74	47269.46
572.90	46939.44
573.06	47283.50
573.22	47056.47
573.38	46644.54
573.55	46728.80
573.71	47370.10
573.87	47044.77
574.03	47056.47
574.20	46892.63
574.36	47028.38
574.52	47119.66
574.68	47105.62
574.84	46972.21
575.01	46787.31
575.17	46794.33
575.33	46820.08
575.49	46403.46
575.65	46511.13
575.82	46852.84
575.98	46590.70
576.14	46885.61
576.30	47054.13
576.46	46965.19
576.62	46506.44
576.79	46639.86
576.95	46724.11
577.11	47016.68
577.27	46932.42
577.43	46806.03
577.59	46794.33
577.75	46583.68
577.92	46548.57
578.08	46621.13
578.24	46417.50
578.40	47056.47
578.56	46995.62
578.72	47136.05
578.88	47372.44
579.04	47248.39
579.21	46724.11
579.37	46871.57
579.53	47224.99
579.69	46567.30
579.85	46894.97
580.01	47192.22
580.17	46717.09
580.33	46934.76
580.49	47014.34
580.65	46944.12
580.82	46923.06
580.98	46686.67
581.14	46586.02
581.30	47145.41
581.46	47089.24
581.62	46925.40
581.78	46927.74
581.94	47498.83
582.10	46934.76
582.26	47086.90
582.42	47255.42
582.58	46902.00
582.74	47035.41
582.90	47445.00
583.06	47370.10
583.22	47096.26
583.38	47342.02
583.54	47299.89
583.70	47131.37
583.86	47180.52
584.02	46852.84
584.18	46995.62
584.34	47079.88
584.50	46721.77
584.66	46866.89
584.82	47014.34
584.98	46939.44
585.14	47180.52
585.30	47344.36
585.46	46972.21
585.62	46590.70
585.78	47262.44
585.94	46667.94
586.10	46838.80
586.26	46890.29
586.42	47004.98
586.58	47566.71
586.74	46951.15
586.90	46824.76
587.06	46808.37
587.22	47093.92
587.38	46962.85
587.54	47161.79
587.70	47093.92
587.86	47077.54
588.02	47365.42
588.18	47026.04
588.34	46845.82
588.49	46272.39
588.65	46106.21
588.81	46293.46
588.97	46773.27
589.13	46532.19
589.29	46686.67
589.45	46703.05
589.61	47274.14
589.77	47220.31
