SpectraSuite Data File
++++++++++++++++++++++++++++++++++++
Date: Fri Oct 25 10:44:36 EDT 2013
User: price-jones
Dark Spectrum Present: No
Reference Spectrum Present: No
Number of Sampled Component Spectra: 1
Spectrometers: USB2+H05261
Integration Time (usec): 100000 (USB2+H05261)
Spectra Averaged: 1 (USB2+H05261)
Boxcar Smoothing: 0 (USB2+H05261)
Correct for Electrical Dark: No (USB2+H05261)
Strobe/Lamp Enabled: No (USB2+H05261)
Correct for Detector Non-linearity: No (USB2+H05261)
Correct for Stray Light: No (USB2+H05261)
Number of Pixels in Processed Spectrum: 2048
>>>>>Begin Processed Spectral Data<<<<<
365.73	152.13
365.92	152.13
366.12	152.13
366.32	0.00
366.52	0.00
366.72	28.09
366.91	0.00
367.11	0.00
367.31	77.24
367.51	0.00
367.70	0.00
367.90	44.47
368.10	0.00
368.30	23.41
368.49	0.00
368.69	0.00
368.89	32.77
369.09	58.51
369.28	56.17
369.48	105.32
369.68	156.82
369.87	110.01
370.07	114.69
370.27	135.75
370.47	168.52
370.66	341.72
370.86	388.53
371.06	374.49
371.25	400.23
371.45	477.47
371.65	465.77
371.84	447.04
372.04	463.43
372.24	479.81
372.44	472.79
372.63	550.03
372.83	533.64
373.03	484.49
373.22	510.24
373.42	472.79
373.62	451.72
373.81	521.94
374.01	608.54
374.21	589.82
374.40	559.39
374.60	564.07
374.79	545.34
374.99	592.16
375.19	561.73
375.38	493.85
375.58	526.62
375.78	554.71
375.97	606.20
376.17	615.56
376.37	631.94
376.56	610.88
376.76	620.24
376.95	627.26
377.15	557.05
377.35	585.13
377.54	657.69
377.74	559.39
377.93	575.77
378.13	561.73
378.33	615.56
378.52	636.63
378.72	660.03
378.91	575.77
379.11	638.97
379.31	566.41
379.50	599.18
379.70	662.37
379.89	650.67
380.09	627.26
380.28	589.82
380.48	688.12
380.68	657.69
380.87	582.79
381.07	805.14
381.26	596.84
381.46	620.24
381.65	627.26
381.85	620.24
382.04	657.69
382.24	678.76
382.43	676.41
382.63	699.82
382.83	678.76
383.02	753.65
383.22	767.70
383.41	709.18
383.61	730.25
383.80	697.48
384.00	685.78
384.19	641.31
384.39	746.63
384.58	826.21
384.78	699.82
384.97	763.01
385.17	688.12
385.36	763.01
385.56	772.38
385.75	755.99
385.95	737.27
386.14	861.32
386.34	793.44
386.53	774.72
386.72	720.88
386.92	858.98
387.11	887.06
387.31	812.17
387.50	821.53
387.70	805.14
387.89	910.47
388.09	823.87
388.28	842.59
388.48	786.42
388.67	891.74
388.86	889.40
389.06	847.27
389.25	896.43
389.45	929.19
389.64	854.30
389.84	947.92
390.03	933.87
390.22	915.15
390.42	971.32
390.61	915.15
390.81	999.41
391.00	1022.81
391.19	968.98
391.39	1022.81
391.58	983.02
391.78	926.85
391.97	992.39
392.16	992.39
392.36	1004.09
392.55	1008.77
392.75	978.34
392.94	880.04
393.13	952.60
393.33	1011.11
393.52	1020.47
393.71	1027.50
393.91	1027.50
394.10	1090.69
394.29	1025.15
394.49	1097.71
394.68	1135.16
394.88	1050.90
395.07	1034.52
395.26	1093.03
395.46	1116.44
395.65	1160.91
395.84	1069.62
396.04	1142.18
396.23	1144.52
396.42	1071.97
396.62	1135.16
396.81	1057.92
397.00	1193.67
397.19	1184.31
397.39	1170.27
397.58	1228.78
397.77	1235.80
397.97	1224.10
398.16	1252.19
398.35	1226.44
398.55	1350.49
398.74	1380.92
398.93	1383.26
399.12	1359.85
399.32	1256.87
399.51	1247.51
399.70	1338.79
399.90	1348.15
400.09	1350.49
400.28	1474.54
400.47	1437.09
400.67	1460.49
400.86	1486.24
401.05	1462.83
401.24	1444.11
401.44	1551.78
401.63	1535.39
401.82	1530.71
402.01	1519.01
402.21	1593.90
402.40	1614.97
402.59	1666.46
402.78	1570.50
402.97	1607.95
403.17	1605.61
403.36	1561.14
403.55	1647.74
403.74	1689.87
403.93	1600.93
404.13	1589.22
404.32	1673.48
404.51	1638.38
404.70	1664.12
404.89	1671.14
405.09	1830.30
405.28	1748.38
405.47	1727.32
405.66	1767.10
405.85	1785.83
406.05	1764.76
406.24	1778.81
406.43	1746.04
406.62	1839.66
406.81	1942.64
407.00	1774.13
407.20	1816.26
407.39	1797.53
407.58	1884.13
407.77	1940.30
407.96	1966.05
408.15	1949.67
408.34	1909.88
408.54	1980.09
408.73	2078.40
408.92	2008.18
409.11	2064.35
409.30	2183.72
409.49	2064.35
409.68	1998.82
409.87	2062.01
410.07	2150.95
410.26	2080.74
410.45	2150.95
410.64	2141.59
410.83	2214.15
411.02	2305.43
411.21	2296.07
411.40	2321.81
411.59	2275.00
411.78	2394.37
411.98	2335.85
412.17	2331.17
412.36	2415.43
412.55	2373.30
412.74	2450.54
412.93	2541.82
413.12	2392.03
413.31	2590.97
413.50	2469.27
413.69	2413.09
413.88	2644.81
414.07	2455.22
414.26	2541.82
414.45	2637.78
414.64	2670.55
414.83	2677.57
415.02	2738.43
415.22	2684.59
415.41	2876.52
415.60	2843.75
415.79	2773.53
415.98	2932.69
416.17	2960.78
416.36	2825.03
416.55	2913.97
416.74	2906.95
416.93	2918.65
417.12	2991.20
417.31	2995.89
417.50	3042.70
417.69	3176.11
417.88	3094.19
418.07	3126.96
418.26	3066.10
418.45	3075.46
418.64	3232.28
418.83	3251.00
419.02	3218.24
419.21	3246.32
419.39	3206.53
419.58	3192.49
419.77	3187.81
419.96	3407.82
420.15	3370.37
420.34	3318.88
420.53	3391.44
420.72	3433.57
420.91	3447.61
421.10	3440.59
421.29	3463.99
421.48	3447.61
421.67	3475.70
421.86	3353.99
422.05	3335.26
422.24	3592.72
422.43	3328.24
422.61	3405.48
422.80	3623.15
422.99	3517.83
423.18	3625.49
423.37	3541.23
423.56	3473.36
423.75	3623.15
423.94	3431.23
424.13	3283.77
424.32	3489.74
424.50	3634.85
424.69	3655.92
424.88	3758.90
425.07	3503.78
425.26	3463.99
425.45	3588.04
425.64	3592.72
425.83	3599.74
426.01	3772.94
426.20	3712.09
426.39	3581.02
426.58	3684.00
426.77	3459.31
426.96	3735.50
427.15	3637.19
427.33	3749.54
427.52	3751.88
427.71	3749.54
427.90	3756.56
428.09	3840.82
428.28	3873.59
428.46	3985.93
428.65	3889.97
428.84	3847.84
429.03	3950.82
429.22	3733.15
429.40	3843.16
429.59	3904.01
429.78	3681.66
429.97	3569.32
430.16	3719.11
430.34	3810.39
430.53	3801.03
430.72	3817.41
430.91	3969.55
431.10	4016.36
431.28	4084.23
431.47	4161.47
431.66	4177.86
431.85	4182.54
432.03	4294.88
432.22	4245.73
432.41	4198.92
432.60	4320.63
432.79	4121.68
432.97	4306.59
433.16	4278.50
433.35	4203.60
433.54	4381.48
433.72	4318.29
433.91	4442.34
434.10	4582.77
434.28	4421.27
434.47	4498.51
434.66	4437.66
434.85	4613.20
435.03	4379.14
435.22	4461.06
435.41	4636.60
435.59	4711.50
435.78	4606.17
435.97	4580.43
436.16	4617.88
436.34	4599.15
436.53	4706.82
436.72	4765.33
436.90	4638.94
437.09	4603.83
437.28	4512.55
437.46	4791.08
437.65	4788.74
437.84	4706.82
438.02	4770.01
438.21	4837.89
438.40	4596.81
438.58	4877.68
438.77	4873.00
438.96	5104.71
439.14	5060.24
439.33	4968.96
439.52	5195.99
439.70	5158.54
439.89	5214.71
440.08	5156.20
440.26	5198.33
440.45	5254.50
440.63	5284.93
440.82	5359.83
441.01	5413.66
441.19	5308.34
441.38	5563.45
441.57	5526.00
441.75	5692.18
441.94	5577.50
442.12	5701.54
442.31	5809.21
442.50	5797.51
442.68	5593.88
442.87	5799.85
443.05	5837.30
443.24	5951.98
443.43	5804.53
443.61	5863.04
443.80	6118.16
443.98	5834.96
444.17	5579.84
444.35	5975.39
444.54	5994.11
444.73	5851.34
444.91	5881.77
445.10	5881.77
445.28	5790.49
445.47	6017.52
445.65	5713.25
445.84	5984.75
446.02	6073.69
446.21	5914.53
446.39	5926.24
446.58	6015.18
446.77	5963.68
446.95	5870.06
447.14	6026.88
447.32	6101.78
447.51	5987.09
447.69	6019.86
447.88	5975.39
448.06	6071.35
448.25	6108.80
448.43	6078.37
448.62	6036.24
448.80	6127.52
448.99	6186.04
449.17	6291.36
449.36	6132.20
449.54	6406.05
449.73	6420.09
449.91	6403.71
450.10	6401.37
450.28	6399.02
450.46	6441.15
450.65	6438.81
450.83	6504.35
451.02	6595.63
451.20	6656.48
451.39	6729.04
451.57	6574.56
451.76	6452.86
451.94	6656.48
452.13	6473.92
452.31	6548.82
452.49	6389.66
452.68	6581.59
452.86	6509.03
453.05	6572.22
453.23	6607.33
453.42	6597.97
453.60	6663.51
453.78	6752.45
453.97	6668.19
454.15	6703.29
454.34	6544.14
454.52	6869.47
454.70	7021.61
454.89	6806.28
455.07	6974.80
455.26	6806.28
455.44	6995.86
455.62	6832.02
455.81	6958.41
455.99	7126.93
456.17	7145.66
456.36	7037.99
456.54	7314.17
456.73	7262.68
456.91	7323.54
457.09	7433.54
457.28	7454.61
457.46	7262.68
457.64	7375.03
457.83	7330.56
458.01	7325.88
458.19	7337.58
458.38	7571.63
458.56	7564.61
458.74	7414.82
458.93	7506.10
459.11	7578.65
459.29	7630.15
459.48	7543.55
459.66	7496.74
459.84	7576.31
460.03	7971.86
460.21	7733.13
460.39	7861.86
460.57	7803.35
460.76	7805.69
460.94	7817.39
461.12	7770.58
461.31	7964.84
461.49	7915.69
461.67	7976.55
461.85	7896.97
462.04	7960.16
462.22	8067.83
462.40	8222.30
462.59	8072.51
462.77	7995.27
462.95	8189.53
463.13	8060.80
463.32	8128.68
463.50	8044.42
463.68	8107.62
463.86	8407.20
464.05	8140.38
464.23	8011.65
464.41	8224.64
464.59	8002.29
464.78	8472.74
464.96	8432.95
465.14	8238.69
465.32	8224.64
465.50	8456.36
465.69	8521.89
465.87	8346.35
466.05	8297.20
466.23	8304.22
466.41	8215.28
466.60	8739.56
466.78	8421.25
466.96	8327.63
467.14	8652.96
467.32	8617.85
467.51	8751.26
467.69	8358.05
467.87	8709.13
468.05	8786.37
468.23	8737.22
468.41	8791.05
468.60	8758.28
468.78	8746.58
468.96	8786.37
469.14	8931.48
469.32	8922.12
469.50	8786.37
469.69	8805.10
469.87	9128.09
470.05	9156.18
470.23	9128.09
470.41	9268.52
470.59	9310.65
470.77	9081.28
470.95	9200.65
471.14	9266.18
471.32	9071.92
471.50	9376.19
471.68	9369.16
471.86	9458.10
472.04	9469.81
472.22	9741.31
472.40	9301.29
472.58	9624.28
472.77	9792.80
472.95	9486.19
473.13	10003.45
473.31	9657.05
473.49	9628.96
473.67	9809.19
473.85	9816.21
474.03	10047.92
474.21	9944.94
474.39	10256.23
474.57	10244.52
474.75	10164.95
474.93	10157.92
475.12	10328.78
475.30	10230.48
475.48	10328.78
475.66	10333.47
475.84	10443.47
476.02	10492.62
476.20	10579.22
476.38	10452.83
476.56	11000.52
476.74	10743.06
476.92	10761.78
477.10	10895.19
477.28	11052.01
477.46	11197.12
477.64	11257.98
477.82	11372.66
478.00	11300.11
478.18	11447.56
478.36	11281.38
478.54	11775.24
478.72	11859.49
478.90	11819.71
479.08	11908.65
479.26	11936.73
479.44	12329.94
479.62	12442.29
479.80	12369.73
479.98	12425.90
480.16	12648.26
480.34	12379.09
480.52	12725.49
480.70	12491.44
480.88	12503.14
481.06	12819.11
481.24	12800.39
481.41	12872.95
481.59	13310.63
481.77	13078.91
481.95	13469.78
482.13	13343.39
482.31	13420.63
482.49	13626.60
482.67	13579.79
482.85	13844.27
483.03	13841.93
483.21	14176.62
483.39	13954.27
483.57	14183.65
483.74	14422.38
483.92	14171.94
484.10	14487.92
484.28	14761.76
484.46	14949.00
484.64	14995.81
484.82	14883.47
485.00	15023.90
485.18	15201.78
485.35	15414.77
485.53	15007.52
485.71	15070.71
485.89	15641.80
486.07	15548.18
486.25	15449.88
486.43	15606.69
486.61	16133.31
486.78	15967.13
486.96	16503.12
487.14	16072.46
487.32	16358.00
487.50	16444.60
487.68	16823.77
487.85	17039.10
488.03	17029.74
488.21	17322.30
488.39	17193.58
488.57	17348.05
488.75	17406.56
488.92	17441.67
489.10	17949.57
489.28	18160.22
489.46	18178.94
489.64	18162.56
489.81	18717.26
489.99	18546.40
490.17	18478.53
490.35	18747.69
490.53	18625.98
490.70	19190.05
490.88	19131.54
491.06	18972.38
491.24	19274.31
491.41	19014.51
491.59	19215.80
491.77	19084.73
491.95	19892.21
492.13	20030.30
492.30	20170.74
492.48	19882.85
492.66	20449.26
492.84	20144.99
493.01	20446.92
493.19	20498.41
493.37	20685.65
493.54	20685.65
493.72	21036.74
493.90	21137.38
494.08	21034.39
494.25	21429.94
494.43	21359.73
494.61	21497.82
494.79	21275.47
494.96	22026.78
495.14	21757.62
495.32	21937.84
495.49	22068.91
495.67	22129.77
495.85	22237.43
496.02	22511.27
496.20	22738.30
496.38	22611.92
496.55	22595.53
496.73	23419.40
496.91	22958.31
497.09	23239.18
497.26	23175.98
497.44	23466.21
497.62	22923.21
497.79	23730.69
497.97	23513.02
498.14	23644.09
498.32	23999.85
498.50	23768.14
498.67	24116.88
498.85	24058.37
499.03	24685.63
499.20	24741.80
499.38	24423.49
499.56	24664.57
499.73	24699.67
499.91	24725.42
500.08	25146.72
500.26	25048.41
500.44	24685.63
500.61	24781.59
500.79	25015.65
500.97	25081.18
501.14	25371.41
501.32	25317.57
501.49	25582.06
501.67	25397.15
501.84	25240.34
502.02	25446.30
502.20	25724.83
502.37	25879.30
502.55	25652.27
502.72	25883.98
502.90	26249.11
503.07	26075.91
503.25	26499.55
503.43	26663.38
503.60	26426.99
503.78	26466.78
503.95	26672.74
504.13	26754.66
504.30	26911.48
504.48	26766.37
504.65	26953.61
504.83	27192.34
505.01	27185.32
505.18	26508.91
505.36	27583.21
505.53	27056.59
505.71	27744.71
505.88	27805.56
506.06	26923.18
506.23	27639.39
506.41	27878.12
506.58	27992.81
506.76	28231.54
506.93	28056.00
507.11	28009.19
507.28	27791.52
507.46	27847.69
507.63	28215.16
507.81	28151.96
507.98	27999.83
508.16	28390.70
508.33	28266.65
508.50	28505.38
508.68	28886.89
508.85	28694.97
509.03	28723.05
509.20	28975.83
509.38	29291.80
509.55	29226.27
509.73	29240.31
509.90	29675.65
510.08	29249.67
510.25	29266.06
510.42	29275.42
510.60	29738.85
510.77	29841.83
510.95	29874.60
511.12	29876.94
511.30	30235.04
511.47	30630.59
511.64	30450.37
511.82	30787.41
511.99	30333.34
512.17	30235.04
512.34	30443.35
512.51	30764.00
512.69	30700.81
512.86	30857.62
513.04	31126.78
513.21	30733.57
513.38	30752.30
513.56	31035.50
513.73	30728.89
513.90	31019.12
514.08	30979.33
514.25	31211.04
514.43	30988.69
514.60	31143.17
514.77	31197.00
514.95	31534.04
515.12	31239.13
515.29	31484.89
515.47	31945.97
515.64	31885.12
515.81	31880.44
515.99	31941.29
516.16	32191.73
516.33	31791.50
516.51	32137.90
516.68	31487.23
516.85	31655.75
517.03	31948.31
517.20	31857.03
517.37	32151.94
517.54	32533.45
517.72	32191.73
517.89	32484.30
518.06	31997.46
518.24	32388.33
518.41	32818.99
518.58	32802.61
518.75	32694.94
518.93	33371.36
519.10	33106.88
519.27	32725.37
519.45	33347.95
519.62	33472.00
519.79	33186.46
519.96	33324.55
520.14	33706.05
520.31	33120.92
520.48	33558.60
520.65	33717.76
520.83	34263.10
521.00	34150.76
521.17	33895.64
521.34	33975.22
521.52	34113.31
521.69	34183.52
521.86	34068.84
522.03	34246.72
522.20	34026.71
522.38	34349.70
522.55	34639.93
522.72	34279.49
522.89	34480.77
523.07	34785.04
523.24	34354.38
523.41	34892.71
523.58	34429.28
523.75	35171.23
523.92	34780.36
524.10	35021.44
524.27	35108.04
524.44	35140.80
524.61	35250.81
524.78	35152.51
524.96	35693.17
525.13	35526.99
525.30	36020.84
525.47	35550.40
525.64	35810.20
525.81	35821.90
525.98	35779.77
526.16	35751.68
526.33	35292.94
526.50	35920.20
526.67	35400.60
526.84	35749.34
527.01	35515.29
527.18	36205.75
527.36	36095.74
527.53	36229.15
527.70	36610.66
527.87	36676.19
528.04	35917.86
528.21	36603.64
528.38	36535.76
528.55	36615.34
528.72	36741.73
528.89	36802.58
529.07	36699.60
529.24	36458.52
529.41	36800.24
529.58	36315.75
529.75	36744.07
529.92	36821.31
530.09	37064.72
530.26	37378.36
530.43	36872.80
530.60	36758.11
530.77	37329.20
530.94	36950.04
531.11	36898.55
531.28	37483.68
531.46	37277.71
531.63	37258.99
531.80	37156.00
531.97	37490.70
532.14	37191.11
532.31	37565.60
532.48	37202.82
532.65	37425.17
532.82	37596.03
532.99	37813.70
533.16	37785.61
533.33	38040.73
533.50	38188.18
533.67	37673.26
533.84	37804.33
534.01	38190.52
534.18	37879.23
534.35	38424.57
534.52	37993.92
534.69	38382.45
534.86	38373.08
535.03	38675.01
535.20	38447.98
535.37	38770.97
535.54	38799.06
535.71	38419.89
535.88	38738.21
536.05	38710.12
536.22	39009.71
536.38	38642.24
536.55	38618.84
536.72	38742.89
536.89	38190.52
537.06	38550.96
537.23	38843.53
537.40	38911.41
537.57	38927.79
537.74	38939.49
537.91	39550.37
538.08	38890.34
538.25	39365.47
538.42	39033.11
538.59	39351.43
538.75	39044.82
538.92	39173.55
539.09	39400.58
539.26	39349.09
539.43	39700.17
539.60	39112.69
539.77	39260.15
539.94	39629.95
540.11	39498.88
540.28	39782.09
540.44	39370.15
540.61	39786.77
540.78	39140.78
540.95	39866.34
541.12	39819.53
541.29	39548.03
541.46	39803.15
541.62	39985.71
541.79	40081.67
541.96	39601.86
542.13	39662.72
542.30	39985.71
542.47	40147.21
542.63	39690.80
542.80	40266.58
542.97	40931.29
543.14	40701.92
543.31	40526.38
543.48	40753.41
543.64	41301.09
543.81	40882.14
543.98	40971.08
544.15	40847.03
544.32	41088.10
544.48	41361.95
544.65	40739.36
544.82	40790.86
544.99	40605.95
545.16	41310.46
545.32	40910.22
545.49	40884.48
545.66	41532.81
545.83	41493.02
546.00	41521.10
546.16	40994.48
546.33	41102.15
546.50	40622.34
546.67	41387.69
546.83	41333.86
547.00	41191.09
547.17	41170.02
547.34	41462.59
547.50	41308.11
547.67	41638.13
547.84	41626.43
548.00	41773.88
548.17	41923.68
548.34	41572.60
548.51	41773.88
548.67	42150.71
548.84	41668.56
549.01	42043.04
549.18	42087.51
549.34	41883.89
549.51	42122.62
549.68	42377.74
549.84	42047.72
550.01	41895.59
550.18	41942.40
550.34	42232.63
550.51	42129.64
550.68	42099.22
550.84	41951.76
551.01	42366.04
551.18	41935.38
551.34	42178.79
551.51	42361.36
551.68	42323.91
551.84	42253.69
552.01	41872.18
552.18	42241.99
552.34	42094.53
552.51	42230.29
552.68	42553.28
552.84	42471.36
553.01	42834.14
553.18	42689.03
553.34	42403.49
553.51	42553.28
553.67	42473.70
553.84	42817.76
554.01	42646.90
554.17	43119.69
554.34	43061.18
554.51	42698.39
554.67	43051.81
554.84	43107.99
555.00	42773.29
555.17	42665.63
555.33	42904.36
555.50	42859.89
555.67	42972.24
555.83	43030.75
556.00	43173.52
556.16	43311.61
556.33	43005.00
556.50	42939.47
556.66	42939.47
556.83	42960.53
556.99	43150.12
557.16	43496.52
557.32	43075.22
557.49	43236.72
557.65	42967.55
557.82	43358.42
557.98	43379.49
558.15	43543.33
558.32	43349.06
558.48	43709.50
558.65	43335.02
558.81	42864.57
558.98	43400.55
559.14	43257.78
559.31	43267.14
559.47	43426.30
559.64	43847.60
559.80	43873.34
559.97	43440.34
560.13	43248.42
560.30	43480.13
560.46	43803.13
560.63	43768.02
560.79	43702.48
560.96	44149.53
561.12	43660.35
561.29	43908.45
561.45	43491.83
561.61	43683.76
561.78	43679.08
561.94	43704.82
562.11	43629.93
562.27	43889.73
562.44	43700.14
562.60	43868.66
562.77	44060.58
562.93	43704.82
563.10	44254.85
563.26	43370.13
563.42	43669.72
563.59	43606.52
563.75	43498.86
563.92	44168.25
564.08	43969.30
564.24	44280.60
564.41	44027.82
564.57	44140.16
564.74	44210.38
564.90	44179.95
565.07	44123.78
565.23	43742.27
565.39	44275.91
565.56	44060.58
565.72	43868.66
565.88	44009.09
566.05	43768.02
566.21	43885.04
566.38	43999.73
566.54	43812.49
566.70	44264.21
566.87	44156.55
567.03	44516.99
567.19	44425.71
567.36	44294.64
567.52	44156.55
567.68	44329.75
567.85	44226.76
568.01	44069.95
568.17	44142.50
568.34	44287.62
568.50	44299.32
568.66	44163.57
568.83	44451.45
568.99	44137.82
569.15	44116.76
569.32	44067.61
569.48	43775.04
569.64	44559.12
569.81	44119.10
569.97	44318.04
570.13	44467.84
570.30	43931.86
570.46	44112.08
570.62	43700.14
570.78	43845.26
570.95	44308.68
571.11	44652.74
571.27	44474.86
571.43	44409.32
571.60	43908.45
571.76	44161.23
571.92	44376.56
572.09	44636.36
572.25	44301.66
572.41	44526.35
572.57	44472.52
572.74	44788.49
572.90	44753.38
573.06	44311.02
573.22	44582.52
573.38	44641.04
573.55	44486.56
573.71	44491.24
573.87	44210.38
574.03	44589.55
574.20	44327.41
574.36	44664.44
574.52	45034.25
574.68	44753.38
574.84	44498.26
575.01	44465.50
575.17	44446.77
575.33	44360.17
575.49	44208.04
575.65	44509.97
575.82	44858.71
575.98	44524.01
576.14	45085.74
576.30	44449.11
576.46	44226.76
576.62	44540.39
576.79	44411.67
576.95	44308.68
577.11	44666.78
577.27	44701.89
577.43	44425.71
577.59	44652.74
577.75	44718.28
577.92	44306.34
578.08	44140.16
578.24	44605.93
578.40	44282.94
578.56	44505.29
578.72	44399.96
578.88	44414.01
579.04	44802.53
579.21	44563.80
579.37	44409.32
579.53	44704.23
579.69	44189.31
579.85	44460.82
580.01	44783.81
580.17	44741.68
580.33	44556.78
580.49	44746.36
580.65	44982.76
580.82	44835.30
580.98	44961.69
581.14	44914.88
581.30	44715.93
581.46	44928.92
581.62	44765.09
581.78	44495.92
581.94	44671.46
582.10	44582.52
582.26	44847.00
582.42	44493.58
582.58	44690.19
582.74	44556.78
582.90	44830.62
583.06	44474.86
583.22	45200.43
583.38	45008.50
583.54	44821.26
583.70	44912.54
583.86	44699.55
584.02	44669.12
584.18	45104.46
584.34	44807.22
584.50	44774.45
584.66	44428.05
584.82	44823.60
584.98	45242.56
585.14	44914.88
585.30	44577.84
585.46	44744.02
585.62	44788.49
585.78	44357.83
585.94	44491.24
586.10	44694.87
586.26	44666.78
586.42	44919.56
586.58	44774.45
586.74	45268.30
586.90	44619.97
587.06	44538.05
587.22	44559.12
587.38	44708.91
587.54	45036.59
587.70	44842.32
587.86	44540.39
588.02	45036.59
588.18	44823.60
588.34	44683.17
588.49	44610.61
588.65	44222.08
588.81	43955.26
588.97	44935.95
589.13	44495.92
589.29	44683.17
589.45	44493.58
589.61	44435.07
589.77	44772.11
589.93	44926.58
590.08	44814.24
590.24	44863.39
