SpectraSuite Data File
++++++++++++++++++++++++++++++++++++
Date: Fri Oct 25 11:33:21 EDT 2013
User: price-jones
Dark Spectrum Present: No
Reference Spectrum Present: No
Number of Sampled Component Spectra: 1
Spectrometers: USB2+H05261
Integration Time (usec): 100000 (USB2+H05261)
Spectra Averaged: 1 (USB2+H05261)
Boxcar Smoothing: 0 (USB2+H05261)
Correct for Electrical Dark: No (USB2+H05261)
Strobe/Lamp Enabled: No (USB2+H05261)
Correct for Detector Non-linearity: No (USB2+H05261)
Correct for Stray Light: No (USB2+H05261)
Number of Pixels in Processed Spectrum: 2048
>>>>>Begin Processed Spectral Data<<<<<
365.73	280.86
365.92	280.86
366.12	280.86
366.32	203.63
366.52	243.42
366.72	196.60
366.91	198.95
367.11	140.43
367.31	135.75
367.51	212.99
367.70	201.29
367.90	208.31
368.10	138.09
368.30	201.29
368.49	124.05
368.69	220.01
368.89	140.43
369.09	231.71
369.28	227.03
369.48	191.92
369.68	205.97
369.87	322.99
370.07	266.82
370.27	243.42
370.47	334.70
370.66	496.19
370.86	510.24
371.06	521.94
371.25	592.16
371.45	535.98
371.65	561.73
371.84	568.75
372.04	564.07
372.24	589.82
372.44	641.31
372.63	540.66
372.83	610.88
373.03	610.88
373.22	634.29
373.42	657.69
373.62	634.29
373.81	617.90
374.01	643.65
374.21	657.69
374.40	655.35
374.60	645.99
374.79	531.30
374.99	671.73
375.19	695.14
375.38	758.33
375.58	645.99
375.78	667.05
375.97	709.18
376.17	718.54
376.37	716.20
376.56	653.01
376.76	709.18
376.95	638.97
377.15	734.93
377.35	697.48
377.54	671.73
377.74	711.52
377.93	734.93
378.13	753.65
378.33	753.65
378.52	681.10
378.72	683.44
378.91	746.63
379.11	739.61
379.31	779.40
379.50	657.69
379.70	732.59
379.89	748.97
380.09	685.78
380.28	760.67
380.48	763.01
380.68	746.63
380.87	734.93
381.07	758.33
381.26	866.00
381.46	753.65
381.65	737.27
381.85	650.67
382.04	692.80
382.24	667.05
382.43	765.36
382.63	793.44
382.83	732.59
383.02	800.46
383.22	791.10
383.41	812.17
383.61	765.36
383.80	844.93
384.00	746.63
384.19	720.88
384.39	807.48
384.58	837.91
384.78	805.14
384.97	795.78
385.17	858.98
385.36	777.06
385.56	903.45
385.75	844.93
385.95	880.04
386.14	990.05
386.34	905.79
386.53	903.45
386.72	795.78
386.92	903.45
387.11	940.90
387.31	891.74
387.50	882.38
387.70	884.72
387.89	896.43
388.09	898.77
388.28	929.19
388.48	866.00
388.67	908.13
388.86	964.30
389.06	929.19
389.25	1020.47
389.45	837.91
389.64	936.21
389.84	997.07
390.03	1050.90
390.22	985.37
390.42	1001.75
390.61	1004.09
390.81	1034.52
391.00	973.66
391.19	961.96
391.39	997.07
391.58	1053.24
391.78	990.05
391.97	968.98
392.16	994.73
392.36	1064.94
392.55	1008.77
392.75	1025.15
392.94	1050.90
393.13	1123.46
393.33	1104.73
393.52	1123.46
393.71	1041.54
393.91	1144.52
394.10	1121.12
394.29	1104.73
394.49	1102.39
394.68	1130.48
394.88	1156.22
395.07	1111.75
395.26	1224.10
395.46	1174.95
395.65	1196.01
395.84	1228.78
396.04	1301.34
396.23	1249.85
396.42	1240.48
396.62	1266.23
396.81	1233.46
397.00	1259.21
397.19	1184.31
397.39	1174.95
397.58	1242.82
397.77	1315.38
397.97	1268.57
398.16	1259.21
398.35	1238.14
398.55	1275.59
398.74	1221.76
398.93	1327.08
399.12	1287.29
399.32	1266.23
399.51	1390.28
399.70	1327.08
399.90	1385.60
400.09	1369.21
400.28	1462.83
400.47	1383.26
400.67	1357.51
400.86	1462.83
401.05	1369.21
401.24	1394.96
401.44	1397.30
401.63	1474.54
401.82	1528.37
402.01	1455.81
402.21	1420.71
402.40	1493.26
402.59	1509.65
402.78	1554.12
402.97	1577.52
403.17	1486.24
403.36	1516.67
403.55	1554.12
403.74	1640.72
403.93	1612.63
404.13	1612.63
404.32	1533.05
404.51	1675.82
404.70	1621.99
404.89	1607.95
405.09	1643.06
405.28	1739.02
405.47	1687.53
405.66	1703.91
405.85	1687.53
406.05	1741.36
406.24	1664.12
406.43	1678.16
406.62	1767.10
406.81	1818.60
407.00	1739.02
407.20	1795.19
407.39	1776.47
407.58	1844.34
407.77	2001.16
407.96	1893.49
408.15	1881.79
408.34	1832.64
408.54	1832.64
408.73	1879.45
408.92	1830.30
409.11	2031.58
409.30	1874.77
409.49	1912.22
409.68	1912.22
409.87	2031.58
410.07	2024.56
410.26	2104.14
410.45	2073.71
410.64	2125.21
410.83	2066.69
411.02	2221.17
411.21	2300.75
411.40	2118.18
411.59	2214.15
411.78	2216.49
411.98	2183.72
412.17	2277.34
412.36	2237.55
412.55	2324.15
412.74	2324.15
412.93	2408.41
413.12	2340.54
413.31	2457.56
413.50	2237.55
413.69	2331.17
413.88	2487.99
414.07	2546.50
414.26	2401.39
414.45	2483.31
414.64	2417.77
414.83	2609.70
415.02	2682.25
415.22	2607.36
415.41	2729.06
415.60	2715.02
415.79	2700.98
415.98	2698.64
416.17	2794.60
416.36	2677.57
416.55	2733.75
416.74	2874.18
416.93	2818.00
417.12	2888.22
417.31	2883.54
417.50	2754.81
417.69	2995.89
417.88	2949.08
418.07	2878.86
418.26	3023.97
418.45	3021.63
418.64	3005.25
418.83	2986.52
419.02	3126.96
419.21	3239.30
419.39	3255.69
419.58	3225.26
419.77	3084.83
419.96	3150.36
420.15	3213.56
420.34	3267.39
420.53	3218.24
420.72	3178.45
420.91	3150.36
421.10	3201.85
421.29	3435.91
421.48	3316.54
421.67	3274.41
421.86	3225.26
422.05	3229.94
422.24	3300.16
422.43	3316.54
422.61	3393.78
422.80	3417.18
422.99	3517.83
423.18	3396.12
423.37	3473.36
423.56	3456.97
423.75	3419.52
423.94	3363.35
424.13	3201.85
424.32	3346.97
424.50	3482.72
424.69	3496.76
424.88	3510.80
425.07	3410.16
425.26	3328.24
425.45	3377.39
425.64	3449.95
425.83	3412.50
426.01	3562.30
426.20	3592.72
426.39	3400.80
426.58	3447.61
426.77	3576.34
426.96	3595.06
427.15	3592.72
427.33	3520.17
427.52	3618.47
427.71	3637.19
427.90	3698.05
428.09	3667.62
428.28	3620.81
428.46	3618.47
428.65	3723.79
428.84	3854.86
429.03	3822.09
429.22	3770.60
429.40	3749.54
429.59	3646.55
429.78	3653.58
429.97	3695.71
430.16	3623.15
430.34	3805.71
430.53	3941.46
430.72	3950.82
430.91	3887.63
431.10	3822.09
431.28	4142.75
431.47	4131.05
431.66	4184.88
431.85	4021.04
432.03	3981.25
432.22	4112.32
432.41	4035.08
432.60	4042.11
432.79	4161.47
432.97	4131.05
433.16	4156.79
433.35	4032.74
433.54	4194.24
433.72	4269.14
433.91	4147.43
434.10	4245.73
434.28	4243.39
434.47	4194.24
434.66	4456.38
434.85	4322.97
435.03	4264.46
435.22	4369.78
435.41	4411.91
435.59	4423.61
435.78	4418.93
435.97	4423.61
436.16	4468.08
436.34	4500.85
436.53	4521.92
436.72	4547.66
436.90	4547.66
437.09	4620.22
437.28	4510.21
437.46	4496.17
437.65	4540.64
437.84	4631.92
438.02	4725.54
438.21	4660.01
438.40	4629.58
438.58	4891.72
438.77	4812.14
438.96	4641.28
439.14	4807.46
439.33	4938.53
439.52	4983.00
439.70	4947.89
439.89	5100.03
440.08	5093.01
440.26	4980.66
440.45	4968.96
440.63	5064.92
440.82	5296.63
441.01	5221.74
441.19	5167.90
441.38	5270.89
441.57	5341.10
441.75	5320.04
441.94	5582.18
442.12	5380.89
442.31	5490.90
442.50	5404.30
442.68	5514.30
442.87	5481.53
443.05	5516.64
443.24	5650.05
443.43	5551.75
443.61	5465.15
443.80	5781.12
443.98	5488.56
444.17	5362.17
444.35	5600.90
444.54	5614.95
444.73	5696.86
444.91	5685.16
445.10	5823.25
445.28	5652.39
445.47	5572.82
445.65	5589.20
445.84	5762.40
446.02	5809.21
446.21	5837.30
446.39	5689.84
446.58	5785.80
446.77	5696.86
446.95	5596.22
447.14	5652.39
447.32	5980.07
447.51	5696.86
447.69	5820.91
447.88	5764.74
448.06	5699.20
448.25	5755.38
448.43	5830.27
448.62	5881.77
448.80	5790.49
448.99	5891.13
449.17	5996.45
449.36	5966.03
449.54	5963.68
449.73	5923.90
449.91	6319.45
450.10	6150.93
450.28	6113.48
450.46	6171.99
450.65	6129.86
450.83	6406.05
451.02	6274.98
451.20	6207.10
451.39	6363.92
451.57	6345.19
451.76	6157.95
451.94	6413.07
452.13	6258.59
452.31	6415.41
452.49	6291.36
452.68	6310.08
452.86	6487.96
453.05	6338.17
453.23	6406.05
453.42	6366.26
453.60	6286.68
453.78	6574.56
453.97	6555.84
454.15	6473.92
454.34	6389.66
454.52	6401.37
454.70	6562.86
454.89	6574.56
455.07	6572.22
455.26	6787.55
455.44	6696.27
455.62	6541.80
455.81	6827.34
455.99	6895.22
456.17	6789.89
456.36	6986.50
456.54	6918.62
456.73	6890.54
456.91	7122.25
457.09	6902.24
457.28	7077.78
457.46	6883.52
457.64	7185.44
457.83	7026.29
458.01	6902.24
458.19	7304.81
458.38	7229.91
458.56	7148.00
458.74	7176.08
458.93	7346.94
459.11	7332.90
459.29	7246.30
459.48	7428.86
459.66	7337.58
459.84	7330.56
460.03	7606.74
460.21	7456.95
460.39	7379.71
460.57	7562.27
460.76	7648.87
460.94	7468.65
461.12	7625.47
461.31	7658.23
461.49	7522.48
461.67	7492.05
461.85	7789.30
462.04	7620.78
462.22	8121.66
462.40	7721.43
462.59	7744.83
462.77	7920.37
462.95	7843.14
463.13	7705.04
463.32	7906.33
463.50	8098.25
463.68	7981.23
463.86	8023.36
464.05	7798.66
464.23	7873.56
464.41	8245.71
464.59	7784.62
464.78	8215.28
464.96	8159.11
465.14	7997.61
465.32	8084.21
465.50	8084.21
465.69	8168.47
465.87	8236.35
466.05	8093.57
466.23	8257.41
466.41	8170.81
466.60	8468.06
466.78	8168.47
466.96	8304.22
467.14	8236.35
467.32	8315.92
467.51	8505.51
467.69	8196.56
467.87	8318.26
468.05	8475.08
468.23	8358.05
468.41	8334.65
468.60	8559.34
468.78	8678.71
468.96	8503.17
469.14	8599.13
469.32	8648.28
469.50	8559.34
469.69	8821.48
469.87	8784.03
470.05	8938.51
470.23	8748.92
470.41	8793.39
470.59	8936.17
470.77	9062.55
470.95	8936.17
471.14	9158.52
471.32	9011.06
471.50	9249.80
471.68	8980.64
471.86	9238.09
472.04	9071.92
472.22	9577.47
472.40	9362.14
472.58	9329.38
472.77	9266.18
472.95	9434.70
473.13	9914.51
473.31	9610.24
473.49	9614.92
473.67	9497.89
473.85	9565.77
474.03	9781.10
474.21	9881.74
474.39	9769.40
474.57	9731.95
474.75	9907.49
474.93	9935.57
475.12	10113.45
475.30	10260.91
475.48	10031.54
475.66	10335.81
475.84	10256.23
476.02	10312.40
476.20	10244.52
476.38	10443.47
476.56	10738.38
476.74	10658.80
476.92	10539.43
477.10	10684.55
477.28	10897.53
477.46	10857.75
477.64	10986.47
477.82	10918.60
478.00	11229.89
478.18	11166.70
478.36	11211.17
478.54	11475.65
478.72	11339.90
478.90	11555.22
479.08	11604.38
479.26	11688.64
479.44	11754.17
479.62	11885.24
479.80	11915.67
479.98	12116.95
480.16	12095.89
480.34	12114.61
480.52	12236.32
480.70	12428.24
480.88	12311.22
481.06	12299.52
481.24	12554.63
481.41	12809.75
481.59	12992.31
481.77	13018.06
481.95	12851.88
482.13	13041.46
482.31	13074.23
482.49	13516.59
482.67	13338.71
482.85	13525.96
483.03	13598.51
483.21	13715.54
483.39	13944.91
483.57	13898.10
483.74	13970.66
483.92	14087.68
484.10	13940.23
484.28	14544.09
484.46	14586.22
484.64	14864.74
484.82	14607.28
485.00	15009.86
485.18	15026.24
485.35	14923.26
485.53	15005.17
485.71	15272.00
485.89	15578.61
486.07	15620.74
486.25	15398.38
486.43	15597.33
486.61	15901.60
486.78	16030.33
486.96	15955.43
487.14	16294.81
487.32	16458.65
487.50	16631.85
487.68	16505.46
487.85	16622.48
488.03	16819.09
488.21	17209.96
488.39	16905.69
488.57	17216.98
488.75	17334.01
488.92	17621.89
489.10	17577.42
489.28	17893.40
489.46	18031.49
489.64	17895.74
489.81	18129.79
489.99	18108.72
490.17	18307.67
490.35	18476.19
490.53	18389.59
490.70	18895.14
490.88	18541.72
491.06	19073.03
491.24	19168.99
491.41	19634.75
491.59	19241.54
491.77	19136.22
491.95	19396.02
492.13	19716.67
492.30	19864.13
492.48	19920.30
492.66	19763.48
492.84	19934.34
493.01	20517.14
493.19	20219.89
493.37	20585.01
493.54	20329.89
493.72	20587.35
493.90	20783.96
494.08	21111.63
494.25	21043.76
494.43	21383.13
494.61	21397.18
494.79	21261.43
494.96	21387.82
495.14	21436.97
495.32	21694.43
495.49	22001.04
495.67	22167.21
495.85	22398.93
496.02	22277.22
496.20	22370.84
496.38	22555.74
496.55	22656.39
496.73	23468.55
496.91	22803.84
497.09	22904.48
497.26	23103.43
497.44	23138.54
497.62	23466.21
497.79	23543.45
497.97	23805.59
498.14	23868.78
498.32	23990.49
498.50	23840.70
498.67	24308.80
498.85	24194.12
499.03	24084.11
499.20	24301.78
499.38	24341.57
499.56	24507.75
499.73	24568.60
499.91	24376.68
500.08	24748.82
500.26	24802.66
500.44	25139.69
500.61	24819.04
500.79	25226.29
500.97	25139.69
501.14	25472.05
501.32	25355.02
501.49	25542.27
501.67	25710.78
501.84	25766.96
502.02	26087.61
502.20	25717.81
502.37	26249.11
502.55	25640.57
502.72	26466.78
502.90	26171.87
503.07	26279.54
503.25	26773.39
503.43	26457.42
503.60	26593.17
503.78	26778.07
503.95	26862.33
504.13	26684.45
504.30	26820.20
504.48	26913.82
504.65	27182.98
504.83	27545.76
505.01	27234.47
505.18	27281.28
505.36	28166.01
505.53	27611.30
505.71	27765.78
505.88	27541.08
506.06	27782.16
506.23	28004.51
506.41	27662.79
506.58	28037.28
506.76	28034.94
506.93	28144.94
507.11	28219.84
507.28	28219.84
507.46	28631.77
507.63	28584.96
507.81	28964.13
507.98	28622.41
508.16	28933.70
508.33	28996.90
508.50	29287.12
508.68	28879.87
508.85	29467.34
509.03	28917.32
509.20	29268.40
509.38	29504.79
509.55	29631.18
509.73	29401.81
509.90	29591.39
510.08	29586.71
510.25	29720.12
510.42	29900.34
510.60	29989.28
510.77	30298.23
510.95	30120.35
511.12	30258.45
511.30	30178.87
511.47	30326.32
511.64	30225.68
511.82	30586.12
511.99	30529.95
512.17	31133.81
512.34	30614.21
512.51	31037.84
512.69	31147.85
512.86	31103.38
513.04	31222.75
513.21	31402.97
513.38	31412.33
513.56	31667.45
513.73	30976.99
513.90	31468.50
514.08	31421.69
514.25	31894.48
514.43	31943.63
514.60	31976.40
514.77	31934.27
514.95	31931.93
515.12	32030.23
515.29	31962.36
515.47	31803.20
515.64	32271.31
515.81	32212.79
515.99	32580.26
516.16	32741.75
516.33	32559.19
516.51	32493.66
516.68	32526.42
516.85	32744.09
517.03	32816.65
517.20	33261.35
517.37	32730.05
517.54	33251.99
517.72	33338.59
517.89	33191.14
518.06	33170.07
518.24	33436.89
518.41	33074.11
518.58	33223.90
518.75	33359.66
518.93	33996.28
519.10	33448.60
519.27	33933.09
519.45	34038.41
519.62	34066.50
519.79	34110.97
519.96	34073.52
520.14	34183.52
520.31	33816.06
520.48	34181.18
520.65	34134.37
520.83	34452.69
521.00	34272.46
521.17	34696.10
521.34	34338.00
521.52	35267.19
521.69	34623.54
521.86	34974.63
522.03	35117.40
522.20	35091.65
522.38	34953.56
522.55	35225.06
522.72	35342.09
522.89	35180.59
523.07	35952.97
523.24	35831.26
523.41	35758.70
523.58	35651.04
523.75	35646.36
523.92	35578.48
524.10	35892.12
524.27	35922.54
524.44	36119.15
524.61	36044.25
524.78	35798.49
524.96	36371.92
525.13	36264.26
525.30	36779.18
525.47	36327.45
525.64	36479.59
525.81	36844.71
525.98	36467.89
526.16	36638.75
526.33	36275.96
526.50	36985.15
526.67	36533.42
526.84	37074.09
527.01	37029.62
527.18	36968.76
527.36	37329.20
527.53	36914.93
527.70	37504.74
527.87	37722.41
528.04	36964.08
528.21	37427.51
528.38	37387.72
528.55	37392.40
528.72	37315.16
528.89	37376.01
529.07	37766.88
529.24	37652.20
529.41	38136.69
529.58	37729.44
529.75	37979.87
529.92	37907.32
530.09	38033.71
530.26	37757.52
530.43	38377.76
530.60	38117.96
530.77	38213.93
530.94	38335.63
531.11	37986.89
531.28	38323.93
531.46	38146.05
531.63	38272.44
531.80	38485.43
531.97	38529.90
532.14	38234.99
532.31	38703.10
532.48	38890.34
532.65	38710.12
532.82	38803.74
532.99	38803.74
533.16	38927.79
533.33	39234.40
533.50	39098.65
533.67	39047.16
533.84	38710.12
534.01	39353.77
534.18	39054.18
534.35	39601.86
534.52	39133.76
534.69	39784.43
534.86	39676.76
535.03	39798.47
535.20	39920.18
535.37	39941.24
535.54	39676.76
535.71	39885.07
535.88	40093.38
536.05	39622.93
536.22	40282.96
536.38	40048.91
536.55	39864.00
536.72	40084.01
536.89	39817.19
537.06	40172.96
537.23	40367.22
537.40	40072.31
537.57	39934.22
537.74	40425.73
537.91	40896.18
538.08	40624.68
538.25	40367.22
538.42	40573.19
538.59	40589.57
538.75	40322.75
538.92	40542.76
539.09	41216.83
539.26	40968.74
539.43	40720.64
539.60	41254.28
539.77	41076.40
539.94	41352.58
540.11	41411.10
540.28	40907.88
540.44	40985.12
540.61	41235.56
540.78	41006.19
540.95	41378.33
541.12	41071.72
541.29	41038.95
541.46	41441.53
541.62	41027.25
541.79	41680.26
541.96	41305.77
542.13	41345.56
542.30	41432.16
542.47	41542.17
542.63	41865.16
542.80	41528.13
542.97	41816.01
543.14	42216.24
543.31	42153.05
543.48	42263.05
543.64	42485.40
543.81	42335.61
543.98	42340.29
544.15	41996.23
544.32	42761.59
544.48	42714.78
544.65	42108.58
544.82	42742.86
544.99	42108.58
545.16	42792.01
545.32	43016.71
545.49	43248.42
545.66	43152.46
545.83	43103.31
546.00	43189.91
546.16	43016.71
546.33	42909.04
546.50	42665.63
546.67	43210.97
546.83	42780.31
547.00	43274.16
547.17	42880.95
547.34	42948.83
547.50	42981.60
547.67	43346.72
547.84	42721.80
548.00	43735.25
548.17	43622.90
548.34	43863.98
548.51	43920.15
548.67	43393.53
548.84	43522.26
549.01	43646.31
549.18	43370.13
549.34	44030.16
549.51	43793.76
549.68	44161.23
549.84	43922.49
550.01	44095.69
550.18	43903.77
550.34	43784.40
550.51	44294.64
550.68	44385.92
550.84	43615.88
551.01	44231.44
551.18	43728.23
551.34	43896.75
551.51	43917.81
551.68	44224.42
551.84	43629.93
552.01	43828.87
552.18	44402.30
552.34	44172.93
552.51	44561.46
552.68	44093.35
552.84	44601.25
553.01	44648.06
553.18	44512.31
553.34	44697.21
553.51	44383.58
553.67	44533.37
553.84	44652.74
554.01	44802.53
554.17	45041.27
554.34	44949.99
554.51	44783.81
554.67	45308.09
554.84	45071.70
555.00	44879.77
555.17	45188.72
555.33	45485.97
555.50	45434.48
555.67	45188.72
555.83	45336.18
556.00	45322.13
556.16	45439.16
556.33	45059.99
556.50	45240.21
556.66	45099.78
556.83	45155.96
556.99	45378.31
557.16	45577.25
557.32	45153.62
557.49	45406.39
557.65	45214.47
557.82	45261.28
557.98	45488.31
558.15	45277.66
558.32	45518.74
558.48	45436.82
558.65	45509.38
558.81	45404.05
558.98	45289.37
559.14	45034.25
559.31	45668.53
559.47	45827.69
559.64	45813.65
559.80	45631.08
559.97	45776.20
560.13	45722.37
560.30	45450.86
560.46	45986.85
560.63	45977.48
560.79	46251.33
560.96	46246.65
561.12	46157.70
561.29	46288.77
561.45	46232.60
561.61	46185.79
561.78	46295.80
561.94	46054.72
562.11	46218.56
562.27	46286.43
562.44	46054.72
562.60	46499.42
562.77	46564.96
562.93	46038.34
563.10	46490.06
563.26	46295.80
563.42	46522.83
563.59	46036.00
563.75	46522.83
563.92	46363.67
564.08	46377.72
564.24	46454.95
564.41	46199.83
564.57	46611.77
564.74	46452.61
564.90	46220.90
565.07	46342.61
565.23	46806.03
565.39	46295.80
565.56	46660.92
565.72	46672.62
565.88	46707.73
566.05	46571.98
566.21	46546.23
566.38	46052.38
566.54	46328.56
566.70	46644.54
566.87	46646.88
567.03	46019.61
567.19	46887.95
567.36	46501.76
567.52	46894.97
567.68	46913.70
567.85	46698.37
568.01	46810.71
568.17	46693.69
568.34	47227.33
568.50	46813.05
568.66	46925.40
568.83	46691.35
568.99	46995.62
569.15	46361.33
569.32	46981.57
569.48	46773.27
569.64	47016.68
569.81	46981.57
569.97	46923.06
570.13	47391.17
570.30	46705.39
570.46	47386.49
570.62	47224.99
570.78	47016.68
570.95	47391.17
571.11	46934.76
571.27	47192.22
571.43	46916.04
571.60	47072.85
571.76	46691.35
571.92	47229.67
572.09	46927.74
572.25	47236.69
572.41	47154.77
572.57	47302.23
572.74	47007.32
572.90	47257.76
573.06	47337.33
573.22	47154.77
573.38	47260.10
573.55	46974.55
573.71	47559.69
573.87	47126.69
574.03	46876.25
574.20	47547.98
574.36	47646.29
574.52	47014.34
574.68	47323.29
574.84	47831.19
575.01	47641.60
575.17	47522.24
575.33	47480.11
575.49	47100.94
575.65	47714.16
575.82	47559.69
575.98	47117.32
576.14	47339.68
576.30	47608.84
576.46	47353.72
576.62	47325.63
576.79	47206.26
576.95	47093.92
577.11	47281.16
577.27	47302.23
577.43	47632.24
577.59	47393.51
577.75	47206.26
577.92	47068.17
578.08	47351.38
578.24	47395.85
578.40	47760.97
578.56	47339.68
578.72	47725.86
578.88	47393.51
579.04	47597.13
579.21	47129.03
579.37	47686.07
579.53	47828.85
579.69	46747.52
579.85	47529.26
580.01	47283.50
580.17	47608.84
580.33	47625.22
580.49	47711.82
580.65	47386.49
580.82	47274.14
580.98	47351.38
581.14	47260.10
581.30	47758.63
581.46	47800.76
581.62	47299.89
581.78	47524.58
581.94	47384.15
582.10	47519.90
582.26	47346.70
582.42	47681.39
582.58	47889.70
582.74	47901.40
582.90	47669.69
583.06	47573.73
583.22	47117.32
583.38	47936.51
583.54	47550.32
583.70	47669.69
583.86	47688.42
584.02	47491.81
584.18	47704.80
584.34	48133.12
584.50	47569.05
584.66	48039.50
584.82	47938.85
584.98	48102.69
585.14	47775.02
585.30	47576.07
585.46	47835.87
585.62	47746.93
585.78	47662.67
585.94	47416.91
586.10	47512.88
586.26	47517.56
586.42	47152.43
586.58	48189.29
586.74	47332.65
586.90	47695.44
587.06	47374.78
587.22	48011.41
587.38	48226.74
587.54	47711.82
587.70	47870.98
587.86	47920.13
588.02	47728.20
588.18	47573.73
588.34	47739.91
588.49	47847.57
588.65	47863.96
588.81	47976.30
588.97	48465.47
589.13	48079.28
589.29	47772.67
589.45	48095.67
589.61	47636.92
589.77	47650.97
589.93	47938.85
