SpectraSuite Data File
++++++++++++++++++++++++++++++++++++
Date: Fri Oct 25 10:48:02 EDT 2013
User: price-jones
Dark Spectrum Present: No
Reference Spectrum Present: No
Number of Sampled Component Spectra: 1
Spectrometers: USB2+H05261
Integration Time (usec): 100000 (USB2+H05261)
Spectra Averaged: 1 (USB2+H05261)
Boxcar Smoothing: 0 (USB2+H05261)
Correct for Electrical Dark: No (USB2+H05261)
Strobe/Lamp Enabled: No (USB2+H05261)
Correct for Detector Non-linearity: No (USB2+H05261)
Correct for Stray Light: No (USB2+H05261)
Number of Pixels in Processed Spectrum: 2048
>>>>>Begin Processed Spectral Data<<<<<
365.73	142.77
365.92	142.77
366.12	142.77
366.32	105.32
366.52	0.00
366.72	67.88
366.91	28.09
367.11	58.51
367.31	9.36
367.51	0.00
367.70	46.81
367.90	32.77
368.10	51.49
368.30	0.00
368.49	110.01
368.69	67.88
368.89	23.41
369.09	93.62
369.28	37.45
369.48	56.17
369.68	72.56
369.87	86.60
370.07	138.09
370.27	105.32
370.47	161.50
370.66	367.46
370.86	383.85
371.06	390.87
371.25	440.02
371.45	400.23
371.65	402.57
371.84	468.11
372.04	414.27
372.24	339.38
372.44	528.96
372.63	472.79
372.83	477.47
373.03	573.43
373.22	503.22
373.42	498.53
373.62	461.09
373.81	554.71
374.01	610.88
374.21	557.05
374.40	484.49
374.60	571.09
374.79	503.22
374.99	599.18
375.19	528.96
375.38	547.69
375.58	531.30
375.78	594.50
375.97	634.29
376.17	557.05
376.37	582.79
376.56	552.37
376.76	566.41
376.95	552.37
377.15	585.13
377.35	629.60
377.54	592.16
377.74	603.86
377.93	559.39
378.13	573.43
378.33	667.05
378.52	653.01
378.72	629.60
378.91	685.78
379.11	648.33
379.31	641.31
379.50	622.58
379.70	636.63
379.89	662.37
380.09	674.07
380.28	594.50
380.48	631.94
380.68	662.37
380.87	653.01
381.07	641.31
381.26	681.10
381.46	603.86
381.65	744.29
381.85	770.04
382.04	660.03
382.24	725.57
382.43	627.26
382.63	631.94
382.83	671.73
383.02	730.25
383.22	709.18
383.41	683.44
383.61	690.46
383.80	784.08
384.00	699.82
384.19	692.80
384.39	697.48
384.58	709.18
384.78	861.32
384.97	720.88
385.17	716.20
385.36	716.20
385.56	744.29
385.75	751.31
385.95	791.10
386.14	781.74
386.34	744.29
386.53	718.54
386.72	805.14
386.92	816.85
387.11	821.53
387.31	767.70
387.50	807.48
387.70	795.78
387.89	781.74
388.09	894.08
388.28	868.34
388.48	812.17
388.67	861.32
388.86	884.72
389.06	842.59
389.25	912.81
389.45	847.27
389.64	877.70
389.84	870.68
390.03	910.47
390.22	894.08
390.42	1015.79
390.61	922.17
390.81	929.19
391.00	961.96
391.19	945.58
391.39	954.94
391.58	976.00
391.78	896.43
391.97	971.32
392.16	833.23
392.36	1011.11
392.55	1046.22
392.75	940.90
392.94	896.43
393.13	983.02
393.33	990.05
393.52	959.62
393.71	1048.56
393.91	1076.65
394.10	1034.52
394.29	1043.88
394.49	980.68
394.68	1067.28
394.88	1107.07
395.07	1107.07
395.26	1062.60
395.46	1125.80
395.65	1139.84
395.84	1146.86
396.04	1184.31
396.23	1032.18
396.42	999.41
396.62	1090.69
396.81	1053.24
397.00	1203.04
397.19	1125.80
397.39	1116.44
397.58	1252.19
397.77	1114.10
397.97	1165.59
398.16	1252.19
398.35	1299.00
398.55	1184.31
398.74	1287.29
398.93	1313.04
399.12	1329.42
399.32	1289.64
399.51	1352.83
399.70	1338.79
399.90	1380.92
400.09	1303.68
400.28	1387.94
400.47	1303.68
400.67	1387.94
400.86	1441.77
401.05	1481.56
401.24	1526.03
401.44	1516.67
401.63	1406.66
401.82	1385.60
402.01	1411.34
402.21	1439.43
402.40	1519.01
402.59	1500.28
402.78	1568.16
402.97	1629.01
403.17	1474.54
403.36	1514.33
403.55	1650.08
403.74	1621.99
403.93	1598.59
404.13	1689.87
404.32	1654.76
404.51	1666.46
404.70	1661.78
404.89	1636.03
405.09	1739.02
405.28	1701.57
405.47	1621.99
405.66	1720.29
405.85	1746.04
406.05	1734.34
406.24	1706.25
406.43	1769.44
406.62	1795.19
406.81	1839.66
407.00	1767.10
407.20	1741.36
407.39	1727.32
407.58	1802.21
407.77	1898.17
407.96	1870.09
408.15	1877.11
408.34	1877.11
408.54	1916.90
408.73	1870.09
408.92	1905.20
409.11	1944.99
409.30	2012.86
409.49	1961.37
409.68	1987.11
409.87	2111.16
410.07	1970.73
410.26	2026.90
410.45	2078.40
410.64	2113.50
410.83	2148.61
411.02	2085.42
411.21	2284.36
411.40	2310.11
411.59	2267.98
411.78	2356.92
411.98	2214.15
412.17	2258.62
412.36	2312.45
412.55	2417.77
412.74	2389.69
412.93	2335.85
413.12	2429.48
413.31	2537.14
413.50	2429.48
413.69	2466.92
413.88	2469.27
414.07	2485.65
414.26	2385.01
414.45	2612.04
414.64	2710.34
414.83	2579.27
415.02	2684.59
415.22	2656.51
415.41	2616.72
415.60	2764.17
415.79	2780.56
415.98	2745.45
416.17	2860.13
416.36	2647.15
416.55	2862.48
416.74	2867.16
416.93	2888.22
417.12	2785.24
417.31	2871.84
417.50	2906.95
417.69	3063.76
417.88	3033.33
418.07	2958.44
418.26	2888.22
418.45	3042.70
418.64	3152.70
418.83	3002.91
419.02	3084.83
419.21	3030.99
419.39	3148.02
419.58	3042.70
419.77	3066.10
419.96	3176.11
420.15	3286.11
420.34	3213.56
420.53	3213.56
420.72	3335.26
420.91	3349.31
421.10	3501.44
421.29	3368.03
421.48	3274.41
421.67	3440.59
421.86	3445.27
422.05	3375.05
422.24	3337.60
422.43	3293.13
422.61	3304.84
422.80	3431.23
422.99	3517.83
423.18	3407.82
423.37	3412.50
423.56	3473.36
423.75	3468.67
423.94	3449.95
424.13	3283.77
424.32	3307.18
424.50	3566.98
424.69	3578.68
424.88	3648.90
425.07	3351.65
425.26	3428.88
425.45	3508.46
425.64	3440.59
425.83	3407.82
426.01	3585.70
426.20	3454.63
426.39	3506.12
426.58	3475.70
426.77	3473.36
426.96	3517.83
427.15	3492.08
427.33	3552.93
427.52	3639.53
427.71	3618.47
427.90	3655.92
428.09	3662.94
428.28	3618.47
428.46	3817.41
428.65	3728.47
428.84	3791.67
429.03	3749.54
429.22	3559.95
429.40	3733.15
429.59	3700.39
429.78	3651.24
429.97	3489.74
430.16	3597.40
430.34	3707.41
430.53	3829.12
430.72	3831.46
430.91	3840.82
431.10	3784.65
431.28	3983.59
431.47	4081.89
431.66	4077.21
431.85	3941.46
432.03	4161.47
432.22	4269.14
432.41	4201.26
432.60	4117.00
432.79	4126.36
432.97	4128.70
433.16	4203.60
433.35	4224.67
433.54	4126.36
433.72	4280.84
433.91	4243.39
434.10	4241.05
434.28	4252.75
434.47	4283.18
434.66	4241.05
434.85	4482.13
435.03	4404.89
435.22	4374.46
435.41	4458.72
435.59	4491.49
435.78	4479.79
435.97	4493.83
436.16	4465.74
436.34	4582.77
436.53	4444.68
436.72	4753.63
436.90	4540.64
437.09	4685.75
437.28	4418.93
437.46	4617.88
437.65	4652.98
437.84	4596.81
438.02	4603.83
438.21	4641.28
438.40	4519.57
438.58	4798.10
438.77	4809.80
438.96	4720.86
439.14	4795.76
439.33	4938.53
439.52	4987.68
439.70	4922.15
439.89	5238.12
440.08	5142.16
440.26	4985.34
440.45	4943.21
440.63	5158.54
440.82	5334.08
441.01	5336.42
441.19	5284.93
441.38	5308.34
441.57	5380.89
441.75	5392.59
441.94	5504.94
442.12	5439.40
442.31	5586.86
442.50	5600.90
442.68	5434.72
442.87	5479.19
443.05	5404.30
443.24	5767.08
443.43	5628.99
443.61	5603.24
443.80	5900.49
443.98	5584.52
444.17	5535.37
444.35	5671.12
444.54	5895.81
444.73	5708.57
444.91	5825.59
445.10	5542.39
445.28	5537.71
445.47	5746.02
445.65	5701.54
445.84	5743.67
446.02	5849.00
446.21	5816.23
446.39	5783.46
446.58	5851.34
446.77	5919.21
446.95	5694.52
447.14	5888.79
447.32	5935.60
447.51	5846.66
447.69	5797.51
447.88	5741.33
448.06	5928.58
448.25	5966.03
448.43	6026.88
448.62	5921.56
448.80	5837.30
448.99	5933.26
449.17	5949.64
449.36	5944.96
449.54	6169.65
449.73	6122.84
449.91	6232.85
450.10	6282.00
450.28	6204.76
450.46	6317.11
450.65	6480.94
450.83	6438.81
451.02	6253.91
451.20	6310.08
451.39	6392.00
451.57	6338.17
451.76	6490.31
451.94	6448.18
452.13	6401.37
452.31	6373.28
452.49	6225.82
452.68	6354.55
452.86	6640.10
453.05	6560.52
453.23	6429.45
453.42	6317.11
453.60	6504.35
453.78	6490.31
453.97	6518.39
454.15	6340.51
454.34	6558.18
454.52	6619.04
454.70	6616.69
454.89	6686.91
455.07	6604.99
455.26	6633.08
455.44	6874.15
455.62	6895.22
455.81	6808.62
455.99	6864.79
456.17	6991.18
456.36	6953.73
456.54	6916.28
456.73	7108.21
456.91	7035.65
457.09	7007.56
457.28	7220.55
457.46	7164.38
457.64	7344.60
457.83	7136.29
458.01	7070.76
458.19	7478.01
458.38	7288.43
458.56	7375.03
458.74	7307.15
458.93	7417.16
459.11	7400.77
459.29	7243.96
459.48	7403.11
459.66	7410.14
459.84	7403.11
460.03	7588.02
460.21	7597.38
460.39	7545.89
460.57	7559.93
460.76	7595.04
460.94	7646.53
461.12	7578.65
461.31	7529.50
461.49	7618.44
461.67	7698.02
461.85	7967.18
462.04	7808.03
462.22	8189.53
462.40	7875.90
462.59	7868.88
462.77	7964.84
462.95	7932.08
463.13	7997.61
463.32	8009.31
463.50	7995.27
463.68	8046.76
463.86	8070.17
464.05	7953.14
464.23	8032.72
464.41	8114.64
464.59	7784.62
464.78	8212.94
464.96	8006.97
465.14	8058.46
465.32	8088.89
465.50	8093.57
465.69	8201.24
465.87	8334.65
466.05	8205.92
466.23	8065.49
466.41	8292.52
466.60	8486.78
466.78	8252.73
466.96	8294.86
467.14	8339.33
467.32	8397.84
467.51	8315.92
467.69	8269.11
467.87	8262.09
468.05	8458.70
468.23	8304.22
468.41	8421.25
468.60	8484.44
468.78	8596.79
468.96	8365.07
469.14	8449.33
469.32	8538.27
469.50	8587.43
469.69	8854.25
469.87	8753.60
470.05	8706.79
470.23	8664.66
470.41	8933.82
470.59	8978.30
470.77	9097.66
470.95	8947.87
471.14	8931.48
471.32	9102.34
471.50	9228.73
471.68	9109.36
471.86	9062.55
472.04	9100.00
472.22	9305.97
472.40	8950.21
472.58	9202.99
472.77	9493.21
472.95	9406.61
473.13	9703.86
473.31	9362.14
473.49	9467.47
473.67	9516.62
473.85	9394.91
474.03	9797.48
474.21	9731.95
474.39	9806.84
474.57	9914.51
474.75	10017.49
474.93	9928.55
475.12	9921.53
475.30	10160.27
475.48	10160.27
475.66	9930.89
475.84	10106.43
476.02	10246.87
476.20	10136.86
476.38	10406.02
476.56	10747.74
476.74	10530.07
476.92	10560.50
477.10	10541.77
477.28	10768.80
477.46	10827.32
477.64	11185.42
477.82	10946.69
478.00	11274.36
478.18	11183.08
478.36	11140.95
478.54	11566.93
478.72	11590.33
478.90	11384.37
479.08	11702.68
479.26	11648.85
479.44	11953.12
479.62	11770.55
479.80	11946.09
479.98	11826.73
480.16	12212.92
480.34	12081.85
480.52	12135.68
480.70	12421.22
480.88	12189.51
481.06	12421.22
481.24	12292.49
481.41	12755.92
481.59	12856.56
481.77	12795.71
481.95	12999.34
482.13	12844.86
482.31	13128.06
482.49	13275.52
482.67	13200.62
482.85	13231.05
483.03	13469.78
483.21	13818.52
483.39	13844.27
483.57	13816.18
483.74	13900.44
483.92	14188.33
484.10	14031.51
484.28	14235.14
484.46	14284.29
484.64	15012.20
484.82	14293.65
485.00	14682.18
485.18	14916.23
485.35	14843.68
485.53	14682.18
485.71	14602.60
485.89	15073.05
486.07	15035.60
486.25	15438.17
486.43	15484.98
486.61	15201.78
486.78	15676.91
486.96	15716.70
487.14	16133.31
487.32	15843.09
487.50	16217.57
487.68	16381.41
487.85	16599.08
488.03	16875.26
488.21	16615.46
488.39	16819.09
488.57	16947.82
488.75	16966.54
488.92	17493.16
489.10	17479.12
489.28	17502.53
489.46	17617.21
489.64	17699.13
489.81	18038.51
489.99	18043.19
490.17	17940.21
490.35	18314.69
490.53	18398.95
490.70	18581.51
490.88	18548.75
491.06	19026.21
491.24	19056.64
491.41	19035.58
491.59	18960.68
491.77	18665.77
491.95	19101.11
492.13	19398.36
492.30	19552.84
492.48	19634.75
492.66	19515.39
492.84	19847.74
493.01	20072.43
493.19	19784.55
493.37	20067.75
493.54	20107.54
493.72	20556.93
493.90	20739.49
494.08	20713.74
494.25	20999.29
494.43	20666.93
494.61	20933.75
494.79	21282.49
494.96	21139.72
495.14	21186.53
495.32	21729.53
495.49	21628.89
495.67	21476.76
495.85	21790.39
496.02	21577.40
496.20	22190.62
496.38	22129.77
496.55	22059.55
496.73	22803.84
496.91	22527.66
497.09	22494.89
497.26	22820.22
497.44	22918.53
497.62	22874.06
497.79	23344.50
497.97	22960.66
498.14	23051.94
498.32	23475.57
498.50	23475.57
498.67	23798.57
498.85	24051.34
499.03	23978.79
499.20	23353.87
499.38	23667.50
499.56	24023.26
499.73	24203.48
499.91	24287.74
500.08	24360.30
500.26	24428.17
500.44	24362.64
500.61	24666.91
500.79	24500.73
500.97	24694.99
501.14	25062.46
501.32	24669.25
501.49	25027.35
501.67	25074.16
501.84	25348.00
502.02	25369.07
502.20	25352.68
502.37	25553.97
502.55	25436.94
502.72	25764.62
502.90	25727.17
503.07	25596.10
503.25	25926.11
503.43	25764.62
503.60	25455.67
503.78	26146.12
503.95	25720.15
504.13	26265.49
504.30	26111.02
504.48	26001.01
504.65	26579.12
504.83	26574.44
505.01	26775.73
505.18	26705.51
505.36	27075.32
505.53	26710.19
505.71	26939.57
505.88	27129.15
506.06	27072.98
506.23	27267.24
506.41	27087.02
506.58	27253.20
506.76	27344.48
506.93	27723.65
507.11	27562.15
507.28	27410.01
507.46	27410.01
507.63	27873.44
507.81	27868.76
507.98	27648.75
508.16	27995.15
508.33	28109.83
508.50	28229.20
508.68	28233.88
508.85	28500.70
509.03	28371.97
509.20	28559.22
509.38	28816.68
509.55	28861.15
509.73	28666.88
509.90	28737.10
510.08	29113.92
510.25	28863.49
510.42	29275.42
510.60	29034.35
510.77	29277.76
510.95	29457.98
511.12	29240.31
511.30	29427.56
511.47	29783.32
511.64	29413.51
511.82	30139.08
511.99	29715.44
512.17	29661.61
512.34	29928.43
512.51	30373.13
512.69	30553.35
512.86	29930.77
513.04	30321.64
513.21	30689.10
513.38	30361.43
513.56	30480.80
513.73	30497.18
513.90	30410.58
514.08	30497.18
514.25	30485.48
514.43	30965.29
514.60	30904.43
514.77	30766.34
514.95	31227.43
515.12	30761.66
515.29	31145.51
515.47	31548.08
515.64	31534.04
515.81	31409.99
515.99	31409.99
516.16	31618.30
516.33	31557.44
516.51	31868.73
516.68	31124.44
516.85	31613.62
517.03	31257.85
517.20	31786.82
517.37	31597.23
517.54	32229.18
517.72	31922.57
517.89	31866.39
518.06	31871.07
518.24	32126.19
518.41	32060.66
518.58	32334.50
518.75	31957.67
518.93	32608.34
519.10	32360.25
519.27	31981.08
519.45	32699.62
519.62	32517.06
519.79	32851.76
519.96	32818.99
520.14	32933.68
520.31	32652.81
520.48	33186.46
520.65	33209.86
520.83	33642.86
521.00	33483.70
521.17	33633.50
521.34	33385.40
521.52	33682.65
521.69	33631.16
521.86	33603.07
522.03	33591.37
522.20	33614.77
522.38	33790.31
522.55	34202.25
522.72	34300.55
522.89	34017.35
523.07	33977.56
523.24	33963.51
523.41	34455.03
523.58	33944.79
523.75	34700.78
523.92	34756.96
524.10	34469.07
524.27	35054.20
524.44	34506.52
524.61	34600.14
524.78	34345.02
524.96	35222.72
525.13	35157.19
525.30	34892.71
525.47	35063.57
525.64	35299.96
525.81	35269.53
525.98	35409.96
526.16	34754.61
526.33	35398.26
526.50	35285.92
526.67	35091.65
526.84	35026.12
527.01	35292.94
527.18	35510.61
527.36	35618.27
527.53	35578.48
527.70	36041.91
527.87	35707.21
528.04	35861.69
528.21	36084.04
528.38	35578.48
528.55	36158.94
528.72	35917.86
528.89	36219.79
529.07	36172.98
529.24	36018.50
529.41	36526.40
529.58	36243.20
529.75	36245.54
529.92	36013.82
530.09	36353.20
530.26	36582.57
530.43	36917.27
530.60	36341.50
530.77	36797.90
530.94	37031.96
531.11	36624.70
531.28	36669.17
531.46	36692.58
531.63	37315.16
531.80	37148.98
531.97	37043.66
532.14	37312.82
532.31	36449.16
532.48	37172.39
532.65	37092.81
532.82	37317.50
532.99	37450.91
533.16	37415.80
533.33	37392.40
533.50	37467.30
533.67	37879.23
533.84	37467.30
534.01	37757.52
534.18	37797.31
534.35	38052.43
534.52	37308.14
534.69	37816.04
534.86	37801.99
535.03	37839.44
535.20	37778.59
535.37	37830.08
535.54	38246.69
535.71	38459.68
535.88	38087.54
536.05	37647.52
536.22	38403.51
536.38	37989.24
536.55	38363.72
536.72	38298.19
536.89	37750.50
537.06	38134.35
537.23	38583.73
537.40	38618.84
537.57	38073.49
537.74	38663.31
537.91	39098.65
538.08	38829.49
538.25	38562.67
538.42	38712.46
538.59	38595.43
538.75	38295.85
538.92	38918.43
539.09	38808.42
539.26	39498.88
539.43	38888.00
539.60	38951.20
539.77	38796.72
539.94	39136.10
540.11	38962.90
540.28	38941.83
540.44	39388.88
540.61	38897.36
540.78	38904.38
540.95	38892.68
541.12	38888.00
541.29	38871.62
541.46	39316.32
541.62	39625.27
541.79	39693.15
541.96	39435.69
542.13	39688.46
542.30	39700.17
542.47	39819.53
542.63	39555.05
542.80	40306.37
542.97	40402.33
543.14	40430.41
543.31	39578.46
543.48	39903.79
543.64	40662.13
543.81	40940.65
543.98	40683.19
544.15	40044.23
544.32	40566.16
544.48	40783.83
544.65	40582.55
544.82	40432.75
544.99	40271.26
545.16	40760.43
545.32	40547.44
545.49	41081.08
545.66	41397.06
545.83	41291.73
546.00	41359.61
546.16	40849.37
546.33	40992.14
546.50	40467.86
546.67	40935.97
546.83	40280.62
547.00	40910.22
547.17	41141.94
547.34	40744.05
547.50	40903.20
547.67	41155.98
547.84	41137.26
548.00	41628.77
548.17	41205.13
548.34	41045.97
548.51	41916.65
548.67	41825.37
548.84	41523.44
549.01	41013.21
549.18	41048.32
549.34	41823.03
549.51	41500.04
549.68	41722.39
549.84	42010.28
550.01	41743.45
550.18	41551.53
550.34	41521.10
550.51	41715.37
550.68	41801.97
550.84	41507.06
551.01	41956.44
551.18	41703.67
551.34	41577.28
551.51	41879.21
551.68	41750.48
551.84	42050.06
552.01	42066.45
552.18	41914.31
552.34	41574.94
552.51	42204.54
552.68	42251.35
552.84	42527.53
553.01	42443.27
553.18	42075.81
553.34	42309.86
553.51	41834.74
553.67	42284.12
553.84	42415.19
554.01	42663.28
554.17	42527.53
554.34	42883.30
554.51	42555.62
554.67	42642.22
554.84	42595.41
555.00	42384.76
555.17	42256.03
555.33	42710.10
555.50	42490.09
555.67	42672.65
555.83	42663.28
556.00	42813.08
556.16	43037.77
556.33	42761.59
556.50	43044.79
556.66	43283.53
556.83	42492.43
556.99	42852.87
557.16	42855.21
557.32	43168.84
557.49	43264.80
557.65	42719.46
557.82	42705.41
557.98	42871.59
558.15	42909.04
558.32	43049.47
558.48	42827.12
558.65	42939.47
558.81	42932.45
558.98	43194.59
559.14	43023.73
559.31	42883.30
559.47	43196.93
559.64	43255.44
559.80	43718.87
559.97	43330.34
560.13	43126.71
560.30	43262.46
560.46	43515.24
560.63	43086.92
560.79	43346.72
560.96	43477.79
561.12	43578.43
561.29	43344.38
561.45	42965.21
561.61	43250.76
561.78	43306.93
561.94	42843.51
562.11	43210.97
562.27	43185.22
562.44	43264.80
562.60	43564.39
562.77	43889.73
562.93	43634.61
563.10	43618.22
563.26	43543.33
563.42	43428.64
563.59	43461.41
563.75	43931.86
563.92	44151.87
564.08	43648.65
564.24	43922.49
564.41	43629.93
564.57	43894.41
564.74	43878.02
564.90	43761.00
565.07	43765.68
565.23	43611.20
565.39	43739.93
565.56	44009.09
565.72	43789.08
565.88	43660.35
566.05	44074.63
566.21	43856.96
566.38	43782.06
566.54	43611.20
566.70	44158.89
566.87	44289.96
567.03	43833.55
567.19	44048.88
567.36	44201.02
567.52	43782.06
567.68	43948.24
567.85	43976.33
568.01	43920.15
568.17	43639.29
568.34	44177.61
568.50	43863.98
568.66	43655.67
568.83	43962.28
568.99	43508.22
569.15	44233.78
569.32	43934.20
569.48	43866.32
569.64	44203.36
569.81	44177.61
569.97	44039.52
570.13	44601.25
570.30	43704.82
570.46	44002.07
570.62	43842.92
570.78	43922.49
570.95	44023.14
571.11	44137.82
571.27	44376.56
571.43	44182.29
571.60	44133.14
571.76	44364.85
571.92	44165.91
572.09	44264.21
572.25	43845.26
572.41	44151.87
572.57	43934.20
572.74	44858.71
572.90	44311.02
573.06	44414.01
573.22	44636.36
573.38	44509.97
573.55	43847.60
573.71	44348.47
573.87	44179.95
574.03	44076.97
574.20	44535.71
574.36	44198.68
574.52	43981.01
574.68	44453.79
574.84	44725.30
575.01	44151.87
575.17	44304.00
575.33	44259.53
575.49	44257.19
575.65	44439.75
575.82	44538.05
575.98	44439.75
576.14	44252.51
576.30	43988.03
576.46	44140.16
576.62	44083.99
576.79	44528.69
576.95	43966.96
577.11	44095.69
577.27	44664.44
577.43	44278.25
577.59	44725.30
577.75	44619.97
577.92	44144.84
578.08	44076.97
578.24	44294.64
578.40	44254.85
578.56	44374.22
578.72	44641.04
578.88	44641.04
579.04	44591.89
579.21	44418.69
579.37	43985.69
579.53	44556.78
579.69	44044.20
579.85	44250.17
580.01	44811.90
580.17	44720.62
580.33	44395.28
580.49	44540.39
580.65	44713.59
580.82	44301.66
580.98	44446.77
581.14	44425.71
581.30	44271.23
581.46	44839.98
581.62	44025.48
581.78	44786.15
581.94	44495.92
582.10	45020.20
582.26	44589.55
582.42	44774.45
582.58	44273.57
582.74	44465.50
582.90	44587.21
583.06	44739.34
583.22	44470.18
583.38	44727.64
583.54	44568.48
583.70	44486.56
583.86	44526.35
584.02	44346.13
584.18	44753.38
584.34	44701.89
584.50	44575.50
584.66	44456.14
584.82	44388.26
584.98	44722.96
585.14	44713.59
585.30	44615.29
585.46	44533.37
585.62	44481.88
585.78	44479.54
585.94	43992.71
586.10	44205.70
586.26	44772.11
586.42	44949.99
586.58	44919.56
586.74	44587.21
586.90	44179.95
587.06	44020.80
587.22	44404.64
587.38	44247.83
587.54	45059.99
587.70	45120.85
587.86	44545.08
588.02	44985.10
588.18	44795.51
588.34	44893.82
588.49	44648.06
588.65	44865.73
588.81	44226.76
588.97	44458.48
589.13	44437.41
589.29	44568.48
589.45	44521.67
589.61	44495.92
589.77	44961.69
589.93	44947.65
590.08	45036.59
590.24	45329.16
590.40	44879.77
