SpectraSuite Data File
++++++++++++++++++++++++++++++++++++
Date: Fri Oct 25 11:33:12 EDT 2013
User: price-jones
Dark Spectrum Present: No
Reference Spectrum Present: No
Number of Sampled Component Spectra: 1
Spectrometers: USB2+H05261
Integration Time (usec): 100000 (USB2+H05261)
Spectra Averaged: 1 (USB2+H05261)
Boxcar Smoothing: 0 (USB2+H05261)
Correct for Electrical Dark: No (USB2+H05261)
Strobe/Lamp Enabled: No (USB2+H05261)
Correct for Detector Non-linearity: No (USB2+H05261)
Correct for Stray Light: No (USB2+H05261)
Number of Pixels in Processed Spectrum: 2048
>>>>>Begin Processed Spectral Data<<<<<
365.73	320.65
365.92	320.65
366.12	320.65
366.32	166.18
366.52	145.11
366.72	205.97
366.91	112.35
367.11	159.16
367.31	135.75
367.51	196.60
367.70	159.16
367.90	194.26
368.10	184.90
368.30	227.03
368.49	180.22
368.69	196.60
368.89	154.48
369.09	163.84
369.28	212.99
369.48	177.88
369.68	182.56
369.87	252.78
370.07	210.65
370.27	278.52
370.47	264.48
370.66	491.51
370.86	496.19
371.06	557.05
371.25	603.86
371.45	596.84
371.65	578.11
371.84	554.71
372.04	510.24
372.24	578.11
372.44	564.07
372.63	620.24
372.83	613.22
373.03	531.30
373.22	498.53
373.42	634.29
373.62	585.13
373.81	692.80
374.01	692.80
374.21	671.73
374.40	636.63
374.60	641.31
374.79	678.76
374.99	634.29
375.19	629.60
375.38	692.80
375.58	636.63
375.78	678.76
375.97	690.46
376.17	772.38
376.37	674.07
376.56	727.91
376.76	650.67
376.95	664.71
377.15	695.14
377.35	690.46
377.54	641.31
377.74	692.80
377.93	741.95
378.13	681.10
378.33	704.50
378.52	730.25
378.72	734.93
378.91	709.18
379.11	748.97
379.31	755.99
379.50	727.91
379.70	676.41
379.89	671.73
380.09	674.07
380.28	699.82
380.48	636.63
380.68	748.97
380.87	755.99
381.07	706.84
381.26	807.48
381.46	779.40
381.65	674.07
381.85	807.48
382.04	753.65
382.24	732.59
382.43	748.97
382.63	744.29
382.83	805.14
383.02	791.10
383.22	856.64
383.41	873.02
383.61	763.01
383.80	856.64
384.00	767.70
384.19	858.98
384.39	837.91
384.58	835.57
384.78	898.77
384.97	908.13
385.17	903.45
385.36	849.61
385.56	945.58
385.75	812.17
385.95	854.30
386.14	858.98
386.34	887.06
386.53	802.80
386.72	833.23
386.92	858.98
387.11	926.85
387.31	901.11
387.50	884.72
387.70	837.91
387.89	945.58
388.09	973.66
388.28	912.81
388.48	866.00
388.67	898.77
388.86	992.39
389.06	985.37
389.25	945.58
389.45	922.17
389.64	905.79
389.84	1039.20
390.03	1057.92
390.22	880.04
390.42	1018.13
390.61	929.19
390.81	994.73
391.00	1011.11
391.19	938.55
391.39	968.98
391.58	978.34
391.78	999.41
391.97	1055.58
392.16	1013.45
392.36	1050.90
392.55	1053.24
392.75	1078.99
392.94	1022.81
393.13	1128.14
393.33	1053.24
393.52	1043.88
393.71	1118.78
393.91	1200.69
394.10	1121.12
394.29	1111.75
394.49	1088.35
394.68	1039.20
394.88	999.41
395.07	1067.28
395.26	1224.10
395.46	1107.07
395.65	1224.10
395.84	1179.63
396.04	1224.10
396.23	1191.33
396.42	1107.07
396.62	1280.27
396.81	1221.76
397.00	1217.08
397.19	1331.76
397.39	1303.68
397.58	1266.23
397.77	1277.93
397.97	1226.44
398.16	1235.80
398.35	1369.21
398.55	1238.14
398.74	1270.91
398.93	1329.42
399.12	1282.61
399.32	1270.91
399.51	1331.76
399.70	1364.53
399.90	1362.19
400.09	1343.47
400.28	1383.26
400.47	1350.49
400.67	1376.24
400.86	1371.55
401.05	1364.53
401.24	1439.43
401.44	1469.86
401.63	1420.71
401.82	1427.73
402.01	1472.20
402.21	1378.58
402.40	1399.64
402.59	1516.67
402.78	1540.07
402.97	1598.59
403.17	1500.28
403.36	1598.59
403.55	1540.07
403.74	1668.80
403.93	1589.22
404.13	1650.08
404.32	1584.54
404.51	1710.93
404.70	1687.53
404.89	1685.19
405.09	1732.00
405.28	1661.78
405.47	1610.29
405.66	1636.03
405.85	1629.01
406.05	1732.00
406.24	1739.02
406.43	1795.19
406.62	1771.79
406.81	1902.86
407.00	1893.49
407.20	1762.42
407.39	1687.53
407.58	1806.89
407.77	1877.11
407.96	1940.30
408.15	1914.56
408.34	1886.47
408.54	1952.01
408.73	1923.92
408.92	1919.24
409.11	1989.46
409.30	1975.41
409.49	2069.03
409.68	1923.92
409.87	1996.48
410.07	2052.65
410.26	2085.42
410.45	2017.54
410.64	2139.25
410.83	2045.63
411.02	2132.23
411.21	2218.83
411.40	2195.42
411.59	2249.25
411.78	2174.36
411.98	2256.28
412.17	2286.70
412.36	2289.04
412.55	2363.94
412.74	2333.51
412.93	2253.94
413.12	2225.85
413.31	2441.18
413.50	2448.20
413.69	2511.39
413.88	2420.11
414.07	2429.48
414.26	2410.75
414.45	2516.08
414.64	2576.93
414.83	2602.68
415.02	2544.16
415.22	2679.91
415.41	2626.08
415.60	2644.81
415.79	2686.94
415.98	2789.92
416.17	2808.64
416.36	2883.54
416.55	2778.22
416.74	2885.88
416.93	2820.35
417.12	2911.63
417.31	2808.64
417.50	2899.92
417.69	2935.03
417.88	3087.17
418.07	2939.71
418.26	2911.63
418.45	3082.49
418.64	3084.83
418.83	3124.62
419.02	3087.17
419.21	3094.19
419.39	3070.78
419.58	3143.34
419.77	3089.51
419.96	3133.98
420.15	3225.26
420.34	3206.53
420.53	3171.43
420.72	3293.13
420.91	3194.83
421.10	3260.37
421.29	3243.98
421.48	3220.58
421.67	3201.85
421.86	3375.05
422.05	3335.26
422.24	3258.03
422.43	3361.01
422.61	3414.84
422.80	3517.83
422.99	3433.57
423.18	3588.04
423.37	3466.33
423.56	3475.70
423.75	3442.93
423.94	3288.45
424.13	3272.07
424.32	3293.13
424.50	3492.08
424.69	3585.70
424.88	3602.08
425.07	3431.23
425.26	3424.20
425.45	3417.18
425.64	3501.44
425.83	3419.52
426.01	3501.44
426.20	3655.92
426.39	3543.57
426.58	3482.72
426.77	3545.91
426.96	3592.72
427.15	3620.81
427.33	3695.71
427.52	3576.34
427.71	3646.55
427.90	3672.30
428.09	3726.13
428.28	3850.18
428.46	3721.45
428.65	3777.62
428.84	3758.90
429.03	3852.52
429.22	3779.97
429.40	3819.75
429.59	3665.28
429.78	3698.05
429.97	3716.77
430.16	3798.69
430.34	3868.91
430.53	3782.31
430.72	3889.97
430.91	3908.69
431.10	3946.14
431.28	3971.89
431.47	3978.91
431.66	4060.83
431.85	4032.74
432.03	4072.53
432.22	4105.30
432.41	4196.58
432.60	4112.32
432.79	4032.74
432.97	4177.86
433.16	4191.90
433.35	4191.90
433.54	4208.28
433.72	4252.75
433.91	4290.20
434.10	4397.87
434.28	4180.20
434.47	4304.25
434.66	4222.33
434.85	4465.74
435.03	4386.16
435.22	4222.33
435.41	4498.51
435.59	4519.57
435.78	4414.25
435.97	4552.34
436.16	4414.25
436.34	4470.42
436.53	4411.91
436.72	4521.92
436.90	4477.44
437.09	4643.62
437.28	4554.68
437.46	4578.09
437.65	4430.63
437.84	4770.01
438.02	4662.35
438.21	4765.33
438.40	4571.07
438.58	4662.35
438.77	4814.48
438.96	4692.77
439.14	4809.80
439.33	4957.25
439.52	4938.53
439.70	4922.15
439.89	5104.71
440.08	4994.70
440.26	5048.54
440.45	5036.83
440.63	5163.22
440.82	5259.18
441.01	5144.50
441.19	5249.82
441.38	5376.21
441.57	5221.74
441.75	5289.61
441.94	5645.37
442.12	5369.19
442.31	5483.88
442.50	5572.82
442.68	5448.77
442.87	5399.62
443.05	5462.81
443.24	5453.45
443.43	5631.33
443.61	5600.90
443.80	5753.04
443.98	5614.95
444.17	5540.05
444.35	5650.05
444.54	5511.96
444.73	5692.18
444.91	5731.97
445.10	5598.56
445.28	5738.99
445.47	5563.45
445.65	5600.90
445.84	5774.10
446.02	5846.66
446.21	5753.04
446.39	5703.89
446.58	5963.68
446.77	5753.04
446.95	5628.99
447.14	5689.84
447.32	5902.83
447.51	5820.91
447.69	5647.71
447.88	5755.38
448.06	5935.60
448.25	5746.02
448.43	5944.96
448.62	5916.87
448.80	5781.12
448.99	5977.73
449.17	5968.37
449.36	5888.79
449.54	5891.13
449.73	5954.32
449.91	6101.78
450.10	6017.52
450.28	6237.53
450.46	6052.63
450.65	6181.35
450.83	6090.07
451.02	6143.91
451.20	6230.51
451.39	6239.87
451.57	6200.08
451.76	6183.70
451.94	6305.40
452.13	6375.62
452.31	6340.51
452.49	6209.44
452.68	6417.75
452.86	6399.02
453.05	6424.77
453.23	6593.29
453.42	6497.33
453.60	6471.58
453.78	6480.94
453.97	6366.26
454.15	6282.00
454.34	6476.26
454.52	6527.75
454.70	6612.01
454.89	6560.52
455.07	6619.04
455.26	6766.49
455.44	6839.05
455.62	6738.40
455.81	6745.42
455.99	6792.23
456.17	6960.75
456.36	6846.07
456.54	6850.75
456.73	6944.37
456.91	7150.34
457.09	7119.91
457.28	7007.56
457.46	6979.48
457.64	7012.24
457.83	7094.16
458.01	7136.29
458.19	7389.07
458.38	7122.25
458.56	7368.01
458.74	7274.38
458.93	7400.77
459.11	7241.62
459.29	7225.23
459.48	7274.38
459.66	7438.22
459.84	7339.92
460.03	7403.11
460.21	7365.67
460.39	7424.18
460.57	7620.78
460.76	7524.82
460.94	7618.44
461.12	7482.69
461.31	7548.23
461.49	7297.79
461.67	7679.30
461.85	7885.26
462.04	7824.41
462.22	8234.00
462.40	7981.23
462.59	7896.97
462.77	7819.73
462.95	7955.48
463.13	7801.01
463.32	7927.39
463.50	8098.25
463.68	7941.44
463.86	8217.62
464.05	7925.05
464.23	7833.77
464.41	8121.66
464.59	8070.17
464.78	8243.37
464.96	8053.78
465.14	7946.12
465.32	8196.56
465.50	8203.58
465.69	8243.37
465.87	8196.56
466.05	8156.77
466.23	8102.93
466.41	8369.76
466.60	8360.39
466.78	8315.92
466.96	8297.20
467.14	8294.86
467.32	8271.45
467.51	8557.00
467.69	8182.51
467.87	8306.56
468.05	8648.28
468.23	8362.73
468.41	8486.78
468.60	8360.39
468.78	8477.42
468.96	8503.17
469.14	8681.05
469.32	8657.64
469.50	8463.38
469.69	8802.75
469.87	8671.68
470.05	8718.50
470.23	8795.73
470.41	8774.67
470.59	8791.05
470.77	9048.51
470.95	9022.77
471.14	9191.28
471.32	8849.57
471.50	9078.94
471.68	9172.56
471.86	9280.22
472.04	9298.95
472.22	9378.53
472.40	9399.59
472.58	9270.86
472.77	9582.15
472.95	9528.32
473.13	9813.87
473.31	9483.85
473.49	9731.95
473.67	9420.66
473.85	9671.09
474.03	9764.72
474.21	9888.76
474.39	9961.32
474.57	10008.13
474.75	9942.60
474.93	10202.40
475.12	9963.66
475.30	10153.24
475.48	9949.62
475.66	10394.32
475.84	10162.61
476.02	10122.82
476.20	10193.03
476.38	10682.20
476.56	10700.93
476.74	10824.98
476.92	10490.28
477.10	10583.90
477.28	10862.43
477.46	10759.44
477.64	10867.11
477.82	11190.10
478.00	11489.69
478.18	11026.26
478.36	11176.06
478.54	11433.52
478.72	11468.62
478.90	11421.81
479.08	11646.51
479.26	11655.87
479.44	11754.17
479.62	12004.61
479.80	11906.31
479.98	12121.63
480.16	12109.93
480.34	12074.82
480.52	12327.60
480.70	12060.78
480.88	12283.13
481.06	12599.10
481.24	12580.38
481.41	12545.27
481.59	12727.83
481.77	12908.05
481.95	12950.18
482.13	13355.10
482.31	13214.66
482.49	13650.00
482.67	13469.78
482.85	13736.60
483.03	13647.66
483.21	13860.65
483.39	14087.68
483.57	13987.04
483.74	14097.05
483.92	14265.57
484.10	14125.13
484.28	14424.72
484.46	14616.65
484.64	15000.49
484.82	14483.24
485.00	14747.72
485.18	15173.69
485.35	15398.38
485.53	15124.54
485.71	15379.66
485.89	15412.43
486.07	15527.11
486.25	15726.06
486.43	15318.81
486.61	15721.38
486.78	16322.90
486.96	16350.98
487.14	16077.14
487.32	16327.58
487.50	16496.10
487.68	16767.60
487.85	16741.85
488.03	16812.07
488.21	17137.40
488.39	17224.00
488.57	17130.38
488.75	17390.18
488.92	17624.23
489.10	17596.15
489.28	17600.83
489.46	17839.56
489.64	18017.44
489.81	18389.59
489.99	18150.85
490.17	18286.61
490.35	18843.65
490.53	18717.26
490.70	18953.66
490.88	18817.91
491.06	19030.90
491.24	19126.86
491.41	19185.37
491.59	19108.13
491.77	19611.35
491.95	19726.04
492.13	19438.15
492.30	19796.25
492.48	19913.28
492.66	20168.40
492.84	20189.46
493.01	20313.51
493.19	20304.15
493.37	20629.48
493.54	20540.54
493.72	20994.61
493.90	21167.80
494.08	20992.26
494.25	20936.09
494.43	21113.97
494.61	21277.81
494.79	21247.38
494.96	21324.62
495.14	21605.49
495.32	21865.28
495.49	21898.05
495.67	21722.51
495.85	22331.05
496.02	22349.78
496.20	22352.12
496.38	22640.00
496.55	22995.76
496.73	22843.63
496.91	23009.81
497.09	23115.13
497.26	23150.24
497.44	23077.68
497.62	23309.40
497.79	23473.23
497.97	23639.41
498.14	24058.37
498.32	24149.65
498.50	23854.74
498.67	24121.56
498.85	23721.33
499.03	24517.11
499.20	24355.61
499.38	24538.18
499.56	24584.99
499.73	24812.02
499.91	25245.02
500.08	24915.00
500.26	24713.72
500.44	25156.08
500.61	25010.96
500.79	24842.45
500.97	25184.16
501.14	25848.88
501.32	25458.01
501.49	25626.53
501.67	25666.31
501.84	26139.10
502.02	25790.36
502.20	26113.36
502.37	26141.44
502.55	25790.36
502.72	25984.63
502.90	26281.88
503.07	26314.64
503.25	26831.90
503.43	26237.41
503.60	26471.46
503.78	26551.04
503.95	26733.60
504.13	27009.78
504.30	26988.72
504.48	26897.44
504.65	27374.91
504.83	27482.57
505.01	27580.87
505.18	27370.22
505.36	27517.68
505.53	27470.87
505.71	27700.24
505.88	27964.72
506.06	27730.67
506.23	27800.88
506.41	27536.40
506.58	28135.58
506.76	27866.42
506.93	28290.06
507.11	28430.49
507.28	28613.05
507.46	28325.16
507.63	28767.52
507.81	29153.71
507.98	28489.00
508.16	28865.83
508.33	28868.17
508.50	29076.48
508.68	29017.96
508.85	29289.46
509.03	29123.29
509.20	29329.25
509.38	29467.34
509.55	29509.47
509.73	29869.92
509.90	29647.57
510.08	29589.05
510.25	29647.57
510.42	29954.18
510.60	30066.52
510.77	30078.22
510.95	30424.62
511.12	30579.10
511.30	30485.48
511.47	30410.58
511.64	30501.86
511.82	30637.61
511.99	30548.67
512.17	30838.90
512.34	31061.25
512.51	31321.05
512.69	31524.68
512.86	30866.98
513.04	31489.57
513.21	31349.14
513.38	31798.52
513.56	31463.82
513.73	31674.47
513.90	31381.90
514.08	31463.82
514.25	31854.69
514.43	31819.58
514.60	31917.89
514.77	31751.71
514.95	32182.37
515.12	31784.48
515.29	31800.86
515.47	32222.16
515.64	32470.25
515.81	32011.51
515.99	32432.80
516.16	32449.19
516.33	32683.24
516.51	32903.25
516.68	32847.08
516.85	32634.09
517.03	33139.65
517.20	33244.97
517.37	32795.59
517.54	33357.32
517.72	33394.76
517.89	33427.53
518.06	33443.91
518.24	33137.30
518.41	33219.22
518.58	33219.22
518.75	33319.87
518.93	33940.11
519.10	33605.41
519.27	33986.92
519.45	34040.75
519.62	34059.48
519.79	33949.47
519.96	34206.93
520.14	34071.18
520.31	34047.77
520.48	34579.07
520.65	34312.25
520.83	34494.82
521.00	35225.06
521.17	34602.48
521.34	34792.06
521.52	34668.02
521.69	34855.26
521.86	35232.08
522.03	34897.39
522.20	35232.08
522.38	35576.14
522.55	35587.85
522.72	35742.32
522.89	35503.59
523.07	36133.19
523.24	35599.55
523.41	35758.70
523.58	35489.54
523.75	35842.96
523.92	36100.42
524.10	36322.77
524.27	35604.23
524.44	35938.93
524.61	36343.84
524.78	36704.28
524.96	36582.57
525.13	36657.47
525.30	36472.57
525.47	36556.83
525.64	36493.63
525.81	36875.14
525.98	36664.49
526.16	36727.69
526.33	36837.69
526.50	37193.45
526.67	36650.45
526.84	36542.78
527.01	37062.38
527.18	37174.73
527.36	37275.37
527.53	37027.28
527.70	37537.51
527.87	37647.52
528.04	37490.70
528.21	37684.97
528.38	37230.90
528.55	37525.81
528.72	37523.47
528.89	37900.29
529.07	37270.69
529.24	37823.06
529.41	37975.19
529.58	37687.31
529.75	37940.08
529.92	38047.75
530.09	37404.10
530.26	38445.64
530.43	37947.11
530.60	37804.33
530.77	38164.78
530.94	38565.01
531.11	38298.19
531.28	38143.71
531.46	38590.75
531.63	38543.94
531.80	38520.54
531.97	38684.37
532.14	39136.10
532.31	38574.37
532.48	38983.96
532.65	39063.54
532.82	38714.80
532.99	38993.32
533.16	38965.24
533.33	38796.72
533.50	39613.57
533.67	38799.06
533.84	38824.81
534.01	39248.44
534.18	39564.42
534.35	39709.53
534.52	39583.14
534.69	39849.96
534.86	40004.44
535.03	39426.32
535.20	39922.52
535.37	39688.46
535.54	39889.75
535.71	40062.95
535.88	40116.78
536.05	39749.32
536.22	40423.39
536.38	39798.47
536.55	40182.32
536.72	40266.58
536.89	40374.24
537.06	39828.90
537.23	40224.45
537.40	40072.31
537.57	40261.90
537.74	40341.47
537.91	40835.33
538.08	40692.55
538.25	40133.17
538.42	40219.77
538.59	41284.71
538.75	40683.19
538.92	40804.90
539.09	40945.33
539.26	40697.24
539.43	40748.73
539.60	41549.19
539.77	40830.65
539.94	41212.15
540.11	40737.02
540.28	41111.51
540.44	41057.68
540.61	41385.35
540.78	41132.57
540.95	41373.65
541.12	41380.67
541.29	41291.73
541.46	41617.07
541.62	41687.28
541.79	41895.59
541.96	41076.40
542.13	41478.97
542.30	41691.96
542.47	41757.50
542.63	41804.31
542.80	42026.66
542.97	42040.70
543.14	42534.56
543.31	42454.98
543.48	41914.31
543.64	42452.64
543.81	42417.53
543.98	42401.14
544.15	42525.19
544.32	42337.95
544.48	43180.54
544.65	42644.56
544.82	43089.26
544.99	42443.27
545.16	42770.95
545.32	42480.72
545.49	42880.95
545.66	43353.74
545.83	42890.32
546.00	43009.68
546.16	42981.60
546.33	42864.57
546.50	42712.44
546.67	43072.88
546.83	42827.12
547.00	42848.19
547.17	43159.48
547.34	43318.64
547.50	43400.55
547.67	43737.59
547.84	43290.55
548.00	43461.41
548.17	43875.68
548.34	43463.75
548.51	43531.62
548.67	43606.52
548.84	43749.29
549.01	43693.12
549.18	43632.27
549.34	43791.42
549.51	43842.92
549.68	43765.68
549.84	43510.56
550.01	44589.55
550.18	44135.48
550.34	43931.86
550.51	44179.95
550.68	44114.42
550.84	43908.45
551.01	44554.44
551.18	43346.72
551.34	43875.68
551.51	44758.06
551.68	43730.57
551.84	44243.15
552.01	43999.73
552.18	44856.37
552.34	44374.22
552.51	44973.39
552.68	44264.21
552.84	44465.50
553.01	45127.87
553.18	44554.44
553.34	44854.03
553.51	44315.70
553.67	44790.83
553.84	44884.45
554.01	44879.77
554.17	44662.10
554.34	45352.56
554.51	44830.62
554.67	44830.62
554.84	44676.15
555.00	44758.06
555.17	44928.92
555.33	45326.81
555.50	45120.85
555.67	45106.80
555.83	45418.10
556.00	45263.62
556.16	45359.58
556.33	45081.06
556.50	45153.62
556.66	45446.18
556.83	44797.85
556.99	45490.65
557.16	45443.84
557.32	45778.54
557.49	45464.91
557.65	44992.12
557.82	45497.67
557.98	45633.42
558.15	45530.44
558.32	45785.56
558.48	45640.45
558.65	45614.70
558.81	45642.79
558.98	45511.72
559.14	45464.91
559.31	45626.40
559.47	45418.10
559.64	45743.43
559.80	46092.17
559.97	45832.37
560.13	45909.61
560.30	45867.48
560.46	45970.46
560.63	46047.70
560.79	46358.99
560.96	46347.29
561.12	45879.18
561.29	46279.41
561.45	45982.16
561.61	45832.37
561.78	46028.98
561.94	46330.90
562.11	45841.73
562.27	46354.31
562.44	45806.62
562.60	46347.29
562.77	46611.77
562.93	46478.36
563.10	46604.75
563.26	46232.60
563.42	46461.97
563.59	46529.85
563.75	46394.10
563.92	46618.79
564.08	46040.68
564.24	46911.36
564.41	46637.51
564.57	46499.42
564.74	46553.26
564.90	46738.16
565.07	46735.82
565.23	46492.40
565.39	46424.53
565.56	46916.04
565.72	46677.30
565.88	46873.91
566.05	46689.01
566.21	46653.90
566.38	46576.66
566.54	46574.32
566.70	46637.51
566.87	46857.52
567.03	46445.59
567.19	46948.81
567.36	47033.07
567.52	46885.61
567.68	47374.78
567.85	46497.08
568.01	47194.56
568.17	47014.34
568.34	47105.62
568.50	47051.79
568.66	46686.67
568.83	46873.91
568.99	46799.01
569.15	47234.35
569.32	46906.68
569.48	46925.40
569.64	47187.54
569.81	46951.15
569.97	47351.38
570.13	47264.78
570.30	46749.86
570.46	46766.24
570.62	47114.98
570.78	47573.73
570.95	47311.59
571.11	47416.91
571.27	47189.88
571.43	47199.24
571.60	47173.50
571.76	46841.14
571.92	47161.79
572.09	47178.18
572.25	47313.93
572.41	46852.84
572.57	47166.48
572.74	47775.02
572.90	47367.76
573.06	47379.46
573.22	47189.88
573.38	46834.12
573.55	47304.57
573.71	47580.75
573.87	47182.86
574.03	47281.16
574.20	47440.32
574.36	47496.49
574.52	47346.70
574.68	47487.13
574.84	47325.63
575.01	47665.01
575.17	47686.07
575.33	47466.06
575.49	47316.27
575.65	47309.25
575.82	47398.19
575.98	47171.16
576.14	47798.42
576.30	47349.04
576.46	47538.62
576.62	47339.68
576.79	47309.25
576.95	47292.86
577.11	47456.70
577.27	47519.90
577.43	47021.36
577.59	47510.53
577.75	47526.92
577.92	47178.18
578.08	47426.28
578.24	47370.10
578.40	47746.93
578.56	47498.83
578.72	47672.03
578.88	47540.96
579.04	47646.29
579.21	47136.05
579.37	47878.00
579.53	47646.29
579.69	47248.39
579.85	47690.76
580.01	47700.12
580.17	47798.42
580.33	47571.39
580.49	47934.17
580.65	47522.24
580.82	47672.03
580.98	47416.91
581.14	47398.19
581.30	47653.31
581.46	47239.03
581.62	47547.98
581.78	47402.87
581.94	48016.09
582.10	47601.82
582.26	47484.79
582.42	47686.07
582.58	47770.33
582.74	48144.82
582.90	47356.06
583.06	48086.31
583.22	47536.28
583.38	47564.37
583.54	47672.03
583.70	47665.01
583.86	48076.94
584.02	47840.55
584.18	47866.30
584.34	48060.56
584.50	48404.62
584.66	47859.27
584.82	48025.45
584.98	48013.75
585.14	47620.54
585.30	48128.44
585.46	47751.61
585.62	47360.74
585.78	48184.61
585.94	47941.19
586.10	48055.88
586.26	47243.71
586.42	48112.05
586.58	47812.46
586.74	47962.26
586.90	47531.60
587.06	47770.33
587.22	48102.69
587.38	47489.47
587.54	47922.47
587.70	48147.16
587.86	47826.51
588.02	47772.67
588.18	47445.00
588.34	47601.82
588.49	47831.19
588.65	47517.56
588.81	47793.74
588.97	48184.61
589.13	48093.33
589.29	47983.32
589.45	48514.62
589.61	47739.91
589.77	48540.37
589.93	48252.48
