SpectraSuite Data File
++++++++++++++++++++++++++++++++++++
Date: Fri Oct 25 11:26:20 EDT 2013
User: price-jones
Dark Spectrum Present: No
Reference Spectrum Present: No
Number of Sampled Component Spectra: 1
Spectrometers: USB2+H05261
Integration Time (usec): 100000 (USB2+H05261)
Spectra Averaged: 1 (USB2+H05261)
Boxcar Smoothing: 0 (USB2+H05261)
Correct for Electrical Dark: No (USB2+H05261)
Strobe/Lamp Enabled: No (USB2+H05261)
Correct for Detector Non-linearity: No (USB2+H05261)
Correct for Stray Light: No (USB2+H05261)
Number of Pixels in Processed Spectrum: 2048
>>>>>Begin Processed Spectral Data<<<<<
365.73	252.78
365.92	252.78
366.12	252.78
366.32	215.33
366.52	168.52
366.72	184.90
366.91	166.18
367.11	201.29
367.31	93.62
367.51	215.33
367.70	198.95
367.90	138.09
368.10	170.86
368.30	182.56
368.49	128.73
368.69	180.22
368.89	198.95
369.09	173.20
369.28	243.42
369.48	182.56
369.68	257.46
369.87	252.78
370.07	154.48
370.27	322.99
370.47	280.86
370.66	638.97
370.86	592.16
371.06	629.60
371.25	596.84
371.45	699.82
371.65	781.74
371.84	685.78
372.04	699.82
372.24	624.92
372.44	727.91
372.63	711.52
372.83	767.70
373.03	765.36
373.22	753.65
373.42	730.25
373.62	812.17
373.81	753.65
374.01	922.17
374.21	901.11
374.40	777.06
374.60	858.98
374.79	758.33
374.99	786.42
375.19	877.70
375.38	868.34
375.58	861.32
375.78	851.96
375.97	884.72
376.17	877.70
376.37	896.43
376.56	882.38
376.76	849.61
376.95	887.06
377.15	891.74
377.35	873.02
377.54	945.58
377.74	861.32
377.93	842.59
378.13	922.17
378.33	917.49
378.52	905.79
378.72	950.26
378.91	866.00
379.11	950.26
379.31	908.13
379.50	964.30
379.70	994.73
379.89	1046.22
380.09	1020.47
380.28	987.71
380.48	999.41
380.68	1055.58
380.87	1027.50
381.07	1008.77
381.26	1076.65
381.46	1041.54
381.65	987.71
381.85	976.00
382.04	954.94
382.24	1050.90
382.43	1069.62
382.63	1100.05
382.83	1109.41
383.02	1104.73
383.22	1048.56
383.41	1104.73
383.61	1025.15
383.80	1137.50
384.00	1128.14
384.19	1144.52
384.39	1142.18
384.58	1179.63
384.78	1210.06
384.97	1172.61
385.17	1076.65
385.36	1064.94
385.56	1268.57
385.75	1121.12
385.95	1123.46
386.14	1219.42
386.34	1107.07
386.53	1238.14
386.72	1142.18
386.92	1179.63
387.11	1247.51
387.31	1217.08
387.50	1203.04
387.70	1352.83
387.89	1242.82
388.09	1352.83
388.28	1200.69
388.48	1214.74
388.67	1256.87
388.86	1359.85
389.06	1336.45
389.25	1329.42
389.45	1385.60
389.64	1453.47
389.84	1432.41
390.03	1406.66
390.22	1411.34
390.42	1364.53
390.61	1308.36
390.81	1420.71
391.00	1427.73
391.19	1437.09
391.39	1479.22
391.58	1488.58
391.78	1406.66
391.97	1516.67
392.16	1432.41
392.36	1544.75
392.55	1554.12
392.75	1430.07
392.94	1516.67
393.13	1495.60
393.33	1502.62
393.52	1563.48
393.71	1596.25
393.91	1575.18
394.10	1643.06
394.29	1523.69
394.49	1603.27
394.68	1631.35
394.88	1605.61
395.07	1582.20
395.26	1631.35
395.46	1645.40
395.65	1671.14
395.84	1762.42
396.04	1694.55
396.23	1788.17
396.42	1727.32
396.62	1846.68
396.81	1757.74
397.00	1706.25
397.19	1872.43
397.39	1802.21
397.58	1710.93
397.77	1762.42
397.97	1846.68
398.16	1764.76
398.35	1980.09
398.55	1802.21
398.74	1905.20
398.93	2005.84
399.12	1870.09
399.32	1867.75
399.51	1973.07
399.70	1867.75
399.90	2008.18
400.09	1923.92
400.28	2097.12
400.47	2052.65
400.67	2078.40
400.86	2015.20
401.05	2127.55
401.24	2148.61
401.44	2043.29
401.63	2183.72
401.82	2200.10
402.01	2094.78
402.21	2153.29
402.40	2244.57
402.59	2050.31
402.78	2246.91
402.97	2216.49
403.17	2289.04
403.36	2270.32
403.55	2279.68
403.74	2413.09
403.93	2289.04
404.13	2368.62
404.32	2338.20
404.51	2363.94
404.70	2443.52
404.89	2399.05
405.09	2483.31
405.28	2555.86
405.47	2450.54
405.66	2506.71
405.85	2420.11
406.05	2534.80
406.24	2576.93
406.43	2553.52
406.62	2516.08
406.81	2635.44
407.00	2583.95
407.20	2525.44
407.39	2719.70
407.58	2602.68
407.77	2752.47
407.96	2740.77
408.15	2813.32
408.34	2672.89
408.54	2708.00
408.73	2766.51
408.92	2834.39
409.11	2883.54
409.30	2939.71
409.49	2935.03
409.68	2932.69
409.87	2911.63
410.07	2944.39
410.26	3059.08
410.45	2960.78
410.64	3108.23
410.83	3028.65
411.02	3164.40
411.21	3171.43
411.40	3117.59
411.59	3108.23
411.78	3248.66
411.98	3124.62
412.17	3178.45
412.36	3361.01
412.55	3375.05
412.74	3302.50
412.93	3384.41
413.12	3368.03
413.31	3489.74
413.50	3496.76
413.69	3515.48
413.88	3576.34
414.07	3595.06
414.26	3456.97
414.45	3700.39
414.64	3616.13
414.83	3740.18
415.02	3639.53
415.22	3815.07
415.41	3784.65
415.60	3808.05
415.79	3831.46
415.98	4051.47
416.17	4035.08
416.36	3908.69
416.55	3999.98
416.74	3999.98
416.93	4091.26
417.12	4028.06
417.31	4058.49
417.50	4107.64
417.69	4344.03
417.88	4196.58
418.07	4287.86
418.26	4339.35
418.45	4341.69
418.64	4360.42
418.83	4344.03
419.02	4411.91
419.21	4409.57
419.39	4461.06
419.58	4477.44
419.77	4381.48
419.96	4465.74
420.15	4524.26
420.34	4594.47
420.53	4660.01
420.72	4723.20
420.91	4599.15
421.10	4629.58
421.29	4830.87
421.48	4734.90
421.67	4774.69
421.86	4784.06
422.05	4624.90
422.24	4800.44
422.43	4889.38
422.61	4781.71
422.80	4856.61
422.99	4994.70
423.18	4905.76
423.37	4947.89
423.56	4746.61
423.75	4809.80
423.94	4800.44
424.13	4512.55
424.32	4858.95
424.50	4849.59
424.69	4980.66
424.88	5078.96
425.07	4847.25
425.26	4943.21
425.45	5074.28
425.64	4802.78
425.83	4816.82
426.01	5055.56
426.20	5125.77
426.39	5093.01
426.58	5224.08
426.77	5027.47
426.96	5085.98
427.15	5123.43
427.33	5067.26
427.52	4950.23
427.71	5076.62
427.90	5252.16
428.09	5233.44
428.28	5254.50
428.46	5362.17
428.65	5322.38
428.84	5554.09
429.03	5521.32
429.22	5277.91
429.40	5514.30
429.59	5369.19
429.78	5139.82
429.97	5242.80
430.16	5397.28
430.34	5659.42
430.53	5533.03
430.72	5509.62
430.91	5530.69
431.10	5526.00
431.28	5675.80
431.47	5701.54
431.66	5755.38
431.85	5607.92
432.03	5783.46
432.22	5886.45
432.41	5785.80
432.60	5865.38
432.79	5951.98
432.97	5954.32
433.16	6017.52
433.35	5970.71
433.54	5966.03
433.72	6097.10
433.91	6031.56
434.10	6244.55
434.28	5963.68
434.47	6106.46
434.66	6251.57
434.85	6333.49
435.03	6296.04
435.22	6209.44
435.41	6399.02
435.59	6359.24
435.78	6293.70
435.97	6469.24
436.16	6469.24
436.34	6342.85
436.53	6377.96
436.72	6621.38
436.90	6466.90
437.09	6523.07
437.28	6558.18
437.46	6553.50
437.65	6712.66
437.84	6778.19
438.02	6808.62
438.21	6719.68
438.40	6593.29
438.58	6860.11
438.77	6899.90
438.96	6855.43
439.14	6993.52
439.33	6960.75
439.52	7157.36
439.70	7204.17
439.89	7316.51
440.08	7384.39
440.26	7250.98
440.45	7265.02
440.63	7386.73
440.82	7435.88
441.01	7602.06
441.19	7536.52
441.38	7431.20
441.57	7599.72
441.75	7674.62
441.94	8002.29
442.12	7878.24
442.31	8116.98
442.50	8046.76
442.68	8039.74
442.87	8035.06
443.05	7974.21
443.24	8229.32
443.43	8095.91
443.61	8114.64
443.80	8353.37
443.98	8028.04
444.17	7751.85
444.35	8145.06
444.54	8203.58
444.73	8105.28
444.91	8161.45
445.10	8255.07
445.28	8184.85
445.47	8217.62
445.65	8234.00
445.84	8367.42
446.02	8369.76
446.21	8292.52
446.39	8182.51
446.58	8315.92
446.77	8538.27
446.95	8217.62
447.14	8402.52
447.32	8425.93
447.51	8491.46
447.69	8423.59
447.88	8367.42
448.06	8411.89
448.25	8538.27
448.43	8379.12
448.62	8514.87
448.80	8706.79
448.99	8765.31
449.17	8695.09
449.36	8645.94
449.54	8861.27
449.73	8929.14
449.91	9207.67
450.10	8889.35
450.28	8917.44
450.46	8966.59
450.65	8870.63
450.83	9008.72
451.02	8851.91
451.20	9242.78
451.39	9025.11
451.57	9121.07
451.76	8894.04
451.94	9324.69
452.13	9308.31
452.31	9364.48
452.49	9135.11
452.68	9219.37
452.86	9156.18
453.05	9465.13
453.23	9378.53
453.42	9212.35
453.60	9181.92
453.78	9516.62
453.97	9387.89
454.15	9493.21
454.34	9434.70
454.52	9664.07
454.70	9528.32
454.89	9631.30
455.07	9722.59
455.26	9827.91
455.44	9973.02
455.62	9551.73
455.81	9795.14
455.99	9877.06
456.17	9923.87
456.36	9788.12
456.54	9989.41
456.73	10171.97
456.91	10384.96
457.09	10340.49
457.28	10572.20
457.46	10232.82
457.64	10541.77
457.83	10342.83
458.01	10445.81
458.19	10509.01
458.38	10553.48
458.56	10633.05
458.74	10600.29
458.93	10644.76
459.11	10621.35
459.29	10588.58
459.48	10764.12
459.66	10705.61
459.84	10705.61
460.03	11019.24
460.21	10750.08
460.39	11026.26
460.57	10911.58
460.76	11159.67
460.94	10839.02
461.12	11047.33
461.31	11206.48
461.49	11187.76
461.67	11241.59
461.85	11239.25
462.04	11204.14
462.22	11733.11
462.40	11658.21
462.59	11576.29
462.77	11332.87
462.95	11602.04
463.13	11550.54
463.32	11609.06
463.50	11676.93
463.68	11861.84
463.86	11751.83
464.05	11623.10
464.23	11517.78
464.41	11845.45
464.59	11838.43
464.78	12070.14
464.96	11903.96
465.14	11983.54
465.32	11800.98
465.50	12067.80
465.69	12308.88
465.87	12016.31
466.05	11969.50
466.23	11981.20
466.41	12109.93
466.60	12341.64
466.78	11997.59
466.96	11922.69
467.14	11981.20
467.32	12421.22
467.51	12346.33
467.69	12421.22
467.87	12468.03
468.05	12582.72
468.23	12182.49
468.41	12503.14
468.60	12652.94
468.78	12819.11
468.96	12358.03
469.14	12704.43
469.32	12952.52
469.50	12657.62
469.69	12865.92
469.87	13104.66
470.05	13132.75
470.23	13125.72
470.41	13067.21
470.59	13242.75
470.77	13015.72
470.95	13006.36
471.14	13437.02
471.32	13032.10
471.50	13429.99
471.68	13628.94
471.86	13607.87
472.04	13795.12
472.22	13809.16
472.40	13792.78
472.58	13614.90
472.77	13996.40
472.95	14015.13
473.13	14480.89
473.31	14115.77
473.49	14057.26
473.67	13884.06
473.85	14181.31
474.03	14448.13
474.21	14422.38
474.39	14516.00
474.57	14593.24
474.75	14726.65
474.93	14857.72
475.12	14731.33
475.30	14972.41
475.48	14728.99
475.66	15447.54
475.84	15051.99
476.02	15421.79
476.20	15417.11
476.38	15655.84
476.56	15873.51
476.74	15889.90
476.92	15578.61
477.10	15754.15
477.28	15960.11
477.46	16145.02
477.64	16262.04
477.82	16503.12
478.00	16968.88
478.18	16702.06
478.36	16978.25
478.54	17146.76
478.72	16961.86
478.90	17310.60
479.08	17231.02
479.26	17645.30
479.44	17905.10
479.62	17638.28
479.80	18064.25
479.98	18192.98
480.16	18366.18
480.34	18527.68
480.52	18445.76
480.70	18490.23
480.88	18235.11
481.06	18511.30
481.24	18373.21
481.41	18771.10
481.59	19377.30
481.77	19459.21
481.95	19480.28
482.13	19564.54
482.31	19499.00
482.49	20290.10
482.67	19971.79
482.85	20210.53
483.03	20585.01
483.21	20477.35
483.39	20886.94
483.57	20882.26
483.74	21020.35
483.92	21701.45
484.10	21235.68
484.28	21661.66
484.46	21757.62
484.64	22026.78
484.82	22043.17
485.00	22204.66
485.18	22305.31
485.35	22827.24
485.53	22703.20
485.71	22602.55
485.89	23367.91
486.07	22991.08
486.25	23161.94
486.43	23211.09
486.61	23681.54
486.78	23559.83
486.96	24261.99
487.14	24252.63
487.32	24355.61
487.50	24531.15
487.68	24584.99
487.85	25008.62
488.03	25308.21
488.21	25708.44
488.39	25577.37
488.57	25745.89
488.75	26118.04
488.92	26387.20
489.10	26438.69
489.28	26539.33
489.46	26733.60
489.64	26845.94
489.81	27491.93
489.99	27407.67
490.17	27775.14
490.35	27861.74
490.53	27861.74
490.70	27887.48
490.88	28161.33
491.06	28765.18
491.24	28952.43
491.41	28830.72
491.59	29298.83
491.77	29326.91
491.95	29022.64
492.13	29530.54
492.30	29764.59
492.48	29848.85
492.66	29991.62
492.84	30167.16
493.01	30906.77
493.19	30553.35
493.37	30885.71
493.54	30925.50
493.72	31204.02
493.90	31468.50
494.08	31613.62
494.25	31662.77
494.43	31775.11
494.61	32266.63
494.79	32173.00
494.96	32275.99
495.14	32816.65
495.32	32833.04
495.49	32952.40
495.67	32615.37
495.85	33167.73
496.02	33319.87
496.20	33804.36
496.38	33776.27
496.55	33832.44
496.73	34195.23
496.91	34293.53
497.09	34794.40
497.26	35000.37
497.44	34632.91
497.62	35192.30
497.79	35761.05
497.97	35220.38
498.14	35959.99
498.32	35861.69
498.50	36119.15
498.67	36240.86
498.85	36203.41
499.03	36662.15
499.20	36287.67
499.38	36725.35
499.56	36769.82
499.73	37085.79
499.91	37249.63
500.08	37511.77
500.26	36847.05
500.44	37102.17
500.61	37413.46
500.79	37504.74
500.97	38078.18
501.14	38417.55
501.32	38485.43
501.49	37827.74
501.67	38176.48
501.84	39007.37
502.02	38597.77
502.20	38995.67
502.37	38923.11
502.55	39159.50
502.72	39218.02
502.90	38740.55
503.07	39175.89
503.25	39636.97
503.43	39683.78
503.60	39859.32
503.78	40018.48
503.95	39800.81
504.13	40179.98
504.30	40027.84
504.48	39997.41
504.65	40226.79
504.83	40952.35
505.01	40875.12
505.18	40931.29
505.36	41109.17
505.53	40748.73
505.71	41408.76
505.88	41310.46
506.06	41055.34
506.23	41769.20
506.41	41567.91
506.58	41729.41
506.76	41834.74
506.93	42003.25
507.11	42326.25
507.28	42609.45
507.46	42431.57
507.63	42974.58
507.81	42939.47
507.98	42536.90
508.16	42609.45
508.33	42836.48
508.50	43030.75
508.68	43084.58
508.85	43704.82
509.03	43735.25
509.20	44051.22
509.38	43915.47
509.55	44123.78
509.73	44411.67
509.90	44184.63
510.08	44074.63
510.25	44481.88
510.42	44779.13
510.60	44615.29
510.77	44823.60
510.95	45006.16
511.12	44968.71
511.30	44982.76
511.47	45422.78
511.64	45436.82
511.82	45593.64
511.99	45294.05
512.17	45757.47
512.34	45366.60
512.51	45914.29
512.69	46134.30
512.86	46258.35
513.04	46422.19
513.21	46169.41
513.38	46440.91
513.56	46354.31
513.73	46602.41
513.90	46604.75
514.08	46417.50
514.25	47065.83
514.43	47356.06
514.60	47356.06
514.77	46969.87
514.95	47381.80
515.12	47004.98
515.29	47007.32
515.47	47643.94
515.64	47878.00
515.81	47765.65
515.99	47835.87
516.16	48203.33
516.33	48006.73
516.51	48413.98
516.68	48140.14
516.85	48257.17
517.03	48399.94
517.20	48671.44
517.37	48966.35
517.54	48783.79
517.72	48676.12
517.89	49036.56
518.06	48928.90
518.24	49146.57
518.41	48811.87
518.58	48685.48
518.75	49069.33
518.93	49265.94
519.10	49010.82
519.27	49457.86
519.45	49422.75
519.62	49844.05
519.79	49755.11
519.96	49687.23
520.14	49720.00
520.31	49944.69
520.48	50239.60
520.65	49996.18
520.83	50255.98
521.00	50576.64
521.17	49937.67
521.34	50700.68
521.52	50501.74
521.69	50513.44
521.86	50733.45
522.03	51030.70
522.20	50993.25
522.38	51222.62
522.55	51047.08
522.72	51213.26
522.89	51068.15
523.07	51332.63
523.24	51152.41
523.41	51657.96
523.58	51096.24
523.75	51636.90
523.92	51613.49
524.10	51749.24
524.27	52055.85
524.44	51711.80
524.61	51791.37
524.78	52090.96
524.96	51723.50
525.13	51936.49
525.30	52126.07
525.47	52362.46
525.64	52119.05
525.81	52158.84
525.98	52425.66
526.16	52416.30
526.33	52327.36
526.50	52942.92
526.67	52451.41
526.84	52346.08
527.01	52622.26
527.18	52697.16
527.36	52779.08
527.53	52872.70
527.70	53183.99
527.87	53048.24
528.04	52715.89
528.21	53158.25
528.38	53261.23
528.55	53296.34
528.72	53361.87
528.89	53279.96
529.07	53563.16
529.24	53420.39
529.41	53546.78
529.58	53614.65
529.75	53399.32
529.92	53315.06
530.09	53525.71
530.26	53631.04
530.43	53874.45
530.60	53790.19
530.77	53734.02
530.94	53815.94
531.11	53689.55
531.28	53822.96
531.46	53907.22
531.63	53757.42
531.80	53841.68
531.97	54096.80
532.14	54138.93
532.31	54293.41
532.48	54536.82
532.65	54258.30
532.82	54424.48
532.99	54494.69
533.16	54480.65
533.33	54707.68
533.50	54756.83
533.67	54543.84
533.84	54609.38
534.01	54773.22
534.18	54864.50
534.35	54995.57
534.52	55002.59
534.69	55000.25
534.86	55112.59
535.03	54616.40
535.20	55044.72
535.37	55271.75
535.54	55330.26
535.71	55117.28
535.88	55517.51
536.05	55192.17
536.22	55576.02
536.38	55367.71
536.55	55604.11
536.72	55386.44
536.89	55206.22
537.06	55449.63
537.23	55501.12
537.40	55475.38
537.57	55529.21
537.74	55515.17
537.91	55728.16
538.08	55817.10
538.25	55831.14
538.42	55777.31
538.59	55924.76
538.75	55756.24
538.92	56030.08
539.09	55875.61
539.26	55884.97
539.43	56048.81
539.60	56006.68
539.77	56011.36
539.94	56268.82
540.11	56156.47
540.28	56158.81
540.44	56390.53
540.61	56142.43
540.78	56219.67
540.95	56301.59
541.12	56067.53
541.29	56420.95
541.46	56446.70
541.62	56245.41
541.79	56509.89
541.96	56322.65
542.13	56470.11
542.30	56427.98
542.47	56741.61
542.63	56725.22
542.80	56776.72
542.97	56978.00
543.14	57151.20
543.31	57158.22
543.48	57137.16
543.64	57324.40
543.81	57226.10
543.98	56928.85
544.15	57165.24
544.32	57078.64
544.48	57347.81
544.65	57148.86
544.82	57127.80
544.99	57076.30
545.16	57155.88
545.32	57132.48
545.49	57705.91
545.66	57757.40
545.83	57448.45
546.00	57539.73
546.16	57471.85
546.33	57361.85
546.50	57130.14
546.67	57605.26
546.83	57244.82
547.00	57598.24
547.17	57478.88
547.34	57528.03
547.50	57670.80
547.67	57858.04
547.84	57862.72
548.00	57949.32
548.17	58120.18
548.34	57836.98
548.51	57979.75
548.67	58073.37
548.84	57968.05
549.01	57855.70
549.18	57932.94
549.34	57860.38
549.51	58047.63
549.68	58120.18
549.84	57998.48
550.01	58206.78
550.18	58108.48
550.34	58298.06
550.51	58248.91
550.68	58251.25
550.84	58159.97
551.01	58354.24
551.18	58293.38
551.34	58379.98
551.51	58277.00
551.68	58492.33
551.84	58461.90
552.01	58286.36
552.18	58473.60
552.34	58354.24
552.51	58628.08
552.68	58543.82
552.84	58344.87
553.01	58639.78
553.18	58658.51
553.34	58855.11
553.51	58602.33
553.67	58541.48
553.84	58738.08
554.01	58754.47
554.17	58899.58
554.34	58834.05
554.51	58969.80
554.67	58845.75
554.84	58899.58
555.00	58784.90
555.17	58827.02
555.33	58852.77
555.50	58754.47
555.67	58702.98
555.83	58761.49
556.00	58887.88
556.16	58960.44
556.33	58953.41
556.50	58913.62
556.66	59393.43
556.83	59140.66
556.99	59465.99
557.16	59047.04
557.32	59334.92
557.49	59693.02
557.65	59135.98
557.82	59407.48
557.98	59234.28
558.15	59295.13
558.32	59217.89
558.48	59121.93
558.65	59196.83
558.81	59355.99
558.98	59229.60
559.14	59283.43
559.31	59388.75
559.47	59503.44
559.64	59480.03
559.80	59449.61
559.97	59285.77
560.13	59360.67
560.30	59578.34
560.46	59517.48
560.63	59667.28
560.79	59908.35
560.96	59543.23
561.12	59732.81
561.29	59716.43
561.45	59686.00
561.61	59547.91
561.78	59620.47
561.94	59718.77
562.11	59767.92
562.27	59627.49
562.44	59854.52
562.60	60027.72
562.77	59810.05
562.93	59592.38
563.10	60069.85
563.26	59840.48
563.42	60013.68
563.59	59955.16
563.75	60200.92
563.92	59796.01
564.08	59777.28
564.24	60065.17
564.41	59943.46
564.57	59985.59
564.74	60011.34
564.90	60137.72
565.07	59812.39
565.23	59962.18
565.39	59936.44
565.56	60018.36
565.72	59660.26
565.88	59805.37
566.05	59882.61
566.21	59826.43
566.38	59976.23
566.54	60271.14
566.70	60097.94
566.87	60273.48
567.03	60097.94
567.19	60320.29
567.36	60163.47
567.52	60268.79
567.68	60292.20
567.85	60306.24
568.01	60058.15
568.17	60009.00
568.34	60296.88
568.50	60205.60
568.66	60032.40
568.83	60364.76
568.99	59962.18
569.15	60299.22
569.32	60285.18
569.48	60282.84
569.64	60308.58
569.81	60161.13
569.97	60245.39
570.13	60460.72
570.30	59875.58
570.46	60336.67
570.62	60179.85
570.78	60231.35
570.95	60168.15
571.11	60395.18
571.27	60301.56
571.43	60334.33
571.60	60608.17
571.76	60554.34
571.92	60561.36
572.09	60385.82
572.25	60331.99
572.41	60444.33
572.57	60451.36
572.74	60563.70
572.90	60399.86
573.06	60446.68
573.22	60584.77
573.38	60711.16
573.55	60296.88
573.71	60612.85
573.87	60535.62
574.03	60629.24
574.20	60570.72
574.36	60437.31
574.52	60638.60
574.68	60671.37
574.84	60720.52
575.01	60544.98
575.17	60706.47
575.33	60463.06
575.49	60275.82
575.65	60362.42
575.82	60631.58
575.98	60706.47
576.14	60783.71
576.30	60636.26
576.46	60474.76
576.62	60566.04
576.79	60643.28
576.95	60425.61
577.11	60570.72
577.27	60713.50
577.43	60514.55
577.59	60685.41
577.75	60636.26
577.92	60626.90
578.08	60526.25
578.24	60757.97
578.40	60828.18
578.56	60755.63
578.72	60701.79
578.88	60797.76
579.04	60713.50
579.21	60690.09
579.37	60814.14
579.53	60828.18
579.69	60577.75
579.85	60692.43
580.01	60711.16
580.17	60528.59
580.33	60659.66
580.49	60594.13
580.65	60912.44
580.82	60654.98
580.98	60786.05
581.14	60736.90
581.30	60769.67
581.46	60793.07
581.62	60647.96
581.78	60652.64
581.94	60828.18
582.10	60678.39
582.26	60793.07
582.42	60720.52
582.58	60734.56
582.74	60697.11
582.90	60821.16
583.06	60774.35
583.22	60683.07
583.38	60924.14
583.54	60711.16
583.70	60865.63
583.86	60729.88
584.02	60697.11
584.18	60910.10
584.34	60921.80
584.50	60767.33
584.66	60601.15
584.82	60800.10
584.98	60802.44
585.14	60982.66
585.30	60725.20
585.46	60849.25
585.62	60842.23
585.78	60977.98
585.94	60891.38
586.10	60947.55
586.26	60687.75
586.42	61010.74
586.58	60968.61
586.74	60945.21
586.90	60931.17
587.06	60898.40
587.22	60889.04
587.38	61125.43
587.54	60926.49
587.70	61045.85
587.86	60917.12
588.02	60933.51
588.18	61120.75
588.34	60917.12
588.49	60989.68
