SpectraSuite Data File
++++++++++++++++++++++++++++++++++++
Date: Fri Oct 25 11:26:11 EDT 2013
User: price-jones
Dark Spectrum Present: No
Reference Spectrum Present: No
Number of Sampled Component Spectra: 1
Spectrometers: USB2+H05261
Integration Time (usec): 100000 (USB2+H05261)
Spectra Averaged: 1 (USB2+H05261)
Boxcar Smoothing: 0 (USB2+H05261)
Correct for Electrical Dark: No (USB2+H05261)
Strobe/Lamp Enabled: No (USB2+H05261)
Correct for Detector Non-linearity: No (USB2+H05261)
Correct for Stray Light: No (USB2+H05261)
Number of Pixels in Processed Spectrum: 2048
>>>>>Begin Processed Spectral Data<<<<<
365.73	255.12
365.92	255.12
366.12	255.12
366.32	173.20
366.52	184.90
366.72	217.67
366.91	140.43
367.11	180.22
367.31	86.60
367.51	117.03
367.70	154.48
367.90	166.18
368.10	131.07
368.30	159.16
368.49	98.30
368.69	147.45
368.89	203.63
369.09	168.52
369.28	170.86
369.48	227.03
369.68	217.67
369.87	229.37
370.07	227.03
370.27	266.82
370.47	341.72
370.66	624.92
370.86	667.05
371.06	702.16
371.25	671.73
371.45	695.14
371.65	662.37
371.84	753.65
372.04	681.10
372.24	751.31
372.44	674.07
372.63	732.59
372.83	763.01
373.03	786.42
373.22	685.78
373.42	770.04
373.62	772.38
373.81	812.17
374.01	851.96
374.21	746.63
374.40	772.38
374.60	851.96
374.79	774.72
374.99	870.68
375.19	844.93
375.38	830.89
375.58	779.40
375.78	854.30
375.97	882.38
376.17	854.30
376.37	849.61
376.56	952.60
376.76	873.02
376.95	950.26
377.15	983.02
377.35	844.93
377.54	868.34
377.74	851.96
377.93	866.00
378.13	931.53
378.33	875.36
378.52	894.08
378.72	959.62
378.91	940.90
379.11	917.49
379.31	1018.13
379.50	926.85
379.70	1008.77
379.89	922.17
380.09	891.74
380.28	990.05
380.48	1013.45
380.68	997.07
380.87	971.32
381.07	1001.75
381.26	1025.15
381.46	978.34
381.65	1071.97
381.85	1078.99
382.04	1004.09
382.24	1078.99
382.43	1090.69
382.63	1015.79
382.83	1153.88
383.02	1121.12
383.22	1097.71
383.41	1128.14
383.61	1095.37
383.80	1191.33
384.00	1081.33
384.19	1130.48
384.39	1179.63
384.58	1109.41
384.78	1137.50
384.97	1111.75
385.17	1196.01
385.36	1146.86
385.56	1151.54
385.75	1224.10
385.95	1172.61
386.14	1238.14
386.34	1181.97
386.53	1226.44
386.72	1219.42
386.92	1214.74
387.11	1174.95
387.31	1247.51
387.50	1247.51
387.70	1284.95
387.89	1266.23
388.09	1256.87
388.28	1259.21
388.48	1296.66
388.67	1350.49
388.86	1273.25
389.06	1362.19
389.25	1366.87
389.45	1350.49
389.64	1313.04
389.84	1348.15
390.03	1308.36
390.22	1439.43
390.42	1399.64
390.61	1430.07
390.81	1432.41
391.00	1336.45
391.19	1418.36
391.39	1348.15
391.58	1404.32
391.78	1437.09
391.97	1528.37
392.16	1404.32
392.36	1558.80
392.55	1519.01
392.75	1483.90
392.94	1500.28
393.13	1549.43
393.33	1591.56
393.52	1586.88
393.71	1657.10
393.91	1575.18
394.10	1533.05
394.29	1614.97
394.49	1540.07
394.68	1612.63
394.88	1603.27
395.07	1657.10
395.26	1603.27
395.46	1598.59
395.65	1706.25
395.84	1710.93
396.04	1771.79
396.23	1771.79
396.42	1776.47
396.62	1720.29
396.81	1774.13
397.00	1799.87
397.19	1746.04
397.39	1771.79
397.58	1886.47
397.77	1877.11
397.97	1837.32
398.16	1846.68
398.35	1909.88
398.55	1804.55
398.74	1898.17
398.93	1991.80
399.12	1867.75
399.32	1858.39
399.51	1987.11
399.70	2033.93
399.90	1940.30
400.09	1989.46
400.28	2115.84
400.47	1947.33
400.67	2054.99
400.86	2029.24
401.05	2071.37
401.24	2113.50
401.44	2214.15
401.63	2267.98
401.82	2153.29
402.01	2223.51
402.21	2272.66
402.40	2157.97
402.59	2153.29
402.78	2260.96
402.97	2296.07
403.17	2232.87
403.36	2300.75
403.55	2270.32
403.74	2258.62
403.93	2370.96
404.13	2317.13
404.32	2305.43
404.51	2415.43
404.70	2497.35
404.89	2457.56
405.09	2502.03
405.28	2548.84
405.47	2427.14
405.66	2476.29
405.85	2541.82
406.05	2551.18
406.24	2595.65
406.43	2527.78
406.62	2616.72
406.81	2703.32
407.00	2551.18
407.20	2497.35
407.39	2630.76
407.58	2708.00
407.77	2813.32
407.96	2555.86
408.15	2710.34
408.34	2768.85
408.54	2724.38
408.73	2822.69
408.92	2834.39
409.11	2843.75
409.30	2787.58
409.49	2871.84
409.68	2876.52
409.87	2864.82
410.07	2988.86
410.26	3054.40
410.45	2984.18
410.64	3049.72
410.83	3087.17
411.02	3101.21
411.21	3000.57
411.40	3208.87
411.59	3164.40
411.78	3141.00
411.98	3225.26
412.17	3229.94
412.36	3164.40
412.55	3286.11
412.74	3459.31
412.93	3461.65
413.12	3510.80
413.31	3562.30
413.50	3454.63
413.69	3534.21
413.88	3522.51
414.07	3637.19
414.26	3637.19
414.45	3637.19
414.64	3665.28
414.83	3749.54
415.02	3620.81
415.22	3798.69
415.41	3707.41
415.60	3756.56
415.79	3882.95
415.98	4042.11
416.17	3964.87
416.36	4018.70
416.55	3911.04
416.74	4194.24
416.93	4018.70
417.12	4175.52
417.31	3983.59
417.50	4264.46
417.69	4393.19
417.88	4229.35
418.07	4208.28
418.26	4365.10
418.45	4243.39
418.64	4482.13
418.83	4299.56
419.02	4409.57
419.21	4533.62
419.39	4482.13
419.58	4388.50
419.77	4430.63
419.96	4571.07
420.15	4643.62
420.34	4641.28
420.53	4615.54
420.72	4758.31
420.91	4683.41
421.10	4858.95
421.29	4762.99
421.48	4617.88
421.67	4835.55
421.86	4657.67
422.05	4685.75
422.24	4814.48
422.43	4964.28
422.61	4779.37
422.80	4896.40
422.99	4992.36
423.18	4873.00
423.37	5046.20
423.56	4917.47
423.75	4959.60
423.94	4847.25
424.13	4566.39
424.32	4667.03
424.50	4954.91
424.69	4961.94
424.88	5060.24
425.07	4924.49
425.26	5053.22
425.45	4819.16
425.64	4985.34
425.83	5095.35
426.01	5043.85
426.20	5076.62
426.39	5034.49
426.58	5109.39
426.77	4985.34
426.96	5116.41
427.15	5039.17
427.33	5203.01
427.52	5153.86
427.71	5289.61
427.90	5275.57
428.09	5277.91
428.28	5348.12
428.46	5245.14
428.65	5249.82
428.84	5617.29
429.03	5579.84
429.22	5350.46
429.40	5441.75
429.59	5453.45
429.78	5406.64
429.97	5245.14
430.16	5476.85
430.34	5446.43
430.53	5736.65
430.72	5554.09
430.91	5596.22
431.10	5626.65
431.28	5706.23
431.47	5774.10
431.66	5834.96
431.85	5729.63
432.03	5699.20
432.22	5914.53
432.41	5844.32
432.60	5970.71
432.79	5984.75
432.97	5902.83
433.16	5961.34
433.35	5933.26
433.54	6010.50
433.72	6146.25
433.91	6118.16
434.10	6064.33
434.28	6078.37
434.47	6012.84
434.66	6209.44
434.85	6207.10
435.03	6375.62
435.22	6274.98
435.41	6401.37
435.59	6335.83
435.78	6244.55
435.97	6576.91
436.16	6452.86
436.34	6389.66
436.53	6504.35
436.72	6619.04
436.90	6546.48
437.09	6555.84
437.28	6363.92
437.46	6541.80
437.65	6558.18
437.84	6789.89
438.02	6609.67
438.21	6857.77
438.40	6644.78
438.58	6888.20
438.77	7178.42
438.96	7040.33
439.14	7150.34
439.33	7105.87
439.52	7218.21
439.70	7166.72
439.89	7227.57
440.08	7288.43
440.26	7368.01
440.45	7424.18
440.63	7653.55
440.82	7393.75
441.01	7470.99
441.19	7700.36
441.38	7836.11
441.57	7808.03
441.75	7735.47
441.94	7803.35
442.12	7934.42
442.31	7892.29
442.50	7920.37
442.68	8051.44
442.87	8060.80
443.05	8070.17
443.24	8070.17
443.43	8030.38
443.61	8189.53
443.80	8318.26
443.98	8084.21
444.17	7885.26
444.35	8201.24
444.54	8194.22
444.73	8264.43
444.91	8294.86
445.10	8311.24
445.28	8262.09
445.47	8374.44
445.65	8285.50
445.84	8400.18
446.02	8374.44
446.21	8348.69
446.39	8564.02
446.58	8482.10
446.77	8252.73
446.95	8196.56
447.14	8386.14
447.32	8510.19
447.51	8535.93
447.69	8643.60
447.88	8557.00
448.06	8383.80
448.25	8386.14
448.43	8545.30
448.62	8575.72
448.80	8582.74
448.99	8617.85
449.17	8430.61
449.36	8369.76
449.54	8744.24
449.73	8912.76
449.91	9118.73
450.10	8737.22
450.28	9048.51
450.46	9034.47
450.65	9128.09
450.83	8994.68
451.02	9043.83
451.20	9291.93
451.39	9238.09
451.57	9050.85
451.76	9156.18
451.94	9128.09
452.13	9507.26
452.31	9362.14
452.49	9195.96
452.68	9327.03
452.86	9507.26
453.05	9364.48
453.23	9549.39
453.42	9561.09
453.60	9188.94
453.78	9628.96
453.97	9764.72
454.15	9455.76
454.34	9664.07
454.52	9769.40
454.70	9722.59
454.89	9703.86
455.07	9621.94
455.26	9701.52
455.44	9856.00
455.62	10017.49
455.81	9956.64
455.99	9949.62
456.17	9933.23
456.36	9884.08
456.54	10076.01
456.73	10340.49
456.91	10387.30
457.09	10286.65
457.28	10441.13
457.46	10164.95
457.64	10583.90
457.83	10319.42
458.01	10441.13
458.19	10600.29
458.38	10434.11
458.56	10864.77
458.74	10780.51
458.93	10684.55
459.11	10642.42
459.29	10530.07
459.48	10703.27
459.66	10932.64
459.84	10927.96
460.03	10890.51
460.21	10909.24
460.39	10998.18
460.57	10860.09
460.76	11035.63
460.94	11197.12
461.12	11133.93
461.31	11241.59
461.49	11119.89
461.67	11159.67
461.85	11316.49
462.04	11250.96
462.22	11779.92
462.40	11391.39
462.59	11590.33
462.77	11438.20
462.95	11665.23
463.13	11653.53
463.32	11641.82
463.50	11779.92
463.68	11913.33
463.86	11817.36
464.05	11735.45
464.23	11927.37
464.41	11805.66
464.59	11812.68
464.78	12203.55
464.96	11899.28
465.14	11667.57
465.32	11906.31
465.50	11824.39
465.69	12079.50
465.87	11953.12
466.05	12198.87
466.23	12219.94
466.41	12133.34
466.60	12437.61
466.78	12100.57
466.96	11868.86
467.14	12453.99
467.32	12280.79
467.51	12482.08
467.69	12264.41
467.87	12423.56
468.05	12624.85
468.23	12367.39
468.41	12322.92
468.60	12821.45
468.78	12793.37
468.96	12510.16
469.14	12886.99
469.32	12784.01
469.50	12638.89
469.69	12875.29
469.87	13029.76
470.05	13083.59
470.23	12933.80
470.41	13006.36
470.59	13322.33
470.77	13324.67
470.95	13090.62
471.14	13638.30
471.32	13163.17
471.50	13390.20
471.68	13532.98
471.86	13600.85
472.04	13528.30
472.22	13891.08
472.40	13364.46
472.58	13788.10
472.77	13806.82
472.95	14195.35
473.13	14630.69
473.31	14211.73
473.49	14143.86
473.67	13994.06
473.85	14171.94
474.03	14628.35
474.21	14443.45
474.39	14684.52
474.57	14609.62
474.75	14658.78
474.93	15201.78
475.12	14937.30
475.30	15073.05
475.48	14988.79
475.66	15197.10
475.84	15112.84
476.02	15442.85
476.20	15543.50
476.38	15833.72
476.56	15674.57
476.74	16154.38
476.92	15667.55
477.10	15726.06
477.28	16259.70
477.46	16163.74
477.64	16248.00
477.82	16783.98
478.00	16669.30
478.18	16788.66
478.36	16854.20
478.54	17083.57
478.72	17371.46
478.90	17500.19
479.08	17156.13
479.26	17511.89
479.44	17785.73
479.62	17654.66
479.80	17902.76
479.98	18270.22
480.16	18511.30
480.34	18242.14
480.52	18670.45
480.70	18375.55
480.88	18588.53
481.06	18668.11
481.24	18853.02
481.41	18841.31
481.59	19358.57
481.77	19232.18
481.95	19548.15
482.13	19585.60
482.31	19325.80
482.49	20102.86
482.67	20016.26
482.85	20276.06
483.03	20257.34
483.21	20783.96
483.39	20915.03
483.57	20762.89
483.74	21277.81
483.92	21298.88
484.10	20961.84
484.28	21612.51
484.46	21701.45
484.64	22429.35
484.82	21834.86
485.00	22057.21
485.18	22689.15
485.35	22794.48
485.53	23073.00
485.71	22857.67
485.89	23356.21
486.07	23094.07
486.25	23030.87
486.43	23417.06
486.61	23676.86
486.78	24091.13
486.96	24147.31
487.14	24435.19
487.32	24755.85
487.50	24821.38
487.68	24711.38
487.85	25202.89
488.03	25418.22
488.21	25743.55
488.39	25310.55
488.57	26129.74
488.75	25979.95
488.92	26235.06
489.10	26665.72
489.28	26761.69
489.46	27150.21
489.64	26916.16
489.81	27232.13
489.99	27571.51
490.17	27697.90
490.35	28224.52
490.53	28210.48
490.70	28521.77
490.88	27922.59
491.06	28613.05
491.24	28723.05
491.41	28797.95
491.59	29235.63
491.77	29156.05
491.95	29633.52
492.13	30092.27
492.30	29989.28
492.48	29968.22
492.66	30132.06
492.84	30012.69
493.01	30553.35
493.19	30686.76
493.37	30923.16
493.54	31234.45
493.72	30955.93
493.90	31353.82
494.08	31597.23
494.25	31821.92
494.43	31789.16
494.61	32467.91
494.79	32360.25
494.96	32409.40
495.14	32769.84
495.32	32861.12
495.49	33282.42
495.67	32900.91
495.85	33249.65
496.02	33565.62
496.20	34171.82
496.38	34153.10
496.55	34082.88
496.73	34572.05
496.91	34345.02
497.09	34586.10
497.26	34604.82
497.44	35030.80
497.62	35196.98
497.79	35536.35
497.97	35309.32
498.14	35571.46
498.32	36032.55
498.50	35992.76
498.67	36102.76
498.85	35988.08
499.03	36584.91
499.20	36135.53
499.38	37017.91
499.56	36613.00
499.73	37109.19
499.91	36985.15
500.08	37823.06
500.26	36917.27
500.44	37296.44
500.61	37830.08
500.79	37376.01
500.97	38209.25
501.14	38476.07
501.32	38120.31
501.49	38490.11
501.67	38672.67
501.84	39002.69
502.02	38871.62
502.20	38918.43
502.37	39241.42
502.55	38770.97
502.72	39337.38
502.90	39805.49
503.07	39154.82
503.25	39725.91
503.43	39728.25
503.60	39852.30
503.78	40170.61
503.95	40084.01
504.13	40786.18
504.30	40233.81
504.48	40329.77
504.65	40381.26
504.83	40666.81
505.01	40978.10
505.18	41441.53
505.36	41209.81
505.53	41020.23
505.71	41420.46
505.88	41577.28
506.06	41010.87
506.23	41570.25
506.41	41572.60
506.58	41996.23
506.76	41677.92
506.93	42272.42
507.11	42356.67
507.28	42520.51
507.46	42466.68
507.63	42803.72
507.81	43068.20
507.98	42792.01
508.16	42728.82
508.33	43187.56
508.50	43423.96
508.68	43608.86
508.85	43941.22
509.03	43674.40
509.20	43852.28
509.38	44102.71
509.55	43992.71
509.73	44362.51
509.90	44818.92
510.08	44254.85
510.25	43948.24
510.42	44938.29
510.60	44842.32
510.77	45261.28
510.95	45305.75
511.12	45193.40
511.30	45099.78
511.47	45675.55
511.64	45338.52
511.82	45911.95
511.99	45186.38
512.17	45787.90
512.34	45876.84
512.51	46316.86
512.69	46770.93
512.86	46185.79
513.04	46436.23
513.21	46267.71
513.38	46394.10
513.56	46583.68
513.73	46803.69
513.90	46689.01
514.08	46497.08
514.25	47173.50
514.43	47248.39
514.60	47054.13
514.77	47206.26
514.95	47690.76
515.12	47468.40
515.29	47281.16
515.47	47632.24
515.64	47868.64
515.81	47533.94
515.99	48016.09
516.16	48617.61
516.33	47966.94
516.51	48364.83
516.68	48112.05
516.85	48119.07
517.03	48765.06
517.20	48374.19
517.37	48701.87
517.54	48746.34
517.72	48376.53
517.89	49013.16
518.06	49116.14
518.24	49202.74
518.41	49258.91
518.58	49308.07
518.75	49233.17
518.93	49427.43
519.10	49471.90
519.27	49666.17
519.45	49624.04
519.62	49769.15
519.79	49640.42
519.96	49869.79
520.14	49876.82
520.31	49610.00
520.48	49839.37
520.65	50415.14
520.83	50576.64
521.00	50618.77
521.17	50370.67
521.34	50497.06
521.52	51107.94
521.69	50639.83
521.86	50873.88
522.03	51084.53
522.20	50993.25
522.38	51400.50
522.55	51466.04
522.72	51271.78
522.89	50969.85
523.07	51489.45
523.24	51372.42
523.41	51744.56
523.58	51470.72
523.75	51615.83
523.92	51405.19
524.10	51746.90
524.27	51915.42
524.44	52004.36
524.61	51938.83
524.78	52041.81
524.96	51910.74
525.13	52130.75
525.30	52425.66
525.47	52474.81
525.64	52240.76
525.81	52327.36
525.98	52217.35
526.16	52285.23
526.33	52750.99
526.50	53017.82
526.67	52727.59
526.84	52552.05
527.01	52727.59
527.18	52762.70
527.36	53003.77
527.53	52949.94
527.70	53446.13
527.87	53429.75
528.04	52828.23
528.21	53202.72
528.38	53158.25
528.55	53200.38
528.72	53418.05
528.89	53539.75
529.07	53174.63
529.24	53439.11
529.41	53514.01
529.58	53521.03
529.75	53631.04
529.92	53535.07
530.09	53612.31
530.26	53902.54
530.43	53710.61
530.60	53628.69
530.77	53766.79
530.94	53984.46
531.11	53745.72
531.28	53886.15
531.46	54265.32
531.63	54160.00
531.80	53937.65
531.97	54277.02
532.14	54356.60
532.31	54019.56
532.48	54550.87
532.65	54471.29
532.82	54335.54
532.99	54506.40
533.16	54501.71
533.33	54869.18
533.50	54829.39
533.67	54688.96
533.84	54646.83
534.01	55037.70
534.18	54726.41
534.35	55063.44
534.52	54913.65
534.69	55257.71
534.86	55110.25
535.03	54803.64
535.20	55030.68
535.37	55238.98
535.54	55391.12
535.71	55393.46
535.88	55262.39
536.05	55337.29
536.22	55306.86
536.38	55508.14
536.55	55435.59
536.72	55515.17
536.89	55519.85
537.06	55407.50
537.23	55590.06
537.40	55566.66
537.57	55473.04
537.74	55569.00
537.91	55817.10
538.08	55590.06
538.25	55674.32
538.42	55866.25
538.59	56130.73
538.75	55721.13
538.92	55730.50
539.09	55941.14
539.26	56104.98
539.43	56116.68
539.60	56252.44
539.77	56039.45
539.94	56420.95
540.11	56374.14
540.28	56126.05
540.44	56324.99
540.61	56273.50
540.78	56392.87
540.95	56418.61
541.12	56278.18
541.29	56324.99
541.46	56530.96
541.62	56439.68
541.79	56477.13
541.96	56292.22
542.13	56395.21
542.30	56437.34
542.47	56715.86
542.63	56783.74
542.80	56708.84
542.97	57066.94
543.14	57155.88
543.31	57148.86
543.48	56914.81
543.64	57265.89
543.81	57228.44
543.98	57176.95
544.15	57378.23
544.32	57394.62
544.48	57293.97
544.65	57331.42
544.82	57277.59
544.99	57066.94
545.16	57233.12
545.32	57275.25
545.49	57638.03
545.66	57506.96
545.83	57682.50
546.00	57715.27
546.16	57544.41
546.33	57539.73
546.50	57073.96
546.67	57453.13
546.83	56996.73
547.00	57797.19
547.17	57572.50
547.34	57621.65
547.50	57593.56
547.67	57846.34
547.84	57673.14
548.00	58052.31
548.17	58192.74
548.34	57968.05
548.51	58110.82
548.67	58188.06
548.84	57970.39
549.01	58003.16
549.18	57939.96
549.34	58078.05
549.51	58192.74
549.68	58440.84
549.84	58141.25
550.01	58508.71
550.18	58155.29
550.34	58230.19
550.51	58288.70
550.68	58391.68
550.84	58169.33
551.01	58415.09
551.18	58431.47
551.34	58319.13
551.51	58461.90
551.68	58410.41
551.84	58501.69
552.01	58225.51
552.18	58674.89
552.34	58541.48
552.51	58712.34
552.68	58459.56
552.84	58492.33
553.01	58953.41
553.18	58480.63
553.34	58798.94
553.51	58644.46
553.67	58749.79
553.84	58908.94
554.01	58684.25
554.17	59037.67
554.34	58848.09
554.51	59082.14
554.67	58976.82
554.84	58784.90
555.00	58852.77
555.17	58967.46
555.33	58897.24
555.50	58845.75
555.67	58805.96
555.83	58782.55
556.00	59044.69
556.16	59070.44
556.33	59248.32
556.50	59150.02
556.66	59442.59
556.83	59187.47
556.99	59325.56
557.16	59475.35
557.32	59449.61
557.49	59578.34
557.65	59161.72
557.82	59386.41
557.98	59316.20
558.15	59194.49
558.32	59517.48
558.48	59309.18
558.65	59302.15
558.81	59341.94
558.98	59496.42
559.14	59480.03
559.31	59718.77
559.47	59571.32
559.64	59554.93
559.80	59461.31
559.97	59629.83
560.13	59526.84
560.30	59585.36
560.46	59714.09
560.63	59784.30
560.79	59707.07
560.96	59760.90
561.12	59648.55
561.29	59957.50
561.45	59824.09
561.61	59667.28
561.78	59770.26
561.94	59599.40
562.11	59767.92
562.27	59877.93
562.44	59969.21
562.60	60020.70
562.77	60104.96
562.93	59573.66
563.10	60062.83
563.26	59838.14
563.42	60013.68
563.59	59976.23
563.75	59676.64
563.92	59746.86
564.08	59676.64
564.24	59997.29
564.41	59901.33
564.57	59999.63
564.74	59980.91
564.90	60074.53
565.07	59896.65
565.23	60067.51
565.39	59990.27
565.56	60191.56
565.72	60058.15
565.88	59983.25
566.05	60097.94
566.21	60069.85
566.38	60037.08
566.54	60252.41
566.70	60264.11
566.87	60261.77
567.03	59999.63
567.19	60261.77
567.36	60266.45
567.52	60214.96
567.68	60425.61
567.85	60376.46
568.01	60287.52
568.17	60198.58
568.34	60561.36
568.50	60329.65
568.66	60158.79
568.83	60341.35
568.99	60294.54
569.15	60198.58
569.32	60268.79
569.48	60200.92
569.64	60306.24
569.81	60205.60
569.97	60020.70
570.13	60474.76
570.30	60437.31
570.46	60530.93
570.62	60395.18
570.78	60453.70
570.95	60339.01
571.11	60493.49
571.27	60259.43
571.43	60535.62
571.60	60512.21
571.76	60479.44
571.92	60472.42
572.09	60441.99
572.25	60580.09
572.41	60477.10
572.57	60392.84
572.74	60694.77
572.90	60339.01
573.06	60460.72
573.22	60479.44
573.38	60662.00
573.55	60589.45
573.71	60811.80
573.87	60474.76
574.03	60481.78
574.20	60647.96
574.36	60500.51
574.52	60519.23
574.68	60739.24
574.84	60666.69
575.01	60694.77
575.17	60678.39
575.33	60406.89
575.49	60369.44
575.65	60582.43
575.82	60835.20
575.98	60729.88
576.14	60889.04
576.30	60638.60
576.46	60523.91
576.62	60692.43
576.79	60676.05
576.95	60598.81
577.11	60683.07
577.27	60713.50
577.43	60547.32
577.59	60570.72
577.75	60657.32
577.92	60608.17
578.08	60654.98
578.24	60760.31
578.40	60968.61
578.56	60757.97
578.72	60830.52
578.88	60776.69
579.04	60912.44
579.21	60774.35
579.37	60774.35
579.53	60790.73
579.69	60549.66
579.85	60577.75
580.01	60860.95
580.17	60533.28
580.33	60807.12
580.49	60989.68
580.65	60919.46
580.82	60781.37
580.98	60764.99
581.14	60708.82
581.30	61010.74
581.46	60652.64
581.62	60760.31
581.78	60706.47
581.94	60837.54
582.10	60736.90
582.26	60807.12
582.42	60921.80
582.58	60893.72
582.74	60856.27
582.90	60767.33
583.06	60793.07
583.22	60570.72
583.38	60776.69
583.54	60954.57
583.70	60931.17
583.86	61090.32
584.02	60961.59
584.18	61073.94
584.34	60743.92
584.50	60734.56
584.66	60844.57
584.82	60734.56
584.98	60893.72
585.14	60947.55
585.30	60729.88
585.46	61146.50
585.62	60811.80
585.78	60954.57
585.94	60722.86
586.10	60917.12
586.26	60977.98
586.42	61022.45
586.58	60928.83
586.74	60896.06
586.90	61038.83
587.06	60910.10
587.22	61029.47
587.38	61036.49
587.54	60926.49
587.70	61064.58
587.86	60807.12
588.02	60842.23
588.18	61207.35
588.34	60879.67
588.49	60975.64
