SpectraSuite Data File
++++++++++++++++++++++++++++++++++++
Date: Fri Oct 25 11:33:29 EDT 2013
User: price-jones
Dark Spectrum Present: No
Reference Spectrum Present: No
Number of Sampled Component Spectra: 1
Spectrometers: USB2+H05261
Integration Time (usec): 100000 (USB2+H05261)
Spectra Averaged: 1 (USB2+H05261)
Boxcar Smoothing: 0 (USB2+H05261)
Correct for Electrical Dark: No (USB2+H05261)
Strobe/Lamp Enabled: No (USB2+H05261)
Correct for Detector Non-linearity: No (USB2+H05261)
Correct for Stray Light: No (USB2+H05261)
Number of Pixels in Processed Spectrum: 2048
>>>>>Begin Processed Spectral Data<<<<<
365.73	304.27
365.92	304.27
366.12	304.27
366.32	231.71
366.52	222.35
366.72	196.60
366.91	245.76
367.11	149.79
367.31	145.11
367.51	170.86
367.70	182.56
367.90	166.18
368.10	182.56
368.30	168.52
368.49	180.22
368.69	198.95
368.89	198.95
369.09	194.26
369.28	220.01
369.48	245.76
369.68	266.82
369.87	318.31
370.07	210.65
370.27	318.31
370.47	294.91
370.66	416.62
370.86	557.05
371.06	451.72
371.25	507.90
371.45	624.92
371.65	662.37
371.84	547.69
372.04	566.41
372.24	493.85
372.44	573.43
372.63	629.60
372.83	648.33
373.03	610.88
373.22	608.54
373.42	564.07
373.62	629.60
373.81	627.26
374.01	702.16
374.21	688.12
374.40	690.46
374.60	627.26
374.79	613.22
374.99	571.09
375.19	622.58
375.38	685.78
375.58	650.67
375.78	674.07
375.97	692.80
376.17	676.41
376.37	622.58
376.56	711.52
376.76	692.80
376.95	662.37
377.15	746.63
377.35	660.03
377.54	753.65
377.74	645.99
377.93	650.67
378.13	674.07
378.33	737.27
378.52	573.43
378.72	641.31
378.91	704.50
379.11	706.84
379.31	622.58
379.50	706.84
379.70	662.37
379.89	727.91
380.09	732.59
380.28	802.80
380.48	706.84
380.68	767.70
380.87	669.39
381.07	709.18
381.26	805.14
381.46	760.67
381.65	800.46
381.85	751.31
382.04	793.44
382.24	795.78
382.43	713.86
382.63	725.57
382.83	868.34
383.02	784.08
383.22	802.80
383.41	767.70
383.61	763.01
383.80	807.48
384.00	734.93
384.19	828.55
384.39	765.36
384.58	748.97
384.78	753.65
384.97	870.68
385.17	751.31
385.36	837.91
385.56	788.76
385.75	786.42
385.95	809.83
386.14	875.36
386.34	830.89
386.53	849.61
386.72	851.96
386.92	894.08
387.11	957.28
387.31	901.11
387.50	922.17
387.70	866.00
387.89	938.55
388.09	894.08
388.28	861.32
388.48	1069.62
388.67	936.21
388.86	1081.33
389.06	882.38
389.25	945.58
389.45	947.92
389.64	961.96
389.84	961.96
390.03	971.32
390.22	940.90
390.42	961.96
390.61	954.94
390.81	987.71
391.00	976.00
391.19	943.24
391.39	994.73
391.58	1032.18
391.78	968.98
391.97	1064.94
392.16	971.32
392.36	1102.39
392.55	1128.14
392.75	1001.75
392.94	1020.47
393.13	1064.94
393.33	1043.88
393.52	1071.97
393.71	1125.80
393.91	1086.01
394.10	980.68
394.29	1100.05
394.49	1081.33
394.68	997.07
394.88	1163.25
395.07	1114.10
395.26	1207.72
395.46	1116.44
395.65	1212.40
395.84	1153.88
396.04	1188.99
396.23	1179.63
396.42	1289.64
396.62	1306.02
396.81	1177.29
397.00	1198.35
397.19	1207.72
397.39	1160.91
397.58	1263.89
397.77	1170.27
397.97	1343.47
398.16	1284.95
398.35	1277.93
398.55	1238.14
398.74	1224.10
398.93	1362.19
399.12	1306.02
399.32	1303.68
399.51	1348.15
399.70	1357.51
399.90	1317.72
400.09	1401.98
400.28	1366.87
400.47	1334.11
400.67	1448.79
400.86	1467.52
401.05	1413.68
401.24	1488.58
401.44	1441.77
401.63	1509.65
401.82	1432.41
402.01	1514.33
402.21	1490.92
402.40	1514.33
402.59	1418.36
402.78	1453.47
402.97	1565.82
403.17	1570.50
403.36	1549.43
403.55	1535.39
403.74	1479.22
403.93	1535.39
404.13	1593.90
404.32	1682.85
404.51	1760.08
404.70	1689.87
404.89	1570.50
405.09	1678.16
405.28	1586.88
405.47	1682.85
405.66	1657.10
405.85	1755.40
406.05	1586.88
406.24	1664.12
406.43	1736.68
406.62	1818.60
406.81	1785.83
407.00	1769.44
407.20	1713.27
407.39	1778.81
407.58	1809.23
407.77	1912.22
407.96	1888.81
408.15	1851.36
408.34	1837.32
408.54	1865.41
408.73	1942.64
408.92	1893.49
409.11	1954.35
409.30	1959.03
409.49	2069.03
409.68	2036.27
409.87	1987.11
410.07	2202.44
410.26	1980.09
410.45	2052.65
410.64	2165.00
410.83	2111.16
411.02	2085.42
411.21	2314.79
411.40	2113.50
411.59	2143.93
411.78	2221.17
411.98	2253.94
412.17	2272.66
412.36	2310.11
412.55	2305.43
412.74	2373.30
412.93	2326.49
413.12	2345.22
413.31	2408.41
413.50	2373.30
413.69	2485.65
413.88	2417.77
414.07	2485.65
414.26	2441.18
414.45	2574.59
414.64	2492.67
414.83	2588.63
415.02	2644.81
415.22	2661.19
415.41	2712.68
415.60	2658.85
415.79	2752.47
415.98	2738.43
416.17	2686.94
416.36	2717.36
416.55	2682.25
416.74	2878.86
416.93	2665.87
417.12	2876.52
417.31	2782.90
417.50	2855.45
417.69	2871.84
417.88	2972.48
418.07	3023.97
418.26	3054.40
418.45	2967.80
418.64	3117.59
418.83	2953.76
419.02	3038.02
419.21	3173.77
419.39	3026.31
419.58	3180.79
419.77	3052.06
419.96	3133.98
420.15	3246.32
420.34	3089.51
420.53	3176.11
420.72	3232.28
420.91	3300.16
421.10	3173.77
421.29	3253.34
421.48	3166.74
421.67	3384.41
421.86	3314.20
422.05	3400.80
422.24	3213.56
422.43	3335.26
422.61	3447.61
422.80	3417.18
422.99	3283.77
423.18	3293.13
423.37	3361.01
423.56	3342.28
423.75	3426.54
423.94	3227.60
424.13	3274.41
424.32	3328.24
424.50	3485.06
424.69	3440.59
424.88	3407.82
425.07	3421.86
425.26	3318.88
425.45	3442.93
425.64	3396.12
425.83	3520.17
426.01	3398.46
426.20	3478.04
426.39	3440.59
426.58	3478.04
426.77	3557.61
426.96	3597.40
427.15	3527.19
427.33	3660.60
427.52	3524.85
427.71	3648.90
427.90	3674.64
428.09	3632.51
428.28	3669.96
428.46	3754.22
428.65	3576.34
428.84	3803.37
429.03	3714.43
429.22	3705.07
429.40	3665.28
429.59	3838.48
429.78	3775.28
429.97	3705.07
430.16	3772.94
430.34	3756.56
430.53	3920.40
430.72	3803.37
430.91	3878.27
431.10	3768.26
431.28	4002.32
431.47	3936.78
431.66	3906.35
431.85	3936.78
432.03	3990.61
432.22	4250.41
432.41	4117.00
432.60	4105.30
432.79	4102.96
432.97	4072.53
433.16	4168.49
433.35	4039.76
433.54	4128.70
433.72	4145.09
433.91	4301.90
434.10	4299.56
434.28	4173.18
434.47	4107.64
434.66	4322.97
434.85	4360.42
435.03	4292.54
435.22	4320.63
435.41	4458.72
435.59	4442.34
435.78	4414.25
435.97	4428.29
436.16	4393.19
436.34	4367.44
436.53	4454.04
436.72	4524.26
436.90	4362.76
437.09	4496.17
437.28	4360.42
437.46	4678.73
437.65	4596.81
437.84	4582.77
438.02	4681.07
438.21	4645.96
438.40	4552.34
438.58	4751.29
438.77	4770.01
438.96	4873.00
439.14	4940.87
439.33	4856.61
439.52	4849.59
439.70	5050.88
439.89	5090.67
440.08	5046.20
440.26	4975.98
440.45	5043.85
440.63	5050.88
440.82	5020.45
441.01	5046.20
441.19	5167.90
441.38	5289.61
441.57	5296.63
441.75	5247.48
441.94	5390.25
442.12	5345.78
442.31	5411.32
442.50	5352.81
442.68	5245.14
442.87	5474.51
443.05	5399.62
443.24	5589.20
443.43	5528.35
443.61	5654.73
443.80	5750.70
443.98	5472.17
444.17	5270.89
444.35	5563.45
444.54	5781.12
444.73	5526.00
444.91	5570.48
445.10	5647.71
445.28	5666.44
445.47	5720.27
445.65	5659.42
445.84	5724.95
446.02	5851.34
446.21	5593.88
446.39	5584.52
446.58	5678.14
446.77	5769.42
446.95	5486.22
447.14	5694.52
447.32	5813.89
447.51	5804.53
447.69	5823.25
447.88	5823.25
448.06	5706.23
448.25	5753.04
448.43	5846.66
448.62	5603.24
448.80	5717.93
448.99	5870.06
449.17	5738.99
449.36	5893.47
449.54	6038.58
449.73	6106.46
449.91	6076.03
450.10	6090.07
450.28	6153.27
450.46	5991.77
450.65	6186.04
450.83	6214.12
451.02	6174.33
451.20	6394.34
451.39	6286.68
451.57	6179.01
451.76	6335.83
451.94	6186.04
452.13	6345.19
452.31	6239.87
452.49	6164.97
452.68	6326.47
452.86	6251.57
453.05	6406.05
453.23	6408.39
453.42	6331.15
453.60	6380.30
453.78	6490.31
453.97	6448.18
454.15	6462.22
454.34	6370.94
454.52	6424.77
454.70	6443.49
454.89	6729.04
455.07	6686.91
455.26	6593.29
455.44	6729.04
455.62	6663.51
455.81	6796.92
455.99	6761.81
456.17	6722.02
456.36	6951.39
456.54	6759.47
456.73	6832.02
456.91	7080.12
457.09	7178.42
457.28	7101.19
457.46	6862.45
457.64	7124.59
457.83	7005.22
458.01	6972.46
458.19	7258.00
458.38	7173.74
458.56	7272.04
458.74	7173.74
458.93	7152.68
459.11	7199.49
459.29	7243.96
459.48	7398.43
459.66	7239.28
459.84	7159.70
460.03	7332.90
460.21	7529.50
460.39	7494.40
460.57	7356.30
460.76	7510.78
460.94	7669.94
461.12	7389.07
461.31	7679.30
461.49	7646.53
461.67	7449.93
461.85	7641.85
462.04	7529.50
462.22	7964.84
462.40	7854.84
462.59	7536.52
462.77	7843.14
462.95	7789.30
463.13	7700.36
463.32	7812.71
463.50	7803.35
463.68	7880.58
463.86	8147.40
464.05	7887.61
464.23	7662.91
464.41	7918.03
464.59	7765.90
464.78	8035.06
464.96	8102.93
465.14	8084.21
465.32	8109.96
465.50	8028.04
465.69	8140.38
465.87	8252.73
466.05	8070.17
466.23	8180.17
466.41	8154.43
466.60	8409.54
466.78	8292.52
466.96	8414.23
467.14	8290.18
467.32	8301.88
467.51	8219.96
467.69	8264.43
467.87	8526.57
468.05	8236.35
468.23	8287.84
468.41	8407.20
468.60	8421.25
468.78	8496.14
468.96	8133.36
469.14	8587.43
469.32	8692.75
469.50	8493.80
469.69	8737.22
469.87	8697.43
470.05	8858.93
470.23	8772.33
470.41	8807.44
470.59	8865.95
470.77	8847.22
470.95	8807.44
471.14	9069.58
471.32	8702.11
471.50	9153.84
471.68	9191.28
471.86	9170.22
472.04	9207.67
472.22	9577.47
472.40	9165.54
472.58	9142.13
472.77	9423.00
472.95	9289.59
473.13	9626.62
473.31	9507.26
473.49	9547.05
473.67	9184.26
473.85	9355.12
474.03	9902.81
474.21	9818.55
474.39	10052.60
474.57	9603.22
474.75	9975.36
474.93	9886.42
475.12	9792.80
475.30	9898.13
475.48	9937.91
475.66	10150.90
475.84	10071.33
476.02	10197.71
476.20	10312.40
476.38	10176.65
476.56	10523.05
476.74	10565.18
476.92	10626.03
477.10	10377.94
477.28	10640.08
477.46	10623.69
477.64	10984.13
477.82	11019.24
478.00	11276.70
478.18	11239.25
478.36	11398.41
478.54	11236.91
478.72	11508.41
478.90	11590.33
479.08	11534.16
479.26	11445.22
479.44	11587.99
479.62	11829.07
479.80	11709.70
479.98	11964.82
480.16	12430.59
480.34	12109.93
480.52	12159.08
480.70	12152.06
480.88	12056.10
481.06	12266.75
481.24	12437.61
481.41	12564.00
481.59	12613.15
481.77	12959.55
481.95	12795.71
482.13	13036.78
482.31	13109.34
482.49	13537.66
482.67	13207.64
482.85	13371.48
483.03	13701.50
483.21	13696.82
483.39	13958.96
483.57	13792.78
483.74	14052.58
483.92	13898.10
484.10	14005.77
484.28	14366.21
484.46	14466.85
484.64	14602.60
484.82	14427.06
485.00	14670.48
485.18	14808.57
485.35	15136.24
485.53	14813.25
485.71	14946.66
485.89	15302.42
486.07	15087.09
486.25	15466.26
486.43	15527.11
486.61	15917.98
486.78	15859.47
486.96	15681.59
487.14	16156.72
487.32	16205.87
487.50	16203.53
487.68	16358.00
487.85	16526.52
488.03	16844.84
488.21	16807.39
488.39	17165.49
488.57	17071.87
488.75	17102.29
488.92	17296.56
489.10	17624.23
489.28	17839.56
489.46	17750.62
489.64	17804.46
489.81	18232.77
489.99	17846.58
490.17	18249.16
490.35	18513.64
490.53	18576.83
490.70	18735.99
490.88	18356.82
491.06	19075.37
491.24	18827.27
491.41	18934.93
491.59	19173.67
491.77	19201.76
491.95	19435.81
492.13	19531.77
492.30	19761.14
492.48	20051.37
492.66	19997.54
492.84	20100.52
493.01	20365.00
493.19	20442.24
493.37	20673.95
493.54	20058.39
493.72	20828.43
493.90	20741.83
494.08	20655.23
494.25	20893.96
494.43	20814.38
494.61	21179.51
494.79	21678.04
494.96	21172.49
495.14	21486.12
495.32	21600.80
495.49	21593.78
495.67	21661.66
495.85	22080.61
496.02	22181.26
496.20	22302.96
496.38	22497.23
496.55	22445.74
496.73	23126.83
496.91	22934.91
497.09	22850.65
497.26	22714.90
497.44	22824.90
497.62	23150.24
497.79	23339.82
497.97	23218.11
498.14	23508.34
498.32	23594.94
498.50	24070.07
498.67	23833.68
498.85	23740.05
499.03	23939.00
499.20	24070.07
499.38	23999.85
499.56	24247.95
499.73	24503.07
499.91	24491.37
500.08	24987.56
500.26	24716.06
500.44	24865.85
500.61	25127.99
500.79	24863.51
500.97	25219.27
501.14	25312.89
501.32	25490.77
501.49	25277.79
501.67	25254.38
501.84	25495.46
502.02	25223.95
502.20	25502.48
502.37	25472.05
502.55	25759.94
502.72	25731.85
502.90	26206.98
503.07	25715.47
503.25	26239.75
503.43	26115.70
503.60	26562.74
503.78	26363.79
503.95	26380.18
504.13	26813.18
504.30	26934.88
504.48	26735.94
504.65	26738.28
504.83	26869.35
505.01	27431.08
505.18	27353.84
505.36	27346.82
505.53	27058.93
505.71	27407.67
505.88	27421.72
506.06	27428.74
506.23	27791.52
506.41	27665.13
506.58	28065.36
506.76	27772.80
506.93	28039.62
507.11	28261.97
507.28	28156.64
507.46	28063.02
507.63	27908.55
507.81	28538.15
507.98	28119.20
508.16	28823.70
508.33	28755.82
508.50	28395.38
508.68	29083.50
508.85	29010.94
509.03	28774.55
509.20	29596.07
509.38	29369.04
509.55	29106.90
509.73	29291.80
509.90	29605.44
510.08	29614.80
510.25	29743.53
510.42	29851.19
510.60	30113.33
510.77	29858.21
510.95	30391.86
511.12	30185.89
511.30	29930.77
511.47	30202.27
511.64	29502.45
511.82	30106.31
511.99	30405.90
512.17	30293.55
512.34	30862.30
512.51	30981.67
512.69	30705.49
512.86	30934.86
513.04	31061.25
513.21	31126.78
513.38	31206.36
513.56	31463.82
513.73	30885.71
513.90	31175.94
514.08	31253.17
514.25	31421.69
514.43	31885.12
514.60	31676.81
514.77	31660.43
514.95	31817.24
515.12	31641.70
515.29	31908.52
515.47	31709.58
515.64	31885.12
515.81	32046.62
515.99	31969.38
516.16	32533.45
516.33	32285.35
516.51	32568.55
516.68	32271.31
516.85	32575.58
517.03	32811.97
517.20	32776.86
517.37	32912.61
517.54	32694.94
517.72	33071.77
517.89	33195.82
518.06	33235.61
518.24	32999.21
518.41	32929.00
518.58	32636.43
518.75	33062.41
518.93	33567.96
519.10	33326.89
519.27	33710.74
519.45	33481.36
519.62	33813.72
519.79	33865.21
519.96	33881.60
520.14	34160.12
520.31	33820.74
520.48	34181.18
520.65	34197.57
520.83	34799.08
521.00	34382.47
521.17	34178.84
521.34	34504.18
521.52	34663.33
521.69	34408.22
521.86	34836.53
522.03	34632.91
522.20	34902.07
522.38	35157.19
522.55	35164.21
522.72	35047.18
522.89	35281.24
523.07	35629.98
523.24	35384.22
523.41	35356.13
523.58	35218.04
523.75	35681.47
523.92	35459.12
524.10	35866.37
524.27	35459.12
524.44	35620.61
524.61	35723.60
524.78	35882.75
524.96	36245.54
525.13	36023.19
525.30	36154.26
525.47	36149.57
525.64	36121.49
525.81	36510.02
525.98	36460.87
526.16	36662.15
526.33	36184.68
526.50	36664.49
526.67	36460.87
526.84	36596.62
527.01	36683.22
527.18	36727.69
527.36	36999.19
527.53	37071.75
527.70	36893.86
527.87	37120.90
528.04	37055.36
528.21	37666.24
528.38	37591.34
528.55	37275.37
528.72	37270.69
528.89	37441.55
529.07	37258.99
529.24	36863.44
529.41	37471.98
529.58	37308.14
529.75	37422.83
529.92	37270.69
530.09	37621.77
530.26	37228.56
530.43	37893.27
530.60	37738.80
530.77	37675.60
530.94	38007.96
531.11	37649.86
531.28	38143.71
531.46	37930.72
531.63	38185.84
531.80	37937.74
531.97	38417.55
532.14	38504.15
532.31	38600.12
532.48	38728.84
532.65	38773.31
532.82	38092.22
532.99	38705.44
533.16	38689.06
533.33	38998.01
533.50	38621.18
533.67	38565.01
533.84	38398.83
534.01	39065.88
534.18	38527.56
534.35	39723.57
534.52	39040.14
534.69	39646.33
534.86	39559.73
535.03	39402.92
535.20	39395.90
535.37	39756.34
535.54	39519.95
535.71	39267.17
535.88	39405.26
536.05	39456.75
536.22	39641.65
536.38	39793.79
536.55	39812.51
536.72	39583.14
536.89	39599.52
537.06	39517.60
537.23	40367.22
537.40	39971.67
537.57	39627.61
537.74	40210.40
537.91	40133.17
538.08	40467.86
538.25	39849.96
538.42	40612.98
538.59	40519.35
538.75	40229.13
538.92	40334.45
539.09	40559.14
539.26	40844.69
539.43	40767.45
539.60	40552.12
539.77	40739.36
539.94	40746.39
540.11	40697.24
540.28	40931.29
540.44	40720.64
540.61	40825.96
540.78	41184.07
540.95	40919.59
541.12	40926.61
541.29	40793.20
541.46	40732.34
541.62	41008.53
541.79	41181.73
541.96	41090.44
542.13	41170.02
542.30	41095.13
542.47	41404.08
542.63	41366.63
542.80	41935.38
542.97	41640.47
543.14	41979.85
543.31	42005.59
543.48	41326.84
543.64	42316.89
543.81	42373.06
543.98	42124.96
544.15	42003.25
544.32	42321.57
544.48	42663.28
544.65	42445.62
544.82	42323.91
544.99	42225.60
545.16	42096.88
545.32	42497.11
545.49	42696.05
545.66	42745.20
545.83	42351.99
546.00	42848.19
546.16	42660.94
546.33	42726.48
546.50	42824.78
546.67	42979.26
546.83	42047.72
547.00	42686.69
547.17	42829.46
547.34	42667.97
547.50	43164.16
547.67	43559.71
547.84	42988.62
548.00	43548.01
548.17	43468.43
548.34	43409.92
548.51	43667.37
548.67	43447.36
548.84	43295.23
549.01	43269.48
549.18	43229.69
549.34	43269.48
549.51	43505.88
549.68	43428.64
549.84	43569.07
550.01	44137.82
550.18	43487.15
550.34	43695.46
550.51	43957.60
550.68	43716.53
550.84	43725.89
551.01	43704.82
551.18	43880.36
551.34	43763.34
551.51	43503.54
551.68	44027.82
551.84	43896.75
552.01	43414.60
552.18	44196.34
552.34	43840.57
552.51	44306.34
552.68	43997.39
552.84	43880.36
553.01	44516.99
553.18	44271.23
553.34	44299.32
553.51	44098.03
553.67	44495.92
553.84	44369.54
554.01	44631.68
554.17	44053.56
554.34	44617.63
554.51	44538.05
554.67	44933.60
554.84	45031.91
555.00	44802.53
555.17	44715.93
555.33	44842.32
555.50	44875.09
555.67	44676.15
555.83	44987.44
556.00	44926.58
556.16	45083.40
556.33	44837.64
556.50	45092.76
556.66	44715.93
556.83	44399.96
556.99	45673.21
557.16	45308.09
557.32	45420.44
557.49	45289.37
557.65	44949.99
557.82	45120.85
557.98	45354.90
558.15	45223.83
558.32	45027.23
558.48	44704.23
558.65	45340.86
558.81	45556.19
558.98	45516.40
559.14	45076.38
559.31	45474.27
559.47	45195.74
559.64	45146.59
559.80	45663.85
559.97	45652.15
560.13	45343.20
560.30	45598.32
560.46	45710.66
560.63	45523.42
560.79	45638.11
560.96	46000.89
561.12	46122.60
561.29	45921.31
561.45	45958.76
561.61	45390.01
561.78	45698.96
561.94	45743.43
562.11	45722.37
562.27	45577.25
562.44	45483.63
562.60	45916.63
562.77	45792.58
562.93	46082.81
563.10	46059.40
563.26	46211.54
563.42	45984.51
563.59	46096.85
563.75	45876.84
563.92	45834.71
564.08	46036.00
564.24	45869.82
564.41	46167.07
564.57	45865.14
564.74	46012.59
564.90	45883.86
565.07	45865.14
565.23	45741.09
565.39	45677.90
565.56	46286.43
565.72	46422.19
565.88	46752.20
566.05	46405.80
566.21	46508.79
566.38	46160.05
566.54	46506.44
566.70	46312.18
566.87	46497.08
567.03	46246.65
567.19	46410.48
567.36	46241.96
567.52	46323.88
567.68	46976.89
567.85	46342.61
568.01	46642.20
568.17	46223.24
568.34	46534.53
568.50	46515.81
568.66	46803.69
568.83	46433.89
568.99	46248.99
569.15	46681.98
569.32	46564.96
569.48	46351.97
569.64	46866.89
569.81	46593.04
569.97	46621.13
570.13	46595.38
570.30	46110.89
570.46	46794.33
570.62	47161.79
570.78	46447.93
570.95	46588.36
571.11	46637.51
571.27	46768.58
571.43	46857.52
571.60	46946.47
571.76	47002.64
571.92	46923.06
572.09	46567.30
572.25	46876.25
572.41	46501.76
572.57	46749.86
572.74	47377.12
572.90	47075.19
573.06	46740.50
573.22	46813.05
573.38	46904.34
573.55	46658.58
573.71	47248.39
573.87	47414.57
574.03	47159.45
574.20	47290.52
574.36	47180.52
574.52	47496.49
574.68	47124.35
574.84	46862.21
575.01	47035.41
575.17	47070.51
575.33	47107.96
575.49	47082.22
575.65	47100.94
575.82	47199.24
575.98	47297.55
576.14	47180.52
576.30	47379.46
576.46	46979.23
576.62	46845.82
576.79	46953.49
576.95	46497.08
577.11	47000.30
577.27	46691.35
577.43	47290.52
577.59	47253.08
577.75	46787.31
577.92	46265.37
578.08	47065.83
578.24	47096.26
578.40	47267.12
578.56	47440.32
578.72	47075.19
578.88	46705.39
579.04	46894.97
579.21	47419.25
579.37	47721.18
579.53	47330.31
579.69	47096.26
579.85	47026.04
580.01	47311.59
580.17	47098.60
580.33	47114.98
580.49	47459.04
580.65	47346.70
580.82	47318.61
580.98	47056.47
581.14	46822.42
581.30	47531.60
581.46	46899.65
581.62	47325.63
581.78	46656.24
581.94	47423.93
582.10	47161.79
582.26	47318.61
582.42	47543.30
582.58	47452.02
582.74	47222.65
582.90	47292.86
583.06	47334.99
583.22	47110.30
583.38	47276.48
583.54	47501.17
583.70	47175.84
583.86	47325.63
584.02	47297.55
584.18	47379.46
584.34	47529.26
584.50	47356.06
584.66	48004.39
584.82	47805.44
584.98	47852.25
585.14	47559.69
585.30	47241.37
585.46	47398.19
585.62	47243.71
585.78	47316.27
585.94	47299.89
586.10	47559.69
586.26	47065.83
586.42	47503.51
586.58	47695.44
586.74	47641.60
586.90	47367.76
587.06	47292.86
587.22	47613.52
587.38	47557.35
587.54	47730.54
587.70	47983.32
587.86	47742.25
588.02	47606.50
588.18	48034.81
588.34	47646.29
588.49	47229.67
588.65	47526.92
588.81	47629.90
588.97	47723.52
589.13	47667.35
589.29	47461.38
589.45	48060.56
589.61	47547.98
589.77	47920.13
589.93	47772.67
590.08	48133.12
