SpectraSuite Data File
++++++++++++++++++++++++++++++++++++
Date: Fri Oct 25 11:25:23 EDT 2013
User: price-jones
Dark Spectrum Present: No
Reference Spectrum Present: No
Number of Sampled Component Spectra: 1
Spectrometers: USB2+H05261
Integration Time (usec): 100000 (USB2+H05261)
Spectra Averaged: 1 (USB2+H05261)
Boxcar Smoothing: 0 (USB2+H05261)
Correct for Electrical Dark: No (USB2+H05261)
Strobe/Lamp Enabled: No (USB2+H05261)
Correct for Detector Non-linearity: No (USB2+H05261)
Correct for Stray Light: No (USB2+H05261)
Number of Pixels in Processed Spectrum: 2048
>>>>>Begin Processed Spectral Data<<<<<
365.73	238.73
365.92	238.73
366.12	238.73
366.32	128.73
366.52	105.32
366.72	184.90
366.91	86.60
367.11	133.41
367.31	147.45
367.51	117.03
367.70	140.43
367.90	135.75
368.10	163.84
368.30	180.22
368.49	215.33
368.69	175.54
368.89	203.63
369.09	191.92
369.28	159.16
369.48	133.41
369.68	189.58
369.87	189.58
370.07	224.69
370.27	170.86
370.47	367.46
370.66	538.32
370.86	638.97
371.06	681.10
371.25	725.57
371.45	655.35
371.65	688.12
371.84	636.63
372.04	629.60
372.24	629.60
372.44	779.40
372.63	699.82
372.83	709.18
373.03	821.53
373.22	734.93
373.42	774.72
373.62	781.74
373.81	812.17
374.01	880.04
374.21	840.25
374.40	767.70
374.60	812.17
374.79	781.74
374.99	816.85
375.19	887.06
375.38	875.36
375.58	870.68
375.78	896.43
375.97	861.32
376.17	922.17
376.37	919.83
376.56	807.48
376.76	819.19
376.95	805.14
377.15	964.30
377.35	849.61
377.54	950.26
377.74	908.13
377.93	924.51
378.13	863.66
378.33	908.13
378.52	968.98
378.72	896.43
378.91	887.06
379.11	917.49
379.31	915.15
379.50	931.53
379.70	1109.41
379.89	1041.54
380.09	943.24
380.28	931.53
380.48	990.05
380.68	985.37
380.87	968.98
381.07	971.32
381.26	1055.58
381.46	964.30
381.65	1062.60
381.85	1076.65
382.04	1114.10
382.24	1022.81
382.43	966.64
382.63	1011.11
382.83	1107.07
383.02	1102.39
383.22	1013.45
383.41	1081.33
383.61	1027.50
383.80	1167.93
384.00	1050.90
384.19	1107.07
384.39	1067.28
384.58	1163.25
384.78	1158.57
384.97	1259.21
385.17	1266.23
385.36	1135.16
385.56	1186.65
385.75	1083.67
385.95	1114.10
386.14	1205.38
386.34	1172.61
386.53	1212.40
386.72	1165.59
386.92	1256.87
387.11	1299.00
387.31	1160.91
387.50	1247.51
387.70	1341.13
387.89	1238.14
388.09	1245.16
388.28	1158.57
388.48	1240.48
388.67	1282.61
388.86	1301.34
389.06	1259.21
389.25	1411.34
389.45	1313.04
389.64	1366.87
389.84	1296.66
390.03	1411.34
390.22	1434.75
390.42	1376.24
390.61	1324.74
390.81	1406.66
391.00	1432.41
391.19	1432.41
391.39	1418.36
391.58	1399.64
391.78	1409.00
391.97	1481.56
392.16	1472.20
392.36	1540.07
392.55	1542.41
392.75	1551.78
392.94	1504.96
393.13	1439.43
393.33	1523.69
393.52	1565.82
393.71	1586.88
393.91	1643.06
394.10	1600.93
394.29	1593.90
394.49	1568.16
394.68	1685.19
394.88	1558.80
395.07	1614.97
395.26	1659.44
395.46	1661.78
395.65	1701.57
395.84	1788.17
396.04	1802.21
396.23	1748.38
396.42	1778.81
396.62	1827.96
396.81	1748.38
397.00	1757.74
397.19	1673.48
397.39	1764.76
397.58	1834.98
397.77	1771.79
397.97	1832.64
398.16	1858.39
398.35	1966.05
398.55	1823.28
398.74	1874.77
398.93	1879.45
399.12	1858.39
399.32	1870.09
399.51	1968.39
399.70	2076.06
399.90	2033.93
400.09	1998.82
400.28	1994.14
400.47	2029.24
400.67	2064.35
400.86	1994.14
401.05	2031.58
401.24	2104.14
401.44	2054.99
401.63	2083.08
401.82	2157.97
402.01	2134.57
402.21	2230.53
402.40	2101.80
402.59	2078.40
402.78	2183.72
402.97	2209.47
403.17	2279.68
403.36	2230.53
403.55	2366.28
403.74	2293.72
403.93	2361.60
404.13	2394.37
404.32	2319.47
404.51	2363.94
404.70	2359.26
404.89	2436.50
405.09	2480.97
405.28	2408.41
405.47	2443.52
405.66	2471.61
405.85	2492.67
406.05	2476.29
406.24	2586.29
406.43	2630.76
406.62	2649.49
406.81	2726.72
407.00	2502.03
407.20	2609.70
407.39	2623.74
407.58	2651.83
407.77	2710.34
407.96	2794.60
408.15	2747.79
408.34	2658.85
408.54	2686.94
408.73	2808.64
408.92	2778.22
409.11	2867.16
409.30	2906.95
409.49	2895.24
409.68	2946.73
409.87	3000.57
410.07	2956.10
410.26	2988.86
410.45	3000.57
410.64	3091.85
410.83	3038.02
411.02	3082.49
411.21	3136.32
411.40	3164.40
411.59	3159.72
411.78	3098.87
411.98	3094.19
412.17	3112.91
412.36	3131.64
412.55	3262.71
412.74	3417.18
412.93	3356.33
413.12	3323.56
413.31	3405.48
413.50	3459.31
413.69	3522.51
413.88	3597.40
414.07	3637.19
414.26	3669.96
414.45	3627.83
414.64	3562.30
414.83	3737.84
415.02	3590.38
415.22	3789.33
415.41	3964.87
415.60	3889.97
415.79	3861.88
415.98	3801.03
416.17	3868.91
416.36	3831.46
416.55	3889.97
416.74	3992.95
416.93	3899.33
417.12	4093.60
417.31	4060.83
417.50	4182.54
417.69	4236.37
417.88	4180.20
418.07	4257.43
418.26	4360.42
418.45	4264.46
418.64	4489.15
418.83	4409.57
419.02	4418.93
419.21	4437.66
419.39	4341.69
419.58	4505.53
419.77	4444.68
419.96	4524.26
420.15	4535.96
420.34	4669.37
420.53	4482.13
420.72	4493.83
420.91	4557.02
421.10	4671.71
421.29	4821.50
421.48	4732.56
421.67	4688.09
421.86	4692.77
422.05	4739.58
422.24	4683.41
422.43	4868.31
422.61	4809.80
422.80	4957.25
422.99	4828.53
423.18	4889.38
423.37	5188.97
423.56	4947.89
423.75	4741.93
423.94	4762.99
424.13	4711.50
424.32	4655.33
424.50	4999.38
424.69	4870.65
424.88	5027.47
425.07	5034.49
425.26	4961.94
425.45	5022.79
425.64	4875.34
425.83	4882.36
426.01	5053.22
426.20	4980.66
426.39	5100.03
426.58	5018.11
426.77	4938.53
426.96	5252.16
427.15	5067.26
427.33	5078.96
427.52	5247.48
427.71	5212.37
427.90	5184.29
428.09	5441.75
428.28	5301.31
428.46	5282.59
428.65	5277.91
428.84	5315.36
429.03	5448.77
429.22	5270.89
429.40	5504.94
429.59	5448.77
429.78	5362.17
429.97	5247.48
430.16	5453.45
430.34	5577.50
430.53	5687.50
430.72	5692.18
430.91	5654.73
431.10	5596.22
431.28	5811.55
431.47	5741.33
431.66	5806.87
431.85	5666.44
432.03	5893.47
432.22	6085.39
432.41	5977.73
432.60	5898.15
432.79	6017.52
432.97	5898.15
433.16	5949.64
433.35	5944.96
433.54	5984.75
433.72	6026.88
433.91	6031.56
434.10	6071.35
434.28	6099.44
434.47	6183.70
434.66	6157.95
434.85	6195.40
435.03	6305.40
435.22	6188.38
435.41	6473.92
435.59	6401.37
435.78	6258.59
435.97	6373.28
436.16	6291.36
436.34	6298.38
436.53	6441.15
436.72	6710.32
436.90	6523.07
437.09	6616.69
437.28	6525.41
437.46	6532.44
437.65	6539.46
437.84	6586.27
438.02	6841.39
438.21	6633.08
438.40	6574.56
438.58	7082.46
438.77	6960.75
438.96	6984.16
439.14	6789.89
439.33	7063.74
439.52	7108.21
439.70	7185.44
439.89	7363.33
440.08	7400.77
440.26	7255.66
440.45	7346.94
440.63	7414.82
440.82	7714.41
441.01	7414.82
441.19	7644.19
441.38	7489.71
441.57	7604.40
441.75	7606.74
441.94	7999.95
442.12	7866.54
442.31	8016.33
442.50	7920.37
442.68	7906.33
442.87	7840.79
443.05	7978.89
443.24	8149.75
443.43	8156.77
443.61	8145.06
443.80	8592.11
443.98	7922.71
444.17	7808.03
444.35	8257.41
444.54	8318.26
444.73	8367.42
444.91	8212.94
445.10	8262.09
445.28	8159.11
445.47	8393.16
445.65	8341.67
445.84	8355.71
446.02	8297.20
446.21	8339.33
446.39	8369.76
446.58	8535.93
446.77	8421.25
446.95	8135.70
447.14	8304.22
447.32	8381.46
447.51	8334.65
447.69	8322.94
447.88	8407.20
448.06	8702.11
448.25	8465.72
448.43	8622.53
448.62	8381.46
448.80	8336.99
448.99	8648.28
449.17	8697.43
449.36	8645.94
449.54	8760.63
449.73	8879.99
449.91	8844.88
450.10	8816.80
450.28	8854.25
450.46	8929.14
450.65	8865.95
450.83	9102.34
451.02	8954.89
451.20	9064.89
451.39	9202.99
451.57	9069.58
451.76	9034.47
451.94	9090.64
452.13	9350.44
452.31	9317.67
452.49	9067.24
452.68	9233.41
452.86	9387.89
453.05	9329.38
453.23	9397.25
453.42	9408.95
453.60	9341.08
453.78	9547.05
453.97	9320.01
454.15	9528.32
454.34	9294.27
454.52	9575.13
454.70	9696.84
454.89	9776.42
455.07	9551.73
455.26	9736.63
455.44	9755.35
455.62	9937.91
455.81	9795.14
455.99	9914.51
456.17	10061.96
456.36	10169.63
456.54	10106.43
456.73	10076.01
456.91	10326.44
457.09	10260.91
457.28	10436.45
457.46	10183.67
457.64	10525.39
457.83	10396.66
458.01	10235.16
458.19	10850.72
458.38	10494.96
458.56	10661.14
458.74	10705.61
458.93	10628.37
459.11	10750.08
459.29	10574.54
459.48	10689.23
459.66	10738.38
459.84	10808.59
460.03	10799.23
460.21	10972.43
460.39	10871.79
460.57	11033.29
460.76	11190.10
460.94	11124.57
461.12	10972.43
461.31	10979.45
461.49	11176.06
461.67	11145.63
461.85	11272.02
462.04	11190.10
462.22	11763.53
462.40	11637.14
462.59	11571.61
462.77	11365.64
462.95	11424.15
463.13	11538.84
463.32	11573.95
463.50	11639.48
463.68	11747.15
463.86	11840.77
464.05	11740.13
464.23	11616.08
464.41	11922.69
464.59	11555.22
464.78	12142.70
464.96	11824.39
465.14	11644.17
465.32	11875.88
465.50	12121.63
465.69	11992.90
465.87	11943.75
466.05	12149.72
466.23	12095.89
466.41	12116.95
466.60	12170.79
466.78	12306.54
466.96	12109.93
467.14	12217.60
467.32	12376.75
467.51	12320.58
467.69	12107.59
467.87	12369.73
468.05	12315.90
468.23	12526.55
468.41	12224.62
468.60	12388.46
468.78	12779.32
468.96	12709.11
469.14	13015.72
469.32	12896.35
469.50	12587.40
469.69	12901.03
469.87	12837.84
470.05	13036.78
470.23	13041.46
470.41	13055.51
470.59	13348.08
470.77	12987.63
470.95	13207.64
471.14	13270.84
471.32	13130.41
471.50	13448.72
471.68	13406.59
471.86	13682.77
472.04	13806.82
472.22	13865.33
472.40	13568.09
472.58	13724.90
472.77	14132.15
472.95	14122.79
473.13	14312.38
473.31	13820.86
473.49	13895.76
473.67	14092.37
473.85	14057.26
474.03	14595.58
474.21	14478.55
474.39	14546.43
474.57	14841.34
474.75	14799.21
474.93	14883.47
475.12	14956.02
475.30	15002.83
475.48	15206.46
475.66	15073.05
475.84	15208.80
476.02	15325.83
476.20	15466.26
476.38	15454.56
476.56	15936.71
476.74	15690.95
476.92	15852.45
477.10	15747.12
477.28	15915.64
477.46	16269.06
477.64	16145.02
477.82	16334.60
478.00	17083.57
478.18	16505.46
478.36	17114.00
478.54	16996.97
478.72	16645.89
478.90	17221.66
479.08	17177.19
479.26	17617.21
479.44	17425.29
479.62	17762.33
479.80	17984.68
479.98	17972.97
480.16	18019.78
480.34	18087.66
480.52	18445.76
480.70	18520.66
480.88	18291.29
481.06	18473.85
481.24	18780.46
481.41	18937.27
481.59	19381.98
481.77	19260.27
481.95	19337.51
482.13	19566.88
482.31	19489.64
482.49	20458.62
482.67	19995.20
482.85	20395.43
483.03	20016.26
483.21	20334.57
483.39	20688.00
483.57	20730.12
483.74	21247.38
483.92	21385.47
484.10	21422.92
484.28	21607.83
484.46	21743.58
484.64	22129.77
484.82	21869.97
485.00	22422.33
485.18	22415.31
485.35	22944.27
485.53	22588.51
485.71	22932.57
485.89	23475.57
486.07	23042.57
486.25	23384.29
486.43	23339.82
486.61	23658.14
486.78	23601.96
486.96	24208.16
487.14	24416.47
487.32	24156.67
487.50	24512.43
487.68	24821.38
487.85	24912.66
488.03	25523.54
488.21	25284.81
488.39	25521.20
488.57	25869.94
488.75	26195.28
488.92	26522.95
489.10	26595.51
489.28	26628.27
489.46	26920.84
489.64	27014.46
489.81	27611.30
489.99	27435.76
490.17	27690.88
490.35	28149.62
490.53	27740.03
490.70	28379.00
490.88	28212.82
491.06	28493.68
491.24	28809.65
491.41	28973.49
491.59	29249.67
491.77	29268.40
491.95	29284.78
492.13	29467.34
492.30	29848.85
492.48	29607.78
492.66	30057.16
492.84	29820.77
493.01	30593.14
493.19	30272.49
493.37	30878.69
493.54	30761.66
493.72	31314.03
493.90	31222.75
494.08	31578.51
494.25	31637.02
494.43	31833.63
494.61	32119.17
494.79	32531.11
494.96	32402.38
495.14	32325.14
495.32	33141.99
495.49	32713.67
495.67	33237.95
495.85	33266.03
496.02	33696.69
496.20	33673.29
496.38	33975.22
496.55	33872.23
496.73	34920.79
496.91	34050.11
497.09	34326.30
497.26	34883.34
497.44	34639.93
497.62	35161.87
497.79	35192.30
497.97	35557.42
498.14	35756.36
498.32	35831.26
498.50	36151.91
498.67	36348.52
498.85	36308.73
499.03	36458.52
499.20	36093.40
499.38	36804.92
499.56	36704.28
499.73	36924.29
499.91	36889.18
500.08	37385.38
500.26	37034.30
500.44	37291.76
500.61	37336.23
500.79	37436.87
500.97	37766.88
501.14	38504.15
501.32	37830.08
501.49	37926.04
501.67	38157.75
501.84	38726.50
502.02	38705.44
502.20	39002.69
502.37	38817.78
502.55	39166.52
502.72	39421.64
502.90	39274.19
503.07	39431.01
503.25	39665.06
503.43	39498.88
503.60	39374.83
503.78	39669.74
503.95	39700.17
504.13	40456.16
504.30	40378.92
504.48	40435.10
504.65	40634.04
504.83	41284.71
505.01	40935.97
505.18	41078.74
505.36	40830.65
505.53	41537.49
505.71	40952.35
505.88	42134.32
506.06	41055.34
506.23	41706.01
506.41	41731.75
506.58	41518.76
506.76	41621.75
506.93	42267.73
507.11	41888.57
507.28	41991.55
507.46	42749.88
507.63	42553.28
507.81	42689.03
507.98	42862.23
508.16	42787.33
508.33	43393.53
508.50	43335.02
508.68	43370.13
508.85	43896.75
509.03	43555.03
509.20	43517.58
509.38	44102.71
509.55	44062.93
509.73	44325.07
509.90	44093.35
510.08	44201.02
510.25	44226.76
510.42	44610.61
510.60	44680.83
510.77	45022.54
510.95	45301.07
511.12	45024.89
511.30	44994.46
511.47	44949.99
511.64	45050.63
511.82	45572.57
511.99	45504.70
512.17	45516.40
512.34	45645.13
512.51	45993.87
512.69	45879.18
512.86	45832.37
513.04	46265.37
513.21	46328.56
513.38	46178.77
513.56	46672.62
513.73	46117.92
513.90	46916.04
514.08	46288.77
514.25	47234.35
514.43	47192.22
514.60	47196.90
514.77	47311.59
514.95	47154.77
515.12	47391.17
515.29	47285.84
515.47	47796.08
515.64	47833.53
515.81	47578.41
515.99	47920.13
516.16	48633.99
516.33	48140.14
516.51	48458.45
516.68	48399.94
516.85	48165.88
517.03	48704.21
517.20	48774.42
517.37	48332.06
517.54	48584.84
517.72	48533.35
517.89	49029.54
518.06	48793.15
518.24	49251.89
518.41	48949.96
518.58	49207.42
518.75	48942.94
518.93	49446.16
519.10	49373.60
519.27	49359.56
519.45	49617.02
519.62	49656.81
519.79	49914.26
519.96	49689.57
520.14	50010.23
520.31	49755.11
520.48	49937.67
520.65	49923.63
520.83	50260.66
521.00	50490.04
521.17	50267.69
521.34	50195.13
521.52	50557.91
521.69	50710.05
521.86	51187.52
522.03	50829.41
522.20	50904.31
522.38	51358.38
522.55	51035.38
522.72	50885.59
522.89	51096.24
523.07	51566.68
523.24	51334.97
523.41	51515.19
523.58	51440.29
523.75	51622.86
523.92	51356.03
524.10	51676.69
524.27	51763.29
524.44	51585.41
524.61	52093.30
524.78	51653.28
524.96	51971.60
525.13	52083.94
525.30	52116.71
525.47	52432.68
525.64	52196.29
525.81	52495.88
525.98	52446.72
526.16	52612.90
526.33	52486.51
526.50	52851.64
526.67	52622.26
526.84	52633.97
527.01	52825.89
527.18	52769.72
527.36	52720.57
527.53	52837.59
527.70	53532.73
527.87	53109.10
528.04	53013.13
528.21	53176.97
528.38	53083.35
528.55	53696.57
528.72	52954.62
528.89	53139.52
529.07	53024.84
529.24	53102.07
529.41	53420.39
529.58	53492.94
529.75	53490.60
529.92	53481.24
530.09	53521.03
530.26	53743.38
530.43	53654.44
530.60	53668.48
530.77	53752.74
530.94	53921.26
531.11	53570.18
531.28	54204.47
531.46	54005.52
531.63	53911.90
531.80	54349.58
531.97	54152.97
532.14	54232.55
532.31	54237.23
532.48	54436.18
532.65	54571.93
532.82	54302.77
532.99	54490.01
533.16	54494.69
533.33	54461.93
533.50	54777.90
533.67	54892.58
533.84	54520.44
534.01	54679.60
534.18	54759.17
534.35	55021.31
534.52	54894.92
534.69	55173.45
534.86	55192.17
535.03	54663.21
535.20	54836.41
535.37	55414.52
535.54	55208.56
535.71	55025.99
535.88	55398.14
536.05	55285.79
536.22	55517.51
536.38	55229.62
536.55	55238.98
536.72	55093.87
536.89	55388.78
537.06	55299.84
537.23	55372.39
537.40	55454.31
537.57	55608.79
537.74	55585.38
537.91	55877.95
538.08	55725.81
538.25	55702.41
538.42	55533.89
538.59	56030.08
538.75	55674.32
538.92	55980.93
539.09	56186.90
539.26	55702.41
539.43	56027.74
539.60	56245.41
539.77	56158.81
539.94	56037.11
540.11	56133.07
540.28	56121.37
540.44	56278.18
540.61	56116.68
540.78	56121.37
540.95	56114.34
541.12	56362.44
541.29	56191.58
541.46	56264.14
541.62	56320.31
541.79	56645.65
541.96	56175.20
542.13	56317.97
542.30	56289.88
542.47	56643.30
542.63	56673.73
542.80	56860.97
542.97	56973.32
543.14	57036.51
543.31	56942.89
543.48	57088.01
543.64	57179.29
543.81	57207.37
543.98	57237.80
544.15	56896.08
544.32	57102.05
544.48	57347.81
544.65	57134.82
544.82	57268.23
544.99	57202.69
545.16	57425.04
545.32	57116.09
545.49	57352.49
545.66	57771.44
545.83	57254.18
546.00	57499.94
546.16	57261.21
546.33	57258.87
546.50	57296.31
546.67	57591.22
546.83	57263.55
547.00	57743.36
547.17	57607.61
547.34	57415.68
547.50	57808.89
547.67	57937.62
547.84	57935.28
548.00	57897.83
548.17	57970.39
548.34	57839.32
548.51	58021.88
548.67	57897.83
548.84	58096.78
549.01	58078.05
549.18	58045.29
549.34	58082.73
549.51	58220.83
549.68	58272.32
549.84	58206.78
550.01	58272.32
550.18	58277.00
550.34	58078.05
550.51	58195.08
550.68	58031.24
550.84	58035.92
551.01	58426.79
551.18	58368.28
551.34	58274.66
551.51	58272.32
551.68	58323.81
551.84	58440.84
552.01	58333.17
552.18	58351.90
552.34	58340.19
552.51	58457.22
552.68	58384.66
552.84	58431.47
553.01	58553.18
553.18	58845.75
553.34	58922.99
553.51	58628.08
553.67	58710.00
553.84	58784.90
554.01	58829.37
554.17	58908.94
554.34	58815.32
554.51	58845.75
554.67	58857.45
554.84	58866.81
555.00	58899.58
555.17	58705.32
555.33	58974.48
555.50	58719.36
555.67	58651.48
555.83	58871.49
556.00	59056.40
556.16	59107.89
556.33	59028.31
556.50	58953.41
556.66	59185.13
556.83	58934.69
556.99	59189.81
557.16	59458.97
557.32	59583.02
557.49	59456.63
557.65	59166.40
557.82	59253.00
557.98	59124.27
558.15	59384.07
558.32	59208.53
558.48	59428.54
558.65	59344.28
558.81	59353.65
558.98	59409.82
559.14	59444.93
559.31	59503.44
559.47	59355.99
559.64	59594.72
559.80	59676.64
559.97	59573.66
560.13	59334.92
560.30	59533.87
560.46	59550.25
560.63	59662.60
560.79	59590.04
560.96	59671.96
561.12	59660.26
561.29	59753.88
561.45	59891.97
561.61	59512.80
561.78	59805.37
561.94	59580.68
562.11	59662.60
562.27	59821.75
562.44	59990.27
562.60	59927.08
562.77	59898.99
562.93	59641.53
563.10	59786.64
563.26	59945.80
563.42	60116.66
563.59	59723.45
563.75	59807.71
563.92	59784.30
564.08	59964.52
564.24	60044.10
564.41	59962.18
564.57	60051.12
564.74	59985.59
564.90	59999.63
565.07	59906.01
565.23	60020.70
565.39	59913.03
565.56	60259.43
565.72	60046.44
565.88	60236.03
566.05	59873.24
566.21	60186.88
566.38	60130.70
566.54	59898.99
566.70	60327.31
566.87	60184.54
567.03	59959.84
567.19	60193.90
567.36	60156.45
567.52	60051.12
567.68	60313.26
567.85	60076.87
568.01	60336.67
568.17	60126.02
568.34	60154.11
568.50	60072.19
568.66	60252.41
568.83	60287.52
568.99	60285.18
569.15	60261.77
569.32	60257.09
569.48	60196.24
569.64	60294.54
569.81	60416.25
569.97	60200.92
570.13	60236.03
570.30	60219.64
570.46	60451.36
570.62	60327.31
570.78	60587.11
570.95	60404.55
571.11	60456.04
571.27	60381.14
571.43	60268.79
571.60	60252.41
571.76	60294.54
571.92	60331.99
572.09	60542.64
572.25	60512.21
572.41	60402.21
572.57	60474.76
572.74	60622.22
572.90	60486.46
573.06	60577.75
573.22	60481.78
573.38	60413.91
573.55	60327.31
573.71	60659.66
573.87	60460.72
574.03	60474.76
574.20	60493.49
574.36	60516.89
574.52	60657.32
574.68	60453.70
574.84	60584.77
575.01	60753.29
575.17	60495.83
575.33	60491.15
575.49	60369.44
575.65	60654.98
575.82	60610.51
575.98	60559.02
576.14	60809.46
576.30	60589.45
576.46	60514.55
576.62	60797.76
576.79	60626.90
576.95	60580.09
577.11	60587.11
577.27	60633.92
577.43	60743.92
577.59	60554.34
577.75	60617.53
577.92	60470.08
578.08	60657.32
578.24	60563.70
578.40	60891.38
578.56	60760.31
578.72	60540.30
578.88	60891.38
579.04	60877.33
579.21	60603.49
579.37	60727.54
579.53	60891.38
579.69	60467.74
579.85	60825.84
580.01	60584.77
580.17	60587.11
580.33	60837.54
580.49	60949.89
580.65	60762.65
580.82	60985.00
580.98	60697.11
581.14	60746.26
581.30	61050.53
581.46	60706.47
581.62	60767.33
581.78	60816.48
581.94	60811.80
582.10	60547.32
582.26	60844.57
582.42	60509.87
582.58	60835.20
582.74	60748.60
582.90	60844.57
583.06	60821.16
583.22	60669.03
583.38	60825.84
583.54	60755.63
583.70	60884.36
583.86	60781.37
584.02	60559.02
584.18	60816.48
584.34	60786.05
584.50	60746.26
584.66	60685.41
584.82	60657.32
584.98	60994.36
585.14	60809.46
585.30	60933.51
585.46	60893.72
585.62	60980.32
585.78	61076.28
585.94	60725.20
586.10	60959.25
586.26	60872.65
586.42	61069.26
586.58	60996.70
586.74	61001.38
586.90	60837.54
587.06	60877.33
587.22	61118.41
587.38	60980.32
587.54	60867.97
587.70	61130.11
587.86	60949.89
588.02	61010.74
588.18	61106.71
588.34	60931.17
588.49	60807.12
