SpectraSuite Data File
++++++++++++++++++++++++++++++++++++
Date: Fri Oct 25 11:22:31 EDT 2013
User: price-jones
Dark Spectrum Present: No
Reference Spectrum Present: No
Number of Sampled Component Spectra: 1
Spectrometers: USB2+H05261
Integration Time (usec): 100000 (USB2+H05261)
Spectra Averaged: 1 (USB2+H05261)
Boxcar Smoothing: 0 (USB2+H05261)
Correct for Electrical Dark: No (USB2+H05261)
Strobe/Lamp Enabled: No (USB2+H05261)
Correct for Detector Non-linearity: No (USB2+H05261)
Correct for Stray Light: No (USB2+H05261)
Number of Pixels in Processed Spectrum: 2048
>>>>>Begin Processed Spectral Data<<<<<
365.73	234.05
365.92	234.05
366.12	234.05
366.32	159.16
366.52	93.62
366.72	112.35
366.91	124.05
367.11	81.92
367.31	30.43
367.51	93.62
367.70	149.79
367.90	184.90
368.10	135.75
368.30	88.94
368.49	140.43
368.69	166.18
368.89	175.54
369.09	131.07
369.28	145.11
369.48	149.79
369.68	152.13
369.87	222.35
370.07	175.54
370.27	255.12
370.47	362.78
370.66	552.37
370.86	638.97
371.06	664.71
371.25	706.84
371.45	634.29
371.65	741.95
371.84	734.93
372.04	645.99
372.24	671.73
372.44	690.46
372.63	744.29
372.83	695.14
373.03	748.97
373.22	713.86
373.42	774.72
373.62	791.10
373.81	847.27
374.01	711.52
374.21	753.65
374.40	821.53
374.60	770.04
374.79	835.57
374.99	837.91
375.19	844.93
375.38	793.44
375.58	748.97
375.78	889.40
375.97	802.80
376.17	926.85
376.37	889.40
376.56	763.01
376.76	823.87
376.95	863.66
377.15	978.34
377.35	896.43
377.54	973.66
377.74	873.02
377.93	795.78
378.13	961.96
378.33	936.21
378.52	922.17
378.72	978.34
378.91	952.60
379.11	926.85
379.31	957.28
379.50	924.51
379.70	1029.84
379.89	1055.58
380.09	940.90
380.28	1018.13
380.48	966.64
380.68	891.74
380.87	938.55
381.07	947.92
381.26	1109.41
381.46	1018.13
381.65	945.58
381.85	1053.24
382.04	1055.58
382.24	1076.65
382.43	1032.18
382.63	1057.92
382.83	1055.58
383.02	1081.33
383.22	1095.37
383.41	1034.52
383.61	1118.78
383.80	1146.86
384.00	1116.44
384.19	1121.12
384.39	1102.39
384.58	1125.80
384.78	1158.57
384.97	1160.91
385.17	1123.46
385.36	1109.41
385.56	1165.59
385.75	1224.10
385.95	1107.07
386.14	1177.29
386.34	1221.76
386.53	1167.93
386.72	1174.95
386.92	1238.14
387.11	1261.55
387.31	1238.14
387.50	1125.80
387.70	1261.55
387.89	1270.91
388.09	1196.01
388.28	1233.46
388.48	1322.40
388.67	1270.91
388.86	1294.32
389.06	1270.91
389.25	1324.74
389.45	1275.59
389.64	1423.05
389.84	1376.24
390.03	1371.55
390.22	1383.26
390.42	1401.98
390.61	1345.81
390.81	1341.13
391.00	1376.24
391.19	1413.68
391.39	1502.62
391.58	1507.30
391.78	1511.99
391.97	1511.99
392.16	1474.54
392.36	1542.41
392.55	1537.73
392.75	1540.07
392.94	1521.35
393.13	1582.20
393.33	1472.20
393.52	1514.33
393.71	1659.44
393.91	1605.61
394.10	1586.88
394.29	1530.71
394.49	1607.95
394.68	1668.80
394.88	1582.20
395.07	1582.20
395.26	1706.25
395.46	1720.29
395.65	1736.68
395.84	1727.32
396.04	1760.08
396.23	1762.42
396.42	1729.66
396.62	1792.85
396.81	1750.72
397.00	1832.64
397.19	1760.08
397.39	1781.15
397.58	1799.87
397.77	1893.49
397.97	1870.09
398.16	1837.32
398.35	1919.24
398.55	1912.22
398.74	1865.41
398.93	1860.73
399.12	1914.56
399.32	1909.88
399.51	1919.24
399.70	1961.37
399.90	2066.69
400.09	1980.09
400.28	2087.76
400.47	2136.91
400.67	2040.95
400.86	2106.48
401.05	2054.99
401.24	2108.82
401.44	2076.06
401.63	2066.69
401.82	2202.44
402.01	2066.69
402.21	2235.21
402.40	2113.50
402.59	2169.68
402.78	2139.25
402.97	2228.19
403.17	2228.19
403.36	2211.81
403.55	2221.17
403.74	2352.24
403.93	2314.79
404.13	2307.77
404.32	2424.80
404.51	2445.86
404.70	2581.61
404.89	2403.73
405.09	2555.86
405.28	2431.82
405.47	2583.95
405.66	2490.33
405.85	2616.72
406.05	2469.27
406.24	2485.65
406.43	2626.08
406.62	2761.83
406.81	2785.24
407.00	2614.38
407.20	2527.78
407.39	2656.51
407.58	2801.62
407.77	2729.06
407.96	2743.11
408.15	2773.53
408.34	2684.59
408.54	2785.24
408.73	2799.28
408.92	2773.53
409.11	2890.56
409.30	2923.33
409.49	2958.44
409.68	3038.02
409.87	3052.06
410.07	3014.61
410.26	2988.86
410.45	3035.67
410.64	3016.95
410.83	3089.51
411.02	3124.62
411.21	3169.09
411.40	3281.43
411.59	3239.30
411.78	3344.63
411.98	3150.36
412.17	3234.62
412.36	3386.76
412.55	3405.48
412.74	3515.48
412.93	3485.06
413.12	3442.93
413.31	3480.38
413.50	3485.06
413.69	3517.83
413.88	3646.55
414.07	3644.21
414.26	3758.90
414.45	3705.07
414.64	3775.28
414.83	3744.86
415.02	3618.47
415.22	3850.18
415.41	3995.29
415.60	3845.50
415.79	3847.84
415.98	3866.56
416.17	4077.21
416.36	4088.92
416.55	4037.42
416.74	4131.05
416.93	4051.47
417.12	4032.74
417.31	4107.64
417.50	4203.60
417.69	4292.54
417.88	4271.48
418.07	4182.54
418.26	4381.48
418.45	4409.57
418.64	4620.22
418.83	4519.57
419.02	4447.02
419.21	4437.66
419.39	4613.20
419.58	4603.83
419.77	4533.62
419.96	4526.60
420.15	4498.51
420.34	4629.58
420.53	4608.51
420.72	4720.86
420.91	4667.03
421.10	4828.53
421.29	4943.21
421.48	4697.46
421.67	4781.71
421.86	4732.56
422.05	4816.82
422.24	4837.89
422.43	4840.23
422.61	5057.90
422.80	4947.89
422.99	4931.51
423.18	4882.36
423.37	5062.58
423.56	5083.64
423.75	5032.15
423.94	4926.83
424.13	4809.80
424.32	4716.18
424.50	5018.11
424.69	5174.92
424.88	5132.79
425.07	4985.34
425.26	4807.46
425.45	5022.79
425.64	4980.66
425.83	5027.47
426.01	5041.51
426.20	5149.18
426.39	5008.75
426.58	5107.05
426.77	5118.75
426.96	5139.82
427.15	5144.50
427.33	5219.39
427.52	5308.34
427.71	5263.86
427.90	5226.42
428.09	5434.72
428.28	5371.53
428.46	5526.00
428.65	5364.51
428.84	5570.48
429.03	5551.75
429.22	5434.72
429.40	5509.62
429.59	5554.09
429.78	5303.65
429.97	5336.42
430.16	5420.68
430.34	5640.69
430.53	5720.27
430.72	5731.97
430.91	5582.18
431.10	5607.92
431.28	5713.25
431.47	5827.93
431.66	5827.93
431.85	5692.18
432.03	6008.16
432.22	6045.60
432.41	6127.52
432.60	5947.30
432.79	5998.79
432.97	5916.87
433.16	6008.16
433.35	6010.50
433.54	6207.10
433.72	6122.84
433.91	6097.10
434.10	6181.35
434.28	6242.21
434.47	6232.85
434.66	6129.86
434.85	6291.36
435.03	6392.00
435.22	6263.27
435.41	6682.23
435.59	6469.24
435.78	6368.60
435.97	6457.54
436.16	6455.20
436.34	6583.93
436.53	6431.79
436.72	6637.76
436.90	6438.81
437.09	6775.85
437.28	6476.26
437.46	6789.89
437.65	6679.89
437.84	6752.45
438.02	6729.04
438.21	6801.60
438.40	6808.62
438.58	6998.20
438.77	6881.18
438.96	6923.30
439.14	7183.10
439.33	7159.70
439.52	7140.97
439.70	7281.41
439.89	7368.01
440.08	7386.73
440.26	7339.92
440.45	7482.69
440.63	7478.01
440.82	7637.17
441.01	7410.14
441.19	7740.15
441.38	7852.50
441.57	7845.48
441.75	7868.88
441.94	8126.34
442.12	8032.72
442.31	7981.23
442.50	7946.12
442.68	7960.16
442.87	8107.62
443.05	8112.30
443.24	8191.88
443.43	8093.57
443.61	8325.29
443.80	8580.40
443.98	8121.66
444.17	7864.20
444.35	8229.32
444.54	8407.20
444.73	8374.44
444.91	8397.84
445.10	8578.06
445.28	8573.38
445.47	8374.44
445.65	8404.86
445.84	8500.83
446.02	8472.74
446.21	8458.70
446.39	8458.70
446.58	8521.89
446.77	8643.60
446.95	8430.61
447.14	8592.11
447.32	8645.94
447.51	8496.14
447.69	8664.66
447.88	8493.80
448.06	8493.80
448.25	8582.74
448.43	8657.64
448.62	8769.99
448.80	8606.15
448.99	8676.37
449.17	8849.57
449.36	8706.79
449.54	8835.52
449.73	9041.49
449.91	9104.68
450.10	9022.77
450.28	9125.75
450.46	9165.54
450.65	9107.02
450.83	9273.20
451.02	9336.40
451.20	9210.01
451.39	9291.93
451.57	9193.62
451.76	9233.41
451.94	9118.73
452.13	9320.01
452.31	9214.69
452.49	9179.58
452.68	9458.10
452.86	9284.91
453.05	9516.62
453.23	9542.36
453.42	9486.19
453.60	9397.25
453.78	9635.99
453.97	9362.14
454.15	9493.21
454.34	9561.09
454.52	9853.66
454.70	9635.99
454.89	9823.23
455.07	10038.56
455.26	9764.72
455.44	10017.49
455.62	9858.34
455.81	9905.15
455.99	10132.18
456.17	10111.11
456.36	10026.86
456.54	10150.90
456.73	10253.89
456.91	10413.04
457.09	10544.11
457.28	10565.18
457.46	10457.51
457.64	10806.25
457.83	10609.65
458.01	10546.45
458.19	10604.97
458.38	10686.89
458.56	10832.00
458.74	10822.64
458.93	10761.78
459.11	10867.11
459.29	10916.26
459.48	11047.33
459.66	10853.06
459.84	10864.77
460.03	11077.76
460.21	10906.90
460.39	11028.60
460.57	11040.31
460.76	11194.78
460.94	11346.92
461.12	11098.82
461.31	11166.70
461.49	11253.30
461.67	11440.54
461.85	11679.27
462.04	11435.86
462.22	11831.41
462.40	11559.91
462.59	11548.20
462.77	11548.20
462.95	11606.72
463.13	11590.33
463.32	11693.32
463.50	11651.19
463.68	11850.13
463.86	11903.96
464.05	11573.95
464.23	11836.09
464.41	11854.81
464.59	11800.98
464.78	12262.07
464.96	12067.80
465.14	12231.64
465.32	12215.26
465.50	12168.45
465.69	12175.47
465.87	12315.90
466.05	12250.36
466.23	11974.18
466.41	12189.51
466.60	12482.08
466.78	12238.66
466.96	12315.90
467.14	12372.07
467.32	12512.50
467.51	12648.26
467.69	12360.37
467.87	12496.12
468.05	12615.49
468.23	12594.42
468.41	12601.44
468.60	12566.34
468.78	12737.20
468.96	12713.79
469.14	12833.16
469.32	13022.74
469.50	12924.44
469.69	13221.69
469.87	12889.33
470.05	13207.64
470.23	13254.45
470.41	13348.08
470.59	13315.31
470.77	13352.76
470.95	13186.58
471.14	13729.58
471.32	13181.90
471.50	13561.06
471.68	14008.11
471.86	13731.92
472.04	13916.83
472.22	14232.80
472.40	14012.79
472.58	13905.12
472.77	14148.54
472.95	14214.07
473.13	14644.73
473.31	14181.31
473.49	14218.75
473.67	14221.10
473.85	14331.10
474.03	14785.16
474.21	14576.86
474.39	14815.59
474.57	14923.26
474.75	15206.46
474.93	14951.34
475.12	14963.04
475.30	15206.46
475.48	14876.44
475.66	15447.54
475.84	15204.12
476.02	15459.24
476.20	15452.22
476.38	15786.91
476.56	16095.86
476.74	15941.39
476.92	16175.44
477.10	15854.79
477.28	16407.16
477.46	16308.85
477.64	16428.22
477.82	16578.01
478.00	17104.64
478.18	16915.05
478.36	16996.97
478.54	17254.43
478.72	17193.58
478.90	17474.44
479.08	17783.39
479.26	17982.34
479.44	17834.88
479.62	17926.16
479.80	18085.32
479.98	18157.88
480.16	18757.05
480.34	18527.68
480.52	18726.63
480.70	18944.30
480.88	18787.48
481.06	18551.09
481.24	19185.37
481.41	19325.80
481.59	19424.11
481.77	19573.90
481.95	19674.54
482.13	20208.19
482.31	20109.88
482.49	20617.78
482.67	20332.23
482.85	20730.12
483.03	20629.48
483.21	20582.67
483.39	20875.24
483.57	20851.83
483.74	21315.26
483.92	21532.93
484.10	21326.96
484.28	21832.52
484.46	22525.32
484.64	22249.13
484.82	22164.87
485.00	22658.73
485.18	22831.93
485.35	23173.64
485.53	23370.25
485.71	23005.13
485.89	23892.19
486.07	23431.10
486.25	23721.33
486.43	23981.13
486.61	24102.84
486.78	24177.73
486.96	24456.26
487.14	24854.15
487.32	24304.12
487.50	24957.13
487.68	25020.33
487.85	25408.86
488.03	25848.88
488.21	26223.36
488.39	25855.90
488.57	26703.17
488.75	26536.99
488.92	26785.09
489.10	27227.45
489.28	26780.41
489.46	27122.13
489.64	27271.92
489.81	28074.73
489.99	28016.21
490.17	28039.62
490.35	28142.60
490.53	28575.60
490.70	28575.60
490.88	28638.80
491.06	28865.83
491.24	28994.56
491.41	29467.34
491.59	29296.49
491.77	29429.90
491.95	30033.75
492.13	30057.16
492.30	30160.14
492.48	30047.80
492.66	30401.22
492.84	30328.66
493.01	31271.90
493.19	30726.55
493.37	31328.07
493.54	30984.01
493.72	31381.90
493.90	31744.69
494.08	32032.57
494.25	31964.70
494.43	32577.92
494.61	32713.67
494.79	32804.95
494.96	32528.77
495.14	33125.60
495.32	33263.69
495.49	33200.50
495.67	33406.47
495.85	34235.02
496.02	34073.52
496.20	34359.06
496.38	34466.73
496.55	34036.07
496.73	35213.36
496.91	34906.75
497.09	34979.31
497.26	35295.28
497.44	35363.15
497.62	35824.24
497.79	36187.02
497.97	35770.41
498.14	36217.45
498.32	36418.74
498.50	36795.56
498.67	36900.89
498.85	36474.91
499.03	37081.11
499.20	37074.09
499.38	36872.80
499.56	37163.03
499.73	37727.10
499.91	37626.45
500.08	37940.08
500.26	37689.65
500.44	38007.96
500.61	38300.53
500.79	38031.36
500.97	38515.86
501.14	38885.66
501.32	38986.30
501.49	38667.99
501.67	39283.55
501.84	39054.18
502.02	39124.40
502.20	39150.14
502.37	39812.51
502.55	39526.97
502.72	39730.59
502.90	39927.20
503.07	39716.55
503.25	40076.99
503.43	40084.01
503.60	40236.15
503.78	40622.34
503.95	40823.62
504.13	40734.68
504.30	40804.90
504.48	40430.41
504.65	41006.19
504.83	41429.82
505.01	41179.39
505.18	41305.77
505.36	41989.21
505.53	41816.01
505.71	41965.81
505.88	42321.57
506.06	41816.01
506.23	42401.14
506.41	41975.17
506.58	42597.75
506.76	42490.09
506.93	42784.99
507.11	42705.41
507.28	42653.92
507.46	43033.09
507.63	42939.47
507.81	43407.58
507.98	43103.31
508.16	43517.58
508.33	43613.54
508.50	43775.04
508.68	44233.78
508.85	44421.03
509.03	44144.84
509.20	44395.28
509.38	44353.15
509.55	44769.77
509.73	44598.91
509.90	44952.33
510.08	44788.49
510.25	45268.30
510.42	44954.67
510.60	45511.72
510.77	45525.76
510.95	45565.55
511.12	45841.73
511.30	45315.11
511.47	45532.78
511.64	45794.92
511.82	45958.76
511.99	45904.93
512.17	46590.70
512.34	46277.07
512.51	46553.26
512.69	46768.58
512.86	46586.02
513.04	46871.57
513.21	47075.19
513.38	46937.10
513.56	47253.08
513.73	46932.42
513.90	47344.36
514.08	47276.48
514.25	47555.00
514.43	47730.54
514.60	48109.71
514.77	47665.01
514.95	48236.10
515.12	47906.08
515.29	47924.81
515.47	48041.84
515.64	48231.42
515.81	47943.53
515.99	48493.56
516.16	48725.27
516.33	48582.50
516.51	49113.80
516.68	48917.20
516.85	48863.36
517.03	48992.09
517.20	49277.64
517.37	49184.02
517.54	49275.30
517.72	49118.48
517.89	49368.92
518.06	49551.48
518.24	49450.84
518.41	48947.62
518.58	49467.22
518.75	49698.94
518.93	49682.55
519.10	49640.42
519.27	49858.09
519.45	50124.91
519.62	50370.67
519.79	50616.43
519.96	50387.05
520.14	50206.83
520.31	50293.43
520.48	51004.95
520.65	50457.27
520.83	51093.89
521.00	50880.91
521.17	50679.62
521.34	50904.31
521.52	51145.39
521.69	50719.41
521.86	51349.01
522.03	51271.78
522.20	51559.66
522.38	51611.15
522.55	51896.70
522.72	51767.97
522.89	51664.99
523.07	51728.18
523.24	51856.91
523.41	52140.11
523.58	51793.71
523.75	52236.08
523.92	52060.54
524.10	52470.13
524.27	52303.95
524.44	52397.57
524.61	52364.81
524.78	52301.61
524.96	52500.56
525.13	52509.92
525.30	52889.09
525.47	52687.80
525.64	52603.54
525.81	52877.38
525.98	52793.12
526.16	52788.44
526.33	53113.78
526.50	53146.54
526.67	52968.66
526.84	53202.72
527.01	53081.01
527.18	53160.59
527.36	53371.24
527.53	53277.61
527.70	53448.47
527.87	53652.10
528.04	53411.02
528.21	53396.98
528.38	53502.31
528.55	53619.33
528.72	53661.46
528.89	53696.57
529.07	53586.57
529.24	53670.82
529.41	53914.24
529.58	53808.92
529.75	53794.87
529.92	54204.47
530.09	54089.78
530.26	54176.38
530.43	54307.45
530.60	54003.18
530.77	54047.65
530.94	54335.54
531.11	54124.89
531.28	54246.60
531.46	54265.32
531.63	54316.81
531.80	54431.50
531.97	54852.80
532.14	54602.36
532.31	54759.17
532.48	54768.54
532.65	54864.50
532.82	54787.26
532.99	54555.55
533.16	54864.50
533.33	55063.44
533.50	55234.30
533.67	54780.24
533.84	55058.76
534.01	55348.99
534.18	55159.41
534.35	55386.44
534.52	55248.35
534.69	55674.32
534.86	55494.10
535.03	55547.93
535.20	55428.57
535.37	55466.02
535.54	55447.29
535.71	55739.86
535.88	55927.10
536.05	55440.27
536.22	55732.84
536.38	55852.20
536.55	55784.33
536.72	55561.98
536.89	55711.77
537.06	55765.60
537.23	56095.62
537.40	55655.60
537.57	55915.40
537.74	56165.84
537.91	56224.35
538.08	56100.30
538.25	56009.02
538.42	56217.33
538.59	56409.25
538.75	56229.03
538.92	56226.69
539.09	56617.56
539.26	56205.62
539.43	56573.09
539.60	56388.19
539.77	56367.12
539.94	56647.99
540.11	56425.64
540.28	56456.06
540.44	56453.72
540.61	56608.20
540.78	56781.40
540.95	56690.12
541.12	56720.54
541.29	56423.29
541.46	56657.35
541.62	56816.50
541.79	57062.26
541.96	56643.30
542.13	56811.82
542.30	56786.08
542.47	57041.20
542.63	57169.93
542.80	57137.16
542.97	57263.55
543.14	57394.62
543.31	57205.03
543.48	57382.91
543.64	57602.92
543.81	57546.75
543.98	57523.35
544.15	57612.29
544.32	57855.70
544.48	57925.92
544.65	57640.37
544.82	57799.53
544.99	57556.11
545.16	57584.20
545.32	57860.38
545.49	58094.44
545.66	58087.42
545.83	57750.38
546.00	57841.66
546.16	57769.10
546.33	57860.38
546.50	57579.52
546.67	57986.77
546.83	57621.65
547.00	58078.05
547.17	58038.26
547.34	58171.67
547.50	58017.20
547.67	58293.38
547.84	58295.72
548.00	58061.67
548.17	58440.84
548.34	58391.68
548.51	58457.22
548.67	58457.22
548.84	58351.90
549.01	58550.84
549.18	58323.81
549.34	58445.52
549.51	58461.90
549.68	58370.62
549.84	58576.59
550.01	58562.54
550.18	58508.71
550.34	58489.99
550.51	58726.38
550.68	58497.01
550.84	58466.58
551.01	58796.60
551.18	58803.62
551.34	58794.26
551.51	58763.83
551.68	58810.64
551.84	58866.81
552.01	58632.76
552.18	58946.39
552.34	58864.47
552.51	59079.80
552.68	58735.74
552.84	59047.04
553.01	59061.08
553.18	58988.52
553.34	58983.84
553.51	59061.08
553.67	59110.23
553.84	59257.68
554.01	59377.05
554.17	59180.45
554.34	59103.21
554.51	59187.47
554.67	59131.29
554.84	59196.83
555.00	59309.18
555.17	59341.94
555.33	59231.94
555.50	59091.51
555.67	59262.36
555.83	59103.21
556.00	59325.56
556.16	59667.28
556.33	59442.59
556.50	59456.63
556.66	59765.58
556.83	59353.65
556.99	59559.61
557.16	59475.35
557.32	59763.24
557.49	60006.65
557.65	59416.84
557.82	59711.75
557.98	59604.08
558.15	59494.08
558.32	59803.03
558.48	59458.97
558.65	59587.70
558.81	59730.47
558.98	59606.42
559.14	59723.45
559.31	59845.16
559.47	59824.09
559.64	59980.91
559.80	59898.99
559.97	59922.40
560.13	59711.75
560.30	59924.74
560.46	59868.56
560.63	59976.23
560.79	59891.97
560.96	60076.87
561.12	59980.91
561.29	60069.85
561.45	60044.10
561.61	60065.17
561.78	59969.21
561.94	59786.64
562.11	60004.31
562.27	60226.66
562.44	60104.96
562.60	60158.79
562.77	60140.07
562.93	59852.18
563.10	60116.66
563.26	60027.72
563.42	60392.84
563.59	60182.19
563.75	60432.63
563.92	60203.26
564.08	60198.58
564.24	60301.56
564.41	60123.68
564.57	60484.12
564.74	60453.70
564.90	60214.96
565.07	60233.69
565.23	60069.85
565.39	60236.03
565.56	60425.61
565.72	60320.29
565.88	60488.80
566.05	60271.14
566.21	60505.19
566.38	60362.42
566.54	60402.21
566.70	60587.11
566.87	60608.17
567.03	60254.75
567.19	60617.53
567.36	60409.23
567.52	60399.86
567.68	60542.64
567.85	60631.58
568.01	60605.83
568.17	60563.70
568.34	60797.76
568.50	60512.21
568.66	60362.42
568.83	60537.96
568.99	60650.30
569.15	60664.35
569.32	60786.05
569.48	60528.59
569.64	60598.81
569.81	60472.42
569.97	60484.12
570.13	60643.28
570.30	60711.16
570.46	60694.77
570.62	60896.06
570.78	60697.11
570.95	60809.46
571.11	60910.10
571.27	60713.50
571.43	60722.86
571.60	60907.76
571.76	60662.00
571.92	60830.52
572.09	60666.69
572.25	60779.03
572.41	60842.23
572.57	60821.16
572.74	60886.70
572.90	60732.22
573.06	60697.11
573.22	60736.90
573.38	60842.23
573.55	60704.13
573.71	61099.68
573.87	60853.93
574.03	60781.37
574.20	60942.87
574.36	60804.78
574.52	61022.45
574.68	60797.76
574.84	61289.27
575.01	61071.60
575.17	60872.65
575.33	60748.60
575.49	60811.80
575.65	61036.49
575.82	61003.72
575.98	60985.00
576.14	61193.31
576.30	61071.60
576.46	60973.30
576.62	60926.49
576.79	60905.42
576.95	60870.31
577.11	60994.36
577.27	61099.68
577.43	60879.67
577.59	60935.85
577.75	60842.23
577.92	60893.72
578.08	61064.58
578.24	60865.63
578.40	60933.51
578.56	61293.95
578.72	61036.49
578.88	61181.60
579.04	61092.66
579.21	61116.07
579.37	61228.41
579.53	61205.01
579.69	60884.36
579.85	61139.47
580.01	61158.20
580.17	61055.21
580.33	60961.59
580.49	61172.24
580.65	61073.94
580.82	60954.57
580.98	60970.96
581.14	60879.67
581.30	61111.39
581.46	61176.92
581.62	61242.46
581.78	61235.44
581.94	61322.04
582.10	61158.20
582.26	61214.37
582.42	61057.56
582.58	61195.65
582.74	61200.33
582.90	61230.75
583.06	61378.21
583.22	60985.00
583.38	61324.38
583.54	61277.57
583.70	61139.47
583.86	61312.67
584.02	61017.77
584.18	61162.88
584.34	61275.22
584.50	61251.82
584.66	61076.28
584.82	60985.00
584.98	61221.39
585.14	61251.82
585.30	61305.65
585.46	61064.58
585.62	61270.54
585.78	61460.13
585.94	61013.08
586.10	61181.60
586.26	61303.31
586.42	61123.09
586.58	61350.12
586.74	61251.82
586.90	61022.45
587.06	60973.30
587.22	61371.19
587.38	61172.24
587.54	61366.51
587.70	61357.14
587.86	61284.59
588.02	61296.29
588.18	61380.55
588.34	61190.97
588.49	61284.59
