SpectraSuite Data File
++++++++++++++++++++++++++++++++++++
Date: Fri Oct 25 11:22:32 EDT 2013
User: price-jones
Dark Spectrum Present: No
Reference Spectrum Present: No
Number of Sampled Component Spectra: 1
Spectrometers: USB2+H05261
Integration Time (usec): 100000 (USB2+H05261)
Spectra Averaged: 1 (USB2+H05261)
Boxcar Smoothing: 0 (USB2+H05261)
Correct for Electrical Dark: No (USB2+H05261)
Strobe/Lamp Enabled: No (USB2+H05261)
Correct for Detector Non-linearity: No (USB2+H05261)
Correct for Stray Light: No (USB2+H05261)
Number of Pixels in Processed Spectrum: 2048
>>>>>Begin Processed Spectral Data<<<<<
365.73	222.35
365.92	222.35
366.12	222.35
366.32	147.45
366.52	58.51
366.72	163.84
366.91	100.64
367.11	110.01
367.31	53.83
367.51	95.96
367.70	152.13
367.90	110.01
368.10	86.60
368.30	126.39
368.49	175.54
368.69	163.84
368.89	114.69
369.09	142.77
369.28	191.92
369.48	117.03
369.68	117.03
369.87	166.18
370.07	234.05
370.27	168.52
370.47	259.80
370.66	573.43
370.86	702.16
371.06	676.41
371.25	688.12
371.45	678.76
371.65	683.44
371.84	648.33
372.04	645.99
372.24	662.37
372.44	662.37
372.63	720.88
372.83	713.86
373.03	723.23
373.22	760.67
373.42	755.99
373.62	755.99
373.81	784.08
374.01	812.17
374.21	882.38
374.40	781.74
374.60	770.04
374.79	814.51
374.99	739.61
375.19	816.85
375.38	819.19
375.58	952.60
375.78	835.57
375.97	835.57
376.17	943.24
376.37	847.27
376.56	901.11
376.76	770.04
376.95	821.53
377.15	891.74
377.35	912.81
377.54	1001.75
377.74	837.91
377.93	983.02
378.13	842.59
378.33	926.85
378.52	837.91
378.72	912.81
378.91	978.34
379.11	929.19
379.31	987.71
379.50	908.13
379.70	997.07
379.89	1041.54
380.09	945.58
380.28	976.00
380.48	1034.52
380.68	997.07
380.87	994.73
381.07	1008.77
381.26	990.05
381.46	971.32
381.65	1048.56
381.85	1046.22
382.04	994.73
382.24	1090.69
382.43	1046.22
382.63	1128.14
382.83	1128.14
383.02	1097.71
383.22	1196.01
383.41	990.05
383.61	1109.41
383.80	1086.01
384.00	1114.10
384.19	1184.31
384.39	1226.44
384.58	1149.20
384.78	1146.86
384.97	1160.91
385.17	1181.97
385.36	1144.52
385.56	1184.31
385.75	1153.88
385.95	1151.54
386.14	1240.48
386.34	1181.97
386.53	1259.21
386.72	1184.31
386.92	1226.44
387.11	1235.80
387.31	1270.91
387.50	1196.01
387.70	1331.76
387.89	1296.66
388.09	1240.48
388.28	1324.74
388.48	1303.68
388.67	1394.96
388.86	1373.89
389.06	1273.25
389.25	1390.28
389.45	1362.19
389.64	1291.98
389.84	1406.66
390.03	1434.75
390.22	1394.96
390.42	1444.11
390.61	1430.07
390.81	1404.32
391.00	1380.92
391.19	1420.71
391.39	1387.94
391.58	1397.30
391.78	1509.65
391.97	1479.22
392.16	1462.83
392.36	1493.26
392.55	1568.16
392.75	1483.90
392.94	1612.63
393.13	1551.78
393.33	1540.07
393.52	1558.80
393.71	1678.16
393.91	1600.93
394.10	1638.38
394.29	1610.29
394.49	1598.59
394.68	1586.88
394.88	1629.01
395.07	1699.23
395.26	1619.65
395.46	1724.97
395.65	1769.44
395.84	1799.87
396.04	1774.13
396.23	1769.44
396.42	1710.93
396.62	1795.19
396.81	1788.17
397.00	1806.89
397.19	1783.49
397.39	1856.04
397.58	1750.72
397.77	1834.98
397.97	1834.98
398.16	1907.54
398.35	1837.32
398.55	1947.33
398.74	1912.22
398.93	1912.22
399.12	1959.03
399.32	1902.86
399.51	1961.37
399.70	2012.86
399.90	1998.82
400.09	1966.05
400.28	2076.06
400.47	1970.73
400.67	2047.97
400.86	1996.48
401.05	2080.74
401.24	2080.74
401.44	2036.27
401.63	2176.70
401.82	2122.87
402.01	2125.21
402.21	2232.87
402.40	2242.23
402.59	2282.02
402.78	2406.07
402.97	2253.94
403.17	2225.85
403.36	2237.55
403.55	2148.61
403.74	2349.90
403.93	2363.94
404.13	2331.17
404.32	2373.30
404.51	2387.35
404.70	2527.78
404.89	2354.58
405.09	2546.50
405.28	2448.20
405.47	2609.70
405.66	2516.08
405.85	2546.50
406.05	2633.10
406.24	2670.55
406.43	2593.31
406.62	2670.55
406.81	2740.77
407.00	2633.10
407.20	2558.21
407.39	2698.64
407.58	2745.45
407.77	2696.30
407.96	2764.17
408.15	2857.79
408.34	2806.30
408.54	2820.35
408.73	2752.47
408.92	2928.01
409.11	2925.67
409.30	2832.05
409.49	3009.93
409.68	2871.84
409.87	3028.65
410.07	2991.20
410.26	3152.70
410.45	2937.37
410.64	3133.98
410.83	3042.70
411.02	3138.66
411.21	3260.37
411.40	3215.90
411.59	3258.03
411.78	3206.53
411.98	3204.19
412.17	3386.76
412.36	3391.44
412.55	3328.24
412.74	3368.03
412.93	3407.82
413.12	3396.12
413.31	3742.52
413.50	3557.61
413.69	3604.42
413.88	3648.90
414.07	3646.55
414.26	3599.74
414.45	3581.02
414.64	3742.52
414.83	3756.56
415.02	3913.38
415.22	3915.72
415.41	3850.18
415.60	3925.08
415.79	4004.66
415.98	3875.93
416.17	4049.13
416.36	3997.64
416.55	3974.23
416.74	4030.40
416.93	4168.49
417.12	4109.98
417.31	4203.60
417.50	4264.46
417.69	4418.93
417.88	4313.61
418.07	4304.25
418.26	4367.44
418.45	4402.55
418.64	4519.57
418.83	4458.72
419.02	4512.55
419.21	4596.81
419.39	4592.13
419.58	4620.22
419.77	4383.82
419.96	4702.14
420.15	4589.79
420.34	4557.02
420.53	4755.97
420.72	4779.37
420.91	4500.85
421.10	4697.46
421.29	4774.69
421.48	4667.03
421.67	4873.00
421.86	4877.68
422.05	4847.25
422.24	4931.51
422.43	4870.65
422.61	4915.12
422.80	5095.35
422.99	4873.00
423.18	5053.22
423.37	5057.90
423.56	5001.72
423.75	4990.02
423.94	4919.81
424.13	4615.54
424.32	4805.12
424.50	5125.77
424.69	5287.27
424.88	5123.43
425.07	5001.72
425.26	4980.66
425.45	4975.98
425.64	5029.81
425.83	5165.56
426.01	5160.88
426.20	5219.39
426.39	5076.62
426.58	5095.35
426.77	5013.43
426.96	5235.78
427.15	5125.77
427.33	5282.59
427.52	5193.65
427.71	5425.36
427.90	5247.48
428.09	5472.17
428.28	5472.17
428.46	5413.66
428.65	5416.00
428.84	5638.35
429.03	5504.94
429.22	5441.75
429.40	5617.29
429.59	5448.77
429.78	5502.60
429.97	5308.34
430.16	5425.36
430.34	5741.33
430.53	5699.20
430.72	5689.84
430.91	5628.99
431.10	5621.97
431.28	5818.57
431.47	5900.49
431.66	5888.79
431.85	5928.58
432.03	6064.33
432.22	6080.71
432.41	5994.11
432.60	5872.40
432.79	6061.99
432.97	6104.12
433.16	6057.31
433.35	5968.37
433.54	6080.71
433.72	6324.13
433.91	6284.34
434.10	6335.83
434.28	6251.57
434.47	6321.79
434.66	6314.77
434.85	6427.11
435.03	6251.57
435.22	6305.40
435.41	6731.38
435.59	6396.68
435.78	6628.40
435.97	6560.52
436.16	6490.31
436.34	6394.34
436.53	6478.60
436.72	6729.04
436.90	6567.54
437.09	6679.89
437.28	6656.48
437.46	6705.63
437.65	6733.72
437.84	6834.36
438.02	6855.43
438.21	6841.39
438.40	6740.74
438.58	7049.69
438.77	7098.84
438.96	7077.78
439.14	7307.15
439.33	7059.06
439.52	7201.83
439.70	7328.22
439.89	7302.47
440.08	7468.65
440.26	7417.16
440.45	7470.99
440.63	7588.02
440.82	7721.43
441.01	7588.02
441.19	7775.26
441.38	7868.88
441.57	7836.11
441.75	7906.33
441.94	8116.98
442.12	7983.57
442.31	8161.45
442.50	8241.03
442.68	8149.75
442.87	8145.06
443.05	7971.86
443.24	8437.63
443.43	8255.07
443.61	8376.78
443.80	8512.53
443.98	8264.43
444.17	7911.01
444.35	8344.01
444.54	8383.80
444.73	8397.84
444.91	8468.06
445.10	8341.67
445.28	8519.55
445.47	8456.36
445.65	8409.54
445.84	8489.12
446.02	8526.57
446.21	8430.61
446.39	8491.46
446.58	8674.03
446.77	8662.32
446.95	8374.44
447.14	8510.19
447.32	8634.24
447.51	8470.40
447.69	8545.30
447.88	8622.53
448.06	8669.34
448.25	8681.05
448.43	8844.88
448.62	8767.65
448.80	8596.79
448.99	8758.28
449.17	8819.14
449.36	8732.54
449.54	8891.70
449.73	8973.61
449.91	9355.12
450.10	8971.27
450.28	9254.48
450.46	9158.52
450.65	9062.55
450.83	9282.56
451.02	9039.15
451.20	9315.33
451.39	9270.86
451.57	9324.69
451.76	9228.73
451.94	9343.42
452.13	9343.42
452.31	9544.70
452.49	9226.39
452.68	9268.52
452.86	9308.31
453.05	9554.07
453.23	9476.83
453.42	9362.14
453.60	9497.89
453.78	9610.24
453.97	9598.54
454.15	9781.10
454.34	9589.17
454.52	9755.35
454.70	9764.72
454.89	9727.27
455.07	9863.02
455.26	9837.27
455.44	10073.67
455.62	9980.04
455.81	10122.82
455.99	9940.26
456.17	10296.02
456.36	10104.09
456.54	10183.67
456.73	10141.54
456.91	10619.01
457.09	10394.32
457.28	10574.54
457.46	10408.36
457.64	10738.38
457.83	10707.95
458.01	10677.52
458.19	10958.39
458.38	10607.31
458.56	10981.79
458.74	10902.22
458.93	11009.88
459.11	10824.98
459.29	10775.83
459.48	10991.16
459.66	10787.53
459.84	11126.91
460.03	11016.90
460.21	10963.07
460.39	11096.48
460.57	11243.93
460.76	11110.52
460.94	11201.80
461.12	11232.23
461.31	11248.61
461.49	11351.60
461.67	11548.20
461.85	11536.50
462.04	11262.66
462.22	11983.54
462.40	11653.53
462.59	11744.81
462.77	11988.22
462.95	11779.92
463.13	11775.24
463.32	11463.94
463.50	11922.69
463.68	11721.40
463.86	11971.84
464.05	11609.06
464.23	11910.99
464.41	12379.09
464.59	11854.81
464.78	12226.96
464.96	12189.51
465.14	11983.54
465.32	12126.32
465.50	12578.04
465.69	12287.81
465.87	12346.33
466.05	12339.30
466.23	12280.79
466.41	12437.61
466.60	12432.93
466.78	12421.22
466.96	12458.67
467.14	12374.41
467.32	12341.64
467.51	12751.24
467.69	12367.39
467.87	12662.30
468.05	12807.41
468.23	12533.57
468.41	12556.97
468.60	12879.97
468.78	12847.20
468.96	12737.20
469.14	13209.98
469.32	13284.88
469.50	12791.03
469.69	13074.23
469.87	13392.55
470.05	13338.71
470.23	13254.45
470.41	13341.05
470.59	13551.70
470.77	13479.15
470.95	13465.10
471.14	13603.19
471.32	13193.60
471.50	13830.23
471.68	13865.33
471.86	13729.58
472.04	13635.96
472.22	14401.32
472.40	14099.39
472.58	13973.00
472.77	14134.50
472.95	14087.68
473.13	14794.53
473.31	14164.92
473.49	14494.94
473.67	14300.67
473.85	14490.26
474.03	14740.69
474.21	15035.60
474.39	14963.04
474.57	15066.03
474.75	15049.64
474.93	15152.63
475.12	15091.77
475.30	15580.95
475.48	15384.34
475.66	15356.25
475.84	15473.28
476.02	15765.85
476.20	15639.46
476.38	15859.47
476.56	16477.37
476.74	16210.55
476.92	16025.65
477.10	16032.67
477.28	16528.86
477.46	16547.59
477.64	16744.19
477.82	16851.86
478.00	17198.26
478.18	17032.08
478.36	17172.51
478.54	17191.23
478.72	17350.39
478.90	17521.25
479.08	17738.92
479.26	18015.10
479.44	17893.40
479.62	17923.82
479.80	18359.16
479.98	18352.14
480.16	18808.54
480.34	18576.83
480.52	18930.25
480.70	19124.52
480.88	18466.83
481.06	19276.65
481.24	19311.76
481.41	19386.66
481.59	19747.10
481.77	19845.40
481.95	19887.53
482.13	19934.34
482.31	20098.18
482.49	20453.94
482.67	20627.14
482.85	20940.77
483.03	20868.22
483.21	21008.65
483.39	21158.44
483.57	21186.53
483.74	21226.32
483.92	21333.98
484.10	21633.57
484.28	21884.01
484.46	22068.91
484.64	22363.82
484.82	22064.23
485.00	23044.91
485.18	23300.03
485.35	23543.45
485.53	23197.05
485.71	23461.53
485.89	24088.79
486.07	23775.16
486.25	23665.16
486.43	24056.03
486.61	24449.24
486.78	24180.07
486.96	25062.46
487.14	24922.02
487.32	24760.53
487.50	25305.87
487.68	25708.44
487.85	25713.13
488.03	25759.94
488.21	26281.88
488.39	26118.04
488.57	26263.15
488.75	26766.37
488.92	26773.39
489.10	27168.94
489.28	27218.09
489.46	27681.52
489.64	27517.68
489.81	28149.62
489.99	27807.90
490.17	28348.57
490.35	28526.45
490.53	28723.05
490.70	28896.25
490.88	28797.95
491.06	29193.50
491.24	28943.06
491.41	29708.42
491.59	29535.22
491.77	29661.61
491.95	30230.36
492.13	29977.58
492.30	30384.83
492.48	30274.83
492.66	30433.99
492.84	30703.15
493.01	31311.69
493.19	31124.44
493.37	31309.35
493.54	31639.36
493.72	32086.40
493.90	31723.62
494.08	32385.99
494.25	32498.34
494.43	32470.25
494.61	32589.62
494.79	32814.31
494.96	32919.63
495.14	33710.74
495.32	33476.68
495.49	34019.69
495.67	33486.04
495.85	34082.88
496.02	34422.26
496.20	34642.27
496.38	34235.02
496.55	34518.22
496.73	35304.64
496.91	34944.20
497.09	35117.40
497.26	35761.05
497.44	35494.22
497.62	35730.62
497.79	36402.35
497.97	35805.52
498.14	36163.62
498.32	37001.53
498.50	36472.57
498.67	37230.90
498.85	37041.32
499.03	37301.12
499.20	37376.01
499.38	37198.13
499.56	37383.04
499.73	37488.36
499.91	37801.99
500.08	38026.68
500.26	37759.86
500.44	38143.71
500.61	38321.59
500.79	38307.55
500.97	38433.94
501.14	39239.08
501.32	39145.46
501.49	38988.64
501.67	39126.74
501.84	39433.35
502.02	39416.96
502.20	39639.31
502.37	39655.70
502.55	39728.25
502.72	39896.77
502.90	40168.27
503.07	40226.79
503.25	40084.01
503.43	40268.92
503.60	41104.49
503.78	40577.87
503.95	40713.62
504.13	41106.83
504.30	41308.11
504.48	40830.65
504.65	41081.08
504.83	41420.46
505.01	41816.01
505.18	41968.15
505.36	42101.56
505.53	41731.75
505.71	42583.71
505.88	42422.21
506.06	42141.35
506.23	42387.10
506.41	42216.24
506.58	42380.08
506.76	42504.13
506.93	42976.92
507.11	42918.40
507.28	43194.59
507.46	42913.72
507.63	43550.35
507.81	43749.29
507.98	43824.19
508.16	43536.30
508.33	44222.08
508.50	44421.03
508.68	44182.29
508.85	44645.72
509.03	44626.99
509.20	44479.54
509.38	45296.39
509.55	44959.35
509.73	44624.65
509.90	45069.36
510.08	44818.92
510.25	45027.23
510.42	45249.58
510.60	45324.47
510.77	45628.74
510.95	46394.10
511.12	45375.97
511.30	45954.08
511.47	46169.41
511.64	45900.25
511.82	46663.26
511.99	45918.97
512.17	46115.58
512.34	46368.35
512.51	46763.90
512.69	47213.29
512.86	46836.46
513.04	46979.23
513.21	46738.16
513.38	46951.15
513.56	47601.82
513.73	47243.71
513.90	47870.98
514.08	47449.68
514.25	47737.57
514.43	47810.12
514.60	47662.67
514.77	47702.46
514.95	48285.25
515.12	48540.37
515.29	48144.82
515.47	48711.23
515.64	48994.43
515.81	48432.71
515.99	48751.02
516.16	49036.56
516.33	48825.92
516.51	49301.04
516.68	48980.39
516.85	48956.99
517.03	49045.93
517.20	49736.38
517.37	49319.77
517.54	49581.91
517.72	49179.34
517.89	49352.54
518.06	49736.38
518.24	49750.43
518.41	49762.13
518.58	50005.55
518.75	49954.05
518.93	50169.38
519.10	49743.41
519.27	50131.93
519.45	50237.26
519.62	50412.80
519.79	50220.87
519.96	50387.05
520.14	50564.93
520.31	50518.12
520.48	50569.61
520.65	50789.62
520.83	51229.65
521.00	51332.63
521.17	50948.78
521.34	51435.61
521.52	51103.26
521.69	51278.80
521.86	51695.41
522.03	51760.95
522.20	51730.52
522.38	52186.92
522.55	51859.25
522.72	51805.42
522.89	51955.21
523.07	52296.93
523.24	51901.38
523.41	52051.17
523.58	52107.35
523.75	52327.36
523.92	52467.79
524.10	52163.52
524.27	52287.57
524.44	52573.11
524.61	52486.51
524.78	52495.88
524.96	52617.58
525.13	53076.33
525.30	53059.94
525.47	52832.91
525.64	53359.53
525.81	53102.07
525.98	53125.48
526.16	52971.00
526.33	53055.26
526.50	53375.92
526.67	53352.51
526.84	53448.47
527.01	53516.35
527.18	53506.99
527.36	53345.49
527.53	53518.69
527.70	53722.32
527.87	53794.87
528.04	53572.52
528.21	53794.87
528.38	53673.16
528.55	53916.58
528.72	53750.40
528.89	53860.41
529.07	53909.56
529.24	53708.27
529.41	54033.61
529.58	54131.91
529.75	54188.08
529.92	54148.29
530.09	54391.71
530.26	54286.39
530.43	54450.22
530.60	54291.07
530.77	54113.19
530.94	54522.78
531.11	54295.75
531.28	54578.95
531.46	54330.86
531.63	54590.66
531.80	54607.04
531.97	54485.33
532.14	54951.10
532.31	54827.05
532.48	55182.81
532.65	54906.63
532.82	54724.07
532.99	55002.59
533.16	54850.45
533.33	55107.91
533.50	55243.66
533.67	55004.93
533.84	54904.29
534.01	55234.30
534.18	55154.72
534.35	55524.53
534.52	55372.39
534.69	55494.10
534.86	55470.70
535.03	55564.32
535.20	55767.94
535.37	55519.85
535.54	55547.93
535.71	55767.94
535.88	55791.35
536.05	55742.20
536.22	55735.18
536.38	56018.38
536.55	55866.25
536.72	56002.00
536.89	55725.81
537.06	56053.49
537.23	56156.47
537.40	56053.49
537.57	55978.59
537.74	56313.29
537.91	56460.74
538.08	56254.78
538.25	56130.73
538.42	56395.21
538.59	56596.49
538.75	56076.90
538.92	56317.97
539.09	56570.75
539.26	56488.83
539.43	56334.35
539.60	56615.22
539.77	56353.08
539.94	56830.55
540.11	56802.46
540.28	56671.39
540.44	56914.81
540.61	56961.62
540.78	56797.78
540.95	56687.78
541.12	56949.92
541.29	56844.59
541.46	56783.74
541.62	56807.14
541.79	57092.69
541.96	56746.29
542.13	57076.30
542.30	57205.03
542.47	57310.36
542.63	57240.14
542.80	57193.33
542.97	57205.03
543.14	57488.24
543.31	57600.58
543.48	57535.05
543.64	57626.33
543.81	57607.61
543.98	57834.64
544.15	57614.63
544.32	57965.71
544.48	57811.23
544.65	57708.25
544.82	57724.63
544.99	57687.18
545.16	57680.16
545.32	57640.37
545.49	57939.96
545.66	57897.83
545.83	58096.78
546.00	57946.98
546.16	57918.90
546.33	57958.69
546.50	57832.30
546.67	57848.68
546.83	57989.11
547.00	58019.54
547.17	58113.16
547.34	58117.84
547.50	58211.46
547.67	58499.35
547.84	58244.23
548.00	58642.12
548.17	58436.16
548.34	58309.77
548.51	58536.80
548.67	58562.54
548.84	58550.84
549.01	58457.22
549.18	58504.03
549.34	58365.94
549.51	58763.83
549.68	58548.50
549.84	58632.76
550.01	58738.08
550.18	58387.00
550.34	58698.30
550.51	58827.02
550.68	58714.68
550.84	58660.85
551.01	58922.99
551.18	58873.84
551.34	58773.19
551.51	58721.70
551.68	59077.46
551.84	58944.05
552.01	58761.49
552.18	59222.58
552.34	58941.71
552.51	59058.74
552.68	58967.46
552.84	58890.22
553.01	59159.38
553.18	59238.96
553.34	59398.12
553.51	58894.90
553.67	59283.43
553.84	59318.54
554.01	59419.18
554.17	59283.43
554.34	59143.00
554.51	59238.96
554.67	59400.46
554.84	59283.43
555.00	59318.54
555.17	59381.73
555.33	59355.99
555.50	59267.05
555.67	59498.76
555.83	59210.87
556.00	59430.88
556.16	59751.54
556.33	59639.19
556.50	59571.32
556.66	59620.47
556.83	59407.48
556.99	59611.10
557.16	59674.30
557.32	59849.84
557.49	59985.59
557.65	59557.27
557.82	59693.02
557.98	59632.17
558.15	59964.52
558.32	59875.58
558.48	59704.73
558.65	59646.21
558.81	59615.79
558.98	60006.65
559.14	59847.50
559.31	60104.96
559.47	60116.66
559.64	60079.21
559.80	60088.57
559.97	59990.27
560.13	59973.89
560.30	59964.52
560.46	59927.08
560.63	60123.68
560.79	60126.02
560.96	60381.14
561.12	60247.73
561.29	60299.22
561.45	60238.37
561.61	60088.57
561.78	60193.90
561.94	60252.41
562.11	60175.17
562.27	60427.95
562.44	60191.56
562.60	60334.33
562.77	60441.99
562.93	60191.56
563.10	60591.79
563.26	60317.95
563.42	60484.12
563.59	60514.55
563.75	60451.36
563.92	60170.49
564.08	60303.90
564.24	60383.48
564.41	60434.97
564.57	60509.87
564.74	60495.83
564.90	60343.69
565.07	60439.65
565.23	60594.13
565.39	60336.67
565.56	60591.79
565.72	60432.63
565.88	60612.85
566.05	60441.99
566.21	60343.69
566.38	60692.43
566.54	60683.07
566.70	60837.54
566.87	60764.99
567.03	60378.80
567.19	60739.24
567.36	60729.88
567.52	60811.80
567.68	60706.47
567.85	60884.36
568.01	60874.99
568.17	60654.98
568.34	60725.20
568.50	60610.51
568.66	60669.03
568.83	60739.24
568.99	60542.64
569.15	60823.50
569.32	60783.71
569.48	60729.88
569.64	61031.81
569.81	60821.16
569.97	60764.99
570.13	60697.11
570.30	60748.60
570.46	60853.93
570.62	60910.10
570.78	61006.06
570.95	60781.37
571.11	60926.49
571.27	60624.56
571.43	60949.89
571.60	60982.66
571.76	60942.87
571.92	60910.10
572.09	60795.42
572.25	61062.24
572.41	60942.87
572.57	61008.40
572.74	61132.45
572.90	61099.68
573.06	61057.56
573.22	60982.66
573.38	60790.73
573.55	60814.14
573.71	61212.03
573.87	60966.27
574.03	60846.91
574.20	60973.30
574.36	60891.38
574.52	61010.74
574.68	61036.49
574.84	61153.52
575.01	61080.96
575.17	60982.66
575.33	61013.08
575.49	61052.87
575.65	61272.88
575.82	61275.22
575.98	61050.53
576.14	61123.09
576.30	61057.56
576.46	61041.17
576.62	61041.17
576.79	61162.88
576.95	60956.91
577.11	61169.90
577.27	61155.86
577.43	61289.27
577.59	61013.08
577.75	61062.24
577.92	61116.07
578.08	61069.26
578.24	61148.84
578.40	61279.91
578.56	61286.93
578.72	61109.05
578.88	61275.22
579.04	61375.87
579.21	61228.41
579.37	61219.05
579.53	61387.57
579.69	60903.08
579.85	61322.04
580.01	61214.37
580.17	61041.17
580.33	61209.69
580.49	61212.03
580.65	61244.80
580.82	61134.79
580.98	60987.34
581.14	61317.35
581.30	61216.71
581.46	61174.58
581.62	61389.91
581.78	61024.79
581.94	61422.68
582.10	61357.14
582.26	61123.09
582.42	60989.68
582.58	61413.32
582.74	61242.46
582.90	61179.26
583.06	61324.38
583.22	61137.13
583.38	61303.31
583.54	61354.80
583.70	61331.40
583.86	61434.38
584.02	61228.41
584.18	61118.41
584.34	61272.88
584.50	61310.33
584.66	61221.39
584.82	61141.81
584.98	61546.73
585.14	61448.42
585.30	61095.00
585.46	61254.16
585.62	61436.72
585.78	61373.53
585.94	61296.29
586.10	61291.61
586.26	61406.30
586.42	61352.46
586.58	61378.21
586.74	61460.13
586.90	61214.37
587.06	61083.30
587.22	61535.02
587.38	61333.74
587.54	61642.69
587.70	61427.36
587.86	61366.51
588.02	61338.42
588.18	61602.90
588.34	61322.04
588.49	61408.64
