SpectraSuite Data File
++++++++++++++++++++++++++++++++++++
Date: Fri Oct 25 11:34:02 EDT 2013
User: price-jones
Dark Spectrum Present: No
Reference Spectrum Present: No
Number of Sampled Component Spectra: 1
Spectrometers: USB2+H05261
Integration Time (usec): 100000 (USB2+H05261)
Spectra Averaged: 1 (USB2+H05261)
Boxcar Smoothing: 0 (USB2+H05261)
Correct for Electrical Dark: No (USB2+H05261)
Strobe/Lamp Enabled: No (USB2+H05261)
Correct for Detector Non-linearity: No (USB2+H05261)
Correct for Stray Light: No (USB2+H05261)
Number of Pixels in Processed Spectrum: 2048
>>>>>Begin Processed Spectral Data<<<<<
365.73	301.93
365.92	301.93
366.12	301.93
366.32	252.78
366.52	248.10
366.72	278.52
366.91	93.62
367.11	224.69
367.31	175.54
367.51	182.56
367.70	126.39
367.90	110.01
368.10	222.35
368.30	194.26
368.49	184.90
368.69	170.86
368.89	220.01
369.09	280.86
369.28	142.77
369.48	250.44
369.68	224.69
369.87	196.60
370.07	257.46
370.27	341.72
370.47	402.57
370.66	489.17
370.86	444.70
371.06	491.51
371.25	550.03
371.45	479.81
371.65	552.37
371.84	475.13
372.04	491.51
372.24	622.58
372.44	561.73
372.63	564.07
372.83	620.24
373.03	636.63
373.22	538.32
373.42	589.82
373.62	606.20
373.81	631.94
374.01	622.58
374.21	641.31
374.40	627.26
374.60	610.88
374.79	627.26
374.99	620.24
375.19	727.91
375.38	655.35
375.58	674.07
375.78	744.29
375.97	643.65
376.17	713.86
376.37	643.65
376.56	655.35
376.76	685.78
376.95	692.80
377.15	678.76
377.35	599.18
377.54	669.39
377.74	671.73
377.93	695.14
378.13	748.97
378.33	725.57
378.52	727.91
378.72	662.37
378.91	669.39
379.11	631.94
379.31	674.07
379.50	671.73
379.70	716.20
379.89	732.59
380.09	669.39
380.28	629.60
380.48	718.54
380.68	758.33
380.87	755.99
381.07	770.04
381.26	741.95
381.46	819.19
381.65	802.80
381.85	692.80
382.04	758.33
382.24	760.67
382.43	760.67
382.63	784.08
382.83	758.33
383.02	786.42
383.22	821.53
383.41	840.25
383.61	739.61
383.80	739.61
384.00	798.12
384.19	828.55
384.39	788.76
384.58	784.08
384.78	826.21
384.97	760.67
385.17	786.42
385.36	805.14
385.56	828.55
385.75	856.64
385.95	830.89
386.14	870.68
386.34	882.38
386.53	854.30
386.72	821.53
386.92	894.08
387.11	863.66
387.31	931.53
387.50	873.02
387.70	961.96
387.89	884.72
388.09	924.51
388.28	868.34
388.48	919.83
388.67	945.58
388.86	1004.09
389.06	968.98
389.25	992.39
389.45	933.87
389.64	945.58
389.84	1060.26
390.03	983.02
390.22	976.00
390.42	882.38
390.61	959.62
390.81	1039.20
391.00	978.34
391.19	1006.43
391.39	1025.15
391.58	950.26
391.78	1008.77
391.97	1057.92
392.16	1041.54
392.36	999.41
392.55	1062.60
392.75	1125.80
392.94	1020.47
393.13	1020.47
393.33	1055.58
393.52	1069.62
393.71	1083.67
393.91	1095.37
394.10	1039.20
394.29	1071.97
394.49	1102.39
394.68	1104.73
394.88	1081.33
395.07	1107.07
395.26	1100.05
395.46	1090.69
395.65	1125.80
395.84	1224.10
396.04	1301.34
396.23	1207.72
396.42	1240.48
396.62	1210.06
396.81	1231.12
397.00	1188.99
397.19	1224.10
397.39	1212.40
397.58	1301.34
397.77	1165.59
397.97	1252.19
398.16	1256.87
398.35	1315.38
398.55	1359.85
398.74	1299.00
398.93	1383.26
399.12	1322.40
399.32	1270.91
399.51	1270.91
399.70	1371.55
399.90	1329.42
400.09	1383.26
400.28	1439.43
400.47	1387.94
400.67	1329.42
400.86	1451.13
401.05	1418.36
401.24	1397.30
401.44	1486.24
401.63	1507.30
401.82	1507.30
402.01	1423.05
402.21	1439.43
402.40	1462.83
402.59	1460.49
402.78	1406.66
402.97	1577.52
403.17	1507.30
403.36	1540.07
403.55	1519.01
403.74	1533.05
403.93	1603.27
404.13	1619.65
404.32	1631.35
404.51	1610.29
404.70	1631.35
404.89	1629.01
405.09	1668.80
405.28	1650.08
405.47	1661.78
405.66	1629.01
405.85	1715.61
406.05	1671.14
406.24	1680.50
406.43	1708.59
406.62	1764.76
406.81	1788.17
407.00	1682.85
407.20	1722.63
407.39	1755.40
407.58	1884.13
407.77	1816.26
407.96	1816.26
408.15	1823.28
408.34	1853.70
408.54	1912.22
408.73	1783.49
408.92	2012.86
409.11	1961.37
409.30	1853.70
409.49	1998.82
409.68	1966.05
409.87	2022.22
410.07	2024.56
410.26	2057.33
410.45	2059.67
410.64	2029.24
410.83	2069.03
411.02	2090.10
411.21	2174.36
411.40	2097.12
411.59	2157.97
411.78	2200.10
411.98	2132.23
412.17	2298.41
412.36	2207.13
412.55	2263.30
412.74	2349.90
412.93	2382.67
413.12	2293.72
413.31	2387.35
413.50	2434.16
413.69	2272.66
413.88	2459.90
414.07	2448.20
414.26	2452.88
414.45	2459.90
414.64	2546.50
414.83	2511.39
415.02	2602.68
415.22	2647.15
415.41	2640.12
415.60	2630.76
415.79	2607.36
415.98	2689.28
416.17	2740.77
416.36	2684.59
416.55	2602.68
416.74	2801.62
416.93	2745.45
417.12	2782.90
417.31	2899.92
417.50	2855.45
417.69	2881.20
417.88	2876.52
418.07	2963.12
418.26	2869.50
418.45	2920.99
418.64	2946.73
418.83	2960.78
419.02	2979.50
419.21	2944.39
419.39	2881.20
419.58	3143.34
419.77	3094.19
419.96	3073.12
420.15	3276.75
420.34	3162.06
420.53	3096.53
420.72	3157.38
420.91	3194.83
421.10	3108.23
421.29	3283.77
421.48	3201.85
421.67	3190.15
421.86	3286.11
422.05	3262.71
422.24	3251.00
422.43	3290.79
422.61	3342.28
422.80	3384.41
422.99	3300.16
423.18	3440.59
423.37	3421.86
423.56	3370.37
423.75	3461.65
423.94	3265.05
424.13	3080.14
424.32	3337.60
424.50	3358.67
424.69	3492.08
424.88	3548.25
425.07	3382.07
425.26	3337.60
425.45	3365.69
425.64	3382.07
425.83	3433.57
426.01	3407.82
426.20	3377.39
426.39	3414.84
426.58	3396.12
426.77	3440.59
426.96	3517.83
427.15	3442.93
427.33	3520.17
427.52	3508.46
427.71	3541.23
427.90	3632.51
428.09	3583.36
428.28	3559.95
428.46	3552.93
428.65	3482.72
428.84	3618.47
429.03	3655.92
429.22	3655.92
429.40	3662.94
429.59	3691.02
429.78	3597.40
429.97	3627.83
430.16	3672.30
430.34	3744.86
430.53	3831.46
430.72	3899.33
430.91	3826.78
431.10	3784.65
431.28	3915.72
431.47	3948.48
431.66	4046.79
431.85	3857.20
432.03	4126.36
432.22	4154.45
432.41	3990.61
432.60	4039.76
432.79	4032.74
432.97	4112.32
433.16	4147.43
433.35	4051.47
433.54	4142.75
433.72	4184.88
433.91	4105.30
434.10	4219.99
434.28	4128.70
434.47	4217.65
434.66	4306.59
434.85	4255.09
435.03	4229.35
435.22	4168.49
435.41	4472.76
435.59	4442.34
435.78	4341.69
435.97	4329.99
436.16	4358.08
436.34	4390.84
436.53	4372.12
436.72	4559.36
436.90	4234.03
437.09	4402.55
437.28	4456.38
437.46	4407.23
437.65	4482.13
437.84	4531.28
438.02	4545.32
438.21	4557.02
438.40	4425.95
438.58	4505.53
438.77	4798.10
438.96	4748.95
439.14	4718.52
439.33	4734.90
439.52	4863.63
439.70	4819.16
439.89	4994.70
440.08	5015.77
440.26	5085.98
440.45	5015.77
440.63	4971.30
440.82	5006.41
441.01	5102.37
441.19	4968.96
441.38	5390.25
441.57	5219.39
441.75	5231.10
441.94	5315.36
442.12	5195.99
442.31	5411.32
442.50	5385.57
442.68	5411.32
442.87	5392.59
443.05	5481.53
443.24	5476.85
443.43	5355.15
443.61	5444.09
443.80	5605.58
443.98	5390.25
444.17	5296.63
444.35	5495.58
444.54	5544.73
444.73	5605.58
444.91	5472.17
445.10	5521.32
445.28	5640.69
445.47	5579.84
445.65	5509.62
445.84	5577.50
446.02	5673.46
446.21	5694.52
446.39	5455.79
446.58	5577.50
446.77	5668.78
446.95	5523.66
447.14	5636.01
447.32	5673.46
447.51	5582.18
447.69	5687.50
447.88	5706.23
448.06	5600.90
448.25	5834.96
448.43	5720.27
448.62	5795.17
448.80	5820.91
448.99	5755.38
449.17	5907.51
449.36	5764.74
449.54	5895.81
449.73	5980.07
449.91	5937.94
450.10	5998.79
450.28	6073.69
450.46	6045.60
450.65	6080.71
450.83	6031.56
451.02	6008.16
451.20	5940.28
451.39	6195.40
451.57	5973.05
451.76	6057.31
451.94	6087.73
452.13	6296.04
452.31	6195.40
452.49	6094.76
452.68	6181.35
452.86	6265.61
453.05	6244.55
453.23	6370.94
453.42	6139.23
453.60	6223.48
453.78	6368.60
453.97	6235.19
454.15	6202.42
454.34	6377.96
454.52	6321.79
454.70	6478.60
454.89	6410.73
455.07	6633.08
455.26	6492.65
455.44	6607.33
455.62	6534.78
455.81	6588.61
455.99	6609.67
456.17	6541.80
456.36	6651.80
456.54	6766.49
456.73	6829.68
456.91	6787.55
457.09	6853.09
457.28	6869.47
457.46	6883.52
457.64	6956.07
457.83	6899.90
458.01	6993.52
458.19	7089.48
458.38	6841.39
458.56	7056.72
458.74	7131.61
458.93	7009.90
459.11	7061.40
459.29	7077.78
459.48	7089.48
459.66	7061.40
459.84	7185.44
460.03	7358.64
460.21	7344.60
460.39	7307.15
460.57	7218.21
460.76	7412.48
460.94	7290.77
461.12	7382.05
461.31	7449.93
461.49	7480.35
461.67	7302.47
461.85	7616.10
462.04	7529.50
462.22	7824.41
462.40	7578.65
462.59	7728.45
462.77	7676.96
462.95	7712.07
463.13	7728.45
463.32	7496.74
463.50	7892.29
463.68	7833.77
463.86	7726.11
464.05	7819.73
464.23	7686.32
464.41	7803.35
464.59	7485.03
464.78	7906.33
464.96	7831.43
465.14	7831.43
465.32	8116.98
465.50	8081.87
465.69	8053.78
465.87	7770.58
466.05	8023.36
466.23	8006.97
466.41	7920.37
466.60	8264.43
466.78	8025.70
466.96	8039.74
467.14	8142.72
467.32	8135.70
467.51	8147.40
467.69	8021.02
467.87	8280.82
468.05	8142.72
468.23	8215.28
468.41	8044.42
468.60	8205.92
468.78	8217.62
468.96	8161.45
469.14	8332.31
469.32	8496.14
469.50	8238.69
469.69	8414.23
469.87	8589.77
470.05	8594.45
470.23	8580.40
470.41	8650.62
470.59	8872.97
470.77	8683.39
470.95	8641.26
471.14	8915.10
471.32	8809.78
471.50	8854.25
471.68	8919.78
471.86	8952.55
472.04	9062.55
472.22	9118.73
472.40	9046.17
472.58	9060.21
472.77	9172.56
472.95	9104.68
473.13	9469.81
473.31	9238.09
473.49	9364.48
473.67	9268.52
473.85	9380.87
474.03	9514.28
474.21	9738.97
474.39	9933.23
474.57	9575.13
474.75	9757.69
474.93	9856.00
475.12	9678.12
475.30	9919.19
475.48	9830.25
475.66	9961.32
475.84	9879.40
476.02	9975.36
476.20	10090.05
476.38	10193.03
476.56	10541.77
476.74	10267.93
476.92	10200.05
477.10	10202.40
477.28	10492.62
477.46	10520.71
477.64	10668.16
477.82	10785.19
478.00	11047.33
478.18	10841.36
478.36	11147.97
478.54	11089.46
478.72	11328.19
478.90	11470.97
479.08	11459.26
479.26	11644.17
479.44	11569.27
479.62	11424.15
479.80	11873.54
479.98	11796.30
480.16	11812.68
480.34	11824.39
480.52	12112.27
480.70	12067.80
480.88	11882.90
481.06	12133.34
481.24	12173.13
481.41	12503.14
481.59	12582.72
481.77	12439.95
481.95	12496.12
482.13	12812.09
482.31	12659.96
482.49	12954.87
482.67	13020.40
482.85	13226.37
483.03	13273.18
483.21	13635.96
483.39	13542.34
483.57	13355.10
483.74	13769.37
483.92	13722.56
484.10	13764.69
484.28	14111.09
484.46	14310.04
484.64	14565.15
484.82	14169.60
485.00	14188.33
485.18	14623.67
485.35	14757.08
485.53	14691.54
485.71	14780.48
485.89	15227.53
486.07	15098.80
486.25	14991.13
486.43	15094.11
486.61	15534.14
486.78	15452.22
486.96	15751.81
487.14	15789.25
487.32	15772.87
487.50	15864.15
487.68	16182.46
487.85	16236.30
488.03	16381.41
488.21	16624.83
488.39	16821.43
488.57	16821.43
488.75	16798.02
488.92	16865.90
489.10	17003.99
489.28	17582.10
489.46	17558.70
489.64	17607.85
489.81	17523.59
489.99	17996.38
490.17	18036.17
490.35	18157.88
490.53	18263.20
490.70	18527.68
490.88	18265.54
491.06	18642.37
491.24	18518.32
491.41	18689.18
491.59	18855.36
491.77	18920.89
491.95	18920.89
492.13	19290.70
492.30	19152.60
492.48	19419.42
492.66	19391.34
492.84	19646.46
493.01	19885.19
493.19	19927.32
493.37	20217.55
493.54	19932.00
493.72	20409.47
493.90	19836.04
494.08	20414.15
494.25	20428.20
494.43	20645.87
494.61	20676.29
494.79	20954.82
494.96	21048.44
495.14	21362.07
495.32	21500.16
495.49	21331.64
495.67	21315.26
495.85	21642.93
496.02	21642.93
496.20	21820.81
496.38	22024.44
496.55	22171.89
496.73	22199.98
496.91	22349.78
497.09	22441.06
497.26	22476.16
497.44	22562.76
497.62	22661.07
497.79	22902.14
497.97	22984.06
498.14	22923.21
498.32	23190.03
498.50	23000.44
498.67	23459.19
498.85	23520.04
499.03	23576.22
499.20	23920.28
499.38	23405.36
499.56	24224.54
499.73	23960.06
499.91	24109.86
500.08	24376.68
500.26	24449.24
500.44	24353.27
500.61	24533.50
500.79	24538.18
500.97	24781.59
501.14	25144.38
501.32	25076.50
501.49	24989.90
501.67	25027.35
501.84	25109.27
502.02	24945.43
502.20	25308.21
502.37	25041.39
502.55	25532.90
502.72	25472.05
502.90	25387.79
503.07	25273.10
503.25	25741.21
503.43	25355.02
503.60	25865.26
503.78	26073.57
503.95	25675.68
504.13	26190.59
504.30	25795.04
504.48	26108.68
504.65	26260.81
504.83	26513.59
505.01	26806.16
505.18	26534.65
505.36	27044.89
505.53	27033.19
505.71	26745.30
505.88	27185.32
506.06	26843.60
506.23	27290.65
506.41	27098.72
506.58	27152.55
506.76	27070.64
506.93	27569.17
507.11	27480.23
507.28	27555.13
507.46	27681.52
507.63	27828.97
507.81	27882.80
507.98	27903.87
508.16	27953.02
508.33	28098.13
508.50	28254.95
508.68	28212.82
508.85	28130.90
509.03	28533.47
509.20	28489.00
509.38	29043.71
509.55	28905.62
509.73	28687.95
509.90	28559.22
510.08	29305.85
510.25	28671.56
510.42	28943.06
510.60	29151.37
510.77	29284.78
510.95	29261.38
511.12	29432.24
511.30	29443.94
511.47	29385.43
511.64	29640.54
511.82	30019.71
511.99	29591.39
512.17	29914.39
512.34	29827.79
512.51	30279.51
512.69	30576.76
512.86	29862.90
513.04	30319.30
513.21	30658.68
513.38	30532.29
513.56	30590.80
513.73	30696.13
513.90	30670.38
514.08	30696.13
514.25	31072.95
514.43	31178.28
514.60	31185.30
514.77	30909.11
514.95	31644.04
515.12	30965.29
515.29	31482.55
515.47	31571.49
515.64	31751.71
515.81	31456.80
515.99	31501.27
516.16	32058.32
516.33	31955.33
516.51	31969.38
516.68	31697.88
516.85	31908.52
517.03	32264.28
517.20	31826.60
517.37	31803.20
517.54	32449.19
517.72	32208.11
517.89	32231.52
518.06	32217.47
518.24	32720.69
518.41	32418.76
518.58	32921.98
518.75	32252.58
518.93	32933.68
519.10	32818.99
519.27	33153.69
519.45	33177.09
519.62	33127.94
519.79	32966.45
519.96	33275.40
520.14	33347.95
520.31	33132.62
520.48	33434.55
520.65	32980.49
520.83	33745.84
521.00	33640.52
521.17	33518.81
521.34	34024.37
521.52	34015.01
521.69	34040.75
521.86	34396.51
522.03	34005.64
522.20	34567.37
522.38	34448.00
522.55	34859.94
522.72	34162.46
522.89	34263.10
523.07	34969.94
523.24	34560.35
523.41	34689.08
523.58	34700.78
523.75	35129.10
523.92	34836.53
524.10	35016.75
524.27	35047.18
524.44	35526.99
524.61	35173.57
524.78	35297.62
524.96	35644.02
525.13	35491.88
525.30	35639.34
525.47	35562.10
525.64	35344.43
525.81	35690.83
525.98	35711.89
526.16	35770.41
526.33	35695.51
526.50	36114.47
526.67	35824.24
526.84	35992.76
527.01	35730.62
527.18	36135.53
527.36	36009.14
527.53	36046.59
527.70	36556.83
527.87	36559.17
528.04	36287.67
528.21	36341.50
528.38	36563.85
528.55	36311.07
528.72	36268.94
528.89	36788.54
529.07	36495.97
529.24	36481.93
529.41	36847.05
529.58	37174.73
529.75	36875.14
529.92	37081.11
530.09	36999.19
530.26	37282.39
530.43	36996.85
530.60	37064.72
530.77	37127.92
530.94	37289.42
531.11	37247.29
531.28	37312.82
531.46	37493.04
531.63	37270.69
531.80	37619.43
531.97	37717.73
532.14	37474.32
532.31	37748.16
532.48	37979.87
532.65	38387.13
532.82	37331.54
532.99	37745.82
533.16	37769.22
533.33	38307.55
533.50	38005.62
533.67	38157.75
533.84	38288.82
534.01	38218.61
534.18	38059.45
534.35	38356.70
534.52	38312.23
534.69	38630.54
534.86	38747.57
535.03	38586.07
535.20	38588.41
535.37	38792.04
535.54	39061.20
535.71	38366.06
535.88	39138.44
536.05	39292.91
536.22	39220.36
536.38	38686.71
536.55	38724.16
536.72	39000.35
536.89	39318.66
537.06	39330.36
537.23	39526.97
537.40	39075.24
537.57	39044.82
537.74	38859.91
537.91	40065.29
538.08	39723.57
538.25	39044.82
538.42	39707.19
538.59	39550.37
538.75	39852.30
538.92	39810.17
539.09	39938.90
539.26	39739.96
539.43	39557.39
539.60	40231.47
539.77	39948.26
539.94	40126.14
540.11	40287.64
540.28	40034.86
540.44	39941.24
540.61	39941.24
540.78	40407.01
540.95	40025.50
541.12	40133.17
541.29	40011.46
541.46	40130.83
541.62	40568.51
541.79	40528.72
541.96	40154.23
542.13	40275.94
542.30	40477.22
542.47	40479.57
542.63	40994.48
542.80	40849.37
542.97	41729.41
543.14	41565.57
543.31	41193.43
543.48	40884.48
543.64	41614.72
543.81	41422.80
543.98	41343.22
544.15	41090.44
544.32	41600.68
544.48	42019.64
544.65	41581.96
544.82	41352.58
544.99	41031.93
545.16	41345.56
545.32	41745.80
545.49	41975.17
545.66	42377.74
545.83	42148.37
546.00	42139.00
546.16	42021.98
546.33	41687.28
546.50	41631.11
546.67	42110.92
546.83	41553.87
547.00	41778.56
547.17	42024.32
547.34	42113.26
547.50	42340.29
547.67	42483.06
547.84	41830.05
548.00	42260.71
548.17	42686.69
548.34	42745.20
548.51	42693.71
548.67	42382.42
548.84	42370.72
549.01	42490.09
549.18	42707.76
549.34	42951.17
549.51	43248.42
549.68	42890.32
549.84	42712.44
550.01	42890.32
550.18	42490.09
550.34	43047.13
550.51	42775.63
550.68	43274.16
550.84	42574.34
551.01	43227.35
551.18	43171.18
551.34	42738.18
551.51	43049.47
551.68	43077.56
551.84	43016.71
552.01	43239.06
552.18	43194.59
552.34	43566.73
552.51	43402.89
552.68	43035.43
552.84	43662.69
553.01	43852.28
553.18	43019.05
553.34	43344.38
553.51	43402.89
553.67	43962.28
553.84	43814.83
554.01	43667.37
554.17	43299.91
554.34	43903.77
554.51	43416.94
554.67	44296.98
554.84	44107.40
555.00	43658.01
555.17	43466.09
555.33	44032.50
555.50	43969.30
555.67	44095.69
555.83	44168.25
556.00	44135.48
556.16	44229.10
556.33	43924.83
556.50	44140.16
556.66	44444.43
556.83	44172.93
556.99	44549.76
557.16	44524.01
557.32	44561.46
557.49	44809.56
557.65	44081.65
557.82	44198.68
557.98	44428.05
558.15	44484.22
558.32	44608.27
558.48	44081.65
558.65	44367.20
558.81	44622.31
558.98	44830.62
559.14	44664.44
559.31	44772.11
559.47	44641.04
559.64	44617.63
559.80	44666.78
559.97	45003.82
560.13	44863.39
560.30	44804.88
560.46	44903.18
560.63	45134.89
560.79	44964.03
560.96	44987.44
561.12	44987.44
561.29	45120.85
561.45	44914.88
561.61	44762.75
561.78	45394.69
561.94	45006.16
562.11	45165.32
562.27	44788.49
562.44	44891.48
562.60	45251.92
562.77	45404.05
562.93	44994.46
563.10	45588.95
563.26	45373.63
563.42	45511.72
563.59	45790.24
563.75	44973.39
563.92	45364.26
564.08	45088.08
564.24	45127.87
564.41	45277.66
564.57	45158.30
564.74	45113.83
564.90	44973.39
565.07	45357.24
565.23	44949.99
565.39	45631.08
565.56	45778.54
565.72	45434.48
565.88	45471.93
566.05	45570.23
566.21	45394.69
566.38	45621.72
566.54	45804.28
566.70	45067.02
566.87	45713.00
567.03	45469.59
567.19	46101.53
567.36	45418.10
567.52	45368.94
567.68	46146.00
567.85	45612.36
568.01	46113.23
568.17	45415.76
568.34	45848.75
568.50	45675.55
568.66	45560.87
568.83	45579.59
568.99	45862.80
569.15	45984.51
569.32	45687.26
569.48	45546.82
569.64	46223.24
569.81	45659.17
569.97	46000.89
570.13	46087.49
570.30	45865.14
570.46	46096.85
570.62	45909.61
570.78	46108.55
570.95	45991.53
571.11	46644.54
571.27	45911.95
571.43	46021.95
571.60	46064.08
571.76	45965.78
571.92	45897.91
572.09	46260.69
572.25	45825.35
572.41	46452.61
572.57	46216.22
572.74	46564.96
572.90	46403.46
573.06	45942.38
573.22	46396.44
573.38	46408.14
573.55	46349.63
573.71	46340.27
573.87	46279.41
574.03	45689.60
574.20	46513.47
574.36	46445.59
574.52	46080.47
574.68	46443.25
574.84	46185.79
575.01	46466.66
575.17	46387.08
575.33	46307.50
575.49	45963.44
575.65	46586.02
575.82	46419.84
575.98	46321.54
576.14	47260.10
576.30	46483.04
576.46	46127.28
576.62	46328.56
576.79	46143.66
576.95	46167.07
577.11	45982.16
577.27	46539.21
577.43	46522.83
577.59	46087.49
577.75	46073.45
577.92	46012.59
578.08	46721.77
578.24	46555.60
578.40	46466.66
578.56	46150.68
578.72	46202.18
578.88	46192.81
579.04	46586.02
579.21	46476.02
579.37	46543.89
579.53	46515.81
579.69	46176.43
579.85	46443.25
580.01	46199.83
580.17	46270.05
580.33	46703.05
580.49	46366.01
580.65	46761.56
580.82	45888.54
580.98	46281.75
581.14	46387.08
581.30	46609.43
581.46	46543.89
581.62	46134.30
581.78	46082.81
581.94	46635.17
582.10	46513.47
582.26	46953.49
582.42	46333.24
582.58	46366.01
582.74	46466.66
582.90	46887.95
583.06	46674.96
583.22	46298.14
583.38	47021.36
583.54	46953.49
583.70	46707.73
583.86	46761.56
584.02	46871.57
584.18	47466.06
584.34	46820.08
584.50	47199.24
584.66	46593.04
584.82	46927.74
584.98	47311.59
585.14	47107.96
585.30	46424.53
585.46	46944.12
585.62	46426.87
585.78	46939.44
585.94	46616.45
586.10	46749.86
586.26	46415.16
586.42	46586.02
586.58	46714.75
586.74	46735.82
586.90	46735.82
587.06	46738.16
587.22	46754.54
587.38	46550.91
587.54	47339.68
587.70	47110.30
587.86	46707.73
588.02	46604.75
588.18	46780.29
588.34	46813.05
588.49	46471.34
588.65	46754.54
588.81	46911.36
588.97	47023.70
589.13	46513.47
589.29	46815.40
589.45	47136.05
589.61	46527.51
589.77	47199.24
589.93	46813.05
590.08	46862.21
