SpectraSuite Data File
++++++++++++++++++++++++++++++++++++
Date: Fri Oct 25 10:47:26 EDT 2013
User: price-jones
Dark Spectrum Present: No
Reference Spectrum Present: No
Number of Sampled Component Spectra: 1
Spectrometers: USB2+H05261
Integration Time (usec): 100000 (USB2+H05261)
Spectra Averaged: 1 (USB2+H05261)
Boxcar Smoothing: 0 (USB2+H05261)
Correct for Electrical Dark: No (USB2+H05261)
Strobe/Lamp Enabled: No (USB2+H05261)
Correct for Detector Non-linearity: No (USB2+H05261)
Correct for Stray Light: No (USB2+H05261)
Number of Pixels in Processed Spectrum: 2048
>>>>>Begin Processed Spectral Data<<<<<
365.73	159.16
365.92	159.16
366.12	159.16
366.32	65.54
366.52	0.00
366.72	49.15
366.91	102.98
367.11	88.94
367.31	42.13
367.51	39.79
367.70	72.56
367.90	74.90
368.10	2.34
368.30	42.13
368.49	74.90
368.69	63.19
368.89	98.30
369.09	72.56
369.28	98.30
369.48	16.38
369.68	65.54
369.87	23.41
370.07	72.56
370.27	149.79
370.47	255.12
370.66	341.72
370.86	425.98
371.06	451.72
371.25	465.77
371.45	404.91
371.65	461.09
371.84	362.78
372.04	416.62
372.24	517.26
372.44	440.02
372.63	533.64
372.83	503.22
373.03	449.38
373.22	498.53
373.42	566.41
373.62	573.43
373.81	519.60
374.01	573.43
374.21	641.31
374.40	519.60
374.60	561.73
374.79	528.96
374.99	510.24
375.19	517.26
375.38	631.94
375.58	571.09
375.78	571.09
375.97	606.20
376.17	557.05
376.37	587.47
376.56	503.22
376.76	573.43
376.95	578.11
377.15	603.86
377.35	643.65
377.54	596.84
377.74	608.54
377.93	629.60
378.13	585.13
378.33	594.50
378.52	573.43
378.72	631.94
378.91	634.29
379.11	627.26
379.31	667.05
379.50	678.76
379.70	594.50
379.89	660.03
380.09	641.31
380.28	627.26
380.48	650.67
380.68	603.86
380.87	566.41
381.07	706.84
381.26	709.18
381.46	723.23
381.65	697.48
381.85	706.84
382.04	610.88
382.24	713.86
382.43	685.78
382.63	699.82
382.83	629.60
383.02	709.18
383.22	786.42
383.41	711.52
383.61	758.33
383.80	816.85
384.00	777.06
384.19	725.57
384.39	784.08
384.58	650.67
384.78	812.17
384.97	807.48
385.17	746.63
385.36	688.12
385.56	784.08
385.75	734.93
385.95	737.27
386.14	812.17
386.34	760.67
386.53	755.99
386.72	777.06
386.92	851.96
387.11	858.98
387.31	828.55
387.50	739.61
387.70	861.32
387.89	777.06
388.09	830.89
388.28	777.06
388.48	835.57
388.67	856.64
388.86	870.68
389.06	758.33
389.25	875.36
389.45	987.71
389.64	894.08
389.84	978.34
390.03	851.96
390.22	866.00
390.42	924.51
390.61	924.51
390.81	1060.26
391.00	898.77
391.19	924.51
391.39	919.83
391.58	891.74
391.78	964.30
391.97	961.96
392.16	863.66
392.36	896.43
392.55	924.51
392.75	905.79
392.94	990.05
393.13	1060.26
393.33	1027.50
393.52	976.00
393.71	978.34
393.91	985.37
394.10	1008.77
394.29	1064.94
394.49	1090.69
394.68	1032.18
394.88	1090.69
395.07	1097.71
395.26	1006.43
395.46	1071.97
395.65	1055.58
395.84	1118.78
396.04	1081.33
396.23	1109.41
396.42	1130.48
396.62	1036.86
396.81	1177.29
397.00	1170.27
397.19	1224.10
397.39	1238.14
397.58	1235.80
397.77	1224.10
397.97	1254.53
398.16	1254.53
398.35	1301.34
398.55	1242.82
398.74	1221.76
398.93	1387.94
399.12	1341.13
399.32	1313.04
399.51	1331.76
399.70	1254.53
399.90	1373.89
400.09	1366.87
400.28	1378.58
400.47	1348.15
400.67	1411.34
400.86	1483.90
401.05	1394.96
401.24	1474.54
401.44	1490.92
401.63	1439.43
401.82	1451.13
402.01	1397.30
402.21	1507.30
402.40	1493.26
402.59	1516.67
402.78	1430.07
402.97	1526.03
403.17	1423.05
403.36	1605.61
403.55	1540.07
403.74	1682.85
403.93	1624.33
404.13	1671.14
404.32	1575.18
404.51	1612.63
404.70	1687.53
404.89	1507.30
405.09	1762.42
405.28	1631.35
405.47	1720.29
405.66	1720.29
405.85	1696.89
406.05	1769.44
406.24	1645.40
406.43	1802.21
406.62	1860.73
406.81	1935.62
407.00	1870.09
407.20	1675.82
407.39	1813.92
407.58	1839.66
407.77	1926.26
407.96	1928.60
408.15	1975.41
408.34	1942.64
408.54	1895.83
408.73	2043.29
408.92	1977.75
409.11	1973.07
409.30	2083.08
409.49	2139.25
409.68	2022.22
409.87	2127.55
410.07	2026.90
410.26	2113.50
410.45	2132.23
410.64	2190.74
410.83	2157.97
411.02	2232.87
411.21	2272.66
411.40	2331.17
411.59	2303.09
411.78	2284.36
411.98	2286.70
412.17	2256.28
412.36	2370.96
412.55	2338.20
412.74	2389.69
412.93	2338.20
413.12	2431.82
413.31	2530.12
413.50	2539.48
413.69	2530.12
413.88	2567.57
414.07	2708.00
414.26	2450.54
414.45	2754.81
414.64	2708.00
414.83	2635.44
415.02	2614.38
415.22	2806.30
415.41	2754.81
415.60	2745.45
415.79	2745.45
415.98	2778.22
416.17	2897.58
416.36	2967.80
416.55	2848.43
416.74	2876.52
416.93	2946.73
417.12	2944.39
417.31	2960.78
417.50	3005.25
417.69	3023.97
417.88	2970.14
418.07	2967.80
418.26	3105.89
418.45	2956.10
418.64	3290.79
418.83	3204.19
419.02	3007.59
419.21	3157.38
419.39	3227.60
419.58	3199.51
419.77	3124.62
419.96	3269.73
420.15	3400.80
420.34	3318.88
420.53	3290.79
420.72	3342.28
420.91	3454.63
421.10	3370.37
421.29	3492.08
421.48	3194.83
421.67	3379.73
421.86	3318.88
422.05	3297.81
422.24	3363.35
422.43	3529.53
422.61	3337.60
422.80	3473.36
422.99	3590.38
423.18	3410.16
423.37	3765.92
423.56	3513.14
423.75	3447.61
423.94	3482.72
424.13	3342.28
424.32	3419.52
424.50	3590.38
424.69	3543.57
424.88	3576.34
425.07	3321.22
425.26	3382.07
425.45	3473.36
425.64	3571.66
425.83	3503.78
426.01	3557.61
426.20	3557.61
426.39	3389.10
426.58	3620.81
426.77	3466.33
426.96	3569.32
427.15	3665.28
427.33	3576.34
427.52	3559.95
427.71	3836.14
427.90	3653.58
428.09	3751.88
428.28	3691.02
428.46	3803.37
428.65	3747.20
428.84	3840.82
429.03	3819.75
429.22	3662.94
429.40	3730.81
429.59	3737.84
429.78	3590.38
429.97	3651.24
430.16	3693.37
430.34	3875.93
430.53	3850.18
430.72	3866.56
430.91	3885.29
431.10	3939.12
431.28	4030.40
431.47	4222.33
431.66	4025.72
431.85	3946.14
432.03	4147.43
432.22	4142.75
432.41	4058.49
432.60	4269.14
432.79	4276.16
432.97	4107.64
433.16	4224.67
433.35	4128.70
433.54	4212.96
433.72	4374.46
433.91	4241.05
434.10	4241.05
434.28	4285.52
434.47	4306.59
434.66	4318.29
434.85	4383.82
435.03	4552.34
435.22	4461.06
435.41	4545.32
435.59	4615.54
435.78	4664.69
435.97	4472.76
436.16	4484.47
436.34	4610.86
436.53	4580.43
436.72	4592.13
436.90	4400.21
437.09	4606.17
437.28	4552.34
437.46	4704.48
437.65	4711.50
437.84	4681.07
438.02	4601.49
438.21	4905.76
438.40	4627.24
438.58	4931.51
438.77	4943.21
438.96	4830.87
439.14	4887.04
439.33	5144.50
439.52	4905.76
439.70	4952.57
439.89	5025.13
440.08	4992.36
440.26	4983.00
440.45	5109.39
440.63	5238.12
440.82	5392.59
441.01	5313.02
441.19	5371.53
441.38	5303.65
441.57	5352.81
441.75	5397.28
441.94	5563.45
442.12	5654.73
442.31	5437.06
442.50	5516.64
442.68	5781.12
442.87	5657.07
443.05	5397.28
443.24	5830.27
443.43	5699.20
443.61	5841.98
443.80	5940.28
443.98	5568.13
444.17	5600.90
444.35	5846.66
444.54	5909.85
444.73	5720.27
444.91	5860.70
445.10	5884.11
445.28	5858.36
445.47	5825.59
445.65	5671.12
445.84	5963.68
446.02	6005.81
446.21	5858.36
446.39	5942.62
446.58	5991.77
446.77	5884.11
446.95	5734.31
447.14	5996.45
447.32	6122.84
447.51	5921.56
447.69	6071.35
447.88	5870.06
448.06	6024.54
448.25	5998.79
448.43	5935.60
448.62	5834.96
448.80	5788.14
448.99	6136.88
449.17	6113.48
449.36	6066.67
449.54	6218.80
449.73	6387.32
449.91	6331.15
450.10	6293.70
450.28	6272.64
450.46	6242.21
450.65	6258.59
450.83	6452.86
451.02	6382.64
451.20	6410.73
451.39	6373.28
451.57	6310.08
451.76	6366.26
451.94	6413.07
452.13	6502.01
452.31	6293.70
452.49	6368.60
452.68	6438.81
452.86	6572.22
453.05	6597.97
453.23	6640.10
453.42	6450.52
453.60	6502.01
453.78	6789.89
453.97	6497.33
454.15	6803.94
454.34	6483.28
454.52	6700.95
454.70	6703.29
454.89	6766.49
455.07	6722.02
455.26	7045.01
455.44	6951.39
455.62	6822.66
455.81	6967.77
455.99	7049.69
456.17	6923.30
456.36	6935.01
456.54	7063.74
456.73	7222.89
456.91	7243.96
457.09	7428.86
457.28	7342.26
457.46	7169.06
457.64	7318.86
457.83	7131.61
458.01	7096.50
458.19	7548.23
458.38	7136.29
458.56	7330.56
458.74	7419.50
458.93	7382.05
459.11	7316.51
459.29	7548.23
459.48	7632.49
459.66	7494.40
459.84	7503.76
460.03	7588.02
460.21	7555.25
460.39	7536.52
460.57	7625.47
460.76	7438.22
460.94	7756.54
461.12	7688.66
461.31	7756.54
461.49	7695.68
461.67	7747.17
461.85	7688.66
462.04	7843.14
462.22	8299.54
462.40	8070.17
462.59	7981.23
462.77	7843.14
462.95	7925.05
463.13	7911.01
463.32	7999.95
463.50	7978.89
463.68	8035.06
463.86	8067.83
464.05	7880.58
464.23	8056.12
464.41	8180.17
464.59	8133.36
464.78	8126.34
464.96	8135.70
465.14	8133.36
465.32	8259.75
465.50	8318.26
465.69	8311.24
465.87	8472.74
466.05	8236.35
466.23	8369.76
466.41	8322.94
466.60	8461.04
466.78	8294.86
466.96	8177.83
467.14	8327.63
467.32	8493.80
467.51	8397.84
467.69	8355.71
467.87	8358.05
468.05	8575.72
468.23	8606.15
468.41	8578.06
468.60	8863.61
468.78	8582.74
468.96	8627.21
469.14	8830.84
469.32	8774.67
469.50	8454.02
469.69	8835.52
469.87	8938.51
470.05	8870.63
470.23	8842.54
470.41	8910.42
470.59	8894.04
470.77	9046.17
470.95	9193.62
471.14	9151.49
471.32	9027.45
471.50	9242.78
471.68	9394.91
471.86	9329.38
472.04	9343.42
472.22	9652.37
472.40	9109.36
472.58	9289.59
472.77	9420.66
472.95	9483.85
473.13	9879.40
473.31	9563.43
473.49	9586.83
473.67	9647.69
473.85	9652.37
474.03	9806.84
474.21	9827.91
474.39	9905.15
474.57	9949.62
474.75	10349.85
474.93	10195.37
475.12	10204.74
475.30	10193.03
475.48	10207.08
475.66	10160.27
475.84	10200.05
476.02	10324.10
476.20	10277.29
476.38	10595.61
476.56	10750.08
476.74	10832.00
476.92	10595.61
477.10	10743.06
477.28	10970.09
477.46	10848.38
477.64	11059.03
477.82	11192.44
478.00	11548.20
478.18	11157.33
478.36	11463.94
478.54	11473.31
478.72	11559.91
478.90	11761.19
479.08	11616.08
479.26	11901.62
479.44	12081.85
479.62	11808.00
479.80	12051.42
479.98	12063.12
480.16	12393.14
480.34	12287.81
480.52	12496.12
480.70	12491.44
480.88	12358.03
481.06	12692.73
481.24	12540.59
481.41	12585.06
481.59	13118.70
481.77	12776.98
481.95	13249.77
482.13	13439.36
482.31	13090.62
482.49	13415.95
482.67	13448.72
482.85	13528.30
483.03	13760.01
483.21	13905.12
483.39	13699.16
483.57	13980.02
483.74	14052.58
483.92	14143.86
484.10	13806.82
484.28	14621.33
484.46	14855.38
484.64	14946.66
484.82	14691.54
485.00	14736.01
485.18	15056.67
485.35	15035.60
485.53	14918.57
485.71	15094.11
485.89	15211.14
486.07	14998.15
486.25	15117.52
486.43	15742.44
486.61	15812.66
486.78	16018.63
486.96	16102.89
487.14	16088.84
487.32	16308.85
487.50	16341.62
487.68	16638.87
487.85	16870.58
488.03	17074.21
488.21	16966.54
488.39	17048.46
488.57	17266.13
488.75	17235.70
488.92	17436.99
489.10	17544.66
489.28	17610.19
489.46	17785.73
489.64	17839.56
489.81	18324.05
489.99	18637.69
490.17	18611.94
490.35	18815.57
490.53	18274.90
490.70	18633.00
490.88	18707.90
491.06	19136.22
491.24	19248.57
491.41	18998.13
491.59	19377.30
491.77	19110.47
491.95	19356.23
492.13	19625.39
492.30	19494.32
492.48	19798.59
492.66	19894.55
492.84	19917.96
493.01	19988.18
493.19	20233.93
493.37	20198.82
493.54	20451.60
493.72	20671.61
493.90	20603.74
494.08	21273.13
494.25	21228.66
494.43	21245.04
494.61	21153.76
494.79	21263.77
494.96	21462.71
495.14	21584.42
495.32	21750.60
495.49	21771.66
495.67	21872.31
495.85	21846.56
496.02	21944.86
496.20	22492.55
496.38	22071.25
496.55	22415.31
496.73	22647.02
496.91	22553.40
497.09	23152.58
497.26	23260.24
497.44	22993.42
497.62	22796.82
497.79	23344.50
497.97	23124.49
498.14	23253.22
498.32	23421.74
498.50	23559.83
498.67	23718.99
498.85	23838.36
499.03	24304.12
499.20	24196.46
499.38	24084.11
499.56	24257.31
499.73	24327.53
499.91	24397.74
500.08	24484.34
500.26	24322.85
500.44	24622.44
500.61	24549.88
500.79	24561.58
500.97	24606.05
501.14	25238.00
501.32	25214.59
501.49	25242.68
501.67	25200.55
501.84	25556.31
502.02	25656.95
502.20	25465.03
502.37	25455.67
502.55	25546.95
502.72	25703.76
502.90	25993.99
503.07	25802.07
503.25	25905.05
503.43	26085.27
503.60	25563.33
503.78	26331.03
503.95	26113.36
504.13	26345.07
504.30	26616.57
504.48	26551.04
504.65	26679.77
504.83	26593.17
505.01	26717.22
505.18	26960.63
505.36	27124.47
505.53	26892.76
505.71	27117.45
505.88	27601.94
506.06	27014.46
506.23	27456.82
506.41	27400.65
506.58	27763.43
506.76	27974.08
506.93	27758.75
507.11	27920.25
507.28	27716.62
507.46	27751.73
507.63	27859.40
507.81	27765.78
507.98	28121.54
508.16	28603.69
508.33	28070.04
508.50	28596.67
508.68	28484.32
508.85	28655.18
509.03	28505.38
509.20	28945.41
509.38	28849.44
509.55	29032.00
509.73	29106.90
509.90	29104.56
510.08	28961.79
510.25	29296.49
510.42	29254.36
510.60	29415.85
510.77	29567.99
510.95	29759.91
511.12	29692.04
511.30	29986.94
511.47	29986.94
511.64	29958.86
511.82	29979.92
511.99	29773.95
512.17	30122.69
512.34	29792.68
512.51	30026.73
512.69	30256.11
512.86	30628.25
513.04	30476.12
513.21	30478.46
513.38	30574.42
513.56	30593.14
513.73	30251.42
513.90	30747.62
514.08	30270.15
514.25	30874.01
514.43	31070.61
514.60	31087.00
514.77	31171.25
514.95	31264.88
515.12	31648.72
515.29	31531.70
515.47	31192.32
515.64	31875.76
515.81	31491.91
515.99	31426.37
516.16	31784.48
516.33	31496.59
516.51	31758.73
516.68	31491.91
516.85	31386.58
517.03	31730.64
517.20	32116.83
517.37	32250.24
517.54	32133.21
517.72	32112.15
517.89	32046.62
518.06	31709.58
518.24	31871.07
518.41	32070.02
518.58	32357.91
518.75	32306.41
518.93	32910.27
519.10	32737.07
519.27	32603.66
519.45	32615.37
519.62	32835.38
519.79	33146.67
519.96	33069.43
520.14	33022.62
520.31	32926.66
520.48	33024.96
520.65	33476.68
520.83	33603.07
521.00	33511.79
521.17	33429.87
521.34	33181.77
521.52	34122.67
521.69	33933.09
521.86	34113.31
522.03	33876.91
522.20	33930.75
522.38	34223.31
522.55	34291.19
522.72	33912.02
522.89	34405.88
523.07	33991.60
523.24	34354.38
523.41	34375.45
523.58	34462.05
523.75	34986.33
523.92	34941.86
524.10	34930.16
524.27	34550.99
524.44	35005.05
524.61	35278.89
524.78	35096.33
524.96	35381.88
525.13	35288.26
525.30	35473.16
525.47	35428.69
525.64	35601.89
525.81	34993.35
525.98	35433.37
526.16	35019.10
526.33	35047.18
526.50	35655.72
526.67	35353.79
526.84	35445.07
527.01	35079.95
527.18	35887.43
527.36	35917.86
527.53	35868.71
527.70	36072.34
527.87	36208.09
528.04	35730.62
528.21	35922.54
528.38	35969.35
528.55	36149.57
528.72	36182.34
528.89	36374.27
529.07	36411.71
529.24	36088.72
529.41	36477.25
529.58	36175.32
529.75	36521.72
529.92	36706.62
530.09	36931.31
530.26	36643.43
530.43	36884.50
530.60	36720.66
530.77	36533.42
530.94	37134.94
531.11	37457.93
531.28	36828.33
531.46	37347.93
531.63	37291.76
531.80	37448.57
531.97	37273.03
532.14	37046.00
532.31	37502.40
532.48	37172.39
532.65	37619.43
532.82	37263.67
532.99	37631.13
533.16	37666.24
533.33	37413.46
533.50	37888.59
533.67	37647.52
533.84	37694.33
534.01	37572.62
534.18	37851.14
534.35	38763.95
534.52	38150.73
534.69	38316.91
534.86	38124.99
535.03	38380.10
535.20	38307.55
535.37	38298.19
535.54	38660.97
535.71	38384.79
535.88	38256.06
536.05	38422.23
536.22	38834.17
536.38	38522.88
536.55	38141.37
536.72	38555.64
536.89	38782.68
537.06	38457.34
537.23	38932.47
537.40	38298.19
537.57	38726.50
537.74	38696.08
537.91	39023.75
538.08	39412.28
538.25	38810.76
538.42	38892.68
538.59	38948.85
538.75	38199.88
538.92	39098.65
539.09	39133.76
539.26	39721.23
539.43	39187.59
539.60	39386.54
539.77	39012.05
539.94	39407.60
540.11	38792.04
540.28	39108.01
540.44	39648.68
540.61	39508.24
540.78	39571.44
540.95	39489.52
541.12	39421.64
541.29	39477.82
541.46	39386.54
541.62	39557.39
541.79	40037.20
541.96	39782.09
542.13	39548.03
542.30	40002.10
542.47	39948.26
542.63	39597.18
542.80	39880.39
542.97	40332.11
543.14	40325.09
543.31	40456.16
543.48	40304.02
543.64	40444.46
543.81	40432.75
543.98	40809.58
544.15	40460.84
544.32	40685.53
544.48	40893.84
544.65	40566.16
544.82	40655.11
544.99	40172.96
545.16	41205.13
545.32	40788.52
545.49	41205.13
545.66	41523.44
545.83	41144.28
546.00	41223.86
546.16	40959.38
546.33	40980.44
546.50	40818.94
546.67	40601.27
546.83	40495.95
547.00	41092.79
547.17	41034.27
547.34	40978.10
547.50	41521.10
547.67	41048.32
547.84	40870.43
548.00	41947.08
548.17	41483.66
548.34	41752.82
548.51	41170.02
548.67	41486.00
548.84	41591.32
549.01	41614.72
549.18	42239.65
549.34	41668.56
549.51	41996.23
549.68	41888.57
549.84	42033.68
550.01	42080.49
550.18	41993.89
550.34	41921.34
550.51	41514.08
550.68	41769.20
550.84	41551.53
551.01	42164.75
551.18	42101.56
551.34	41844.10
551.51	42288.80
551.68	42368.38
551.84	41963.46
552.01	41823.03
552.18	42075.81
552.34	42113.26
552.51	42700.73
552.68	42270.08
552.84	41958.78
553.01	42738.18
553.18	42349.65
553.34	42384.76
553.51	42335.61
553.67	41979.85
553.84	43281.19
554.01	42672.65
554.17	42962.87
554.34	42754.57
554.51	42485.40
554.67	42887.98
554.84	42880.95
555.00	42724.14
555.17	43164.16
555.33	42621.16
555.50	42887.98
555.67	42782.65
555.83	43187.56
556.00	43047.13
556.16	43306.93
556.33	42990.96
556.50	43192.25
556.66	43330.34
556.83	43077.56
556.99	43288.21
557.16	43283.53
557.32	42995.64
557.49	43269.48
557.65	42651.58
557.82	43351.40
557.98	43105.65
558.15	42934.79
558.32	43065.86
558.48	43054.15
558.65	43225.01
558.81	43086.92
558.98	43440.34
559.14	43232.04
559.31	43351.40
559.47	43536.30
559.64	43604.18
559.80	43854.62
559.97	43512.90
560.13	43264.80
560.30	43667.37
560.46	43323.32
560.63	43676.74
560.79	43622.90
560.96	43920.15
561.12	43367.79
561.29	43936.54
561.45	43880.36
561.61	43552.69
561.78	43995.05
561.94	43332.68
562.11	43311.61
562.27	43571.41
562.44	43636.95
562.60	43784.40
562.77	44147.18
562.93	43863.98
563.10	43826.53
563.26	43707.16
563.42	44041.86
563.59	43700.14
563.75	43746.95
563.92	43812.49
564.08	44102.71
564.24	44018.46
564.41	43915.47
564.57	44079.31
564.74	43962.28
564.90	44315.70
565.07	43819.51
565.23	44231.44
565.39	43988.03
565.56	44165.91
565.72	43700.14
565.88	43768.02
566.05	43973.98
566.21	43805.47
566.38	44002.07
566.54	44154.21
566.70	44095.69
566.87	44355.49
567.03	44088.67
567.19	44032.50
567.36	44350.81
567.52	44446.77
567.68	44376.56
567.85	44055.90
568.01	44016.11
568.17	44121.44
568.34	44404.64
568.50	44229.10
568.66	44348.47
568.83	44018.46
568.99	44128.46
569.15	43959.94
569.32	43688.44
569.48	44275.91
569.64	44275.91
569.81	44374.22
569.97	44140.16
570.13	44378.90
570.30	43983.35
570.46	44048.88
570.62	43782.06
570.78	44058.24
570.95	43906.11
571.11	44505.29
571.27	44327.41
571.43	44039.52
571.60	44446.77
571.76	44353.15
571.92	44524.01
572.09	44198.68
572.25	43941.22
572.41	43646.31
572.57	43959.94
572.74	44900.84
572.90	44273.57
573.06	44535.71
573.22	44491.24
573.38	44287.62
573.55	44299.32
573.71	44559.12
573.87	44580.18
574.03	44177.61
574.20	44446.77
574.36	44399.96
574.52	44800.19
574.68	44425.71
574.84	44514.65
575.01	44533.37
575.17	44669.12
575.33	44612.95
575.49	44236.12
575.65	44713.59
575.82	44566.14
575.98	44247.83
576.14	44928.92
576.30	44575.50
576.46	44219.74
576.62	44369.54
576.79	44547.42
576.95	44093.35
577.11	44584.86
577.27	44769.77
577.43	45059.99
577.59	44631.68
577.75	44634.02
577.92	44098.03
578.08	44182.29
578.24	44392.94
578.40	44634.02
578.56	44444.43
578.72	44645.72
578.88	45022.54
579.04	44629.34
579.21	44608.27
579.37	44435.07
579.53	44432.73
579.69	44329.75
579.85	44245.49
580.01	44949.99
580.17	44942.97
580.33	44722.96
580.49	45038.93
580.65	44531.03
580.82	45006.16
580.98	44535.71
581.14	44446.77
581.30	44952.33
581.46	44669.12
581.62	44839.98
581.78	44776.79
581.94	44706.57
582.10	44439.75
582.26	44612.95
582.42	44729.98
582.58	45010.84
582.74	44271.23
582.90	44673.81
583.06	45031.91
583.22	44657.42
583.38	45265.96
583.54	44816.58
583.70	44765.09
583.86	44411.67
584.02	44458.48
584.18	44456.14
584.34	44938.29
584.50	44767.43
584.66	44734.66
584.82	44142.50
584.98	44662.10
585.14	44788.49
585.30	44458.48
585.46	44449.11
585.62	44610.61
585.78	44451.45
585.94	44343.79
586.10	44839.98
586.26	44465.50
586.42	44442.09
586.58	44814.24
586.74	44928.92
586.90	44430.39
587.06	44353.15
587.22	44800.19
587.38	44247.83
587.54	44964.03
587.70	44673.81
587.86	45151.27
588.02	44744.02
588.18	45041.27
588.34	44521.67
588.49	44399.96
588.65	44229.10
588.81	44264.21
588.97	44229.10
589.13	44383.58
589.29	44425.71
589.45	44622.31
589.61	44687.85
589.77	45329.16
589.93	44968.71
590.08	45233.19
590.24	45022.54
