SpectraSuite Data File
++++++++++++++++++++++++++++++++++++
Date: Fri Oct 25 11:25:51 EDT 2013
User: price-jones
Dark Spectrum Present: No
Reference Spectrum Present: No
Number of Sampled Component Spectra: 1
Spectrometers: USB2+H05261
Integration Time (usec): 100000 (USB2+H05261)
Spectra Averaged: 1 (USB2+H05261)
Boxcar Smoothing: 0 (USB2+H05261)
Correct for Electrical Dark: No (USB2+H05261)
Strobe/Lamp Enabled: No (USB2+H05261)
Correct for Detector Non-linearity: No (USB2+H05261)
Correct for Stray Light: No (USB2+H05261)
Number of Pixels in Processed Spectrum: 2048
>>>>>Begin Processed Spectral Data<<<<<
365.73	222.35
365.92	222.35
366.12	222.35
366.32	145.11
366.52	145.11
366.72	182.56
366.91	161.50
367.11	58.51
367.31	117.03
367.51	102.98
367.70	112.35
367.90	201.29
368.10	145.11
368.30	117.03
368.49	145.11
368.69	187.24
368.89	198.95
369.09	182.56
369.28	159.16
369.48	131.07
369.68	105.32
369.87	236.39
370.07	168.52
370.27	208.31
370.47	297.25
370.66	634.29
370.86	643.65
371.06	657.69
371.25	732.59
371.45	606.20
371.65	746.63
371.84	711.52
372.04	760.67
372.24	695.14
372.44	763.01
372.63	821.53
372.83	835.57
373.03	699.82
373.22	763.01
373.42	741.95
373.62	795.78
373.81	835.57
374.01	779.40
374.21	805.14
374.40	777.06
374.60	795.78
374.79	795.78
374.99	774.72
375.19	837.91
375.38	854.30
375.58	912.81
375.78	816.85
375.97	863.66
376.17	880.04
376.37	861.32
376.56	791.10
376.76	826.21
376.95	945.58
377.15	873.02
377.35	866.00
377.54	910.47
377.74	870.68
377.93	898.77
378.13	919.83
378.33	950.26
378.52	849.61
378.72	1020.47
378.91	961.96
379.11	945.58
379.31	936.21
379.50	947.92
379.70	999.41
379.89	978.34
380.09	1008.77
380.28	910.47
380.48	936.21
380.68	891.74
380.87	1036.86
381.07	919.83
381.26	983.02
381.46	978.34
381.65	1022.81
381.85	1060.26
382.04	1179.63
382.24	1083.67
382.43	1050.90
382.63	1055.58
382.83	964.30
383.02	1048.56
383.22	1090.69
383.41	1032.18
383.61	1107.07
383.80	1135.16
384.00	1203.04
384.19	1130.48
384.39	1165.59
384.58	1095.37
384.78	1165.59
384.97	1137.50
385.17	1191.33
385.36	1224.10
385.56	1097.71
385.75	1132.82
385.95	1210.06
386.14	1153.88
386.34	1153.88
386.53	1196.01
386.72	1174.95
386.92	1238.14
387.11	1329.42
387.31	1263.89
387.50	1186.65
387.70	1277.93
387.89	1242.82
388.09	1282.61
388.28	1254.53
388.48	1299.00
388.67	1317.72
388.86	1306.02
389.06	1226.44
389.25	1348.15
389.45	1350.49
389.64	1350.49
389.84	1324.74
390.03	1446.45
390.22	1371.55
390.42	1369.21
390.61	1306.02
390.81	1348.15
391.00	1404.32
391.19	1406.66
391.39	1390.28
391.58	1469.86
391.78	1441.77
391.97	1563.48
392.16	1465.18
392.36	1504.96
392.55	1544.75
392.75	1502.62
392.94	1413.68
393.13	1551.78
393.33	1523.69
393.52	1514.33
393.71	1579.86
393.91	1474.54
394.10	1617.31
394.29	1647.74
394.49	1490.92
394.68	1617.31
394.88	1647.74
395.07	1621.99
395.26	1638.38
395.46	1598.59
395.65	1652.42
395.84	1673.48
396.04	1771.79
396.23	1739.02
396.42	1708.59
396.62	1820.94
396.81	1795.19
397.00	1792.85
397.19	1760.08
397.39	1729.66
397.58	1886.47
397.77	1783.49
397.97	1870.09
398.16	1792.85
398.35	1877.11
398.55	1856.04
398.74	1849.02
398.93	2015.20
399.12	1954.35
399.32	1874.77
399.51	1921.58
399.70	1914.56
399.90	2029.24
400.09	2026.90
400.28	2104.14
400.47	2083.08
400.67	2040.95
400.86	2097.12
401.05	2043.29
401.24	2120.53
401.44	1973.07
401.63	2083.08
401.82	2099.46
402.01	2202.44
402.21	2136.91
402.40	2200.10
402.59	2200.10
402.78	2239.89
402.97	2162.66
403.17	2385.01
403.36	2345.22
403.55	2246.91
403.74	2392.03
403.93	2303.09
404.13	2408.41
404.32	2265.64
404.51	2314.79
404.70	2235.21
404.89	2349.90
405.09	2506.71
405.28	2546.50
405.47	2469.27
405.66	2464.58
405.85	2541.82
406.05	2551.18
406.24	2506.71
406.43	2567.57
406.62	2590.97
406.81	2766.51
407.00	2590.97
407.20	2516.08
407.39	2609.70
407.58	2635.44
407.77	2647.15
407.96	2726.72
408.15	2768.85
408.34	2726.72
408.54	2729.06
408.73	2799.28
408.92	2853.11
409.11	2899.92
409.30	2827.37
409.49	2883.54
409.68	2916.31
409.87	2965.46
410.07	2967.80
410.26	3155.04
410.45	2871.84
410.64	3016.95
410.83	3213.56
411.02	3098.87
411.21	3108.23
411.40	3124.62
411.59	3192.49
411.78	3232.28
411.98	3155.04
412.17	3349.31
412.36	3206.53
412.55	3236.96
412.74	3363.35
412.93	3269.73
413.12	3325.90
413.31	3503.78
413.50	3548.25
413.69	3449.95
413.88	3716.77
414.07	3566.98
414.26	3686.34
414.45	3728.47
414.64	3623.15
414.83	3805.71
415.02	3770.60
415.22	3726.13
415.41	4007.00
415.60	3857.20
415.79	3875.93
415.98	3974.23
416.17	4023.38
416.36	3803.37
416.55	3967.21
416.74	3995.29
416.93	4163.81
417.12	4011.68
417.31	4147.43
417.50	4217.65
417.69	4248.07
417.88	4266.80
418.07	4334.67
418.26	4348.72
418.45	4353.40
418.64	4355.74
418.83	4418.93
419.02	4386.16
419.21	4477.44
419.39	4606.17
419.58	4383.82
419.77	4468.08
419.96	4510.21
420.15	4650.64
420.34	4587.45
420.53	4615.54
420.72	4655.33
420.91	4667.03
421.10	4624.90
421.29	4727.88
421.48	4695.11
421.67	4774.69
421.86	4784.06
422.05	4816.82
422.24	4685.75
422.43	4863.63
422.61	4884.70
422.80	5055.56
422.99	4865.97
423.18	5041.51
423.37	4975.98
423.56	4931.51
423.75	4957.25
423.94	4807.46
424.13	4535.96
424.32	4793.42
424.50	4826.18
424.69	5032.15
424.88	4987.68
425.07	5041.51
425.26	4844.91
425.45	4943.21
425.64	4915.12
425.83	4987.68
426.01	5139.82
426.20	5067.26
426.39	5137.48
426.58	5144.50
426.77	4968.96
426.96	5139.82
427.15	5146.84
427.33	5118.75
427.52	5191.31
427.71	5207.69
427.90	5181.95
428.09	5252.16
428.28	5327.06
428.46	5397.28
428.65	5303.65
428.84	5310.68
429.03	5528.35
429.22	5191.31
429.40	5582.18
429.59	5348.12
429.78	5167.90
429.97	5294.29
430.16	5413.66
430.34	5626.65
430.53	5762.40
430.72	5734.31
430.91	5582.18
431.10	5657.07
431.28	5767.08
431.47	5844.32
431.66	5802.19
431.85	5830.27
432.03	5877.09
432.22	6057.31
432.41	6029.22
432.60	6097.10
432.79	5996.45
432.97	5907.51
433.16	5966.03
433.35	5940.28
433.54	6150.93
433.72	6169.65
433.91	6143.91
434.10	6164.97
434.28	6015.18
434.47	6087.73
434.66	6274.98
434.85	6171.99
435.03	6312.42
435.22	6160.29
435.41	6354.55
435.59	6263.27
435.78	6342.85
435.97	6567.54
436.16	6345.19
436.34	6310.08
436.53	6551.16
436.72	6619.04
436.90	6434.13
437.09	6520.73
437.28	6462.22
437.46	6691.59
437.65	6670.53
437.84	6853.09
438.02	6654.14
438.21	6703.29
438.40	6670.53
438.58	6970.12
438.77	7185.44
438.96	7002.88
439.14	7176.08
439.33	7040.33
439.52	7248.64
439.70	7183.10
439.89	7393.75
440.08	7342.26
440.26	7442.90
440.45	7269.70
440.63	7428.86
440.82	7543.55
441.01	7588.02
441.19	7541.21
441.38	7726.11
441.57	7590.36
441.75	7784.62
441.94	7941.44
442.12	7812.71
442.31	8006.97
442.50	7964.84
442.68	7885.26
442.87	8056.12
443.05	8102.93
443.24	8266.77
443.43	8114.64
443.61	8025.70
443.80	8416.57
443.98	7978.89
444.17	7964.84
444.35	7967.18
444.54	8292.52
444.73	8287.84
444.91	8266.77
445.10	8318.26
445.28	8290.18
445.47	8273.79
445.65	8135.70
445.84	8390.82
446.02	8517.21
446.21	8376.78
446.39	8318.26
446.58	8631.90
446.77	8571.04
446.95	8423.59
447.14	8386.14
447.32	8610.83
447.51	8376.78
447.69	8411.89
447.88	8571.04
448.06	8341.67
448.25	8571.04
448.43	8580.40
448.62	8329.97
448.80	8695.09
448.99	8613.17
449.17	8643.60
449.36	8741.90
449.54	8760.63
449.73	8994.68
449.91	8959.57
450.10	8908.08
450.28	8952.55
450.46	9149.15
450.65	9048.51
450.83	9114.05
451.02	8938.51
451.20	8933.82
451.39	9041.49
451.57	9170.22
451.76	8987.66
451.94	9191.28
452.13	9446.40
452.31	9149.15
452.49	8973.61
452.68	9245.12
452.86	9348.10
453.05	9434.70
453.23	9504.92
453.42	9207.67
453.60	9495.55
453.78	9568.11
453.97	9324.69
454.15	9453.42
454.34	9432.36
454.52	9666.41
454.70	9533.00
454.89	9654.71
455.07	9713.22
455.26	9776.42
455.44	9963.66
455.62	9921.53
455.81	9734.29
455.99	9989.41
456.17	9940.26
456.36	9963.66
456.54	10134.52
456.73	10340.49
456.91	10164.95
457.09	10434.11
457.28	10518.37
457.46	10134.52
457.64	10551.14
457.83	10623.69
458.01	10321.76
458.19	10523.05
458.38	10464.54
458.56	10710.29
458.74	10649.44
458.93	10775.83
459.11	10609.65
459.29	10876.47
459.48	10888.17
459.66	10754.76
459.84	10890.51
460.03	10988.82
460.21	10965.41
460.39	11035.63
460.57	10792.21
460.76	10974.77
460.94	11115.20
461.12	11129.25
461.31	11253.30
461.49	11073.07
461.67	10977.11
461.85	11562.25
462.04	11229.89
462.22	11941.41
462.40	11487.35
462.59	11482.67
462.77	11199.46
462.95	11719.06
463.13	11489.69
463.32	11564.59
463.50	11616.08
463.68	11789.28
463.86	11861.84
464.05	11510.75
464.23	11576.29
464.41	11679.27
464.59	11789.28
464.78	12011.63
464.96	11981.20
465.14	11800.98
465.32	12002.27
465.50	12173.13
465.69	12205.89
465.87	12049.08
466.05	12152.06
466.23	12322.92
466.41	12400.16
466.60	12374.41
466.78	11990.56
466.96	11929.71
467.14	12229.30
467.32	12269.09
467.51	12226.96
467.69	12126.32
467.87	12348.67
468.05	12435.27
468.23	12332.28
468.41	12606.13
468.60	12512.50
468.78	12798.05
468.96	12666.98
469.14	12870.61
469.32	12985.29
469.50	12648.26
469.69	12671.66
469.87	13053.17
470.05	13193.60
470.23	13270.84
470.41	13163.17
470.59	13224.03
470.77	12776.98
470.95	13315.31
471.14	13268.50
471.32	13195.94
471.50	13598.51
471.68	13570.43
471.86	13720.22
472.04	13348.08
472.22	14143.86
472.40	13565.74
472.58	14033.85
472.77	13989.38
472.95	14115.77
473.13	14401.32
473.31	14022.15
473.49	13881.72
473.67	14157.90
473.85	14403.66
474.03	14607.28
474.21	14319.40
474.39	14611.96
474.57	14764.10
474.75	14761.76
474.93	15157.31
475.12	14803.89
475.30	15150.29
475.48	14843.68
475.66	15103.48
475.84	15232.21
476.02	15211.14
476.20	15353.91
476.38	15625.42
476.56	16044.37
476.74	15915.64
476.92	16177.78
477.10	15955.43
477.28	16009.26
477.46	16145.02
477.64	16182.46
477.82	16332.26
478.00	16938.46
478.18	16641.21
478.36	17142.08
478.54	17174.85
478.72	17067.19
478.90	17085.91
479.08	17376.14
479.26	17575.08
479.44	17645.30
479.62	17912.12
479.80	17926.16
479.98	17921.48
480.16	18448.10
480.34	18204.69
480.52	18576.83
480.70	18895.14
480.88	18654.07
481.06	18991.11
481.24	18864.72
481.41	18864.72
481.59	19342.19
481.77	19332.82
481.95	19349.21
482.13	19814.98
482.31	19660.50
482.49	20194.14
482.67	20091.16
482.85	20332.23
483.03	20615.44
483.21	20744.17
483.39	21029.71
483.57	20720.76
483.74	21280.15
483.92	21312.92
484.10	21205.25
484.28	21617.19
484.46	22092.32
484.64	22534.68
484.82	22242.11
485.00	22473.82
485.18	22445.74
485.35	22675.11
485.53	22642.34
485.71	23019.17
485.89	23232.16
486.07	23260.24
486.25	23271.95
486.43	23496.64
486.61	24271.36
486.78	24088.79
486.96	24407.11
487.14	24460.94
487.32	24271.36
487.50	24676.27
487.68	24584.99
487.85	25092.88
488.03	25411.20
488.21	25493.12
488.39	25610.14
488.57	26094.63
488.75	26113.36
488.92	26508.91
489.10	26607.21
489.28	26913.82
489.46	27040.21
489.64	27105.74
489.81	27733.01
489.99	27779.82
490.17	27555.13
490.35	28123.88
490.53	28011.53
490.70	28779.23
490.88	28367.29
491.06	28968.81
491.24	29064.77
491.41	28870.51
491.59	29181.80
491.77	29273.08
491.95	29670.97
492.13	29689.70
492.30	29844.17
492.48	29876.94
492.66	30373.13
492.84	30354.41
493.01	30724.21
493.19	30415.26
493.37	30771.02
493.54	31126.78
493.72	31505.95
493.90	31438.08
494.08	32039.59
494.25	32268.97
494.43	32161.30
494.61	32137.90
494.79	32404.72
494.96	32292.37
495.14	32837.72
495.32	33146.67
495.49	32863.46
495.67	33504.77
495.85	33511.79
496.02	33813.72
496.20	33804.36
496.38	33818.40
496.55	33834.78
496.73	34799.08
496.91	34220.97
497.09	34841.21
497.26	34768.66
497.44	34771.00
497.62	35285.92
497.79	35964.67
497.97	35686.15
498.14	35789.13
498.32	35814.88
498.50	35878.07
498.67	36486.61
498.85	36392.99
499.03	36591.94
499.20	36559.17
499.38	36985.15
499.56	36952.38
499.73	37095.15
499.91	37141.96
500.08	37581.98
500.26	37296.44
500.44	37479.00
500.61	37724.75
500.79	37563.26
500.97	37687.31
501.14	38382.45
501.32	38597.77
501.49	38284.14
501.67	38204.56
501.84	38796.72
502.02	38660.97
502.20	38873.96
502.37	39405.26
502.55	39063.54
502.72	39360.79
502.90	39093.97
503.07	39636.97
503.25	39412.28
503.43	39824.22
503.60	40128.48
503.78	39957.63
503.95	40158.91
504.13	40053.59
504.30	40737.02
504.48	40425.73
504.65	40807.24
504.83	40821.28
505.01	41097.47
505.18	41326.84
505.36	41593.66
505.53	41081.08
505.71	41230.88
505.88	41808.99
506.06	41626.43
506.23	41804.31
506.41	41706.01
506.58	41937.72
506.76	41986.87
506.93	42366.04
507.11	42089.85
507.28	42281.78
507.46	42745.20
507.63	42944.15
507.81	42836.48
507.98	42710.10
508.16	42937.13
508.33	43402.89
508.50	43276.51
508.68	43655.67
508.85	43634.61
509.03	43489.49
509.20	44226.76
509.38	44044.20
509.55	44322.72
509.73	44086.33
509.90	44446.77
510.08	44704.23
510.25	44879.77
510.42	44786.15
510.60	44769.77
510.77	45038.93
510.95	45331.50
511.12	45038.93
511.30	44790.83
511.47	45352.56
511.64	45312.77
511.82	46078.13
511.99	45404.05
512.17	46274.73
512.34	45888.54
512.51	46138.98
512.69	46078.13
512.86	46143.66
513.04	46602.41
513.21	46478.36
513.38	46433.89
513.56	46660.92
513.73	46852.84
513.90	47040.09
514.08	46644.54
514.25	47159.45
514.43	47164.14
514.60	47435.64
514.77	47414.57
514.95	47454.36
515.12	47421.59
515.29	47236.69
515.47	47695.44
515.64	47999.71
515.81	47767.99
515.99	48301.64
516.16	48105.03
516.33	47681.39
516.51	48685.48
516.68	47917.79
516.85	48451.43
517.03	48795.49
517.20	49006.14
517.37	48673.78
517.54	48685.48
517.72	48800.17
517.89	48786.13
518.06	48701.87
518.24	49148.91
518.41	49169.97
518.58	49565.52
518.75	49226.15
518.93	49659.15
519.10	49478.92
519.27	49626.38
519.45	49741.06
519.62	49890.86
519.79	49930.65
519.96	49820.64
520.14	49890.86
520.31	50026.61
520.48	50511.10
520.65	50347.26
520.83	50548.55
521.00	50609.40
521.17	50562.59
521.34	50597.70
521.52	50777.92
521.69	50721.75
521.86	50885.59
522.03	51040.06
522.20	51061.13
522.38	51482.42
522.55	51086.87
522.72	50948.78
522.89	51157.09
523.07	51702.43
523.24	51381.78
523.41	51435.61
523.58	51447.32
523.75	51690.73
523.92	51714.14
524.10	51870.95
524.27	51938.83
524.44	52158.84
524.61	52079.26
524.78	52376.51
524.96	51728.18
525.13	52041.81
525.30	52626.95
525.47	52598.86
525.64	52165.86
525.81	52392.89
525.98	52556.73
526.16	52292.25
526.33	52823.55
526.50	53013.13
526.67	52640.99
526.84	52926.53
527.01	52680.78
527.18	52788.44
527.36	52699.50
527.53	52968.66
527.70	53165.27
527.87	53469.54
528.04	52966.32
528.21	53261.23
528.38	53382.94
528.55	53694.23
528.72	53418.05
528.89	53396.98
529.07	53396.98
529.24	53186.33
529.41	53769.13
529.58	53544.44
529.75	53694.23
529.92	53820.62
530.09	53656.78
530.26	54007.86
530.43	54089.78
530.60	53904.88
530.77	53792.53
530.94	53851.05
531.11	54066.38
531.28	53984.46
531.46	54033.61
531.63	53822.96
531.80	54047.65
531.97	54295.75
532.14	54539.16
532.31	54466.61
532.48	54225.53
532.65	54623.42
532.82	54508.74
532.99	54691.30
533.16	54445.54
533.33	54827.05
533.50	54618.74
533.67	54583.63
533.84	54644.49
534.01	54906.63
534.18	54805.98
534.35	55173.45
534.52	54880.88
534.69	55000.25
534.86	55318.56
535.03	54920.67
535.20	54979.18
535.37	55351.33
535.54	55477.72
535.71	54981.52
535.88	55400.48
536.05	55348.99
536.22	55444.95
536.38	55807.73
536.55	55358.35
536.72	55571.34
536.89	55419.20
537.06	55416.86
537.23	55709.43
537.40	55634.53
537.57	55618.15
537.74	55751.56
537.91	55894.33
538.08	55791.35
538.25	55627.51
538.42	55833.48
538.59	55793.69
538.75	55770.28
538.92	56109.66
539.09	56165.84
539.26	55971.57
539.43	55976.25
539.60	56353.08
539.77	56226.69
539.94	56540.32
540.11	56334.35
540.28	56413.93
540.44	56374.14
540.61	56149.45
540.78	56282.86
540.95	56491.17
541.12	56439.68
541.29	56231.37
541.46	56287.54
541.62	56559.05
541.79	56507.55
541.96	56451.38
542.13	56530.96
542.30	56575.43
542.47	56514.58
542.63	56858.63
542.80	56900.76
542.97	57052.90
543.14	57057.58
543.31	56851.61
543.48	57277.59
543.64	57223.76
543.81	57113.75
543.98	57268.23
544.15	57008.43
544.32	57315.04
544.48	57506.96
544.65	57319.72
544.82	57612.29
544.99	57303.34
545.16	57455.47
545.32	57499.94
545.49	57731.65
545.66	57574.84
545.83	57387.60
546.00	57560.79
546.16	57565.48
546.33	57581.86
546.50	57427.38
546.67	57670.80
546.83	57427.38
547.00	57682.50
547.17	57722.29
547.34	57778.46
547.50	57989.11
547.67	58204.44
547.84	57921.24
548.00	57993.79
548.17	58122.52
548.34	58131.89
548.51	58169.33
548.67	58159.97
548.84	57993.79
549.01	57998.48
549.18	57836.98
549.34	58323.81
549.51	58295.72
549.68	58365.94
549.84	58417.43
550.01	58190.40
550.18	58230.19
550.34	58316.79
550.51	58464.24
550.68	58312.11
550.84	58178.70
551.01	58698.30
551.18	58431.47
551.34	58415.09
551.51	58630.42
551.68	58639.78
551.84	58539.14
552.01	58178.70
552.18	58695.95
552.34	58429.13
552.51	58700.64
552.68	58564.88
552.84	58578.93
553.01	59021.29
553.18	59009.59
553.34	58489.99
553.51	58773.19
553.67	58855.11
553.84	59082.14
554.01	58873.84
554.17	59135.98
554.34	59140.66
554.51	58791.92
554.67	59096.19
554.84	58784.90
555.00	58876.18
555.17	58974.48
555.33	58955.75
555.50	58808.30
555.67	59063.42
555.83	58934.69
556.00	59180.45
556.16	59416.84
556.33	59363.01
556.50	59306.83
556.66	59206.19
556.83	59051.72
556.99	59351.30
557.16	59480.03
557.32	59480.03
557.49	59583.02
557.65	59084.48
557.82	59274.07
557.98	59203.85
558.15	59524.50
558.32	59358.33
558.48	59309.18
558.65	59487.06
558.81	59414.50
558.98	59693.02
559.14	59678.98
559.31	59686.00
559.47	59522.16
559.64	59576.00
559.80	59615.79
559.97	59746.86
560.13	59660.26
560.30	59606.42
560.46	59863.88
560.63	59758.56
560.79	59688.34
560.96	59730.47
561.12	59433.22
561.29	59742.17
561.45	59849.84
561.61	59845.16
561.78	59709.41
561.94	59704.73
562.11	59882.61
562.27	59669.62
562.44	59770.26
562.60	60165.81
562.77	59781.96
562.93	59781.96
563.10	60177.51
563.26	59758.56
563.42	60147.09
563.59	60009.00
563.75	59845.16
563.92	60186.88
564.08	59955.16
564.24	60097.94
564.41	60175.17
564.57	59863.88
564.74	59936.44
564.90	60067.51
565.07	60053.47
565.23	60111.98
565.39	60018.36
565.56	60231.35
565.72	59950.48
565.88	59992.61
566.05	60229.01
566.21	59980.91
566.38	60088.57
566.54	60140.07
566.70	60357.74
566.87	60271.14
567.03	60023.04
567.19	60388.16
567.36	60238.37
567.52	60453.70
567.68	60238.37
567.85	60327.31
568.01	60376.46
568.17	60189.22
568.34	60423.27
568.50	60182.19
568.66	60289.86
568.83	60458.38
568.99	60336.67
569.15	60434.97
569.32	60329.65
569.48	60350.71
569.64	60385.82
569.81	60360.08
569.97	60257.09
570.13	60198.58
570.30	60294.54
570.46	60418.59
570.62	60364.76
570.78	60573.06
570.95	60390.50
571.11	60566.04
571.27	60629.24
571.43	60250.07
571.60	60512.21
571.76	60608.17
571.92	60619.88
572.09	60636.26
572.25	60360.08
572.41	60594.13
572.57	60502.85
572.74	60666.69
572.90	60523.91
573.06	60610.51
573.22	60451.36
573.38	60388.16
573.55	60608.17
573.71	60673.71
573.87	60662.00
574.03	60460.72
574.20	60657.32
574.36	60425.61
574.52	60570.72
574.68	60626.90
574.84	60654.98
575.01	60828.18
575.17	60456.04
575.33	60664.35
575.49	60598.81
575.65	60650.30
575.82	60701.79
575.98	60720.52
576.14	60935.85
576.30	60849.25
576.46	60640.94
576.62	60594.13
576.79	60718.18
576.95	60594.13
577.11	60849.25
577.27	60921.80
577.43	60743.92
577.59	60669.03
577.75	60474.76
577.92	60659.66
578.08	60650.30
578.24	60886.70
578.40	61015.43
578.56	60903.08
578.72	60975.64
578.88	61111.39
579.04	60963.93
579.21	60814.14
579.37	60832.86
579.53	60992.02
579.69	60617.53
579.85	60739.24
580.01	60727.54
580.17	60676.05
580.33	61043.51
580.49	60769.67
580.65	60970.96
580.82	60828.18
580.98	60521.57
581.14	60921.80
581.30	61013.08
581.46	60832.86
581.62	61109.05
581.78	60631.58
581.94	61001.38
582.10	60767.33
582.26	60921.80
582.42	60849.25
582.58	60905.42
582.74	60966.27
582.90	60842.23
583.06	60900.74
583.22	60662.00
583.38	60708.82
583.54	60860.95
583.70	60975.64
583.86	60992.02
584.02	60865.63
584.18	61010.74
584.34	60858.61
584.50	60954.57
584.66	61020.11
584.82	60708.82
584.98	61137.13
585.14	61223.73
585.30	60933.51
585.46	61006.06
585.62	60928.83
585.78	61078.62
585.94	60743.92
586.10	60865.63
586.26	60940.53
586.42	60919.46
586.58	61010.74
586.74	61050.53
586.90	60952.23
587.06	60889.04
587.22	60994.36
587.38	60865.63
587.54	61141.81
587.70	61226.07
587.86	60994.36
588.02	61160.54
588.18	61315.01
588.34	60952.23
588.49	60921.80
