SpectraSuite Data File
++++++++++++++++++++++++++++++++++++
Date: Fri Oct 25 11:25:48 EDT 2013
User: price-jones
Dark Spectrum Present: No
Reference Spectrum Present: No
Number of Sampled Component Spectra: 1
Spectrometers: USB2+H05261
Integration Time (usec): 100000 (USB2+H05261)
Spectra Averaged: 1 (USB2+H05261)
Boxcar Smoothing: 0 (USB2+H05261)
Correct for Electrical Dark: No (USB2+H05261)
Strobe/Lamp Enabled: No (USB2+H05261)
Correct for Detector Non-linearity: No (USB2+H05261)
Correct for Stray Light: No (USB2+H05261)
Number of Pixels in Processed Spectrum: 2048
>>>>>Begin Processed Spectral Data<<<<<
365.73	217.67
365.92	217.67
366.12	217.67
366.32	175.54
366.52	114.69
366.72	135.75
366.91	124.05
367.11	63.19
367.31	140.43
367.51	117.03
367.70	70.22
367.90	166.18
368.10	114.69
368.30	147.45
368.49	135.75
368.69	184.90
368.89	112.35
369.09	180.22
369.28	205.97
369.48	147.45
369.68	194.26
369.87	271.50
370.07	243.42
370.27	238.73
370.47	383.85
370.66	594.50
370.86	650.67
371.06	760.67
371.25	599.18
371.45	671.73
371.65	704.50
371.84	669.39
372.04	704.50
372.24	725.57
372.44	711.52
372.63	718.54
372.83	812.17
373.03	812.17
373.22	711.52
373.42	753.65
373.62	777.06
373.81	812.17
374.01	800.46
374.21	767.70
374.40	741.95
374.60	814.51
374.79	828.55
374.99	816.85
375.19	901.11
375.38	828.55
375.58	821.53
375.78	945.58
375.97	926.85
376.17	889.40
376.37	840.25
376.56	863.66
376.76	933.87
376.95	830.89
377.15	938.55
377.35	814.51
377.54	870.68
377.74	849.61
377.93	856.64
378.13	952.60
378.33	931.53
378.52	929.19
378.72	840.25
378.91	924.51
379.11	980.68
379.31	910.47
379.50	945.58
379.70	992.39
379.89	1060.26
380.09	1032.18
380.28	973.66
380.48	1015.79
380.68	973.66
380.87	1034.52
381.07	1041.54
381.26	1057.92
381.46	978.34
381.65	980.68
381.85	1036.86
382.04	1083.67
382.24	1083.67
382.43	1062.60
382.63	1011.11
382.83	990.05
383.02	1004.09
383.22	1121.12
383.41	985.37
383.61	1114.10
383.80	1053.24
384.00	1116.44
384.19	1153.88
384.39	1104.73
384.58	1090.69
384.78	1137.50
384.97	1137.50
385.17	1144.52
385.36	1158.57
385.56	1174.95
385.75	1144.52
385.95	1261.55
386.14	1167.93
386.34	1153.88
386.53	1210.06
386.72	1191.33
386.92	1233.46
387.11	1282.61
387.31	1200.69
387.50	1210.06
387.70	1217.08
387.89	1198.35
388.09	1284.95
388.28	1214.74
388.48	1338.79
388.67	1313.04
388.86	1238.14
389.06	1296.66
389.25	1329.42
389.45	1348.15
389.64	1394.96
389.84	1345.81
390.03	1366.87
390.22	1411.34
390.42	1519.01
390.61	1474.54
390.81	1446.45
391.00	1420.71
391.19	1446.45
391.39	1385.60
391.58	1460.49
391.78	1322.40
391.97	1521.35
392.16	1423.05
392.36	1502.62
392.55	1549.43
392.75	1507.30
392.94	1612.63
393.13	1530.71
393.33	1540.07
393.52	1535.39
393.71	1544.75
393.91	1624.33
394.10	1570.50
394.29	1579.86
394.49	1645.40
394.68	1554.12
394.88	1586.88
395.07	1612.63
395.26	1673.48
395.46	1593.90
395.65	1661.78
395.84	1792.85
396.04	1781.15
396.23	1703.91
396.42	1741.36
396.62	1806.89
396.81	1820.94
397.00	1732.00
397.19	1673.48
397.39	1802.21
397.58	1757.74
397.77	1888.81
397.97	1912.22
398.16	1994.14
398.35	1959.03
398.55	1963.71
398.74	1884.13
398.93	1947.33
399.12	1891.15
399.32	1820.94
399.51	1959.03
399.70	1980.09
399.90	2010.52
400.09	2036.27
400.28	1949.67
400.47	2029.24
400.67	2031.58
400.86	2050.31
401.05	1968.39
401.24	2031.58
401.44	2090.10
401.63	2094.78
401.82	2073.71
402.01	2143.93
402.21	2132.23
402.40	2207.13
402.59	2127.55
402.78	2207.13
402.97	2267.98
403.17	2235.21
403.36	2275.00
403.55	2260.96
403.74	2366.28
403.93	2382.67
404.13	2466.92
404.32	2373.30
404.51	2406.07
404.70	2429.48
404.89	2480.97
405.09	2537.14
405.28	2516.08
405.47	2511.39
405.66	2401.39
405.85	2572.25
406.05	2576.93
406.24	2534.80
406.43	2478.63
406.62	2642.46
406.81	2712.68
407.00	2675.23
407.20	2590.97
407.39	2609.70
407.58	2754.81
407.77	2696.30
407.96	2775.88
408.15	2736.09
408.34	2719.70
408.54	2780.56
408.73	2827.37
408.92	2794.60
409.11	2857.79
409.30	2796.94
409.49	2892.90
409.68	2855.45
409.87	3023.97
410.07	2862.48
410.26	2986.52
410.45	2923.33
410.64	3033.33
410.83	3026.31
411.02	3213.56
411.21	3239.30
411.40	3059.08
411.59	3241.64
411.78	3258.03
411.98	3187.81
412.17	3269.73
412.36	3311.86
412.55	3300.16
412.74	3391.44
412.93	3361.01
413.12	3346.97
413.31	3520.17
413.50	3449.95
413.69	3489.74
413.88	3515.48
414.07	3604.42
414.26	3524.85
414.45	3524.85
414.64	3599.74
414.83	3712.09
415.02	3763.58
415.22	3749.54
415.41	3934.44
415.60	3817.41
415.79	4007.00
415.98	4023.38
416.17	4014.02
416.36	3960.19
416.55	4058.49
416.74	4011.68
416.93	4121.68
417.12	4060.83
417.31	4273.82
417.50	4077.21
417.69	4297.22
417.88	4236.37
418.07	4243.39
418.26	4194.24
418.45	4369.78
418.64	4660.01
418.83	4444.68
419.02	4351.06
419.21	4475.10
419.39	4489.15
419.58	4519.57
419.77	4486.81
419.96	4358.08
420.15	4606.17
420.34	4613.20
420.53	4683.41
420.72	4711.50
420.91	4606.17
421.10	4816.82
421.29	4779.37
421.48	4667.03
421.67	4622.56
421.86	4725.54
422.05	4786.40
422.24	4901.08
422.43	4905.76
422.61	4898.74
422.80	5001.72
422.99	4851.93
423.18	5029.81
423.37	5032.15
423.56	4741.93
423.75	4898.74
423.94	4767.67
424.13	4463.40
424.32	4727.88
424.50	5025.13
424.69	5071.94
424.88	5034.49
425.07	4821.50
425.26	4959.60
425.45	4990.02
425.64	4922.15
425.83	4868.31
426.01	4966.62
426.20	5085.98
426.39	4917.47
426.58	4971.30
426.77	4924.49
426.96	5116.41
427.15	5125.77
427.33	5170.24
427.52	5125.77
427.71	5348.12
427.90	5261.52
428.09	5193.65
428.28	5294.29
428.46	5324.72
428.65	5305.99
428.84	5479.19
429.03	5476.85
429.22	5369.19
429.40	5378.55
429.59	5523.66
429.78	5200.67
429.97	5104.71
430.16	5521.32
430.34	5621.97
430.53	5444.09
430.72	5612.60
430.91	5568.13
431.10	5476.85
431.28	5652.39
431.47	5713.25
431.66	5888.79
431.85	5722.61
432.03	5701.54
432.22	6010.50
432.41	5799.85
432.60	6017.52
432.79	6094.76
432.97	5982.41
433.16	6064.33
433.35	5942.62
433.54	6029.22
433.72	6012.84
433.91	6174.33
434.10	6190.72
434.28	6073.69
434.47	6298.38
434.66	6228.17
434.85	6401.37
435.03	6293.70
435.22	6429.45
435.41	6370.94
435.59	6523.07
435.78	6619.04
435.97	6429.45
436.16	6307.74
436.34	6499.67
436.53	6389.66
436.72	6609.67
436.90	6466.90
437.09	6572.22
437.28	6375.62
437.46	6579.25
437.65	6499.67
437.84	6738.40
438.02	6780.53
438.21	6658.82
438.40	6691.59
438.58	6888.20
438.77	6998.20
438.96	6832.02
439.14	7002.88
439.33	7150.34
439.52	7222.89
439.70	7183.10
439.89	7234.60
440.08	7229.91
440.26	7288.43
440.45	7337.58
440.63	7379.71
440.82	7625.47
441.01	7419.50
441.19	7693.34
441.38	7585.68
441.57	7772.92
441.75	8039.74
441.94	7960.16
442.12	7929.74
442.31	7906.33
442.50	8241.03
442.68	8074.85
442.87	8039.74
443.05	8191.88
443.24	8159.11
443.43	8182.51
443.61	8205.92
443.80	8482.10
443.98	8053.78
444.17	7784.62
444.35	8133.36
444.54	8070.17
444.73	8299.54
444.91	8439.97
445.10	8442.31
445.28	8311.24
445.47	8372.10
445.65	8325.29
445.84	8493.80
446.02	8634.24
446.21	8395.50
446.39	8332.31
446.58	8573.38
446.77	8575.72
446.95	8301.88
447.14	8248.05
447.32	8655.30
447.51	8425.93
447.69	8414.23
447.88	8542.96
448.06	8468.06
448.25	8507.85
448.43	8688.07
448.62	8514.87
448.80	8599.13
448.99	8720.84
449.17	8622.53
449.36	8784.03
449.54	8856.59
449.73	8915.10
449.91	8954.89
450.10	8882.33
450.28	9177.24
450.46	9001.70
450.65	8945.53
450.83	9228.73
451.02	8933.82
451.20	9245.12
451.39	9071.92
451.57	9205.33
451.76	8961.91
451.94	8994.68
452.13	9221.71
452.31	9359.80
452.49	9224.05
452.68	9341.08
452.86	9366.82
453.05	9282.56
453.23	9327.03
453.42	9238.09
453.60	9261.50
453.78	9554.07
453.97	9586.83
454.15	9589.17
454.34	9537.68
454.52	9813.87
454.70	9474.49
454.89	9643.01
455.07	9926.21
455.26	9764.72
455.44	9954.30
455.62	9966.00
455.81	9930.89
455.99	9949.62
456.17	10099.41
456.36	10073.67
456.54	10150.90
456.73	10148.56
456.91	10413.04
457.09	10445.81
457.28	10546.45
457.46	10307.72
457.64	10478.58
457.83	10420.06
458.01	10375.59
458.19	10457.51
458.38	10356.87
458.56	10562.84
458.74	10719.65
458.93	10581.56
459.11	10888.17
459.29	10623.69
459.48	10775.83
459.66	10684.55
459.84	10846.04
460.03	11201.80
460.21	10991.16
460.39	10927.96
460.57	10949.03
460.76	11159.67
460.94	11201.80
461.12	11143.29
461.31	10986.47
461.49	11311.81
461.67	11302.45
461.85	11417.13
462.04	11028.60
462.22	11896.94
462.40	11485.01
462.59	11749.49
462.77	11475.65
462.95	11536.50
463.13	11700.34
463.32	11599.70
463.50	11723.74
463.68	11789.28
463.86	11721.40
464.05	11646.51
464.23	11768.21
464.41	11726.08
464.59	11721.40
464.78	11983.54
464.96	11824.39
465.14	11859.49
465.32	12063.12
465.50	12053.76
465.69	12346.33
465.87	12233.98
466.05	12058.44
466.23	12161.42
466.41	12297.17
466.60	12432.93
466.78	12170.79
466.96	11957.80
467.14	12390.80
467.32	12432.93
467.51	12418.88
467.69	12203.55
467.87	12404.84
468.05	12636.55
468.23	12311.22
468.41	12128.66
468.60	12615.49
468.78	12688.04
468.96	12531.23
469.14	12809.75
469.32	12798.05
469.50	12725.49
469.69	12681.02
469.87	13123.38
470.05	13109.34
470.23	13315.31
470.41	13160.83
470.59	13245.09
470.77	13249.77
470.95	13317.65
471.14	13425.31
471.32	13018.06
471.50	13544.68
471.68	13598.51
471.86	13738.94
472.04	13671.07
472.22	13680.43
472.40	13600.85
472.58	13877.04
472.77	14052.58
472.95	13991.72
473.13	14441.11
473.31	14232.80
473.49	13832.57
473.67	14169.60
473.85	14314.72
474.03	14822.61
474.21	14403.66
474.39	14810.91
474.57	14789.85
474.75	14897.51
474.93	14970.07
475.12	14813.25
475.30	15337.53
475.48	15009.86
475.66	15211.14
475.84	15133.90
476.02	15328.17
476.20	15236.89
476.38	15459.24
476.56	15950.75
476.74	15803.30
476.92	15723.72
477.10	15740.10
477.28	16056.08
477.46	16070.12
477.64	16173.10
477.82	16367.37
478.00	17053.14
478.18	16826.11
478.36	17003.99
478.54	16816.75
478.72	17460.40
478.90	17179.53
479.08	17366.78
479.26	17502.53
479.44	17912.12
479.62	17891.06
479.80	17788.07
479.98	18160.22
480.16	18590.88
480.34	18068.94
480.52	18726.63
480.70	18700.88
480.88	18497.25
481.06	18831.95
481.24	18782.80
481.41	18860.04
481.59	19211.12
481.77	19531.77
481.95	19559.86
482.13	19845.40
482.31	19566.88
482.49	19880.51
482.67	20327.55
482.85	20105.20
483.03	20528.84
483.21	20489.05
483.39	20819.07
483.57	20657.57
483.74	21186.53
483.92	21022.69
484.10	21544.63
484.28	21584.42
484.46	21963.59
484.64	22218.71
484.82	21963.59
485.00	22398.93
485.18	23103.43
485.35	23044.91
485.53	22752.35
485.71	22721.92
485.89	23545.79
486.07	23344.50
486.25	23080.02
486.43	23679.20
486.61	23894.53
486.78	23791.55
486.96	23850.06
487.14	24449.24
487.32	24699.67
487.50	24826.06
487.68	24898.62
487.85	25006.28
488.03	25242.68
488.21	25617.16
488.39	25544.61
488.57	26405.92
488.75	25860.58
488.92	26370.82
489.10	26581.46
489.28	26583.80
489.46	27061.27
489.64	27019.14
489.81	27850.03
489.99	27576.19
490.17	27075.32
490.35	27871.10
490.53	27946.00
490.70	28481.98
490.88	28360.27
491.06	28790.93
491.24	28533.47
491.41	29132.65
491.59	28889.23
491.77	28945.41
491.95	29371.38
492.13	29240.31
492.30	30094.61
492.48	29699.06
492.66	30113.33
492.84	30188.23
493.01	30583.78
493.19	30604.84
493.37	31218.07
493.54	30441.01
493.72	31480.21
493.90	31419.35
494.08	31711.92
494.25	31976.40
494.43	31934.27
494.61	32119.17
494.79	32350.88
494.96	32432.80
495.14	32718.35
495.32	32996.87
495.49	32945.38
495.67	33202.84
495.85	33532.86
496.02	33324.55
496.20	33813.72
496.38	33518.81
496.55	34050.11
496.73	34707.80
496.91	34120.33
497.09	35194.64
497.26	34897.39
497.44	34881.00
497.62	34890.37
497.79	35601.89
497.97	35002.71
498.14	35849.99
498.32	35889.77
498.50	35747.00
498.67	36727.69
498.85	36671.51
499.03	36507.68
499.20	36360.22
499.38	36816.63
499.56	36687.90
499.73	36856.42
499.91	37090.47
500.08	37240.26
500.26	37251.97
500.44	37429.85
500.61	37574.96
500.79	37591.34
500.97	38377.76
501.14	38394.15
501.32	38389.47
501.49	38398.83
501.67	38487.77
501.84	38979.28
502.02	39093.97
502.20	38635.22
502.37	39248.44
502.55	38909.07
502.72	39342.06
502.90	39365.47
503.07	39306.96
503.25	39260.15
503.43	39391.22
503.60	39899.11
503.78	40128.48
503.95	40102.74
504.13	40570.85
504.30	40439.78
504.48	40348.50
504.65	41074.06
504.83	41003.85
505.01	41500.04
505.18	41053.00
505.36	41483.66
505.53	40701.92
505.71	41731.75
505.88	41727.07
506.06	41535.15
506.23	41830.05
506.41	41579.62
506.58	42029.00
506.76	42064.11
506.93	42272.42
507.11	42127.30
507.28	42447.96
507.46	42349.65
507.63	42686.69
507.81	43026.07
507.98	43026.07
508.16	43611.20
508.33	42983.94
508.50	43269.48
508.68	43278.85
508.85	43824.19
509.03	43505.88
509.20	44179.95
509.38	44320.38
509.55	43966.96
509.73	44182.29
509.90	44381.24
510.08	44121.44
510.25	44493.58
510.42	44519.33
510.60	45052.97
510.77	44865.73
510.95	44921.90
511.12	45048.29
511.30	45074.04
511.47	45134.89
511.64	45099.78
511.82	45886.20
511.99	45177.02
512.17	45984.51
512.34	45717.68
512.51	46155.36
512.69	46061.74
512.86	46312.18
513.04	46504.10
513.21	46370.69
513.38	46721.77
513.56	46534.53
513.73	46979.23
513.90	46852.84
514.08	46506.44
514.25	47152.43
514.43	47107.96
514.60	47166.48
514.77	47119.66
514.95	47555.00
515.12	47377.12
515.29	47217.97
515.47	47463.72
515.64	47931.83
515.81	47978.64
515.99	48130.78
516.16	48423.34
516.33	48109.71
516.51	48498.24
516.68	48268.87
516.85	48364.83
517.03	48732.29
517.20	49209.76
517.37	48844.64
517.54	48839.96
517.72	48608.25
517.89	49287.00
518.06	48619.95
518.24	48982.73
518.41	49345.51
518.58	49404.03
518.75	49345.51
518.93	49822.98
519.10	49368.92
519.27	49188.70
519.45	49673.19
519.62	49628.72
519.79	49429.77
519.96	49773.83
520.14	50050.02
520.31	50033.63
520.48	50314.50
520.65	50136.62
520.83	50429.18
521.00	50534.51
521.17	50429.18
521.34	50600.04
521.52	50574.30
521.69	50801.33
521.86	50478.33
522.03	51161.77
522.20	51316.25
522.38	51629.88
522.55	51253.05
522.72	51114.96
522.89	51028.36
523.07	51477.74
523.24	51475.40
523.41	51674.35
523.58	51487.10
523.75	51725.84
523.92	51564.34
524.10	51894.36
524.27	51987.98
524.44	51906.06
524.61	51718.82
524.78	52196.29
524.96	52259.48
525.13	52119.05
525.30	52287.57
525.47	52715.89
525.64	52498.22
525.81	52538.01
525.98	52718.23
526.16	52580.13
526.33	52488.85
526.50	53006.11
526.67	52507.58
526.84	52861.00
527.01	52837.59
527.18	52989.73
527.36	52956.96
527.53	53038.88
527.70	53221.44
527.87	53172.29
528.04	53137.18
528.21	53186.33
528.38	53502.31
528.55	53478.90
528.72	53144.20
528.89	53385.28
529.07	52851.64
529.24	53221.44
529.41	53593.59
529.58	53696.57
529.75	53408.68
529.92	53322.08
530.09	53729.34
530.26	53918.92
530.43	53790.19
530.60	53581.88
530.77	53497.62
530.94	53979.78
531.11	53942.33
531.28	54225.53
531.46	54092.12
531.63	53989.14
531.80	54127.23
531.97	54237.23
532.14	54358.94
532.31	54188.08
532.48	54738.11
532.65	54660.87
532.82	54532.14
532.99	54546.18
533.16	54597.68
533.33	54724.07
533.50	54859.82
533.67	54639.81
533.84	54422.14
534.01	54705.34
534.18	54925.35
534.35	55077.49
534.52	54953.44
534.69	54969.82
534.86	55222.60
535.03	55164.09
535.20	54908.97
535.37	55554.96
535.54	55437.93
535.71	55208.56
535.88	55381.76
536.05	55398.14
536.22	55536.23
536.38	55543.25
536.55	55458.99
536.72	55292.82
536.89	55341.97
537.06	55634.53
537.23	55725.81
537.40	55276.43
537.57	55524.53
537.74	56006.68
537.91	55948.17
538.08	55777.31
538.25	55732.84
538.42	55716.45
538.59	56037.11
538.75	55641.56
538.92	56088.60
539.09	56203.28
539.26	56142.43
539.43	55990.30
539.60	56133.07
539.77	56119.02
539.94	56442.02
540.11	56210.31
540.28	56310.95
540.44	56334.35
540.61	56306.27
540.78	56261.80
540.95	56217.33
541.12	56296.91
541.29	56463.08
541.46	56392.87
541.62	56329.67
541.79	56722.88
541.96	56067.53
542.13	56575.43
542.30	56411.59
542.47	56795.44
542.63	56804.80
542.80	56793.10
542.97	57202.69
543.14	57043.54
543.31	57214.40
543.48	57228.44
543.64	57371.21
543.81	57181.63
543.98	57296.31
544.15	57261.21
544.32	57373.55
544.48	57659.10
544.65	57303.34
544.82	57345.47
544.99	57127.80
545.16	57420.36
545.32	57661.44
545.49	57607.61
545.66	57801.87
545.83	57525.69
546.00	57799.53
546.16	57542.07
546.33	57492.92
546.50	57289.29
546.67	57638.03
546.83	57635.69
547.00	57790.17
547.17	57696.55
547.34	57525.69
547.50	57862.72
547.67	58061.67
547.84	57958.69
548.00	57865.06
548.17	58096.78
548.34	57848.68
548.51	58174.02
548.67	58218.49
548.84	58274.66
549.01	58183.38
549.18	58241.89
549.34	58195.08
549.51	58059.33
549.68	58464.24
549.84	58368.28
550.01	58424.45
550.18	58113.16
550.34	58422.11
550.51	58131.89
550.68	58265.30
550.84	58164.65
551.01	58347.21
551.18	58267.64
551.34	58541.48
551.51	58246.57
551.68	58560.20
551.84	58424.45
552.01	58515.73
552.18	58822.34
552.34	58269.98
552.51	58679.57
552.68	58644.46
552.84	58480.63
553.01	58937.03
553.18	58803.62
553.34	58752.13
553.51	58625.74
553.67	58822.34
553.84	58946.39
554.01	59100.87
554.17	58920.65
554.34	59150.02
554.51	59131.29
554.67	59056.40
554.84	58829.37
555.00	58885.54
555.17	59040.01
555.33	59000.22
555.50	58656.17
555.67	58653.82
555.83	58974.48
556.00	59011.93
556.16	58997.88
556.33	59243.64
556.50	58937.03
556.66	59447.27
556.83	59028.31
556.99	59353.65
557.16	59461.31
557.32	59437.90
557.49	59618.13
557.65	59257.68
557.82	59576.00
557.98	59117.25
558.15	59234.28
558.32	59611.10
558.48	59372.37
558.65	59423.86
558.81	59414.50
558.98	59332.58
559.14	59414.50
559.31	59505.78
559.47	59435.56
559.64	59519.82
559.80	59583.02
559.97	59704.73
560.13	59641.53
560.30	59477.69
560.46	59576.00
560.63	59791.33
560.79	59634.51
560.96	59943.46
561.12	59629.83
561.29	59887.29
561.45	59744.51
561.61	59971.55
561.78	59803.03
561.94	59796.01
562.11	59784.30
562.27	59875.58
562.44	59934.10
562.60	59938.78
562.77	59896.65
562.93	59868.56
563.10	60130.70
563.26	59690.68
563.42	60081.55
563.59	59854.52
563.75	59931.76
563.92	59889.63
564.08	59948.14
564.24	60006.65
564.41	59997.29
564.57	60086.23
564.74	60137.72
564.90	60023.04
565.07	60126.02
565.23	59962.18
565.39	60037.08
565.56	60041.76
565.72	60065.17
565.88	60058.15
566.05	60044.10
566.21	60044.10
566.38	60236.03
566.54	60203.26
566.70	60416.25
566.87	60273.48
567.03	60144.75
567.19	60191.56
567.36	60158.79
567.52	60177.51
567.68	60537.96
567.85	60341.35
568.01	60350.71
568.17	60364.76
568.34	60212.62
568.50	60329.65
568.66	60116.66
568.83	60566.04
568.99	60329.65
569.15	60441.99
569.32	60254.75
569.48	60383.48
569.64	60395.18
569.81	60308.58
569.97	60250.07
570.13	60378.80
570.30	60374.12
570.46	60294.54
570.62	60418.59
570.78	60589.45
570.95	60257.09
571.11	60563.70
571.27	60474.76
571.43	60346.03
571.60	60678.39
571.76	60399.86
571.92	60683.07
572.09	60493.49
572.25	60636.26
572.41	60664.35
572.57	60427.95
572.74	60690.09
572.90	60509.87
573.06	60619.88
573.22	60624.56
573.38	60264.11
573.55	60493.49
573.71	60725.20
573.87	60664.35
574.03	60542.64
574.20	60842.23
574.36	60643.28
574.52	60664.35
574.68	60776.69
574.84	60814.14
575.01	60608.17
575.17	60692.43
575.33	60673.71
575.49	60697.11
575.65	60708.82
575.82	60699.45
575.98	60622.22
576.14	60711.16
576.30	60772.01
576.46	60605.83
576.62	60664.35
576.79	60757.97
576.95	60542.64
577.11	60790.73
577.27	60872.65
577.43	60701.79
577.59	60814.14
577.75	60673.71
577.92	60830.52
578.08	60793.07
578.24	60734.56
578.40	60767.33
578.56	60912.44
578.72	60708.82
578.88	60931.17
579.04	60987.34
579.21	60762.65
579.37	60874.99
579.53	60853.93
579.69	60521.57
579.85	60711.16
580.01	60790.73
580.17	60727.54
580.33	60842.23
580.49	61038.83
580.65	60954.57
580.82	60825.84
580.98	60910.10
581.14	60636.26
581.30	60715.84
581.46	60865.63
581.62	60846.91
581.78	60629.24
581.94	60886.70
582.10	60788.39
582.26	60891.38
582.42	60912.44
582.58	60760.31
582.74	60767.33
582.90	60886.70
583.06	60835.20
583.22	60832.86
583.38	60830.52
583.54	60729.88
583.70	60793.07
583.86	60926.49
584.02	60856.27
584.18	60999.04
584.34	60921.80
584.50	60891.38
584.66	60980.32
584.82	60779.03
584.98	61148.84
585.14	61015.43
585.30	60809.46
585.46	61015.43
585.62	60931.17
585.78	61034.15
585.94	60818.82
586.10	60779.03
586.26	60793.07
586.42	61111.39
586.58	61179.26
586.74	60985.00
586.90	60783.71
587.06	60844.57
587.22	61029.47
587.38	60896.06
587.54	60816.48
587.70	61193.31
587.86	60931.17
588.02	60858.61
588.18	61104.37
588.34	60896.06
588.49	60886.70
