SpectraSuite Data File
++++++++++++++++++++++++++++++++++++
Date: Fri Oct 25 11:33:29 EDT 2013
User: price-jones
Dark Spectrum Present: No
Reference Spectrum Present: No
Number of Sampled Component Spectra: 1
Spectrometers: USB2+H05261
Integration Time (usec): 100000 (USB2+H05261)
Spectra Averaged: 1 (USB2+H05261)
Boxcar Smoothing: 0 (USB2+H05261)
Correct for Electrical Dark: No (USB2+H05261)
Strobe/Lamp Enabled: No (USB2+H05261)
Correct for Detector Non-linearity: No (USB2+H05261)
Correct for Stray Light: No (USB2+H05261)
Number of Pixels in Processed Spectrum: 2048
>>>>>Begin Processed Spectral Data<<<<<
365.73	248.10
365.92	248.10
366.12	248.10
366.32	248.10
366.52	224.69
366.72	140.43
366.91	126.39
367.11	107.66
367.31	170.86
367.51	210.65
367.70	168.52
367.90	105.32
368.10	196.60
368.30	110.01
368.49	210.65
368.69	276.18
368.89	241.08
369.09	140.43
369.28	201.29
369.48	257.46
369.68	238.73
369.87	191.92
370.07	217.67
370.27	201.29
370.47	376.83
370.66	531.30
370.86	407.25
371.06	568.75
371.25	552.37
371.45	503.22
371.65	559.39
371.84	538.32
372.04	479.81
372.24	566.41
372.44	512.58
372.63	578.11
372.83	547.69
373.03	596.84
373.22	521.94
373.42	610.88
373.62	594.50
373.81	629.60
374.01	631.94
374.21	615.56
374.40	709.18
374.60	620.24
374.79	645.99
374.99	664.71
375.19	638.97
375.38	692.80
375.58	709.18
375.78	653.01
375.97	681.10
376.17	669.39
376.37	648.33
376.56	671.73
376.76	662.37
376.95	667.05
377.15	692.80
377.35	744.29
377.54	709.18
377.74	657.69
377.93	678.76
378.13	730.25
378.33	734.93
378.52	744.29
378.72	702.16
378.91	662.37
379.11	657.69
379.31	770.04
379.50	655.35
379.70	772.38
379.89	730.25
380.09	772.38
380.28	702.16
380.48	751.31
380.68	725.57
380.87	784.08
381.07	830.89
381.26	746.63
381.46	844.93
381.65	791.10
381.85	816.85
382.04	805.14
382.24	816.85
382.43	812.17
382.63	744.29
382.83	770.04
383.02	833.23
383.22	842.59
383.41	814.51
383.61	849.61
383.80	854.30
384.00	772.38
384.19	793.44
384.39	823.87
384.58	791.10
384.78	856.64
384.97	880.04
385.17	821.53
385.36	870.68
385.56	821.53
385.75	812.17
385.95	884.72
386.14	858.98
386.34	800.46
386.53	823.87
386.72	807.48
386.92	877.70
387.11	835.57
387.31	957.28
387.50	875.36
387.70	835.57
387.89	903.45
388.09	889.40
388.28	863.66
388.48	954.94
388.67	896.43
388.86	858.98
389.06	950.26
389.25	964.30
389.45	940.90
389.64	961.96
389.84	992.39
390.03	966.64
390.22	957.28
390.42	971.32
390.61	919.83
390.81	973.66
391.00	964.30
391.19	1116.44
391.39	950.26
391.58	1083.67
391.78	1057.92
391.97	1118.78
392.16	1039.20
392.36	1069.62
392.55	1036.86
392.75	1090.69
392.94	1062.60
393.13	1015.79
393.33	1064.94
393.52	1006.43
393.71	1083.67
393.91	1097.71
394.10	1078.99
394.29	1135.16
394.49	1165.59
394.68	1116.44
394.88	1088.35
395.07	1086.01
395.26	1111.75
395.46	1137.50
395.65	1146.86
395.84	1132.82
396.04	1151.54
396.23	1210.06
396.42	1210.06
396.62	1320.06
396.81	1203.04
397.00	1114.10
397.19	1301.34
397.39	1163.25
397.58	1291.98
397.77	1242.82
397.97	1343.47
398.16	1231.12
398.35	1341.13
398.55	1242.82
398.74	1322.40
398.93	1284.95
399.12	1291.98
399.32	1313.04
399.51	1313.04
399.70	1240.48
399.90	1357.51
400.09	1324.74
400.28	1345.81
400.47	1397.30
400.67	1392.62
400.86	1465.18
401.05	1392.62
401.24	1394.96
401.44	1490.92
401.63	1495.60
401.82	1535.39
402.01	1418.36
402.21	1479.22
402.40	1490.92
402.59	1430.07
402.78	1596.25
402.97	1561.14
403.17	1533.05
403.36	1467.52
403.55	1629.01
403.74	1535.39
403.93	1474.54
404.13	1596.25
404.32	1626.67
404.51	1647.74
404.70	1664.12
404.89	1621.99
405.09	1699.23
405.28	1638.38
405.47	1591.56
405.66	1703.91
405.85	1678.16
406.05	1645.40
406.24	1774.13
406.43	1734.34
406.62	1764.76
406.81	1809.23
407.00	1741.36
407.20	1832.64
407.39	1767.10
407.58	1834.98
407.77	1837.32
407.96	1926.26
408.15	2033.93
408.34	1839.66
408.54	1893.49
408.73	1966.05
408.92	1940.30
409.11	1968.39
409.30	2059.67
409.49	2017.54
409.68	1947.33
409.87	2019.88
410.07	2083.08
410.26	2031.58
410.45	1952.01
410.64	2141.59
410.83	2228.19
411.02	2066.69
411.21	2195.42
411.40	2064.35
411.59	2221.17
411.78	2139.25
411.98	2235.21
412.17	2375.64
412.36	2263.30
412.55	2452.88
412.74	2296.07
412.93	2340.54
413.12	2300.75
413.31	2448.20
413.50	2457.56
413.69	2335.85
413.88	2476.29
414.07	2487.99
414.26	2420.11
414.45	2569.91
414.64	2609.70
414.83	2572.25
415.02	2607.36
415.22	2661.19
415.41	2668.21
415.60	2590.97
415.79	2616.72
415.98	2689.28
416.17	2717.36
416.36	2731.41
416.55	2670.55
416.74	2932.69
416.93	2665.87
417.12	2832.05
417.31	2848.43
417.50	2752.47
417.69	2949.08
417.88	2958.44
418.07	2963.12
418.26	2974.82
418.45	2925.67
418.64	2953.76
418.83	3075.46
419.02	3021.63
419.21	3096.53
419.39	3040.36
419.58	3056.74
419.77	3068.44
419.96	3124.62
420.15	3166.74
420.34	3119.93
420.53	3330.58
420.72	3300.16
420.91	3260.37
421.10	3218.24
421.29	3344.63
421.48	3194.83
421.67	3332.92
421.86	3283.77
422.05	3267.39
422.24	3185.47
422.43	3363.35
422.61	3356.33
422.80	3368.03
422.99	3398.46
423.18	3391.44
423.37	3550.59
423.56	3447.61
423.75	3449.95
423.94	3337.60
424.13	3145.68
424.32	3398.46
424.50	3501.44
424.69	3536.55
424.88	3520.17
425.07	3438.25
425.26	3337.60
425.45	3353.99
425.64	3503.78
425.83	3492.08
426.01	3630.17
426.20	3569.32
426.39	3569.32
426.58	3459.31
426.77	3414.84
426.96	3482.72
427.15	3536.55
427.33	3581.02
427.52	3494.42
427.71	3606.77
427.90	3569.32
428.09	3632.51
428.28	3473.36
428.46	3658.26
428.65	3630.17
428.84	3899.33
429.03	3819.75
429.22	3747.20
429.40	3726.13
429.59	3845.50
429.78	3709.75
429.97	3686.34
430.16	3758.90
430.34	3801.03
430.53	3712.09
430.72	4007.00
430.91	3925.08
431.10	3779.97
431.28	3967.21
431.47	3939.12
431.66	4063.17
431.85	3976.57
432.03	3906.35
432.22	4102.96
432.41	3997.64
432.60	4030.40
432.79	4072.53
432.97	4170.83
433.16	4215.30
433.35	4119.34
433.54	4049.13
433.72	4376.80
433.91	4184.88
434.10	4212.96
434.28	4088.92
434.47	4329.99
434.66	4311.27
434.85	4344.03
435.03	4301.90
435.22	4390.84
435.41	4491.49
435.59	4526.60
435.78	4362.76
435.97	4447.02
436.16	4479.79
436.34	4435.32
436.53	4383.82
436.72	4617.88
436.90	4461.06
437.09	4620.22
437.28	4428.29
437.46	4423.61
437.65	4622.56
437.84	4655.33
438.02	4589.79
438.21	4779.37
438.40	4617.88
438.58	4943.21
438.77	4746.61
438.96	4690.43
439.14	4858.95
439.33	4947.89
439.52	4837.89
439.70	4786.40
439.89	4945.55
440.08	5064.92
440.26	4943.21
440.45	5078.96
440.63	5078.96
440.82	5184.29
441.01	5069.60
441.19	5149.18
441.38	5210.03
441.57	5352.81
441.75	5355.15
441.94	5479.19
442.12	5514.30
442.31	5509.62
442.50	5406.64
442.68	5518.98
442.87	5357.49
443.05	5371.53
443.24	5551.75
443.43	5540.05
443.61	5640.69
443.80	5664.10
443.98	5500.26
444.17	5275.57
444.35	5584.52
444.54	5603.24
444.73	5640.69
444.91	5666.44
445.10	5657.07
445.28	5643.03
445.47	5614.95
445.65	5664.10
445.84	5694.52
446.02	5727.29
446.21	5736.65
446.39	5764.74
446.58	5722.61
446.77	5884.11
446.95	5675.80
447.14	5767.08
447.32	5769.42
447.51	5916.87
447.69	5825.59
447.88	5909.85
448.06	5685.16
448.25	5792.83
448.43	5809.21
448.62	5827.93
448.80	5771.76
448.99	5961.34
449.17	5818.57
449.36	5832.62
449.54	6033.90
449.73	6071.35
449.91	6204.76
450.10	6157.95
450.28	6211.78
450.46	6239.87
450.65	6143.91
450.83	6307.74
451.02	6200.08
451.20	6249.23
451.39	6171.99
451.57	6251.57
451.76	6237.53
451.94	6024.54
452.13	6380.30
452.31	6232.85
452.49	6204.76
452.68	6363.92
452.86	6092.41
453.05	6471.58
453.23	6392.00
453.42	6335.83
453.60	6319.45
453.78	6441.15
453.97	6387.32
454.15	6384.98
454.34	6356.90
454.52	6511.37
454.70	6583.93
454.89	6675.21
455.07	6513.71
455.26	6633.08
455.44	6656.48
455.62	6719.68
455.81	6567.54
455.99	6848.41
456.17	6874.15
456.36	6715.00
456.54	7016.93
456.73	6998.20
456.91	7047.35
457.09	6843.73
457.28	7148.00
457.46	6979.48
457.64	7194.81
457.83	7250.98
458.01	7148.00
458.19	7164.38
458.38	7035.65
458.56	7248.64
458.74	7201.83
458.93	7248.64
459.11	7316.51
459.29	7375.03
459.48	7328.22
459.66	7199.49
459.84	7398.43
460.03	7588.02
460.21	7281.41
460.39	7485.03
460.57	7353.96
460.76	7360.98
460.94	7669.94
461.12	7485.03
461.31	7391.41
461.49	7585.68
461.67	7445.24
461.85	7597.38
462.04	7508.44
462.22	8105.28
462.40	8018.68
462.59	7901.65
462.77	7747.17
462.95	7712.07
463.13	7679.30
463.32	7726.11
463.50	7962.50
463.68	7786.96
463.86	7845.48
464.05	7817.39
464.23	8006.97
464.41	7960.16
464.59	7887.61
464.78	8065.49
464.96	8198.90
465.14	7955.48
465.32	8119.32
465.50	8257.41
465.69	8241.03
465.87	8322.94
466.05	8168.47
466.23	8177.83
466.41	8093.57
466.60	8404.86
466.78	8049.10
466.96	8203.58
467.14	7969.52
467.32	8205.92
467.51	8432.95
467.69	8011.65
467.87	8376.78
468.05	8540.61
468.23	8428.27
468.41	8559.34
468.60	8578.06
468.78	8362.73
468.96	8498.49
469.14	8549.98
469.32	8617.85
469.50	8468.06
469.69	8678.71
469.87	8805.10
470.05	8830.84
470.23	9001.70
470.41	8908.08
470.59	8954.89
470.77	8847.22
470.95	8950.21
471.14	9170.22
471.32	8858.93
471.50	9013.40
471.68	8947.87
471.86	9076.60
472.04	9184.26
472.22	9486.19
472.40	9116.39
472.58	9404.27
472.77	9380.87
472.95	9413.63
473.13	9743.65
473.31	9352.78
473.49	9430.02
473.67	9399.59
473.85	9717.90
474.03	9706.20
474.21	9724.93
474.39	9722.59
474.57	9827.91
474.75	10001.11
474.93	9949.62
475.12	10024.51
475.30	10139.20
475.48	10157.92
475.66	10207.08
475.84	10157.92
476.02	10359.21
476.20	10197.71
476.38	10452.83
476.56	10726.68
476.74	10583.90
476.92	10483.26
477.10	10452.83
477.28	10705.61
477.46	10883.49
477.64	10874.13
477.82	11162.01
478.00	11580.97
478.18	10979.45
478.36	11098.82
478.54	11510.75
478.72	11552.88
478.90	11293.08
479.08	11740.13
479.26	11779.92
479.44	11812.68
479.62	11829.07
479.80	11728.42
479.98	11786.94
480.16	12156.74
480.34	12116.95
480.52	12243.34
480.70	12449.31
480.88	12390.80
481.06	12671.66
481.24	12479.74
481.41	12524.21
481.59	12765.28
481.77	12666.98
481.95	12875.29
482.13	13048.49
482.31	13092.96
482.49	13310.63
482.67	13369.14
482.85	13755.33
483.03	13418.29
483.21	13568.09
483.39	13689.79
483.57	13619.58
483.74	13996.40
483.92	14045.55
484.10	13961.30
484.28	14441.11
484.46	14665.80
484.64	14642.39
484.82	14427.06
485.00	14464.51
485.18	14918.57
485.35	15246.25
485.53	15129.22
485.71	15161.99
485.89	15382.00
486.07	15358.60
486.25	15367.96
486.43	15442.85
486.61	15723.72
486.78	15807.98
486.96	15815.00
487.14	16327.58
487.32	16306.51
487.50	16601.42
487.68	16711.42
487.85	16362.69
488.03	16706.74
488.21	16805.05
488.39	17226.34
488.57	17198.26
488.75	17062.51
488.92	17366.78
489.10	17657.00
489.28	17743.60
489.46	17647.64
489.64	18073.62
489.81	18298.31
489.99	18492.57
490.17	18286.61
490.35	18572.15
490.53	18658.75
490.70	18623.64
490.88	18499.59
491.06	18675.13
491.24	18780.46
491.41	19281.33
491.59	19110.47
491.77	19119.84
491.95	19234.52
492.13	19391.34
492.30	19651.14
492.48	19777.53
492.66	19754.12
492.84	20032.65
493.01	20416.49
493.19	19948.39
493.37	20596.71
493.54	20510.11
493.72	20842.47
493.90	20467.98
494.08	20922.05
494.25	21069.50
494.43	21083.55
494.61	21591.44
494.79	21446.33
494.96	21474.42
495.14	21806.77
495.32	21816.13
495.49	21916.78
495.67	21928.48
495.85	21994.01
496.02	22111.04
496.20	22230.41
496.38	22207.00
496.55	22443.40
496.73	23192.37
496.91	22860.01
497.09	23084.70
497.26	23264.92
497.44	22824.90
497.62	23204.07
497.79	23555.15
497.97	23489.62
498.14	23700.26
498.32	23964.75
498.50	23744.73
498.67	23995.17
498.85	23920.28
499.03	23728.35
499.20	24322.85
499.38	24039.64
499.56	24285.40
499.73	24795.64
499.91	24718.40
500.08	24737.12
500.26	24793.29
500.44	24718.40
500.61	24931.39
500.79	24992.24
500.97	25219.27
501.14	25474.39
501.32	25301.19
501.49	25420.56
501.67	25186.50
501.84	25539.93
502.02	25773.98
502.20	25773.98
502.37	25919.09
502.55	25671.00
502.72	25832.49
502.90	26047.82
503.07	26059.52
503.25	26595.51
503.43	25989.31
503.60	26415.29
503.78	26611.89
503.95	26434.01
504.13	26419.97
504.30	26618.91
504.48	26824.88
504.65	26988.72
504.83	27321.07
505.01	27087.02
505.18	27374.91
505.36	27398.31
505.53	27051.91
505.71	27456.82
505.88	27531.72
506.06	27300.01
506.23	27789.18
506.41	27370.22
506.58	27709.60
506.76	27922.59
506.93	28350.91
507.11	28112.17
507.28	28084.09
507.46	28201.11
507.63	28240.90
507.81	28243.24
507.98	28545.17
508.16	28683.27
508.33	28804.97
508.50	28748.80
508.68	28807.31
508.85	28872.85
509.03	28868.17
509.20	29010.94
509.38	29610.12
509.55	29247.33
509.73	29572.67
509.90	29200.52
510.08	29347.98
510.25	29422.87
510.42	29839.49
510.60	29900.34
510.77	29968.22
510.95	30356.75
511.12	30064.18
511.30	30115.67
511.47	30045.46
511.64	30614.21
511.82	30649.32
511.99	30651.66
512.17	30525.27
512.34	30504.20
512.51	31019.12
512.69	31321.05
512.86	30651.66
513.04	31197.00
513.21	31079.97
513.38	31061.25
513.56	31524.68
513.73	31103.38
513.90	31271.90
514.08	31761.07
514.25	31274.24
514.43	31695.53
514.60	31896.82
514.77	31482.55
514.95	31821.92
515.12	32002.14
515.29	31845.33
515.47	31969.38
515.64	32357.91
515.81	31990.44
515.99	32283.01
516.16	32624.73
516.33	32203.43
516.51	32488.98
516.68	32353.23
516.85	32491.32
517.03	32924.32
517.20	32919.63
517.37	32589.62
517.54	33130.28
517.72	33123.26
517.89	32975.81
518.06	33401.79
518.24	32952.40
518.41	33015.60
518.58	32947.72
518.75	32889.21
518.93	33582.01
519.10	33546.90
519.27	33820.74
519.45	33745.84
519.62	33886.28
519.79	33968.19
519.96	34010.32
520.14	34125.01
520.31	33813.72
520.48	34455.03
520.65	34536.94
520.83	34649.29
521.00	34625.89
521.17	34529.92
521.34	34653.97
521.52	34560.35
521.69	34534.60
521.86	34944.20
522.03	35260.17
522.20	35112.72
522.38	35468.48
522.55	35145.48
522.72	34988.67
522.89	35194.64
523.07	35545.72
523.24	35070.59
523.41	35386.56
523.58	35260.17
523.75	35505.93
523.92	35384.22
524.10	35723.60
524.27	35999.78
524.44	35688.49
524.61	36114.47
524.78	35875.73
524.96	36100.42
525.13	36074.68
525.30	36430.44
525.47	36306.39
525.64	36400.01
525.81	36470.23
525.98	36500.65
526.16	36261.92
526.33	36084.04
526.50	36540.44
526.67	36512.36
526.84	36814.29
527.01	36596.62
527.18	36818.97
527.36	36947.70
527.53	37097.49
527.70	37376.01
527.87	37525.81
528.04	37050.68
528.21	37368.99
528.38	37270.69
528.55	37146.64
528.72	37738.80
528.89	37160.69
529.07	37301.12
529.24	37483.68
529.41	37855.82
529.58	37574.96
529.75	37530.49
529.92	37460.27
530.09	37734.12
530.26	38096.90
530.43	37806.67
530.60	37773.91
530.77	37860.51
530.94	38064.13
531.11	37596.03
531.28	38150.73
531.46	38162.43
531.63	38345.00
531.80	38349.68
531.97	38328.61
532.14	38335.63
532.31	38277.12
532.48	39253.12
532.65	38824.81
532.82	38845.87
532.99	38880.98
533.16	38745.23
533.33	38721.82
533.50	38934.81
533.67	39075.24
533.84	38644.59
534.01	38754.59
534.18	39124.40
534.35	39363.13
534.52	39264.83
534.69	39613.57
534.86	39864.00
535.03	39496.54
535.20	39466.11
535.37	39594.84
535.54	39831.24
535.71	39517.60
535.88	39821.87
536.05	39580.80
536.22	39749.32
536.38	39667.40
536.55	39754.00
536.72	39775.06
536.89	39508.24
537.06	39721.23
537.23	40161.25
537.40	40091.04
537.57	40004.44
537.74	39761.02
537.91	40023.16
538.08	40231.47
538.25	39845.28
538.42	40332.11
538.59	40409.35
538.75	40470.20
538.92	40825.96
539.09	40540.42
539.26	40456.16
539.43	40730.00
539.60	40851.71
539.77	40524.04
539.94	40971.08
540.11	40966.40
540.28	41132.57
540.44	40982.78
540.61	40938.31
540.78	40886.82
540.95	41043.63
541.12	40863.41
541.29	41432.16
541.46	41263.64
541.62	41696.64
541.79	41383.01
541.96	41347.90
542.13	40835.33
542.30	41331.52
542.47	41797.29
542.63	41436.84
542.80	41462.59
542.97	42195.18
543.14	42164.75
543.31	42148.37
543.48	41806.65
543.64	42440.93
543.81	42192.84
543.98	42206.88
544.15	42094.53
544.32	42696.05
544.48	42822.44
544.65	42106.24
544.82	42504.13
544.99	42480.72
545.16	42501.79
545.32	42342.63
545.49	42937.13
545.66	43040.11
545.83	42773.29
546.00	42892.66
546.16	42749.88
546.33	42714.78
546.50	42983.94
546.67	42607.11
546.83	42593.07
547.00	42394.12
547.17	42768.61
547.34	42997.98
547.50	43304.59
547.67	43241.40
547.84	43117.35
548.00	43419.28
548.17	44058.24
548.34	43473.11
548.51	43337.36
548.67	43620.56
548.84	43306.93
549.01	43145.44
549.18	43512.90
549.34	43798.44
549.51	43889.73
549.68	43849.94
549.84	43744.61
550.01	43929.51
550.18	43337.36
550.34	44266.55
550.51	43585.46
550.68	44086.33
550.84	43613.54
551.01	43782.06
551.18	44086.33
551.34	43924.83
551.51	43985.69
551.68	44037.18
551.84	43908.45
552.01	43723.55
552.18	44083.99
552.34	44072.29
552.51	43882.70
552.68	44261.87
552.84	43927.17
553.01	44664.44
553.18	44137.82
553.34	44477.20
553.51	44463.16
553.67	44168.25
553.84	44549.76
554.01	44657.42
554.17	44332.09
554.34	44435.07
554.51	44500.61
554.67	45205.11
554.84	44945.31
555.00	44498.26
555.17	44542.74
555.33	44776.79
555.50	44847.00
555.67	44762.75
555.83	44847.00
556.00	44952.33
556.16	45361.92
556.33	45226.17
556.50	44912.54
556.66	44926.58
556.83	44662.10
556.99	44783.81
557.16	45462.57
557.32	45453.20
557.49	45584.27
557.65	45038.93
557.82	45380.65
557.98	45148.93
558.15	45242.56
558.32	45631.08
558.48	45467.25
558.65	45469.59
558.81	45441.50
558.98	45668.53
559.14	45371.28
559.31	45556.19
559.47	45390.01
559.64	45544.48
559.80	45624.06
559.97	45984.51
560.13	45612.36
560.30	45399.37
560.46	45631.08
560.63	45769.18
560.79	45801.94
560.96	45818.33
561.12	45956.42
561.29	45642.79
561.45	45942.38
561.61	45773.86
561.78	45705.98
561.94	45830.03
562.11	46113.23
562.27	45626.40
562.44	46445.59
562.60	45951.74
562.77	45977.48
562.93	45881.52
563.10	46148.34
563.26	46244.30
563.42	46906.68
563.59	45820.67
563.75	45631.08
563.92	45844.07
564.08	45921.31
564.24	46263.03
564.41	45970.46
564.57	46012.59
564.74	46136.64
564.90	46272.39
565.07	45977.48
565.23	45670.87
565.39	46337.93
565.56	46806.03
565.72	46239.62
565.88	46263.03
566.05	46246.65
566.21	46497.08
566.38	46415.16
566.54	46300.48
566.70	46209.20
566.87	46656.24
567.03	46256.01
567.19	46321.54
567.36	46689.01
567.52	46272.39
567.68	46756.88
567.85	46721.77
568.01	46674.96
568.17	46291.12
568.34	46803.69
568.50	46749.86
568.66	46087.49
568.83	46452.61
568.99	46932.42
569.15	47012.00
569.32	46831.78
569.48	47070.51
569.64	46768.58
569.81	46953.49
569.97	46904.34
570.13	47072.85
570.30	46623.47
570.46	46693.69
570.62	46958.17
570.78	47154.77
570.95	47061.15
571.11	47353.72
571.27	46447.93
571.43	46761.56
571.60	46916.04
571.76	46714.75
571.92	46609.43
572.09	46953.49
572.25	46581.34
572.41	46651.56
572.57	46937.10
572.74	47175.84
572.90	47222.65
573.06	47084.56
573.22	47082.22
573.38	46777.95
573.55	47126.69
573.71	47168.82
573.87	47047.11
574.03	47110.30
574.20	47751.61
574.36	46927.74
574.52	47316.27
574.68	47154.77
574.84	47264.78
575.01	47196.90
575.17	47309.25
575.33	47168.82
575.49	47054.13
575.65	47356.06
575.82	47117.32
575.98	47178.18
576.14	47306.91
576.30	47292.86
576.46	47295.21
576.62	46726.46
576.79	47042.43
576.95	46595.38
577.11	47318.61
577.27	47075.19
577.43	47480.11
577.59	47131.37
577.75	47107.96
577.92	46782.63
578.08	47138.39
578.24	47309.25
578.40	47358.40
578.56	47327.97
578.72	47313.93
578.88	47599.47
579.04	47363.08
579.21	47234.35
579.37	47255.42
579.53	47620.54
579.69	47147.75
579.85	47278.82
580.01	47391.17
580.17	47519.90
580.33	47931.83
580.49	47529.26
580.65	47690.76
580.82	47033.07
580.98	46848.16
581.14	47119.66
581.30	47320.95
581.46	47325.63
581.62	47461.38
581.78	47232.01
581.94	47615.86
582.10	47613.52
582.26	47290.52
582.42	47494.15
582.58	47208.61
582.74	47433.30
582.90	47353.72
583.06	47325.63
583.22	47206.26
583.38	47447.34
583.54	47168.82
583.70	47562.03
583.86	47763.31
584.02	47629.90
584.18	47569.05
584.34	47793.74
584.50	47484.79
584.66	47711.82
584.82	47604.16
584.98	48156.52
585.14	47459.04
585.30	47349.04
585.46	47599.47
585.62	47751.61
585.78	47772.67
585.94	47150.09
586.10	47667.35
586.26	47442.66
586.42	47742.25
586.58	47707.14
586.74	47346.70
586.90	47297.55
587.06	47599.47
587.22	47461.38
587.38	47351.38
587.54	47742.25
587.70	48018.43
587.86	47901.40
588.02	47796.08
588.18	47423.93
588.34	47428.62
588.49	47657.99
588.65	47580.75
588.81	47721.18
588.97	47763.31
589.13	47744.59
589.29	47674.37
589.45	48203.33
589.61	47749.27
589.77	48273.55
589.93	47880.34
