SpectraSuite Data File
++++++++++++++++++++++++++++++++++++
Date: Fri Oct 25 11:34:19 EDT 2013
User: price-jones
Dark Spectrum Present: No
Reference Spectrum Present: No
Number of Sampled Component Spectra: 1
Spectrometers: USB2+H05261
Integration Time (usec): 100000 (USB2+H05261)
Spectra Averaged: 1 (USB2+H05261)
Boxcar Smoothing: 0 (USB2+H05261)
Correct for Electrical Dark: No (USB2+H05261)
Strobe/Lamp Enabled: No (USB2+H05261)
Correct for Detector Non-linearity: No (USB2+H05261)
Correct for Stray Light: No (USB2+H05261)
Number of Pixels in Processed Spectrum: 2048
>>>>>Begin Processed Spectral Data<<<<<
365.73	315.97
365.92	315.97
366.12	315.97
366.32	154.48
366.52	203.63
366.72	142.77
366.91	187.24
367.11	180.22
367.31	187.24
367.51	163.84
367.70	187.24
367.90	154.48
368.10	196.60
368.30	168.52
368.49	154.48
368.69	229.37
368.89	243.42
369.09	154.48
369.28	187.24
369.48	177.88
369.68	234.05
369.87	163.84
370.07	224.69
370.27	264.48
370.47	344.06
370.66	463.43
370.86	456.40
371.06	477.47
371.25	573.43
371.45	491.51
371.65	564.07
371.84	465.77
372.04	568.75
372.24	545.34
372.44	697.48
372.63	648.33
372.83	543.00
373.03	596.84
373.22	610.88
373.42	634.29
373.62	585.13
373.81	587.47
374.01	683.44
374.21	575.77
374.40	610.88
374.60	603.86
374.79	608.54
374.99	610.88
375.19	634.29
375.38	730.25
375.58	645.99
375.78	739.61
375.97	634.29
376.17	741.95
376.37	660.03
376.56	730.25
376.76	599.18
376.95	671.73
377.15	720.88
377.35	678.76
377.54	711.52
377.74	692.80
377.93	697.48
378.13	727.91
378.33	678.76
378.52	641.31
378.72	741.95
378.91	716.20
379.11	748.97
379.31	713.86
379.50	629.60
379.70	779.40
379.89	678.76
380.09	760.67
380.28	688.12
380.48	709.18
380.68	748.97
380.87	737.27
381.07	732.59
381.26	793.44
381.46	784.08
381.65	720.88
381.85	819.19
382.04	716.20
382.24	732.59
382.43	713.86
382.63	732.59
382.83	781.74
383.02	849.61
383.22	835.57
383.41	746.63
383.61	760.67
383.80	774.72
384.00	788.76
384.19	788.76
384.39	791.10
384.58	798.12
384.78	837.91
384.97	837.91
385.17	800.46
385.36	844.93
385.56	800.46
385.75	823.87
385.95	758.33
386.14	926.85
386.34	812.17
386.53	795.78
386.72	943.24
386.92	875.36
387.11	788.76
387.31	966.64
387.50	840.25
387.70	919.83
387.89	875.36
388.09	917.49
388.28	875.36
388.48	856.64
388.67	880.04
388.86	931.53
389.06	980.68
389.25	898.77
389.45	917.49
389.64	922.17
389.84	910.47
390.03	976.00
390.22	898.77
390.42	978.34
390.61	983.02
390.81	926.85
391.00	851.96
391.19	992.39
391.39	1001.75
391.58	1034.52
391.78	1046.22
391.97	973.66
392.16	943.24
392.36	1055.58
392.55	1064.94
392.75	994.73
392.94	1029.84
393.13	1093.03
393.33	1015.79
393.52	1067.28
393.71	1025.15
393.91	1048.56
394.10	1121.12
394.29	1095.37
394.49	1057.92
394.68	1027.50
394.88	1158.57
395.07	1158.57
395.26	1135.16
395.46	1090.69
395.65	1158.57
395.84	1123.46
396.04	1198.35
396.23	1212.40
396.42	1156.22
396.62	1146.86
396.81	1107.07
397.00	1153.88
397.19	1338.79
397.39	1226.44
397.58	1174.95
397.77	1170.27
397.97	1263.89
398.16	1277.93
398.35	1238.14
398.55	1191.33
398.74	1306.02
398.93	1242.82
399.12	1273.25
399.32	1294.32
399.51	1313.04
399.70	1362.19
399.90	1275.59
400.09	1343.47
400.28	1420.71
400.47	1383.26
400.67	1355.17
400.86	1383.26
401.05	1420.71
401.24	1423.05
401.44	1416.02
401.63	1394.96
401.82	1390.28
402.01	1481.56
402.21	1423.05
402.40	1385.60
402.59	1427.73
402.78	1444.11
402.97	1446.45
403.17	1472.20
403.36	1500.28
403.55	1453.47
403.74	1519.01
403.93	1530.71
404.13	1547.09
404.32	1556.46
404.51	1523.69
404.70	1575.18
404.89	1629.01
405.09	1710.93
405.28	1636.03
405.47	1596.25
405.66	1629.01
405.85	1720.29
406.05	1629.01
406.24	1706.25
406.43	1657.10
406.62	1755.40
406.81	1799.87
407.00	1708.59
407.20	1778.81
407.39	1746.04
407.58	1820.94
407.77	1856.04
407.96	1834.98
408.15	1914.56
408.34	1799.87
408.54	1853.70
408.73	1856.04
408.92	1916.90
409.11	1872.43
409.30	1858.39
409.49	1952.01
409.68	1975.41
409.87	1898.17
410.07	1912.22
410.26	1907.54
410.45	1973.07
410.64	2026.90
410.83	2085.42
411.02	2132.23
411.21	2162.66
411.40	2172.02
411.59	2092.44
411.78	2010.52
411.98	2155.63
412.17	2106.48
412.36	2244.57
412.55	2291.38
412.74	2298.41
412.93	2345.22
413.12	2237.55
413.31	2324.15
413.50	2366.28
413.69	2289.04
413.88	2490.33
414.07	2380.32
414.26	2300.75
414.45	2319.47
414.64	2452.88
414.83	2464.58
415.02	2483.31
415.22	2689.28
415.41	2623.74
415.60	2649.49
415.79	2619.06
415.98	2661.19
416.17	2644.81
416.36	2555.86
416.55	2654.17
416.74	2764.17
416.93	2782.90
417.12	2773.53
417.31	2759.49
417.50	2801.62
417.69	2899.92
417.88	2960.78
418.07	2883.54
418.26	2771.19
418.45	2810.98
418.64	3009.93
418.83	2967.80
419.02	2977.16
419.21	2963.12
419.39	2949.08
419.58	2988.86
419.77	2937.37
419.96	2890.56
420.15	3000.57
420.34	3054.40
420.53	3068.44
420.72	3049.72
420.91	3110.57
421.10	3176.11
421.29	3304.84
421.48	3084.83
421.67	3248.66
421.86	3187.81
422.05	3267.39
422.24	3157.38
422.43	3187.81
422.61	3251.00
422.80	3323.56
422.99	3197.17
423.18	3351.65
423.37	3297.81
423.56	3328.24
423.75	3356.33
423.94	3316.54
424.13	3091.85
424.32	3162.06
424.50	3384.41
424.69	3447.61
424.88	3459.31
425.07	3314.20
425.26	3323.56
425.45	3220.58
425.64	3316.54
425.83	3272.07
426.01	3499.10
426.20	3288.45
426.39	3375.05
426.58	3438.25
426.77	3251.00
426.96	3372.71
427.15	3480.38
427.33	3426.54
427.52	3461.65
427.71	3517.83
427.90	3492.08
428.09	3515.48
428.28	3531.87
428.46	3590.38
428.65	3452.29
428.84	3674.64
429.03	3737.84
429.22	3676.98
429.40	3655.92
429.59	3669.96
429.78	3506.12
429.97	3604.42
430.16	3548.25
430.34	3824.44
430.53	3843.16
430.72	3794.01
430.91	3794.01
431.10	3782.31
431.28	3925.08
431.47	3894.65
431.66	3805.71
431.85	3801.03
432.03	3955.51
432.22	4091.26
432.41	3857.20
432.60	3995.29
432.79	3941.46
432.97	3971.89
433.16	3911.04
433.35	3861.88
433.54	3908.69
433.72	4011.68
433.91	4161.47
434.10	4011.68
434.28	4014.02
434.47	4037.42
434.66	4152.11
434.85	4074.87
435.03	4011.68
435.22	4173.18
435.41	4287.86
435.59	4449.36
435.78	4257.43
435.97	4444.68
436.16	4238.71
436.34	4266.80
436.53	4327.65
436.72	4404.89
436.90	4365.10
437.09	4365.10
437.28	4248.07
437.46	4266.80
437.65	4376.80
437.84	4575.75
438.02	4484.47
438.21	4451.70
438.40	4507.87
438.58	4542.98
438.77	4606.17
438.96	4636.60
439.14	4531.28
439.33	4711.50
439.52	4713.84
439.70	4807.46
439.89	4805.12
440.08	4898.74
440.26	4910.44
440.45	4821.50
440.63	4978.32
440.82	5128.11
441.01	5013.43
441.19	5174.92
441.38	5011.09
441.57	5233.44
441.75	5170.24
441.94	5245.14
442.12	5256.84
442.31	5174.92
442.50	5198.33
442.68	5121.09
442.87	5404.30
443.05	5352.81
443.24	5355.15
443.43	5444.09
443.61	5348.12
443.80	5561.11
443.98	5282.59
444.17	5172.58
444.35	5252.16
444.54	5397.28
444.73	5324.72
444.91	5483.88
445.10	5439.40
445.28	5420.68
445.47	5561.11
445.65	5301.31
445.84	5598.56
446.02	5570.48
446.21	5542.39
446.39	5570.48
446.58	5699.20
446.77	5659.42
446.95	5502.60
447.14	5626.65
447.32	5666.44
447.51	5528.35
447.69	5518.98
447.88	5701.54
448.06	5647.71
448.25	5570.48
448.43	5628.99
448.62	5659.42
448.80	5643.03
448.99	5640.69
449.17	5441.75
449.36	5657.07
449.54	5769.42
449.73	5916.87
449.91	5954.32
450.10	5804.53
450.28	5933.26
450.46	5923.90
450.65	5879.43
450.83	5902.83
451.02	5963.68
451.20	5884.11
451.39	6050.28
451.57	5944.96
451.76	5980.07
451.94	6099.44
452.13	6188.38
452.31	6146.25
452.49	5994.11
452.68	6235.19
452.86	6146.25
453.05	6200.08
453.23	6307.74
453.42	6179.01
453.60	6150.93
453.78	6242.21
453.97	6258.59
454.15	6141.57
454.34	6136.88
454.52	6253.91
454.70	6422.43
454.89	6307.74
455.07	6457.54
455.26	6476.26
455.44	6604.99
455.62	6607.33
455.81	6539.46
455.99	6387.32
456.17	6502.01
456.36	6499.67
456.54	6658.82
456.73	6715.00
456.91	6586.27
457.09	6785.21
457.28	6871.81
457.46	6689.25
457.64	6862.45
457.83	6759.47
458.01	6836.70
458.19	6813.30
458.38	6892.88
458.56	6932.67
458.74	6810.96
458.93	7035.65
459.11	7026.29
459.29	6881.18
459.48	7049.69
459.66	6998.20
459.84	6995.86
460.03	7194.81
460.21	7377.37
460.39	7178.42
460.57	7098.84
460.76	7241.62
460.94	7307.15
461.12	7307.15
461.31	7225.23
461.49	7344.60
461.67	7335.24
461.85	7389.07
462.04	7431.20
462.22	7817.39
462.40	7609.08
462.59	7599.72
462.77	7489.71
462.95	7627.81
463.13	7307.15
463.32	7534.18
463.50	7571.63
463.68	7581.00
463.86	7681.64
464.05	7573.97
464.23	7665.25
464.41	7777.60
464.59	7499.08
464.78	7775.26
464.96	7822.07
465.14	7686.32
465.32	7662.91
465.50	7812.71
465.69	7822.07
465.87	7981.23
466.05	7934.42
466.23	7908.67
466.41	7978.89
466.60	8257.41
466.78	7925.05
466.96	7985.91
467.14	7999.95
467.32	8112.30
467.51	8088.89
467.69	8002.29
467.87	8205.92
468.05	7962.50
468.23	8035.06
468.41	8060.80
468.60	8234.00
468.78	8336.99
468.96	8060.80
469.14	8360.39
469.32	8470.40
469.50	8098.25
469.69	8505.51
469.87	8442.31
470.05	8458.70
470.23	8477.42
470.41	8472.74
470.59	8734.88
470.77	8667.00
470.95	8861.27
471.14	8718.50
471.32	8566.36
471.50	8608.49
471.68	8781.69
471.86	8765.31
472.04	8617.85
472.22	9027.45
472.40	8837.86
472.58	8875.31
472.77	8931.48
472.95	8980.64
473.13	9193.62
473.31	8938.51
473.49	9008.72
473.67	9296.61
473.85	9296.61
474.03	9371.50
474.21	9387.89
474.39	9514.28
474.57	9289.59
474.75	9453.42
474.93	9490.87
475.12	9818.55
475.30	9877.06
475.48	9706.20
475.66	9785.78
475.84	9715.56
476.02	9856.00
476.20	9891.10
476.38	10139.20
476.56	10289.00
476.74	10097.07
476.92	10148.56
477.10	10010.47
477.28	10324.10
477.46	10188.35
477.64	10340.49
477.82	10494.96
478.00	10654.12
478.18	10551.14
478.36	10801.57
478.54	10813.28
478.72	10988.82
478.90	11122.23
479.08	11220.53
479.26	11386.71
479.44	11112.86
479.62	11531.82
479.80	11442.88
479.98	11571.61
480.16	11941.41
480.34	11831.41
480.52	11735.45
480.70	11988.22
480.88	11571.61
481.06	12147.38
481.24	11974.18
481.41	12072.48
481.59	12238.66
481.77	12325.26
481.95	12592.08
482.13	12620.17
482.31	12526.55
482.49	12924.44
482.67	12919.76
482.85	13015.72
483.03	13111.68
483.21	13261.48
483.39	13575.11
483.57	13284.88
483.74	13343.39
483.92	13596.17
484.10	13404.25
484.28	13689.79
484.46	14162.58
484.64	14218.75
484.82	13914.48
485.00	14256.20
485.18	14384.93
485.35	14471.53
485.53	14157.90
485.71	14480.89
485.89	14846.02
486.07	15005.17
486.25	14595.58
486.43	15180.71
486.61	14850.70
486.78	15178.37
486.96	15264.97
487.14	15609.03
487.32	15538.82
487.50	15639.46
487.68	15915.64
487.85	16182.46
488.03	16095.86
488.21	16409.50
488.39	16126.29
488.57	16664.61
488.75	16657.59
488.92	16917.39
489.10	16805.05
489.28	16791.00
489.46	17013.35
489.64	16992.29
489.81	17680.41
489.99	17488.48
490.17	17790.41
490.35	17696.79
490.53	17928.50
490.70	18324.05
490.88	17987.02
491.06	18302.99
491.24	18176.60
491.41	18120.43
491.59	18457.46
491.77	18478.53
491.95	18724.29
492.13	18728.97
492.30	19218.14
492.48	19178.35
492.66	18855.36
492.84	19161.97
493.01	19316.44
493.19	19433.47
493.37	19903.92
493.54	19372.61
493.72	19803.27
493.90	19866.47
494.08	19971.79
494.25	20032.65
494.43	20166.06
494.61	20215.21
494.79	20676.29
494.96	20463.30
495.14	20776.94
495.32	20755.87
495.49	20877.58
495.67	20973.54
495.85	21254.40
496.02	21376.11
496.20	21336.32
496.38	21568.04
496.55	21621.87
496.73	22031.46
496.91	21830.18
497.09	22230.41
497.26	22153.17
497.44	22043.17
497.62	22295.94
497.79	22008.06
497.97	22363.82
498.14	22345.09
498.32	23035.55
498.50	22848.31
498.67	23157.26
498.85	23080.02
499.03	23506.00
499.20	23297.69
499.38	23222.80
499.56	23428.76
499.73	23833.68
499.91	23531.75
500.08	23955.38
500.26	23625.37
500.44	24095.82
500.61	23964.75
500.79	23920.28
500.97	24362.64
501.14	24505.41
501.32	24112.20
501.49	24247.95
501.67	24592.01
501.84	24858.83
502.02	24884.58
502.20	24758.19
502.37	25003.94
502.55	24465.62
502.72	25032.03
502.90	24896.28
503.07	24907.98
503.25	25394.81
503.43	25266.08
503.60	25624.18
503.78	25427.58
503.95	25245.02
504.13	25479.07
504.30	26075.91
504.48	26001.01
504.65	25820.79
504.83	26155.49
505.01	26061.87
505.18	26101.65
505.36	26717.22
505.53	26174.21
505.71	26611.89
505.88	26600.19
506.06	26417.63
506.23	26876.37
506.41	26616.57
506.58	26998.08
506.76	26850.63
506.93	26806.16
507.11	26916.16
507.28	27243.84
507.46	27222.77
507.63	27475.55
507.81	27452.14
507.98	27480.23
508.16	27594.92
508.33	27438.10
508.50	27798.54
508.68	27835.99
508.85	28088.77
509.03	27805.56
509.20	28194.09
509.38	28371.97
509.55	28271.33
509.73	28650.50
509.90	28652.84
510.08	28474.96
510.25	28353.25
510.42	28685.61
510.60	28467.94
510.77	28341.55
510.95	28725.39
511.12	28973.49
511.30	28659.86
511.47	29001.58
511.64	29032.00
511.82	29181.80
511.99	29415.85
512.17	29156.05
512.34	29528.20
512.51	29888.64
512.69	30005.67
512.86	29717.78
513.04	29862.90
513.21	29745.87
513.38	29905.02
513.56	30361.43
513.73	30040.78
513.90	30464.41
514.08	30307.60
514.25	30651.66
514.43	30515.90
514.60	30382.49
514.77	30370.79
514.95	30644.63
515.12	30792.09
515.29	30628.25
515.47	30906.77
515.64	30986.35
515.81	30843.58
515.99	31079.97
516.16	31267.22
516.33	31075.29
516.51	31122.10
516.68	31332.75
516.85	31393.61
517.03	31545.74
517.20	31599.57
517.37	31417.01
517.54	31510.63
517.72	31515.31
517.89	31878.10
518.06	31976.40
518.24	31835.97
518.41	32032.57
518.58	31763.41
518.75	32070.02
518.93	32271.31
519.10	32184.71
519.27	32252.58
519.45	32481.95
519.62	32510.04
519.79	32624.73
519.96	32971.13
520.14	32821.33
520.31	32388.33
520.48	32570.90
520.65	33249.65
520.83	32723.03
521.00	33408.81
521.17	33338.59
521.34	33071.77
521.52	33317.53
521.69	33055.39
521.86	33497.75
522.03	33944.79
522.20	33858.19
522.38	34066.50
522.55	33713.08
522.72	33696.69
522.89	33696.69
523.07	34377.79
523.24	34003.30
523.41	34176.50
523.58	34342.68
523.75	34333.32
523.92	34408.22
524.10	34370.77
524.27	34550.99
524.44	34340.34
524.61	34714.83
524.78	34515.88
524.96	34550.99
525.13	34663.33
525.30	34660.99
525.47	35140.80
525.64	34838.87
525.81	34909.09
525.98	35115.06
526.16	35007.39
526.33	34960.58
526.50	35454.44
526.67	35227.40
526.84	34923.13
527.01	35365.49
527.18	35257.83
527.36	35391.24
527.53	35585.50
527.70	35758.70
527.87	36245.54
528.04	35360.81
528.21	35903.82
528.38	36072.34
528.55	35906.16
528.72	35864.03
528.89	35924.88
529.07	36247.88
529.24	35936.59
529.41	35941.27
529.58	35828.92
529.75	35950.63
529.92	36627.04
530.09	36250.22
530.26	36133.19
530.43	36624.70
530.60	36439.80
530.77	36355.54
530.94	36467.89
531.11	36751.09
531.28	36584.91
531.46	36823.65
531.63	36748.75
531.80	37167.71
531.97	37258.99
532.14	36748.75
532.31	37184.09
532.48	37652.20
532.65	37020.25
532.82	36978.12
532.99	37570.28
533.16	37092.81
533.33	37439.21
533.50	37223.88
533.67	37549.21
533.84	37212.18
534.01	37455.59
534.18	37694.33
534.35	38036.05
534.52	38167.12
534.69	38036.05
534.86	37844.12
535.03	37984.55
535.20	38113.28
535.37	37869.87
535.54	38176.48
535.71	38134.35
535.88	38359.04
536.05	38253.72
536.22	38129.67
536.38	38436.28
536.55	38190.52
536.72	38412.87
536.89	38291.16
537.06	38515.86
537.23	38565.01
537.40	38543.94
537.57	38958.22
537.74	38642.24
537.91	38707.78
538.08	38637.56
538.25	38480.75
538.42	38946.51
538.59	38843.53
538.75	38583.73
538.92	39203.97
539.09	39402.92
539.26	39016.73
539.43	39175.89
539.60	39175.89
539.77	39447.39
539.94	39292.91
540.11	39328.02
540.28	39590.16
540.44	38904.38
540.61	39292.91
540.78	39208.65
540.95	39285.89
541.12	38923.11
541.29	39487.18
541.46	39599.52
541.62	39711.87
541.79	39800.81
541.96	39768.04
542.13	39653.36
542.30	39737.62
542.47	40163.59
542.63	40388.28
542.80	39901.45
542.97	40547.44
543.14	40811.92
543.31	40163.59
543.48	40226.79
543.64	40456.16
543.81	40767.45
543.98	40669.15
544.15	40397.65
544.32	40601.27
544.48	40573.19
544.65	40711.28
544.82	40896.18
544.99	40774.47
545.16	40685.53
545.32	40605.95
545.49	40924.27
545.66	41031.93
545.83	41219.17
546.00	41179.39
546.16	41057.68
546.33	40889.16
546.50	40971.08
546.67	41193.43
546.83	41074.06
547.00	40992.14
547.17	41029.59
547.34	41221.52
547.50	41579.62
547.67	41687.28
547.84	41146.62
548.00	41954.10
548.17	42164.75
548.34	41696.64
548.51	42288.80
548.67	41654.51
548.84	41691.96
549.01	41972.83
549.18	42216.24
549.34	41935.38
549.51	42234.97
549.68	42174.11
549.84	41776.22
550.01	42490.09
550.18	41834.74
550.34	42057.09
550.51	42113.26
550.68	42284.12
550.84	41862.82
551.01	42239.65
551.18	42064.11
551.34	42508.81
551.51	42136.66
551.68	42557.96
551.84	42237.31
552.01	42588.39
552.18	42410.51
552.34	42394.12
552.51	42869.25
552.68	42660.94
552.84	42443.27
553.01	42611.79
553.18	42780.31
553.34	42834.14
553.51	43222.67
553.67	42923.08
553.84	42974.58
554.01	42567.32
554.17	42660.94
554.34	43000.32
554.51	43423.96
554.67	43255.44
554.84	43487.15
555.00	42958.19
555.17	43037.77
555.33	43180.54
555.50	43143.09
555.67	43234.38
555.83	43168.84
556.00	42895.00
556.16	43721.21
556.33	43276.51
556.50	43133.73
556.66	43255.44
556.83	43173.52
556.99	43739.93
557.16	43571.41
557.32	43807.81
557.49	43721.21
557.65	43625.25
557.82	44247.83
557.98	43346.72
558.15	43990.37
558.32	43688.44
558.48	43337.36
558.65	43430.98
558.81	43693.12
558.98	43662.69
559.14	43711.84
559.31	43793.76
559.47	43847.60
559.64	43810.15
559.80	43775.04
559.97	43648.65
560.13	44112.08
560.30	43969.30
560.46	44428.05
560.63	43854.62
560.79	44149.53
560.96	44526.35
561.12	44184.63
561.29	43875.68
561.45	44414.01
561.61	43910.79
561.78	44041.86
561.94	44261.87
562.11	44133.14
562.27	44154.21
562.44	44109.74
562.60	44289.96
562.77	44540.39
562.93	44098.03
563.10	44673.81
563.26	44264.21
563.42	44818.92
563.59	44144.84
563.75	44509.97
563.92	44315.70
564.08	44362.51
564.24	44535.71
564.41	44399.96
564.57	44624.65
564.74	44442.09
564.90	44327.41
565.07	44753.38
565.23	44268.89
565.39	44589.55
565.56	44889.13
565.72	44254.85
565.88	44608.27
566.05	44622.31
566.21	44655.08
566.38	44376.56
566.54	44591.89
566.70	44896.16
566.87	44722.96
567.03	44509.97
567.19	44893.82
567.36	44989.78
567.52	44847.00
567.68	45085.74
567.85	44687.85
568.01	45303.41
568.17	44914.88
568.34	45074.04
568.50	45123.19
568.66	44945.31
568.83	44924.24
568.99	44491.24
569.15	45338.52
569.32	44940.63
569.48	44985.10
569.64	45603.00
569.81	45043.61
569.97	45258.94
570.13	45378.31
570.30	45001.48
570.46	45186.38
570.62	45720.02
570.78	45380.65
570.95	44921.90
571.11	45502.35
571.27	44928.92
571.43	44725.30
571.60	45038.93
571.76	45352.56
571.92	45450.86
572.09	45497.67
572.25	45050.63
572.41	45113.83
572.57	45158.30
572.74	45088.08
572.90	45174.68
573.06	45619.38
573.22	45474.27
573.38	45518.74
573.55	45408.73
573.71	45762.15
573.87	45549.17
574.03	45237.87
574.20	45724.71
574.36	45907.27
574.52	45378.31
574.68	45340.86
574.84	45682.58
575.01	45722.37
575.17	45408.73
575.33	45544.48
575.49	45305.75
575.65	45628.74
575.82	45579.59
575.98	45120.85
576.14	45474.27
576.30	45815.99
576.46	45764.49
576.62	45392.35
576.79	45387.67
576.95	45366.60
577.11	45251.92
577.27	45703.64
577.43	45406.39
577.59	45722.37
577.75	45488.31
577.92	45081.06
578.08	45755.13
578.24	45703.64
578.40	45748.11
578.56	45595.98
578.72	45731.73
578.88	45584.27
579.04	45139.57
579.21	45713.00
579.37	45951.74
579.53	45331.50
579.69	45640.45
579.85	45415.76
580.01	45469.59
580.17	45408.73
580.33	45792.58
580.49	45773.86
580.65	45918.97
580.82	45872.16
580.98	45434.48
581.14	45308.09
581.30	45858.12
581.46	45464.91
581.62	45649.81
581.78	45319.79
581.94	45418.10
582.10	45876.84
582.26	46206.86
582.42	45656.83
582.58	45745.77
582.74	46103.87
582.90	45820.67
583.06	45549.17
583.22	46059.40
583.38	45881.52
583.54	45771.52
583.70	45509.38
583.86	46267.71
584.02	45715.34
584.18	46141.32
584.34	45886.20
584.50	46344.95
584.66	45968.12
584.82	45783.22
584.98	46162.39
585.14	46017.27
585.30	45724.71
585.46	45806.62
585.62	45757.47
585.78	45684.92
585.94	45607.68
586.10	45947.06
586.26	45764.49
586.42	45811.31
586.58	45949.40
586.74	45720.02
586.90	45408.73
587.06	46096.85
587.22	45897.91
587.38	45790.24
587.54	45801.94
587.70	46471.34
587.86	46602.41
588.02	45743.43
588.18	45993.87
588.34	45860.46
588.49	46403.46
588.65	45734.07
588.81	45808.96
588.97	45982.16
589.13	45940.04
589.29	46131.96
589.45	45979.82
589.61	46110.89
589.77	46246.65
589.93	46019.61
590.08	46045.36
