SpectraSuite Data File
++++++++++++++++++++++++++++++++++++
Date: Fri Oct 25 10:47:20 EDT 2013
User: price-jones
Dark Spectrum Present: No
Reference Spectrum Present: No
Number of Sampled Component Spectra: 1
Spectrometers: USB2+H05261
Integration Time (usec): 100000 (USB2+H05261)
Spectra Averaged: 1 (USB2+H05261)
Boxcar Smoothing: 0 (USB2+H05261)
Correct for Electrical Dark: No (USB2+H05261)
Strobe/Lamp Enabled: No (USB2+H05261)
Correct for Detector Non-linearity: No (USB2+H05261)
Correct for Stray Light: No (USB2+H05261)
Number of Pixels in Processed Spectrum: 2048
>>>>>Begin Processed Spectral Data<<<<<
365.73	168.52
365.92	168.52
366.12	168.52
366.32	102.98
366.52	14.04
366.72	128.73
366.91	0.00
367.11	23.41
367.31	0.00
367.51	0.00
367.70	9.36
367.90	37.45
368.10	0.00
368.30	98.30
368.49	16.38
368.69	79.58
368.89	53.83
369.09	72.56
369.28	0.00
369.48	49.15
369.68	74.90
369.87	60.85
370.07	126.39
370.27	140.43
370.47	215.33
370.66	332.36
370.86	437.68
371.06	416.62
371.25	510.24
371.45	524.28
371.65	524.28
371.84	440.02
372.04	418.96
372.24	395.55
372.44	386.19
372.63	437.68
372.83	428.32
373.03	507.90
373.22	463.43
373.42	498.53
373.62	503.22
373.81	470.45
374.01	470.45
374.21	547.69
374.40	603.86
374.60	510.24
374.79	517.26
374.99	521.94
375.19	564.07
375.38	547.69
375.58	538.32
375.78	568.75
375.97	573.43
376.17	594.50
376.37	566.41
376.56	624.92
376.76	594.50
376.95	543.00
377.15	636.63
377.35	559.39
377.54	566.41
377.74	580.45
377.93	629.60
378.13	685.78
378.33	650.67
378.52	524.28
378.72	636.63
378.91	681.10
379.11	610.88
379.31	606.20
379.50	613.22
379.70	678.76
379.89	643.65
380.09	685.78
380.28	585.13
380.48	641.31
380.68	678.76
380.87	681.10
381.07	603.86
381.26	688.12
381.46	660.03
381.65	617.90
381.85	692.80
382.04	657.69
382.24	617.90
382.43	690.46
382.63	709.18
382.83	636.63
383.02	727.91
383.22	667.05
383.41	634.29
383.61	732.59
383.80	737.27
384.00	737.27
384.19	753.65
384.39	723.23
384.58	702.16
384.78	730.25
384.97	716.20
385.17	753.65
385.36	741.95
385.56	802.80
385.75	795.78
385.95	746.63
386.14	821.53
386.34	730.25
386.53	819.19
386.72	812.17
386.92	777.06
387.11	767.70
387.31	791.10
387.50	760.67
387.70	770.04
387.89	791.10
388.09	828.55
388.28	781.74
388.48	875.36
388.67	805.14
388.86	919.83
389.06	861.32
389.25	884.72
389.45	777.06
389.64	821.53
389.84	861.32
390.03	889.40
390.22	931.53
390.42	819.19
390.61	844.93
390.81	830.89
391.00	912.81
391.19	976.00
391.39	891.74
391.58	858.98
391.78	917.49
391.97	936.21
392.16	922.17
392.36	964.30
392.55	971.32
392.75	976.00
392.94	922.17
393.13	903.45
393.33	952.60
393.52	1057.92
393.71	1011.11
393.91	931.53
394.10	1107.07
394.29	1025.15
394.49	1039.20
394.68	1060.26
394.88	1125.80
395.07	1137.50
395.26	1132.82
395.46	1149.20
395.65	1109.41
395.84	1048.56
396.04	1193.67
396.23	1090.69
396.42	1048.56
396.62	1219.42
396.81	1193.67
397.00	1198.35
397.19	1121.12
397.39	1102.39
397.58	1198.35
397.77	1198.35
397.97	1277.93
398.16	1205.38
398.35	1203.04
398.55	1181.97
398.74	1179.63
398.93	1334.11
399.12	1322.40
399.32	1289.64
399.51	1301.34
399.70	1310.70
399.90	1329.42
400.09	1348.15
400.28	1376.24
400.47	1336.45
400.67	1409.00
400.86	1495.60
401.05	1273.25
401.24	1324.74
401.44	1533.05
401.63	1437.09
401.82	1469.86
402.01	1432.41
402.21	1451.13
402.40	1577.52
402.59	1462.83
402.78	1446.45
402.97	1575.18
403.17	1600.93
403.36	1514.33
403.55	1556.46
403.74	1596.25
403.93	1600.93
404.13	1591.56
404.32	1507.30
404.51	1575.18
404.70	1598.59
404.89	1682.85
405.09	1715.61
405.28	1680.50
405.47	1612.63
405.66	1776.47
405.85	1799.87
406.05	1701.57
406.24	1736.68
406.43	1675.82
406.62	1722.63
406.81	1832.64
407.00	1743.70
407.20	1703.91
407.39	1717.95
407.58	1755.40
407.77	1809.23
407.96	1816.26
408.15	1912.22
408.34	1898.17
408.54	1947.33
408.73	1905.20
408.92	1891.15
409.11	1961.37
409.30	1900.52
409.49	1879.45
409.68	1921.58
409.87	2024.56
410.07	1947.33
410.26	1947.33
410.45	2085.42
410.64	2211.81
410.83	2073.71
411.02	2097.12
411.21	2162.66
411.40	2207.13
411.59	2195.42
411.78	2270.32
411.98	2167.34
412.17	2289.04
412.36	2242.23
412.55	2335.85
412.74	2417.77
412.93	2312.45
413.12	2377.98
413.31	2296.07
413.50	2422.45
413.69	2466.92
413.88	2424.80
414.07	2525.44
414.26	2518.42
414.45	2574.59
414.64	2661.19
414.83	2544.16
415.02	2640.12
415.22	2754.81
415.41	2794.60
415.60	2757.15
415.79	2658.85
415.98	2801.62
416.17	2874.18
416.36	2761.83
416.55	2656.51
416.74	2808.64
416.93	2972.48
417.12	2789.92
417.31	2897.58
417.50	2967.80
417.69	3049.72
417.88	3007.59
418.07	2960.78
418.26	3012.27
418.45	3073.12
418.64	3101.21
418.83	3049.72
419.02	3056.74
419.21	3117.59
419.39	3084.83
419.58	3124.62
419.77	3119.93
419.96	3077.80
420.15	3220.58
420.34	3201.85
420.53	3293.13
420.72	3232.28
420.91	3304.84
421.10	3281.43
421.29	3258.03
421.48	3281.43
421.67	3372.71
421.86	3262.71
422.05	3300.16
422.24	3424.20
422.43	3251.00
422.61	3337.60
422.80	3421.86
422.99	3372.71
423.18	3428.88
423.37	3566.98
423.56	3454.63
423.75	3398.46
423.94	3368.03
424.13	3119.93
424.32	3424.20
424.50	3442.93
424.69	3531.87
424.88	3569.32
425.07	3520.17
425.26	3375.05
425.45	3269.73
425.64	3545.91
425.83	3468.67
426.01	3548.25
426.20	3520.17
426.39	3651.24
426.58	3520.17
426.77	3583.36
426.96	3487.40
427.15	3487.40
427.33	3590.38
427.52	3772.94
427.71	3623.15
427.90	3751.88
428.09	3796.35
428.28	3557.61
428.46	3588.04
428.65	3618.47
428.84	3716.77
429.03	3819.75
429.22	3669.96
429.40	3740.18
429.59	3794.01
429.78	3559.95
429.97	3574.00
430.16	3527.19
430.34	3761.24
430.53	3847.84
430.72	3744.86
430.91	3801.03
431.10	3765.92
431.28	3911.04
431.47	3995.29
431.66	3971.89
431.85	3864.22
432.03	4014.02
432.22	4145.09
432.41	4133.39
432.60	4180.20
432.79	4032.74
432.97	4035.08
433.16	4201.26
433.35	4156.79
433.54	4105.30
433.72	4201.26
433.91	4238.71
434.10	4208.28
434.28	4149.77
434.47	4329.99
434.66	4402.55
434.85	4280.84
435.03	4311.27
435.22	4332.33
435.41	4447.02
435.59	4411.91
435.78	4400.21
435.97	4484.47
436.16	4463.40
436.34	4461.06
436.53	4517.23
436.72	4674.05
436.90	4402.55
437.09	4573.41
437.28	4568.73
437.46	4416.59
437.65	4636.60
437.84	4521.92
438.02	4482.13
438.21	4608.51
438.40	4547.66
438.58	4835.55
438.77	4765.33
438.96	4748.95
439.14	4861.29
439.33	4905.76
439.52	4856.61
439.70	4936.19
439.89	5240.46
440.08	5046.20
440.26	4985.34
440.45	5029.81
440.63	4964.28
440.82	5228.76
441.01	5231.10
441.19	5027.47
441.38	5221.74
441.57	5296.63
441.75	5324.72
441.94	5430.04
442.12	5383.23
442.31	5425.36
442.50	5474.51
442.68	5549.41
442.87	5528.35
443.05	5434.72
443.24	5558.77
443.43	5558.77
443.61	5731.97
443.80	5776.44
443.98	5425.36
444.17	5401.96
444.35	5664.10
444.54	5689.84
444.73	5715.59
444.91	5570.48
445.10	5713.25
445.28	5722.61
445.47	5521.32
445.65	5727.29
445.84	5664.10
446.02	5783.46
446.21	5699.20
446.39	5708.57
446.58	5778.78
446.77	5792.83
446.95	5701.54
447.14	5935.60
447.32	5977.73
447.51	5877.09
447.69	5781.12
447.88	5947.30
448.06	5762.40
448.25	5872.40
448.43	5888.79
448.62	5748.36
448.80	5856.02
448.99	6024.54
449.17	5982.41
449.36	5973.05
449.54	5870.06
449.73	6235.19
449.91	6202.42
450.10	6005.81
450.28	6286.68
450.46	6319.45
450.65	6136.88
450.83	6345.19
451.02	6286.68
451.20	6216.46
451.39	6200.08
451.57	6293.70
451.76	6258.59
451.94	6387.32
452.13	6314.77
452.31	6420.09
452.49	6338.17
452.68	6319.45
452.86	6511.37
453.05	6417.75
453.23	6527.75
453.42	6289.02
453.60	6438.81
453.78	6551.16
453.97	6272.64
454.15	6518.39
454.34	6466.90
454.52	6600.31
454.70	6406.05
454.89	6490.31
455.07	6581.59
455.26	6766.49
455.44	6764.15
455.62	6628.40
455.81	6619.04
455.99	6836.70
456.17	6960.75
456.36	6839.05
456.54	6958.41
456.73	6867.13
456.91	7073.10
457.09	7110.55
457.28	7157.36
457.46	6963.09
457.64	7208.85
457.83	7162.04
458.01	7030.97
458.19	7206.51
458.38	6963.09
458.56	7159.70
458.74	7229.91
458.93	7206.51
459.11	7243.96
459.29	7412.48
459.48	7447.58
459.66	7314.17
459.84	7375.03
460.03	7550.57
460.21	7398.43
460.39	7461.63
460.57	7344.60
460.76	7550.57
460.94	7421.84
461.12	7538.87
461.31	7695.68
461.49	7562.27
461.67	7339.92
461.85	7779.94
462.04	7524.82
462.22	8018.68
462.40	7840.79
462.59	7850.16
462.77	7779.94
462.95	7857.18
463.13	7915.69
463.32	7903.99
463.50	7957.82
463.68	7997.61
463.86	7929.74
464.05	7733.13
464.23	7936.76
464.41	8074.85
464.59	7798.66
464.78	8177.83
464.96	8114.64
465.14	8016.33
465.32	8088.89
465.50	8212.94
465.69	8100.59
465.87	8044.42
466.05	7969.52
466.23	8159.11
466.41	8276.13
466.60	8341.67
466.78	8067.83
466.96	8156.77
467.14	7948.46
467.32	8182.51
467.51	8393.16
467.69	7999.95
467.87	8390.82
468.05	8205.92
468.23	8189.53
468.41	8332.31
468.60	8299.54
468.78	8414.23
468.96	8458.70
469.14	8718.50
469.32	8681.05
469.50	8606.15
469.69	8608.49
469.87	8678.71
470.05	8641.26
470.23	8858.93
470.41	8779.35
470.59	8809.78
470.77	8568.70
470.95	8877.65
471.14	8746.58
471.32	8877.65
471.50	9088.30
471.68	8971.27
471.86	8990.00
472.04	8982.98
472.22	9467.47
472.40	8945.53
472.58	9231.07
472.77	9315.33
472.95	9458.10
473.13	9715.56
473.31	9385.55
473.49	9554.07
473.67	9322.35
473.85	9446.40
474.03	9612.58
474.21	9799.82
474.39	9710.88
474.57	9928.55
474.75	9834.93
474.93	9748.33
475.12	9872.38
475.30	9956.64
475.48	9956.64
475.66	10174.31
475.84	10064.30
476.02	10059.62
476.20	10251.55
476.38	10335.81
476.56	10361.55
476.74	10471.56
476.92	10436.45
477.10	10527.73
477.28	10710.29
477.46	10595.61
477.64	10775.83
477.82	10979.45
478.00	11257.98
478.18	11110.52
478.36	11234.57
478.54	11449.90
478.72	11239.25
478.90	11412.45
479.08	11459.26
479.26	11707.36
479.44	11747.15
479.62	11714.38
479.80	11822.05
479.98	11880.56
480.16	12058.44
480.34	12107.59
480.52	12276.11
480.70	12243.34
480.88	12102.91
481.06	12362.71
481.24	12336.96
481.41	12758.26
481.59	12617.83
481.77	12601.44
481.95	12725.49
482.13	13025.08
482.31	12971.25
482.49	13268.50
482.67	13128.06
482.85	13287.22
483.03	13497.87
483.21	13476.80
483.39	13521.27
483.57	13792.78
483.74	14045.55
483.92	13881.72
484.10	13965.98
484.28	13928.53
484.46	14462.17
484.64	14642.39
484.82	14216.41
485.00	14176.62
485.18	14963.04
485.35	14899.85
485.53	14705.59
485.71	14860.06
485.89	15073.05
486.07	15009.86
486.25	15311.78
486.43	15241.57
486.61	15346.89
486.78	15559.88
486.96	15641.80
487.14	15962.45
487.32	15854.79
487.50	16112.25
487.68	16369.71
487.85	16390.77
488.03	16496.10
488.21	16418.86
488.39	16575.67
488.57	16945.48
488.75	16868.24
488.92	17432.31
489.10	17151.45
489.28	17589.13
489.46	17682.75
489.64	17467.42
489.81	17764.67
489.99	18022.12
490.17	18071.28
490.35	18349.80
490.53	18174.26
490.70	18246.82
490.88	18345.12
491.06	18752.37
491.24	18625.98
491.41	18518.32
491.59	18712.58
491.77	18963.02
491.95	19166.65
492.13	19154.94
492.30	19604.33
492.48	19690.93
492.66	19616.03
492.84	19585.60
493.01	19784.55
493.19	19707.31
493.37	19948.39
493.54	20355.64
493.72	20465.64
493.90	20367.34
494.08	20599.05
494.25	20875.24
494.43	21067.16
494.61	21226.32
494.79	20737.15
494.96	20950.14
495.14	21256.75
495.32	21282.49
495.49	21483.78
495.67	21598.46
495.85	21568.04
496.02	21937.84
496.20	21699.11
496.38	21975.29
496.55	21956.57
496.73	22464.46
496.91	22422.33
497.09	22398.93
497.26	22618.94
497.44	22576.81
497.62	22705.54
497.79	22965.34
497.97	22867.03
498.14	23150.24
498.32	23035.55
498.50	23161.94
498.67	23337.48
498.85	23269.61
499.03	23988.15
499.20	23793.89
499.38	23758.78
499.56	23634.73
499.73	24123.90
499.91	23782.18
500.08	23974.11
500.26	23840.70
500.44	24222.20
500.61	24231.57
500.79	24322.85
500.97	24622.44
501.14	24645.84
501.32	24950.11
501.49	24648.18
501.67	24898.62
501.84	24957.13
502.02	24718.40
502.20	25167.78
502.37	25043.73
502.55	25135.01
502.72	25598.44
502.90	25401.83
503.07	25034.37
503.25	25895.69
503.43	25504.82
503.60	26118.04
503.78	26022.08
503.95	25947.18
504.13	25898.03
504.30	25802.07
504.48	25640.57
504.65	26249.11
504.83	26602.53
505.01	26686.79
505.18	26302.94
505.36	26904.46
505.53	26438.69
505.71	26981.70
505.88	27005.10
506.06	26799.13
506.23	26918.50
506.41	26703.17
506.58	27136.17
506.76	27206.39
506.93	27372.57
507.11	27204.05
507.28	27475.55
507.46	27440.44
507.63	27484.91
507.81	27751.73
507.98	27426.40
508.16	27997.49
508.33	27728.33
508.50	28407.08
508.68	28191.75
508.85	28603.69
509.03	28315.80
509.20	28252.61
509.38	28898.59
509.55	28444.53
509.73	28498.36
509.90	28891.57
510.08	28245.58
510.25	28400.06
510.42	29095.20
510.60	29296.49
510.77	29116.26
510.95	29432.24
511.12	29373.72
511.30	29378.40
511.47	29373.72
511.64	29766.93
511.82	29596.07
511.99	29387.77
512.17	29804.38
512.34	29596.07
512.51	29450.96
512.69	29991.62
512.86	30174.19
513.04	30078.22
513.21	30354.41
513.38	30057.16
513.56	30082.91
513.73	30043.12
513.90	30169.51
514.08	30075.88
514.25	30768.68
514.43	30291.21
514.60	30630.59
514.77	30656.34
514.95	31199.34
515.12	30817.83
515.29	30974.65
515.47	31243.81
515.64	31381.90
515.81	31311.69
515.99	31323.39
516.16	31152.53
516.33	31232.11
516.51	31384.24
516.68	31325.73
516.85	31325.73
517.03	31290.62
517.20	31859.37
517.37	31433.39
517.54	31417.01
517.72	31470.84
517.89	31765.75
518.06	31740.00
518.24	31985.76
518.41	31634.68
518.58	31894.48
518.75	31442.76
518.93	32360.25
519.10	32250.24
519.27	32299.39
519.45	32329.82
519.62	32830.69
519.79	32793.25
519.96	32748.78
520.14	32907.93
520.31	33050.70
520.48	33097.52
520.65	32720.69
520.83	32868.14
521.00	32940.70
521.17	33329.23
521.34	32858.78
521.52	33329.23
521.69	33383.06
521.86	33474.34
522.03	33701.37
522.20	33420.51
522.38	33806.70
522.55	34354.38
522.72	33497.75
522.89	33778.61
523.07	33933.09
523.24	33996.28
523.41	33834.78
523.58	33802.02
523.75	34366.09
523.92	34380.13
524.10	34787.38
524.27	34452.69
524.44	34377.79
524.61	34419.92
524.78	34487.79
524.96	35150.17
525.13	34663.33
525.30	34593.12
525.47	34944.20
525.64	34555.67
525.81	34892.71
525.98	35199.32
526.16	34852.92
526.33	34955.90
526.50	35166.55
526.67	35093.99
526.84	35222.72
527.01	35299.96
527.18	34768.66
527.36	35194.64
527.53	35545.72
527.70	35594.87
527.87	36004.46
528.04	35248.47
528.21	35796.15
528.38	35868.71
528.55	35775.09
528.72	36055.95
528.89	35857.01
529.07	36217.45
529.24	35751.68
529.41	36240.86
529.58	36084.04
529.75	36112.13
529.92	36259.58
530.09	36313.41
530.26	36329.80
530.43	36278.30
530.60	35763.39
530.77	36339.16
530.94	36545.12
531.11	36584.91
531.28	36322.77
531.46	36926.63
531.63	36638.75
531.80	36470.23
531.97	36505.34
532.14	36905.57
532.31	36463.21
532.48	36816.63
532.65	36882.16
532.82	37053.02
532.99	37076.43
533.16	36739.39
533.33	37361.97
533.50	37364.31
533.67	37120.90
533.84	37036.64
534.01	37399.42
534.18	37060.04
534.35	37907.32
534.52	37223.88
534.69	37518.79
534.86	37909.66
535.03	37689.65
535.20	37954.13
535.37	38174.14
535.54	37940.08
535.71	38033.71
535.88	37860.51
536.05	37867.53
536.22	38141.37
536.38	37581.98
536.55	38146.05
536.72	38260.74
536.89	37975.19
537.06	37996.26
537.23	38162.43
537.40	38581.39
537.57	38277.12
537.74	38419.89
537.91	39044.82
538.08	39033.11
538.25	38387.13
538.42	38869.28
538.59	38810.76
538.75	38305.21
538.92	38478.41
539.09	38906.73
539.26	38979.28
539.43	38941.83
539.60	38719.48
539.77	38670.33
539.94	38962.90
540.11	38567.35
540.28	38789.70
540.44	38745.23
540.61	38749.91
540.78	39241.42
540.95	38944.17
541.12	38990.98
541.29	39225.04
541.46	38712.46
541.62	39084.61
541.79	39688.46
541.96	38747.57
542.13	38920.77
542.30	39051.84
542.47	39487.18
542.63	39599.52
542.80	39613.57
542.97	39772.72
543.14	40320.41
543.31	39842.94
543.48	40165.93
543.64	40580.21
543.81	39901.45
543.98	39969.33
544.15	40182.32
544.32	40079.33
544.48	40418.71
544.65	40554.46
544.82	40044.23
544.99	39959.97
545.16	39812.51
545.32	40367.22
545.49	40790.86
545.66	40423.39
545.83	40650.42
546.00	40823.62
546.16	40392.97
546.33	40374.24
546.50	40311.05
546.67	41060.02
546.83	40495.95
547.00	40617.66
547.17	40645.74
547.34	40727.66
547.50	40910.22
547.67	41221.52
547.84	40388.28
548.00	41137.26
548.17	41060.02
548.34	40814.26
548.51	41088.10
548.67	41373.65
548.84	41193.43
549.01	41383.01
549.18	41177.04
549.34	41373.65
549.51	41385.35
549.68	41303.43
549.84	41596.00
550.01	41621.75
550.18	41221.52
550.34	41673.24
550.51	41511.74
550.68	41184.07
550.84	40945.33
551.01	41291.73
551.18	41383.01
551.34	41752.82
551.51	41986.87
551.68	41710.69
551.84	41893.25
552.01	41600.68
552.18	41755.16
552.34	41886.23
552.51	42094.53
552.68	41956.44
552.84	41921.34
553.01	41991.55
553.18	42127.30
553.34	42478.38
553.51	41755.16
553.67	41886.23
553.84	42616.47
554.01	42124.96
554.17	42153.05
554.34	42422.21
554.51	42199.86
554.67	42256.03
554.84	42326.25
555.00	42225.60
555.17	42326.25
555.33	42637.54
555.50	42054.75
555.67	42099.22
555.83	42281.78
556.00	42670.31
556.16	42895.00
556.33	42756.91
556.50	42150.71
556.66	43026.07
556.83	42405.83
556.99	42520.51
557.16	42789.67
557.32	42740.52
557.49	42803.72
557.65	42443.27
557.82	42564.98
557.98	42689.03
558.15	42527.53
558.32	42735.84
558.48	42958.19
558.65	42483.06
558.81	42497.11
558.98	42972.24
559.14	42855.21
559.31	42583.71
559.47	42997.98
559.64	43079.90
559.80	43260.12
559.97	43480.13
560.13	42799.04
560.30	42972.24
560.46	42789.67
560.63	43292.89
560.79	42864.57
560.96	43772.70
561.12	43152.46
561.29	42946.49
561.45	43178.20
561.61	43157.14
561.78	43229.69
561.94	43276.51
562.11	43152.46
562.27	43070.54
562.44	43360.76
562.60	43452.05
562.77	43814.83
562.93	43168.84
563.10	43796.10
563.26	43007.34
563.42	43246.08
563.59	43182.88
563.75	43370.13
563.92	43239.06
564.08	43901.43
564.24	43665.03
564.41	43342.04
564.57	43468.43
564.74	43508.22
564.90	43562.05
565.07	43491.83
565.23	43395.87
565.39	43281.19
565.56	43587.80
565.72	43405.23
565.88	43828.87
566.05	43164.16
566.21	43402.89
566.38	43414.60
566.54	43311.61
566.70	43761.00
566.87	44116.76
567.03	43782.06
567.19	43819.51
567.36	43555.03
567.52	43676.74
567.68	43798.44
567.85	43365.45
568.01	43819.51
568.17	43365.45
568.34	43828.87
568.50	43889.73
568.66	43440.34
568.83	43917.81
568.99	43585.46
569.15	43676.74
569.32	43978.67
569.48	43707.16
569.64	44247.83
569.81	43718.87
569.97	43550.35
570.13	43597.16
570.30	43267.14
570.46	43636.95
570.62	43859.30
570.78	43351.40
570.95	43423.96
571.11	44100.37
571.27	43707.16
571.43	44191.65
571.60	43910.79
571.76	43739.93
571.92	43356.08
572.09	44130.80
572.25	44074.63
572.41	43718.87
572.57	43990.37
572.74	44392.94
572.90	44055.90
573.06	43800.79
573.22	44144.84
573.38	44336.77
573.55	43859.30
573.71	43859.30
573.87	44107.40
574.03	44257.19
574.20	44198.68
574.36	43768.02
574.52	44254.85
574.68	44032.50
574.84	43786.74
575.01	44198.68
575.17	43997.39
575.33	44004.41
575.49	43906.11
575.65	44437.41
575.82	44514.65
575.98	43915.47
576.14	44416.35
576.30	44243.15
576.46	44002.07
576.62	43700.14
576.79	43997.39
576.95	43934.20
577.11	43587.80
577.27	44229.10
577.43	44479.54
577.59	44287.62
577.75	44250.17
577.92	44051.22
578.08	43952.92
578.24	44081.65
578.40	44093.35
578.56	44219.74
578.72	44509.97
578.88	44421.03
579.04	44491.24
579.21	44201.02
579.37	44046.54
579.53	43700.14
579.69	43983.35
579.85	43742.27
580.01	44484.22
580.17	44306.34
580.33	44360.17
580.49	44399.96
580.65	44432.73
580.82	44353.15
580.98	44275.91
581.14	44109.74
581.30	44399.96
581.46	44308.68
581.62	44563.80
581.78	44318.04
581.94	44582.52
582.10	44402.30
582.26	44577.84
582.42	44458.48
582.58	44308.68
582.74	43721.21
582.90	44158.89
583.06	44444.43
583.22	44395.28
583.38	44514.65
583.54	44612.95
583.70	44261.87
583.86	44554.44
584.02	43892.07
584.18	44346.13
584.34	44676.15
584.50	44481.88
584.66	44081.65
584.82	44243.15
584.98	44659.76
585.14	44612.95
585.30	44383.58
585.46	44261.87
585.62	43971.64
585.78	44472.52
585.94	43873.34
586.10	44559.12
586.26	44266.55
586.42	44238.47
586.58	44385.92
586.74	44201.02
586.90	44425.71
587.06	44832.96
587.22	44304.00
587.38	44451.45
587.54	44168.25
587.70	44671.46
587.86	44397.62
588.02	44395.28
588.18	44514.65
588.34	44439.75
588.49	44034.84
588.65	43943.56
588.81	44322.72
588.97	44093.35
589.13	44137.82
589.29	44210.38
589.45	44149.53
589.61	44463.16
589.77	44484.22
589.93	44662.10
590.08	44910.20
590.24	44683.17
590.40	45146.59
