SpectraSuite Data File
++++++++++++++++++++++++++++++++++++
Date: Fri Oct 25 10:43:13 EDT 2013
User: price-jones
Dark Spectrum Present: No
Reference Spectrum Present: No
Number of Sampled Component Spectra: 1
Spectrometers: USB2+H05261
Integration Time (usec): 100000 (USB2+H05261)
Spectra Averaged: 1 (USB2+H05261)
Boxcar Smoothing: 0 (USB2+H05261)
Correct for Electrical Dark: No (USB2+H05261)
Strobe/Lamp Enabled: No (USB2+H05261)
Correct for Detector Non-linearity: No (USB2+H05261)
Correct for Stray Light: No (USB2+H05261)
Number of Pixels in Processed Spectrum: 2048
>>>>>Begin Processed Spectral Data<<<<<
365.73	142.77
365.92	142.77
366.12	142.77
366.32	77.24
366.52	9.36
366.72	53.83
366.91	0.00
367.11	0.00
367.31	18.72
367.51	9.36
367.70	0.00
367.90	0.00
368.10	14.04
368.30	0.00
368.49	0.00
368.69	16.38
368.89	72.56
369.09	86.60
369.28	32.77
369.48	102.98
369.68	128.73
369.87	117.03
370.07	114.69
370.27	67.88
370.47	184.90
370.66	404.91
370.86	388.53
371.06	512.58
371.25	540.66
371.45	344.06
371.65	491.51
371.84	477.47
372.04	461.09
372.24	489.17
372.44	491.51
372.63	479.81
372.83	557.05
373.03	550.03
373.22	521.94
373.42	524.28
373.62	608.54
373.81	526.62
374.01	482.15
374.21	580.45
374.40	510.24
374.60	547.69
374.79	557.05
374.99	615.56
375.19	580.45
375.38	601.52
375.58	580.45
375.78	617.90
375.97	578.11
376.17	585.13
376.37	615.56
376.56	564.07
376.76	589.82
376.95	578.11
377.15	617.90
377.35	596.84
377.54	599.18
377.74	683.44
377.93	720.88
378.13	692.80
378.33	725.57
378.52	657.69
378.72	660.03
378.91	660.03
379.11	580.45
379.31	662.37
379.50	671.73
379.70	608.54
379.89	748.97
380.09	669.39
380.28	695.14
380.48	706.84
380.68	662.37
380.87	678.76
381.07	748.97
381.26	704.50
381.46	674.07
381.65	676.41
381.85	725.57
382.04	732.59
382.24	720.88
382.43	753.65
382.63	587.47
382.83	748.97
383.02	777.06
383.22	805.14
383.41	678.76
383.61	709.18
383.80	793.44
384.00	716.20
384.19	730.25
384.39	753.65
384.58	770.04
384.78	851.96
384.97	842.59
385.17	826.21
385.36	800.46
385.56	791.10
385.75	805.14
385.95	854.30
386.14	814.51
386.34	833.23
386.53	880.04
386.72	847.27
386.92	816.85
387.11	779.40
387.31	877.70
387.50	919.83
387.70	894.08
387.89	922.17
388.09	866.00
388.28	931.53
388.48	842.59
388.67	880.04
388.86	957.28
389.06	968.98
389.25	940.90
389.45	894.08
389.64	1032.18
389.84	999.41
390.03	905.79
390.22	978.34
390.42	980.68
390.61	1034.52
390.81	1086.01
391.00	1022.81
391.19	938.55
391.39	1011.11
391.58	1032.18
391.78	1046.22
391.97	964.30
392.16	973.66
392.36	1130.48
392.55	1022.81
392.75	910.47
392.94	994.73
393.13	1020.47
393.33	1004.09
393.52	966.64
393.71	1104.73
393.91	1137.50
394.10	1090.69
394.29	1163.25
394.49	1104.73
394.68	1167.93
394.88	1277.93
395.07	1245.16
395.26	1214.74
395.46	1207.72
395.65	1238.14
395.84	1210.06
396.04	1224.10
396.23	1170.27
396.42	1114.10
396.62	1263.89
396.81	1188.99
397.00	1174.95
397.19	1317.72
397.39	1198.35
397.58	1409.00
397.77	1380.92
397.97	1373.89
398.16	1490.92
398.35	1526.03
398.55	1460.49
398.74	1411.34
398.93	1448.79
399.12	1535.39
399.32	1474.54
399.51	1507.30
399.70	1535.39
399.90	1493.26
400.09	1647.74
400.28	1568.16
400.47	1682.85
400.67	1617.31
400.86	1570.50
401.05	1561.14
401.24	1682.85
401.44	1722.63
401.63	1785.83
401.82	1736.68
402.01	1664.12
402.21	1771.79
402.40	1767.10
402.59	1755.40
402.78	1703.91
402.97	1694.55
403.17	1788.17
403.36	1853.70
403.55	1886.47
403.74	1959.03
403.93	1863.07
404.13	1839.66
404.32	1863.07
404.51	1881.79
404.70	1884.13
404.89	1914.56
405.09	1900.52
405.28	1895.83
405.47	2069.03
405.66	1926.26
405.85	1966.05
406.05	1944.99
406.24	1970.73
406.43	1930.94
406.62	2012.86
406.81	2085.42
407.00	2106.48
407.20	1947.33
407.39	2108.82
407.58	2169.68
407.77	2197.76
407.96	2127.55
408.15	2293.72
408.34	2270.32
408.54	2324.15
408.73	2321.81
408.92	2284.36
409.11	2207.13
409.30	2216.49
409.49	2183.72
409.68	2214.15
409.87	2246.91
410.07	2356.92
410.26	2366.28
410.45	2530.12
410.64	2368.62
410.83	2569.91
411.02	2459.90
411.21	2387.35
411.40	2495.01
411.59	2679.91
411.78	2656.51
411.98	2602.68
412.17	2693.96
412.36	2619.06
412.55	2642.46
412.74	2792.26
412.93	2785.24
413.12	2626.08
413.31	2836.73
413.50	2712.68
413.69	2935.03
413.88	2953.76
414.07	2920.99
414.26	2909.29
414.45	2932.69
414.64	3040.36
414.83	2984.18
415.02	2906.95
415.22	2930.35
415.41	3063.76
415.60	3030.99
415.79	3269.73
415.98	3152.70
416.17	3283.77
416.36	3129.30
416.55	3225.26
416.74	3274.41
416.93	3307.18
417.12	3316.54
417.31	3368.03
417.50	3276.75
417.69	3302.50
417.88	3438.25
418.07	3461.65
418.26	3452.29
418.45	3403.14
418.64	3527.19
418.83	3702.73
419.02	3555.27
419.21	3456.97
419.39	3510.80
419.58	3520.17
419.77	3499.10
419.96	3550.59
420.15	3691.02
420.34	3754.22
420.53	3728.47
420.72	3733.15
420.91	3604.42
421.10	3740.18
421.29	3932.10
421.48	3815.07
421.67	3871.25
421.86	3662.94
422.05	3756.56
422.24	3721.45
422.43	3801.03
422.61	3878.27
422.80	3777.62
422.99	3850.18
423.18	3976.57
423.37	3868.91
423.56	3845.50
423.75	3833.80
423.94	3854.86
424.13	3550.59
424.32	3786.99
424.50	3920.40
424.69	4063.17
424.88	3906.35
425.07	3948.48
425.26	3941.46
425.45	3904.01
425.64	3941.46
425.83	3896.99
426.01	4088.92
426.20	3889.97
426.39	3857.20
426.58	4032.74
426.77	3969.55
426.96	3967.21
427.15	3992.95
427.33	3978.91
427.52	4004.66
427.71	4084.23
427.90	4168.49
428.09	4255.09
428.28	4051.47
428.46	4121.68
428.65	4255.09
428.84	4142.75
429.03	4210.62
429.22	3990.61
429.40	3990.61
429.59	4194.24
429.78	3992.95
429.97	3990.61
430.16	3985.93
430.34	4121.68
430.53	4234.03
430.72	4070.19
430.91	4131.05
431.10	4367.44
431.28	4505.53
431.47	4557.02
431.66	4493.83
431.85	4519.57
432.03	4589.79
432.22	4592.13
432.41	4489.15
432.60	4638.94
432.79	4657.67
432.97	4697.46
433.16	4664.69
433.35	4491.49
433.54	4498.51
433.72	4552.34
433.91	4610.86
434.10	4720.86
434.28	4812.14
434.47	4772.35
434.66	4884.70
434.85	4908.10
435.03	4929.17
435.22	4954.91
435.41	5029.81
435.59	5071.94
435.78	4896.40
435.97	4987.68
436.16	5081.30
436.34	5004.07
436.53	4999.38
436.72	5259.18
436.90	5167.90
437.09	5221.74
437.28	5128.11
437.46	5116.41
437.65	5123.43
437.84	5109.39
438.02	5041.51
438.21	5123.43
438.40	5071.94
438.58	5376.21
438.77	5355.15
438.96	5217.05
439.14	5568.13
439.33	5521.32
439.52	5701.54
439.70	5621.97
439.89	5526.00
440.08	5748.36
440.26	5757.72
440.45	5706.23
440.63	5802.19
440.82	5860.70
441.01	5968.37
441.19	5930.92
441.38	5959.00
441.57	5970.71
441.75	6153.27
441.94	6111.14
442.12	6183.70
442.31	6349.87
442.50	6319.45
442.68	6265.61
442.87	6214.12
443.05	6267.95
443.24	6370.94
443.43	6368.60
443.61	6361.58
443.80	6532.44
443.98	6352.21
444.17	6146.25
444.35	6609.67
444.54	6586.27
444.73	6530.09
444.91	6422.43
445.10	6284.34
445.28	6296.04
445.47	6392.00
445.65	6340.51
445.84	6399.02
446.02	6532.44
446.21	6567.54
446.39	6434.13
446.58	6780.53
446.77	6787.55
446.95	6574.56
447.14	6693.93
447.32	6862.45
447.51	6640.10
447.69	6572.22
447.88	6604.99
448.06	6677.55
448.25	6705.63
448.43	6834.36
448.62	6532.44
448.80	6626.06
448.99	6731.38
449.17	6827.34
449.36	6761.81
449.54	7037.99
449.73	7061.40
449.91	6895.22
450.10	7136.29
450.28	7094.16
450.46	7155.02
450.65	7283.75
450.83	7164.38
451.02	7042.67
451.20	7124.59
451.39	7066.08
451.57	7098.84
451.76	7145.66
451.94	7119.91
452.13	7279.07
452.31	7117.57
452.49	6946.71
452.68	7206.51
452.86	7293.11
453.05	7206.51
453.23	7253.32
453.42	7190.13
453.60	7215.87
453.78	7304.81
453.97	7279.07
454.15	7339.92
454.34	7442.90
454.52	7365.67
454.70	7510.78
454.89	7578.65
455.07	7485.03
455.26	7742.49
455.44	7784.62
455.62	7737.81
455.81	7566.95
455.99	7639.51
456.17	7688.66
456.36	7707.38
456.54	7885.26
456.73	7901.65
456.91	8149.75
457.09	8098.25
457.28	8067.83
457.46	7843.14
457.64	8067.83
457.83	7988.25
458.01	7826.75
458.19	8320.60
458.38	7866.54
458.56	8355.71
458.74	8280.82
458.93	8088.89
459.11	8173.15
459.29	8250.39
459.48	8306.56
459.66	8315.92
459.84	8351.03
460.03	8444.65
460.21	8423.59
460.39	8564.02
460.57	8386.14
460.76	8685.73
460.94	8571.04
461.12	8667.00
461.31	8636.58
461.49	8510.19
461.67	8613.17
461.85	8685.73
462.04	8877.65
462.22	9273.20
462.40	9083.62
462.59	8629.56
462.77	8793.39
462.95	8936.17
463.13	8816.80
463.32	8875.31
463.50	8793.39
463.68	9069.58
463.86	8741.90
464.05	8753.60
464.23	8706.79
464.41	8809.78
464.59	8769.99
464.78	9221.71
464.96	9020.42
465.14	8994.68
465.32	9118.73
465.50	9331.72
465.69	9184.26
465.87	9057.87
466.05	9114.05
466.23	9032.13
466.41	9095.32
466.60	9219.37
466.78	9050.85
466.96	9111.71
467.14	9085.96
467.32	9291.93
467.51	9268.52
467.69	8980.64
467.87	9369.16
468.05	9729.61
468.23	9334.06
468.41	9525.98
468.60	9437.04
468.78	9376.19
468.96	9556.41
469.14	9612.58
469.32	9724.93
469.50	9579.81
469.69	9741.31
469.87	9720.24
470.05	9813.87
470.23	9607.90
470.41	10045.58
470.59	9874.72
470.77	9701.52
470.95	9928.55
471.14	10033.88
471.32	9792.80
471.50	10099.41
471.68	10296.02
471.86	10438.79
472.04	10171.97
472.22	10537.09
472.40	10228.14
472.58	10356.87
472.77	10471.56
472.95	10539.43
473.13	10752.42
473.31	10499.64
473.49	10513.69
473.67	10689.23
473.85	10534.75
474.03	10801.57
474.21	10937.32
474.39	10970.09
474.57	10719.65
474.75	11077.76
474.93	11154.99
475.12	11073.07
475.30	11094.14
475.48	11192.44
475.66	11087.12
475.84	11089.46
476.02	11325.85
476.20	11213.51
476.38	11470.97
476.56	11761.19
476.74	11761.19
476.92	11709.70
477.10	11751.83
477.28	12100.57
477.46	11981.20
477.64	11833.75
477.82	12271.43
478.00	12346.33
478.18	12407.18
478.36	12517.18
478.54	12776.98
478.72	12638.89
478.90	12730.17
479.08	13029.76
479.26	13048.49
479.44	12957.21
479.62	13114.02
479.80	13064.87
479.98	13376.16
480.16	13486.17
480.34	13504.89
480.52	13504.89
480.70	13621.92
480.88	13441.70
481.06	13617.24
481.24	13654.69
481.41	13980.02
481.59	14368.55
481.77	14101.73
481.95	14139.18
482.13	14377.91
482.31	14572.18
482.49	14478.55
482.67	14707.93
482.85	14782.82
483.03	14981.77
483.21	15084.75
483.39	15220.50
483.57	15138.58
483.74	15384.34
483.92	15363.28
484.10	15414.77
484.28	15740.10
484.46	16081.82
484.64	16297.15
484.82	15962.45
485.00	15983.52
485.18	16184.80
485.35	16463.33
485.53	15669.89
485.71	16006.92
485.89	16369.71
486.07	16299.49
486.25	16608.44
486.43	16922.07
486.61	16917.39
486.78	17139.74
486.96	17202.94
487.14	17542.32
487.32	17509.55
487.50	17783.39
487.68	17933.18
487.85	18029.15
488.03	18256.18
488.21	18417.68
488.39	18345.12
488.57	18523.00
488.75	18530.02
488.92	18731.31
489.10	19124.52
489.28	19063.66
489.46	19510.71
489.64	19531.77
489.81	19716.67
489.99	19901.58
490.17	20065.41
490.35	20332.23
490.53	20175.42
490.70	20442.24
490.88	20442.24
491.06	20575.65
491.24	20285.42
491.41	20769.91
491.59	20835.45
491.77	20397.77
491.95	20982.90
492.13	20938.43
492.30	21338.66
492.48	21523.57
492.66	21898.05
492.84	21703.79
493.01	21902.73
493.19	22054.87
493.37	22422.33
493.54	22195.30
493.72	22305.31
493.90	22087.64
494.08	23147.90
494.25	22986.40
494.43	23112.79
494.61	23016.83
494.79	23491.96
494.96	23459.19
495.14	23199.39
495.32	23396.00
495.49	23606.64
495.67	23421.74
495.85	23587.92
496.02	24283.06
496.20	24184.76
496.38	24411.79
496.55	24229.23
496.73	24753.51
496.91	24425.83
497.09	24765.21
497.26	24879.89
497.44	24671.59
497.62	25099.90
497.79	25635.89
497.97	24982.88
498.14	25230.98
498.32	25371.41
498.50	25731.85
498.67	25731.85
498.85	26026.76
499.03	26043.14
499.20	25841.85
499.38	25933.14
499.56	26293.58
499.73	26295.92
499.91	26249.11
500.08	26398.90
500.26	26052.50
500.44	26478.48
500.61	26457.42
500.79	26625.93
500.97	26434.01
501.14	27023.83
501.32	27019.14
501.49	27075.32
501.67	26834.24
501.84	27108.08
502.02	27236.81
502.20	27751.73
502.37	27445.12
502.55	27791.52
502.72	27503.64
502.90	27639.39
503.07	28009.19
503.25	27768.12
503.43	27840.67
503.60	27791.52
503.78	28226.86
503.95	27990.47
504.13	28379.00
504.30	28283.03
504.48	28140.26
504.65	28493.68
504.83	28800.29
505.01	28802.63
505.18	28584.96
505.36	29331.59
505.53	29570.33
505.71	29457.98
505.88	29362.02
506.06	29057.75
506.23	29624.16
506.41	29579.69
506.58	29586.71
506.76	29762.25
506.93	30012.69
507.11	29706.08
507.28	29848.85
507.46	29633.52
507.63	29359.68
507.81	29729.48
507.98	29811.40
508.16	29905.02
508.33	30288.87
508.50	30331.00
508.68	30806.13
508.85	31014.44
509.03	30661.02
509.20	31087.00
509.38	31098.70
509.55	30911.46
509.73	31136.15
509.90	30979.33
510.08	31241.47
510.25	31299.98
510.42	31632.34
510.60	31250.83
510.77	31768.09
510.95	31732.98
511.12	31791.50
511.30	31941.29
511.47	31929.59
511.64	31824.26
511.82	32039.59
511.99	32252.58
512.17	31999.80
512.34	32165.98
512.51	32664.52
512.69	32147.26
512.86	32362.59
513.04	32231.52
513.21	32463.23
513.38	32163.64
513.56	32226.84
513.73	32528.77
513.90	32914.95
514.08	32488.98
514.25	33067.09
514.43	32926.66
514.60	32926.66
514.77	33156.03
514.95	33336.25
515.12	33090.49
515.29	33188.80
515.47	33797.34
515.64	33591.37
515.81	33551.58
515.99	33872.23
516.16	33610.09
516.33	33097.52
516.51	33401.79
516.68	33298.80
516.85	33057.73
517.03	33240.29
517.20	33848.83
517.37	33919.04
517.54	34361.40
517.72	33951.81
517.89	33570.30
518.06	33670.95
518.24	33619.46
518.41	33912.02
518.58	34213.95
518.75	34471.41
518.93	34249.06
519.10	34490.13
519.27	34569.71
519.45	34649.29
519.62	35098.67
519.79	34836.53
519.96	35278.89
520.14	34967.60
520.31	34808.45
520.48	35381.88
520.65	35250.81
520.83	35519.97
521.00	35566.78
521.17	35936.59
521.34	35768.07
521.52	35662.74
521.69	35648.70
521.86	35943.61
522.03	36369.58
522.20	35878.07
522.38	36280.64
522.55	36229.15
522.72	36091.06
522.89	36566.19
523.07	36273.62
523.24	36238.51
523.41	36517.04
523.58	36795.56
523.75	37106.85
523.92	36685.56
524.10	37104.51
524.27	36851.73
524.44	36879.82
524.61	36828.33
524.78	37102.17
524.96	37504.74
525.13	37635.81
525.30	37303.46
525.47	37338.57
525.64	37195.79
525.81	37017.91
525.98	37453.25
526.16	37031.96
526.33	36802.58
526.50	37172.39
526.67	36664.49
526.84	37340.91
527.01	37193.45
527.18	37291.76
527.36	38087.54
527.53	38321.59
527.70	38010.30
527.87	37666.24
528.04	37928.38
528.21	37872.21
528.38	38529.90
528.55	38630.54
528.72	38096.90
528.89	38642.24
529.07	38213.93
529.24	38410.53
529.41	38281.80
529.58	37993.92
529.75	38557.99
529.92	38476.07
530.09	38946.51
530.26	39047.16
530.43	39105.67
530.60	38543.94
530.77	38660.97
530.94	39229.72
531.11	39262.49
531.28	39349.09
531.46	39014.39
531.63	39278.87
531.80	38911.41
531.97	39140.78
532.14	38904.38
532.31	38827.15
532.48	38763.95
532.65	39330.36
532.82	39407.60
532.99	39250.78
533.16	39503.56
533.33	39686.12
533.50	39894.43
533.67	39658.04
533.84	39648.68
534.01	39999.76
534.18	39622.93
534.35	40086.36
534.52	39789.11
534.69	39763.36
534.86	40584.89
535.03	39814.85
535.20	40376.58
535.37	40467.86
535.54	40577.87
535.71	40222.11
535.88	40243.17
536.05	40034.86
536.22	40339.13
536.38	40608.29
536.55	39959.97
536.72	40343.81
536.89	39976.35
537.06	40636.38
537.23	40257.21
537.40	40776.81
537.57	40844.69
537.74	40732.34
537.91	41287.05
538.08	40687.87
538.25	40683.19
538.42	40758.09
538.59	40865.75
538.75	40547.44
538.92	40847.03
539.09	41088.10
539.26	40870.43
539.43	41179.39
539.60	40968.74
539.77	40966.40
539.94	40821.28
540.11	41167.68
540.28	41233.22
540.44	41434.50
540.61	41074.06
540.78	41130.23
540.95	41062.36
541.12	41584.30
541.29	41511.74
541.46	41666.22
541.62	41490.68
541.79	41420.46
541.96	41443.87
542.13	41572.60
542.30	41228.54
542.47	41783.24
542.63	41521.10
542.80	42019.64
542.97	41755.16
543.14	42209.22
543.31	42129.64
543.48	42021.98
543.64	42108.58
543.81	42382.42
543.98	42450.30
544.15	42347.31
544.32	42405.83
544.48	42948.83
544.65	42234.97
544.82	42508.81
544.99	42419.87
545.16	42543.92
545.32	42286.46
545.49	42925.42
545.66	42691.37
545.83	42995.64
546.00	43093.94
546.16	42752.23
546.33	42955.85
546.50	42752.23
546.67	42880.95
546.83	42316.89
547.00	42974.58
547.17	42930.11
547.34	42525.19
547.50	42651.58
547.67	42918.40
547.84	42937.13
548.00	43400.55
548.17	43374.81
548.34	43107.99
548.51	43599.50
548.67	43533.96
548.84	43372.47
549.01	43639.29
549.18	42904.36
549.34	43325.66
549.51	43732.91
549.68	43140.75
549.84	43627.59
550.01	43351.40
550.18	43203.95
550.34	43566.73
550.51	43608.86
550.68	43894.41
550.84	43136.07
551.01	43601.84
551.18	43597.16
551.34	43746.95
551.51	44137.82
551.68	44219.74
551.84	43739.93
552.01	43971.64
552.18	43803.13
552.34	43679.08
552.51	44093.35
552.68	44172.93
552.84	44107.40
553.01	44212.72
553.18	43983.35
553.34	44275.91
553.51	43983.35
553.67	44046.54
553.84	44383.58
554.01	44336.77
554.17	44432.73
554.34	44278.25
554.51	44030.16
554.67	44259.53
554.84	44458.48
555.00	44643.38
555.17	43885.04
555.33	44308.68
555.50	44467.84
555.67	43805.47
555.83	44418.69
556.00	44652.74
556.16	44804.88
556.33	44744.02
556.50	44444.43
556.66	44463.16
556.83	44465.50
556.99	44261.87
557.16	45148.93
557.32	44573.16
557.49	44568.48
557.65	44442.09
557.82	44769.77
557.98	44765.09
558.15	44708.91
558.32	44985.10
558.48	44683.17
558.65	44334.43
558.81	44561.46
558.98	44287.62
559.14	44404.64
559.31	44844.66
559.47	44872.75
559.64	44849.35
559.80	45010.84
559.97	44626.99
560.13	44472.52
560.30	45235.53
560.46	44971.05
560.63	45020.20
560.79	45174.68
560.96	45181.70
561.12	45202.77
561.29	44858.71
561.45	45109.14
561.61	44729.98
561.78	44428.05
561.94	44945.31
562.11	45378.31
562.27	45258.94
562.44	45228.51
562.60	45017.86
562.77	45113.83
562.93	45242.56
563.10	45530.44
563.26	44999.14
563.42	45275.32
563.59	45420.44
563.75	45324.47
563.92	45219.15
564.08	45214.47
564.24	45478.95
564.41	45141.91
564.57	45022.54
564.74	45331.50
564.90	45118.51
565.07	45317.45
565.23	45441.50
565.39	45230.85
565.56	45453.20
565.72	44924.24
565.88	45364.26
566.05	44982.76
566.21	44935.95
566.38	45172.34
566.54	45411.07
566.70	45467.25
566.87	45549.17
567.03	45902.59
567.19	46036.00
567.36	45404.05
567.52	45537.46
567.68	45595.98
567.85	44914.88
568.01	45034.25
568.17	45731.73
568.34	45642.79
568.50	45439.16
568.66	45249.58
568.83	45727.05
568.99	45244.90
569.15	45497.67
569.32	45563.21
569.48	45155.96
569.64	45860.46
569.81	45443.84
569.97	45177.02
570.13	45347.88
570.30	45155.96
570.46	45104.46
570.62	44474.86
570.78	45141.91
570.95	45097.44
571.11	45010.84
571.27	45638.11
571.43	45200.43
571.60	45247.24
571.76	45443.84
571.92	45546.82
572.09	45727.05
572.25	45846.41
572.41	45949.40
572.57	45827.69
572.74	45743.43
572.90	45813.65
573.06	45713.00
573.22	45687.26
573.38	45439.16
573.55	45549.17
573.71	45603.00
573.87	45993.87
574.03	45696.62
574.20	45890.88
574.36	45333.84
574.52	45654.49
574.68	45624.06
574.84	45436.82
575.01	45478.95
575.17	45371.28
575.33	45518.74
575.49	45368.94
575.65	45713.00
575.82	45574.91
575.98	45514.06
576.14	46143.66
576.30	45881.52
576.46	45642.79
576.62	45722.37
576.79	45565.55
576.95	45394.69
577.11	45996.21
577.27	45284.68
577.43	45811.31
577.59	45118.51
577.75	45727.05
577.92	45244.90
578.08	45090.42
578.24	45387.67
578.40	45659.17
578.56	45558.53
578.72	45528.10
578.88	45984.51
579.04	45874.50
579.21	45359.58
579.37	45535.12
579.53	45579.59
579.69	45595.98
579.85	45301.07
580.01	45682.58
580.17	45691.94
580.33	45736.41
580.49	45764.49
580.65	46031.32
580.82	45628.74
580.98	45797.26
581.14	45364.26
581.30	45504.70
581.46	45890.88
581.62	45923.65
581.78	45521.08
581.94	46146.00
582.10	45649.81
582.26	45652.15
582.42	45841.73
582.58	45682.58
582.74	46092.17
582.90	46213.88
583.06	45963.44
583.22	45617.04
583.38	46089.83
583.54	45867.48
583.70	45741.09
583.86	45556.19
584.02	45282.34
584.18	45972.80
584.34	45911.95
584.50	45738.75
584.66	45918.97
584.82	46089.83
584.98	45574.91
585.14	45680.24
585.30	45769.18
585.46	45778.54
585.62	45408.73
585.78	45855.78
585.94	45081.06
586.10	45729.39
586.26	45413.41
586.42	45794.92
586.58	45855.78
586.74	45640.45
586.90	45867.48
587.06	45567.89
587.22	45640.45
587.38	45769.18
587.54	45624.06
587.70	45780.88
587.86	45755.13
588.02	45951.74
588.18	45993.87
588.34	45605.34
588.49	45434.48
588.65	45022.54
588.81	45425.12
588.97	45280.00
589.13	45366.60
589.29	45170.00
589.45	45336.18
589.61	45621.72
589.77	45680.24
589.93	46059.40
590.08	46019.61
