SpectraSuite Data File
++++++++++++++++++++++++++++++++++++
Date: Fri Oct 25 11:26:20 EDT 2013
User: price-jones
Dark Spectrum Present: No
Reference Spectrum Present: No
Number of Sampled Component Spectra: 1
Spectrometers: USB2+H05261
Integration Time (usec): 100000 (USB2+H05261)
Spectra Averaged: 1 (USB2+H05261)
Boxcar Smoothing: 0 (USB2+H05261)
Correct for Electrical Dark: No (USB2+H05261)
Strobe/Lamp Enabled: No (USB2+H05261)
Correct for Detector Non-linearity: No (USB2+H05261)
Correct for Stray Light: No (USB2+H05261)
Number of Pixels in Processed Spectrum: 2048
>>>>>Begin Processed Spectral Data<<<<<
365.73	236.39
365.92	236.39
366.12	236.39
366.32	205.97
366.52	212.99
366.72	210.65
366.91	173.20
367.11	198.95
367.31	112.35
367.51	166.18
367.70	128.73
367.90	170.86
368.10	182.56
368.30	145.11
368.49	142.77
368.69	121.71
368.89	170.86
369.09	191.92
369.28	175.54
369.48	180.22
369.68	198.95
369.87	180.22
370.07	243.42
370.27	243.42
370.47	367.46
370.66	599.18
370.86	615.56
371.06	620.24
371.25	667.05
371.45	674.07
371.65	641.31
371.84	683.44
372.04	667.05
372.24	681.10
372.44	641.31
372.63	697.48
372.83	758.33
373.03	755.99
373.22	791.10
373.42	830.89
373.62	793.44
373.81	763.01
374.01	856.64
374.21	880.04
374.40	805.14
374.60	908.13
374.79	866.00
374.99	826.21
375.19	800.46
375.38	908.13
375.58	896.43
375.78	851.96
375.97	903.45
376.17	880.04
376.37	891.74
376.56	837.91
376.76	912.81
376.95	924.51
377.15	837.91
377.35	894.08
377.54	903.45
377.74	912.81
377.93	961.96
378.13	926.85
378.33	940.90
378.52	940.90
378.72	943.24
378.91	954.94
379.11	954.94
379.31	959.62
379.50	875.36
379.70	943.24
379.89	1020.47
380.09	985.37
380.28	1053.24
380.48	959.62
380.68	976.00
380.87	971.32
381.07	1034.52
381.26	1046.22
381.46	1034.52
381.65	1034.52
381.85	1025.15
382.04	1074.31
382.24	1100.05
382.43	1060.26
382.63	1069.62
382.83	1125.80
383.02	1109.41
383.22	1088.35
383.41	1039.20
383.61	1135.16
383.80	1086.01
384.00	1167.93
384.19	1095.37
384.39	1116.44
384.58	1146.86
384.78	1231.12
384.97	1132.82
385.17	1193.67
385.36	1151.54
385.56	1121.12
385.75	1132.82
385.95	1212.40
386.14	1151.54
386.34	1282.61
386.53	1259.21
386.72	1174.95
386.92	1362.19
387.11	1245.16
387.31	1221.76
387.50	1268.57
387.70	1205.38
387.89	1165.59
388.09	1317.72
388.28	1343.47
388.48	1268.57
388.67	1294.32
388.86	1404.32
389.06	1345.81
389.25	1338.79
389.45	1320.06
389.64	1275.59
389.84	1348.15
390.03	1343.47
390.22	1411.34
390.42	1380.92
390.61	1331.76
390.81	1369.21
391.00	1371.55
391.19	1497.94
391.39	1268.57
391.58	1486.24
391.78	1423.05
391.97	1409.00
392.16	1490.92
392.36	1387.94
392.55	1474.54
392.75	1584.54
392.94	1533.05
393.13	1437.09
393.33	1589.22
393.52	1467.52
393.71	1549.43
393.91	1542.41
394.10	1533.05
394.29	1519.01
394.49	1549.43
394.68	1638.38
394.88	1563.48
395.07	1645.40
395.26	1638.38
395.46	1593.90
395.65	1689.87
395.84	1715.61
396.04	1788.17
396.23	1734.34
396.42	1661.78
396.62	1727.32
396.81	1806.89
397.00	1788.17
397.19	1760.08
397.39	1837.32
397.58	1788.17
397.77	1881.79
397.97	1788.17
398.16	1853.70
398.35	1837.32
398.55	1849.02
398.74	1898.17
398.93	1905.20
399.12	1966.05
399.32	1940.30
399.51	1900.52
399.70	2024.56
399.90	1907.54
400.09	2076.06
400.28	2022.22
400.47	1977.75
400.67	2087.76
400.86	2118.18
401.05	2083.08
401.24	2015.20
401.44	2057.33
401.63	2080.74
401.82	2186.06
402.01	2188.40
402.21	2136.91
402.40	2174.36
402.59	2097.12
402.78	2221.17
402.97	2242.23
403.17	2223.51
403.36	2286.70
403.55	2260.96
403.74	2298.41
403.93	2368.62
404.13	2363.94
404.32	2289.04
404.51	2321.81
404.70	2431.82
404.89	2389.69
405.09	2385.01
405.28	2506.71
405.47	2436.50
405.66	2527.78
405.85	2483.31
406.05	2607.36
406.24	2471.61
406.43	2597.99
406.62	2588.63
406.81	2621.40
407.00	2593.31
407.20	2541.82
407.39	2672.89
407.58	2637.78
407.77	2754.81
407.96	2642.46
408.15	2822.69
408.34	2708.00
408.54	2803.96
408.73	2796.94
408.92	2897.58
409.11	2911.63
409.30	2848.43
409.49	2883.54
409.68	2918.65
409.87	2998.23
410.07	2909.29
410.26	2925.67
410.45	2897.58
410.64	2841.41
410.83	2979.50
411.02	2956.10
411.21	3162.06
411.40	3178.45
411.59	3293.13
411.78	3204.19
411.98	3133.98
412.17	3265.05
412.36	3321.22
412.55	3307.18
412.74	3215.90
412.93	3342.28
413.12	3475.70
413.31	3456.97
413.50	3428.88
413.69	3480.38
413.88	3583.36
414.07	3501.44
414.26	3691.02
414.45	3599.74
414.64	3564.64
414.83	3674.64
415.02	3845.50
415.22	3747.20
415.41	3810.39
415.60	3742.52
415.79	4021.04
415.98	3915.72
416.17	3960.19
416.36	3962.53
416.55	3906.35
416.74	3953.16
416.93	4007.00
417.12	4121.68
417.31	4114.66
417.50	4133.39
417.69	4222.33
417.88	4304.25
418.07	4219.99
418.26	4203.60
418.45	4308.93
418.64	4449.36
418.83	4245.73
419.02	4386.16
419.21	4458.72
419.39	4404.89
419.58	4379.14
419.77	4369.78
419.96	4568.73
420.15	4594.47
420.34	4430.63
420.53	4594.47
420.72	4636.60
420.91	4765.33
421.10	4744.27
421.29	4788.74
421.48	4531.28
421.67	4723.20
421.86	4624.90
422.05	4730.22
422.24	4636.60
422.43	4784.06
422.61	4772.35
422.80	4894.06
422.99	4908.10
423.18	4716.18
423.37	5060.24
423.56	4819.16
423.75	4809.80
423.94	4748.95
424.13	4524.26
424.32	4767.67
424.50	4947.89
424.69	4957.25
424.88	4894.06
425.07	4992.36
425.26	4999.38
425.45	4901.08
425.64	4830.87
425.83	4915.12
426.01	5032.15
426.20	5032.15
426.39	5093.01
426.58	4990.02
426.77	4987.68
426.96	4952.57
427.15	5163.22
427.33	5195.99
427.52	5050.88
427.71	5104.71
427.90	5139.82
428.09	5313.02
428.28	5282.59
428.46	5181.95
428.65	5205.35
428.84	5654.73
429.03	5390.25
429.22	5420.68
429.40	5535.37
429.59	5345.78
429.78	5219.39
429.97	5238.12
430.16	5554.09
430.34	5575.16
430.53	5549.41
430.72	5743.67
430.91	5516.64
431.10	5582.18
431.28	5694.52
431.47	5832.62
431.66	5762.40
431.85	5781.12
432.03	6033.90
432.22	5893.47
432.41	5851.34
432.60	5851.34
432.79	5853.68
432.97	6015.18
433.16	6097.10
433.35	5813.89
433.54	6043.26
433.72	6038.58
433.91	5914.53
434.10	6033.90
434.28	6155.61
434.47	6141.57
434.66	6171.99
434.85	6087.73
435.03	6258.59
435.22	6183.70
435.41	6331.15
435.59	6179.01
435.78	6277.32
435.97	6349.87
436.16	6464.56
436.34	6368.60
436.53	6310.08
436.72	6499.67
436.90	6321.79
437.09	6427.11
437.28	6499.67
437.46	6532.44
437.65	6787.55
437.84	6658.82
438.02	6504.35
438.21	6736.06
438.40	6490.31
438.58	6932.67
438.77	7042.67
438.96	6984.16
439.14	7101.19
439.33	7007.56
439.52	7335.24
439.70	7101.19
439.89	7199.49
440.08	7363.33
440.26	7255.66
440.45	7222.89
440.63	7304.81
440.82	7583.34
441.01	7421.84
441.19	7485.03
441.38	7866.54
441.57	7709.72
441.75	7609.08
441.94	8025.70
442.12	7875.90
442.31	7988.25
442.50	8086.55
442.68	7850.16
442.87	7971.86
443.05	7953.14
443.24	8126.34
443.43	7932.08
443.61	7995.27
443.80	8322.94
443.98	8011.65
444.17	7714.41
444.35	8112.30
444.54	8128.68
444.73	8215.28
444.91	8102.93
445.10	8194.22
445.28	8222.30
445.47	8217.62
445.65	8315.92
445.84	8505.51
446.02	8191.88
446.21	8379.12
446.39	8217.62
446.58	8472.74
446.77	8276.13
446.95	8067.83
447.14	8341.67
447.32	8369.76
447.51	8535.93
447.69	8395.50
447.88	8411.89
448.06	8294.86
448.25	8542.96
448.43	8542.96
448.62	8491.46
448.80	8587.43
448.99	8585.08
449.17	8461.04
449.36	8603.81
449.54	8788.71
449.73	8865.95
449.91	8798.07
450.10	8760.63
450.28	8964.25
450.46	9160.86
450.65	8910.42
450.83	9114.05
451.02	9137.45
451.20	9050.85
451.39	9174.90
451.57	9062.55
451.76	9020.42
451.94	9210.01
452.13	9160.86
452.31	9231.07
452.49	9156.18
452.68	9170.22
452.86	9357.46
453.05	9308.31
453.23	9366.82
453.42	9423.00
453.60	9408.95
453.78	9451.08
453.97	9107.02
454.15	9554.07
454.34	9282.56
454.52	9584.49
454.70	9769.40
454.89	9633.64
455.07	9598.54
455.26	9741.31
455.44	9963.66
455.62	9898.13
455.81	9811.53
455.99	9832.59
456.17	9947.28
456.36	10059.62
456.54	10076.01
456.73	10359.21
456.91	10429.43
457.09	10473.90
457.28	10544.11
457.46	10223.46
457.64	10363.89
457.83	10424.75
458.01	10469.22
458.19	10913.92
458.38	10616.67
458.56	10696.25
458.74	10668.16
458.93	10539.43
459.11	10785.19
459.29	10796.89
459.48	10691.57
459.66	10640.08
459.84	10986.47
460.03	10918.60
460.21	10967.75
460.39	10853.06
460.57	10871.79
460.76	11040.31
460.94	11091.80
461.12	11044.99
461.31	11052.01
461.49	11061.37
461.67	10967.75
461.85	11442.88
462.04	11084.78
462.22	11775.24
462.40	11480.33
462.59	11227.55
462.77	11302.45
462.95	11452.24
463.13	11463.94
463.32	11550.54
463.50	11719.06
463.68	11817.36
463.86	11772.89
464.05	11353.94
464.23	11616.08
464.41	12004.61
464.59	11878.22
464.78	12035.03
464.96	11885.24
465.14	11784.60
465.32	11866.52
465.50	11730.76
465.69	12013.97
465.87	11960.14
466.05	11873.54
466.23	12053.76
466.41	12121.63
466.60	12421.22
466.78	12009.29
466.96	12133.34
467.14	12205.89
467.32	12203.55
467.51	12241.00
467.69	12018.65
467.87	12444.63
468.05	12341.64
468.23	12339.30
468.41	12238.66
468.60	12486.76
468.78	12666.98
468.96	12620.17
469.14	12622.51
469.32	12744.22
469.50	12573.36
469.69	12683.36
469.87	13067.21
470.05	12882.31
470.23	13008.70
470.41	13188.92
470.59	13357.44
470.77	13121.04
470.95	12947.84
471.14	13217.01
471.32	13018.06
471.50	13226.37
471.68	13664.05
471.86	13432.33
472.04	13547.02
472.22	13881.72
472.40	13600.85
472.58	13612.56
472.77	13961.30
472.95	13919.17
473.13	14483.24
473.31	13816.18
473.49	13851.29
473.67	13949.59
473.85	14078.32
474.03	14546.43
474.21	14457.49
474.39	14560.47
474.57	14600.26
474.75	14621.33
474.93	14654.09
475.12	14930.28
475.30	14899.85
475.48	14923.26
475.66	15077.73
475.84	14611.96
476.02	15281.36
476.20	15220.50
476.38	15445.20
476.56	15903.94
476.74	15800.96
476.92	15847.77
477.10	15583.29
477.28	15915.64
477.46	15985.86
477.64	16154.38
477.82	16491.41
478.00	16842.50
478.18	16695.04
478.36	16617.80
478.54	17092.93
478.72	17022.72
478.90	17153.79
479.08	17439.33
479.26	17509.55
479.44	17638.28
479.62	17422.95
479.80	17825.52
479.98	18057.23
480.16	18532.36
480.34	18024.47
480.52	18707.90
480.70	18253.84
480.88	18424.70
481.06	18995.79
481.24	18567.47
481.41	18878.76
481.59	19014.51
481.77	19260.27
481.95	19295.38
482.13	19417.08
482.31	19435.81
482.49	20243.29
482.67	19939.02
482.85	20369.68
483.03	20142.65
483.21	20563.95
483.39	20823.75
483.57	20402.45
483.74	21120.99
483.92	21415.90
484.10	20840.13
484.28	21642.93
484.46	21837.20
484.64	22469.14
484.82	21661.66
485.00	21921.46
485.18	22459.78
485.35	22623.62
485.53	22677.45
485.71	22698.52
485.89	23101.09
486.07	22658.73
486.25	23206.41
486.43	23274.29
486.61	23632.39
486.78	23887.51
486.96	23929.64
487.14	24360.30
487.32	24549.88
487.50	24622.44
487.68	24809.68
487.85	24943.09
488.03	25247.36
488.21	25589.08
488.39	25469.71
488.57	26019.74
488.75	26036.12
488.92	25886.32
489.10	26724.24
489.28	26398.90
489.46	26803.82
489.64	26597.85
489.81	27522.36
489.99	27452.14
490.17	27405.33
490.35	27515.34
490.53	27833.65
490.70	27882.80
490.88	28259.63
491.06	28556.88
491.24	28407.08
491.41	28507.72
491.59	28844.76
491.77	29123.29
491.95	29422.87
492.13	29483.73
492.30	29638.20
492.48	29549.26
492.66	29673.31
492.84	30068.86
493.01	30412.92
493.19	30199.93
493.37	30958.27
493.54	31143.17
493.72	30953.58
493.90	30951.24
494.08	31353.82
494.25	31793.84
494.43	31328.07
494.61	32004.49
494.79	32025.55
494.96	32079.38
495.14	32063.00
495.32	32868.14
495.49	33350.29
495.67	32847.08
495.85	32898.57
496.02	33689.67
496.20	33434.55
496.38	33572.64
496.55	34117.99
496.73	34499.50
496.91	34415.24
497.09	34822.49
497.26	34450.35
497.44	34466.73
497.62	35255.49
497.79	35438.05
497.97	35281.24
498.14	35522.31
498.32	35833.60
498.50	35992.76
498.67	36374.27
498.85	35810.20
499.03	35941.27
499.20	35978.72
499.38	36641.09
499.56	36861.10
499.73	36322.77
499.91	37055.36
500.08	37586.66
500.26	37024.93
500.44	37172.39
500.61	37486.02
500.79	37376.01
500.97	37586.66
501.14	38246.69
501.32	37933.06
501.49	38644.59
501.67	38139.03
501.84	39033.11
502.02	38450.32
502.20	38930.13
502.37	38621.18
502.55	38745.23
502.72	38972.26
502.90	39065.88
503.07	38976.94
503.25	39646.33
503.43	39328.02
503.60	39871.03
503.78	39849.96
503.95	39629.95
504.13	40074.65
504.30	40205.72
504.48	39985.71
504.65	40596.59
504.83	40467.86
505.01	41151.30
505.18	40795.54
505.36	41249.60
505.53	41017.89
505.71	41635.79
505.88	41436.84
506.06	41139.60
506.23	41556.21
506.41	41509.40
506.58	41780.90
506.76	41546.85
506.93	42094.53
507.11	42139.00
507.28	42323.91
507.46	41951.76
507.63	42621.16
507.81	42408.17
507.98	42674.99
508.16	42820.10
508.33	43468.43
508.50	42836.48
508.68	43131.39
508.85	43107.99
509.03	43349.06
509.20	43433.32
509.38	43746.95
509.55	43847.60
509.73	44231.44
509.90	44332.09
510.08	44149.53
510.25	44385.92
510.42	43885.04
510.60	44636.36
510.77	44823.60
510.95	45059.99
511.12	44615.29
511.30	44912.54
511.47	45052.97
511.64	45345.54
511.82	45593.64
511.99	45434.48
512.17	45818.33
512.34	45256.60
512.51	46361.33
512.69	45390.01
512.86	45705.98
513.04	46141.32
513.21	46127.28
513.38	46342.61
513.56	46799.01
513.73	46351.97
513.90	47019.02
514.08	46234.94
514.25	46911.36
514.43	46618.79
514.60	47065.83
514.77	46775.61
514.95	47063.49
515.12	47140.73
515.29	46522.83
515.47	47524.58
515.64	48009.07
515.81	47545.64
515.99	47847.57
516.16	47873.32
516.33	47674.37
516.51	48186.95
516.68	48011.41
516.85	48250.14
517.03	48563.78
517.20	48652.72
517.37	48406.96
517.54	48128.44
517.72	48463.13
517.89	49050.61
518.06	48765.06
518.24	48886.77
518.41	48687.82
518.58	48949.96
518.75	48898.47
518.93	49113.80
519.10	49181.68
519.27	49097.42
519.45	49359.56
519.62	49535.10
519.79	49490.63
519.96	49837.03
520.14	50246.62
520.31	49595.95
520.48	50094.49
520.65	49750.43
520.83	50417.48
521.00	50096.83
521.17	49968.10
521.34	50546.21
521.52	50581.32
521.69	50401.10
521.86	50761.54
522.03	50887.93
522.20	51011.98
522.38	51089.21
522.55	50941.76
522.72	50679.62
522.89	50862.18
523.07	51494.13
523.24	50953.46
523.41	51452.00
523.58	50770.90
523.75	51454.34
523.92	51498.81
524.10	51854.57
524.27	51639.24
524.44	51779.67
524.61	51653.28
524.78	52259.48
524.96	51842.87
525.13	51899.04
525.30	52189.27
525.47	52172.88
525.64	52142.45
525.81	52282.89
525.98	52409.28
526.16	52303.95
526.33	51978.62
526.50	52514.60
526.67	52463.11
526.84	52772.06
527.01	52676.10
527.18	52552.05
527.36	52460.77
527.53	53183.99
527.70	53183.99
527.87	53088.03
528.04	52982.71
528.21	53296.34
528.38	52846.96
528.55	53193.36
528.72	53240.17
528.89	53123.14
529.07	53338.47
529.24	53158.25
529.41	53153.57
529.58	53069.31
529.75	53415.71
529.92	53319.74
530.09	53389.96
530.26	53694.23
530.43	53537.41
530.60	53450.81
530.77	53673.16
530.94	54068.72
531.11	53635.72
531.28	53895.52
531.46	53851.05
531.63	53876.79
531.80	53783.17
531.97	54234.89
532.14	54291.07
532.31	54110.85
532.48	54433.84
532.65	54387.03
532.82	54241.92
532.99	54394.05
533.16	54239.57
533.33	54616.40
533.50	54550.87
533.67	54548.53
533.84	54307.45
534.01	54824.71
534.18	54543.84
534.35	55016.63
534.52	54667.89
534.69	54906.63
534.86	55150.04
535.03	54490.01
535.20	55025.99
535.37	55168.77
535.54	55126.64
535.71	55131.32
535.88	55468.36
536.05	55435.59
536.22	55302.18
536.38	55515.17
536.55	55285.79
536.72	55433.25
536.89	55257.71
537.06	55451.97
537.23	55442.61
537.40	55662.62
537.57	55634.53
537.74	55594.74
537.91	55707.09
538.08	55590.06
538.25	55414.52
538.42	55662.62
538.59	55716.45
538.75	55599.43
538.92	55845.18
539.09	55952.85
539.26	55854.54
539.43	55826.46
539.60	55777.31
539.77	55810.07
539.94	56238.39
540.11	55948.17
540.28	56268.82
540.44	56348.40
540.61	56072.21
540.78	56093.28
540.95	56189.24
541.12	56158.81
541.29	56236.05
541.46	56341.38
541.62	56184.56
541.79	56453.72
541.96	56243.07
542.13	56453.72
542.30	56385.85
542.47	56631.60
542.63	56715.86
542.80	56769.69
542.97	56729.90
543.14	57256.53
543.31	57080.98
543.48	56800.12
543.64	57497.60
543.81	57413.34
543.98	57008.43
544.15	57085.67
544.32	57219.08
544.48	57179.29
544.65	57022.47
544.82	57202.69
544.99	57050.56
545.16	57249.50
545.32	57034.17
545.49	57326.74
545.66	57516.32
545.83	57382.91
546.00	57471.85
546.16	57371.21
546.33	57525.69
546.50	57029.49
546.67	57499.94
546.83	57251.84
547.00	57495.26
547.17	57600.58
547.34	57626.33
547.50	57712.93
547.67	57778.46
547.84	57726.97
548.00	58089.76
548.17	57839.32
548.34	58033.58
548.51	58171.67
548.67	58066.35
548.84	57815.91
549.01	57813.57
549.18	57949.32
549.34	57958.69
549.51	58347.21
549.68	58127.20
549.84	57925.92
550.01	58155.29
550.18	58000.82
550.34	58234.87
550.51	58143.59
550.68	58073.37
550.84	57733.99
551.01	58199.76
551.18	58216.14
551.34	58181.04
551.51	58279.34
551.68	58183.38
551.84	58328.49
552.01	58358.92
552.18	58405.73
552.34	58209.12
552.51	58337.85
552.68	58244.23
552.84	58475.94
553.01	58801.28
553.18	58585.95
553.34	58604.67
553.51	58611.70
553.67	58567.23
553.84	58681.91
554.01	58855.11
554.17	58529.78
554.34	58822.34
554.51	58728.72
554.67	58927.67
554.84	58939.37
555.00	58843.41
555.17	58738.08
555.33	58880.86
555.50	58857.45
555.67	58838.73
555.83	58911.28
556.00	59075.12
556.16	59044.69
556.33	58820.00
556.50	59009.59
556.66	59068.10
556.83	59007.25
556.99	59103.21
557.16	59302.15
557.32	59370.03
557.49	59538.55
557.65	59018.95
557.82	59229.60
557.98	59309.18
558.15	59224.92
558.32	59306.83
558.48	59138.32
558.65	59201.51
558.81	59257.68
558.98	59402.80
559.14	59243.64
559.31	59423.86
559.47	59494.08
559.64	59444.93
559.80	59426.20
559.97	59503.44
560.13	59524.50
560.30	59320.88
560.46	59688.34
560.63	59599.40
560.79	59512.80
560.96	59625.15
561.12	59540.89
561.29	59533.87
561.45	59667.28
561.61	59660.26
561.78	59721.11
561.94	59648.55
562.11	59634.51
562.27	59379.39
562.44	59650.89
562.60	59770.26
562.77	59716.43
562.93	59531.53
563.10	59732.81
563.26	59824.09
563.42	59927.08
563.59	59873.24
563.75	59634.51
563.92	59896.65
564.08	59678.98
564.24	60097.94
564.41	59732.81
564.57	59749.20
564.74	59873.24
564.90	60109.64
565.07	59812.39
565.23	59987.93
565.39	59952.82
565.56	60076.87
565.72	60130.70
565.88	60186.88
566.05	59882.61
566.21	59945.80
566.38	60053.47
566.54	59990.27
566.70	60236.03
566.87	60245.39
567.03	59842.82
567.19	60317.95
567.36	60259.43
567.52	60212.62
567.68	60250.07
567.85	60121.34
568.01	60226.66
568.17	60088.57
568.34	60044.10
568.50	60100.28
568.66	60109.64
568.83	60130.70
568.99	60151.77
569.15	60205.60
569.32	60348.37
569.48	59859.20
569.64	60453.70
569.81	60250.07
569.97	60168.15
570.13	60313.26
570.30	60104.96
570.46	60107.30
570.62	60231.35
570.78	60439.65
570.95	60294.54
571.11	60486.46
571.27	60233.69
571.43	60348.37
571.60	60371.78
571.76	60221.98
571.92	60463.06
572.09	60292.20
572.25	60346.03
572.41	60140.07
572.57	60376.46
572.74	60662.00
572.90	60357.74
573.06	60329.65
573.22	60418.59
573.38	60535.62
573.55	60456.04
573.71	60434.97
573.87	60617.53
574.03	60346.03
574.20	60390.50
574.36	60472.42
574.52	60671.37
574.68	60451.36
574.84	60540.30
575.01	60750.94
575.17	60542.64
575.33	60420.93
575.49	60437.31
575.65	60540.30
575.82	60762.65
575.98	60404.55
576.14	60699.45
576.30	60385.82
576.46	60481.78
576.62	60554.34
576.79	60537.96
576.95	60399.86
577.11	60626.90
577.27	60650.30
577.43	60500.51
577.59	60669.03
577.75	60654.98
577.92	60472.42
578.08	60397.52
578.24	60418.59
578.40	60669.03
578.56	60678.39
578.72	60479.44
578.88	60683.07
579.04	60828.18
579.21	60449.02
579.37	60741.58
579.53	60882.02
579.69	60460.72
579.85	60446.68
580.01	60624.56
580.17	60456.04
580.33	60725.20
580.49	60781.37
580.65	60704.13
580.82	60804.78
580.98	60549.66
581.14	60683.07
581.30	60687.75
581.46	60636.26
581.62	60718.18
581.78	60739.24
581.94	60603.49
582.10	60711.16
582.26	60589.45
582.42	60701.79
582.58	60809.46
582.74	60580.09
582.90	60816.48
583.06	60748.60
583.22	60449.02
583.38	60814.14
583.54	60706.47
583.70	60816.48
583.86	60931.17
584.02	60776.69
584.18	60832.86
584.34	60720.52
584.50	60533.28
584.66	60535.62
584.82	60802.44
584.98	60818.82
585.14	60940.53
585.30	60938.19
585.46	60814.14
585.62	60954.57
585.78	61017.77
585.94	60640.94
586.10	61055.21
586.26	60772.01
586.42	60809.46
586.58	61186.28
586.74	60797.76
586.90	60790.73
587.06	60842.23
587.22	60949.89
587.38	60797.76
587.54	61015.43
587.70	60898.40
587.86	60928.83
588.02	60846.91
588.18	60975.64
588.34	60912.44
588.49	60739.24
