SpectraSuite Data File
++++++++++++++++++++++++++++++++++++
Date: Fri Oct 25 10:47:08 EDT 2013
User: price-jones
Dark Spectrum Present: No
Reference Spectrum Present: No
Number of Sampled Component Spectra: 1
Spectrometers: USB2+H05261
Integration Time (usec): 100000 (USB2+H05261)
Spectra Averaged: 1 (USB2+H05261)
Boxcar Smoothing: 0 (USB2+H05261)
Correct for Electrical Dark: No (USB2+H05261)
Strobe/Lamp Enabled: No (USB2+H05261)
Correct for Detector Non-linearity: No (USB2+H05261)
Correct for Stray Light: No (USB2+H05261)
Number of Pixels in Processed Spectrum: 2048
>>>>>Begin Processed Spectral Data<<<<<
365.73	152.13
365.92	152.13
366.12	152.13
366.32	18.72
366.52	25.75
366.72	79.58
366.91	53.83
367.11	95.96
367.31	0.00
367.51	70.22
367.70	14.04
367.90	7.02
368.10	0.00
368.30	49.15
368.49	35.11
368.69	0.00
368.89	35.11
369.09	88.94
369.28	138.09
369.48	63.19
369.68	70.22
369.87	145.11
370.07	128.73
370.27	93.62
370.47	159.16
370.66	308.95
370.86	362.78
371.06	519.60
371.25	425.98
371.45	442.36
371.65	407.25
371.84	395.55
372.04	423.64
372.24	400.23
372.44	447.04
372.63	468.11
372.83	463.43
373.03	435.34
373.22	503.22
373.42	477.47
373.62	484.49
373.81	449.38
374.01	531.30
374.21	500.87
374.40	531.30
374.60	535.98
374.79	524.28
374.99	547.69
375.19	578.11
375.38	531.30
375.58	594.50
375.78	566.41
375.97	596.84
376.17	564.07
376.37	610.88
376.56	557.05
376.76	643.65
376.95	552.37
377.15	580.45
377.35	622.58
377.54	550.03
377.74	627.26
377.93	620.24
378.13	561.73
378.33	671.73
378.52	685.78
378.72	608.54
378.91	594.50
379.11	589.82
379.31	622.58
379.50	594.50
379.70	669.39
379.89	631.94
380.09	660.03
380.28	671.73
380.48	648.33
380.68	610.88
380.87	617.90
381.07	655.35
381.26	641.31
381.46	674.07
381.65	772.38
381.85	699.82
382.04	613.22
382.24	730.25
382.43	662.37
382.63	676.41
382.83	648.33
383.02	653.01
383.22	734.93
383.41	645.99
383.61	734.93
383.80	720.88
384.00	718.54
384.19	681.10
384.39	676.41
384.58	667.05
384.78	676.41
384.97	781.74
385.17	720.88
385.36	774.72
385.56	755.99
385.75	748.97
385.95	746.63
386.14	732.59
386.34	746.63
386.53	765.36
386.72	716.20
386.92	837.91
387.11	812.17
387.31	880.04
387.50	765.36
387.70	837.91
387.89	802.80
388.09	809.83
388.28	926.85
388.48	828.55
388.67	772.38
388.86	805.14
389.06	873.02
389.25	868.34
389.45	940.90
389.64	866.00
389.84	875.36
390.03	807.48
390.22	917.49
390.42	898.77
390.61	880.04
390.81	936.21
391.00	954.94
391.19	919.83
391.39	924.51
391.58	926.85
391.78	898.77
391.97	938.55
392.16	812.17
392.36	908.13
392.55	999.41
392.75	990.05
392.94	943.24
393.13	903.45
393.33	964.30
393.52	1046.22
393.71	908.13
393.91	1008.77
394.10	950.26
394.29	1032.18
394.49	1064.94
394.68	1036.86
394.88	1034.52
395.07	1139.84
395.26	1048.56
395.46	1104.73
395.65	1039.20
395.84	1062.60
396.04	1167.93
396.23	1172.61
396.42	1027.50
396.62	1123.46
396.81	1135.16
397.00	1181.97
397.19	1139.84
397.39	1132.82
397.58	1275.59
397.77	1247.51
397.97	1249.85
398.16	1329.42
398.35	1277.93
398.55	1196.01
398.74	1263.89
398.93	1345.81
399.12	1231.12
399.32	1313.04
399.51	1210.06
399.70	1336.45
399.90	1413.68
400.09	1329.42
400.28	1331.76
400.47	1308.36
400.67	1401.98
400.86	1469.86
401.05	1418.36
401.24	1483.90
401.44	1427.73
401.63	1423.05
401.82	1441.77
402.01	1411.34
402.21	1458.15
402.40	1509.65
402.59	1479.22
402.78	1399.64
402.97	1486.24
403.17	1542.41
403.36	1589.22
403.55	1605.61
403.74	1490.92
403.93	1629.01
404.13	1593.90
404.32	1664.12
404.51	1612.63
404.70	1685.19
404.89	1598.59
405.09	1724.97
405.28	1645.40
405.47	1750.72
405.66	1715.61
405.85	1809.23
406.05	1621.99
406.24	1720.29
406.43	1657.10
406.62	1806.89
406.81	1900.52
407.00	1839.66
407.20	1783.49
407.39	1717.95
407.58	1898.17
407.77	1944.99
407.96	1870.09
408.15	1994.14
408.34	1827.96
408.54	2010.52
408.73	1947.33
408.92	2022.22
409.11	2043.29
409.30	1937.96
409.49	1994.14
409.68	1961.37
409.87	2019.88
410.07	2045.63
410.26	2040.95
410.45	2015.20
410.64	2040.95
410.83	2127.55
411.02	2043.29
411.21	2179.04
411.40	2160.31
411.59	2251.60
411.78	2176.70
411.98	2293.72
412.17	2349.90
412.36	2291.38
412.55	2361.60
412.74	2382.67
412.93	2385.01
413.12	2408.41
413.31	2490.33
413.50	2502.03
413.69	2431.82
413.88	2445.86
414.07	2658.85
414.26	2548.84
414.45	2605.02
414.64	2483.31
414.83	2729.06
415.02	2722.04
415.22	2719.70
415.41	2626.08
415.60	2600.34
415.79	2862.48
415.98	2773.53
416.17	2782.90
416.36	2801.62
416.55	2794.60
416.74	2841.41
416.93	2836.73
417.12	2841.41
417.31	2832.05
417.50	2932.69
417.69	3145.68
417.88	3122.27
418.07	3035.67
418.26	3028.65
418.45	3110.57
418.64	3157.38
418.83	3087.17
419.02	3110.57
419.21	3054.40
419.39	3159.72
419.58	3143.34
419.77	3197.17
419.96	3265.05
420.15	3314.20
420.34	3300.16
420.53	3236.96
420.72	3351.65
420.91	3295.47
421.10	3220.58
421.29	3375.05
421.48	3351.65
421.67	3386.76
421.86	3281.43
422.05	3258.03
422.24	3314.20
422.43	3262.71
422.61	3442.93
422.80	3438.25
422.99	3410.16
423.18	3438.25
423.37	3473.36
423.56	3417.18
423.75	3499.10
423.94	3403.14
424.13	3234.62
424.32	3272.07
424.50	3459.31
424.69	3566.98
424.88	3590.38
425.07	3438.25
425.26	3342.28
425.45	3356.33
425.64	3445.27
425.83	3414.84
426.01	3508.46
426.20	3335.26
426.39	3499.10
426.58	3494.42
426.77	3440.59
426.96	3552.93
427.15	3517.83
427.33	3641.87
427.52	3576.34
427.71	3662.94
427.90	3632.51
428.09	3684.00
428.28	3768.26
428.46	3698.05
428.65	3611.45
428.84	3803.37
429.03	3712.09
429.22	3730.81
429.40	3735.50
429.59	3779.97
429.78	3602.08
429.97	3562.30
430.16	3557.61
430.34	3728.47
430.53	3782.31
430.72	3733.15
430.91	3819.75
431.10	3794.01
431.28	3880.61
431.47	4030.40
431.66	4133.39
431.85	4007.00
432.03	4142.75
432.22	4271.48
432.41	4100.62
432.60	4156.79
432.79	4198.92
432.97	4180.20
433.16	4117.00
433.35	3943.80
433.54	4044.45
433.72	4138.07
433.91	4273.82
434.10	4245.73
434.28	4325.31
434.47	4386.16
434.66	4421.27
434.85	4318.29
435.03	4456.38
435.22	4299.56
435.41	4606.17
435.59	4470.42
435.78	4601.49
435.97	4519.57
436.16	4552.34
436.34	4582.77
436.53	4528.94
436.72	4585.11
436.90	4454.04
437.09	4505.53
437.28	4500.85
437.46	4610.86
437.65	4636.60
437.84	4542.98
438.02	4641.28
438.21	4587.45
438.40	4713.84
438.58	4795.76
438.77	4692.77
438.96	4755.97
439.14	5013.43
439.33	4774.69
439.52	4910.44
439.70	4947.89
439.89	5034.49
440.08	4999.38
440.26	5055.56
440.45	5184.29
440.63	5158.54
440.82	5254.50
441.01	5305.99
441.19	5268.55
441.38	5324.72
441.57	5434.72
441.75	5284.93
441.94	5561.11
442.12	5469.83
442.31	5561.11
442.50	5411.32
442.68	5584.52
442.87	5584.52
443.05	5668.78
443.24	5750.70
443.43	5591.54
443.61	5860.70
443.80	5970.71
443.98	5584.52
444.17	5528.35
444.35	5605.58
444.54	5802.19
444.73	5736.65
444.91	5696.86
445.10	5668.78
445.28	5713.25
445.47	5619.63
445.65	5774.10
445.84	5727.29
446.02	5774.10
446.21	5626.65
446.39	5753.04
446.58	5916.87
446.77	5902.83
446.95	5746.02
447.14	5860.70
447.32	6054.97
447.51	5846.66
447.69	5806.87
447.88	5853.68
448.06	5844.32
448.25	5984.75
448.43	6122.84
448.62	6005.81
448.80	5830.27
448.99	6125.18
449.17	6106.46
449.36	6040.92
449.54	6092.41
449.73	6263.27
449.91	6143.91
450.10	6286.68
450.28	6338.17
450.46	6396.68
450.65	6443.49
450.83	6396.68
451.02	6148.59
451.20	6356.90
451.39	6291.36
451.57	6333.49
451.76	6179.01
451.94	6193.06
452.13	6497.33
452.31	6305.40
452.49	6286.68
452.68	6392.00
452.86	6551.16
453.05	6487.96
453.23	6314.77
453.42	6527.75
453.60	6417.75
453.78	6614.35
453.97	6485.62
454.15	6602.65
454.34	6520.73
454.52	6782.87
454.70	6600.31
454.89	6551.16
455.07	6630.74
455.26	6677.55
455.44	6846.07
455.62	6780.53
455.81	6862.45
455.99	6857.77
456.17	6869.47
456.36	6834.36
456.54	6984.16
456.73	6862.45
456.91	7126.93
457.09	7166.72
457.28	7194.81
457.46	7105.87
457.64	7286.09
457.83	7201.83
458.01	7180.76
458.19	7293.11
458.38	7215.87
458.56	7286.09
458.74	7272.04
458.93	7276.73
459.11	7328.22
459.29	7407.80
459.48	7428.86
459.66	7473.33
459.84	7524.82
460.03	7520.14
460.21	7578.65
460.39	7330.56
460.57	7353.96
460.76	7552.91
460.94	7496.74
461.12	7555.25
461.31	7625.47
461.49	7541.21
461.67	7588.02
461.85	7826.75
462.04	7602.06
462.22	8121.66
462.40	7822.07
462.59	7943.78
462.77	7864.20
462.95	7779.94
463.13	7920.37
463.32	7845.48
463.50	7950.80
463.68	8018.68
463.86	7971.86
464.05	7878.24
464.23	8049.10
464.41	8241.03
464.59	7793.98
464.78	8084.21
464.96	7864.20
465.14	8159.11
465.32	8121.66
465.50	8243.37
465.69	8400.18
465.87	8180.17
466.05	8002.29
466.23	8280.82
466.41	8322.94
466.60	8580.40
466.78	8299.54
466.96	8266.77
467.14	8423.59
467.32	8315.92
467.51	8322.94
467.69	8259.75
467.87	8217.62
468.05	8446.99
468.23	8329.97
468.41	8482.10
468.60	8236.35
468.78	8641.26
468.96	8358.05
469.14	8599.13
469.32	8456.36
469.50	8388.48
469.69	8629.56
469.87	8851.91
470.05	8765.31
470.23	8872.97
470.41	8805.10
470.59	9142.13
470.77	8861.27
470.95	8678.71
471.14	8964.25
471.32	8779.35
471.50	9050.85
471.68	9090.64
471.86	9041.49
472.04	9165.54
472.22	9387.89
472.40	9280.22
472.58	9263.84
472.77	9181.92
472.95	9401.93
473.13	9671.09
473.31	9554.07
473.49	9305.97
473.67	9561.09
473.85	9582.15
474.03	9696.84
474.21	9731.95
474.39	9930.89
474.57	9617.26
474.75	9870.04
474.93	10061.96
475.12	9902.81
475.30	10146.22
475.48	10258.57
475.66	10061.96
475.84	10047.92
476.02	10324.10
476.20	10019.83
476.38	10434.11
476.56	10686.89
476.74	10382.62
476.92	10656.46
477.10	10527.73
477.28	10677.52
477.46	10839.02
477.64	10764.12
477.82	10841.36
478.00	11215.85
478.18	11166.70
478.36	11269.68
478.54	11290.74
478.72	11197.12
478.90	11257.98
479.08	11782.26
479.26	11580.97
479.44	11805.66
479.62	12023.33
479.80	11892.26
479.98	11995.25
480.16	11934.39
480.34	12238.66
480.52	12472.71
480.70	12400.16
480.88	11875.88
481.06	12571.02
481.24	12592.08
481.41	12781.67
481.59	12812.09
481.77	12971.25
481.95	13039.12
482.13	13163.17
482.31	12964.23
482.49	13137.43
482.67	13242.75
482.85	13535.32
483.03	13455.74
483.21	13378.50
483.39	13664.05
483.57	13734.26
483.74	13987.04
483.92	13832.57
484.10	13991.72
484.28	14406.00
484.46	14321.74
484.64	14686.86
484.82	14321.74
485.00	14586.22
485.18	14829.63
485.35	14960.70
485.53	15033.26
485.71	14876.44
485.89	15009.86
486.07	15070.71
486.25	15089.43
486.43	15335.19
486.61	15630.10
486.78	15929.69
486.96	15859.47
487.14	15782.23
487.32	16102.89
487.50	16341.62
487.68	16219.91
487.85	16732.49
488.03	16592.06
488.21	16931.44
488.39	16957.18
488.57	16788.66
488.75	17018.04
488.92	17429.97
489.10	17429.97
489.28	17769.35
489.46	17790.41
489.64	17804.46
489.81	17998.72
489.99	18338.10
490.17	17937.87
490.35	18370.86
490.53	18553.43
490.70	18523.00
490.88	18401.29
491.06	18794.50
491.24	18705.56
491.41	18588.53
491.59	18787.48
491.77	18621.30
491.95	19332.82
492.13	19475.60
492.30	19784.55
492.48	19807.95
492.66	19623.05
492.84	19805.61
493.01	19913.28
493.19	19777.53
493.37	20053.71
493.54	20439.90
493.72	20170.74
493.90	20458.62
494.08	20512.46
494.25	20919.71
494.43	20828.43
494.61	21165.46
494.79	20889.28
494.96	21268.45
495.14	21186.53
495.32	21717.83
495.49	21413.56
495.67	21579.74
495.85	21895.71
496.02	21783.37
496.20	22326.37
496.38	22075.93
496.55	22335.73
496.73	22785.12
496.91	22340.41
497.09	22520.63
497.26	22644.68
497.44	22878.74
497.62	22672.77
497.79	23274.29
497.97	23068.32
498.14	23225.14
498.32	23498.98
498.50	23573.88
498.67	23531.75
498.85	23833.68
499.03	23707.29
499.20	23803.25
499.38	23819.63
499.56	23784.52
499.73	24044.32
499.91	24437.53
500.08	24404.77
500.26	24423.49
500.44	24556.90
500.61	24517.11
500.79	24535.84
500.97	24474.98
501.14	24964.15
501.32	25111.61
501.49	25027.35
501.67	24957.13
501.84	25116.29
502.02	24999.26
502.20	25261.40
502.37	25055.43
502.55	25579.71
502.72	25638.23
502.90	25682.70
503.07	25355.02
503.25	25647.59
503.43	25465.03
503.60	25909.73
503.78	25867.60
503.95	25949.52
504.13	25841.85
504.30	26492.52
504.48	26085.27
504.65	26115.70
504.83	26354.43
505.01	26672.74
505.18	26480.82
505.36	26544.02
505.53	26546.36
505.71	27103.40
505.88	26951.27
506.06	26635.30
506.23	27161.92
506.41	27194.68
506.58	27271.92
506.76	27323.41
506.93	27459.16
507.11	27562.15
507.28	27316.39
507.46	27709.60
507.63	27524.70
507.81	27819.61
507.98	27824.29
508.16	27798.54
508.33	28142.60
508.50	28210.48
508.68	28121.54
508.85	28657.52
509.03	28191.75
509.20	28510.07
509.38	28620.07
509.55	28723.05
509.73	28744.12
509.90	28914.98
510.08	28638.80
510.25	28919.66
510.42	29102.22
510.60	29614.80
510.77	29504.79
510.95	29263.72
511.12	29032.00
511.30	29668.63
511.47	29532.88
511.64	29565.65
511.82	30080.56
511.99	29467.34
512.17	29680.33
512.34	29818.42
512.51	30181.21
512.69	30352.07
512.86	30363.77
513.04	30466.75
513.21	30583.78
513.38	29982.26
513.56	30188.23
513.73	30251.42
513.90	30946.56
514.08	30394.20
514.25	30494.84
514.43	30244.40
514.60	30331.00
514.77	30302.92
514.95	31337.43
515.12	30815.49
515.29	31147.85
515.47	31426.37
515.64	30855.28
515.81	31197.00
515.99	31599.57
516.16	31367.86
516.33	31297.64
516.51	31316.37
516.68	31229.77
516.85	31393.61
517.03	31299.98
517.20	31491.91
517.37	31606.59
517.54	32353.23
517.72	32006.83
517.89	31747.03
518.06	32034.91
518.24	32095.77
518.41	31777.45
518.58	32084.06
518.75	32070.02
518.93	32030.23
519.10	32643.45
519.27	32217.47
519.45	32514.72
519.62	32484.30
519.79	32858.78
519.96	32577.92
520.14	32767.50
520.31	32973.47
520.48	33071.77
520.65	33085.81
520.83	33383.06
521.00	33240.29
521.17	33448.60
521.34	33097.52
521.52	33256.67
521.69	33684.99
521.86	33617.11
522.03	33600.73
522.20	33741.16
522.38	33523.49
522.55	34085.22
522.72	34057.14
522.89	33858.19
523.07	34267.78
523.24	34600.14
523.41	34110.97
523.58	33963.51
523.75	34527.58
523.92	34305.23
524.10	34602.48
524.27	34684.40
524.44	34071.18
524.61	34703.12
524.78	34714.83
524.96	35061.22
525.13	35253.15
525.30	34960.58
525.47	34979.31
525.64	34785.04
525.81	35208.68
525.98	35044.84
526.16	34951.22
526.33	34754.61
526.50	35592.53
526.67	35314.00
526.84	34780.36
527.01	34810.79
527.18	35440.39
527.36	35473.16
527.53	35875.73
527.70	35835.94
527.87	35805.52
528.04	35754.02
528.21	36100.42
528.38	35639.34
528.55	36172.98
528.72	36229.15
528.89	36367.24
529.07	35889.77
529.24	35676.79
529.41	35962.33
529.58	36217.45
529.75	35824.24
529.92	36470.23
530.09	36641.09
530.26	36919.61
530.43	36510.02
530.60	36123.83
530.77	36458.52
530.94	36961.74
531.11	36538.10
531.28	36954.72
531.46	37067.06
531.63	36779.18
531.80	36907.91
531.97	36840.03
532.14	36666.83
532.31	36884.50
532.48	37043.66
532.65	37074.09
532.82	37134.94
532.99	37249.63
533.16	36601.30
533.33	36945.36
533.50	37291.76
533.67	37268.35
533.84	37174.73
534.01	37558.58
534.18	37399.42
534.35	37631.13
534.52	37675.60
534.69	37841.78
534.86	38433.94
535.03	37593.68
535.20	37919.02
535.37	38003.28
535.54	37736.46
535.71	37869.87
535.88	38220.95
536.05	38202.22
536.22	38218.61
536.38	38209.25
536.55	38335.63
536.72	38171.80
536.89	37537.51
537.06	37907.32
537.23	38429.26
537.40	38333.29
537.57	38127.33
537.74	38607.14
537.91	38831.83
538.08	38574.37
538.25	38366.06
538.42	38623.52
538.59	38431.60
538.75	38541.60
538.92	38139.03
539.09	38862.26
539.26	39105.67
539.43	38827.15
539.60	38859.91
539.77	39098.65
539.94	39100.99
540.11	39051.84
540.28	39051.84
540.44	39356.11
540.61	39028.43
540.78	38913.75
540.95	39065.88
541.12	39370.15
541.29	38747.57
541.46	39271.85
541.62	39433.35
541.79	39789.11
541.96	39306.96
542.13	39206.31
542.30	39421.64
542.47	39349.09
542.63	39786.77
542.80	39852.30
542.97	39854.64
543.14	40334.45
543.31	40165.93
543.48	39917.84
543.64	40507.65
543.81	40528.72
543.98	40172.96
544.15	39899.11
544.32	40683.19
544.48	40369.56
544.65	40226.79
544.82	40313.39
544.99	40266.58
545.16	40264.24
545.32	40332.11
545.49	40842.35
545.66	40170.61
545.83	40722.98
546.00	40783.83
546.16	40453.82
546.33	40491.27
546.50	40259.55
546.67	40694.89
546.83	40664.47
547.00	41010.87
547.17	40636.38
547.34	40830.65
547.50	41095.13
547.67	41088.10
547.84	41034.27
548.00	41287.05
548.17	41865.16
548.34	41310.46
548.51	41497.70
548.67	41514.08
548.84	41284.71
549.01	41368.97
549.18	41483.66
549.34	41312.80
549.51	41902.61
549.68	41422.80
549.84	41989.21
550.01	41757.50
550.18	41160.66
550.34	41717.71
550.51	41750.48
550.68	41301.09
550.84	41326.84
551.01	41804.31
551.18	41333.86
551.34	41986.87
551.51	41621.75
551.68	41904.95
551.84	41900.27
552.01	41315.14
552.18	42033.68
552.34	41574.94
552.51	41954.10
552.68	42033.68
552.84	42227.95
553.01	42277.10
553.18	41921.34
553.34	42115.60
553.51	42036.02
553.67	41923.68
553.84	42679.67
554.01	42288.80
554.17	42670.31
554.34	42443.27
554.51	42319.23
554.67	42557.96
554.84	42202.20
555.00	42813.08
555.17	42096.88
555.33	42885.64
555.50	42635.20
555.67	42728.82
555.83	42686.69
556.00	42593.07
556.16	43098.62
556.33	42745.20
556.50	42220.92
556.66	42838.83
556.83	42487.74
556.99	42588.39
557.16	42841.17
557.32	43009.68
557.49	42794.36
557.65	42513.49
557.82	42696.05
557.98	42712.44
558.15	42920.74
558.32	43033.09
558.48	43107.99
558.65	42986.28
558.81	42913.72
558.98	42546.26
559.14	43210.97
559.31	42752.23
559.47	43091.60
559.64	43021.39
559.80	43222.67
559.97	42838.83
560.13	42822.44
560.30	43166.50
560.46	43496.52
560.63	43388.85
560.79	43412.26
560.96	43503.54
561.12	43295.23
561.29	43430.98
561.45	43049.47
561.61	43524.60
561.78	42848.19
561.94	42974.58
562.11	43789.08
562.27	43145.44
562.44	42958.19
562.60	43604.18
562.77	43873.34
562.93	43454.39
563.10	43730.57
563.26	42967.55
563.42	43445.02
563.59	43356.08
563.75	43299.91
563.92	43847.60
564.08	43344.38
564.24	43402.89
564.41	43660.35
564.57	43941.22
564.74	43491.83
564.90	43969.30
565.07	43599.50
565.23	43894.41
565.39	43454.39
565.56	43746.95
565.72	43498.86
565.88	43594.82
566.05	43426.30
566.21	43756.32
566.38	43470.77
566.54	43892.07
566.70	43328.00
566.87	44154.21
567.03	43789.08
567.19	44137.82
567.36	44327.41
567.52	43512.90
567.68	43770.36
567.85	43496.52
568.01	44074.63
568.17	43915.47
568.34	43868.66
568.50	43634.61
568.66	43540.99
568.83	43646.31
568.99	43683.76
569.15	44002.07
569.32	43580.78
569.48	43695.46
569.64	44004.41
569.81	44158.89
569.97	43824.19
570.13	43927.17
570.30	43522.26
570.46	43470.77
570.62	43634.61
570.78	44006.75
570.95	43782.06
571.11	44406.98
571.27	43934.20
571.43	44189.31
571.60	44156.55
571.76	43753.97
571.92	43562.05
572.09	44067.61
572.25	44055.90
572.41	43690.78
572.57	44030.16
572.74	44694.87
572.90	44437.41
573.06	44107.40
573.22	44098.03
573.38	44231.44
573.55	43861.64
573.71	43632.27
573.87	43723.55
574.03	43716.53
574.20	44222.08
574.36	43971.64
574.52	44404.64
574.68	44439.75
574.84	44275.91
575.01	44566.14
575.17	44374.22
575.33	44133.14
575.49	44184.63
575.65	44741.68
575.82	44659.76
575.98	44280.60
576.14	44886.79
576.30	44458.48
576.46	44177.61
576.62	44208.04
576.79	44219.74
576.95	43871.00
577.11	44641.04
577.27	44285.28
577.43	44505.29
577.59	44414.01
577.75	44240.81
577.92	44259.53
578.08	43761.00
578.24	43910.79
578.40	44065.27
578.56	44264.21
578.72	44266.55
578.88	44673.81
579.04	44278.25
579.21	44474.86
579.37	44072.29
579.53	44264.21
579.69	43768.02
579.85	44273.57
580.01	44549.76
580.17	44086.33
580.33	44144.84
580.49	44732.32
580.65	44451.45
580.82	44727.64
580.98	44264.21
581.14	43859.30
581.30	44493.58
581.46	44308.68
581.62	44563.80
581.78	44184.63
581.94	44346.13
582.10	44144.84
582.26	44126.12
582.42	44680.83
582.58	44582.52
582.74	44189.31
582.90	44411.67
583.06	44804.88
583.22	44329.75
583.38	44528.69
583.54	44343.79
583.70	44463.16
583.86	44563.80
584.02	43838.23
584.18	44692.53
584.34	44392.94
584.50	44582.52
584.66	44584.86
584.82	44404.64
584.98	44659.76
585.14	44519.33
585.30	44416.35
585.46	44219.74
585.62	44275.91
585.78	44690.19
585.94	43894.41
586.10	44271.23
586.26	44046.54
586.42	44414.01
586.58	44456.14
586.74	44699.55
586.90	44505.29
587.06	44554.44
587.22	44306.34
587.38	44304.00
587.54	44507.63
587.70	44973.39
587.86	44470.18
588.02	44449.11
588.18	44584.86
588.34	44435.07
588.49	44135.48
588.65	44442.09
588.81	44243.15
588.97	44177.61
589.13	44493.58
589.29	44238.47
589.45	44638.70
589.61	44233.78
589.77	44776.79
589.93	44718.28
590.08	45067.02
590.24	44624.65
590.40	44657.42
