SpectraSuite Data File
++++++++++++++++++++++++++++++++++++
Date: Fri Oct 25 11:33:59 EDT 2013
User: price-jones
Dark Spectrum Present: No
Reference Spectrum Present: No
Number of Sampled Component Spectra: 1
Spectrometers: USB2+H05261
Integration Time (usec): 100000 (USB2+H05261)
Spectra Averaged: 1 (USB2+H05261)
Boxcar Smoothing: 0 (USB2+H05261)
Correct for Electrical Dark: No (USB2+H05261)
Strobe/Lamp Enabled: No (USB2+H05261)
Correct for Detector Non-linearity: No (USB2+H05261)
Correct for Stray Light: No (USB2+H05261)
Number of Pixels in Processed Spectrum: 2048
>>>>>Begin Processed Spectral Data<<<<<
365.73	278.52
365.92	278.52
366.12	278.52
366.32	212.99
366.52	177.88
366.72	198.95
366.91	65.54
367.11	149.79
367.31	194.26
367.51	170.86
367.70	245.76
367.90	208.31
368.10	212.99
368.30	203.63
368.49	112.35
368.69	175.54
368.89	196.60
369.09	184.90
369.28	227.03
369.48	170.86
369.68	245.76
369.87	271.50
370.07	266.82
370.27	283.20
370.47	367.46
370.66	381.51
370.86	507.90
371.06	624.92
371.25	601.52
371.45	545.34
371.65	592.16
371.84	486.83
372.04	585.13
372.24	580.45
372.44	503.22
372.63	575.77
372.83	650.67
373.03	580.45
373.22	645.99
373.42	592.16
373.62	587.47
373.81	678.76
374.01	624.92
374.21	631.94
374.40	678.76
374.60	589.82
374.79	608.54
374.99	678.76
375.19	662.37
375.38	695.14
375.58	596.84
375.78	711.52
375.97	636.63
376.17	697.48
376.37	610.88
376.56	711.52
376.76	629.60
376.95	697.48
377.15	727.91
377.35	760.67
377.54	669.39
377.74	645.99
377.93	713.86
378.13	697.48
378.33	741.95
378.52	683.44
378.72	744.29
378.91	725.57
379.11	720.88
379.31	685.78
379.50	681.10
379.70	716.20
379.89	699.82
380.09	695.14
380.28	767.70
380.48	805.14
380.68	629.60
380.87	690.46
381.07	727.91
381.26	784.08
381.46	774.72
381.65	786.42
381.85	758.33
382.04	777.06
382.24	823.87
382.43	791.10
382.63	861.32
382.83	791.10
383.02	912.81
383.22	851.96
383.41	814.51
383.61	842.59
383.80	833.23
384.00	858.98
384.19	819.19
384.39	784.08
384.58	786.42
384.78	798.12
384.97	763.01
385.17	851.96
385.36	814.51
385.56	788.76
385.75	828.55
385.95	828.55
386.14	877.70
386.34	847.27
386.53	903.45
386.72	791.10
386.92	870.68
387.11	931.53
387.31	945.58
387.50	894.08
387.70	858.98
387.89	915.15
388.09	882.38
388.28	910.47
388.48	884.72
388.67	950.26
388.86	905.79
389.06	898.77
389.25	947.92
389.45	954.94
389.64	940.90
389.84	973.66
390.03	976.00
390.22	973.66
390.42	922.17
390.61	987.71
390.81	1048.56
391.00	943.24
391.19	1015.79
391.39	929.19
391.58	997.07
391.78	994.73
391.97	990.05
392.16	1001.75
392.36	1004.09
392.55	1036.86
392.75	1076.65
392.94	1071.97
393.13	1060.26
393.33	1086.01
393.52	1050.90
393.71	1046.22
393.91	1015.79
394.10	1067.28
394.29	1078.99
394.49	1076.65
394.68	1135.16
394.88	1074.31
395.07	1104.73
395.26	1135.16
395.46	1167.93
395.65	1163.25
395.84	1170.27
396.04	1238.14
396.23	1238.14
396.42	1151.54
396.62	1156.22
396.81	1207.72
397.00	1163.25
397.19	1245.16
397.39	1221.76
397.58	1303.68
397.77	1219.42
397.97	1233.46
398.16	1280.27
398.35	1315.38
398.55	1247.51
398.74	1203.04
398.93	1254.53
399.12	1320.06
399.32	1322.40
399.51	1231.12
399.70	1404.32
399.90	1359.85
400.09	1336.45
400.28	1416.02
400.47	1486.24
400.67	1430.07
400.86	1352.83
401.05	1416.02
401.24	1465.18
401.44	1493.26
401.63	1540.07
401.82	1483.90
402.01	1488.58
402.21	1577.52
402.40	1472.20
402.59	1483.90
402.78	1437.09
402.97	1465.18
403.17	1516.67
403.36	1511.99
403.55	1603.27
403.74	1481.56
403.93	1535.39
404.13	1600.93
404.32	1605.61
404.51	1593.90
404.70	1657.10
404.89	1514.33
405.09	1703.91
405.28	1626.67
405.47	1638.38
405.66	1699.23
405.85	1785.83
406.05	1717.95
406.24	1685.19
406.43	1764.76
406.62	1792.85
406.81	1804.55
407.00	1741.36
407.20	1783.49
407.39	1739.02
407.58	1842.00
407.77	1818.60
407.96	1886.47
408.15	1764.76
408.34	1816.26
408.54	1928.60
408.73	1907.54
408.92	1895.83
409.11	1909.88
409.30	2043.29
409.49	1959.03
409.68	1987.11
409.87	2052.65
410.07	2139.25
410.26	2047.97
410.45	2031.58
410.64	2022.22
410.83	2029.24
411.02	2071.37
411.21	2167.34
411.40	2019.88
411.59	2272.66
411.78	2085.42
411.98	2190.74
412.17	2211.81
412.36	2214.15
412.55	2377.98
412.74	2394.37
412.93	2333.51
413.12	2333.51
413.31	2457.56
413.50	2427.14
413.69	2452.88
413.88	2473.95
414.07	2541.82
414.26	2534.80
414.45	2509.05
414.64	2539.48
414.83	2555.86
415.02	2590.97
415.22	2609.70
415.41	2574.59
415.60	2661.19
415.79	2661.19
415.98	2789.92
416.17	2693.96
416.36	2654.17
416.55	2717.36
416.74	2874.18
416.93	2806.30
417.12	2834.39
417.31	2946.73
417.50	2825.03
417.69	3009.93
417.88	2855.45
418.07	2970.14
418.26	2850.77
418.45	2967.80
418.64	3061.42
418.83	3028.65
419.02	3045.04
419.21	3054.40
419.39	3131.64
419.58	3038.02
419.77	3047.38
419.96	3164.40
420.15	3014.61
420.34	3014.61
420.53	3101.21
420.72	3169.09
420.91	3159.72
421.10	3098.87
421.29	3260.37
421.48	3108.23
421.67	3211.22
421.86	3262.71
422.05	3199.51
422.24	3281.43
422.43	3342.28
422.61	3215.90
422.80	3363.35
422.99	3456.97
423.18	3400.80
423.37	3494.42
423.56	3449.95
423.75	3330.58
423.94	3241.64
424.13	3199.51
424.32	3169.09
424.50	3304.84
424.69	3375.05
424.88	3424.20
425.07	3435.91
425.26	3332.92
425.45	3328.24
425.64	3478.04
425.83	3433.57
426.01	3407.82
426.20	3265.05
426.39	3449.95
426.58	3468.67
426.77	3419.52
426.96	3536.55
427.15	3396.12
427.33	3550.59
427.52	3454.63
427.71	3534.21
427.90	3597.40
428.09	3616.13
428.28	3719.11
428.46	3772.94
428.65	3618.47
428.84	3655.92
429.03	3768.26
429.22	3609.11
429.40	3742.52
429.59	3662.94
429.78	3618.47
429.97	3646.55
430.16	3679.32
430.34	3843.16
430.53	3838.48
430.72	3882.95
430.91	3925.08
431.10	3880.61
431.28	3997.64
431.47	3941.46
431.66	3948.48
431.85	3892.31
432.03	3981.25
432.22	4021.04
432.41	4044.45
432.60	4028.06
432.79	4007.00
432.97	4091.26
433.16	4149.77
433.35	3997.64
433.54	4105.30
433.72	4170.83
433.91	4060.83
434.10	4264.46
434.28	4091.26
434.47	4222.33
434.66	4189.56
434.85	4271.48
435.03	4208.28
435.22	4311.27
435.41	4407.23
435.59	4404.89
435.78	4404.89
435.97	4383.82
436.16	4311.27
436.34	4505.53
436.53	4470.42
436.72	4442.34
436.90	4383.82
437.09	4353.40
437.28	4472.76
437.46	4585.11
437.65	4507.87
437.84	4505.53
438.02	4592.13
438.21	4662.35
438.40	4580.43
438.58	4657.67
438.77	4697.46
438.96	4568.73
439.14	4819.16
439.33	4840.23
439.52	4882.36
439.70	4938.53
439.89	4905.76
440.08	4880.02
440.26	4954.91
440.45	4999.38
440.63	5001.72
440.82	5034.49
441.01	5132.79
441.19	5198.33
441.38	5172.58
441.57	5151.52
441.75	5235.78
441.94	5329.40
442.12	5252.16
442.31	5383.23
442.50	5434.72
442.68	5488.56
442.87	5507.28
443.05	5483.88
443.24	5460.47
443.43	5486.22
443.61	5437.06
443.80	5591.54
443.98	5179.61
444.17	5294.29
444.35	5490.90
444.54	5724.95
444.73	5603.24
444.91	5483.88
445.10	5516.64
445.28	5631.33
445.47	5612.60
445.65	5472.17
445.84	5638.35
446.02	5624.31
446.21	5542.39
446.39	5678.14
446.58	5769.42
446.77	5762.40
446.95	5556.43
447.14	5760.06
447.32	5729.63
447.51	5633.67
447.69	5687.50
447.88	5724.95
448.06	5764.74
448.25	5687.50
448.43	5816.23
448.62	5888.79
448.80	5886.45
448.99	5729.63
449.17	5905.17
449.36	5841.98
449.54	5762.40
449.73	6104.12
449.91	5998.79
450.10	5996.45
450.28	6101.78
450.46	5998.79
450.65	6104.12
450.83	6090.07
451.02	6127.52
451.20	6207.10
451.39	6237.53
451.57	6061.99
451.76	6069.01
451.94	6244.55
452.13	6282.00
452.31	6223.48
452.49	6092.41
452.68	6265.61
452.86	6153.27
453.05	6312.42
453.23	6263.27
453.42	6260.93
453.60	6111.14
453.78	6274.98
453.97	6195.40
454.15	6300.72
454.34	6312.42
454.52	6441.15
454.70	6614.35
454.89	6525.41
455.07	6630.74
455.26	6548.82
455.44	6614.35
455.62	6579.25
455.81	6604.99
455.99	6677.55
456.17	6808.62
456.36	6672.87
456.54	6902.24
456.73	6729.04
456.91	6860.11
457.09	6986.50
457.28	6925.65
457.46	6970.12
457.64	7082.46
457.83	7061.40
458.01	6803.94
458.19	6918.62
458.38	6977.14
458.56	7105.87
458.74	7243.96
458.93	7166.72
459.11	7208.85
459.29	7049.69
459.48	7304.81
459.66	7143.32
459.84	7187.79
460.03	7342.26
460.21	7316.51
460.39	7166.72
460.57	7321.20
460.76	7492.05
460.94	7473.33
461.12	7492.05
461.31	7454.61
461.49	7562.27
461.67	7456.95
461.85	7609.08
462.04	7442.90
462.22	8077.19
462.40	7723.77
462.59	7772.92
462.77	7613.76
462.95	7691.00
463.13	7747.17
463.32	7721.43
463.50	7674.62
463.68	7808.03
463.86	8042.08
464.05	7665.25
464.23	7815.05
464.41	7857.18
464.59	7702.70
464.78	7920.37
464.96	8002.29
465.14	7763.56
465.32	8011.65
465.50	8163.79
465.69	8063.15
465.87	8121.66
466.05	8086.55
466.23	8138.04
466.41	8196.56
466.60	8262.09
466.78	8091.23
466.96	8049.10
467.14	8166.13
467.32	8269.11
467.51	8320.60
467.69	8037.40
467.87	8283.16
468.05	8297.20
468.23	8116.98
468.41	8407.20
468.60	8423.59
468.78	8517.21
468.96	8297.20
469.14	8458.70
469.32	8423.59
469.50	8376.78
469.69	8498.49
469.87	8809.78
470.05	8549.98
470.23	8645.94
470.41	8578.06
470.59	8767.65
470.77	8594.45
470.95	8744.24
471.14	8957.23
471.32	8664.66
471.50	8877.65
471.68	8940.85
471.86	9081.28
472.04	9172.56
472.22	9296.61
472.40	9085.96
472.58	9345.76
472.77	9135.11
472.95	9226.39
473.13	9675.77
473.31	9380.87
473.49	9500.23
473.67	9577.47
473.85	9352.78
474.03	9451.08
474.21	9605.56
474.39	9671.09
474.57	9865.36
474.75	9671.09
474.93	9696.84
475.12	9767.06
475.30	9994.09
475.48	10087.71
475.66	10015.15
475.84	9944.94
476.02	10108.77
476.20	10017.49
476.38	10356.87
476.56	10513.69
476.74	10356.87
476.92	10303.04
477.10	10450.49
477.28	10670.50
477.46	10546.45
477.64	10637.73
477.82	10710.29
478.00	11159.67
478.18	10967.75
478.36	10853.06
478.54	11309.47
478.72	11126.91
478.90	11330.53
479.08	11761.19
479.26	11562.25
479.44	11623.10
479.62	11515.44
479.80	11913.33
479.98	11765.87
480.16	11894.60
480.34	11955.46
480.52	12224.62
480.70	12116.95
480.88	11861.84
481.06	12222.28
481.24	12194.19
481.41	12566.34
481.59	12685.70
481.77	12638.89
481.95	12858.90
482.13	12823.80
482.31	12896.35
482.49	13186.58
482.67	12940.82
482.85	13476.80
483.03	13331.69
483.21	13364.46
483.39	13532.98
483.57	13813.84
483.74	13804.48
483.92	13888.74
484.10	13673.41
484.28	14132.15
484.46	14218.75
484.64	14422.38
484.82	14204.71
485.00	14462.17
485.18	14698.56
485.35	14998.15
485.53	14719.63
485.71	15070.71
485.89	15311.78
486.07	15178.37
486.25	15173.69
486.43	15466.26
486.61	15637.12
486.78	15433.49
486.96	15515.41
487.14	15885.22
487.32	15737.76
487.50	16379.07
487.68	16306.51
487.85	16573.33
488.03	16620.14
488.21	16645.89
488.39	16802.71
488.57	16819.09
488.75	17034.42
488.92	17408.90
489.10	17341.03
489.28	17296.56
489.46	17589.13
489.64	17486.14
489.81	17944.89
489.99	17935.53
490.17	17980.00
490.35	18345.12
490.53	18160.22
490.70	18410.65
490.88	18363.84
491.06	18675.13
491.24	18452.78
491.41	18614.28
491.59	18778.12
491.77	19033.24
491.95	19349.21
492.13	19318.78
492.30	19468.58
492.48	19491.98
492.66	19503.68
492.84	19672.20
493.01	20109.88
493.19	19934.34
493.37	20332.23
493.54	20088.82
493.72	20243.29
493.90	20402.45
494.08	20638.84
494.25	20884.60
494.43	20769.91
494.61	21102.27
494.79	21219.30
494.96	21282.49
495.14	21078.86
495.32	21219.30
495.49	21542.29
495.67	21481.44
495.85	21507.18
496.02	22038.48
496.20	22061.89
496.38	22209.34
496.55	21926.14
496.73	22522.98
496.91	22218.71
497.09	22352.12
497.26	22600.21
497.44	22462.12
497.62	22377.86
497.79	23051.94
497.97	22970.02
498.14	23449.83
498.32	23049.60
498.50	23454.51
498.67	23550.47
498.85	23466.21
499.03	23868.78
499.20	24051.34
499.38	23763.46
499.56	24037.30
499.73	23971.77
499.91	24247.95
500.08	24718.40
500.26	23770.48
500.44	24458.60
500.61	24060.71
500.79	24559.24
500.97	24774.57
501.14	25212.25
501.32	24851.81
501.49	24961.81
501.67	24809.68
501.84	25296.51
502.02	25245.02
502.20	25387.79
502.37	25638.23
502.55	25458.01
502.72	25551.63
502.90	25790.36
503.07	25811.43
503.25	25872.28
503.43	25830.15
503.60	26010.37
503.78	26155.49
503.95	26155.49
504.13	26302.94
504.30	26258.47
504.48	26621.25
504.65	26434.01
504.83	26939.57
505.01	27023.83
505.18	26824.88
505.36	27402.99
505.53	26869.35
505.71	27164.26
505.88	26955.95
506.06	27204.05
506.23	27564.49
506.41	27735.35
506.58	27330.44
506.76	27377.25
506.93	27466.19
507.11	27648.75
507.28	27765.78
507.46	28116.86
507.63	27835.99
507.81	28276.01
507.98	27950.68
508.16	28100.47
508.33	28407.08
508.50	28081.75
508.68	28259.63
508.85	28835.40
509.03	28603.69
509.20	28570.92
509.38	28952.43
509.55	28748.80
509.73	29301.17
509.90	29060.09
510.08	29055.41
510.25	29357.34
510.42	29184.14
510.60	29228.61
510.77	29649.91
510.95	29839.49
511.12	29558.63
511.30	29750.55
511.47	29687.36
511.64	30045.46
511.82	29727.14
511.99	30096.95
512.17	29881.62
512.34	30061.84
512.51	30387.18
512.69	30466.75
512.86	30305.26
513.04	30565.06
513.21	31005.08
513.38	30742.94
513.56	31019.12
513.73	30445.69
513.90	30625.91
514.08	30438.67
514.25	30794.43
514.43	31548.08
514.60	31110.40
514.77	31124.44
514.95	31496.59
515.12	31213.38
515.29	31611.28
515.47	31812.56
515.64	32020.87
515.81	31407.65
515.99	31873.42
516.16	31903.84
516.33	31754.05
516.51	32437.48
516.68	32175.34
516.85	32271.31
517.03	32264.28
517.20	32416.42
517.37	32474.93
517.54	32301.73
517.72	32739.41
517.89	32945.38
518.06	32477.27
518.24	32563.87
518.41	32374.29
518.58	32692.60
518.75	32205.77
518.93	33404.13
519.10	33383.06
519.27	33163.05
519.45	32912.61
519.62	33284.76
519.79	33593.71
519.96	32891.55
520.14	33710.74
520.31	33343.27
520.48	33460.30
520.65	33680.31
520.83	33951.81
521.00	33968.19
521.17	33900.32
521.34	33855.85
521.52	34190.55
521.69	34424.60
521.86	34660.99
522.03	34728.87
522.20	34513.54
522.38	34448.00
522.55	34766.32
522.72	34267.78
522.89	34471.41
523.07	34967.60
523.24	35023.78
523.41	34948.88
523.58	35136.12
523.75	34976.97
523.92	34895.05
524.10	35115.06
524.27	35075.27
524.44	35309.32
524.61	35372.52
524.78	35817.22
524.96	35597.21
525.13	35452.09
525.30	35835.94
525.47	35573.80
525.64	35761.05
525.81	36060.63
525.98	36072.34
526.16	35777.43
526.33	35852.33
526.50	36388.31
526.67	36053.61
526.84	35962.33
527.01	36245.54
527.18	36421.08
527.36	36231.49
527.53	36760.45
527.70	36617.68
527.87	36814.29
528.04	36390.65
528.21	36980.46
528.38	36992.17
528.55	37017.91
528.72	36622.36
528.89	36875.14
529.07	36430.44
529.24	36957.06
529.41	37464.96
529.58	37064.72
529.75	36732.37
529.92	37043.66
530.09	37221.54
530.26	37610.07
530.43	37642.84
530.60	37237.92
530.77	37303.46
530.94	37083.45
531.11	37195.79
531.28	37385.38
531.46	37780.93
531.63	37738.80
531.80	38007.96
531.97	38082.86
532.14	37790.29
532.31	38071.15
532.48	38249.03
532.65	38162.43
532.82	38007.96
532.99	38356.70
533.16	38160.09
533.33	38728.84
533.50	37993.92
533.67	38225.63
533.84	38274.78
534.01	38267.76
534.18	38124.99
534.35	38515.86
534.52	38852.89
534.69	38761.61
534.86	39093.97
535.03	38958.22
535.20	38742.89
535.37	38705.44
535.54	39115.03
535.71	39140.78
535.88	39379.51
536.05	39344.41
536.22	39342.06
536.38	39042.48
536.55	39484.84
536.72	39316.32
536.89	39213.34
537.06	38965.24
537.23	39555.05
537.40	39206.31
537.57	39555.05
537.74	39276.53
537.91	40318.07
538.08	39386.54
538.25	39311.64
538.42	40095.72
538.59	40053.59
538.75	39641.65
538.92	39601.86
539.09	40105.08
539.26	40053.59
539.43	39793.79
539.60	39990.39
539.77	39985.71
539.94	40399.99
540.11	40362.54
540.28	40177.64
540.44	40528.72
540.61	40172.96
540.78	40163.59
540.95	40196.36
541.12	40463.18
541.29	40238.49
541.46	40451.48
541.62	40584.89
541.79	40692.55
541.96	40561.48
542.13	40526.38
542.30	40591.91
542.47	40961.72
542.63	40854.05
542.80	40964.06
542.97	41776.22
543.14	41364.29
543.31	41315.14
543.48	41383.01
543.64	41975.17
543.81	41806.65
543.98	41301.09
544.15	41567.91
544.32	41970.49
544.48	42394.12
544.65	41586.64
544.82	41413.44
544.99	41429.82
545.16	41399.40
545.32	42000.91
545.49	42436.25
545.66	41811.33
545.83	42232.63
546.00	41722.39
546.16	42363.70
546.33	41975.17
546.50	42012.62
546.67	42124.96
546.83	41663.88
547.00	42438.59
547.17	42422.21
547.34	42373.06
547.50	42361.36
547.67	42859.89
547.84	42749.88
548.00	42609.45
548.17	42784.99
548.34	42553.28
548.51	42745.20
548.67	43185.22
548.84	43009.68
549.01	42810.74
549.18	42916.06
549.34	43124.37
549.51	42902.02
549.68	42962.87
549.84	42721.80
550.01	42899.68
550.18	42724.14
550.34	42951.17
550.51	42841.17
550.68	43030.75
550.84	43070.54
551.01	43016.71
551.18	43044.79
551.34	43484.81
551.51	43697.80
551.68	43494.18
551.84	43035.43
552.01	42948.83
552.18	43445.02
552.34	43229.69
552.51	43061.18
552.68	43798.44
552.84	43669.72
553.01	43817.17
553.18	43475.45
553.34	43856.96
553.51	43999.73
553.67	43643.97
553.84	44259.53
554.01	43805.47
554.17	43896.75
554.34	44224.42
554.51	43969.30
554.67	44182.29
554.84	44170.59
555.00	44023.14
555.17	43976.33
555.33	44304.00
555.50	43803.13
555.67	44289.96
555.83	44521.67
556.00	44563.80
556.16	44435.07
556.33	44472.52
556.50	44552.10
556.66	43955.26
556.83	44079.31
556.99	44652.74
557.16	44315.70
557.32	44741.68
557.49	44701.89
557.65	44268.89
557.82	44332.09
557.98	44151.87
558.15	44549.76
558.32	44671.46
558.48	44594.23
558.65	44563.80
558.81	44795.51
558.98	44500.61
559.14	44765.09
559.31	45258.94
559.47	44498.26
559.64	44629.34
559.80	44706.57
559.97	44966.37
560.13	44975.73
560.30	44949.99
560.46	45165.32
560.63	45013.18
560.79	45324.47
560.96	45256.60
561.12	45031.91
561.29	44907.86
561.45	45312.77
561.61	44910.20
561.78	45338.52
561.94	45308.09
562.11	45237.87
562.27	45689.60
562.44	45490.65
562.60	45359.58
562.77	45113.83
562.93	45382.99
563.10	45497.67
563.26	45085.74
563.42	45815.99
563.59	44933.60
563.75	45361.92
563.92	45492.99
564.08	45521.08
564.24	45815.99
564.41	45357.24
564.57	45333.84
564.74	45647.47
564.90	45106.80
565.07	45815.99
565.23	45294.05
565.39	45567.89
565.56	45923.65
565.72	45808.96
565.88	45455.54
566.05	45591.30
566.21	45797.26
566.38	45815.99
566.54	45514.06
566.70	45881.52
566.87	45874.50
567.03	45422.78
567.19	45928.33
567.36	45794.92
567.52	45808.96
567.68	45858.12
567.85	46148.34
568.01	45815.99
568.17	45684.92
568.34	46117.92
568.50	46188.13
568.66	46087.49
568.83	45794.92
568.99	45710.66
569.15	45736.41
569.32	45361.92
569.48	45778.54
569.64	46134.30
569.81	46232.60
569.97	45656.83
570.13	46358.99
570.30	46358.99
570.46	46410.48
570.62	46094.51
570.78	46466.66
570.95	46003.23
571.11	46256.01
571.27	46017.27
571.43	46253.67
571.60	46181.11
571.76	45972.80
571.92	46270.05
572.09	45778.54
572.25	46138.98
572.41	46164.73
572.57	45961.10
572.74	46604.75
572.90	46146.00
573.06	46410.48
573.22	46681.98
573.38	46466.66
573.55	46586.02
573.71	46782.63
573.87	46038.34
574.03	46232.60
574.20	46550.91
574.36	46361.33
574.52	46373.03
574.68	46274.73
574.84	46557.94
575.01	46834.12
575.17	46274.73
575.33	46789.65
575.49	46387.08
575.65	46756.88
575.82	46569.64
575.98	46567.30
576.14	46857.52
576.30	46480.70
576.46	46770.93
576.62	46595.38
576.79	46309.84
576.95	46204.52
577.11	46511.13
577.27	46534.53
577.43	46536.87
577.59	46855.18
577.75	46358.99
577.92	46155.36
578.08	45977.48
578.24	46656.24
578.40	47026.04
578.56	46660.92
578.72	46742.84
578.88	46789.65
579.04	46745.18
579.21	46464.32
579.37	46632.83
579.53	46866.89
579.69	46590.70
579.85	46899.65
580.01	46623.47
580.17	46494.74
580.33	46677.30
580.49	46761.56
580.65	46820.08
580.82	46564.96
580.98	46150.68
581.14	46382.40
581.30	46801.35
581.46	46651.56
581.62	46447.93
581.78	46586.02
581.94	46777.95
582.10	46532.19
582.26	46909.02
582.42	47145.41
582.58	47072.85
582.74	46660.92
582.90	46742.84
583.06	46864.55
583.22	46557.94
583.38	46611.77
583.54	46574.32
583.70	46614.11
583.86	46492.40
584.02	46611.77
584.18	47227.33
584.34	47304.57
584.50	47065.83
584.66	47049.45
584.82	46967.53
584.98	47159.45
585.14	47201.58
585.30	46637.51
585.46	46576.66
585.62	46923.06
585.78	46539.21
585.94	46735.82
586.10	46321.54
586.26	46672.62
586.42	46614.11
586.58	46775.61
586.74	47437.98
586.90	46693.69
587.06	47131.37
587.22	47246.05
587.38	46632.83
587.54	46925.40
587.70	47367.76
587.86	47309.25
588.02	46955.83
588.18	46836.46
588.34	46894.97
588.49	46794.33
588.65	46890.29
588.81	47070.51
588.97	46742.84
589.13	46923.06
589.29	46995.62
589.45	47278.82
589.61	47173.50
589.77	47524.58
589.93	46918.38
590.08	47215.63
