SpectraSuite Data File
++++++++++++++++++++++++++++++++++++
Date: Fri Oct 25 10:47:16 EDT 2013
User: price-jones
Dark Spectrum Present: No
Reference Spectrum Present: No
Number of Sampled Component Spectra: 1
Spectrometers: USB2+H05261
Integration Time (usec): 100000 (USB2+H05261)
Spectra Averaged: 1 (USB2+H05261)
Boxcar Smoothing: 0 (USB2+H05261)
Correct for Electrical Dark: No (USB2+H05261)
Strobe/Lamp Enabled: No (USB2+H05261)
Correct for Detector Non-linearity: No (USB2+H05261)
Correct for Stray Light: No (USB2+H05261)
Number of Pixels in Processed Spectrum: 2048
>>>>>Begin Processed Spectral Data<<<<<
365.73	187.24
365.92	187.24
366.12	187.24
366.32	39.79
366.52	65.54
366.72	112.35
366.91	65.54
367.11	72.56
367.31	11.70
367.51	28.09
367.70	4.68
367.90	114.69
368.10	56.17
368.30	110.01
368.49	0.00
368.69	65.54
368.89	58.51
369.09	49.15
369.28	2.34
369.48	28.09
369.68	84.26
369.87	81.92
370.07	140.43
370.27	100.64
370.47	203.63
370.66	294.91
370.86	322.99
371.06	461.09
371.25	456.40
371.45	470.45
371.65	489.17
371.84	386.19
372.04	330.02
372.24	451.72
372.44	451.72
372.63	461.09
372.83	444.70
373.03	454.06
373.22	496.19
373.42	496.19
373.62	507.90
373.81	554.71
374.01	535.98
374.21	571.09
374.40	599.18
374.60	524.28
374.79	440.02
374.99	528.96
375.19	528.96
375.38	573.43
375.58	528.96
375.78	587.47
375.97	547.69
376.17	681.10
376.37	514.92
376.56	528.96
376.76	566.41
376.95	650.67
377.15	596.84
377.35	634.29
377.54	557.05
377.74	596.84
377.93	547.69
378.13	566.41
378.33	608.54
378.52	578.11
378.72	580.45
378.91	566.41
379.11	653.01
379.31	589.82
379.50	624.92
379.70	603.86
379.89	554.71
380.09	601.52
380.28	704.50
380.48	645.99
380.68	617.90
380.87	608.54
381.07	697.48
381.26	662.37
381.46	655.35
381.65	681.10
381.85	627.26
382.04	671.73
382.24	706.84
382.43	664.71
382.63	617.90
382.83	671.73
383.02	674.07
383.22	791.10
383.41	697.48
383.61	676.41
383.80	690.46
384.00	690.46
384.19	713.86
384.39	770.04
384.58	610.88
384.78	767.70
384.97	725.57
385.17	697.48
385.36	744.29
385.56	751.31
385.75	755.99
385.95	732.59
386.14	741.95
386.34	753.65
386.53	819.19
386.72	713.86
386.92	819.19
387.11	746.63
387.31	786.42
387.50	805.14
387.70	835.57
387.89	875.36
388.09	814.51
388.28	763.01
388.48	744.29
388.67	765.36
388.86	798.12
389.06	842.59
389.25	884.72
389.45	882.38
389.64	835.57
389.84	807.48
390.03	837.91
390.22	873.02
390.42	856.64
390.61	800.46
390.81	828.55
391.00	795.78
391.19	961.96
391.39	931.53
391.58	976.00
391.78	940.90
391.97	1029.84
392.16	947.92
392.36	1020.47
392.55	968.98
392.75	980.68
392.94	910.47
393.13	1020.47
393.33	912.81
393.52	931.53
393.71	994.73
393.91	1008.77
394.10	1055.58
394.29	1001.75
394.49	1074.31
394.68	1036.86
394.88	1006.43
395.07	1029.84
395.26	994.73
395.46	1090.69
395.65	1100.05
395.84	1041.54
396.04	1191.33
396.23	1093.03
396.42	971.32
396.62	1064.94
396.81	1104.73
397.00	1128.14
397.19	1263.89
397.39	1160.91
397.58	1153.88
397.77	1163.25
397.97	1149.20
398.16	1245.16
398.35	1277.93
398.55	1240.48
398.74	1177.29
398.93	1263.89
399.12	1198.35
399.32	1228.78
399.51	1207.72
399.70	1355.17
399.90	1268.57
400.09	1273.25
400.28	1238.14
400.47	1317.72
400.67	1341.13
400.86	1317.72
401.05	1352.83
401.24	1327.08
401.44	1409.00
401.63	1376.24
401.82	1357.51
402.01	1380.92
402.21	1378.58
402.40	1455.81
402.59	1500.28
402.78	1392.62
402.97	1423.05
403.17	1399.64
403.36	1476.88
403.55	1430.07
403.74	1549.43
403.93	1486.24
404.13	1544.75
404.32	1563.48
404.51	1451.13
404.70	1511.99
404.89	1462.83
405.09	1629.01
405.28	1666.46
405.47	1640.72
405.66	1661.78
405.85	1659.44
406.05	1732.00
406.24	1652.42
406.43	1734.34
406.62	1671.14
406.81	1753.06
407.00	1666.46
407.20	1739.02
407.39	1657.10
407.58	1806.89
407.77	1764.76
407.96	1870.09
408.15	1839.66
408.34	1914.56
408.54	1832.64
408.73	1886.47
408.92	1947.33
409.11	1959.03
409.30	1973.07
409.49	1860.73
409.68	1844.34
409.87	1963.71
410.07	2073.71
410.26	2005.84
410.45	1998.82
410.64	2026.90
410.83	2029.24
411.02	2045.63
411.21	2129.89
411.40	2146.27
411.59	2167.34
411.78	2204.78
411.98	2148.61
412.17	2221.17
412.36	2246.91
412.55	2256.28
412.74	2303.09
412.93	2345.22
413.12	2249.25
413.31	2387.35
413.50	2434.16
413.69	2471.61
413.88	2513.74
414.07	2385.01
414.26	2487.99
414.45	2431.82
414.64	2492.67
414.83	2546.50
415.02	2569.91
415.22	2551.18
415.41	2635.44
415.60	2715.02
415.79	2593.31
415.98	2644.81
416.17	2715.02
416.36	2750.13
416.55	2818.00
416.74	2820.35
416.93	2782.90
417.12	2841.41
417.31	2818.00
417.50	2834.39
417.69	2850.77
417.88	2902.26
418.07	2958.44
418.26	2951.42
418.45	2902.26
418.64	3059.08
418.83	2995.89
419.02	3007.59
419.21	3054.40
419.39	3126.96
419.58	2960.78
419.77	2855.45
419.96	3035.67
420.15	3075.46
420.34	3215.90
420.53	3162.06
420.72	3141.00
420.91	3126.96
421.10	3180.79
421.29	3379.73
421.48	3213.56
421.67	3176.11
421.86	3220.58
422.05	3243.98
422.24	3290.79
422.43	3190.15
422.61	3393.78
422.80	3398.46
422.99	3335.26
423.18	3363.35
423.37	3382.07
423.56	3290.79
423.75	3246.32
423.94	3321.22
424.13	3171.43
424.32	3403.14
424.50	3419.52
424.69	3480.38
424.88	3548.25
425.07	3337.60
425.26	3304.84
425.45	3272.07
425.64	3342.28
425.83	3375.05
426.01	3485.06
426.20	3492.08
426.39	3508.46
426.58	3454.63
426.77	3363.35
426.96	3412.50
427.15	3428.88
427.33	3548.25
427.52	3562.30
427.71	3529.53
427.90	3641.87
428.09	3562.30
428.28	3548.25
428.46	3625.49
428.65	3763.58
428.84	3758.90
429.03	3737.84
429.22	3424.20
429.40	3592.72
429.59	3522.51
429.78	3515.48
429.97	3557.61
430.16	3452.29
430.34	3585.70
430.53	3840.82
430.72	3761.24
430.91	3777.62
431.10	3868.91
431.28	3946.14
431.47	3831.46
431.66	4007.00
431.85	3868.91
432.03	4046.79
432.22	4105.30
432.41	4042.11
432.60	4173.18
432.79	3915.72
432.97	4180.20
433.16	4060.83
433.35	4095.94
433.54	4081.89
433.72	4093.60
433.91	4152.11
434.10	4187.22
434.28	4039.76
434.47	4203.60
434.66	4224.67
434.85	4231.69
435.03	4070.19
435.22	4297.22
435.41	4447.02
435.59	4299.56
435.78	4311.27
435.97	4414.25
436.16	4175.52
436.34	4306.59
436.53	4449.36
436.72	4531.28
436.90	4491.49
437.09	4510.21
437.28	4322.97
437.46	4592.13
437.65	4533.62
437.84	4475.10
438.02	4496.17
438.21	4575.75
438.40	4512.55
438.58	4662.35
438.77	4554.68
438.96	4730.22
439.14	4657.67
439.33	4720.86
439.52	5008.75
439.70	4800.44
439.89	4868.31
440.08	5011.09
440.26	4931.51
440.45	4877.68
440.63	4983.00
440.82	5121.09
441.01	4983.00
441.19	5093.01
441.38	5259.18
441.57	5219.39
441.75	5249.82
441.94	5284.93
442.12	5411.32
442.31	5500.26
442.50	5210.03
442.68	5357.49
442.87	5366.85
443.05	5385.57
443.24	5586.86
443.43	5561.11
443.61	5406.64
443.80	5661.76
443.98	5448.77
444.17	5425.36
444.35	5563.45
444.54	5558.77
444.73	5481.53
444.91	5465.15
445.10	5497.92
445.28	5526.00
445.47	5418.34
445.65	5607.92
445.84	5650.05
446.02	5724.95
446.21	5638.35
446.39	5621.97
446.58	5830.27
446.77	5664.10
446.95	5497.92
447.14	5554.09
447.32	5865.38
447.51	5710.91
447.69	5617.29
447.88	5753.04
448.06	5685.16
448.25	5682.82
448.43	5659.42
448.62	5753.04
448.80	5568.13
448.99	5825.59
449.17	5895.81
449.36	5832.62
449.54	5933.26
449.73	5991.77
449.91	6024.54
450.10	5832.62
450.28	6071.35
450.46	6150.93
450.65	5975.39
450.83	6171.99
451.02	6019.86
451.20	6008.16
451.39	6108.80
451.57	6310.08
451.76	6160.29
451.94	6186.04
452.13	6211.78
452.31	6113.48
452.49	6012.84
452.68	6162.63
452.86	6277.32
453.05	6305.40
453.23	6399.02
453.42	6244.55
453.60	6235.19
453.78	6410.73
453.97	6223.48
454.15	6202.42
454.34	6291.36
454.52	6438.81
454.70	6392.00
454.89	6612.01
455.07	6387.32
455.26	6511.37
455.44	6581.59
455.62	6616.69
455.81	6670.53
455.99	6815.64
456.17	6502.01
456.36	6623.72
456.54	6544.14
456.73	6626.06
456.91	7028.63
457.09	6974.80
457.28	6862.45
457.46	6864.79
457.64	7009.90
457.83	7063.74
458.01	7026.29
458.19	7101.19
458.38	7002.88
458.56	7129.27
458.74	7250.98
458.93	7143.32
459.11	7159.70
459.29	7061.40
459.48	7360.98
459.66	7098.84
459.84	7201.83
460.03	7255.66
460.21	7215.87
460.39	7379.71
460.57	7424.18
460.76	7414.82
460.94	7368.01
461.12	7316.51
461.31	7503.76
461.49	7396.09
461.67	7417.16
461.85	7410.14
462.04	7559.93
462.22	7906.33
462.40	7609.08
462.59	7588.02
462.77	7791.64
462.95	7660.57
463.13	7524.82
463.32	7730.79
463.50	7719.09
463.68	7810.37
463.86	7730.79
464.05	7777.60
464.23	7779.94
464.41	8128.68
464.59	7627.81
464.78	7941.44
464.96	8051.44
465.14	8114.64
465.32	7906.33
465.50	8147.40
465.69	8018.68
465.87	8058.46
466.05	8081.87
466.23	7852.50
466.41	8016.33
466.60	8177.83
466.78	8025.70
466.96	8156.77
467.14	8107.62
467.32	8077.19
467.51	8241.03
467.69	8156.77
467.87	8124.00
468.05	8320.60
468.23	8325.29
468.41	8217.62
468.60	8248.05
468.78	8313.58
468.96	8334.65
469.14	8585.08
469.32	8470.40
469.50	8325.29
469.69	8540.61
469.87	8514.87
470.05	8650.62
470.23	8510.19
470.41	8442.31
470.59	8758.28
470.77	8594.45
470.95	8692.75
471.14	8959.57
471.32	8613.17
471.50	8769.99
471.68	9036.81
471.86	8980.64
472.04	9034.47
472.22	9301.29
472.40	8791.05
472.58	9067.24
472.77	9179.58
472.95	9205.33
473.13	9441.72
473.31	9092.98
473.49	9092.98
473.67	9104.68
473.85	9294.27
474.03	9469.81
474.21	9542.36
474.39	9579.81
474.57	9458.10
474.75	9755.35
474.93	9748.33
475.12	9731.95
475.30	10003.45
475.48	9699.18
475.66	9970.68
475.84	9710.88
476.02	9973.02
476.20	9998.77
476.38	10186.01
476.56	10188.35
476.74	10076.01
476.92	10204.74
477.10	10396.66
477.28	10415.38
477.46	10420.06
477.64	10616.67
477.82	10881.15
478.00	10967.75
478.18	11307.13
478.36	11026.26
478.54	10817.96
478.72	11075.42
478.90	11089.46
479.08	11384.37
479.26	11494.37
479.44	11281.38
479.62	11646.51
479.80	11604.38
479.98	11822.05
480.16	12037.38
480.34	12065.46
480.52	11906.31
480.70	12107.59
480.88	11981.20
481.06	12093.55
481.24	12051.42
481.41	12428.24
481.59	12690.38
481.77	12517.18
481.95	12423.56
482.13	12699.75
482.31	12592.08
482.49	12987.63
482.67	12912.74
482.85	13160.83
483.03	13357.44
483.21	13437.02
483.39	13184.24
483.57	13509.57
483.74	13699.16
483.92	13804.48
484.10	13657.03
484.28	13788.10
484.46	14380.25
484.64	14197.69
484.82	14038.53
485.00	14464.51
485.18	14520.68
485.35	14813.25
485.53	14581.54
485.71	14593.24
485.89	15105.82
486.07	14635.37
486.25	14899.85
486.43	14951.34
486.61	15295.40
486.78	15300.08
486.96	15131.56
487.14	15910.96
487.32	15602.01
487.50	15829.04
487.68	15833.72
487.85	16365.03
488.03	16203.53
488.21	16386.09
488.39	16145.02
488.57	16545.25
488.75	16648.23
488.92	16877.60
489.10	16844.84
489.28	17092.93
489.46	17317.62
489.64	17273.15
489.81	17467.42
489.99	17488.48
490.17	17635.94
490.35	18211.71
490.53	17844.24
490.70	17834.88
490.88	18155.54
491.06	18338.10
491.24	18452.78
491.41	18492.57
491.59	18520.66
491.77	18602.58
491.95	18768.76
492.13	19190.05
492.30	18904.51
492.48	19037.92
492.66	19168.99
492.84	19559.86
493.01	19211.12
493.19	19513.05
493.37	19583.26
493.54	19707.31
493.72	19866.47
493.90	20243.29
494.08	20257.34
494.25	20360.32
494.43	20467.98
494.61	20575.65
494.79	20697.36
494.96	20460.96
495.14	20683.31
495.32	21156.10
495.49	20971.20
495.67	21319.94
495.85	21174.83
496.02	21481.44
496.20	21502.50
496.38	21727.19
496.55	21813.79
496.73	22305.31
496.91	21977.63
497.09	22136.79
497.26	22562.76
497.44	22185.94
497.62	22228.07
497.79	22471.48
497.97	22010.40
498.14	22789.80
498.32	22675.11
498.50	22752.35
498.67	23110.45
498.85	23030.87
499.03	23337.48
499.20	23321.10
499.38	23648.77
499.56	23363.23
499.73	23592.60
499.91	23803.25
500.08	23653.45
500.26	23545.79
500.44	23843.04
500.61	23885.17
500.79	24112.20
500.97	24238.59
501.14	24107.52
501.32	24257.31
501.49	24334.55
501.67	24449.24
501.84	24451.58
502.02	24615.41
502.20	24601.37
502.37	24765.21
502.55	25010.96
502.72	25209.91
502.90	25097.56
503.07	25268.42
503.25	25156.08
503.43	25060.12
503.60	25280.13
503.78	25439.28
503.95	25680.36
504.13	25490.77
504.30	25848.88
504.48	25577.37
504.65	25858.24
504.83	25874.62
505.01	26202.30
505.18	25954.20
505.36	26441.03
505.53	26221.02
505.71	26738.28
505.88	26469.12
506.06	26361.45
506.23	26738.28
506.41	26487.84
506.58	26356.77
506.76	27314.05
506.93	27054.25
507.11	26822.54
507.28	27051.91
507.46	27108.08
507.63	26693.81
507.81	27239.15
507.98	27150.21
508.16	27470.87
508.33	27723.65
508.50	27442.78
508.68	27461.51
508.85	28121.54
509.03	27735.35
509.20	27779.82
509.38	28187.07
509.55	28451.55
509.73	28063.02
509.90	28027.92
510.08	28149.62
510.25	28034.94
510.42	28613.05
510.60	28334.53
510.77	28744.12
510.95	28926.68
511.12	28624.75
511.30	29003.92
511.47	28973.49
511.64	28821.36
511.82	29219.25
511.99	28914.98
512.17	29153.71
512.34	29268.40
512.51	29362.02
512.69	29804.38
512.86	29542.24
513.04	29933.11
513.21	29708.42
513.38	29795.02
513.56	29806.72
513.73	29682.67
513.90	30054.82
514.08	30040.78
514.25	30047.80
514.43	29790.34
514.60	30118.01
514.77	30132.06
514.95	30267.81
515.12	30529.95
515.29	30342.70
515.47	30663.36
515.64	30869.33
515.81	30352.07
515.99	30642.29
516.16	30422.28
516.33	31058.91
516.51	30974.65
516.68	30986.35
516.85	30899.75
517.03	31061.25
517.20	30824.86
517.37	31218.07
517.54	31171.25
517.72	31009.76
517.89	31091.68
518.06	31681.49
518.24	31075.29
518.41	31435.74
518.58	31573.83
518.75	31304.67
518.93	31435.74
519.10	32121.51
519.27	32107.47
519.45	31941.29
519.62	32048.96
519.79	32271.31
519.96	32091.09
520.14	32320.46
520.31	31974.06
520.48	32608.34
520.65	32620.05
520.83	32538.13
521.00	33247.31
521.17	32659.84
521.34	32732.39
521.52	32807.29
521.69	32629.41
521.86	32905.59
522.03	33041.34
522.20	33041.34
522.38	33156.03
522.55	33460.30
522.72	33481.36
522.89	33436.89
523.07	33542.22
523.24	33294.12
523.41	33532.86
523.58	33392.42
523.75	33820.74
523.92	33755.21
524.10	33874.57
524.27	33802.02
524.44	34036.07
524.61	33926.07
524.78	34218.63
524.96	34316.93
525.13	34244.38
525.30	34703.12
525.47	34850.58
525.64	34548.65
525.81	34646.95
525.98	34202.25
526.16	34478.43
526.33	34579.07
526.50	34707.80
526.67	34380.13
526.84	34403.53
527.01	34375.45
527.18	35101.01
527.36	35005.05
527.53	34803.77
527.70	35725.94
527.87	35175.91
528.04	35187.61
528.21	35250.81
528.38	35159.53
528.55	35227.40
528.72	35768.07
528.89	35351.45
529.07	35501.25
529.24	35388.90
529.41	35452.09
529.58	35501.25
529.75	35529.33
529.92	35803.17
530.09	35826.58
530.26	35866.37
530.43	36062.97
530.60	36023.19
530.77	36011.48
530.94	36180.00
531.11	36095.74
531.28	36472.57
531.46	36453.84
531.63	36402.35
531.80	36378.95
531.97	36488.95
532.14	36708.96
532.31	36673.85
532.48	36329.80
532.65	36727.69
532.82	36510.02
532.99	36950.04
533.16	36718.32
533.33	36407.03
533.50	36713.64
533.67	37347.93
533.84	36781.52
534.01	36723.01
534.18	36999.19
534.35	37116.22
534.52	37476.66
534.69	37373.67
534.86	37333.89
535.03	37333.89
535.20	37530.49
535.37	37455.59
535.54	37532.83
535.71	37413.46
535.88	37493.04
536.05	37640.50
536.22	37525.81
536.38	37457.93
536.55	37507.08
536.72	37951.79
536.89	37481.34
537.06	37095.15
537.23	37958.81
537.40	38052.43
537.57	37886.25
537.74	38129.67
537.91	38319.25
538.08	38298.19
538.25	37801.99
538.42	38124.99
538.59	38232.65
538.75	37734.12
538.92	37600.71
539.09	38424.57
539.26	38431.60
539.43	38483.09
539.60	38726.50
539.77	38422.23
539.94	38653.95
540.11	38375.42
540.28	38424.57
540.44	38506.49
540.61	38576.71
540.78	38162.43
540.95	39093.97
541.12	38700.76
541.29	38813.10
541.46	38473.73
541.62	38340.32
541.79	38864.60
541.96	39147.80
542.13	39133.76
542.30	39246.10
542.47	39229.72
542.63	38742.89
542.80	38850.55
542.97	39147.80
543.14	39435.69
543.31	39852.30
543.48	39873.37
543.64	39966.99
543.81	39707.19
543.98	40137.85
544.15	39423.98
544.32	39772.72
544.48	39924.86
544.65	40137.85
544.82	39641.65
544.99	39583.14
545.16	39880.39
545.32	39660.38
545.49	40259.55
545.66	39983.37
545.83	40222.11
546.00	40341.47
546.16	40179.98
546.33	40456.16
546.50	39496.54
546.67	39913.16
546.83	39669.74
547.00	39929.54
547.17	40266.58
547.34	40517.01
547.50	40334.45
547.67	40570.85
547.84	40676.17
548.00	40577.87
548.17	40786.18
548.34	40514.67
548.51	40985.12
548.67	40608.29
548.84	40760.43
549.01	40767.45
549.18	40477.22
549.34	40783.83
549.51	41029.59
549.68	41352.58
549.84	41319.82
550.01	41378.33
550.18	40900.86
550.34	40884.48
550.51	41230.88
550.68	41076.40
550.84	40596.59
551.01	41254.28
551.18	41429.82
551.34	40840.01
551.51	41303.43
551.68	40868.09
551.84	41357.27
552.01	41523.44
552.18	41605.36
552.34	41078.74
552.51	41553.87
552.68	41322.16
552.84	41478.97
553.01	41759.84
553.18	41572.60
553.34	41619.41
553.51	41326.84
553.67	41516.42
553.84	42291.14
554.01	41874.52
554.17	41738.77
554.34	41593.66
554.51	41837.08
554.67	42115.60
554.84	42302.84
555.00	41752.82
555.17	41914.31
555.33	41956.44
555.50	42085.17
555.67	42124.96
555.83	41989.21
556.00	41986.87
556.16	42698.39
556.33	42513.49
556.50	41949.42
556.66	42122.62
556.83	41918.99
556.99	42529.87
557.16	42307.52
557.32	41895.59
557.49	42415.19
557.65	41989.21
557.82	42155.39
557.98	42525.19
558.15	42190.50
558.32	42719.46
558.48	42253.69
558.65	42373.06
558.81	42129.64
558.98	42550.94
559.14	42293.48
559.31	42094.53
559.47	42665.63
559.64	42979.26
559.80	42923.08
559.97	42632.86
560.13	42604.77
560.30	43012.02
560.46	42974.58
560.63	42581.37
560.79	42848.19
560.96	42944.15
561.12	43208.63
561.29	43086.92
561.45	42618.81
561.61	42834.14
561.78	43178.20
561.94	42291.14
562.11	43072.88
562.27	43007.34
562.44	42902.02
562.60	43168.84
562.77	43456.73
562.93	42747.54
563.10	43077.56
563.26	43105.65
563.42	43388.85
563.59	42822.44
563.75	43058.84
563.92	42983.94
564.08	43540.99
564.24	43157.14
564.41	42806.06
564.57	43346.72
564.74	42724.14
564.90	43473.11
565.07	43260.12
565.23	43454.39
565.39	42955.85
565.56	43629.93
565.72	42995.64
565.88	43384.17
566.05	43196.93
566.21	43077.56
566.38	43288.21
566.54	43187.56
566.70	43496.52
566.87	43405.23
567.03	43281.19
567.19	43737.59
567.36	43597.16
567.52	43510.56
567.68	43674.40
567.85	43091.60
568.01	43468.43
568.17	43253.10
568.34	43477.79
568.50	43154.80
568.66	43208.63
568.83	43686.10
568.99	43159.48
569.15	42707.76
569.32	43484.81
569.48	42930.11
569.64	43847.60
569.81	43435.66
569.97	43920.15
570.13	43636.95
570.30	43253.10
570.46	43447.36
570.62	43344.38
570.78	43203.95
570.95	43400.55
571.11	43608.86
571.27	43564.39
571.43	43454.39
571.60	43690.78
571.76	43295.23
571.92	43473.11
572.09	43540.99
572.25	43665.03
572.41	43388.85
572.57	43763.34
572.74	44168.25
572.90	43636.95
573.06	43367.79
573.22	43772.70
573.38	43716.53
573.55	43323.32
573.71	43510.56
573.87	43742.27
574.03	43391.19
574.20	43945.90
574.36	43489.49
574.52	43641.63
574.68	43543.33
574.84	44067.61
575.01	43480.13
575.17	43775.04
575.33	43878.02
575.49	44140.16
575.65	44545.08
575.82	43964.62
575.98	43597.16
576.14	44229.10
576.30	43800.79
576.46	43711.84
576.62	43578.43
576.79	43894.41
576.95	43484.81
577.11	43536.30
577.27	43927.17
577.43	43810.15
577.59	44074.63
577.75	43772.70
577.92	43288.21
578.08	43875.68
578.24	43597.16
578.40	43828.87
578.56	43882.70
578.72	43826.53
578.88	43962.28
579.04	43711.84
579.21	43983.35
579.37	43756.32
579.53	43983.35
579.69	43746.95
579.85	43643.97
580.01	44137.82
580.17	43889.73
580.33	44123.78
580.49	44051.22
580.65	43744.61
580.82	43929.51
580.98	44196.34
581.14	43835.89
581.30	43927.17
581.46	43828.87
581.62	44074.63
581.78	43917.81
581.94	44004.41
582.10	44093.35
582.26	43728.23
582.42	43943.56
582.58	44355.49
582.74	43662.69
582.90	44027.82
583.06	44172.93
583.22	44030.16
583.38	44041.86
583.54	44065.27
583.70	43775.04
583.86	43484.81
584.02	43391.19
584.18	43973.98
584.34	44095.69
584.50	44119.10
584.66	44121.44
584.82	43821.85
584.98	44114.42
585.14	44250.17
585.30	43875.68
585.46	43814.83
585.62	43753.97
585.78	43571.41
585.94	43908.45
586.10	43845.26
586.26	43805.47
586.42	44177.61
586.58	44388.26
586.74	44006.75
586.90	43807.81
587.06	44030.16
587.22	44151.87
587.38	44011.43
587.54	44474.86
587.70	43735.25
587.86	44381.24
588.02	43714.19
588.18	44025.48
588.34	44175.27
588.49	43817.17
588.65	44067.61
588.81	44093.35
588.97	43658.01
589.13	43283.53
589.29	44154.21
589.45	44091.01
589.61	43840.57
589.77	44493.58
589.93	44626.99
590.08	44545.08
590.24	44622.31
590.40	44414.01
