SpectraSuite Data File
++++++++++++++++++++++++++++++++++++
Date: Fri Oct 25 10:47:28 EDT 2013
User: price-jones
Dark Spectrum Present: No
Reference Spectrum Present: No
Number of Sampled Component Spectra: 1
Spectrometers: USB2+H05261
Integration Time (usec): 100000 (USB2+H05261)
Spectra Averaged: 1 (USB2+H05261)
Boxcar Smoothing: 0 (USB2+H05261)
Correct for Electrical Dark: No (USB2+H05261)
Strobe/Lamp Enabled: No (USB2+H05261)
Correct for Detector Non-linearity: No (USB2+H05261)
Correct for Stray Light: No (USB2+H05261)
Number of Pixels in Processed Spectrum: 2048
>>>>>Begin Processed Spectral Data<<<<<
365.73	175.54
365.92	175.54
366.12	175.54
366.32	70.22
366.52	46.81
366.72	102.98
366.91	74.90
367.11	32.77
367.31	30.43
367.51	65.54
367.70	70.22
367.90	119.37
368.10	0.00
368.30	51.49
368.49	65.54
368.69	58.51
368.89	58.51
369.09	95.96
369.28	49.15
369.48	16.38
369.68	93.62
369.87	149.79
370.07	18.72
370.27	145.11
370.47	152.13
370.66	327.68
370.86	381.51
371.06	416.62
371.25	482.15
371.45	440.02
371.65	500.87
371.84	454.06
372.04	456.40
372.24	454.06
372.44	369.80
372.63	489.17
372.83	498.53
373.03	482.15
373.22	496.19
373.42	510.24
373.62	507.90
373.81	500.87
374.01	528.96
374.21	444.70
374.40	587.47
374.60	552.37
374.79	543.00
374.99	468.11
375.19	578.11
375.38	510.24
375.58	526.62
375.78	634.29
375.97	573.43
376.17	620.24
376.37	566.41
376.56	610.88
376.76	585.13
376.95	578.11
377.15	613.22
377.35	575.77
377.54	613.22
377.74	582.79
377.93	617.90
378.13	596.84
378.33	650.67
378.52	613.22
378.72	540.66
378.91	725.57
379.11	622.58
379.31	582.79
379.50	603.86
379.70	615.56
379.89	603.86
380.09	653.01
380.28	676.41
380.48	704.50
380.68	613.22
380.87	620.24
381.07	667.05
381.26	603.86
381.46	653.01
381.65	634.29
381.85	664.71
382.04	671.73
382.24	688.12
382.43	716.20
382.63	608.54
382.83	690.46
383.02	653.01
383.22	746.63
383.41	615.56
383.61	791.10
383.80	758.33
384.00	629.60
384.19	709.18
384.39	660.03
384.58	737.27
384.78	751.31
384.97	718.54
385.17	765.36
385.36	730.25
385.56	725.57
385.75	692.80
385.95	793.44
386.14	861.32
386.34	758.33
386.53	905.79
386.72	744.29
386.92	844.93
387.11	802.80
387.31	753.65
387.50	739.61
387.70	667.05
387.89	847.27
388.09	770.04
388.28	814.51
388.48	793.44
388.67	828.55
388.86	875.36
389.06	910.47
389.25	786.42
389.45	767.70
389.64	901.11
389.84	931.53
390.03	938.55
390.22	940.90
390.42	842.59
390.61	828.55
390.81	903.45
391.00	791.10
391.19	887.06
391.39	940.90
391.58	887.06
391.78	875.36
391.97	999.41
392.16	880.04
392.36	999.41
392.55	992.39
392.75	901.11
392.94	837.91
393.13	978.34
393.33	898.77
393.52	957.28
393.71	990.05
393.91	1008.77
394.10	933.87
394.29	1041.54
394.49	1020.47
394.68	1165.59
394.88	1074.31
395.07	1123.46
395.26	1029.84
395.46	1057.92
395.65	1055.58
395.84	1191.33
396.04	1156.22
396.23	1163.25
396.42	1004.09
396.62	1036.86
396.81	1116.44
397.00	1074.31
397.19	1165.59
397.39	1144.52
397.58	1191.33
397.77	1144.52
397.97	1238.14
398.16	1217.08
398.35	1296.66
398.55	1231.12
398.74	1306.02
398.93	1343.47
399.12	1270.91
399.32	1313.04
399.51	1247.51
399.70	1299.00
399.90	1327.08
400.09	1355.17
400.28	1249.85
400.47	1364.53
400.67	1481.56
400.86	1331.76
401.05	1423.05
401.24	1406.66
401.44	1310.70
401.63	1446.45
401.82	1462.83
402.01	1488.58
402.21	1502.62
402.40	1497.94
402.59	1540.07
402.78	1481.56
402.97	1486.24
403.17	1612.63
403.36	1533.05
403.55	1519.01
403.74	1514.33
403.93	1561.14
404.13	1654.76
404.32	1497.94
404.51	1605.61
404.70	1671.14
404.89	1624.33
405.09	1643.06
405.28	1661.78
405.47	1612.63
405.66	1645.40
405.85	1736.68
406.05	1668.80
406.24	1720.29
406.43	1689.87
406.62	1739.02
406.81	1764.76
407.00	1753.06
407.20	1724.97
407.39	1732.00
407.58	1827.96
407.77	1856.04
407.96	1853.70
408.15	1774.13
408.34	1879.45
408.54	1863.07
408.73	1898.17
408.92	1987.11
409.11	2045.63
409.30	1980.09
409.49	1952.01
409.68	2008.18
409.87	1954.35
410.07	1973.07
410.26	2024.56
410.45	2090.10
410.64	2054.99
410.83	2202.44
411.02	2162.66
411.21	2080.74
411.40	2209.47
411.59	2244.57
411.78	2214.15
411.98	2223.51
412.17	2272.66
412.36	2249.25
412.55	2359.26
412.74	2345.22
412.93	2321.81
413.12	2333.51
413.31	2511.39
413.50	2338.20
413.69	2406.07
413.88	2410.75
414.07	2457.56
414.26	2537.14
414.45	2537.14
414.64	2574.59
414.83	2684.59
415.02	2581.61
415.22	2684.59
415.41	2719.70
415.60	2579.27
415.79	2717.36
415.98	2822.69
416.17	2883.54
416.36	2801.62
416.55	2750.13
416.74	2750.13
416.93	2693.96
417.12	2750.13
417.31	2923.33
417.50	2918.65
417.69	3056.74
417.88	3063.76
418.07	2857.79
418.26	3021.63
418.45	2839.07
418.64	3019.29
418.83	3164.40
419.02	3110.57
419.21	3103.55
419.39	3152.70
419.58	3047.38
419.77	2956.10
419.96	3276.75
420.15	3225.26
420.34	3232.28
420.53	3220.58
420.72	3241.64
420.91	3321.22
421.10	3206.53
421.29	3361.01
421.48	3267.39
421.67	3363.35
421.86	3337.60
422.05	3318.88
422.24	3417.18
422.43	3262.71
422.61	3213.56
422.80	3428.88
422.99	3353.99
423.18	3370.37
423.37	3496.76
423.56	3368.03
423.75	3466.33
423.94	3342.28
424.13	3197.17
424.32	3258.03
424.50	3471.01
424.69	3487.40
424.88	3461.65
425.07	3508.46
425.26	3496.76
425.45	3475.70
425.64	3330.58
425.83	3445.27
426.01	3599.74
426.20	3485.06
426.39	3524.85
426.58	3562.30
426.77	3529.53
426.96	3538.89
427.15	3574.00
427.33	3480.38
427.52	3508.46
427.71	3648.90
427.90	3559.95
428.09	3679.32
428.28	3777.62
428.46	3712.09
428.65	3662.94
428.84	3810.39
429.03	3691.02
429.22	3632.51
429.40	3676.98
429.59	3768.26
429.78	3698.05
429.97	3684.00
430.16	3693.37
430.34	3744.86
430.53	3709.75
430.72	3782.31
430.91	3927.42
431.10	3822.09
431.28	3953.16
431.47	3976.57
431.66	3955.51
431.85	4058.49
432.03	3957.85
432.22	4018.70
432.41	3927.42
432.60	4109.98
432.79	4100.62
432.97	4081.89
433.16	4114.66
433.35	4021.04
433.54	4093.60
433.72	4124.02
433.91	4154.45
434.10	4093.60
434.28	4276.16
434.47	4201.26
434.66	4318.29
434.85	4285.52
435.03	4655.33
435.22	4269.14
435.41	4418.93
435.59	4390.84
435.78	4461.06
435.97	4395.53
436.16	4498.51
436.34	4428.29
436.53	4425.95
436.72	4472.76
436.90	4383.82
437.09	4468.08
437.28	4458.72
437.46	4526.60
437.65	4587.45
437.84	4709.16
438.02	4573.41
438.21	4594.47
438.40	4573.41
438.58	4760.65
438.77	4746.61
438.96	4798.10
439.14	4901.08
439.33	4709.16
439.52	4901.08
439.70	4971.30
439.89	4954.91
440.08	5022.79
440.26	4880.02
440.45	5013.43
440.63	5090.67
440.82	5277.91
441.01	5165.56
441.19	5198.33
441.38	5305.99
441.57	5284.93
441.75	5200.67
441.94	5427.70
442.12	5521.32
442.31	5418.34
442.50	5432.38
442.68	5575.16
442.87	5626.65
443.05	5500.26
443.24	5645.37
443.43	5687.50
443.61	5640.69
443.80	5860.70
443.98	5572.82
444.17	5497.92
444.35	5767.08
444.54	5685.16
444.73	5713.25
444.91	5731.97
445.10	5776.44
445.28	5579.84
445.47	5724.95
445.65	5621.97
445.84	5720.27
446.02	5727.29
446.21	5657.07
446.39	5806.87
446.58	5956.66
446.77	5788.14
446.95	5652.39
447.14	5717.93
447.32	5956.66
447.51	5795.17
447.69	5640.69
447.88	5783.46
448.06	5816.23
448.25	5846.66
448.43	5778.78
448.62	5949.64
448.80	5959.00
448.99	5816.23
449.17	6010.50
449.36	5907.51
449.54	6059.65
449.73	5996.45
449.91	6160.29
450.10	6076.03
450.28	6469.24
450.46	6207.10
450.65	6083.05
450.83	6195.40
451.02	6256.25
451.20	6239.87
451.39	6125.18
451.57	6335.83
451.76	6244.55
451.94	6282.00
452.13	6450.52
452.31	6258.59
452.49	6310.08
452.68	6223.48
452.86	6384.98
453.05	6494.99
453.23	6380.30
453.42	6436.47
453.60	6244.55
453.78	6406.05
453.97	6319.45
454.15	6448.18
454.34	6420.09
454.52	6544.14
454.70	6525.41
454.89	6619.04
455.07	6724.36
455.26	6541.80
455.44	6740.74
455.62	6848.41
455.81	6707.98
455.99	6658.82
456.17	6565.20
456.36	6799.26
456.54	6911.60
456.73	6930.33
456.91	7136.29
457.09	7143.32
457.28	7096.50
457.46	6984.16
457.64	7190.13
457.83	6892.88
458.01	7014.59
458.19	7222.89
458.38	7087.14
458.56	7239.28
458.74	7377.37
458.93	7204.17
459.11	7162.04
459.29	7269.70
459.48	7412.48
459.66	7382.05
459.84	7286.09
460.03	7541.21
460.21	7412.48
460.39	7529.50
460.57	7480.35
460.76	7531.84
460.94	7452.27
461.12	7641.85
461.31	7508.44
461.49	7426.52
461.67	7452.27
461.85	7688.66
462.04	7662.91
462.22	8088.89
462.40	7665.25
462.59	7707.38
462.77	7864.20
462.95	7964.84
463.13	7719.09
463.32	7808.03
463.50	8002.29
463.68	7906.33
463.86	7833.77
464.05	7852.50
464.23	7590.36
464.41	8156.77
464.59	7920.37
464.78	8252.73
464.96	8053.78
465.14	7887.61
465.32	8098.25
465.50	8119.32
465.69	7974.21
465.87	8105.28
466.05	8028.04
466.23	8067.83
466.41	8205.92
466.60	8226.98
466.78	7990.59
466.96	8191.88
467.14	8259.75
467.32	8430.61
467.51	8180.17
467.69	8269.11
467.87	8100.59
468.05	8521.89
468.23	8325.29
468.41	8072.51
468.60	8449.33
468.78	8367.42
468.96	8468.06
469.14	8599.13
469.32	8622.53
469.50	8617.85
469.69	8720.84
469.87	8648.28
470.05	8627.21
470.23	8575.72
470.41	8542.96
470.59	8809.78
470.77	8760.63
470.95	8723.18
471.14	8800.41
471.32	8709.13
471.50	8985.32
471.68	8905.74
471.86	8961.91
472.04	9158.52
472.22	9259.16
472.40	8987.66
472.58	9317.67
472.77	9273.20
472.95	9320.01
473.13	9458.10
473.31	9446.40
473.49	9039.15
473.67	9315.33
473.85	9518.96
474.03	9558.75
474.21	9778.76
474.39	10024.51
474.57	9804.50
474.75	9848.97
474.93	9867.70
475.12	9851.31
475.30	9818.55
475.48	9926.21
475.66	9923.87
475.84	10008.13
476.02	10111.11
476.20	10111.11
476.38	10422.41
476.56	10506.66
476.74	10520.71
476.92	10321.76
477.10	10658.80
477.28	10583.90
477.46	10595.61
477.64	10801.57
477.82	10846.04
478.00	10953.71
478.18	11176.06
478.36	11239.25
478.54	11101.16
478.72	11257.98
478.90	11302.45
479.08	11655.87
479.26	11751.83
479.44	11627.78
479.62	11616.08
479.80	11854.81
479.98	11997.59
480.16	12079.50
480.34	11910.99
480.52	12226.96
480.70	12451.65
480.88	12159.08
481.06	12231.64
481.24	12446.97
481.41	12498.46
481.59	12709.11
481.77	12903.37
481.95	12837.84
482.13	12828.48
482.31	13053.17
482.49	13238.07
482.67	13156.15
482.85	13224.03
483.03	13376.16
483.21	13631.28
483.39	13411.27
483.57	13689.79
483.74	13668.73
483.92	13947.25
484.10	13760.01
484.28	14045.55
484.46	14384.93
484.64	14567.49
484.82	14064.28
485.00	14319.40
485.18	14705.59
485.35	14740.69
485.53	14743.03
485.71	14775.80
485.89	14862.40
486.07	14829.63
486.25	14925.60
486.43	15302.42
486.61	15506.05
486.78	15576.27
486.96	15566.90
487.14	15908.62
487.32	15840.75
487.50	15826.70
487.68	16243.32
487.85	16395.45
488.03	16594.40
488.21	16479.71
488.39	16744.19
488.57	17057.82
488.75	16898.67
488.92	16910.37
489.10	17268.47
489.28	17261.45
489.46	17364.43
489.64	17806.80
489.81	18239.79
489.99	17905.10
490.17	18015.10
490.35	18422.36
490.53	18120.43
490.70	18389.59
490.88	18382.57
491.06	18412.99
491.24	18707.90
491.41	18752.37
491.59	18911.53
491.77	18792.16
491.95	18773.44
492.13	18881.10
492.30	19290.70
492.48	19323.46
492.66	19569.22
492.84	19651.14
493.01	19726.04
493.19	19850.08
493.37	20042.01
493.54	19880.51
493.72	20336.91
493.90	20152.01
494.08	20561.61
494.25	20589.69
494.43	21104.61
494.61	21053.12
494.79	21097.59
494.96	20903.32
495.14	20812.04
495.32	21394.84
495.49	21184.19
495.67	21261.43
495.85	21902.73
496.02	21535.27
496.20	21525.91
496.38	21668.68
496.55	21893.37
496.73	22239.77
496.91	22094.66
497.09	22214.02
497.26	22817.88
497.44	22417.65
497.62	22768.73
497.79	22728.94
497.97	22778.09
498.14	23000.44
498.32	23168.96
498.50	23180.67
498.67	23323.44
498.85	23384.29
499.03	23917.93
499.20	23374.93
499.38	23487.28
499.56	23868.78
499.73	24041.98
499.91	23988.15
500.08	24100.50
500.26	23637.07
500.44	24594.35
500.61	24240.93
500.79	24442.21
500.97	24357.96
501.14	24793.29
501.32	24584.99
501.49	24713.72
501.67	24638.82
501.84	24592.01
502.02	24931.39
502.20	25060.12
502.37	24893.94
502.55	25193.53
502.72	25378.43
502.90	24938.41
503.07	24929.05
503.25	25319.92
503.43	25792.70
503.60	26080.59
503.78	25579.71
503.95	25883.98
504.13	26059.52
504.30	25813.77
504.48	25699.08
504.65	26160.17
504.83	26347.41
505.01	26525.29
505.18	26373.16
505.36	26977.01
505.53	26583.80
505.71	26700.83
505.88	26831.90
506.06	26672.74
506.23	26977.01
506.41	26735.94
506.58	26747.64
506.76	27105.74
506.93	27459.16
507.11	27473.21
507.28	27325.75
507.46	27379.59
507.63	27246.18
507.81	27562.15
507.98	27576.19
508.16	27721.30
508.33	27728.33
508.50	27658.11
508.68	27985.79
508.85	28287.71
509.03	28074.73
509.20	28034.94
509.38	28678.58
509.55	28517.09
509.73	28510.07
509.90	28524.11
510.08	28430.49
510.25	28709.01
510.42	28659.86
510.60	28587.30
510.77	28723.05
510.95	29607.78
511.12	29024.98
511.30	29177.12
511.47	29275.42
511.64	29397.13
511.82	29567.99
511.99	29633.52
512.17	29633.52
512.34	29422.87
512.51	29996.31
512.69	29567.99
512.86	29855.87
513.04	30010.35
513.21	29844.17
513.38	29926.09
513.56	30099.29
513.73	30080.56
513.90	30253.76
514.08	29820.77
514.25	30422.28
514.43	30490.16
514.60	30834.22
514.77	30628.25
514.95	30759.32
515.12	31023.80
515.29	30567.40
515.47	31260.20
515.64	30984.01
515.81	30738.26
515.99	31178.28
516.16	31243.81
516.33	31068.27
516.51	31583.19
516.68	31232.11
516.85	31094.02
517.03	30976.99
517.20	31290.62
517.37	31709.58
517.54	31587.87
517.72	31728.30
517.89	31920.23
518.06	31967.04
518.24	31594.89
518.41	31592.55
518.58	31538.72
518.75	32112.15
518.93	32294.71
519.10	32243.22
519.27	32292.37
519.45	32102.79
519.62	32016.19
519.79	32664.52
519.96	32643.45
520.14	32645.79
520.31	32259.60
520.48	32711.33
520.65	32400.04
520.83	33188.80
521.00	33027.30
521.17	33092.83
521.34	32900.91
521.52	33078.79
521.69	33057.73
521.86	33296.46
522.03	33532.86
522.20	33120.92
522.38	33479.02
522.55	33729.46
522.72	33495.41
522.89	33787.97
523.07	33883.94
523.24	33532.86
523.41	33818.40
523.58	33727.12
523.75	34223.31
523.92	34373.11
524.10	34204.59
524.27	34227.99
524.44	34476.09
524.61	34684.40
524.78	34281.83
524.96	35014.41
525.13	34745.25
525.30	34925.47
525.47	35171.23
525.64	34632.91
525.81	35138.46
525.98	34717.17
526.16	34993.35
526.33	34534.60
526.50	34705.46
526.67	34897.39
526.84	35051.86
527.01	34726.53
527.18	35297.62
527.36	35234.42
527.53	35456.78
527.70	35810.20
527.87	35526.99
528.04	35470.82
528.21	35618.27
528.38	35199.32
528.55	35625.29
528.72	35735.30
528.89	35931.90
529.07	35831.26
529.24	35445.07
529.41	36147.23
529.58	35756.36
529.75	35868.71
529.92	36297.03
530.09	35864.03
530.26	36392.99
530.43	36484.27
530.60	36116.81
530.77	36077.02
530.94	36353.20
531.11	36243.20
531.28	36423.42
531.46	36863.44
531.63	36734.71
531.80	36409.37
531.97	36573.21
532.14	36556.83
532.31	36631.72
532.48	37069.40
532.65	37177.07
532.82	36774.50
532.99	37160.69
533.16	36528.74
533.33	36861.10
533.50	37392.40
533.67	37345.59
533.84	36973.44
534.01	37261.33
534.18	37160.69
534.35	37450.91
534.52	37331.54
534.69	37713.05
534.86	37523.47
535.03	37574.96
535.20	37766.88
535.37	37605.39
535.54	37642.84
535.71	37497.72
535.88	38160.09
536.05	37750.50
536.22	38066.47
536.38	37832.42
536.55	38061.79
536.72	37773.91
536.89	37670.92
537.06	37872.21
537.23	38380.10
537.40	38106.26
537.57	38188.18
537.74	38246.69
537.91	38384.79
538.08	38574.37
538.25	38546.28
538.42	38227.97
538.59	38859.91
538.75	38181.16
538.92	38763.95
539.09	38698.42
539.26	38595.43
539.43	38572.03
539.60	39147.80
539.77	38770.97
539.94	39119.71
540.11	39054.18
540.28	38838.85
540.44	38696.08
540.61	38703.10
540.78	38972.26
540.95	38899.70
541.12	38829.49
541.29	39075.24
541.46	38780.34
541.62	38792.04
541.79	39477.82
541.96	39501.22
542.13	39016.73
542.30	39005.03
542.47	39393.56
542.63	39232.06
542.80	39756.34
542.97	40140.19
543.14	39927.20
543.31	39367.81
543.48	39913.16
543.64	40463.18
543.81	40280.62
543.98	40231.47
544.15	39409.94
544.32	40245.51
544.48	40634.04
544.65	40051.25
544.82	39934.22
544.99	39962.31
545.16	39983.37
545.32	40257.21
545.49	40254.87
545.66	40423.39
545.83	40484.25
546.00	40893.84
546.16	40739.36
546.33	40201.04
546.50	40285.30
546.67	40570.85
546.83	40259.55
547.00	40257.21
547.17	40357.86
547.34	40566.16
547.50	40795.54
547.67	40889.16
547.84	40549.78
548.00	40694.89
548.17	40999.16
548.34	41153.64
548.51	40957.03
548.67	41191.09
548.84	41324.50
549.01	41015.55
549.18	40746.39
549.34	41326.84
549.51	41062.36
549.68	41446.21
549.84	41301.09
550.01	41708.35
550.18	40877.46
550.34	41095.13
550.51	41303.43
550.68	40884.48
550.84	41088.10
551.01	41249.60
551.18	41591.32
551.34	41270.67
551.51	41560.89
551.68	41806.65
551.84	41500.04
552.01	41727.07
552.18	41584.30
552.34	41514.08
552.51	41989.21
552.68	41577.28
552.84	41785.58
553.01	42134.32
553.18	41977.51
553.34	41839.42
553.51	41392.37
553.67	41556.21
553.84	42454.98
554.01	42309.86
554.17	42359.02
554.34	42337.95
554.51	42080.49
554.67	41844.10
554.84	42462.00
555.00	42223.26
555.17	41958.78
555.33	42213.90
555.50	42457.32
555.67	42298.16
555.83	42127.30
556.00	42574.34
556.16	42632.86
556.33	42962.87
556.50	42270.08
556.66	42770.95
556.83	42277.10
556.99	42911.38
557.16	42670.31
557.32	42761.59
557.49	42593.07
557.65	42579.03
557.82	42539.24
557.98	42270.08
558.15	42337.95
558.32	42944.15
558.48	42696.05
558.65	43136.07
558.81	42899.68
558.98	42766.27
559.14	43012.02
559.31	42927.77
559.47	42934.79
559.64	43124.37
559.80	42763.93
559.97	43201.61
560.13	42939.47
560.30	42464.34
560.46	43173.52
560.63	42756.91
560.79	43269.48
560.96	43054.15
561.12	43150.12
561.29	43206.29
561.45	43136.07
561.61	43063.52
561.78	43112.67
561.94	43007.34
562.11	43381.83
562.27	43145.44
562.44	42869.25
562.60	43196.93
562.77	43597.16
562.93	43185.22
563.10	43873.34
563.26	43000.32
563.42	43641.63
563.59	43281.19
563.75	43302.25
563.92	43557.37
564.08	43180.54
564.24	43854.62
564.41	43154.80
564.57	43180.54
564.74	43430.98
564.90	43761.00
565.07	43732.91
565.23	43569.07
565.39	43056.50
565.56	43573.75
565.72	43501.20
565.88	43379.49
566.05	43718.87
566.21	43505.88
566.38	43353.74
566.54	43667.37
566.70	43573.75
566.87	44041.86
567.03	43416.94
567.19	44105.06
567.36	43482.47
567.52	43782.06
567.68	43482.47
567.85	43681.42
568.01	43487.15
568.17	43782.06
568.34	44308.68
568.50	43594.82
568.66	43903.77
568.83	43782.06
568.99	43943.56
569.15	43452.05
569.32	43573.75
569.48	43285.87
569.64	43924.83
569.81	44002.07
569.97	43662.69
570.13	43920.15
570.30	43215.65
570.46	43861.64
570.62	43538.65
570.78	43714.19
570.95	43585.46
571.11	44154.21
571.27	43828.87
571.43	43878.02
571.60	44074.63
571.76	43569.07
571.92	43674.40
572.09	43782.06
572.25	43833.55
572.41	43896.75
572.57	44137.82
572.74	44154.21
572.90	43985.69
573.06	43536.30
573.22	43639.29
573.38	44294.64
573.55	43646.31
573.71	43999.73
573.87	43938.88
574.03	43821.85
574.20	43505.88
574.36	43690.78
574.52	44165.91
574.68	44212.72
574.84	43845.26
575.01	44032.50
575.17	44006.75
575.33	44016.11
575.49	43833.55
575.65	44645.72
575.82	44388.26
575.98	43728.23
576.14	43835.89
576.30	44011.43
576.46	43761.00
576.62	43913.13
576.79	44076.97
576.95	43557.37
577.11	44027.82
577.27	44495.92
577.43	44247.83
577.59	44128.46
577.75	44002.07
577.92	44161.23
578.08	43894.41
578.24	43927.17
578.40	43873.34
578.56	43842.92
578.72	43997.39
578.88	44797.85
579.04	44205.70
579.21	43775.04
579.37	44065.27
579.53	43632.27
579.69	43985.69
579.85	44201.02
580.01	44322.72
580.17	44194.00
580.33	44329.75
580.49	44119.10
580.65	44205.70
580.82	44217.40
580.98	43999.73
581.14	43732.91
581.30	44308.68
581.46	44114.42
581.62	44327.41
581.78	43964.62
581.94	44491.24
582.10	44229.10
582.26	44463.16
582.42	44133.14
582.58	43934.20
582.74	44343.79
582.90	44306.34
583.06	44516.99
583.22	44669.12
583.38	44612.95
583.54	44156.55
583.70	43477.79
583.86	43838.23
584.02	43824.19
584.18	44355.49
584.34	44100.37
584.50	44435.07
584.66	44252.51
584.82	43824.19
584.98	44659.76
585.14	43969.30
585.30	44151.87
585.46	44168.25
585.62	43819.51
585.78	44617.63
585.94	43697.80
586.10	43796.10
586.26	43945.90
586.42	44491.24
586.58	44392.94
586.74	44222.08
586.90	44025.48
587.06	44320.38
587.22	44177.61
587.38	44271.23
587.54	44542.74
587.70	44804.88
587.86	44524.01
588.02	44315.70
588.18	44327.41
588.34	44287.62
588.49	44013.77
588.65	44233.78
588.81	44069.95
588.97	44006.75
589.13	44053.56
589.29	44329.75
589.45	44280.60
589.61	44226.76
589.77	44360.17
589.93	44308.68
590.08	44158.89
590.24	44149.53
590.40	44580.18
