SpectraSuite Data File
++++++++++++++++++++++++++++++++++++
Date: Fri Oct 25 10:43:21 EDT 2013
User: price-jones
Dark Spectrum Present: No
Reference Spectrum Present: No
Number of Sampled Component Spectra: 1
Spectrometers: USB2+H05261
Integration Time (usec): 100000 (USB2+H05261)
Spectra Averaged: 1 (USB2+H05261)
Boxcar Smoothing: 0 (USB2+H05261)
Correct for Electrical Dark: No (USB2+H05261)
Strobe/Lamp Enabled: No (USB2+H05261)
Correct for Detector Non-linearity: No (USB2+H05261)
Correct for Stray Light: No (USB2+H05261)
Number of Pixels in Processed Spectrum: 2048
>>>>>Begin Processed Spectral Data<<<<<
365.73	102.98
365.92	102.98
366.12	102.98
366.32	42.13
366.52	0.00
366.72	72.56
366.91	0.00
367.11	0.00
367.31	9.36
367.51	0.00
367.70	25.75
367.90	0.00
368.10	18.72
368.30	18.72
368.49	4.68
368.69	51.49
368.89	60.85
369.09	11.70
369.28	39.79
369.48	51.49
369.68	110.01
369.87	156.82
370.07	95.96
370.27	105.32
370.47	166.18
370.66	393.21
370.86	379.17
371.06	411.93
371.25	512.58
371.45	458.74
371.65	449.38
371.84	423.64
372.04	418.96
372.24	521.94
372.44	566.41
372.63	543.00
372.83	503.22
373.03	531.30
373.22	512.58
373.42	545.34
373.62	592.16
373.81	472.79
374.01	627.26
374.21	505.56
374.40	519.60
374.60	566.41
374.79	594.50
374.99	578.11
375.19	566.41
375.38	631.94
375.58	491.51
375.78	636.63
375.97	594.50
376.17	655.35
376.37	645.99
376.56	566.41
376.76	603.86
376.95	681.10
377.15	643.65
377.35	678.76
377.54	713.86
377.74	608.54
377.93	645.99
378.13	641.31
378.33	678.76
378.52	645.99
378.72	634.29
378.91	725.57
379.11	664.71
379.31	674.07
379.50	645.99
379.70	692.80
379.89	678.76
380.09	664.71
380.28	706.84
380.48	690.46
380.68	739.61
380.87	681.10
381.07	716.20
381.26	627.26
381.46	615.56
381.65	631.94
381.85	678.76
382.04	664.71
382.24	690.46
382.43	751.31
382.63	753.65
382.83	772.38
383.02	779.40
383.22	727.91
383.41	723.23
383.61	746.63
383.80	795.78
384.00	713.86
384.19	791.10
384.39	767.70
384.58	737.27
384.78	800.46
384.97	826.21
385.17	788.76
385.36	777.06
385.56	748.97
385.75	887.06
385.95	774.72
386.14	903.45
386.34	833.23
386.53	786.42
386.72	901.11
386.92	880.04
387.11	896.43
387.31	873.02
387.50	856.64
387.70	882.38
387.89	802.80
388.09	823.87
388.28	863.66
388.48	840.25
388.67	945.58
388.86	933.87
389.06	1018.13
389.25	978.34
389.45	994.73
389.64	877.70
389.84	889.40
390.03	1062.60
390.22	901.11
390.42	889.40
390.61	1025.15
390.81	1011.11
391.00	1071.97
391.19	1050.90
391.39	1029.84
391.58	1069.62
391.78	1132.82
391.97	1050.90
392.16	1090.69
392.36	1041.54
392.55	1013.45
392.75	1025.15
392.94	1060.26
393.13	999.41
393.33	994.73
393.52	1062.60
393.71	1018.13
393.91	1078.99
394.10	1137.50
394.29	1123.46
394.49	1184.31
394.68	1205.38
394.88	1200.69
395.07	1203.04
395.26	1184.31
395.46	1242.82
395.65	1217.08
395.84	1217.08
396.04	1217.08
396.23	1205.38
396.42	1135.16
396.62	1226.44
396.81	1217.08
397.00	1282.61
397.19	1231.12
397.39	1336.45
397.58	1399.64
397.77	1362.19
397.97	1399.64
398.16	1427.73
398.35	1488.58
398.55	1423.05
398.74	1544.75
398.93	1551.78
399.12	1495.60
399.32	1411.34
399.51	1516.67
399.70	1598.59
399.90	1619.65
400.09	1603.27
400.28	1631.35
400.47	1556.46
400.67	1668.80
400.86	1652.42
401.05	1624.33
401.24	1666.46
401.44	1671.14
401.63	1659.44
401.82	1647.74
402.01	1713.27
402.21	1790.51
402.40	1769.44
402.59	1788.17
402.78	1743.70
402.97	1764.76
403.17	1874.77
403.36	1762.42
403.55	1851.36
403.74	1863.07
403.93	1825.62
404.13	1809.23
404.32	1916.90
404.51	1942.64
404.70	1923.92
404.89	2120.53
405.09	1935.62
405.28	1940.30
405.47	1870.09
405.66	1970.73
405.85	1923.92
406.05	1942.64
406.24	2024.56
406.43	1980.09
406.62	2115.84
406.81	2190.74
407.00	2120.53
407.20	2031.58
407.39	2094.78
407.58	2167.34
407.77	2186.06
407.96	2188.40
408.15	2296.07
408.34	2204.78
408.54	2242.23
408.73	2333.51
408.92	2328.83
409.11	2253.94
409.30	2305.43
409.49	2305.43
409.68	2375.64
409.87	2230.53
410.07	2244.57
410.26	2377.98
410.45	2403.73
410.64	2408.41
410.83	2572.25
411.02	2506.71
411.21	2553.52
411.40	2548.84
411.59	2548.84
411.78	2602.68
411.98	2544.16
412.17	2672.89
412.36	2759.49
412.55	2738.43
412.74	2787.58
412.93	2736.09
413.12	2717.36
413.31	2895.24
413.50	2794.60
413.69	2801.62
413.88	2871.84
414.07	2738.43
414.26	2972.48
414.45	2803.96
414.64	3009.93
414.83	2937.37
415.02	3061.42
415.22	3030.99
415.41	3180.79
415.60	3145.68
415.79	3211.22
415.98	3248.66
416.17	3332.92
416.36	3328.24
416.55	3311.86
416.74	3265.05
416.93	3243.98
417.12	3227.60
417.31	3276.75
417.50	3267.39
417.69	3473.36
417.88	3487.40
418.07	3403.14
418.26	3604.42
418.45	3428.88
418.64	3604.42
418.83	3506.12
419.02	3552.93
419.21	3707.41
419.39	3733.15
419.58	3644.21
419.77	3557.61
419.96	3524.85
420.15	3557.61
420.34	3604.42
420.53	3798.69
420.72	3866.56
420.91	3805.71
421.10	3873.59
421.29	3768.26
421.48	3660.60
421.67	3808.05
421.86	3866.56
422.05	3840.82
422.24	3676.98
422.43	3779.97
422.61	3796.35
422.80	3871.25
422.99	4002.32
423.18	3929.76
423.37	3906.35
423.56	3826.78
423.75	3836.14
423.94	3784.65
424.13	3681.66
424.32	3754.22
424.50	4016.36
424.69	3889.97
424.88	3859.54
425.07	4014.02
425.26	3925.08
425.45	3957.85
425.64	3911.04
425.83	3904.01
426.01	4049.13
426.20	4060.83
426.39	4028.06
426.58	3918.06
426.77	4105.30
426.96	4072.53
427.15	3920.40
427.33	4138.07
427.52	3922.74
427.71	4170.83
427.90	4119.34
428.09	4117.00
428.28	4159.13
428.46	4079.55
428.65	4159.13
428.84	4168.49
429.03	4304.25
429.22	3992.95
429.40	4168.49
429.59	4107.64
429.78	3997.64
429.97	3880.61
430.16	3983.59
430.34	4060.83
430.53	4273.82
430.72	4264.46
430.91	4131.05
431.10	4325.31
431.28	4542.98
431.47	4510.21
431.66	4660.01
431.85	4566.39
432.03	4802.78
432.22	4681.07
432.41	4594.47
432.60	4704.48
432.79	4592.13
432.97	4791.08
433.16	4664.69
433.35	4830.87
433.54	4758.31
433.72	4702.14
433.91	4547.66
434.10	4807.46
434.28	4638.94
434.47	4917.47
434.66	4894.06
434.85	4882.36
435.03	4945.55
435.22	4992.36
435.41	5083.64
435.59	5048.54
435.78	5067.26
435.97	5111.73
436.16	5181.95
436.34	5153.86
436.53	5275.57
436.72	5282.59
436.90	5001.72
437.09	5203.01
437.28	4936.19
437.46	5118.75
437.65	5172.58
437.84	5205.35
438.02	5158.54
438.21	5160.88
438.40	5081.30
438.58	5350.46
438.77	5537.71
438.96	5495.58
439.14	5476.85
439.33	5619.63
439.52	5657.07
439.70	5792.83
439.89	5790.49
440.08	5710.91
440.26	5624.31
440.45	5778.78
440.63	5781.12
440.82	5984.75
441.01	5970.71
441.19	5865.38
441.38	6129.86
441.57	6125.18
441.75	6099.44
441.94	6242.21
442.12	6307.74
442.31	6251.57
442.50	6303.06
442.68	6225.82
442.87	6354.55
443.05	6359.24
443.24	6410.73
443.43	6326.47
443.61	6455.20
443.80	6546.48
443.98	6289.02
444.17	6204.76
444.35	6274.98
444.54	6637.76
444.73	6502.01
444.91	6448.18
445.10	6422.43
445.28	6382.64
445.47	6328.81
445.65	6345.19
445.84	6579.25
446.02	6497.33
446.21	6434.13
446.39	6546.48
446.58	6480.94
446.77	6616.69
446.95	6558.18
447.14	6761.81
447.32	6766.49
447.51	6782.87
447.69	6691.59
447.88	6925.65
448.06	6654.14
448.25	6656.48
448.43	6855.43
448.62	6796.92
448.80	6841.39
448.99	6731.38
449.17	6855.43
449.36	6724.36
449.54	6920.96
449.73	7087.14
449.91	7033.31
450.10	7169.06
450.28	7255.66
450.46	7176.08
450.65	7286.09
450.83	7183.10
451.02	7180.76
451.20	7342.26
451.39	7302.47
451.57	7239.28
451.76	7229.91
451.94	7265.02
452.13	7309.49
452.31	7304.81
452.49	7077.78
452.68	7155.02
452.86	7117.57
453.05	7265.02
453.23	7215.87
453.42	7475.67
453.60	7445.24
453.78	7330.56
453.97	7389.07
454.15	7494.40
454.34	7499.08
454.52	7459.29
454.70	7351.62
454.89	7564.61
455.07	7707.38
455.26	7683.98
455.44	7735.47
455.62	7648.87
455.81	7852.50
455.99	7803.35
456.17	7784.62
456.36	7779.94
456.54	7985.91
456.73	7974.21
456.91	8032.72
457.09	8163.79
457.28	8084.21
457.46	8095.91
457.64	8030.38
457.83	8049.10
458.01	7885.26
458.19	8147.40
458.38	8175.49
458.56	8194.22
458.74	8292.52
458.93	8217.62
459.11	8262.09
459.29	8234.00
459.48	8341.67
459.66	8088.89
459.84	8486.78
460.03	8500.83
460.21	8496.14
460.39	8411.89
460.57	8348.69
460.76	8580.40
460.94	8744.24
461.12	8725.52
461.31	8603.81
461.49	8814.46
461.67	8404.86
461.85	8863.61
462.04	8517.21
462.22	9270.86
462.40	8896.38
462.59	8622.53
462.77	8910.42
462.95	9013.40
463.13	8947.87
463.32	8795.73
463.50	9219.37
463.68	8870.63
463.86	9004.04
464.05	8894.04
464.23	8669.34
464.41	8943.19
464.59	8821.48
464.78	9111.71
464.96	9060.21
465.14	9130.43
465.32	9364.48
465.50	9310.65
465.69	9273.20
465.87	9296.61
466.05	9352.78
466.23	9224.05
466.41	9233.41
466.60	9411.29
466.78	9266.18
466.96	9287.25
467.14	9322.35
467.32	9399.59
467.51	9441.72
467.69	9291.93
467.87	9261.50
468.05	9535.34
468.23	9486.19
468.41	9366.82
468.60	9713.22
468.78	9741.31
468.96	9689.82
469.14	9577.47
469.32	9643.01
469.50	9444.06
469.69	9781.10
469.87	9778.76
470.05	9811.53
470.23	9874.72
470.41	9687.48
470.59	9846.63
470.77	9912.17
470.95	10033.88
471.14	10066.64
471.32	9989.41
471.50	10279.63
471.68	10249.21
471.86	10270.27
472.04	10401.34
472.22	10497.30
472.40	10260.91
472.58	10310.06
472.77	10471.56
472.95	10450.49
473.13	10803.91
473.31	10544.11
473.49	10492.62
473.67	10544.11
473.85	10703.27
474.03	10850.72
474.21	10778.17
474.39	11110.52
474.57	11131.59
474.75	11133.93
474.93	11265.00
475.12	11077.76
475.30	11014.56
475.48	11166.70
475.66	11243.93
475.84	11248.61
476.02	11463.94
476.20	11393.73
476.38	11583.31
476.56	11702.68
476.74	11960.14
476.92	11709.70
477.10	11854.81
477.28	12072.48
477.46	12044.40
477.64	12060.78
477.82	12138.02
478.00	12615.49
478.18	12393.14
478.36	12365.05
478.54	12535.91
478.72	12800.39
478.90	12968.91
479.08	12910.40
479.26	13144.45
479.44	12999.34
479.62	13238.07
479.80	13032.10
479.98	13469.78
480.16	13556.38
480.34	13675.75
480.52	13914.48
480.70	13596.17
480.88	13844.27
481.06	13844.27
481.24	13991.72
481.41	14188.33
481.59	14207.05
481.77	14410.68
481.95	14422.38
482.13	14511.32
482.31	14511.32
482.49	14630.69
482.67	14799.21
482.85	14757.08
483.03	15161.99
483.21	15229.87
483.39	15248.59
483.57	15442.85
483.74	15419.45
483.92	15768.19
484.10	15613.71
484.28	15903.94
484.46	15915.64
484.64	16400.13
484.82	16063.10
485.00	16339.28
485.18	16486.73
485.35	16472.69
485.53	16229.27
485.71	16020.97
485.89	16400.13
486.07	16299.49
486.25	16702.06
486.43	16812.07
486.61	16940.80
486.78	17303.58
486.96	17144.42
487.14	17504.87
487.32	17619.55
487.50	18017.44
487.68	17855.95
487.85	18324.05
488.03	18469.17
488.21	18803.86
488.39	18546.40
488.57	18663.43
488.75	18878.76
488.92	19176.01
489.10	19618.37
489.28	19374.95
489.46	19599.65
489.64	19499.00
489.81	20091.16
489.99	20278.40
490.17	20114.56
490.35	20287.76
490.53	20203.50
490.70	20421.17
490.88	20393.09
491.06	20727.78
491.24	20830.77
491.41	20688.00
491.59	20734.81
491.77	20851.83
491.95	21010.99
492.13	21071.84
492.30	21486.12
492.48	21661.66
492.66	21528.25
492.84	21493.14
493.01	21832.52
493.19	22178.92
493.37	22326.37
493.54	22244.45
493.72	22647.02
493.90	22590.85
494.08	22572.13
494.25	23065.98
494.43	22988.74
494.61	23126.83
494.79	23391.31
494.96	23608.98
495.14	23498.98
495.32	23473.23
495.49	23419.40
495.67	23627.71
495.85	24168.37
496.02	24215.18
496.20	24372.00
496.38	24397.74
496.55	24322.85
496.73	25135.01
496.91	24599.03
497.09	25032.03
497.26	24697.33
497.44	24819.04
497.62	25083.52
497.79	25401.83
497.97	24805.00
498.14	25345.66
498.32	25781.00
498.50	25731.85
498.67	25860.58
498.85	26040.80
499.03	25912.07
499.20	26195.28
499.38	26223.36
499.56	26342.73
499.73	26199.96
499.91	26403.58
500.08	26342.73
500.26	26218.68
500.44	26391.88
500.61	26764.03
500.79	26618.91
500.97	26263.15
501.14	26904.46
501.32	27131.49
501.49	26951.27
501.67	26581.46
501.84	27395.97
502.02	27241.50
502.20	27585.55
502.37	27655.77
502.55	27737.69
502.72	27580.87
502.90	28130.90
503.07	27697.90
503.25	28053.66
503.43	27608.96
503.60	28002.17
503.78	28257.29
503.95	28252.61
504.13	28294.74
504.30	28615.39
504.48	28287.71
504.65	28917.32
504.83	29055.41
505.01	29294.14
505.18	28807.31
505.36	29427.56
505.53	29418.19
505.71	29418.19
505.88	29404.15
506.06	29228.61
506.23	29579.69
506.41	29504.79
506.58	29626.50
506.76	29788.00
506.93	29928.43
507.11	29883.96
507.28	30061.84
507.46	29504.79
507.63	29539.90
507.81	30195.25
507.98	30103.97
508.16	30188.23
508.33	30525.27
508.50	30504.20
508.68	30759.32
508.85	30490.16
509.03	30944.22
509.20	30911.46
509.38	31260.20
509.55	31496.59
509.73	31428.71
509.90	31344.45
510.08	31386.58
510.25	31318.71
510.42	31707.24
510.60	31702.56
510.77	31297.64
510.95	32055.98
511.12	31725.96
511.30	31744.69
511.47	32121.51
511.64	32079.38
511.82	31948.31
511.99	32100.45
512.17	32470.25
512.34	32397.70
512.51	32601.32
512.69	32886.87
512.86	32577.92
513.04	32814.31
513.21	32783.88
513.38	32652.81
513.56	32662.18
513.73	32795.59
513.90	32858.78
514.08	32875.16
514.25	33001.55
514.43	33165.39
514.60	33282.42
514.77	33020.28
514.95	33125.60
515.12	33525.83
515.29	33626.48
515.47	34148.42
515.64	33841.81
515.81	33790.31
515.99	33528.17
516.16	33504.77
516.33	33291.78
516.51	33663.93
516.68	33057.73
516.85	33244.97
517.03	33434.55
517.20	33921.38
517.37	34110.97
517.54	34597.80
517.72	34089.90
517.89	33720.10
518.06	34075.86
518.24	34019.69
518.41	34508.86
518.58	34251.40
518.75	34677.38
518.93	35019.10
519.10	34794.40
519.27	35175.91
519.45	34593.12
519.62	35150.17
519.79	35555.08
519.96	34822.49
520.14	35044.84
520.31	34733.55
520.48	35283.58
520.65	35208.68
520.83	35555.08
521.00	35714.23
521.17	35828.92
521.34	35887.43
521.52	35967.01
521.69	35676.79
521.86	36425.76
522.03	35889.77
522.20	35952.97
522.38	36353.20
522.55	36297.03
522.72	36512.36
522.89	36322.77
523.07	36364.90
523.24	36142.55
523.41	36617.68
523.58	36701.94
523.75	37352.61
523.92	37048.34
524.10	36870.46
524.27	36954.72
524.44	36919.61
524.61	37537.51
524.78	37130.26
524.96	37502.40
525.13	37097.49
525.30	37628.79
525.47	37591.34
525.64	37787.95
525.81	37148.98
525.98	37338.57
526.16	37486.02
526.33	37167.71
526.50	36994.51
526.67	37298.78
526.84	37326.86
527.01	37359.63
527.18	38071.15
527.36	38146.05
527.53	37663.90
527.70	38419.89
527.87	38024.34
528.04	38394.15
528.21	37923.70
528.38	38330.95
528.55	38352.02
528.72	38646.93
528.89	38815.44
529.07	38918.43
529.24	38553.30
529.41	38696.08
529.58	38459.68
529.75	38810.76
529.92	39161.84
530.09	38960.56
530.26	38895.02
530.43	39049.50
530.60	39100.99
530.77	38918.43
530.94	38787.36
531.11	39337.38
531.28	39503.56
531.46	39133.76
531.63	39302.28
531.80	39714.21
531.97	39269.51
532.14	39012.05
532.31	39166.52
532.48	39241.42
532.65	39222.70
532.82	39477.82
532.99	39409.94
533.16	39765.70
533.33	39658.04
533.50	39824.22
533.67	39817.19
533.84	39833.58
534.01	40233.81
534.18	39962.31
534.35	40203.38
534.52	39864.00
534.69	40126.14
534.86	40416.37
535.03	40231.47
535.20	40210.40
535.37	40758.09
535.54	40465.52
535.71	40219.77
535.88	40435.10
536.05	40194.02
536.22	40655.11
536.38	39992.73
536.55	40711.28
536.72	40538.08
536.89	40584.89
537.06	40783.83
537.23	41036.61
537.40	40760.43
537.57	40889.16
537.74	40694.89
537.91	41242.58
538.08	41120.87
538.25	40690.21
538.42	41450.89
538.59	41223.86
538.75	41160.66
538.92	41223.86
539.09	41448.55
539.26	40999.16
539.43	41427.48
539.60	41240.24
539.77	40975.76
539.94	41081.08
540.11	41132.57
540.28	41387.69
540.44	41139.60
540.61	41528.13
540.78	41123.21
540.95	41563.23
541.12	41357.27
541.29	41406.42
541.46	41476.63
541.62	41677.92
541.79	42043.04
541.96	41745.80
542.13	41830.05
542.30	41944.74
542.47	41614.72
542.63	41947.08
542.80	42281.78
542.97	42087.51
543.14	42663.28
543.31	42279.44
543.48	42040.70
543.64	42607.11
543.81	43131.39
543.98	42864.57
544.15	42511.15
544.32	42974.58
544.48	43068.20
544.65	43082.24
544.82	43152.46
544.99	42405.83
545.16	42567.32
545.32	42403.49
545.49	43342.04
545.66	43459.07
545.83	43089.26
546.00	42735.84
546.16	42522.85
546.33	42572.00
546.50	42806.06
546.67	43040.11
546.83	42822.44
547.00	43098.62
547.17	42581.37
547.34	42700.73
547.50	43049.47
547.67	43545.67
547.84	43391.19
548.00	43222.67
548.17	43753.97
548.34	43438.00
548.51	43854.62
548.67	43828.87
548.84	43555.03
549.01	43601.84
549.18	43618.22
549.34	43536.30
549.51	43686.10
549.68	44191.65
549.84	43650.99
550.01	44093.35
550.18	43526.94
550.34	44055.90
550.51	43524.60
550.68	43669.72
550.84	43299.91
551.01	43756.32
551.18	43629.93
551.34	43826.53
551.51	44020.80
551.68	43878.02
551.84	44383.58
552.01	44189.31
552.18	43831.21
552.34	44156.55
552.51	43899.09
552.68	44348.47
552.84	44186.97
553.01	44362.51
553.18	43973.98
553.34	44402.30
553.51	44327.41
553.67	44203.36
553.84	44617.63
554.01	44486.56
554.17	44788.49
554.34	44861.05
554.51	44177.61
554.67	44804.88
554.84	44505.29
555.00	44339.11
555.17	44198.68
555.33	44516.99
555.50	44374.22
555.67	44664.44
555.83	44233.78
556.00	44481.88
556.16	44982.76
556.33	44886.79
556.50	44664.44
556.66	44666.78
556.83	44589.55
556.99	44608.27
557.16	44856.37
557.32	44879.77
557.49	45027.23
557.65	44531.03
557.82	44985.10
557.98	44879.77
558.15	44980.42
558.32	45282.34
558.48	44685.51
558.65	44528.69
558.81	44832.96
558.98	44807.22
559.14	44964.03
559.31	45038.93
559.47	45205.11
559.64	45282.34
559.80	45048.29
559.97	45588.95
560.13	44596.57
560.30	44893.82
560.46	45371.28
560.63	45244.90
560.79	45680.24
560.96	45352.56
561.12	45226.17
561.29	45207.45
561.45	45177.02
561.61	45294.05
561.78	44839.98
561.94	44996.80
562.11	45261.28
562.27	45207.45
562.44	45525.76
562.60	45432.14
562.77	45773.86
562.93	45434.48
563.10	45331.50
563.26	45284.68
563.42	45666.19
563.59	45235.53
563.75	45485.97
563.92	45677.90
564.08	45415.76
564.24	45509.38
564.41	45656.83
564.57	45277.66
564.74	45497.67
564.90	44945.31
565.07	45626.40
565.23	45586.61
565.39	45301.07
565.56	45434.48
565.72	45617.04
565.88	45640.45
566.05	45310.43
566.21	45331.50
566.38	45497.67
566.54	45226.17
566.70	45757.47
566.87	45790.24
567.03	45696.62
567.19	46141.32
567.36	45923.65
567.52	45705.98
567.68	45500.01
567.85	45265.96
568.01	45394.69
568.17	45778.54
568.34	45766.84
568.50	45610.02
568.66	45425.12
568.83	45371.28
568.99	45228.51
569.15	45607.68
569.32	45415.76
569.48	45256.60
569.64	46040.68
569.81	45996.21
569.97	45769.18
570.13	45956.42
570.30	45495.33
570.46	45179.36
570.62	45380.65
570.78	45322.13
570.95	45682.58
571.11	45572.57
571.27	45670.87
571.43	45357.24
571.60	45797.26
571.76	45549.17
571.92	45874.50
572.09	45783.22
572.25	45635.77
572.41	45984.51
572.57	45839.39
572.74	46356.65
572.90	45806.62
573.06	46380.06
573.22	46054.72
573.38	45872.16
573.55	45549.17
573.71	45909.61
573.87	46073.45
574.03	45429.80
574.20	45757.47
574.36	45579.59
574.52	45855.78
574.68	45956.42
574.84	45853.44
575.01	45858.12
575.17	45352.56
575.33	45394.69
575.49	45603.00
575.65	46370.69
575.82	46157.70
575.98	45996.21
576.14	46157.70
576.30	45626.40
576.46	46312.18
576.62	45565.55
576.79	45865.14
576.95	45399.37
577.11	45956.42
577.27	46115.58
577.43	46012.59
577.59	45701.30
577.75	45902.59
577.92	45504.70
578.08	45528.10
578.24	46021.95
578.40	45853.44
578.56	45874.50
578.72	45792.58
578.88	46127.28
579.04	46071.10
579.21	45794.92
579.37	45743.43
579.53	45741.09
579.69	45631.08
579.85	45890.88
580.01	46087.49
580.17	45799.60
580.33	46239.62
580.49	45509.38
580.65	45811.31
580.82	45783.22
580.98	45804.28
581.14	45752.79
581.30	46368.35
581.46	45755.13
581.62	45776.20
581.78	45610.02
581.94	46265.37
582.10	46010.25
582.26	46354.31
582.42	45846.41
582.58	45984.51
582.74	45705.98
582.90	46181.11
583.06	46192.81
583.22	45872.16
583.38	46450.27
583.54	45961.10
583.70	46300.48
583.86	45933.01
584.02	45635.77
584.18	46181.11
584.34	45993.87
584.50	45748.11
584.66	46396.44
584.82	46038.34
584.98	46492.40
585.14	45806.62
585.30	45853.44
585.46	45628.74
585.62	45521.08
585.78	46096.85
585.94	45448.52
586.10	45958.76
586.26	45755.13
586.42	46185.79
586.58	46010.25
586.74	45876.84
586.90	45677.90
587.06	45790.24
587.22	45752.79
587.38	45940.04
587.54	45717.68
587.70	46380.06
587.86	45570.23
588.02	46138.98
588.18	45879.18
588.34	45474.27
588.49	45191.06
588.65	45544.48
588.81	45591.30
588.97	45064.67
589.13	45432.14
589.29	45474.27
589.45	45598.32
589.61	45675.55
589.77	46284.09
589.93	45940.04
