SpectraSuite Data File
++++++++++++++++++++++++++++++++++++
Date: Fri Oct 25 10:48:10 EDT 2013
User: price-jones
Dark Spectrum Present: No
Reference Spectrum Present: No
Number of Sampled Component Spectra: 1
Spectrometers: USB2+H05261
Integration Time (usec): 100000 (USB2+H05261)
Spectra Averaged: 1 (USB2+H05261)
Boxcar Smoothing: 0 (USB2+H05261)
Correct for Electrical Dark: No (USB2+H05261)
Strobe/Lamp Enabled: No (USB2+H05261)
Correct for Detector Non-linearity: No (USB2+H05261)
Correct for Stray Light: No (USB2+H05261)
Number of Pixels in Processed Spectrum: 2048
>>>>>Begin Processed Spectral Data<<<<<
365.73	177.88
365.92	177.88
366.12	177.88
366.32	63.19
366.52	23.41
366.72	42.13
366.91	58.51
367.11	25.75
367.31	72.56
367.51	63.19
367.70	135.75
367.90	131.07
368.10	46.81
368.30	105.32
368.49	0.00
368.69	91.28
368.89	84.26
369.09	58.51
369.28	91.28
369.48	63.19
369.68	49.15
369.87	91.28
370.07	65.54
370.27	88.94
370.47	196.60
370.66	339.38
370.86	433.00
371.06	470.45
371.25	465.77
371.45	402.57
371.65	451.72
371.84	477.47
372.04	423.64
372.24	535.98
372.44	444.70
372.63	519.60
372.83	475.13
373.03	461.09
373.22	491.51
373.42	498.53
373.62	491.51
373.81	545.34
374.01	594.50
374.21	493.85
374.40	528.96
374.60	617.90
374.79	568.75
374.99	557.05
375.19	559.39
375.38	524.28
375.58	587.47
375.78	550.03
375.97	566.41
376.17	641.31
376.37	493.85
376.56	526.62
376.76	547.69
376.95	589.82
377.15	531.30
377.35	559.39
377.54	500.87
377.74	641.31
377.93	568.75
378.13	608.54
378.33	653.01
378.52	650.67
378.72	688.12
378.91	613.22
379.11	589.82
379.31	664.71
379.50	517.26
379.70	638.97
379.89	667.05
380.09	554.71
380.28	779.40
380.48	592.16
380.68	631.94
380.87	709.18
381.07	615.56
381.26	685.78
381.46	648.33
381.65	723.23
381.85	737.27
382.04	713.86
382.24	561.73
382.43	669.39
382.63	645.99
382.83	667.05
383.02	713.86
383.22	699.82
383.41	732.59
383.61	711.52
383.80	739.61
384.00	739.61
384.19	727.91
384.39	697.48
384.58	805.14
384.78	737.27
384.97	669.39
385.17	784.08
385.36	732.59
385.56	779.40
385.75	741.95
385.95	800.46
386.14	821.53
386.34	812.17
386.53	716.20
386.72	774.72
386.92	798.12
387.11	791.10
387.31	767.70
387.50	791.10
387.70	830.89
387.89	805.14
388.09	816.85
388.28	798.12
388.48	861.32
388.67	894.08
388.86	842.59
389.06	842.59
389.25	950.26
389.45	870.68
389.64	943.24
389.84	919.83
390.03	880.04
390.22	917.49
390.42	938.55
390.61	929.19
390.81	952.60
391.00	931.53
391.19	973.66
391.39	957.28
391.58	901.11
391.78	1020.47
391.97	997.07
392.16	952.60
392.36	1008.77
392.55	957.28
392.75	896.43
392.94	971.32
393.13	997.07
393.33	980.68
393.52	1039.20
393.71	1069.62
393.91	1067.28
394.10	1027.50
394.29	933.87
394.49	999.41
394.68	1184.31
394.88	1081.33
395.07	1130.48
395.26	1076.65
395.46	1083.67
395.65	1139.84
395.84	1081.33
396.04	1254.53
396.23	1163.25
396.42	1111.75
396.62	1167.93
396.81	1188.99
397.00	1090.69
397.19	1179.63
397.39	1198.35
397.58	1231.12
397.77	1144.52
397.97	1291.98
398.16	1266.23
398.35	1277.93
398.55	1263.89
398.74	1259.21
398.93	1352.83
399.12	1371.55
399.32	1343.47
399.51	1394.96
399.70	1394.96
399.90	1336.45
400.09	1500.28
400.28	1479.22
400.47	1453.47
400.67	1434.75
400.86	1427.73
401.05	1338.79
401.24	1507.30
401.44	1493.26
401.63	1493.26
401.82	1504.96
402.01	1394.96
402.21	1584.54
402.40	1521.35
402.59	1533.05
402.78	1437.09
402.97	1511.99
403.17	1631.35
403.36	1467.52
403.55	1603.27
403.74	1584.54
403.93	1619.65
404.13	1605.61
404.32	1521.35
404.51	1619.65
404.70	1743.70
404.89	1643.06
405.09	1790.51
405.28	1741.36
405.47	1633.69
405.66	1673.48
405.85	1722.63
406.05	1781.15
406.24	1942.64
406.43	1643.06
406.62	1825.62
406.81	1874.77
407.00	1863.07
407.20	1722.63
407.39	1849.02
407.58	1865.41
407.77	1867.75
407.96	1907.54
408.15	1977.75
408.34	2080.74
408.54	2015.20
408.73	2073.71
408.92	2062.01
409.11	2019.88
409.30	1984.77
409.49	2057.33
409.68	2047.97
409.87	1991.80
410.07	1998.82
410.26	2172.02
410.45	2125.21
410.64	2132.23
410.83	2162.66
411.02	2216.49
411.21	2242.23
411.40	2200.10
411.59	2263.30
411.78	2232.87
411.98	2242.23
412.17	2338.20
412.36	2289.04
412.55	2349.90
412.74	2424.80
412.93	2457.56
413.12	2326.49
413.31	2562.89
413.50	2537.14
413.69	2478.63
413.88	2527.78
414.07	2586.29
414.26	2492.67
414.45	2548.84
414.64	2537.14
414.83	2586.29
415.02	2668.21
415.22	2726.72
415.41	2829.71
415.60	2647.15
415.79	2780.56
415.98	2832.05
416.17	2829.71
416.36	2829.71
416.55	2757.15
416.74	2963.12
416.93	2874.18
417.12	2913.97
417.31	2871.84
417.50	2878.86
417.69	2993.55
417.88	3063.76
418.07	3000.57
418.26	3061.42
418.45	3089.51
418.64	3211.22
418.83	3122.27
419.02	3052.06
419.21	3222.92
419.39	3089.51
419.58	3159.72
419.77	3094.19
419.96	3103.55
420.15	3365.69
420.34	3300.16
420.53	3412.50
420.72	3358.67
420.91	3229.94
421.10	3501.44
421.29	3349.31
421.48	3344.63
421.67	3438.25
421.86	3407.82
422.05	3342.28
422.24	3368.03
422.43	3440.59
422.61	3494.42
422.80	3494.42
422.99	3459.31
423.18	3487.40
423.37	3618.47
423.56	3449.95
423.75	3433.57
423.94	3382.07
424.13	3258.03
424.32	3433.57
424.50	3588.04
424.69	3602.08
424.88	3604.42
425.07	3496.76
425.26	3365.69
425.45	3578.68
425.64	3623.15
425.83	3590.38
426.01	3536.55
426.20	3588.04
426.39	3459.31
426.58	3482.72
426.77	3524.85
426.96	3515.48
427.15	3524.85
427.33	3878.27
427.52	3665.28
427.71	3695.71
427.90	3637.19
428.09	3761.24
428.28	3784.65
428.46	3878.27
428.65	3904.01
428.84	3756.56
429.03	3754.22
429.22	3599.74
429.40	3786.99
429.59	3730.81
429.78	3751.88
429.97	3531.87
430.16	3712.09
430.34	3906.35
430.53	3801.03
430.72	3801.03
430.91	3913.38
431.10	3941.46
431.28	4163.81
431.47	4124.02
431.66	4105.30
431.85	4070.19
432.03	4140.41
432.22	4346.37
432.41	4102.96
432.60	4095.94
432.79	4241.05
432.97	4269.14
433.16	4175.52
433.35	4079.55
433.54	4395.53
433.72	4311.27
433.91	4374.46
434.10	4315.95
434.28	4280.84
434.47	4255.09
434.66	4428.29
434.85	4498.51
435.03	4418.93
435.22	4308.93
435.41	4664.69
435.59	4627.24
435.78	4601.49
435.97	4655.33
436.16	4500.85
436.34	4557.02
436.53	4451.70
436.72	4585.11
436.90	4402.55
437.09	4706.82
437.28	4461.06
437.46	4475.10
437.65	4634.26
437.84	4805.12
438.02	4517.23
438.21	4844.91
438.40	4664.69
438.58	4875.34
438.77	4971.30
438.96	4791.08
439.14	5013.43
439.33	5018.11
439.52	5193.65
439.70	5172.58
439.89	5041.51
440.08	5212.37
440.26	5102.37
440.45	5118.75
440.63	5294.29
440.82	5350.46
441.01	5205.35
441.19	5322.38
441.38	5425.36
441.57	5378.55
441.75	5359.83
441.94	5699.20
442.12	5556.43
442.31	5682.82
442.50	5507.28
442.68	5659.42
442.87	5675.80
443.05	5685.16
443.24	5856.02
443.43	5788.14
443.61	5650.05
443.80	5916.87
443.98	5685.16
444.17	5575.16
444.35	5839.64
444.54	5834.96
444.73	5680.48
444.91	5617.29
445.10	5839.64
445.28	5734.31
445.47	5762.40
445.65	5757.72
445.84	5940.28
446.02	5757.72
446.21	5933.26
446.39	5982.41
446.58	5933.26
446.77	5907.51
446.95	5769.42
447.14	6017.52
447.32	6012.84
447.51	6157.95
447.69	5830.27
447.88	6003.47
448.06	6036.24
448.25	5968.37
448.43	6092.41
448.62	6073.69
448.80	5879.43
448.99	6010.50
449.17	6153.27
449.36	6099.44
449.54	6265.61
449.73	6291.36
449.91	6305.40
450.10	6244.55
450.28	6494.99
450.46	6363.92
450.65	6518.39
450.83	6483.28
451.02	6431.79
451.20	6499.67
451.39	6392.00
451.57	6562.86
451.76	6483.28
451.94	6347.53
452.13	6588.61
452.31	6457.54
452.49	6260.93
452.68	6537.12
452.86	6485.62
453.05	6658.82
453.23	6530.09
453.42	6375.62
453.60	6607.33
453.78	6668.19
453.97	6532.44
454.15	6525.41
454.34	6719.68
454.52	6825.00
454.70	6677.55
454.89	6782.87
455.07	6661.16
455.26	6862.45
455.44	6768.83
455.62	6920.96
455.81	6841.39
455.99	6860.11
456.17	6935.01
456.36	6998.20
456.54	6946.71
456.73	7192.47
456.91	7358.64
457.09	7124.59
457.28	7241.62
457.46	7164.38
457.64	7442.90
457.83	7166.72
458.01	7253.32
458.19	7426.52
458.38	7304.81
458.56	7353.96
458.74	7325.88
458.93	7321.20
459.11	7283.75
459.29	7426.52
459.48	7510.78
459.66	7550.57
459.84	7531.84
460.03	7480.35
460.21	7658.23
460.39	7520.14
460.57	7435.88
460.76	7653.55
460.94	7737.81
461.12	7775.26
461.31	7918.03
461.49	7786.96
461.67	7571.63
461.85	7899.31
462.04	7843.14
462.22	8266.77
462.40	7796.32
462.59	7817.39
462.77	7939.10
462.95	8098.25
463.13	7978.89
463.32	8102.93
463.50	8156.77
463.68	8243.37
463.86	8013.99
464.05	7974.21
464.23	8124.00
464.41	8266.77
464.59	7892.29
464.78	8402.52
464.96	7950.80
465.14	8156.77
465.32	8124.00
465.50	8482.10
465.69	8339.33
465.87	8262.09
466.05	8208.26
466.23	8418.91
466.41	8109.96
466.60	8634.24
466.78	8266.77
466.96	8252.73
467.14	8255.07
467.32	8500.83
467.51	8505.51
467.69	8229.32
467.87	8313.58
468.05	8641.26
468.23	8442.31
468.41	8484.44
468.60	8730.20
468.78	8638.92
468.96	8615.51
469.14	8599.13
469.32	8879.99
469.50	8613.17
469.69	8833.18
469.87	8985.32
470.05	8802.75
470.23	8877.65
470.41	8814.46
470.59	8980.64
470.77	8964.25
470.95	8933.82
471.14	8992.34
471.32	8978.30
471.50	9329.38
471.68	9153.84
471.86	9305.97
472.04	9104.68
472.22	9540.02
472.40	9458.10
472.58	9167.88
472.77	9284.91
472.95	9547.05
473.13	9886.42
473.31	9523.64
473.49	9432.36
473.67	9591.52
473.85	9596.20
474.03	9886.42
474.21	9961.32
474.39	9991.75
474.57	10024.51
474.75	10008.13
474.93	9909.83
475.12	9905.15
475.30	10253.89
475.48	10366.23
475.66	10349.85
475.84	10139.20
476.02	10466.88
476.20	10487.94
476.38	10628.37
476.56	10752.42
476.74	10476.24
476.92	10932.64
477.10	10560.50
477.28	11037.97
477.46	10841.36
477.64	11033.29
477.82	11171.38
478.00	11222.87
478.18	11356.28
478.36	11382.03
478.54	11396.07
478.72	11384.37
478.90	11688.64
479.08	11730.76
479.26	11800.98
479.44	11864.18
479.62	11981.20
479.80	11850.13
479.98	12109.93
480.16	12332.28
480.34	11974.18
480.52	12580.38
480.70	12613.15
480.88	12409.52
481.06	12554.63
481.24	12343.99
481.41	12821.45
481.59	12917.42
481.77	13224.03
481.95	13048.49
482.13	12931.46
482.31	13324.67
482.49	13582.13
482.67	13315.31
482.85	13593.83
483.03	13713.20
483.21	14111.09
483.39	13813.84
483.57	13954.27
483.74	13891.08
483.92	14134.50
484.10	14298.33
484.28	14244.50
484.46	14406.00
484.64	14637.71
484.82	14731.33
485.00	14853.04
485.18	14939.64
485.35	15145.61
485.53	14869.42
485.71	14862.40
485.89	15370.30
486.07	15108.16
486.25	15463.92
486.43	15712.02
486.61	15709.68
486.78	15901.60
486.96	15974.16
487.14	15974.16
487.32	16367.37
487.50	16460.99
487.68	16336.94
487.85	16671.64
488.03	16919.73
488.21	16849.52
488.39	16917.39
488.57	16954.84
488.75	17224.00
488.92	17334.01
489.10	17715.51
489.28	17867.65
489.46	17823.18
489.64	17575.08
489.81	18104.04
489.99	18265.54
490.17	17940.21
490.35	18548.75
490.53	18443.42
490.70	18546.40
490.88	18731.31
491.06	19061.32
491.24	19438.15
491.41	18904.51
491.59	19138.56
491.77	19147.92
491.95	19307.08
492.13	19489.64
492.30	19578.58
492.48	19716.67
492.66	19836.04
492.84	20093.50
493.01	20173.08
493.19	20126.27
493.37	20395.43
493.54	20357.98
493.72	20491.39
493.90	20329.89
494.08	20954.82
494.25	20882.26
494.43	21015.67
494.61	21312.92
494.79	21408.88
494.96	21420.58
495.14	21635.91
495.32	21675.70
495.49	21633.57
495.67	21816.13
495.85	22078.27
496.02	22148.49
496.20	22450.42
496.38	22338.07
496.55	22562.76
496.73	22824.90
496.91	22710.22
497.09	22754.69
497.26	22757.03
497.44	22930.23
497.62	23070.66
497.79	23501.32
497.97	22958.31
498.14	23604.30
498.32	23403.02
498.50	23323.44
498.67	23562.17
498.85	23784.52
499.03	24217.52
499.20	24004.53
499.38	24084.11
499.56	24208.16
499.73	24376.68
499.91	24388.38
500.08	24615.41
500.26	24519.45
500.44	24870.53
500.61	24687.97
500.79	24580.31
500.97	24643.50
501.14	25104.59
501.32	25069.48
501.49	24945.43
501.67	25153.74
501.84	25448.64
502.02	25275.45
502.20	25399.49
502.37	25741.21
502.55	25525.88
502.72	25729.51
502.90	25741.21
503.07	25668.66
503.25	25790.36
503.43	26005.69
503.60	26176.55
503.78	26267.83
503.95	26143.78
504.13	26146.12
504.30	26237.41
504.48	26457.42
504.65	26735.94
504.83	26799.13
505.01	26752.32
505.18	26728.92
505.36	26977.01
505.53	27164.26
505.71	27178.30
505.88	27241.50
506.06	26911.48
506.23	27618.32
506.41	27395.97
506.58	27620.66
506.76	27730.67
506.93	27571.51
507.11	27669.81
507.28	28114.52
507.46	28044.30
507.63	27838.33
507.81	28032.60
507.98	27604.28
508.16	28360.27
508.33	28418.78
508.50	28631.77
508.68	28404.74
508.85	28692.63
509.03	28549.85
509.20	28926.68
509.38	28868.17
509.55	28821.36
509.73	29013.28
509.90	29142.01
510.08	28687.95
510.25	29209.89
510.42	29769.27
510.60	29528.20
510.77	29696.72
510.95	29549.26
511.12	29507.13
511.30	29860.55
511.47	30129.72
511.64	29972.90
511.82	30150.78
511.99	29738.85
512.17	29940.13
512.34	29806.72
512.51	30015.03
512.69	30326.32
512.86	30340.36
513.04	30813.15
513.21	30546.33
513.38	30366.11
513.56	30450.37
513.73	30199.93
513.90	30759.32
514.08	30501.86
514.25	30885.71
514.43	30756.98
514.60	30874.01
514.77	30941.88
514.95	31220.41
515.12	31503.61
515.29	31299.98
515.47	31426.37
515.64	31714.26
515.81	31360.84
515.99	31866.39
516.16	31871.07
516.33	31440.42
516.51	31737.66
516.68	31283.60
516.85	31573.83
517.03	31641.70
517.20	31988.10
517.37	31641.70
517.54	31840.65
517.72	32116.83
517.89	32278.33
518.06	32348.54
518.24	31791.50
518.41	31854.69
518.58	32477.27
518.75	32191.73
518.93	32910.27
519.10	33160.71
519.27	32708.99
519.45	32549.83
519.62	33003.89
519.79	32699.62
519.96	33055.39
520.14	33259.01
520.31	32980.49
520.48	33198.16
520.65	33376.04
520.83	33551.58
521.00	33914.36
521.17	33383.06
521.34	33699.03
521.52	33612.43
521.69	33523.49
521.86	34087.56
522.03	33972.88
522.20	34068.84
522.38	33949.47
522.55	34277.15
522.72	34452.69
522.89	33942.45
523.07	34225.65
523.24	34265.44
523.41	34817.81
523.58	34242.04
523.75	34986.33
523.92	34525.24
524.10	34440.98
524.27	34883.34
524.44	35007.39
524.61	35019.10
524.78	35215.70
524.96	34885.68
525.13	35321.02
525.30	35269.53
525.47	35239.11
525.64	35068.25
525.81	35718.92
525.98	35651.04
526.16	35548.06
526.33	34780.36
526.50	35772.75
526.67	35171.23
526.84	35548.06
527.01	35358.47
527.18	35676.79
527.36	35749.34
527.53	35901.48
527.70	36325.11
527.87	36240.86
528.04	35945.95
528.21	36304.05
528.38	35934.24
528.55	36130.85
528.72	36517.04
528.89	36381.29
529.07	36271.28
529.24	36280.64
529.41	36451.50
529.58	36662.15
529.75	36751.09
529.92	36676.19
530.09	36404.69
530.26	36807.26
530.43	36690.24
530.60	36512.36
530.77	36814.29
530.94	36741.73
531.11	36961.74
531.28	37163.03
531.46	37406.44
531.63	37347.93
531.80	37125.58
531.97	37134.94
532.14	37336.23
532.31	37003.87
532.48	37429.85
532.65	37460.27
532.82	37270.69
532.99	37666.24
533.16	37378.36
533.33	37640.50
533.50	37703.69
533.67	37596.03
533.84	37823.06
534.01	37853.48
534.18	38031.36
534.35	38216.27
534.52	37748.16
534.69	38071.15
534.86	38223.29
535.03	37933.06
535.20	38101.58
535.37	38370.74
535.54	38412.87
535.71	38440.96
535.88	38546.28
536.05	38387.13
536.22	38251.38
536.38	38508.83
536.55	38202.22
536.72	38553.30
536.89	38171.80
537.06	38487.77
537.23	38993.32
537.40	38614.16
537.57	38829.49
537.74	38862.26
537.91	39175.89
538.08	39253.12
538.25	38749.91
538.42	38569.69
538.59	39243.76
538.75	39012.05
538.92	38780.34
539.09	38841.19
539.26	39098.65
539.43	39246.10
539.60	39243.76
539.77	39138.44
539.94	39304.62
540.11	38998.01
540.28	39276.53
540.44	39206.31
540.61	39236.74
540.78	39248.44
540.95	39192.27
541.12	39402.92
541.29	39466.11
541.46	39395.90
541.62	39803.15
541.79	39646.33
541.96	39255.46
542.13	39964.65
542.30	39749.32
542.47	39737.62
542.63	39695.49
542.80	39950.60
542.97	40449.14
543.14	40467.86
543.31	40636.38
543.48	40095.72
543.64	40751.07
543.81	40753.41
543.98	40685.53
544.15	40804.90
544.32	40772.13
544.48	40910.22
544.65	40634.04
544.82	40680.85
544.99	40802.56
545.16	40734.68
545.32	40715.96
545.49	40940.65
545.66	41132.57
545.83	41247.26
546.00	41378.33
546.16	41486.00
546.33	40624.68
546.50	40924.27
546.67	41305.77
546.83	40531.06
547.00	40954.69
547.17	40971.08
547.34	41015.55
547.50	41212.15
547.67	41394.71
547.84	41265.99
548.00	41404.08
548.17	41329.18
548.34	41558.55
548.51	42366.04
548.67	41792.61
548.84	41794.95
549.01	41464.93
549.18	41481.31
549.34	41560.89
549.51	41738.77
549.68	41640.47
549.84	41862.82
550.01	41942.40
550.18	41542.17
550.34	41701.32
550.51	41769.20
550.68	41385.35
550.84	42003.25
551.01	41979.85
551.18	42021.98
551.34	42340.29
551.51	42153.05
551.68	42213.90
551.84	42328.59
552.01	42075.81
552.18	42068.79
552.34	42340.29
552.51	42162.41
552.68	41820.69
552.84	42710.10
553.01	42909.04
553.18	42550.94
553.34	42422.21
553.51	42394.12
553.67	42429.23
553.84	42513.49
554.01	42408.17
554.17	42710.10
554.34	42651.58
554.51	42857.55
554.67	42960.53
554.84	42506.47
555.00	42862.23
555.17	42501.79
555.33	42820.10
555.50	42728.82
555.67	42539.24
555.83	42714.78
556.00	43248.42
556.16	43578.43
556.33	42796.70
556.50	42787.33
556.66	43227.35
556.83	42691.37
556.99	43093.94
557.16	43475.45
557.32	42920.74
557.49	43164.16
557.65	42651.58
557.82	42960.53
557.98	43161.82
558.15	43044.79
558.32	43283.53
558.48	43082.24
558.65	43384.17
558.81	43091.60
558.98	43133.73
559.14	43159.48
559.31	43215.65
559.47	43548.01
559.64	44119.10
559.80	43274.16
559.97	43264.80
560.13	43456.73
560.30	43370.13
560.46	43421.62
560.63	43339.70
560.79	43636.95
560.96	43728.23
561.12	43709.50
561.29	43758.66
561.45	43700.14
561.61	43306.93
561.78	43358.42
561.94	43550.35
562.11	43494.18
562.27	43569.07
562.44	44058.24
562.60	44194.00
562.77	43952.92
562.93	43826.53
563.10	43667.37
563.26	43543.33
563.42	43789.08
563.59	44086.33
563.75	43398.21
563.92	44430.39
564.08	43749.29
564.24	44325.07
564.41	44004.41
564.57	43910.79
564.74	43899.09
564.90	44074.63
565.07	43955.26
565.23	43550.35
565.39	43962.28
565.56	44353.15
565.72	43611.20
565.88	44392.94
566.05	43962.28
566.21	44421.03
566.38	43232.04
566.54	43529.28
566.70	44460.82
566.87	44734.66
567.03	44041.86
567.19	44051.22
567.36	44142.50
567.52	43945.90
567.68	44350.81
567.85	44350.81
568.01	44280.60
568.17	44355.49
568.34	44083.99
568.50	44596.57
568.66	44034.84
568.83	44299.32
568.99	43941.22
569.15	44179.95
569.32	44105.06
569.48	43878.02
569.64	44446.77
569.81	44299.32
569.97	44364.85
570.13	44126.12
570.30	44109.74
570.46	43936.54
570.62	43952.92
570.78	43782.06
570.95	44189.31
571.11	44360.17
571.27	44182.29
571.43	43959.94
571.60	44414.01
571.76	43887.39
571.92	44285.28
572.09	43997.39
572.25	44177.61
572.41	44355.49
572.57	44987.44
572.74	44971.05
572.90	45099.78
573.06	44343.79
573.22	44807.22
573.38	44568.48
573.55	44123.78
573.71	45088.08
573.87	44442.09
574.03	44154.21
574.20	44247.83
574.36	43924.83
574.52	45027.23
574.68	44828.28
574.84	44477.20
575.01	44596.57
575.17	44430.39
575.33	44509.97
575.49	44191.65
575.65	44650.40
575.82	44498.26
575.98	44456.14
576.14	44870.41
576.30	44673.81
576.46	44079.31
576.62	44327.41
576.79	44500.61
576.95	44289.96
577.11	44584.86
577.27	44634.02
577.43	44582.52
577.59	44165.91
577.75	44552.10
577.92	44292.30
578.08	44215.06
578.24	43959.94
578.40	44477.20
578.56	44580.18
578.72	44704.23
578.88	44912.54
579.04	44219.74
579.21	44685.51
579.37	44582.52
579.53	44823.60
579.69	44526.35
579.85	44751.04
580.01	44341.45
580.17	44549.76
580.33	44825.94
580.49	44414.01
580.65	44196.34
580.82	44683.17
580.98	44643.38
581.14	44659.76
581.30	44491.24
581.46	45088.08
581.62	44755.72
581.78	44783.81
581.94	44800.19
582.10	44514.65
582.26	44905.52
582.42	44966.37
582.58	44587.21
582.74	44673.81
582.90	44629.34
583.06	44737.00
583.22	44657.42
583.38	44783.81
583.54	45071.70
583.70	44362.51
583.86	44608.27
584.02	44545.08
584.18	44844.66
584.34	44474.86
584.50	44697.21
584.66	44727.64
584.82	44421.03
584.98	44882.11
585.14	44931.26
585.30	44645.72
585.46	44856.37
585.62	44156.55
585.78	44692.53
585.94	44254.85
586.10	44488.90
586.26	44598.91
586.42	44772.11
586.58	44802.53
586.74	44954.67
586.90	44758.06
587.06	44715.93
587.22	44580.18
587.38	44526.35
587.54	45031.91
587.70	44989.78
587.86	44577.84
588.02	44783.81
588.18	45001.48
588.34	44484.22
588.49	44217.40
588.65	44399.96
588.81	44914.88
588.97	44610.61
589.13	44320.38
589.29	45043.61
589.45	44526.35
589.61	44980.42
589.77	45387.67
589.93	44945.31
590.08	44865.73
590.24	44893.82
