SpectraSuite Data File
++++++++++++++++++++++++++++++++++++
Date: Fri Oct 25 11:22:32 EDT 2013
User: price-jones
Dark Spectrum Present: No
Reference Spectrum Present: No
Number of Sampled Component Spectra: 1
Spectrometers: USB2+H05261
Integration Time (usec): 100000 (USB2+H05261)
Spectra Averaged: 1 (USB2+H05261)
Boxcar Smoothing: 0 (USB2+H05261)
Correct for Electrical Dark: No (USB2+H05261)
Strobe/Lamp Enabled: No (USB2+H05261)
Correct for Detector Non-linearity: No (USB2+H05261)
Correct for Stray Light: No (USB2+H05261)
Number of Pixels in Processed Spectrum: 2048
>>>>>Begin Processed Spectral Data<<<<<
365.73	280.86
365.92	280.86
366.12	280.86
366.32	110.01
366.52	161.50
366.72	128.73
366.91	65.54
367.11	114.69
367.31	128.73
367.51	152.13
367.70	140.43
367.90	135.75
368.10	163.84
368.30	180.22
368.49	166.18
368.69	140.43
368.89	152.13
369.09	112.35
369.28	156.82
369.48	149.79
369.68	180.22
369.87	203.63
370.07	217.67
370.27	227.03
370.47	308.95
370.66	585.13
370.86	610.88
371.06	578.11
371.25	716.20
371.45	704.50
371.65	781.74
371.84	657.69
372.04	737.27
372.24	706.84
372.44	763.01
372.63	744.29
372.83	779.40
373.03	751.31
373.22	727.91
373.42	774.72
373.62	814.51
373.81	748.97
374.01	779.40
374.21	746.63
374.40	732.59
374.60	772.38
374.79	788.76
374.99	816.85
375.19	802.80
375.38	849.61
375.58	765.36
375.78	819.19
375.97	968.98
376.17	875.36
376.37	760.67
376.56	905.79
376.76	901.11
376.95	931.53
377.15	968.98
377.35	938.55
377.54	901.11
377.74	924.51
377.93	903.45
378.13	847.27
378.33	863.66
378.52	898.77
378.72	917.49
378.91	976.00
379.11	943.24
379.31	917.49
379.50	997.07
379.70	952.60
379.89	1004.09
380.09	929.19
380.28	980.68
380.48	1029.84
380.68	938.55
380.87	1022.81
381.07	1069.62
381.26	1067.28
381.46	1001.75
381.65	997.07
381.85	997.07
382.04	1060.26
382.24	1071.97
382.43	1071.97
382.63	1090.69
382.83	1048.56
383.02	1050.90
383.22	1081.33
383.41	1067.28
383.61	1088.35
383.80	1128.14
384.00	1116.44
384.19	1078.99
384.39	1102.39
384.58	1174.95
384.78	1174.95
384.97	1174.95
385.17	1114.10
385.36	1111.75
385.56	1158.57
385.75	1174.95
385.95	1212.40
386.14	1266.23
386.34	1151.54
386.53	1212.40
386.72	1277.93
386.92	1294.32
387.11	1254.53
387.31	1350.49
387.50	1294.32
387.70	1238.14
387.89	1221.76
388.09	1261.55
388.28	1224.10
388.48	1245.16
388.67	1359.85
388.86	1294.32
389.06	1336.45
389.25	1329.42
389.45	1411.34
389.64	1301.34
389.84	1451.13
390.03	1420.71
390.22	1439.43
390.42	1399.64
390.61	1411.34
390.81	1256.87
391.00	1423.05
391.19	1366.87
391.39	1406.66
391.58	1462.83
391.78	1488.58
391.97	1514.33
392.16	1479.22
392.36	1493.26
392.55	1497.94
392.75	1493.26
392.94	1474.54
393.13	1645.40
393.33	1542.41
393.52	1600.93
393.71	1596.25
393.91	1657.10
394.10	1526.03
394.29	1565.82
394.49	1617.31
394.68	1664.12
394.88	1561.14
395.07	1687.53
395.26	1607.95
395.46	1671.14
395.65	1671.14
395.84	1600.93
396.04	1863.07
396.23	1724.97
396.42	1818.60
396.62	1846.68
396.81	1778.81
397.00	1785.83
397.19	1785.83
397.39	1802.21
397.58	1820.94
397.77	1856.04
397.97	1884.13
398.16	1771.79
398.35	1926.26
398.55	1849.02
398.74	1998.82
398.93	1937.96
399.12	1987.11
399.32	1968.39
399.51	1874.77
399.70	1961.37
399.90	1944.99
400.09	1970.73
400.28	2066.69
400.47	1956.69
400.67	2026.90
400.86	2050.31
401.05	2153.29
401.24	2157.97
401.44	2132.23
401.63	2043.29
401.82	2197.76
402.01	2146.27
402.21	2286.70
402.40	2317.13
402.59	2244.57
402.78	2256.28
402.97	2293.72
403.17	2204.78
403.36	2415.43
403.55	2289.04
403.74	2326.49
403.93	2459.90
404.13	2499.69
404.32	2298.41
404.51	2275.00
404.70	2483.31
404.89	2385.01
405.09	2534.80
405.28	2464.58
405.47	2581.61
405.66	2572.25
405.85	2459.90
406.05	2654.17
406.24	2579.27
406.43	2654.17
406.62	2677.57
406.81	2590.97
407.00	2555.86
407.20	2621.40
407.39	2679.91
407.58	2836.73
407.77	2827.37
407.96	2850.77
408.15	2848.43
408.34	2782.90
408.54	2869.50
408.73	2787.58
408.92	2843.75
409.11	2888.22
409.30	3070.78
409.49	2895.24
409.68	2881.20
409.87	2920.99
410.07	3056.74
410.26	2974.82
410.45	3033.33
410.64	3108.23
410.83	3089.51
411.02	3194.83
411.21	3192.49
411.40	3185.47
411.59	3267.39
411.78	3281.43
411.98	3375.05
412.17	3199.51
412.36	3251.00
412.55	3414.84
412.74	3531.87
412.93	3459.31
413.12	3318.88
413.31	3531.87
413.50	3508.46
413.69	3419.52
413.88	3707.41
414.07	3660.60
414.26	3674.64
414.45	3651.24
414.64	3688.68
414.83	3822.09
415.02	3791.67
415.22	3805.71
415.41	3985.93
415.60	3880.61
415.79	3995.29
415.98	4091.26
416.17	4065.51
416.36	4025.72
416.55	4058.49
416.74	4236.37
416.93	4161.47
417.12	4168.49
417.31	4198.92
417.50	4222.33
417.69	4315.95
417.88	4301.90
418.07	4369.78
418.26	4468.08
418.45	4535.96
418.64	4559.36
418.83	4477.44
419.02	4339.35
419.21	4587.45
419.39	4461.06
419.58	4496.17
419.77	4484.47
419.96	4552.34
420.15	4517.23
420.34	4542.98
420.53	4667.03
420.72	4774.69
420.91	4748.95
421.10	4758.31
421.29	4734.90
421.48	4690.43
421.67	4971.30
421.86	4842.57
422.05	4924.49
422.24	4933.85
422.43	4887.04
422.61	5036.83
422.80	4983.00
422.99	4854.27
423.18	4905.76
423.37	4987.68
423.56	4908.10
423.75	4870.65
423.94	4971.30
424.13	4699.80
424.32	4833.21
424.50	5029.81
424.69	5144.50
424.88	5139.82
425.07	5123.43
425.26	4894.06
425.45	5055.56
425.64	5116.41
425.83	5067.26
426.01	5167.90
426.20	5025.13
426.39	5188.97
426.58	5130.45
426.77	5153.86
426.96	5228.76
427.15	5130.45
427.33	5186.63
427.52	5195.99
427.71	5441.75
427.90	5252.16
428.09	5355.15
428.28	5446.43
428.46	5458.13
428.65	5453.45
428.84	5511.96
429.03	5600.90
429.22	5378.55
429.40	5511.96
429.59	5647.71
429.78	5249.82
429.97	5317.70
430.16	5575.16
430.34	5591.54
430.53	5792.83
430.72	5760.06
430.91	5621.97
431.10	5607.92
431.28	5818.57
431.47	6029.22
431.66	5849.00
431.85	5839.64
432.03	6083.05
432.22	6022.20
432.41	6047.94
432.60	6066.67
432.79	5959.00
432.97	6005.81
433.16	6104.12
433.35	5982.41
433.54	6076.03
433.72	6200.08
433.91	6181.35
434.10	6209.44
434.28	6171.99
434.47	6284.34
434.66	6305.40
434.85	6450.52
435.03	6490.31
435.22	6345.19
435.41	6691.59
435.59	6387.32
435.78	6569.88
435.97	6539.46
436.16	6480.94
436.34	6319.45
436.53	6537.12
436.72	6855.43
436.90	6560.52
437.09	6696.27
437.28	6579.25
437.46	6754.79
437.65	6827.34
437.84	6743.08
438.02	6649.46
438.21	6899.90
438.40	6834.36
438.58	7140.97
438.77	7073.10
438.96	7082.46
439.14	7162.04
439.33	7300.13
439.52	7419.50
439.70	7379.71
439.89	7356.30
440.08	7410.14
440.26	7541.21
440.45	7475.67
440.63	7595.04
440.82	7789.30
441.01	7616.10
441.19	7651.21
441.38	7681.64
441.57	7873.56
441.75	7833.77
441.94	8088.89
442.12	8037.40
442.31	8241.03
442.50	8035.06
442.68	7981.23
442.87	8086.55
443.05	8210.60
443.24	8379.12
443.43	8269.11
443.61	8292.52
443.80	8395.50
443.98	8266.77
444.17	7906.33
444.35	8205.92
444.54	8292.52
444.73	8587.43
444.91	8304.22
445.10	8376.78
445.28	8404.86
445.47	8566.36
445.65	8566.36
445.84	8582.74
446.02	8638.92
446.21	8589.77
446.39	8596.79
446.58	8685.73
446.77	8568.70
446.95	8290.18
447.14	8418.91
447.32	8695.09
447.51	8498.49
447.69	8517.21
447.88	8582.74
448.06	8727.86
448.25	8629.56
448.43	8769.99
448.62	8648.28
448.80	8779.35
448.99	8711.47
449.17	8779.35
449.36	8627.21
449.54	9146.81
449.73	8821.48
449.91	9137.45
450.10	9142.13
450.28	9167.88
450.46	9186.60
450.65	9069.58
450.83	9163.20
451.02	9109.36
451.20	9390.23
451.39	9233.41
451.57	9259.16
451.76	9114.05
451.94	9474.49
452.13	9188.94
452.31	9362.14
452.49	9371.50
452.68	9467.47
452.86	9458.10
453.05	9628.96
453.23	9591.52
453.42	9568.11
453.60	9458.10
453.78	9717.90
453.97	9738.97
454.15	9699.18
454.34	9635.99
454.52	9717.90
454.70	9802.16
454.89	9900.47
455.07	10038.56
455.26	10036.22
455.44	10125.16
455.62	10092.39
455.81	10181.33
455.99	10186.01
456.17	9944.94
456.36	10293.68
456.54	10324.10
456.73	10331.12
456.91	10733.70
457.09	10438.79
457.28	10604.97
457.46	10387.30
457.64	10518.37
457.83	10450.49
458.01	10792.21
458.19	10703.27
458.38	10679.86
458.56	10761.78
458.74	10775.83
458.93	10761.78
459.11	10881.15
459.29	10834.34
459.48	11023.92
459.66	10904.56
459.84	10930.30
460.03	11349.26
460.21	11108.18
460.39	11152.65
460.57	11063.71
460.76	11351.60
460.94	11419.47
461.12	11337.56
461.31	11307.13
461.49	11190.10
461.67	11377.34
461.85	11695.66
462.04	11412.45
462.22	11901.62
462.40	11653.53
462.59	11646.51
462.77	11442.88
462.95	11983.54
463.13	11754.17
463.32	11639.48
463.50	11899.28
463.68	11960.14
463.86	11915.67
464.05	11637.14
464.23	11836.09
464.41	11861.84
464.59	11716.72
464.78	12341.64
464.96	12018.65
465.14	11971.84
465.32	12374.41
465.50	12353.35
465.69	12177.81
465.87	12332.28
466.05	12318.24
466.23	12416.54
466.41	12444.63
466.60	12699.75
466.78	12348.67
466.96	12313.56
467.14	12414.20
467.32	12458.67
467.51	12674.00
467.69	12329.94
467.87	12725.49
468.05	12737.20
468.23	12737.20
468.41	12587.40
468.60	12819.11
468.78	12961.89
468.96	12793.37
469.14	12774.64
469.32	12961.89
469.50	12683.36
469.69	13312.97
469.87	13139.77
470.05	13296.58
470.23	13268.50
470.41	13312.97
470.59	13451.06
470.77	13493.19
470.95	13312.97
471.14	13724.90
471.32	13359.78
471.50	13984.70
471.68	13673.41
471.86	13813.84
472.04	13825.54
472.22	14366.21
472.40	13853.63
472.58	14001.08
472.77	14274.93
472.95	14230.46
473.13	14988.79
473.31	14684.52
473.49	14567.49
473.67	14359.19
473.85	14714.95
474.03	14927.94
474.21	14640.05
474.39	14764.10
474.57	14757.08
474.75	14745.38
474.93	15110.50
475.12	15089.43
475.30	15339.87
475.48	15321.15
475.66	15487.32
475.84	15494.35
476.02	15587.97
476.20	15510.73
476.38	15852.45
476.56	16362.69
476.74	16128.63
476.92	16219.91
477.10	16137.99
477.28	16397.79
477.46	16355.66
477.64	16695.04
477.82	16891.65
478.00	17401.88
478.18	17216.98
478.36	17078.89
478.54	17446.35
478.72	17439.33
478.90	17748.28
479.08	17851.27
479.26	17928.50
479.44	17659.34
479.62	18286.61
479.80	18141.49
479.98	18281.92
480.16	18717.26
480.34	18513.64
480.52	18963.02
480.70	18946.64
480.88	18803.86
481.06	19295.38
481.24	19227.50
481.41	19307.08
481.59	19510.71
481.77	19885.19
481.95	19939.02
482.13	20388.41
482.31	19896.89
482.49	20671.61
482.67	20154.35
482.85	20884.60
483.03	20917.37
483.21	21181.85
483.39	21186.53
483.57	21233.34
483.74	21628.89
483.92	21614.85
484.10	21252.06
484.28	21795.07
484.46	22347.44
484.64	22476.16
484.82	22066.57
485.00	22403.61
485.18	22923.21
485.35	23550.47
485.53	23239.18
485.71	23459.19
485.89	23756.44
486.07	23583.24
486.25	23571.54
486.43	24353.27
486.61	23910.91
486.78	24437.53
486.96	24659.88
487.14	25151.40
487.32	25010.96
487.50	25252.04
487.68	25364.39
487.85	25523.54
488.03	25687.38
488.21	26270.17
488.39	26328.69
488.57	26604.87
488.75	26621.25
488.92	26661.04
489.10	26771.05
489.28	27190.00
489.46	27536.40
489.64	27096.38
489.81	27981.10
489.99	28327.50
490.17	28133.24
490.35	28872.85
490.53	28638.80
490.70	29055.41
490.88	28706.67
491.06	29041.37
491.24	29174.78
491.41	29333.93
491.59	29497.77
491.77	29448.62
491.95	30108.65
492.13	30401.22
492.30	30387.18
492.48	30548.67
492.66	30466.75
492.84	30883.37
493.01	31110.40
493.19	30939.54
493.37	31519.99
493.54	31608.93
493.72	31838.31
493.90	31634.68
494.08	32133.21
494.25	32428.12
494.43	32669.20
494.61	32833.04
494.79	32980.49
494.96	32828.35
495.14	33289.44
495.32	33598.39
495.49	33778.61
495.67	33949.47
495.85	34230.33
496.02	34125.01
496.20	34494.82
496.38	34326.30
496.55	34698.44
496.73	35426.35
496.91	35271.87
497.09	35328.05
497.26	36009.14
497.44	35201.66
497.62	35695.51
497.79	36556.83
497.97	36093.40
498.14	36727.69
498.32	36503.00
498.50	36577.89
498.67	37244.94
498.85	37188.77
499.03	37027.28
499.20	36907.91
499.38	37408.78
499.56	37837.10
499.73	37921.36
499.91	38005.62
500.08	38120.31
500.26	37762.20
500.44	38330.95
500.61	38389.47
500.79	38232.65
500.97	38525.22
501.14	38824.81
501.32	39243.76
501.49	38857.57
501.67	39381.85
501.84	39452.07
502.02	39592.50
502.20	39608.89
502.37	39695.49
502.55	39419.30
502.72	40268.92
502.90	39681.44
503.07	40095.72
503.25	40690.21
503.43	40570.85
503.60	40376.58
503.78	40650.42
503.95	40725.32
504.13	40870.43
504.30	41284.71
504.48	41041.29
504.65	41198.11
504.83	41378.33
505.01	41294.07
505.18	41736.43
505.36	42181.13
505.53	41928.36
505.71	42340.29
505.88	42480.72
506.06	42153.05
506.23	42740.52
506.41	42576.69
506.58	42469.02
506.76	42653.92
506.93	42920.74
507.11	42986.28
507.28	42850.53
507.46	43206.29
507.63	43632.27
507.81	43707.16
507.98	42997.98
508.16	43875.68
508.33	43803.13
508.50	43873.34
508.68	44023.14
508.85	44121.44
509.03	44435.07
509.20	44561.46
509.38	45031.91
509.55	45457.88
509.73	44870.41
509.90	45151.27
510.08	44898.50
510.25	45392.35
510.42	45155.96
510.60	45591.30
510.77	45272.98
510.95	45542.14
511.12	45670.87
511.30	45830.03
511.47	46071.10
511.64	46167.07
511.82	46703.05
511.99	45968.12
512.17	46600.07
512.34	46553.26
512.51	46724.11
512.69	47154.77
512.86	46983.91
513.04	47068.17
513.21	46794.33
513.38	47545.64
513.56	47232.01
513.73	47487.13
513.90	47285.84
514.08	47566.71
514.25	47665.01
514.43	47786.72
514.60	47969.28
514.77	48130.78
514.95	48329.72
515.12	48065.24
515.29	48212.70
515.47	48540.37
515.64	48662.08
515.81	48229.08
515.99	48800.17
516.16	49010.82
516.33	48935.92
516.51	49198.06
516.68	48900.81
516.85	49027.20
517.03	49434.45
517.20	49165.29
517.37	49668.51
517.54	49731.70
517.72	49638.08
517.89	49191.04
518.06	49717.66
518.24	49691.91
518.41	49822.98
518.58	49858.09
518.75	49710.64
518.93	49998.52
519.10	50279.39
519.27	50419.82
519.45	50234.92
519.62	50600.04
519.79	50567.27
519.96	50447.91
520.14	50635.15
520.31	50490.04
520.48	50883.25
520.65	50817.71
520.83	51054.11
521.00	51327.95
521.17	50761.54
521.34	51180.49
521.52	51147.73
521.69	51079.85
521.86	51196.88
522.03	51714.14
522.20	51688.39
522.38	51774.99
522.55	51732.86
522.72	52048.83
522.89	51899.04
523.07	52109.69
523.24	52161.18
523.41	52100.32
523.58	51599.45
523.75	52456.09
523.92	52254.80
524.10	52404.59
524.27	52399.91
524.44	52259.48
524.61	52484.17
524.78	52533.32
524.96	52430.34
525.13	52629.29
525.30	53066.97
525.47	52963.98
525.64	53069.31
525.81	53144.20
525.98	52905.47
526.16	53085.69
526.33	52896.11
526.50	53567.84
526.67	53364.21
526.84	53305.70
527.01	53148.88
527.18	53165.27
527.36	53462.52
527.53	53523.37
527.70	53689.55
527.87	53881.47
528.04	53677.85
528.21	53455.50
528.38	53509.33
528.55	53750.40
528.72	53722.32
528.89	53874.45
529.07	53539.75
529.24	53689.55
529.41	54127.23
529.58	54092.12
529.75	54089.78
529.92	54382.35
530.09	54279.36
530.26	54475.97
530.43	54202.13
530.60	54323.83
530.77	54445.54
530.94	54644.49
531.11	54478.31
531.28	54567.25
531.46	54726.41
531.63	54731.09
531.80	54604.70
531.97	54852.80
532.14	54953.44
532.31	54923.01
532.48	54843.43
532.65	55030.68
532.82	54759.17
532.99	55103.23
533.16	55047.06
533.33	55288.13
533.50	55332.60
533.67	55365.37
533.84	55124.30
534.01	55391.12
534.18	55112.59
534.35	55468.36
534.52	55463.67
534.69	55515.17
534.86	55676.66
535.03	55367.71
535.20	55381.76
535.37	55447.29
535.54	55753.90
535.71	55887.31
535.88	55826.46
536.05	55959.87
536.22	55854.54
536.38	56177.54
536.55	56165.84
536.72	55950.51
536.89	55896.67
537.06	56126.05
537.23	56212.65
537.40	56226.69
537.57	56013.70
537.74	56212.65
537.91	56339.04
538.08	56509.89
538.25	56252.44
538.42	56273.50
538.59	56568.41
538.75	56528.62
538.92	56500.53
539.09	56350.74
539.26	56638.62
539.43	56631.60
539.60	56624.58
539.77	56521.60
539.94	56933.53
540.11	56692.46
540.28	56722.88
540.44	56568.41
540.61	56797.78
540.78	56348.40
540.95	56788.42
541.12	56722.88
541.29	56879.70
541.46	56931.19
541.62	56959.28
541.79	57195.67
541.96	56816.50
542.13	57001.41
542.30	57003.75
542.47	57301.00
542.63	57293.97
542.80	57188.65
542.97	57425.04
543.14	57509.30
543.31	57460.15
543.48	57495.26
543.64	57829.96
543.81	57602.92
543.98	57696.55
544.15	57935.28
544.32	57991.45
544.48	57839.32
544.65	57375.89
544.82	57914.22
544.99	57499.94
545.16	57764.42
545.32	57638.03
545.49	57946.98
545.66	57769.10
545.83	57961.03
546.00	58295.72
546.16	57893.15
546.33	57851.02
546.50	57663.78
546.67	58181.04
546.83	57839.32
547.00	58206.78
547.17	57998.48
547.34	58052.31
547.50	58300.40
547.67	58300.40
547.84	58295.72
548.00	58372.96
548.17	58429.13
548.34	58375.30
548.51	58763.83
548.67	58534.46
548.84	58567.23
549.01	58408.07
549.18	58567.23
549.34	58562.54
549.51	58674.89
549.68	58728.72
549.84	58707.66
550.01	58691.27
550.18	58548.50
550.34	58777.87
550.51	58817.66
550.68	58908.94
550.84	58768.51
551.01	58946.39
551.18	58742.77
551.34	59056.40
551.51	58808.30
551.68	58894.90
551.84	58927.67
552.01	58782.55
552.18	59072.78
552.34	59007.25
552.51	59077.46
552.68	59128.95
552.84	59110.23
553.01	59419.18
553.18	59107.89
553.34	59283.43
553.51	59049.38
553.67	59189.81
553.84	59068.10
554.01	59180.45
554.17	59133.63
554.34	59290.45
554.51	59428.54
554.67	59428.54
554.84	59519.82
555.00	59271.73
555.17	59405.14
555.33	59426.20
555.50	59222.58
555.67	59386.41
555.83	59311.52
556.00	59348.96
556.16	59650.89
556.33	59678.98
556.50	59604.08
556.66	59646.21
556.83	59655.57
556.99	59695.36
557.16	59814.73
557.32	59774.94
557.49	59756.22
557.65	59632.17
557.82	59639.19
557.98	59732.81
558.15	59653.23
558.32	59678.98
558.48	59671.96
558.65	59693.02
558.81	59477.69
558.98	59910.69
559.14	60074.53
559.31	60051.12
559.47	60044.10
559.64	60044.10
559.80	60083.89
559.97	59952.82
560.13	59753.88
560.30	60088.57
560.46	60011.34
560.63	60079.21
560.79	60032.40
560.96	60016.02
561.12	60250.07
561.29	60381.14
561.45	60233.69
561.61	60154.11
561.78	60451.36
561.94	60273.48
562.11	60184.54
562.27	60184.54
562.44	60165.81
562.60	60273.48
562.77	60425.61
562.93	60135.38
563.10	60521.57
563.26	60399.86
563.42	60514.55
563.59	60425.61
563.75	60357.74
563.92	60285.18
564.08	60449.02
564.24	60327.31
564.41	60324.97
564.57	60526.25
564.74	60491.15
564.90	60580.09
565.07	60331.99
565.23	60566.04
565.39	60516.89
565.56	60519.23
565.72	60369.44
565.88	60411.57
566.05	60322.63
566.21	60535.62
566.38	60715.84
566.54	60685.41
566.70	60650.30
566.87	60732.22
567.03	60343.69
567.19	60781.37
567.36	60657.32
567.52	60830.52
567.68	60931.17
567.85	60699.45
568.01	60690.09
568.17	60537.96
568.34	60631.58
568.50	60552.00
568.66	60505.19
568.83	60725.20
568.99	60629.24
569.15	60760.31
569.32	60781.37
569.48	60701.79
569.64	60968.61
569.81	60718.18
569.97	60598.81
570.13	60619.88
570.30	60671.37
570.46	60662.00
570.62	60846.91
570.78	60753.29
570.95	60940.53
571.11	61106.71
571.27	60905.42
571.43	60912.44
571.60	61158.20
571.76	60863.29
571.92	61031.81
572.09	60952.23
572.25	60774.35
572.41	60657.32
572.57	61003.72
572.74	60853.93
572.90	61013.08
573.06	60912.44
573.22	60912.44
573.38	60987.34
573.55	60966.27
573.71	61087.98
573.87	60706.47
574.03	60732.22
574.20	61228.41
574.36	60982.66
574.52	61022.45
574.68	61017.77
574.84	61169.90
575.01	61006.06
575.17	61144.16
575.33	61080.96
575.49	60872.65
575.65	61092.66
575.82	61029.47
575.98	61024.79
576.14	61212.03
576.30	61258.84
576.46	61111.39
576.62	60987.34
576.79	61080.96
576.95	60942.87
577.11	61181.60
577.27	61137.13
577.43	61109.05
577.59	61015.43
577.75	60931.17
577.92	60977.98
578.08	61099.68
578.24	61244.80
578.40	61282.25
578.56	61214.37
578.72	60977.98
578.88	61254.16
579.04	61310.33
579.21	61062.24
579.37	61268.20
579.53	61312.67
579.69	61024.79
579.85	61041.17
580.01	61242.46
580.17	60966.27
580.33	61394.59
580.49	61315.01
580.65	61350.12
580.82	61052.87
580.98	61193.31
581.14	60973.30
581.30	61207.35
581.46	61291.61
581.62	61277.57
581.78	61132.45
581.94	61209.69
582.10	61277.57
582.26	61130.11
582.42	61233.10
582.58	61375.87
582.74	61052.87
582.90	61343.10
583.06	61338.42
583.22	61219.05
583.38	61219.05
583.54	61333.74
583.70	61300.97
583.86	61242.46
584.02	61069.26
584.18	61410.98
584.34	61336.08
584.50	61401.61
584.66	61261.18
584.82	61055.21
584.98	61305.65
585.14	61340.76
585.30	61071.60
585.46	61240.12
585.62	61359.48
585.78	61574.81
585.94	61113.73
586.10	61439.06
586.26	61443.74
586.42	61455.45
586.58	61282.25
586.74	61513.96
586.90	61436.72
587.06	61300.97
587.22	61453.11
587.38	61279.91
587.54	61516.30
587.70	61544.39
587.86	61303.31
588.02	61553.75
588.18	61471.83
588.34	61186.28
