SpectraSuite Data File
++++++++++++++++++++++++++++++++++++
Date: Fri Oct 25 11:26:16 EDT 2013
User: price-jones
Dark Spectrum Present: No
Reference Spectrum Present: No
Number of Sampled Component Spectra: 1
Spectrometers: USB2+H05261
Integration Time (usec): 100000 (USB2+H05261)
Spectra Averaged: 1 (USB2+H05261)
Boxcar Smoothing: 0 (USB2+H05261)
Correct for Electrical Dark: No (USB2+H05261)
Strobe/Lamp Enabled: No (USB2+H05261)
Correct for Detector Non-linearity: No (USB2+H05261)
Correct for Stray Light: No (USB2+H05261)
Number of Pixels in Processed Spectrum: 2048
>>>>>Begin Processed Spectral Data<<<<<
365.73	271.50
365.92	271.50
366.12	271.50
366.32	208.31
366.52	135.75
366.72	184.90
366.91	98.30
367.11	133.41
367.31	156.82
367.51	105.32
367.70	138.09
367.90	138.09
368.10	112.35
368.30	28.09
368.49	77.24
368.69	198.95
368.89	119.37
369.09	138.09
369.28	194.26
369.48	154.48
369.68	149.79
369.87	227.03
370.07	201.29
370.27	229.37
370.47	355.76
370.66	638.97
370.86	629.60
371.06	664.71
371.25	723.23
371.45	627.26
371.65	617.90
371.84	692.80
372.04	678.76
372.24	716.20
372.44	718.54
372.63	709.18
372.83	788.76
373.03	732.59
373.22	763.01
373.42	784.08
373.62	802.80
373.81	774.72
374.01	765.36
374.21	798.12
374.40	842.59
374.60	800.46
374.79	837.91
374.99	770.04
375.19	856.64
375.38	891.74
375.58	891.74
375.78	842.59
375.97	875.36
376.17	868.34
376.37	905.79
376.56	823.87
376.76	828.55
376.95	826.21
377.15	851.96
377.35	910.47
377.54	835.57
377.74	896.43
377.93	901.11
378.13	957.28
378.33	971.32
378.52	866.00
378.72	926.85
378.91	929.19
379.11	954.94
379.31	971.32
379.50	903.45
379.70	961.96
379.89	964.30
380.09	912.81
380.28	938.55
380.48	987.71
380.68	978.34
380.87	985.37
381.07	1020.47
381.26	987.71
381.46	1034.52
381.65	1022.81
381.85	1027.50
382.04	980.68
382.24	1046.22
382.43	1090.69
382.63	1018.13
382.83	1064.94
383.02	1118.78
383.22	1064.94
383.41	1069.62
383.61	1179.63
383.80	1074.31
384.00	1097.71
384.19	1015.79
384.39	1100.05
384.58	1174.95
384.78	1109.41
384.97	1107.07
385.17	1163.25
385.36	1158.57
385.56	1193.67
385.75	1123.46
385.95	1177.29
386.14	1315.38
386.34	1242.82
386.53	1306.02
386.72	1238.14
386.92	1247.51
387.11	1224.10
387.31	1315.38
387.50	1188.99
387.70	1268.57
387.89	1301.34
388.09	1181.97
388.28	1291.98
388.48	1277.93
388.67	1270.91
388.86	1313.04
389.06	1254.53
389.25	1366.87
389.45	1315.38
389.64	1212.40
389.84	1430.07
390.03	1313.04
390.22	1310.70
390.42	1214.74
390.61	1380.92
390.81	1373.89
391.00	1453.47
391.19	1507.30
391.39	1453.47
391.58	1423.05
391.78	1444.11
391.97	1486.24
392.16	1500.28
392.36	1521.35
392.55	1411.34
392.75	1579.86
392.94	1533.05
393.13	1462.83
393.33	1488.58
393.52	1509.65
393.71	1530.71
393.91	1535.39
394.10	1563.48
394.29	1619.65
394.49	1537.73
394.68	1638.38
394.88	1568.16
395.07	1631.35
395.26	1699.23
395.46	1640.72
395.65	1729.66
395.84	1643.06
396.04	1792.85
396.23	1629.01
396.42	1748.38
396.62	1722.63
396.81	1818.60
397.00	1860.73
397.19	1923.92
397.39	1647.74
397.58	1694.55
397.77	1762.42
397.97	1867.75
398.16	1856.04
398.35	1912.22
398.55	1790.51
398.74	1863.07
398.93	1856.04
399.12	1961.37
399.32	1921.58
399.51	1870.09
399.70	2045.63
399.90	1980.09
400.09	2062.01
400.28	2057.33
400.47	1998.82
400.67	2036.27
400.86	2132.23
401.05	2087.76
401.24	1975.41
401.44	2132.23
401.63	2083.08
401.82	2211.81
402.01	2043.29
402.21	2125.21
402.40	2146.27
402.59	2267.98
402.78	2228.19
402.97	2188.40
403.17	2162.66
403.36	2181.38
403.55	2275.00
403.74	2293.72
403.93	2324.15
404.13	2342.88
404.32	2284.36
404.51	2380.32
404.70	2370.96
404.89	2413.09
405.09	2502.03
405.28	2420.11
405.47	2466.92
405.66	2518.42
405.85	2579.27
406.05	2480.97
406.24	2644.81
406.43	2602.68
406.62	2661.19
406.81	2656.51
407.00	2523.10
407.20	2579.27
407.39	2593.31
407.58	2675.23
407.77	2885.88
407.96	2745.45
408.15	2644.81
408.34	2619.06
408.54	2766.51
408.73	2768.85
408.92	2860.13
409.11	2869.50
409.30	2799.28
409.49	2932.69
409.68	2974.82
409.87	2949.08
410.07	3040.36
410.26	3045.04
410.45	2963.12
410.64	2972.48
410.83	3012.27
411.02	3098.87
411.21	3108.23
411.40	3194.83
411.59	3143.34
411.78	3066.10
411.98	3169.09
412.17	3197.17
412.36	3248.66
412.55	3384.41
412.74	3543.57
412.93	3412.50
413.12	3386.76
413.31	3485.06
413.50	3410.16
413.69	3475.70
413.88	3501.44
414.07	3485.06
414.26	3574.00
414.45	3606.77
414.64	3684.00
414.83	3646.55
415.02	3688.68
415.22	3758.90
415.41	3971.89
415.60	3836.14
415.79	3927.42
415.98	3932.10
416.17	3925.08
416.36	3955.51
416.55	3999.98
416.74	3812.73
416.93	4002.32
417.12	4184.88
417.31	4163.81
417.50	4126.36
417.69	4266.80
417.88	4322.97
418.07	4241.05
418.26	4383.82
418.45	4327.65
418.64	4386.16
418.83	4402.55
419.02	4557.02
419.21	4444.68
419.39	4552.34
419.58	4512.55
419.77	4360.42
419.96	4451.70
420.15	4589.79
420.34	4416.59
420.53	4517.23
420.72	4643.62
420.91	4683.41
421.10	4835.55
421.29	4788.74
421.48	4720.86
421.67	4847.25
421.86	4734.90
422.05	4697.46
422.24	4706.82
422.43	4828.53
422.61	4748.95
422.80	5004.07
422.99	4873.00
423.18	4917.47
423.37	5158.54
423.56	4812.14
423.75	4903.42
423.94	4748.95
424.13	4526.60
424.32	4737.24
424.50	4945.55
424.69	5174.92
424.88	5050.88
425.07	4990.02
425.26	4840.23
425.45	5039.17
425.64	4830.87
425.83	4961.94
426.01	5107.05
426.20	5074.28
426.39	5102.37
426.58	4947.89
426.77	5064.92
426.96	5062.58
427.15	5013.43
427.33	5188.97
427.52	5235.78
427.71	5327.06
427.90	5212.37
428.09	5329.40
428.28	5359.83
428.46	5254.50
428.65	5462.81
428.84	5500.26
429.03	5640.69
429.22	5315.36
429.40	5376.21
429.59	5310.68
429.78	5228.76
429.97	5165.56
430.16	5441.75
430.34	5493.24
430.53	5497.92
430.72	5614.95
430.91	5572.82
431.10	5568.13
431.28	5645.37
431.47	5687.50
431.66	5923.90
431.85	5729.63
432.03	5973.05
432.22	6066.67
432.41	5865.38
432.60	5846.66
432.79	5799.85
432.97	5947.30
433.16	5839.64
433.35	6085.39
433.54	5879.43
433.72	5966.03
433.91	5994.11
434.10	6256.25
434.28	6043.26
434.47	6132.20
434.66	6328.81
434.85	6207.10
435.03	6260.93
435.22	6176.67
435.41	6485.62
435.59	6293.70
435.78	6602.65
435.97	6291.36
436.16	6450.52
436.34	6443.49
436.53	6459.88
436.72	6480.94
436.90	6277.32
437.09	6637.76
437.28	6459.88
437.46	6509.03
437.65	6548.82
437.84	6970.12
438.02	6658.82
438.21	6935.01
438.40	6649.46
438.58	7035.65
438.77	7019.27
438.96	6935.01
439.14	7108.21
439.33	7155.02
439.52	7030.97
439.70	7171.40
439.89	7248.64
440.08	7190.13
440.26	7527.16
440.45	7353.96
440.63	7473.33
440.82	7662.91
441.01	7459.29
441.19	7517.80
441.38	7644.19
441.57	7712.07
441.75	7751.85
441.94	7826.75
442.12	7868.88
442.31	7880.58
442.50	8006.97
442.68	7861.86
442.87	8105.28
443.05	8042.08
443.24	8053.78
443.43	8067.83
443.61	8070.17
443.80	8271.45
443.98	8021.02
444.17	7707.38
444.35	8102.93
444.54	8149.75
444.73	8301.88
444.91	8320.60
445.10	8283.16
445.28	8308.90
445.47	8147.40
445.65	8409.54
445.84	8390.82
446.02	8545.30
446.21	8299.54
446.39	8107.62
446.58	8315.92
446.77	8468.06
446.95	8215.28
447.14	8458.70
447.32	8615.51
447.51	8475.08
447.69	8493.80
447.88	8400.18
448.06	8589.77
448.25	8594.45
448.43	8208.26
448.62	8430.61
448.80	8461.04
448.99	8477.42
449.17	8706.79
449.36	8638.92
449.54	8643.60
449.73	8746.58
449.91	9081.28
450.10	8924.46
450.28	9029.79
450.46	9158.52
450.65	8877.65
450.83	9085.96
451.02	9139.79
451.20	9135.11
451.39	9369.16
451.57	9212.35
451.76	8931.48
451.94	9050.85
452.13	9334.06
452.31	9247.46
452.49	9282.56
452.68	9282.56
452.86	9399.59
453.05	9394.91
453.23	9345.76
453.42	9263.84
453.60	9268.52
453.78	9345.76
453.97	9266.18
454.15	9275.54
454.34	9448.74
454.52	9483.85
454.70	9762.37
454.89	9570.45
455.07	9671.09
455.26	9664.07
455.44	9809.19
455.62	9956.64
455.81	9980.04
455.99	9774.08
456.17	10066.64
456.36	10012.81
456.54	9987.07
456.73	10146.22
456.91	10181.33
457.09	10108.77
457.28	10490.28
457.46	10221.12
457.64	10406.02
457.83	10504.32
458.01	10242.18
458.19	10518.37
458.38	10490.28
458.56	10677.52
458.74	10752.42
458.93	10761.78
459.11	10614.33
459.29	10768.80
459.48	10911.58
459.66	10562.84
459.84	10906.90
460.03	10946.69
460.21	10881.15
460.39	10995.84
460.57	10909.24
460.76	10963.07
460.94	11117.54
461.12	11166.70
461.31	10934.98
461.49	11323.51
461.67	10951.37
461.85	11421.81
462.04	11283.72
462.22	11538.84
462.40	11669.91
462.59	11365.64
462.77	11267.34
462.95	11630.12
463.13	11522.46
463.32	11501.39
463.50	11651.19
463.68	11625.44
463.86	11796.30
464.05	11527.14
464.23	11669.91
464.41	11903.96
464.59	11676.93
464.78	11800.98
464.96	12060.78
465.14	11826.73
465.32	12030.35
465.50	12142.70
465.69	12308.88
465.87	12273.77
466.05	12224.62
466.23	12175.47
466.41	12009.29
466.60	12608.47
466.78	12070.14
466.96	12060.78
467.14	12219.94
467.32	12166.10
467.51	12456.33
467.69	11896.94
467.87	12510.16
468.05	12425.90
468.23	12133.34
468.41	12510.16
468.60	12669.32
468.78	12482.08
468.96	12355.69
469.14	12683.36
469.32	12793.37
469.50	12720.81
469.69	12936.14
469.87	13062.53
470.05	12828.48
470.23	12933.80
470.41	12915.08
470.59	13191.26
470.77	13277.86
470.95	13214.66
471.14	13469.78
471.32	12982.95
471.50	13551.70
471.68	13614.90
471.86	13568.09
472.04	13659.37
472.22	13893.42
472.40	13673.41
472.58	14061.94
472.77	13846.61
472.95	13930.87
473.13	14438.76
473.31	13963.64
473.49	14157.90
473.67	13942.57
473.85	14045.55
474.03	14597.92
474.21	14401.32
474.39	14782.82
474.57	14656.43
474.75	14808.57
474.93	14754.74
475.12	14728.99
475.30	15005.17
475.48	14743.03
475.66	15290.72
475.84	14958.36
476.02	15211.14
476.20	15290.72
476.38	15609.03
476.56	15899.26
476.74	16145.02
476.92	15927.35
477.10	15576.27
477.28	16077.14
477.46	16233.96
477.64	16135.65
477.82	16599.08
478.00	16542.91
478.18	16844.84
478.36	16772.28
478.54	17039.10
478.72	17151.45
478.90	17167.83
479.08	17458.06
479.26	17600.83
479.44	17891.06
479.62	17820.84
479.80	18001.06
479.98	18085.32
480.16	18530.02
480.34	18307.67
480.52	18370.86
480.70	18590.88
480.88	18178.94
481.06	18560.45
481.24	18658.75
481.41	18696.20
481.59	19220.48
481.77	19278.99
481.95	19438.15
482.13	19496.66
482.31	19857.10
482.49	19999.88
482.67	20032.65
482.85	20383.73
483.03	20414.15
483.21	20978.22
483.39	20959.50
483.57	20657.57
483.74	20863.54
483.92	21390.16
484.10	21413.56
484.28	21769.32
484.46	21514.20
484.64	22111.04
484.82	21738.90
485.00	22415.31
485.18	22977.04
485.35	22813.20
485.53	22581.49
485.71	23056.62
485.89	23253.22
486.07	23140.88
486.25	23222.80
486.43	23307.05
486.61	23424.08
486.78	23939.00
486.96	23786.86
487.14	24074.75
487.32	24549.88
487.50	24875.21
487.68	24762.87
487.85	25099.90
488.03	25668.66
488.21	26001.01
488.39	25649.93
488.57	25687.38
488.75	25685.04
488.92	26092.29
489.10	26511.25
489.28	26726.58
489.46	27023.83
489.64	26780.41
489.81	27480.23
489.99	27498.95
490.17	27571.51
490.35	27943.66
490.53	28044.30
490.70	28074.73
490.88	28315.80
491.06	28491.34
491.24	28386.02
491.41	28458.57
491.59	28959.45
491.77	29088.18
491.95	29537.56
492.13	29172.44
492.30	30003.33
492.48	29619.48
492.66	30150.78
492.84	30260.79
493.01	30689.10
493.19	30256.11
493.37	30749.96
493.54	31129.12
493.72	31218.07
493.90	31470.84
494.08	31730.64
494.25	31967.04
494.43	31690.85
494.61	31952.99
494.79	32435.14
494.96	32362.59
495.14	32496.00
495.32	32826.01
495.49	32947.72
495.67	33050.70
495.85	33097.52
496.02	33539.88
496.20	33551.58
496.38	33820.74
496.55	33986.92
496.73	34735.89
496.91	34684.40
497.09	34356.72
497.26	34696.10
497.44	35196.98
497.62	34824.83
497.79	35569.12
497.97	35367.84
498.14	35468.48
498.32	36027.87
498.50	35962.33
498.67	36514.70
498.85	36336.82
499.03	36390.65
499.20	36589.59
499.38	36678.54
499.56	36636.41
499.73	37172.39
499.91	36865.78
500.08	37404.10
500.26	37022.59
500.44	37408.78
500.61	37701.35
500.79	37090.47
500.97	37897.95
501.14	38628.20
501.32	38031.36
501.49	38440.96
501.67	38649.27
501.84	38485.43
502.02	38469.04
502.20	38632.88
502.37	38714.80
502.55	38958.22
502.72	39147.80
502.90	39456.75
503.07	39267.17
503.25	39543.35
503.43	39203.97
503.60	39608.89
503.78	39805.49
503.95	39910.82
504.13	40081.67
504.30	40418.71
504.48	40285.30
504.65	39915.50
504.83	40959.38
505.01	41158.32
505.18	40802.56
505.36	41265.99
505.53	41188.75
505.71	41378.33
505.88	41628.77
506.06	40835.33
506.23	41921.34
506.41	41617.07
506.58	41848.78
506.76	42089.85
506.93	42160.07
507.11	42178.79
507.28	42033.68
507.46	42071.13
507.63	42904.36
507.81	43182.88
507.98	42792.01
508.16	43058.84
508.33	43126.71
508.50	43299.91
508.68	43295.23
508.85	43278.85
509.03	43519.92
509.20	43501.20
509.38	44161.23
509.55	44013.77
509.73	44027.82
509.90	44519.33
510.08	44306.34
510.25	44154.21
510.42	44524.01
510.60	44528.69
510.77	44645.72
510.95	45319.79
511.12	45415.76
511.30	45170.00
511.47	45471.93
511.64	44891.48
511.82	45570.23
511.99	45373.63
512.17	45993.87
512.34	45427.46
512.51	45937.69
512.69	46169.41
512.86	45968.12
513.04	46429.21
513.21	46110.89
513.38	46476.02
513.56	46597.73
513.73	46600.07
513.90	46775.61
514.08	47070.51
514.25	46902.00
514.43	46909.02
514.60	47409.89
514.77	47023.70
514.95	47449.68
515.12	47704.80
515.29	47313.93
515.47	47978.64
515.64	48151.84
515.81	47594.79
515.99	48123.75
516.16	47882.68
516.33	47922.47
516.51	48491.22
516.68	48065.24
516.85	48474.84
517.03	48584.84
517.20	48776.76
517.37	48322.70
517.54	48727.61
517.72	48807.19
517.89	48823.58
518.06	49097.42
518.24	49113.80
518.41	48940.60
518.58	49038.90
518.75	49071.67
518.93	49350.20
519.10	48886.77
519.27	49387.64
519.45	49588.93
519.62	49696.59
519.79	49932.99
519.96	49595.95
520.14	50211.51
520.31	49872.14
520.48	49993.84
520.65	49895.54
520.83	50340.24
521.00	50021.93
521.17	50183.43
521.34	50487.70
521.52	50747.50
521.69	50721.75
521.86	50387.05
522.03	50913.67
522.20	51276.46
522.38	51290.50
522.55	51285.82
522.72	50967.51
522.89	51304.54
523.07	51309.22
523.24	50841.12
523.41	51407.53
523.58	51381.78
523.75	51459.02
523.92	51732.86
524.10	51756.27
524.27	51573.70
524.44	51983.30
524.61	51760.95
524.78	52247.78
524.96	51927.13
525.13	52231.40
525.30	51990.32
525.47	52500.56
525.64	52261.82
525.81	52409.28
525.98	52596.52
526.16	52449.06
526.33	52538.01
526.50	52715.89
526.67	52376.51
526.84	52959.30
527.01	52509.92
527.18	52907.81
527.36	52734.61
527.53	52893.77
527.70	53179.31
527.87	53144.20
528.04	52966.32
528.21	53326.77
528.38	52947.60
528.55	53673.16
528.72	53130.16
528.89	53277.61
529.07	53057.60
529.24	53251.87
529.41	53502.31
529.58	53530.39
529.75	53462.52
529.92	53586.57
530.09	53705.93
530.26	53511.67
530.43	53822.96
530.60	53399.32
530.77	53696.57
530.94	54007.86
531.11	53691.89
531.28	53977.43
531.46	53918.92
531.63	54190.42
531.80	54188.08
531.97	53993.82
532.14	54557.89
532.31	54145.95
532.48	54363.62
532.65	54429.16
532.82	54506.40
532.99	54494.69
533.16	54408.09
533.33	54726.41
533.50	54738.11
533.67	54557.89
533.84	54508.74
534.01	54838.75
534.18	54738.11
534.35	55150.04
534.52	54836.41
534.69	54976.84
534.86	55227.28
535.03	54798.96
535.20	55105.57
535.37	55203.88
535.54	55318.56
535.71	55126.64
535.88	55229.62
536.05	55426.23
536.22	55437.93
536.38	55377.08
536.55	55412.18
536.72	55311.54
536.89	55428.57
537.06	55615.81
537.23	55650.92
537.40	55449.63
537.57	55519.85
537.74	55409.84
537.91	55749.22
538.08	55695.39
538.25	55597.09
538.42	55765.60
538.59	56179.88
538.75	55709.43
538.92	55758.58
539.09	56154.13
539.26	56128.39
539.43	55887.31
539.60	56020.72
539.77	55924.76
539.94	56294.56
540.11	56229.03
540.28	56257.12
540.44	56226.69
540.61	56184.56
540.78	56172.86
540.95	56425.64
541.12	56224.35
541.29	56456.06
541.46	56126.05
541.62	56322.65
541.79	56409.25
541.96	56423.29
542.13	56296.91
542.30	56706.50
542.47	56755.65
542.63	56577.77
542.80	56830.55
542.97	56762.67
543.14	56931.19
543.31	56877.36
543.48	56949.92
543.64	57296.31
543.81	57350.15
543.98	57291.63
544.15	57237.80
544.32	57488.24
544.48	57434.41
544.65	57144.18
544.82	57308.02
544.99	57198.01
545.16	57462.49
545.32	57134.82
545.49	57616.97
545.66	57490.58
545.83	57577.18
546.00	57771.44
546.16	57418.02
546.33	57406.32
546.50	57350.15
546.67	57584.20
546.83	57214.40
547.00	57628.67
547.17	57607.61
547.34	57591.22
547.50	57801.87
547.67	57886.13
547.84	58089.76
548.00	57855.70
548.17	58230.19
548.34	58019.54
548.51	58120.18
548.67	58089.76
548.84	57991.45
549.01	57738.68
549.18	57986.77
549.34	58155.29
549.51	58195.08
549.68	58141.25
549.84	58293.38
550.01	58363.60
550.18	58064.01
550.34	58408.07
550.51	58408.07
550.68	58181.04
550.84	57982.09
551.01	58003.16
551.18	58286.36
551.34	58274.66
551.51	58351.90
551.68	58478.28
551.84	58286.36
552.01	58440.84
552.18	58482.97
552.34	58349.56
552.51	58628.08
552.68	58464.24
552.84	58562.54
553.01	58841.07
553.18	58569.57
553.34	58857.45
553.51	58719.36
553.67	58735.74
553.84	58796.60
554.01	58812.98
554.17	58937.03
554.34	58836.39
554.51	58555.52
554.67	58941.71
554.84	58798.94
555.00	58805.96
555.17	58887.88
555.33	58775.53
555.50	58918.31
555.67	58681.91
555.83	58899.58
556.00	58831.71
556.16	59171.08
556.33	59334.92
556.50	58859.79
556.66	59150.02
556.83	58899.58
556.99	59119.59
557.16	59353.65
557.32	59543.23
557.49	59465.99
557.65	59112.57
557.82	59262.36
557.98	59402.80
558.15	59260.02
558.32	59482.37
558.48	59365.35
558.65	59267.05
558.81	59320.88
558.98	59250.66
559.14	59611.10
559.31	59470.67
559.47	59526.84
559.64	59608.76
559.80	59531.53
559.97	59508.12
560.13	59487.06
560.30	59576.00
560.46	59543.23
560.63	59515.14
560.79	59641.53
560.96	59477.69
561.12	59737.49
561.29	59728.13
561.45	59753.88
561.61	59552.59
561.78	59552.59
561.94	59690.68
562.11	59831.11
562.27	59590.04
562.44	59856.86
562.60	59854.52
562.77	59906.01
562.93	59730.47
563.10	60044.10
563.26	59753.88
563.42	60044.10
563.59	59948.14
563.75	59781.96
563.92	59943.46
564.08	59826.43
564.24	59973.89
564.41	59810.05
564.57	60114.32
564.74	59971.55
564.90	59931.76
565.07	59943.46
565.23	60041.76
565.39	59966.87
565.56	60069.85
565.72	59973.89
565.88	59889.63
566.05	59994.95
566.21	60086.23
566.38	60072.19
566.54	60273.48
566.70	60296.88
566.87	60163.47
567.03	60027.72
567.19	60378.80
567.36	60172.83
567.52	60032.40
567.68	60378.80
567.85	60397.52
568.01	60282.84
568.17	60104.96
568.34	60212.62
568.50	59903.67
568.66	60257.09
568.83	60346.03
568.99	60233.69
569.15	60287.52
569.32	60250.07
569.48	60133.04
569.64	60491.15
569.81	60427.95
569.97	60266.45
570.13	60205.60
570.30	60245.39
570.46	60444.33
570.62	60177.51
570.78	60289.86
570.95	60350.71
571.11	60552.00
571.27	60214.96
571.43	60367.10
571.60	60423.27
571.76	60273.48
571.92	60416.25
572.09	60498.17
572.25	60395.18
572.41	60491.15
572.57	60301.56
572.74	60643.28
572.90	60519.23
573.06	60418.59
573.22	60500.51
573.38	60395.18
573.55	60418.59
573.71	60612.85
573.87	60697.11
574.03	60341.35
574.20	60561.36
574.36	60378.80
574.52	60470.08
574.68	60598.81
574.84	60748.60
575.01	60699.45
575.17	60575.40
575.33	60402.21
575.49	60381.14
575.65	60535.62
575.82	60830.52
575.98	60535.62
576.14	60729.88
576.30	60760.31
576.46	60638.60
576.62	60650.30
576.79	60720.52
576.95	60547.32
577.11	60654.98
577.27	60678.39
577.43	60589.45
577.59	60591.79
577.75	60552.00
577.92	60479.44
578.08	60427.95
578.24	60699.45
578.40	60659.66
578.56	60977.98
578.72	60640.94
578.88	60804.78
579.04	60928.83
579.21	60790.73
579.37	60999.04
579.53	60853.93
579.69	60542.64
579.85	60535.62
580.01	60727.54
580.17	60666.69
580.33	60858.61
580.49	60699.45
580.65	60685.41
580.82	60692.43
580.98	60669.03
581.14	60739.24
581.30	60910.10
581.46	60753.29
581.62	60816.48
581.78	60570.72
581.94	60776.69
582.10	60739.24
582.26	60851.59
582.42	60746.26
582.58	60970.96
582.74	60793.07
582.90	60874.99
583.06	60767.33
583.22	60706.47
583.38	60697.11
583.54	60767.33
583.70	60947.55
583.86	60956.91
584.02	60907.76
584.18	60860.95
584.34	60739.24
584.50	60750.94
584.66	60764.99
584.82	60533.28
584.98	60856.27
585.14	60860.95
585.30	60832.86
585.46	60963.93
585.62	60912.44
585.78	61071.60
585.94	60786.05
586.10	61008.40
586.26	60980.32
586.42	60992.02
586.58	60912.44
586.74	60994.36
586.90	61041.17
587.06	60846.91
587.22	60996.70
587.38	61078.62
587.54	60992.02
587.70	61123.09
587.86	60793.07
588.02	60893.72
588.18	61073.94
588.34	60989.68
588.49	60942.87
