SpectraSuite Data File
++++++++++++++++++++++++++++++++++++
Date: Fri Oct 25 10:44:52 EDT 2013
User: price-jones
Dark Spectrum Present: No
Reference Spectrum Present: No
Number of Sampled Component Spectra: 1
Spectrometers: USB2+H05261
Integration Time (usec): 100000 (USB2+H05261)
Spectra Averaged: 1 (USB2+H05261)
Boxcar Smoothing: 0 (USB2+H05261)
Correct for Electrical Dark: No (USB2+H05261)
Strobe/Lamp Enabled: No (USB2+H05261)
Correct for Detector Non-linearity: No (USB2+H05261)
Correct for Stray Light: No (USB2+H05261)
Number of Pixels in Processed Spectrum: 2048
>>>>>Begin Processed Spectral Data<<<<<
365.73	128.73
365.92	128.73
366.12	128.73
366.32	63.19
366.52	0.00
366.72	18.72
366.91	2.34
367.11	77.24
367.31	35.11
367.51	77.24
367.70	0.00
367.90	32.77
368.10	0.00
368.30	79.58
368.49	23.41
368.69	42.13
368.89	53.83
369.09	28.09
369.28	44.47
369.48	117.03
369.68	56.17
369.87	98.30
370.07	105.32
370.27	161.50
370.47	187.24
370.66	355.76
370.86	463.43
371.06	496.19
371.25	402.57
371.45	428.32
371.65	461.09
371.84	358.10
372.04	400.23
372.24	421.30
372.44	461.09
372.63	465.77
372.83	440.02
373.03	521.94
373.22	526.62
373.42	470.45
373.62	552.37
373.81	505.56
374.01	543.00
374.21	610.88
374.40	587.47
374.60	554.71
374.79	543.00
374.99	547.69
375.19	564.07
375.38	615.56
375.58	608.54
375.78	585.13
375.97	571.09
376.17	617.90
376.37	538.32
376.56	589.82
376.76	596.84
376.95	638.97
377.15	585.13
377.35	566.41
377.54	620.24
377.74	620.24
377.93	589.82
378.13	636.63
378.33	585.13
378.52	547.69
378.72	638.97
378.91	657.69
379.11	528.96
379.31	613.22
379.50	566.41
379.70	683.44
379.89	671.73
380.09	552.37
380.28	657.69
380.48	678.76
380.68	634.29
380.87	629.60
381.07	711.52
381.26	664.71
381.46	683.44
381.65	704.50
381.85	678.76
382.04	674.07
382.24	620.24
382.43	697.48
382.63	622.58
382.83	678.76
383.02	727.91
383.22	716.20
383.41	664.71
383.61	819.19
383.80	816.85
384.00	653.01
384.19	699.82
384.39	648.33
384.58	730.25
384.78	770.04
384.97	798.12
385.17	748.97
385.36	763.01
385.56	770.04
385.75	716.20
385.95	730.25
386.14	798.12
386.34	737.27
386.53	744.29
386.72	746.63
386.92	826.21
387.11	739.61
387.31	819.19
387.50	730.25
387.70	770.04
387.89	814.51
388.09	809.83
388.28	826.21
388.48	830.89
388.67	926.85
388.86	976.00
389.06	819.19
389.25	964.30
389.45	915.15
389.64	924.51
389.84	936.21
390.03	917.49
390.22	929.19
390.42	990.05
390.61	905.79
390.81	912.81
391.00	912.81
391.19	873.02
391.39	997.07
391.58	926.85
391.78	994.73
391.97	931.53
392.16	1013.45
392.36	973.66
392.55	1050.90
392.75	978.34
392.94	924.51
393.13	922.17
393.33	926.85
393.52	994.73
393.71	1032.18
393.91	999.41
394.10	1095.37
394.29	1074.31
394.49	1086.01
394.68	1053.24
394.88	1100.05
395.07	1191.33
395.26	1071.97
395.46	1025.15
395.65	1123.46
395.84	1090.69
396.04	1078.99
396.23	1102.39
396.42	1125.80
396.62	1050.90
396.81	1027.50
397.00	1123.46
397.19	1151.54
397.39	1266.23
397.58	1160.91
397.77	1235.80
397.97	1252.19
398.16	1291.98
398.35	1233.46
398.55	1266.23
398.74	1291.98
398.93	1348.15
399.12	1324.74
399.32	1348.15
399.51	1350.49
399.70	1341.13
399.90	1413.68
400.09	1432.41
400.28	1336.45
400.47	1423.05
400.67	1462.83
400.86	1465.18
401.05	1537.73
401.24	1502.62
401.44	1420.71
401.63	1413.68
401.82	1446.45
402.01	1460.49
402.21	1469.86
402.40	1462.83
402.59	1469.86
402.78	1542.41
402.97	1554.12
403.17	1547.09
403.36	1586.88
403.55	1507.30
403.74	1661.78
403.93	1643.06
404.13	1664.12
404.32	1638.38
404.51	1696.89
404.70	1757.74
404.89	1696.89
405.09	1650.08
405.28	1720.29
405.47	1715.61
405.66	1671.14
405.85	1729.66
406.05	1813.92
406.24	1799.87
406.43	1750.72
406.62	1856.04
406.81	1867.75
407.00	1781.15
407.20	1933.28
407.39	1842.00
407.58	1776.47
407.77	1926.26
407.96	1926.26
408.15	2040.95
408.34	1944.99
408.54	1970.73
408.73	1956.69
408.92	1937.96
409.11	2026.90
409.30	2026.90
409.49	2125.21
409.68	2054.99
409.87	1984.77
410.07	2090.10
410.26	2040.95
410.45	2167.34
410.64	2141.59
410.83	2183.72
411.02	2242.23
411.21	2258.62
411.40	2249.25
411.59	2317.13
411.78	2270.32
411.98	2427.14
412.17	2375.64
412.36	2436.50
412.55	2349.90
412.74	2338.20
412.93	2403.73
413.12	2441.18
413.31	2544.16
413.50	2424.80
413.69	2548.84
413.88	2595.65
414.07	2555.86
414.26	2504.37
414.45	2708.00
414.64	2654.17
414.83	2726.72
415.02	2719.70
415.22	2658.85
415.41	2825.03
415.60	2867.16
415.79	2815.66
415.98	2850.77
416.17	2846.09
416.36	2892.90
416.55	2726.72
416.74	2981.84
416.93	2953.76
417.12	3056.74
417.31	2937.37
417.50	3002.91
417.69	3101.21
417.88	3047.38
418.07	3002.91
418.26	3105.89
418.45	3087.17
418.64	3258.03
418.83	3176.11
419.02	3199.51
419.21	3148.02
419.39	3176.11
419.58	3119.93
419.77	3141.00
419.96	3323.56
420.15	3370.37
420.34	3307.18
420.53	3377.39
420.72	3412.50
420.91	3344.63
421.10	3375.05
421.29	3412.50
421.48	3417.18
421.67	3407.82
421.86	3353.99
422.05	3456.97
422.24	3489.74
422.43	3370.37
422.61	3419.52
422.80	3564.64
422.99	3552.93
423.18	3459.31
423.37	3653.58
423.56	3676.98
423.75	3445.27
423.94	3538.89
424.13	3417.18
424.32	3353.99
424.50	3627.83
424.69	3698.05
424.88	3611.45
425.07	3468.67
425.26	3403.14
425.45	3501.44
425.64	3676.98
425.83	3686.34
426.01	3611.45
426.20	3562.30
426.39	3595.06
426.58	3595.06
426.77	3595.06
426.96	3632.51
427.15	3644.21
427.33	3684.00
427.52	3571.66
427.71	3756.56
427.90	3653.58
428.09	3719.11
428.28	3744.86
428.46	3674.64
428.65	3772.94
428.84	3742.52
429.03	3932.10
429.22	3768.26
429.40	3775.28
429.59	3609.11
429.78	3585.70
429.97	3779.97
430.16	3756.56
430.34	3836.14
430.53	3868.91
430.72	3847.84
430.91	3922.74
431.10	3974.23
431.28	4177.86
431.47	4107.64
431.66	4159.13
431.85	4145.09
432.03	4159.13
432.22	4241.05
432.41	4140.41
432.60	4236.37
432.79	4231.69
432.97	4273.82
433.16	4320.63
433.35	4217.65
433.54	4119.34
433.72	4285.52
433.91	4280.84
434.10	4353.40
434.28	4358.08
434.47	4435.32
434.66	4482.13
434.85	4430.63
435.03	4521.92
435.22	4564.04
435.41	4751.29
435.59	4603.83
435.78	4545.32
435.97	4573.41
436.16	4573.41
436.34	4425.95
436.53	4575.75
436.72	4788.74
436.90	4592.13
437.09	4681.07
437.28	4557.02
437.46	4664.69
437.65	4671.71
437.84	4723.20
438.02	4564.04
438.21	4767.67
438.40	4592.13
438.58	4755.97
438.77	4739.58
438.96	4943.21
439.14	4889.38
439.33	4985.34
439.52	5100.03
439.70	5050.88
439.89	5064.92
440.08	5139.82
440.26	5095.35
440.45	5048.54
440.63	5317.70
440.82	5408.98
441.01	5324.72
441.19	5320.04
441.38	5486.22
441.57	5392.59
441.75	5682.82
441.94	5671.12
442.12	5738.99
442.31	5799.85
442.50	5540.05
442.68	5703.89
442.87	5603.24
443.05	5741.33
443.24	5884.11
443.43	5703.89
443.61	5820.91
443.80	5966.03
443.98	5809.21
444.17	5603.24
444.35	5942.62
444.54	5837.30
444.73	5879.43
444.91	5902.83
445.10	5746.02
445.28	5987.09
445.47	5788.14
445.65	5849.00
445.84	6029.22
446.02	5961.34
446.21	5956.66
446.39	5867.72
446.58	6031.56
446.77	5895.81
446.95	5909.85
447.14	5987.09
447.32	6139.23
447.51	5991.77
447.69	6010.50
447.88	5858.36
448.06	6176.67
448.25	6087.73
448.43	6094.76
448.62	6047.94
448.80	5886.45
448.99	6265.61
449.17	6094.76
449.36	6036.24
449.54	6363.92
449.73	6310.08
449.91	6392.00
450.10	6284.34
450.28	6366.26
450.46	6579.25
450.65	6450.52
450.83	6354.55
451.02	6499.67
451.20	6609.67
451.39	6420.09
451.57	6403.71
451.76	6370.94
451.94	6679.89
452.13	6562.86
452.31	6525.41
452.49	6445.84
452.68	6523.07
452.86	6530.09
453.05	6614.35
453.23	6754.79
453.42	6581.59
453.60	6574.56
453.78	6778.19
453.97	6768.83
454.15	6612.01
454.34	6754.79
454.52	6628.40
454.70	6726.70
454.89	6684.57
455.07	6958.41
455.26	6853.09
455.44	7164.38
455.62	6918.62
455.81	6918.62
455.99	7037.99
456.17	6862.45
456.36	6998.20
456.54	7080.12
456.73	7241.62
456.91	7342.26
457.09	7258.00
457.28	7517.80
457.46	7290.77
457.64	7431.20
457.83	7145.66
458.01	7389.07
458.19	7506.10
458.38	7262.68
458.56	7400.77
458.74	7585.68
458.93	7433.54
459.11	7569.29
459.29	7405.46
459.48	7578.65
459.66	7494.40
459.84	7691.00
460.03	7761.22
460.21	7733.13
460.39	7852.50
460.57	7709.72
460.76	7983.57
460.94	7808.03
461.12	7805.69
461.31	7791.64
461.49	7707.38
461.67	7602.06
461.85	7964.84
462.04	7927.39
462.22	8023.36
462.40	7775.26
462.59	7929.74
462.77	7875.90
462.95	7997.61
463.13	8140.38
463.32	7971.86
463.50	8177.83
463.68	8306.56
463.86	8222.30
464.05	8182.51
464.23	8140.38
464.41	8224.64
464.59	7981.23
464.78	8355.71
464.96	8465.72
465.14	8163.79
465.32	8416.57
465.50	8308.90
465.69	8355.71
465.87	8360.39
466.05	8372.10
466.23	8454.02
466.41	8390.82
466.60	8800.41
466.78	8414.23
466.96	8297.20
467.14	8308.90
467.32	8493.80
467.51	8751.26
467.69	8397.84
467.87	8542.96
468.05	8751.26
468.23	8634.24
468.41	8531.25
468.60	8608.49
468.78	8781.69
468.96	8512.53
469.14	8809.78
469.32	8889.35
469.50	8875.31
469.69	8931.48
469.87	9123.41
470.05	9060.21
470.23	9153.84
470.41	8760.63
470.59	8950.21
470.77	9020.42
470.95	9142.13
471.14	9296.61
471.32	9057.87
471.50	9343.42
471.68	9263.84
471.86	9575.13
472.04	9327.03
472.22	9397.25
472.40	9413.63
472.58	9404.27
472.77	9785.78
472.95	9586.83
473.13	9958.98
473.31	9504.92
473.49	9628.96
473.67	9708.54
473.85	9867.70
474.03	10019.83
474.21	9989.41
474.39	9949.62
474.57	10139.20
474.75	10099.41
474.93	10331.12
475.12	10190.69
475.30	10267.93
475.48	10356.87
475.66	10375.59
475.84	10162.61
476.02	10469.22
476.20	10352.19
476.38	10794.55
476.56	10918.60
476.74	10892.85
476.92	10567.52
477.10	10972.43
477.28	10949.03
477.46	11012.22
477.64	11311.81
477.82	11386.71
478.00	11386.71
478.18	11295.43
478.36	11335.21
478.54	11658.21
478.72	11435.86
478.90	11868.86
479.08	11747.15
479.26	11815.02
479.44	12229.30
479.62	12290.15
479.80	12376.75
479.98	12217.60
480.16	12264.41
480.34	12573.36
480.52	12599.10
480.70	12325.26
480.88	12461.01
481.06	12475.06
481.24	12556.97
481.41	12851.88
481.59	13181.90
481.77	13165.51
481.95	13191.26
482.13	13184.24
482.31	13406.59
482.49	13542.34
482.67	13738.94
482.85	13776.39
483.03	13860.65
483.21	14111.09
483.39	14352.16
483.57	14026.83
483.74	14047.90
483.92	14288.97
484.10	14195.35
484.28	14492.60
484.46	14609.62
484.64	14841.34
484.82	14672.82
485.00	14745.38
485.18	14932.62
485.35	15028.58
485.53	14939.64
485.71	15164.33
485.89	15527.11
486.07	15316.47
486.25	15726.06
486.43	15639.46
486.61	15672.23
486.78	16088.84
486.96	16063.10
487.14	16168.42
487.32	16311.19
487.50	16713.77
487.68	16812.07
487.85	16856.54
488.03	16938.46
488.21	17364.43
488.39	17083.57
488.57	17408.90
488.75	17305.92
488.92	17668.70
489.10	17771.69
489.28	17591.47
489.46	17944.89
489.64	17745.94
489.81	18464.49
489.99	18520.66
490.17	18682.16
490.35	18848.33
490.53	18487.89
490.70	18890.46
490.88	18817.91
491.06	19243.88
491.24	19049.62
491.41	19096.43
491.59	19234.52
491.77	19328.14
491.95	19641.78
492.13	19662.84
492.30	19517.73
492.48	19796.25
492.66	20006.90
492.84	20152.01
493.01	20149.67
493.19	20498.41
493.37	20526.50
493.54	20472.67
493.72	20992.26
493.90	20854.17
494.08	21139.72
494.25	21322.28
494.43	21357.39
494.61	21448.67
494.79	21575.06
494.96	21823.16
495.14	21858.26
495.32	21968.27
495.49	21947.20
495.67	22141.47
495.85	22207.00
496.02	22141.47
496.20	22586.17
496.38	22319.35
496.55	22410.63
496.73	23297.69
496.91	22869.37
497.09	22836.61
497.26	23192.37
497.44	23103.43
497.62	23342.16
497.79	23597.28
497.97	23147.90
498.14	23419.40
498.32	23861.76
498.50	23920.28
498.67	24170.71
498.85	23866.44
499.03	24144.97
499.20	24240.93
499.38	24430.51
499.56	24236.25
499.73	24388.38
499.91	24987.56
500.08	24620.10
500.26	24355.61
500.44	24477.32
500.61	24713.72
500.79	24830.74
500.97	24748.82
501.14	25628.87
501.32	25226.29
501.49	25303.53
501.67	25465.03
501.84	25462.69
502.02	25355.02
502.20	25486.09
502.37	26045.48
502.55	25900.37
502.72	25638.23
502.90	25975.27
503.07	26057.18
503.25	26272.51
503.43	25886.32
503.60	26504.23
503.78	26242.09
503.95	26539.33
504.13	26757.00
504.30	26567.42
504.48	26881.05
504.65	27037.87
504.83	27332.78
505.01	27513.00
505.18	26951.27
505.36	27520.02
505.53	27267.24
505.71	27585.55
505.88	27721.30
506.06	27573.85
506.23	27763.43
506.41	27517.68
506.58	27648.75
506.76	27498.95
506.93	27880.46
507.11	27676.83
507.28	27803.22
507.46	28187.07
507.63	28009.19
507.81	27751.73
507.98	28287.71
508.16	28301.76
508.33	28486.66
508.50	28594.32
508.68	28680.92
508.85	29008.60
509.03	28563.90
509.20	28863.49
509.38	29270.74
509.55	28957.11
509.73	29170.10
509.90	29032.00
510.08	29060.09
510.25	29317.55
510.42	29666.29
510.60	29523.52
510.77	29771.61
510.95	29996.31
511.12	29610.12
511.30	29944.81
511.47	30043.12
511.64	30073.54
511.82	30466.75
511.99	30038.44
512.17	30099.29
512.34	30459.73
512.51	30794.43
512.69	30668.04
512.86	30806.13
513.04	30572.08
513.21	30703.15
513.38	30347.39
513.56	30754.64
513.73	30363.77
513.90	30850.60
514.08	30899.75
514.25	30822.51
514.43	31297.64
514.60	31215.72
514.77	31065.93
514.95	31868.73
515.12	31253.17
515.29	31723.62
515.47	31826.60
515.64	31690.85
515.81	31807.88
515.99	31859.37
516.16	31583.19
516.33	31714.26
516.51	32107.47
516.68	31859.37
516.85	31730.64
517.03	32051.30
517.20	31845.33
517.37	32254.92
517.54	32184.71
517.72	32011.51
517.89	32582.60
518.06	32055.98
518.24	32533.45
518.41	32121.51
518.58	32601.32
518.75	32364.93
518.93	32772.18
519.10	32786.22
519.27	32964.10
519.45	32975.81
519.62	33071.77
519.79	32744.09
519.96	32713.67
520.14	33408.81
520.31	33448.60
520.48	33528.17
520.65	33340.93
520.83	33717.76
521.00	33811.38
521.17	33654.56
521.34	33607.75
521.52	33933.09
521.69	33858.19
521.86	34513.54
522.03	34036.07
522.20	33897.98
522.38	33972.88
522.55	34335.66
522.72	34050.11
522.89	34415.24
523.07	34686.74
523.24	34520.56
523.41	34951.22
523.58	34520.56
523.75	35278.89
523.92	35037.82
524.10	35126.76
524.27	34927.81
524.44	34998.03
524.61	34831.85
524.78	35407.62
524.96	35154.85
525.13	35735.30
525.30	35246.13
525.47	35737.64
525.64	35470.82
525.81	35952.97
525.98	35449.75
526.16	35594.87
526.33	35641.68
526.50	35735.30
526.67	35468.48
526.84	35496.56
527.01	35763.39
527.18	35555.08
527.36	36374.27
527.53	36446.82
527.70	36587.25
527.87	36631.72
528.04	36306.39
528.21	36231.49
528.38	36037.23
528.55	35992.76
528.72	36378.95
528.89	36453.84
529.07	36620.02
529.24	36570.87
529.41	36701.94
529.58	36968.76
529.75	36680.88
529.92	36889.18
530.09	36800.24
530.26	37055.36
530.43	37027.28
530.60	36774.50
530.77	37209.84
530.94	37050.68
531.11	37038.98
531.28	36996.85
531.46	37387.72
531.63	37581.98
531.80	37132.60
531.97	37542.19
532.14	37361.97
532.31	37153.66
532.48	37408.78
532.65	37589.00
532.82	37291.76
532.99	37436.87
533.16	37170.05
533.33	37912.00
533.50	38139.03
533.67	37914.34
533.84	37467.30
534.01	37708.37
534.18	37970.51
534.35	38143.71
534.52	37965.83
534.69	38408.19
534.86	38363.72
535.03	38401.17
535.20	38300.53
535.37	38492.45
535.54	38562.67
535.71	38670.33
535.88	38227.97
536.05	38403.51
536.22	38803.74
536.38	38726.50
536.55	38857.57
536.72	38590.75
536.89	38501.81
537.06	38464.36
537.23	38724.16
537.40	38983.96
537.57	38864.60
537.74	39016.73
537.91	39419.30
538.08	38628.20
538.25	38745.23
538.42	39009.71
538.59	39407.60
538.75	38724.16
538.92	39035.45
539.09	39613.57
539.26	39222.70
539.43	39349.09
539.60	39571.44
539.77	39171.21
539.94	39077.58
540.11	39274.19
540.28	39452.07
540.44	39463.77
540.61	39627.61
540.78	39655.70
540.95	39108.01
541.12	39625.27
541.29	39662.72
541.46	39791.45
541.62	39351.43
541.79	39800.81
541.96	39566.76
542.13	39725.91
542.30	39847.62
542.47	39674.42
542.63	40261.90
542.80	40076.99
542.97	40631.70
543.14	40467.86
543.31	40486.59
543.48	40694.89
543.64	41284.71
543.81	40575.53
543.98	40863.41
544.15	40245.51
544.32	40624.68
544.48	40940.65
544.65	40882.14
544.82	41024.91
544.99	40596.59
545.16	41249.60
545.32	41102.15
545.49	41237.90
545.66	41179.39
545.83	41134.92
546.00	41291.73
546.16	41165.34
546.33	40610.64
546.50	41127.89
546.67	41186.41
546.83	40865.75
547.00	41535.15
547.17	41003.85
547.34	41062.36
547.50	41537.49
547.67	41757.50
547.84	41123.21
548.00	41406.42
548.17	41397.06
548.34	41804.31
548.51	42258.37
548.67	41502.38
548.84	41443.87
549.01	41682.60
549.18	41893.25
549.34	41748.14
549.51	41848.78
549.68	41848.78
549.84	41837.08
550.01	42253.69
550.18	41806.65
550.34	41897.93
550.51	41881.55
550.68	41610.04
550.84	42101.56
551.01	42188.16
551.18	41972.83
551.34	41752.82
551.51	41991.55
551.68	42246.67
551.84	42387.10
552.01	42103.90
552.18	41996.23
552.34	42403.49
552.51	42740.52
552.68	42115.60
552.84	42204.54
553.01	42948.83
553.18	42382.42
553.34	42206.88
553.51	42068.79
553.67	42480.72
553.84	42883.30
554.01	42408.17
554.17	42721.80
554.34	43016.71
554.51	42679.67
554.67	42979.26
554.84	42827.12
555.00	42579.03
555.17	42487.74
555.33	42660.94
555.50	42848.19
555.67	42803.72
555.83	43058.84
556.00	42794.36
556.16	43419.28
556.33	42969.90
556.50	42843.51
556.66	43543.33
556.83	42981.60
556.99	43302.25
557.16	43187.56
557.32	43194.59
557.49	43592.48
557.65	43026.07
557.82	42792.01
557.98	43278.85
558.15	43428.64
558.32	43482.47
558.48	43213.31
558.65	43299.91
558.81	43051.81
558.98	43091.60
559.14	43161.82
559.31	43512.90
559.47	43557.37
559.64	43480.13
559.80	43868.66
559.97	43370.13
560.13	43185.22
560.30	42892.66
560.46	43426.30
560.63	43489.49
560.79	43934.20
560.96	43941.22
561.12	43653.33
561.29	43667.37
561.45	43885.04
561.61	43643.97
561.78	43583.12
561.94	43290.55
562.11	43480.13
562.27	43133.73
562.44	43590.14
562.60	43761.00
562.77	43924.83
562.93	43718.87
563.10	44100.37
563.26	43927.17
563.42	43915.47
563.59	43494.18
563.75	43487.15
563.92	43672.06
564.08	43997.39
564.24	43966.96
564.41	44067.61
564.57	43997.39
564.74	44219.74
564.90	43536.30
565.07	43906.11
565.23	43775.04
565.39	43847.60
565.56	43920.15
565.72	44217.40
565.88	43988.03
566.05	43702.48
566.21	44098.03
566.38	44081.65
566.54	43845.26
566.70	44580.18
566.87	44315.70
567.03	44107.40
567.19	44156.55
567.36	44053.56
567.52	44032.50
567.68	44023.14
567.85	44098.03
568.01	43976.33
568.17	44238.47
568.34	44186.97
568.50	44186.97
568.66	43973.98
568.83	44194.00
568.99	43959.94
569.15	44016.11
569.32	44311.02
569.48	43906.11
569.64	44514.65
569.81	44264.21
569.97	44336.77
570.13	44582.52
570.30	44034.84
570.46	43990.37
570.62	44100.37
570.78	43981.01
570.95	43985.69
571.11	44252.51
571.27	44048.88
571.43	43936.54
571.60	43697.80
571.76	44182.29
571.92	44353.15
572.09	44383.58
572.25	44027.82
572.41	44516.99
572.57	44612.95
572.74	45067.02
572.90	44336.77
573.06	44638.70
573.22	44439.75
573.38	44322.72
573.55	44484.22
573.71	44371.88
573.87	44243.15
574.03	44423.37
574.20	44369.54
574.36	44215.06
574.52	44818.92
574.68	44142.50
574.84	44502.95
575.01	44376.56
575.17	44666.78
575.33	44126.12
575.49	44191.65
575.65	44456.14
575.82	44348.47
575.98	44575.50
576.14	44399.96
576.30	44612.95
576.46	44524.01
576.62	44294.64
576.79	44313.36
576.95	44229.10
577.11	44928.92
577.27	44449.11
577.43	44945.31
577.59	44247.83
577.75	44245.49
577.92	44140.16
578.08	44273.57
578.24	44243.15
578.40	44268.89
578.56	44355.49
578.72	45001.48
578.88	44898.50
579.04	44760.40
579.21	44484.22
579.37	44872.75
579.53	44325.07
579.69	44418.69
579.85	44236.12
580.01	44524.01
580.17	44369.54
580.33	44634.02
580.49	44905.52
580.65	44914.88
580.82	44619.97
580.98	44147.18
581.14	44456.14
581.30	44421.03
581.46	44931.26
581.62	44442.09
581.78	44229.10
581.94	44914.88
582.10	44100.37
582.26	44643.38
582.42	44533.37
582.58	44781.47
582.74	44601.25
582.90	44676.15
583.06	45097.44
583.22	44968.71
583.38	44652.74
583.54	45048.29
583.70	44795.51
583.86	44718.28
584.02	44374.22
584.18	45013.18
584.34	44814.24
584.50	44392.94
584.66	44683.17
584.82	44671.46
584.98	44910.20
585.14	45202.77
585.30	44619.97
585.46	44725.30
585.62	44591.89
585.78	44720.62
585.94	44484.22
586.10	44509.97
586.26	44568.48
586.42	44556.78
586.58	44793.17
586.74	44975.73
586.90	44741.68
587.06	44474.86
587.22	44788.49
587.38	44634.02
587.54	44870.41
587.70	44891.48
587.86	45382.99
588.02	44605.93
588.18	44994.46
588.34	44491.24
588.49	44584.86
588.65	44105.06
588.81	44219.74
588.97	44210.38
589.13	44360.17
589.29	44961.69
589.45	44460.82
589.61	44582.52
589.77	45006.16
589.93	45017.86
590.08	44924.24
590.24	44711.25
