SpectraSuite Data File
++++++++++++++++++++++++++++++++++++
Date: Fri Oct 25 11:25:55 EDT 2013
User: price-jones
Dark Spectrum Present: No
Reference Spectrum Present: No
Number of Sampled Component Spectra: 1
Spectrometers: USB2+H05261
Integration Time (usec): 100000 (USB2+H05261)
Spectra Averaged: 1 (USB2+H05261)
Boxcar Smoothing: 0 (USB2+H05261)
Correct for Electrical Dark: No (USB2+H05261)
Strobe/Lamp Enabled: No (USB2+H05261)
Correct for Detector Non-linearity: No (USB2+H05261)
Correct for Stray Light: No (USB2+H05261)
Number of Pixels in Processed Spectrum: 2048
>>>>>Begin Processed Spectral Data<<<<<
365.73	205.97
365.92	205.97
366.12	205.97
366.32	180.22
366.52	168.52
366.72	138.09
366.91	102.98
367.11	133.41
367.31	72.56
367.51	152.13
367.70	124.05
367.90	180.22
368.10	84.26
368.30	126.39
368.49	131.07
368.69	149.79
368.89	191.92
369.09	154.48
369.28	147.45
369.48	126.39
369.68	152.13
369.87	156.82
370.07	227.03
370.27	220.01
370.47	337.04
370.66	641.31
370.86	620.24
371.06	610.88
371.25	699.82
371.45	667.05
371.65	662.37
371.84	690.46
372.04	624.92
372.24	709.18
372.44	676.41
372.63	765.36
372.83	772.38
373.03	713.86
373.22	746.63
373.42	755.99
373.62	739.61
373.81	706.84
374.01	833.23
374.21	755.99
374.40	732.59
374.60	835.57
374.79	851.96
374.99	863.66
375.19	847.27
375.38	840.25
375.58	779.40
375.78	863.66
375.97	861.32
376.17	905.79
376.37	844.93
376.56	830.89
376.76	854.30
376.95	889.40
377.15	903.45
377.35	894.08
377.54	868.34
377.74	898.77
377.93	887.06
378.13	910.47
378.33	912.81
378.52	894.08
378.72	1027.50
378.91	903.45
379.11	961.96
379.31	964.30
379.50	983.02
379.70	1027.50
379.89	926.85
380.09	922.17
380.28	926.85
380.48	903.45
380.68	983.02
380.87	1062.60
381.07	959.62
381.26	990.05
381.46	973.66
381.65	980.68
381.85	1018.13
382.04	1032.18
382.24	1050.90
382.43	1100.05
382.63	1048.56
382.83	1118.78
383.02	1083.67
383.22	1146.86
383.41	1060.26
383.61	1071.97
383.80	1142.18
384.00	1125.80
384.19	1160.91
384.39	1142.18
384.58	1160.91
384.78	1111.75
384.97	1104.73
385.17	1064.94
385.36	1193.67
385.56	1153.88
385.75	1177.29
385.95	1193.67
386.14	1179.63
386.34	1203.04
386.53	1277.93
386.72	1228.78
386.92	1284.95
387.11	1179.63
387.31	1233.46
387.50	1259.21
387.70	1373.89
387.89	1277.93
388.09	1219.42
388.28	1334.11
388.48	1336.45
388.67	1355.17
388.86	1357.51
389.06	1301.34
389.25	1303.68
389.45	1324.74
389.64	1362.19
389.84	1369.21
390.03	1369.21
390.22	1404.32
390.42	1380.92
390.61	1528.37
390.81	1425.39
391.00	1399.64
391.19	1418.36
391.39	1373.89
391.58	1523.69
391.78	1523.69
391.97	1469.86
392.16	1409.00
392.36	1549.43
392.55	1511.99
392.75	1465.18
392.94	1507.30
393.13	1554.12
393.33	1486.24
393.52	1519.01
393.71	1441.77
393.91	1570.50
394.10	1544.75
394.29	1692.21
394.49	1640.72
394.68	1727.32
394.88	1629.01
395.07	1584.54
395.26	1626.67
395.46	1629.01
395.65	1753.06
395.84	1694.55
396.04	1809.23
396.23	1860.73
396.42	1680.50
396.62	1795.19
396.81	1809.23
397.00	1837.32
397.19	1741.36
397.39	1776.47
397.58	1839.66
397.77	1837.32
397.97	1818.60
398.16	1863.07
398.35	1898.17
398.55	1790.51
398.74	1863.07
398.93	1970.73
399.12	1886.47
399.32	2008.18
399.51	1919.24
399.70	1900.52
399.90	2033.93
400.09	1984.77
400.28	2010.52
400.47	2015.20
400.67	2129.89
400.86	2090.10
401.05	2111.16
401.24	2047.97
401.44	2183.72
401.63	2169.68
401.82	1980.09
402.01	2118.18
402.21	2129.89
402.40	2153.29
402.59	2209.47
402.78	2169.68
402.97	2186.06
403.17	2186.06
403.36	2305.43
403.55	2209.47
403.74	2319.47
403.93	2396.71
404.13	2279.68
404.32	2354.58
404.51	2256.28
404.70	2373.30
404.89	2403.73
405.09	2434.16
405.28	2546.50
405.47	2370.96
405.66	2506.71
405.85	2462.24
406.05	2513.74
406.24	2506.71
406.43	2651.83
406.62	2579.27
406.81	2579.27
407.00	2656.51
407.20	2581.61
407.39	2698.64
407.58	2689.28
407.77	2806.30
407.96	2719.70
408.15	2780.56
408.34	2815.66
408.54	2726.72
408.73	2771.19
408.92	2796.94
409.11	2869.50
409.30	2808.64
409.49	2932.69
409.68	2984.18
409.87	2902.26
410.07	2977.16
410.26	3075.46
410.45	3030.99
410.64	3040.36
410.83	3122.27
411.02	3056.74
411.21	3103.55
411.40	3211.22
411.59	3145.68
411.78	3190.15
411.98	3075.46
412.17	3283.77
412.36	3265.05
412.55	3260.37
412.74	3321.22
412.93	3276.75
413.12	3386.76
413.31	3440.59
413.50	3520.17
413.69	3545.91
413.88	3487.40
414.07	3531.87
414.26	3541.23
414.45	3669.96
414.64	3730.81
414.83	3754.22
415.02	3761.24
415.22	3723.79
415.41	3831.46
415.60	3801.03
415.79	3838.48
415.98	4011.68
416.17	3913.38
416.36	4032.74
416.55	3882.95
416.74	4032.74
416.93	4025.72
417.12	4070.19
417.31	4126.36
417.50	4142.75
417.69	4355.74
417.88	4292.54
418.07	4358.08
418.26	4210.62
418.45	4241.05
418.64	4437.66
418.83	4423.61
419.02	4329.99
419.21	4510.21
419.39	4533.62
419.58	4472.76
419.77	4505.53
419.96	4667.03
420.15	4608.51
420.34	4645.96
420.53	4650.64
420.72	4650.64
420.91	4718.52
421.10	4676.39
421.29	4725.54
421.48	4709.16
421.67	4702.14
421.86	4713.84
422.05	4727.88
422.24	4748.95
422.43	4943.21
422.61	4919.81
422.80	4952.57
422.99	4823.84
423.18	4795.76
423.37	4990.02
423.56	5020.45
423.75	4891.72
423.94	4856.61
424.13	4500.85
424.32	4603.83
424.50	4938.53
424.69	5174.92
424.88	5132.79
425.07	5034.49
425.26	4830.87
425.45	4898.74
425.64	4919.81
425.83	5018.11
426.01	5046.20
426.20	4997.04
426.39	5062.58
426.58	5041.51
426.77	5104.71
426.96	5139.82
427.15	5139.82
427.33	5193.65
427.52	5132.79
427.71	5144.50
427.90	5195.99
428.09	5294.29
428.28	5249.82
428.46	5315.36
428.65	5378.55
428.84	5535.37
429.03	5469.83
429.22	5240.46
429.40	5359.83
429.59	5411.32
429.78	5228.76
429.97	5104.71
430.16	5668.78
430.34	5575.16
430.53	5734.31
430.72	5617.29
430.91	5668.78
431.10	5603.24
431.28	5731.97
431.47	5874.74
431.66	5900.49
431.85	5703.89
432.03	5867.72
432.22	5884.11
432.41	5813.89
432.60	5837.30
432.79	5860.70
432.97	5970.71
433.16	6008.16
433.35	6031.56
433.54	6108.80
433.72	6083.05
433.91	6029.22
434.10	6036.24
434.28	5996.45
434.47	6143.91
434.66	6162.63
434.85	6207.10
435.03	6352.21
435.22	6246.89
435.41	6356.90
435.59	6312.42
435.78	6457.54
435.97	6368.60
436.16	6331.15
436.34	6534.78
436.53	6347.53
436.72	6677.55
436.90	6415.41
437.09	6637.76
437.28	6663.51
437.46	6789.89
437.65	6569.88
437.84	6738.40
438.02	6619.04
438.21	6754.79
438.40	6736.06
438.58	6785.21
438.77	7040.33
438.96	6881.18
439.14	7094.16
439.33	6998.20
439.52	7145.66
439.70	7307.15
439.89	7314.17
440.08	7398.43
440.26	7321.20
440.45	7258.00
440.63	7258.00
440.82	7679.30
441.01	7428.86
441.19	7627.81
441.38	7583.34
441.57	7744.83
441.75	7908.67
441.94	7913.35
442.12	7875.90
442.31	7967.18
442.50	7995.27
442.68	7971.86
442.87	8116.98
443.05	7941.44
443.24	8140.38
443.43	8147.40
443.61	8152.09
443.80	8299.54
443.98	8042.08
444.17	7838.45
444.35	8114.64
444.54	8308.90
444.73	8437.63
444.91	8191.88
445.10	8245.71
445.28	8292.52
445.47	8222.30
445.65	8292.52
445.84	8428.27
446.02	8491.46
446.21	8257.41
446.39	8170.81
446.58	8498.49
446.77	8472.74
446.95	8252.73
447.14	8535.93
447.32	8636.58
447.51	8493.80
447.69	8442.31
447.88	8479.76
448.06	8344.01
448.25	8234.00
448.43	8718.50
448.62	8484.44
448.80	8585.08
448.99	8760.63
449.17	8589.77
449.36	8622.53
449.54	8741.90
449.73	8879.99
449.91	8978.30
450.10	9081.28
450.28	9060.21
450.46	9118.73
450.65	9048.51
450.83	9004.04
451.02	9036.81
451.20	9095.32
451.39	8917.44
451.57	9013.40
451.76	8903.40
451.94	9149.15
452.13	9294.27
452.31	9310.65
452.49	9081.28
452.68	9350.44
452.86	9256.82
453.05	9600.88
453.23	9523.64
453.42	9355.12
453.60	9607.90
453.78	9568.11
453.97	9444.06
454.15	9554.07
454.34	9252.14
454.52	9589.17
454.70	9624.28
454.89	9736.63
455.07	9724.93
455.26	9935.57
455.44	10008.13
455.62	9687.48
455.81	9846.63
455.99	9942.60
456.17	10162.61
456.36	10012.81
456.54	10047.92
456.73	10164.95
456.91	10359.21
457.09	10335.81
457.28	10347.51
457.46	10368.57
457.64	10406.02
457.83	10232.82
458.01	10307.72
458.19	10665.82
458.38	10764.12
458.56	10736.04
458.74	10441.13
458.93	10593.26
459.11	10871.79
459.29	10583.90
459.48	10642.42
459.66	10719.65
459.84	10848.38
460.03	11138.61
460.21	10920.94
460.39	10850.72
460.57	10792.21
460.76	11108.18
460.94	11171.38
461.12	11101.16
461.31	11201.80
461.49	11197.12
461.67	11255.64
461.85	11417.13
462.04	11367.98
462.22	11815.02
462.40	11705.02
462.59	11325.85
462.77	11508.41
462.95	11709.70
463.13	11335.21
463.32	11644.17
463.50	11688.64
463.68	11756.51
463.86	11660.55
464.05	11651.19
464.23	11805.66
464.41	11976.52
464.59	11857.15
464.78	12133.34
464.96	11747.15
465.14	11999.93
465.32	12119.29
465.50	12285.47
465.69	12152.06
465.87	12297.17
466.05	12128.66
466.23	12032.69
466.41	12131.00
466.60	12332.28
466.78	11992.90
466.96	12105.25
467.14	12020.99
467.32	12430.59
467.51	12657.62
467.69	12023.33
467.87	12229.30
468.05	12601.44
468.23	12346.33
468.41	12376.75
468.60	12444.63
468.78	12648.26
468.96	12636.55
469.14	12821.45
469.32	12912.74
469.50	12603.78
469.69	12851.88
469.87	12788.69
470.05	12765.28
470.23	13097.64
470.41	12765.28
470.59	13256.79
470.77	13064.87
470.95	13268.50
471.14	13336.37
471.32	13006.36
471.50	13657.03
471.68	13418.29
471.86	13720.22
472.04	13458.08
472.22	14066.62
472.40	13612.56
472.58	13778.73
472.77	13799.80
472.95	14092.37
473.13	14167.26
473.31	13994.06
473.49	14345.14
473.67	14410.68
473.85	14370.89
474.03	14642.39
474.21	14644.73
474.39	14508.98
474.57	14602.60
474.75	14843.68
474.93	14885.81
475.12	15047.30
475.30	14979.43
475.48	15030.92
475.66	14946.66
475.84	15264.97
476.02	15494.35
476.20	15536.48
476.38	15602.01
476.56	15840.75
476.74	15756.49
476.92	15896.92
477.10	15688.61
477.28	16025.65
477.46	16154.38
477.64	16224.59
477.82	16510.14
478.00	17249.75
478.18	16741.85
478.36	16723.13
478.54	16964.20
478.72	16578.01
478.90	17436.99
479.08	17273.15
479.26	17528.27
479.44	17830.20
479.62	17877.01
479.80	17879.35
479.98	17914.46
480.16	18354.48
480.34	18015.10
480.52	18560.45
480.70	18490.23
480.88	18317.03
481.06	18530.02
481.24	18752.37
481.41	19150.26
481.59	19145.58
481.77	19386.66
481.95	19297.72
482.13	19836.04
482.31	19728.38
482.49	20240.95
482.67	19934.34
482.85	20180.10
483.03	20486.71
483.21	20589.69
483.39	20851.83
483.57	20428.20
483.74	20786.30
483.92	21195.89
484.10	21090.57
484.28	21769.32
484.46	21949.54
484.64	22211.68
484.82	22061.89
485.00	22225.73
485.18	22534.68
485.35	22876.40
485.53	22796.82
485.71	22745.33
485.89	23271.95
486.07	23178.33
486.25	23248.54
486.43	23527.06
486.61	23613.66
486.78	24081.77
486.96	24070.07
487.14	24760.53
487.32	24360.30
487.50	24769.89
487.68	25057.78
487.85	25411.20
488.03	25479.07
488.21	25788.02
488.39	25568.01
488.57	25645.25
488.75	26181.23
488.92	26249.11
489.10	26616.57
489.28	26714.87
489.46	27019.14
489.64	26792.11
489.81	27325.75
489.99	27564.49
490.17	27592.58
490.35	27749.39
490.53	27997.49
490.70	28060.68
490.88	28081.75
491.06	28933.70
491.24	28460.91
491.41	28877.53
491.59	29355.00
491.77	29015.62
491.95	29383.09
492.13	29572.67
492.30	29893.32
492.48	29989.28
492.66	29940.13
492.84	30155.46
493.01	30368.45
493.19	30494.84
493.37	30923.16
493.54	30670.38
493.72	31358.50
493.90	31335.09
494.08	31868.73
494.25	31845.33
494.43	32039.59
494.61	32184.71
494.79	32006.83
494.96	31861.71
495.14	32687.92
495.32	33074.11
495.49	32652.81
495.67	32828.35
495.85	33289.44
496.02	33677.97
496.20	33766.91
496.38	34007.98
496.55	33944.79
496.73	34972.28
496.91	34548.65
497.09	34749.93
497.26	34965.26
497.44	34660.99
497.62	34911.43
497.79	35463.80
497.97	35395.92
498.14	35765.73
498.32	36053.61
498.50	35924.88
498.67	36439.80
498.85	36367.24
499.03	36341.50
499.20	36243.20
499.38	36903.23
499.56	37141.96
499.73	37170.05
499.91	37205.16
500.08	37095.15
500.26	37085.79
500.44	37460.27
500.61	37680.28
500.79	37605.39
500.97	37954.13
501.14	38265.42
501.32	38195.20
501.49	38335.63
501.67	38223.29
501.84	38813.10
502.02	39063.54
502.20	39274.19
502.37	39126.74
502.55	39246.10
502.72	39643.99
502.90	39267.17
503.07	39192.27
503.25	39756.34
503.43	39281.21
503.60	40069.97
503.78	39985.71
503.95	40088.70
504.13	40521.69
504.30	40528.72
504.48	40196.36
504.65	40685.53
504.83	40779.15
505.01	40999.16
505.18	40931.29
505.36	41469.61
505.53	40573.19
505.71	41375.99
505.88	41804.31
506.06	41352.58
506.23	41949.42
506.41	41785.58
506.58	41708.35
506.76	42005.59
506.93	42553.28
507.11	42567.32
507.28	42506.47
507.46	42574.34
507.63	43035.43
507.81	42981.60
507.98	42799.04
508.16	42932.45
508.33	43168.84
508.50	43264.80
508.68	43166.50
508.85	43894.41
509.03	43536.30
509.20	43662.69
509.38	44268.89
509.55	43931.86
509.73	44313.36
509.90	44751.04
510.08	44240.81
510.25	44004.41
510.42	44835.30
510.60	44758.06
510.77	45158.30
510.95	45345.54
511.12	44863.39
511.30	45399.37
511.47	45258.94
511.64	45338.52
511.82	45818.33
511.99	45254.26
512.17	45673.21
512.34	45982.16
512.51	46096.85
512.69	46323.88
512.86	46026.63
513.04	46548.57
513.21	46497.08
513.38	46534.53
513.56	46960.51
513.73	46731.14
513.90	47056.47
514.08	46450.27
514.25	47147.75
514.43	47285.84
514.60	47012.00
514.77	47168.82
514.95	47311.59
515.12	47391.17
515.29	47583.09
515.47	48025.45
515.64	47789.06
515.81	47887.36
515.99	48041.84
516.16	48072.26
516.33	48477.18
516.51	48362.49
516.68	48044.18
516.85	48182.27
517.03	48846.98
517.20	48807.19
517.37	48477.18
517.54	48856.34
517.72	48687.82
517.89	48924.22
518.06	48891.45
518.24	48776.76
518.41	49102.10
518.58	49446.16
518.75	49272.96
518.93	49825.32
519.10	49483.61
519.27	49450.84
519.45	49492.97
519.62	49851.07
519.79	49745.75
519.96	49677.87
520.14	49801.92
520.31	50047.68
520.48	50270.03
520.65	50094.49
520.83	50590.68
521.00	50349.60
521.17	50438.54
521.34	50314.50
521.52	50731.11
521.69	50433.86
521.86	50899.63
522.03	51021.34
522.20	51047.08
522.38	51405.19
522.55	51274.12
522.72	51454.34
522.89	51016.66
523.07	51718.82
523.24	51487.10
523.41	51470.72
523.58	51414.55
523.75	51807.76
523.92	51468.38
524.10	51728.18
524.27	51866.27
524.44	51676.69
524.61	51777.33
524.78	52062.88
524.96	51980.96
525.13	52336.72
525.30	52399.91
525.47	52259.48
525.64	52367.15
525.81	52444.38
525.98	52802.49
526.16	52481.83
526.33	52402.25
526.50	52921.85
526.67	52383.53
526.84	52875.04
527.01	53022.50
527.18	52591.84
527.36	52809.51
527.53	52638.65
527.70	53404.00
527.87	53275.27
528.04	53139.52
528.21	53244.85
528.38	53296.34
528.55	53432.09
528.72	53233.14
528.89	53647.42
529.07	53223.78
529.24	53336.13
529.41	53441.45
529.58	53579.54
529.75	53586.57
529.92	53640.40
530.09	53581.88
530.26	53684.87
530.43	53911.90
530.60	53778.49
530.77	53563.16
530.94	54160.00
531.11	53963.39
531.28	53832.32
531.46	54134.25
531.63	53928.28
531.80	54059.35
531.97	54368.30
532.14	54248.94
532.31	54246.60
532.48	54380.01
532.65	54623.42
532.82	54122.55
532.99	54536.82
533.16	54277.02
533.33	54721.72
533.50	54728.75
533.67	54852.80
533.84	54658.53
534.01	54630.44
534.18	54691.30
534.35	55044.72
534.52	54880.88
534.69	55234.30
534.86	55267.07
535.03	54829.39
535.20	54944.08
535.37	55234.30
535.54	55348.99
535.71	54834.07
535.88	55171.11
536.05	55248.35
536.22	55599.43
536.38	55592.40
536.55	55531.55
536.72	55412.18
536.89	55253.03
537.06	55505.80
537.23	55800.71
537.40	55538.57
537.57	55676.66
537.74	55648.58
537.91	55693.05
538.08	55693.05
538.25	55732.84
538.42	55840.50
538.59	56034.77
538.75	55498.78
538.92	55845.18
539.09	56023.06
539.26	56133.07
539.43	55943.48
539.60	56079.24
539.77	56196.26
539.94	56442.02
540.11	56170.52
540.28	56233.71
540.44	56385.85
540.61	56062.85
540.78	56163.50
540.95	56507.55
541.12	56072.21
541.29	56268.82
541.46	56514.58
541.62	56287.54
541.79	56313.29
541.96	56231.37
542.13	56446.70
542.30	56755.65
542.47	56640.96
542.63	56711.18
542.80	56905.44
542.97	57045.88
543.14	57076.30
543.31	56830.55
543.48	57038.86
543.64	57298.65
543.81	57350.15
543.98	57219.08
544.15	57347.81
544.32	57279.93
544.48	57403.98
544.65	57338.44
544.82	57422.70
544.99	57090.35
545.16	57340.78
545.32	57195.67
545.49	57588.88
545.66	57584.20
545.83	57652.08
546.00	57666.12
546.16	57453.13
546.33	57368.87
546.50	57181.63
546.67	57684.84
546.83	57308.02
547.00	57750.38
547.17	57584.20
547.34	57584.20
547.50	57848.68
547.67	58000.82
547.84	58124.86
548.00	58089.76
548.17	58234.87
548.34	57911.88
548.51	58075.71
548.67	58171.67
548.84	57785.49
549.01	57748.04
549.18	58099.12
549.34	58106.14
549.51	57968.05
549.68	58234.87
549.84	58450.20
550.01	58457.22
550.18	58330.83
550.34	58291.04
550.51	58335.51
550.68	58209.12
550.84	57996.13
551.01	58475.94
551.18	58295.72
551.34	58581.27
551.51	58560.20
551.68	58347.21
551.84	58468.92
552.01	58401.05
552.18	58518.07
552.34	58232.53
552.51	58492.33
552.68	58389.34
552.84	58391.68
553.01	58953.41
553.18	58829.37
553.34	58784.90
553.51	58564.88
553.67	58698.30
553.84	58852.77
554.01	58803.62
554.17	58958.09
554.34	58922.99
554.51	59000.22
554.67	58962.78
554.84	58745.11
555.00	58922.99
555.17	59056.40
555.33	58925.33
555.50	58691.27
555.67	58859.79
555.83	58974.48
556.00	59086.82
556.16	59292.79
556.33	59166.40
556.50	59178.10
556.66	59384.07
556.83	59150.02
556.99	59229.60
557.16	59465.99
557.32	59393.43
557.49	59381.73
557.65	59178.10
557.82	59409.82
557.98	59084.48
558.15	59269.39
558.32	59442.59
558.48	59370.03
558.65	59299.81
558.81	59367.69
558.98	59229.60
559.14	59641.53
559.31	59398.12
559.47	59522.16
559.64	59592.38
559.80	59629.83
559.97	59573.66
560.13	59482.37
560.30	59657.91
560.46	59746.86
560.63	59849.84
560.79	59498.76
560.96	59803.03
561.12	59742.17
561.29	59564.29
561.45	59803.03
561.61	59770.26
561.78	59608.76
561.94	59538.55
562.11	59704.73
562.27	59749.20
562.44	59852.18
562.60	60076.87
562.77	59948.14
562.93	59852.18
563.10	59868.56
563.26	59819.41
563.42	60069.85
563.59	59985.59
563.75	59887.29
563.92	60041.76
564.08	59959.84
564.24	60214.96
564.41	60025.38
564.57	59971.55
564.74	59976.23
564.90	59861.54
565.07	60039.42
565.23	60006.65
565.39	59873.24
565.56	60331.99
565.72	60121.34
565.88	59983.25
566.05	60004.31
566.21	59990.27
566.38	60182.19
566.54	60011.34
566.70	60266.45
566.87	60322.63
567.03	59978.57
567.19	60221.98
567.36	60058.15
567.52	59973.89
567.68	60371.78
567.85	60369.44
568.01	60383.48
568.17	60247.73
568.34	60257.09
568.50	60280.50
568.66	60278.16
568.83	60437.31
568.99	60207.94
569.15	60315.61
569.32	60350.71
569.48	60315.61
569.64	60512.21
569.81	60355.39
569.97	60315.61
570.13	60411.57
570.30	60334.33
570.46	60444.33
570.62	60402.21
570.78	60411.57
570.95	60355.39
571.11	60472.42
571.27	60348.37
571.43	60371.78
571.60	60552.00
571.76	60500.51
571.92	60479.44
572.09	60526.25
572.25	60331.99
572.41	60512.21
572.57	60554.34
572.74	60530.93
572.90	60638.60
573.06	60507.53
573.22	60629.24
573.38	60500.51
573.55	60467.74
573.71	60839.89
573.87	60706.47
574.03	60413.91
574.20	60608.17
574.36	60425.61
574.52	60804.78
574.68	60729.88
574.84	60573.06
575.01	60622.22
575.17	60608.17
575.33	60481.78
575.49	60498.17
575.65	60456.04
575.82	60638.60
575.98	60797.76
576.14	60797.76
576.30	60680.73
576.46	60582.43
576.62	60610.51
576.79	60491.15
576.95	60615.19
577.11	60610.51
577.27	60559.02
577.43	60865.63
577.59	60484.12
577.75	60608.17
577.92	60582.43
578.08	60598.81
578.24	60823.50
578.40	60804.78
578.56	60781.37
578.72	60863.29
578.88	60739.24
579.04	60818.82
579.21	60673.71
579.37	60839.89
579.53	61024.79
579.69	60659.66
579.85	60772.01
580.01	60779.03
580.17	60575.40
580.33	60753.29
580.49	61057.56
580.65	60980.32
580.82	60975.64
580.98	60793.07
581.14	60860.95
581.30	60961.59
581.46	60910.10
581.62	60685.41
581.78	60619.88
581.94	60729.88
582.10	60786.05
582.26	60671.37
582.42	60743.92
582.58	60722.86
582.74	60683.07
582.90	60685.41
583.06	61090.32
583.22	60671.37
583.38	60907.76
583.54	60851.59
583.70	60727.54
583.86	60863.29
584.02	60809.46
584.18	60896.06
584.34	60931.17
584.50	61006.06
584.66	60797.76
584.82	60662.00
584.98	61097.34
585.14	60987.34
585.30	60903.08
585.46	60926.49
585.62	60898.40
585.78	60959.25
585.94	60846.91
586.10	60821.16
586.26	60973.30
586.42	60989.68
586.58	61001.38
586.74	60711.16
586.90	60898.40
587.06	60870.31
587.22	60966.27
587.38	61034.15
587.54	61080.96
587.70	60952.23
587.86	61076.28
588.02	60945.21
588.18	61200.33
588.34	60910.10
588.49	61050.53
