SpectraSuite Data File
++++++++++++++++++++++++++++++++++++
Date: Fri Oct 25 10:47:46 EDT 2013
User: price-jones
Dark Spectrum Present: No
Reference Spectrum Present: No
Number of Sampled Component Spectra: 1
Spectrometers: USB2+H05261
Integration Time (usec): 100000 (USB2+H05261)
Spectra Averaged: 1 (USB2+H05261)
Boxcar Smoothing: 0 (USB2+H05261)
Correct for Electrical Dark: No (USB2+H05261)
Strobe/Lamp Enabled: No (USB2+H05261)
Correct for Detector Non-linearity: No (USB2+H05261)
Correct for Stray Light: No (USB2+H05261)
Number of Pixels in Processed Spectrum: 2048
>>>>>Begin Processed Spectral Data<<<<<
365.73	128.73
365.92	128.73
366.12	128.73
366.32	72.56
366.52	0.00
366.72	88.94
366.91	74.90
367.11	110.01
367.31	84.26
367.51	25.75
367.70	30.43
367.90	46.81
368.10	37.45
368.30	35.11
368.49	77.24
368.69	32.77
368.89	46.81
369.09	28.09
369.28	44.47
369.48	114.69
369.68	84.26
369.87	95.96
370.07	126.39
370.27	91.28
370.47	229.37
370.66	393.21
370.86	355.76
371.06	404.91
371.25	503.22
371.45	451.72
371.65	489.17
371.84	496.19
372.04	458.74
372.24	463.43
372.44	442.36
372.63	571.09
372.83	440.02
373.03	458.74
373.22	451.72
373.42	463.43
373.62	517.26
373.81	510.24
374.01	545.34
374.21	484.49
374.40	493.85
374.60	545.34
374.79	470.45
374.99	624.92
375.19	564.07
375.38	566.41
375.58	601.52
375.78	615.56
375.97	552.37
376.17	592.16
376.37	606.20
376.56	603.86
376.76	613.22
376.95	662.37
377.15	571.09
377.35	622.58
377.54	624.92
377.74	645.99
377.93	615.56
378.13	606.20
378.33	631.94
378.52	610.88
378.72	667.05
378.91	617.90
379.11	653.01
379.31	596.84
379.50	718.54
379.70	641.31
379.89	664.71
380.09	669.39
380.28	601.52
380.48	692.80
380.68	585.13
380.87	557.05
381.07	617.90
381.26	704.50
381.46	690.46
381.65	660.03
381.85	716.20
382.04	664.71
382.24	685.78
382.43	662.37
382.63	697.48
382.83	716.20
383.02	765.36
383.22	737.27
383.41	634.29
383.61	695.14
383.80	837.91
384.00	732.59
384.19	716.20
384.39	718.54
384.58	720.88
384.78	793.44
384.97	725.57
385.17	784.08
385.36	802.80
385.56	720.88
385.75	741.95
385.95	788.76
386.14	805.14
386.34	858.98
386.53	863.66
386.72	793.44
386.92	837.91
387.11	819.19
387.31	887.06
387.50	842.59
387.70	854.30
387.89	791.10
388.09	763.01
388.28	798.12
388.48	873.02
388.67	854.30
388.86	772.38
389.06	849.61
389.25	868.34
389.45	891.74
389.64	856.64
389.84	1001.75
390.03	950.26
390.22	950.26
390.42	999.41
390.61	910.47
390.81	842.59
391.00	947.92
391.19	1032.18
391.39	1001.75
391.58	1001.75
391.78	938.55
391.97	992.39
392.16	968.98
392.36	992.39
392.55	959.62
392.75	994.73
392.94	973.66
393.13	968.98
393.33	922.17
393.52	990.05
393.71	931.53
393.91	957.28
394.10	1132.82
394.29	1050.90
394.49	1100.05
394.68	976.00
394.88	1167.93
395.07	1090.69
395.26	1221.76
395.46	1088.35
395.65	1128.14
395.84	1165.59
396.04	1064.94
396.23	1083.67
396.42	1128.14
396.62	1174.95
396.81	1071.97
397.00	1186.65
397.19	1160.91
397.39	1163.25
397.58	1280.27
397.77	1263.89
397.97	1212.40
398.16	1259.21
398.35	1291.98
398.55	1310.70
398.74	1306.02
398.93	1329.42
399.12	1277.93
399.32	1343.47
399.51	1359.85
399.70	1355.17
399.90	1310.70
400.09	1401.98
400.28	1413.68
400.47	1409.00
400.67	1500.28
400.86	1411.34
401.05	1481.56
401.24	1500.28
401.44	1526.03
401.63	1490.92
401.82	1530.71
402.01	1455.81
402.21	1465.18
402.40	1495.60
402.59	1631.35
402.78	1533.05
402.97	1673.48
403.17	1540.07
403.36	1572.84
403.55	1631.35
403.74	1659.44
403.93	1621.99
404.13	1528.37
404.32	1614.97
404.51	1661.78
404.70	1715.61
404.89	1652.42
405.09	1668.80
405.28	1673.48
405.47	1732.00
405.66	1699.23
405.85	1806.89
406.05	1853.70
406.24	1743.70
406.43	1849.02
406.62	1858.39
406.81	1879.45
407.00	1895.83
407.20	1720.29
407.39	1877.11
407.58	1881.79
407.77	1970.73
407.96	2019.88
408.15	1902.86
408.34	1996.48
408.54	1984.77
408.73	1907.54
408.92	2026.90
409.11	2017.54
409.30	2054.99
409.49	1996.48
409.68	2038.61
409.87	2087.76
410.07	2085.42
410.26	2120.53
410.45	2218.83
410.64	2139.25
410.83	2286.70
411.02	2230.53
411.21	2265.64
411.40	2207.13
411.59	2317.13
411.78	2293.72
411.98	2310.11
412.17	2331.17
412.36	2392.03
412.55	2387.35
412.74	2478.63
412.93	2504.37
413.12	2270.32
413.31	2443.52
413.50	2546.50
413.69	2377.98
413.88	2504.37
414.07	2619.06
414.26	2698.64
414.45	2569.91
414.64	2588.63
414.83	2724.38
415.02	2633.10
415.22	2614.38
415.41	2775.88
415.60	2775.88
415.79	2850.77
415.98	2785.24
416.17	2869.50
416.36	2818.00
416.55	2832.05
416.74	2988.86
416.93	2939.71
417.12	2883.54
417.31	3023.97
417.50	2974.82
417.69	3063.76
417.88	3035.67
418.07	3159.72
418.26	3033.33
418.45	3012.27
418.64	3236.96
418.83	3279.09
419.02	3129.30
419.21	3227.60
419.39	3255.69
419.58	3279.09
419.77	3218.24
419.96	3131.64
420.15	3267.39
420.34	3440.59
420.53	3323.56
420.72	3332.92
420.91	3461.65
421.10	3440.59
421.29	3506.12
421.48	3529.53
421.67	3442.93
421.86	3276.75
422.05	3346.97
422.24	3487.40
422.43	3456.97
422.61	3356.33
422.80	3604.42
422.99	3604.42
423.18	3545.91
423.37	3494.42
423.56	3501.44
423.75	3377.39
423.94	3548.25
424.13	3309.52
424.32	3363.35
424.50	3665.28
424.69	3679.32
424.88	3665.28
425.07	3571.66
425.26	3445.27
425.45	3632.51
425.64	3583.36
425.83	3630.17
426.01	3499.10
426.20	3714.43
426.39	3627.83
426.58	3613.79
426.77	3660.60
426.96	3592.72
427.15	3735.50
427.33	3749.54
427.52	3655.92
427.71	3712.09
427.90	3674.64
428.09	3749.54
428.28	3737.84
428.46	3754.22
428.65	3836.14
428.84	3904.01
429.03	3960.19
429.22	3646.55
429.40	3896.99
429.59	3925.08
429.78	3623.15
429.97	3676.98
430.16	3791.67
430.34	3758.90
430.53	3971.89
430.72	4021.04
430.91	3934.44
431.10	3960.19
431.28	4177.86
431.47	4114.66
431.66	4152.11
431.85	4217.65
432.03	4280.84
432.22	4414.25
432.41	4266.80
432.60	4124.02
432.79	4227.01
432.97	4189.56
433.16	4189.56
433.35	4152.11
433.54	4112.32
433.72	4306.59
433.91	4456.38
434.10	4201.26
434.28	4383.82
434.47	4299.56
434.66	4411.91
434.85	4407.23
435.03	4566.39
435.22	4470.42
435.41	4514.89
435.59	4643.62
435.78	4645.96
435.97	4550.00
436.16	4575.75
436.34	4596.81
436.53	4587.45
436.72	4713.84
436.90	4381.48
437.09	4802.78
437.28	4580.43
437.46	4758.31
437.65	4727.88
437.84	4706.82
438.02	4547.66
438.21	4798.10
438.40	4664.69
438.58	5015.77
438.77	4980.66
438.96	4968.96
439.14	4990.02
439.33	5114.07
439.52	5093.01
439.70	4994.70
439.89	5153.86
440.08	5114.07
440.26	5104.71
440.45	5184.29
440.63	5217.05
440.82	5294.29
441.01	5280.25
441.19	5235.78
441.38	5467.49
441.57	5530.69
441.75	5462.81
441.94	5612.60
442.12	5577.50
442.31	5804.53
442.50	5806.87
442.68	5549.41
442.87	5654.73
443.05	5898.15
443.24	5834.96
443.43	5687.50
443.61	5671.12
443.80	5956.66
443.98	5769.42
444.17	5547.07
444.35	5804.53
444.54	5942.62
444.73	5802.19
444.91	5741.33
445.10	5902.83
445.28	5694.52
445.47	5750.70
445.65	5760.06
445.84	5947.30
446.02	6071.35
446.21	6010.50
446.39	5870.06
446.58	5799.85
446.77	5937.94
446.95	5762.40
447.14	5963.68
447.32	6076.03
447.51	5991.77
447.69	5940.28
447.88	5991.77
448.06	5942.62
448.25	6033.90
448.43	6078.37
448.62	6059.65
448.80	6134.54
448.99	6216.46
449.17	6190.72
449.36	6054.97
449.54	6195.40
449.73	6256.25
449.91	6600.31
450.10	6183.70
450.28	6494.99
450.46	6476.26
450.65	6354.55
450.83	6478.60
451.02	6377.96
451.20	6654.14
451.39	6525.41
451.57	6469.24
451.76	6420.09
451.94	6452.86
452.13	6609.67
452.31	6490.31
452.49	6532.44
452.68	6438.81
452.86	6401.37
453.05	6602.65
453.23	6647.12
453.42	6642.44
453.60	6541.80
453.78	6794.58
453.97	6520.73
454.15	6794.58
454.34	6583.93
454.52	6995.86
454.70	6665.85
454.89	6813.30
455.07	6707.98
455.26	6836.70
455.44	6853.09
455.62	6892.88
455.81	6979.48
455.99	6843.73
456.17	7080.12
456.36	6942.03
456.54	7138.63
456.73	7227.57
456.91	7279.07
457.09	7496.74
457.28	7332.90
457.46	7250.98
457.64	7309.49
457.83	7330.56
458.01	7192.47
458.19	7473.33
458.38	7243.96
458.56	7417.16
458.74	7438.22
458.93	7321.20
459.11	7260.34
459.29	7466.31
459.48	7578.65
459.66	7541.21
459.84	7433.54
460.03	7595.04
460.21	7709.72
460.39	7569.29
460.57	7693.34
460.76	7611.42
460.94	7829.09
461.12	7726.11
461.31	7618.44
461.49	7929.74
461.67	7936.76
461.85	7906.33
462.04	7819.73
462.22	8308.90
462.40	8126.34
462.59	8086.55
462.77	8004.63
462.95	7913.35
463.13	8105.28
463.32	8091.23
463.50	8149.75
463.68	8170.81
463.86	8217.62
464.05	8077.19
464.23	8163.79
464.41	8292.52
464.59	7983.57
464.78	8369.76
464.96	8315.92
465.14	8140.38
465.32	8475.08
465.50	8297.20
465.69	8432.95
465.87	8360.39
466.05	8367.42
466.23	8332.31
466.41	8344.01
466.60	8571.04
466.78	8262.09
466.96	8322.94
467.14	8332.31
467.32	8535.93
467.51	8638.92
467.69	8456.36
467.87	8748.92
468.05	8627.21
468.23	8592.11
468.41	8482.10
468.60	8624.87
468.78	8723.18
468.96	8800.41
469.14	8830.84
469.32	8861.27
469.50	8730.20
469.69	8805.10
469.87	9050.85
470.05	8980.64
470.23	9015.74
470.41	8982.98
470.59	8905.74
470.77	8982.98
470.95	9006.38
471.14	9245.12
471.32	8908.08
471.50	9092.98
471.68	9303.63
471.86	9226.39
472.04	9530.66
472.22	9570.45
472.40	9327.03
472.58	9284.91
472.77	9383.21
472.95	9699.18
473.13	9837.27
473.31	9659.39
473.49	9628.96
473.67	9446.40
473.85	9600.88
474.03	9776.42
474.21	9912.17
474.39	10153.24
474.57	10125.16
474.75	10148.56
474.93	10106.43
475.12	10197.71
475.30	10174.31
475.48	10260.91
475.66	10284.31
475.84	10209.42
476.02	10593.26
476.20	10581.56
476.38	10480.92
476.56	10815.62
476.74	10920.94
476.92	10754.76
477.10	10864.77
477.28	10855.40
477.46	10963.07
477.64	11108.18
477.82	11248.61
478.00	11473.31
478.18	11433.52
478.36	11344.58
478.54	11587.99
478.72	11506.07
478.90	11559.91
479.08	11756.51
479.26	12030.35
479.44	11992.90
479.62	12046.74
479.80	12102.91
479.98	12102.91
480.16	12327.60
480.34	12521.87
480.52	12690.38
480.70	12397.82
480.88	12400.16
481.06	12594.42
481.24	12683.36
481.41	12908.05
481.59	13053.17
481.77	13022.74
481.95	13090.62
482.13	13305.95
482.31	13308.29
482.49	13706.18
482.67	13734.26
482.85	13561.06
483.03	13802.14
483.21	13980.02
483.39	14010.45
483.57	14125.13
483.74	14111.09
483.92	14178.97
484.10	14244.50
484.28	14384.93
484.46	14747.72
484.64	14960.70
484.82	14675.16
485.00	14834.32
485.18	15302.42
485.35	15105.82
485.53	14890.49
485.71	15033.26
485.89	15506.05
486.07	15318.81
486.25	15590.31
486.43	15681.59
486.61	15702.65
486.78	15999.90
486.96	16154.38
487.14	16058.42
487.32	16149.70
487.50	16313.53
487.68	16599.08
487.85	16634.19
488.03	17114.00
488.21	17142.08
488.39	17165.49
488.57	17156.13
488.75	17364.43
488.92	17296.56
489.10	17898.08
489.28	17874.67
489.46	17898.08
489.64	18038.51
489.81	18384.91
489.99	18326.39
490.17	18642.37
490.35	18665.77
490.53	18937.27
490.70	19215.80
490.88	19194.73
491.06	18944.30
491.24	19297.72
491.41	19171.33
491.59	19056.64
491.77	19211.12
491.95	19660.50
492.13	20177.76
492.30	19850.08
492.48	19953.07
492.66	20091.16
492.84	20065.41
493.01	20126.27
493.19	20276.06
493.37	20545.22
493.54	20123.93
493.72	20842.47
493.90	20805.02
494.08	20671.61
494.25	21273.13
494.43	21188.87
494.61	21666.34
494.79	21661.66
494.96	21649.96
495.14	21647.61
495.32	21675.70
495.49	21851.24
495.67	21933.16
495.85	22073.59
496.02	22377.86
496.20	22455.10
496.38	22738.30
496.55	22689.15
496.73	23105.77
496.91	22668.09
497.09	22892.78
497.26	23166.62
497.44	23363.23
497.62	23293.01
497.79	23360.89
497.97	23536.43
498.14	23405.36
498.32	23480.25
498.50	23637.07
498.67	23990.49
498.85	23929.64
499.03	24168.37
499.20	24383.70
499.38	24374.34
499.56	24259.65
499.73	24404.77
499.91	24620.10
500.08	24828.40
500.26	24561.58
500.44	24650.52
500.61	24896.28
500.79	24945.43
500.97	24924.36
501.14	25458.01
501.32	25188.85
501.49	25469.71
501.67	25193.53
501.84	25371.41
502.02	25252.04
502.20	25628.87
502.37	25642.91
502.55	25834.83
502.72	25827.81
502.90	25626.53
503.07	26019.74
503.25	26054.84
503.43	26298.26
503.60	26340.39
503.78	26473.80
503.95	26345.07
504.13	26356.77
504.30	26668.06
504.48	26670.40
504.65	26965.31
504.83	26867.01
505.01	27075.32
505.18	27089.36
505.36	27405.33
505.53	27136.17
505.71	27597.26
505.88	27410.01
506.06	27175.96
506.23	27349.16
506.41	27229.79
506.58	27370.22
506.76	27742.37
506.93	27770.46
507.11	28032.60
507.28	27962.38
507.46	27924.93
507.63	28109.83
507.81	28112.17
507.98	27807.90
508.16	28481.98
508.33	28261.97
508.50	28634.11
508.68	28865.83
508.85	28987.53
509.03	29179.46
509.20	28510.07
509.38	28844.76
509.55	29392.45
509.73	29366.70
509.90	29036.69
510.08	29092.86
510.25	29467.34
510.42	29429.90
510.60	29986.94
510.77	29570.33
510.95	29750.55
511.12	29617.14
511.30	30008.01
511.47	30118.01
511.64	30155.46
511.82	30443.35
511.99	29937.79
512.17	30094.61
512.34	30436.33
512.51	30759.32
512.69	30476.12
512.86	30532.29
513.04	30974.65
513.21	30773.36
513.38	30211.64
513.56	30738.26
513.73	30785.07
513.90	30876.35
514.08	31068.27
514.25	31082.31
514.43	31285.94
514.60	31194.66
514.77	31466.16
514.95	31257.85
515.12	31077.63
515.29	31328.07
515.47	32187.05
515.64	31641.70
515.81	31524.68
515.99	31571.49
516.16	32259.60
516.33	31882.78
516.51	32079.38
516.68	31576.17
516.85	31768.09
517.03	31681.49
517.20	31725.96
517.37	32011.51
517.54	32659.84
517.72	31819.58
517.89	32357.91
518.06	32472.59
518.24	32177.68
518.41	32346.20
518.58	32463.23
518.75	32606.00
518.93	32952.40
519.10	32847.08
519.27	32861.12
519.45	32966.45
519.62	32994.53
519.79	32989.85
519.96	33088.15
520.14	33289.44
520.31	33310.50
520.48	33383.06
520.65	33649.88
520.83	33439.23
521.00	33706.05
521.17	34057.14
521.34	33738.82
521.52	34146.08
521.69	33935.43
521.86	34235.02
522.03	33944.79
522.20	34043.09
522.38	34394.17
522.55	34611.84
522.72	34499.50
522.89	34689.08
523.07	34405.88
523.24	34279.49
523.41	34637.59
523.58	34824.83
523.75	34885.68
523.92	34848.24
524.10	34726.53
524.27	35206.34
524.44	34991.01
524.61	35519.97
524.78	34761.64
524.96	35276.55
525.13	35192.30
525.30	35887.43
525.47	35604.23
525.64	35730.62
525.81	35601.89
525.98	35681.47
526.16	35725.94
526.33	35363.15
526.50	35634.66
526.67	35196.98
526.84	35519.97
527.01	35351.45
527.18	35702.53
527.36	35723.60
527.53	36135.53
527.70	36378.95
527.87	36114.47
528.04	36088.72
528.21	35835.94
528.38	36275.96
528.55	36723.01
528.72	36383.63
528.89	36708.96
529.07	36587.25
529.24	36254.90
529.41	36879.82
529.58	36840.03
529.75	36577.89
529.92	36680.88
530.09	36849.39
530.26	36903.23
530.43	37076.43
530.60	36758.11
530.77	37067.06
530.94	37497.72
531.11	36943.02
531.28	37074.09
531.46	37329.20
531.63	37401.76
531.80	37216.86
531.97	37345.59
532.14	37598.37
532.31	37317.50
532.48	37207.50
532.65	37205.16
532.82	37347.93
532.99	37809.01
533.16	37764.54
533.33	37799.65
533.50	38117.96
533.67	38045.41
533.84	37965.83
534.01	38066.47
534.18	38148.39
534.35	38443.30
534.52	38122.65
534.69	38209.25
534.86	38286.48
535.03	38085.20
535.20	38689.06
535.37	38651.61
535.54	38684.37
535.71	38293.50
535.88	38553.30
536.05	38792.04
536.22	38962.90
536.38	38792.04
536.55	38815.44
536.72	38579.05
536.89	38473.73
537.06	38656.29
537.23	39122.05
537.40	38916.09
537.57	38726.50
537.74	39246.10
537.91	39145.46
538.08	39159.50
538.25	38759.27
538.42	39098.65
538.59	39480.16
538.75	38838.85
538.92	39318.66
539.09	39583.14
539.26	39246.10
539.43	39849.96
539.60	39819.53
539.77	39339.72
539.94	39784.43
540.11	39346.75
540.28	39398.24
540.44	39531.65
540.61	39669.74
540.78	39449.73
540.95	39861.66
541.12	39751.66
541.29	39871.03
541.46	39594.84
541.62	39669.74
541.79	39864.00
541.96	39957.63
542.13	39700.17
542.30	40102.74
542.47	40184.66
542.63	40114.44
542.80	40734.68
542.97	40746.39
543.14	40439.78
543.31	40552.12
543.48	40369.56
543.64	41186.41
543.81	40641.06
543.98	40921.93
544.15	40552.12
544.32	40786.18
544.48	41273.01
544.65	40664.47
544.82	40807.24
544.99	40645.74
545.16	41116.19
545.32	40823.62
545.49	41151.30
545.66	41116.19
545.83	41422.80
546.00	41530.47
546.16	41486.00
546.33	41120.87
546.50	41151.30
546.67	41446.21
546.83	40903.20
547.00	41331.52
547.17	41457.91
547.34	41422.80
547.50	41638.13
547.67	42075.81
547.84	41818.35
548.00	41406.42
548.17	41544.51
548.34	41556.21
548.51	41918.99
548.67	41656.85
548.84	41706.01
549.01	41532.81
549.18	41804.31
549.34	42351.99
549.51	41694.30
549.68	41773.88
549.84	42122.62
550.01	41759.84
550.18	42244.33
550.34	41804.31
550.51	42167.09
550.68	42106.24
550.84	41404.08
551.01	41858.14
551.18	42141.35
551.34	42064.11
551.51	42160.07
551.68	42267.73
551.84	42281.78
552.01	42454.98
552.18	42579.03
552.34	42445.62
552.51	42382.42
552.68	42054.75
552.84	42710.10
553.01	42930.11
553.18	42223.26
553.34	42756.91
553.51	42040.70
553.67	42021.98
553.84	43370.13
554.01	42918.40
554.17	43051.81
554.34	42995.64
554.51	42862.23
554.67	42820.10
554.84	42930.11
555.00	42808.40
555.17	43044.79
555.33	42843.51
555.50	42862.23
555.67	43262.46
555.83	43154.80
556.00	43072.88
556.16	43456.73
556.33	43386.51
556.50	43051.81
556.66	43264.80
556.83	42983.94
556.99	43068.20
557.16	43194.59
557.32	43285.87
557.49	43323.32
557.65	42557.96
557.82	43281.19
557.98	42939.47
558.15	43543.33
558.32	43627.59
558.48	43388.85
558.65	43550.35
558.81	43311.61
558.98	43777.38
559.14	43320.98
559.31	43030.75
559.47	43349.06
559.64	43779.72
559.80	43744.61
559.97	43927.17
560.13	43402.89
560.30	43629.93
560.46	43807.81
560.63	43487.15
560.79	43955.26
560.96	43976.33
561.12	43990.37
561.29	43536.30
561.45	43789.08
561.61	43566.73
561.78	43894.41
561.94	43585.46
562.11	43943.56
562.27	43613.54
562.44	43779.72
562.60	44177.61
562.77	43721.21
562.93	43838.23
563.10	44210.38
563.26	43526.94
563.42	44364.85
563.59	43608.86
563.75	44051.22
563.92	44301.66
564.08	44268.89
564.24	44208.04
564.41	44587.21
564.57	43992.71
564.74	44135.48
564.90	44137.82
565.07	44130.80
565.23	44240.81
565.39	43821.85
565.56	44327.41
565.72	44032.50
565.88	44044.20
566.05	43861.64
566.21	44137.82
566.38	43845.26
566.54	44320.38
566.70	44245.49
566.87	44617.63
567.03	44364.85
567.19	45076.38
567.36	44612.95
567.52	43941.22
567.68	44601.25
567.85	44032.50
568.01	44147.18
568.17	44074.63
568.34	44456.14
568.50	44032.50
568.66	44325.07
568.83	44545.08
568.99	44512.31
569.15	44240.81
569.32	44177.61
569.48	44172.93
569.64	44954.67
569.81	44615.29
569.97	44362.51
570.13	44327.41
570.30	44144.84
570.46	44208.04
570.62	43990.37
570.78	44189.31
570.95	44226.76
571.11	44612.95
571.27	44322.72
571.43	44144.84
571.60	44294.64
571.76	44355.49
571.92	44514.65
572.09	44481.88
572.25	44938.29
572.41	44561.46
572.57	44521.67
572.74	44662.10
572.90	44676.15
573.06	45184.04
573.22	44598.91
573.38	44430.39
573.55	43861.64
573.71	44507.63
573.87	44456.14
574.03	44701.89
574.20	44268.89
574.36	44596.57
574.52	44870.41
574.68	44748.70
574.84	44744.02
575.01	44521.67
575.17	44753.38
575.33	44594.23
575.49	44282.94
575.65	45088.08
575.82	44921.90
575.98	44732.32
576.14	44900.84
576.30	44795.51
576.46	44788.49
576.62	44411.67
576.79	44582.52
576.95	44217.40
577.11	44662.10
577.27	44928.92
577.43	44971.05
577.59	44446.77
577.75	44779.13
577.92	44339.11
578.08	44236.12
578.24	44252.51
578.40	44788.49
578.56	44650.40
578.72	44947.65
578.88	44697.21
579.04	44816.58
579.21	44697.21
579.37	44390.60
579.53	44816.58
579.69	44406.98
579.85	44554.44
580.01	44893.82
580.17	44877.43
580.33	45027.23
580.49	44957.01
580.65	44664.44
580.82	44961.69
580.98	44549.76
581.14	44519.33
581.30	45045.95
581.46	44924.24
581.62	45153.62
581.78	44788.49
581.94	45038.93
582.10	44629.34
582.26	45298.73
582.42	44774.45
582.58	44781.47
582.74	44725.30
582.90	44575.50
583.06	44718.28
583.22	45256.60
583.38	45205.11
583.54	45024.89
583.70	44694.87
583.86	44917.22
584.02	44294.64
584.18	44552.10
584.34	45179.36
584.50	45226.17
584.66	44886.79
584.82	44905.52
584.98	45207.45
585.14	44966.37
585.30	45226.17
585.46	44729.98
585.62	44329.75
585.78	44601.25
585.94	44568.48
586.10	44374.22
586.26	44626.99
586.42	44577.84
586.58	45331.50
586.74	44800.19
586.90	44610.61
587.06	44734.66
587.22	45139.57
587.38	44575.50
587.54	45111.49
587.70	45256.60
587.86	44933.60
588.02	44847.00
588.18	45153.62
588.34	44870.41
588.49	44526.35
588.65	44788.49
588.81	44528.69
588.97	44865.73
589.13	44835.30
589.29	44926.58
589.45	44680.83
589.61	44975.73
589.77	44989.78
589.93	44800.19
590.08	45785.56
590.24	45331.50
