SpectraSuite Data File
++++++++++++++++++++++++++++++++++++
Date: Fri Oct 25 10:43:48 EDT 2013
User: price-jones
Dark Spectrum Present: No
Reference Spectrum Present: No
Number of Sampled Component Spectra: 1
Spectrometers: USB2+H05261
Integration Time (usec): 100000 (USB2+H05261)
Spectra Averaged: 1 (USB2+H05261)
Boxcar Smoothing: 0 (USB2+H05261)
Correct for Electrical Dark: No (USB2+H05261)
Strobe/Lamp Enabled: No (USB2+H05261)
Correct for Detector Non-linearity: No (USB2+H05261)
Correct for Stray Light: No (USB2+H05261)
Number of Pixels in Processed Spectrum: 2048
>>>>>Begin Processed Spectral Data<<<<<
365.73	147.45
365.92	147.45
366.12	147.45
366.32	39.79
366.52	18.72
366.72	44.47
366.91	39.79
367.11	14.04
367.31	0.00
367.51	9.36
367.70	11.70
367.90	2.34
368.10	0.00
368.30	0.00
368.49	16.38
368.69	98.30
368.89	77.24
369.09	42.13
369.28	114.69
369.48	60.85
369.68	98.30
369.87	44.47
370.07	58.51
370.27	131.07
370.47	208.31
370.66	360.44
370.86	374.49
371.06	528.96
371.25	484.49
371.45	451.72
371.65	461.09
371.84	411.93
372.04	451.72
372.24	465.77
372.44	463.43
372.63	554.71
372.83	514.92
373.03	496.19
373.22	468.11
373.42	521.94
373.62	500.87
373.81	571.09
374.01	561.73
374.21	585.13
374.40	554.71
374.60	589.82
374.79	547.69
374.99	655.35
375.19	571.09
375.38	615.56
375.58	608.54
375.78	615.56
375.97	596.84
376.17	697.48
376.37	587.47
376.56	613.22
376.76	578.11
376.95	704.50
377.15	657.69
377.35	683.44
377.54	709.18
377.74	678.76
377.93	592.16
378.13	638.97
378.33	690.46
378.52	653.01
378.72	681.10
378.91	662.37
379.11	697.48
379.31	692.80
379.50	690.46
379.70	709.18
379.89	744.29
380.09	678.76
380.28	655.35
380.48	678.76
380.68	657.69
380.87	730.25
381.07	770.04
381.26	739.61
381.46	699.82
381.65	720.88
381.85	685.78
382.04	716.20
382.24	674.07
382.43	638.97
382.63	718.54
382.83	692.80
383.02	725.57
383.22	828.55
383.41	720.88
383.61	727.91
383.80	725.57
384.00	711.52
384.19	835.57
384.39	774.72
384.58	868.34
384.78	849.61
384.97	746.63
385.17	823.87
385.36	828.55
385.56	781.74
385.75	807.48
385.95	828.55
386.14	854.30
386.34	758.33
386.53	866.00
386.72	868.34
386.92	833.23
387.11	891.74
387.31	936.21
387.50	856.64
387.70	847.27
387.89	844.93
388.09	915.15
388.28	858.98
388.48	943.24
388.67	903.45
388.86	896.43
389.06	912.81
389.25	966.64
389.45	971.32
389.64	978.34
389.84	1022.81
390.03	985.37
390.22	966.64
390.42	1027.50
390.61	968.98
390.81	1048.56
391.00	1020.47
391.19	1053.24
391.39	1029.84
391.58	1076.65
391.78	1128.14
391.97	1125.80
392.16	1036.86
392.36	1118.78
392.55	1013.45
392.75	1057.92
392.94	950.26
393.13	1076.65
393.33	1027.50
393.52	999.41
393.71	1093.03
393.91	1214.74
394.10	1172.61
394.29	1203.04
394.49	1097.71
394.68	1153.88
394.88	1205.38
395.07	1231.12
395.26	1317.72
395.46	1135.16
395.65	1289.64
395.84	1256.87
396.04	1217.08
396.23	1233.46
396.42	1116.44
396.62	1226.44
396.81	1149.20
397.00	1263.89
397.19	1231.12
397.39	1350.49
397.58	1472.20
397.77	1322.40
397.97	1359.85
398.16	1404.32
398.35	1610.29
398.55	1465.18
398.74	1430.07
398.93	1490.92
399.12	1514.33
399.32	1430.07
399.51	1514.33
399.70	1600.93
399.90	1577.52
400.09	1556.46
400.28	1549.43
400.47	1675.82
400.67	1582.20
400.86	1610.29
401.05	1621.99
401.24	1675.82
401.44	1661.78
401.63	1692.21
401.82	1689.87
402.01	1703.91
402.21	1689.87
402.40	1687.53
402.59	1659.44
402.78	1724.97
402.97	1736.68
403.17	1687.53
403.36	1830.30
403.55	1849.02
403.74	1970.73
403.93	1797.53
404.13	1884.13
404.32	1792.85
404.51	1914.56
404.70	1940.30
404.89	1856.04
405.09	1923.92
405.28	1947.33
405.47	1942.64
405.66	1961.37
405.85	1970.73
406.05	1856.04
406.24	1994.14
406.43	2136.91
406.62	2099.46
406.81	2113.50
407.00	1982.43
407.20	1968.39
407.39	2052.65
407.58	2139.25
407.77	2132.23
407.96	2230.53
408.15	2277.34
408.34	2230.53
408.54	2244.57
408.73	2387.35
408.92	2370.96
409.11	2207.13
409.30	2385.01
409.49	2244.57
409.68	2263.30
409.87	2321.81
410.07	2279.68
410.26	2370.96
410.45	2420.11
410.64	2509.05
410.83	2438.84
411.02	2492.67
411.21	2525.44
411.40	2539.48
411.59	2553.52
411.78	2441.18
411.98	2616.72
412.17	2576.93
412.36	2635.44
412.55	2668.21
412.74	2754.81
412.93	2757.15
413.12	2757.15
413.31	2820.35
413.50	2752.47
413.69	2939.71
413.88	2972.48
414.07	3000.57
414.26	2937.37
414.45	3073.12
414.64	2965.46
414.83	3052.06
415.02	3176.11
415.22	3131.64
415.41	3075.46
415.60	2995.89
415.79	3162.06
415.98	3201.85
416.17	3171.43
416.36	3215.90
416.55	3173.77
416.74	3220.58
416.93	3183.13
417.12	3215.90
417.31	3293.13
417.50	3185.47
417.69	3449.95
417.88	3445.27
418.07	3417.18
418.26	3309.52
418.45	3557.61
418.64	3571.66
418.83	3492.08
419.02	3489.74
419.21	3545.91
419.39	3700.39
419.58	3639.53
419.77	3421.86
419.96	3651.24
420.15	3480.38
420.34	3590.38
420.53	3679.32
420.72	3803.37
420.91	3819.75
421.10	3892.31
421.29	3843.16
421.48	3868.91
421.67	3786.99
421.86	3805.71
422.05	3822.09
422.24	3716.77
422.43	3756.56
422.61	3779.97
422.80	3955.51
422.99	3906.35
423.18	3889.97
423.37	3756.56
423.56	3908.69
423.75	3967.21
423.94	3812.73
424.13	3768.26
424.32	3782.31
424.50	3915.72
424.69	4030.40
424.88	3936.78
425.07	3857.20
425.26	3854.86
425.45	3885.29
425.64	3894.65
425.83	4037.42
426.01	4044.45
426.20	4114.66
426.39	3911.04
426.58	3946.14
426.77	3861.88
426.96	4072.53
427.15	3999.98
427.33	3960.19
427.52	4058.49
427.71	4088.92
427.90	3915.72
428.09	4173.18
428.28	4131.05
428.46	4138.07
428.65	4198.92
428.84	4217.65
429.03	4322.97
429.22	4095.94
429.40	4175.52
429.59	4245.73
429.78	3978.91
429.97	4044.45
430.16	3953.16
430.34	3913.38
430.53	4119.34
430.72	4175.52
430.91	4212.96
431.10	4271.48
431.28	4423.61
431.47	4692.77
431.66	4723.20
431.85	4624.90
432.03	4645.96
432.22	4732.56
432.41	4571.07
432.60	4791.08
432.79	4713.84
432.97	4837.89
433.16	4812.14
433.35	4634.26
433.54	4772.35
433.72	4667.03
433.91	4795.76
434.10	4641.28
434.28	4737.24
434.47	4882.36
434.66	4877.68
434.85	4833.21
435.03	4940.87
435.22	4975.98
435.41	5050.88
435.59	5064.92
435.78	4952.57
435.97	5205.35
436.16	5149.18
436.34	5132.79
436.53	5167.90
436.72	5390.25
436.90	5121.09
437.09	5212.37
437.28	5139.82
437.46	5200.67
437.65	5238.12
437.84	5289.61
438.02	5074.28
438.21	5132.79
438.40	5057.90
438.58	5509.62
438.77	5336.42
438.96	5392.59
439.14	5633.67
439.33	5593.88
439.52	5526.00
439.70	5762.40
439.89	5675.80
440.08	5589.20
440.26	5610.26
440.45	5722.61
440.63	5989.43
440.82	5987.09
441.01	5919.21
441.19	5963.68
441.38	6141.57
441.57	6050.28
441.75	6071.35
441.94	6401.37
442.12	6235.19
442.31	6310.08
442.50	6249.23
442.68	6209.44
442.87	6359.24
443.05	6361.58
443.24	6399.02
443.43	6431.79
443.61	6300.72
443.80	6555.84
443.98	6349.87
444.17	6242.21
444.35	6513.71
444.54	6590.95
444.73	6443.49
444.91	6480.94
445.10	6380.30
445.28	6455.20
445.47	6434.13
445.65	6532.44
445.84	6546.48
446.02	6789.89
446.21	6581.59
446.39	6665.85
446.58	6494.99
446.77	6689.25
446.95	6506.69
447.14	6441.15
447.32	6754.79
447.51	6567.54
447.69	6530.09
447.88	6616.69
448.06	6707.98
448.25	6661.16
448.43	6743.08
448.62	6600.31
448.80	6600.31
448.99	6764.15
449.17	6815.64
449.36	6768.83
449.54	6799.26
449.73	7075.44
449.91	7059.06
450.10	7119.91
450.28	7159.70
450.46	7218.21
450.65	7126.93
450.83	7279.07
451.02	7091.82
451.20	7215.87
451.39	7187.79
451.57	7199.49
451.76	7208.85
451.94	7311.83
452.13	7211.19
452.31	7197.15
452.49	7105.87
452.68	7269.70
452.86	7148.00
453.05	7267.36
453.23	7250.98
453.42	7290.77
453.60	7372.69
453.78	7428.86
453.97	7407.80
454.15	7276.73
454.34	7300.13
454.52	7513.12
454.70	7585.68
454.89	7653.55
455.07	7545.89
455.26	7665.25
455.44	7777.60
455.62	7545.89
455.81	7700.36
455.99	7768.24
456.17	7843.14
456.36	8018.68
456.54	7847.82
456.73	8035.06
456.91	7964.84
457.09	8018.68
457.28	8250.39
457.46	8013.99
457.64	8060.80
457.83	8063.15
458.01	8028.04
458.19	8138.04
458.38	8210.60
458.56	8238.69
458.74	8273.79
458.93	8290.18
459.11	8617.85
459.29	8294.86
459.48	8308.90
459.66	8250.39
459.84	8393.16
460.03	8650.62
460.21	8444.65
460.39	8514.87
460.57	8676.37
460.76	8512.53
460.94	8542.96
461.12	8578.06
461.31	8517.21
461.49	8557.00
461.67	8505.51
461.85	8676.37
462.04	8819.14
462.22	8739.56
462.40	8877.65
462.59	8709.13
462.77	9029.79
462.95	8858.93
463.13	8842.54
463.32	8777.01
463.50	8741.90
463.68	9043.83
463.86	8924.46
464.05	8901.06
464.23	8938.51
464.41	8964.25
464.59	8891.70
464.78	9380.87
464.96	9123.41
465.14	8821.48
465.32	9090.64
465.50	9156.18
465.69	9327.03
465.87	9343.42
466.05	9153.84
466.23	9254.48
466.41	9163.20
466.60	9207.67
466.78	9125.75
466.96	9273.20
467.14	9240.44
467.32	9320.01
467.51	9329.38
467.69	9071.92
467.87	9291.93
468.05	9577.47
468.23	9334.06
468.41	9439.38
468.60	9329.38
468.78	9757.69
468.96	9507.26
469.14	9603.22
469.32	9603.22
469.50	9547.05
469.69	9827.91
469.87	9628.96
470.05	9696.84
470.23	9781.10
470.41	9755.35
470.59	10040.90
470.77	10064.30
470.95	9841.95
471.14	10307.72
471.32	10022.17
471.50	10232.82
471.68	10162.61
471.86	10209.42
472.04	10410.70
472.22	10518.37
472.40	10188.35
472.58	10370.91
472.77	10466.88
472.95	10658.80
473.13	11016.90
473.31	10492.62
473.49	10399.00
473.67	10614.33
473.85	10738.38
474.03	10897.53
474.21	10949.03
474.39	10930.30
474.57	10906.90
474.75	11028.60
474.93	11096.48
475.12	11166.70
475.30	11178.40
475.48	11180.74
475.66	11342.24
475.84	11325.85
476.02	11456.92
476.20	11562.25
476.38	11688.64
476.56	11815.02
476.74	11749.49
476.92	11822.05
477.10	11768.21
477.28	12128.66
477.46	11939.07
477.64	11990.56
477.82	12280.79
478.00	12383.77
478.18	12355.69
478.36	12505.48
478.54	12723.15
478.72	12727.83
478.90	12945.50
479.08	13027.42
479.26	12798.05
479.44	13053.17
479.62	13060.19
479.80	13277.86
479.98	13224.03
480.16	13600.85
480.34	13582.13
480.52	13799.80
480.70	13680.43
480.88	13621.92
481.06	13912.14
481.24	13874.70
481.41	14216.41
481.59	14366.21
481.77	14216.41
481.95	14347.48
482.13	14480.89
482.31	14335.78
482.49	14986.45
482.67	14682.18
482.85	14949.00
483.03	14958.36
483.21	15176.03
483.39	15115.18
483.57	15330.51
483.74	15466.26
483.92	15660.52
484.10	15613.71
484.28	15688.61
484.46	16067.78
484.64	16362.69
484.82	15868.83
485.00	15969.48
485.18	16121.61
485.35	16491.41
485.53	15983.52
485.71	16088.84
485.89	16414.18
486.07	16475.03
486.25	16493.76
486.43	16673.98
486.61	17135.06
486.78	17071.87
486.96	17207.62
487.14	17572.74
487.32	17549.34
487.50	18054.89
487.68	18347.46
487.85	18279.58
488.03	18258.52
488.21	18188.30
488.39	18335.76
488.57	19019.19
488.75	18803.86
488.92	18761.73
489.10	19367.93
489.28	19410.06
489.46	19772.85
489.64	19672.20
489.81	19967.11
489.99	19906.26
490.17	20126.27
490.35	20540.54
490.53	20432.88
490.70	20409.47
490.88	20304.15
491.06	20688.00
491.24	20699.70
491.41	20435.22
491.59	20746.51
491.77	20538.20
491.95	21043.76
492.13	21088.23
492.30	21301.22
492.48	21696.77
492.66	21914.44
492.84	21811.45
493.01	21914.44
493.19	22279.56
493.37	22263.18
493.54	21745.92
493.72	22590.85
493.90	22417.65
494.08	23246.20
494.25	22934.91
494.43	22991.08
494.61	23396.00
494.79	23590.26
494.96	23288.33
495.14	23201.73
495.32	23765.80
495.49	23433.44
495.67	23658.14
495.85	24046.66
496.02	23924.96
496.20	24327.53
496.38	24039.64
496.55	24254.97
496.73	24666.91
496.91	24524.13
497.09	24863.51
497.26	24980.54
497.44	25266.08
497.62	25233.32
497.79	25298.85
497.97	25013.31
498.14	25282.47
498.32	25802.07
498.50	25514.18
498.67	26008.03
498.85	25970.58
499.03	26155.49
499.20	25825.47
499.38	25954.20
499.56	25998.67
499.73	26183.57
499.91	26478.48
500.08	26508.91
500.26	26237.41
500.44	26522.95
500.61	26459.76
500.79	26448.05
500.97	26464.44
501.14	27384.27
501.32	26829.56
501.49	27192.34
501.67	27182.98
501.84	27115.11
502.02	27569.17
502.20	27288.31
502.37	27733.01
502.55	27538.74
502.72	27669.81
502.90	28051.32
503.07	27630.02
503.25	28095.79
503.43	28011.53
503.60	28119.20
503.78	28030.26
503.95	27990.47
504.13	28311.12
504.30	28493.68
504.48	28470.28
504.65	28996.90
504.83	28706.67
505.01	29024.98
505.18	29244.99
505.36	29277.76
505.53	29151.37
505.71	29488.41
505.88	29818.42
506.06	29205.20
506.23	29883.96
506.41	29626.50
506.58	29846.51
506.76	29619.48
506.93	29750.55
507.11	29869.92
507.28	30059.50
507.46	29617.14
507.63	30064.18
507.81	30099.29
507.98	29834.81
508.16	30323.98
508.33	30206.95
508.50	30178.87
508.68	30799.11
508.85	30785.07
509.03	30817.83
509.20	30749.96
509.38	31201.68
509.55	31337.43
509.73	31426.37
509.90	31400.63
510.08	31157.21
510.25	31105.72
510.42	31278.92
510.60	31613.62
510.77	31632.34
510.95	31985.76
511.12	31630.00
511.30	31908.52
511.47	32456.21
511.64	32383.65
511.82	32687.92
511.99	31676.81
512.17	32664.52
512.34	31969.38
512.51	32547.49
512.69	32856.44
512.86	32847.08
513.04	32552.17
513.21	32699.62
513.38	32746.44
513.56	32699.62
513.73	32662.18
513.90	33029.64
514.08	32708.99
514.25	32978.15
514.43	33137.30
514.60	33362.00
514.77	33209.86
514.95	33474.34
515.12	33057.73
515.29	33504.77
515.47	33930.75
515.64	33586.69
515.81	33677.97
515.99	33490.73
516.16	33834.78
516.33	33476.68
516.51	33682.65
516.68	33102.20
516.85	33221.56
517.03	33696.69
517.20	33930.75
517.37	34192.89
517.54	34518.22
517.72	34099.26
517.89	33762.23
518.06	33930.75
518.24	34543.97
518.41	34267.78
518.58	34574.39
518.75	34237.36
518.93	34850.58
519.10	34761.64
519.27	34895.05
519.45	34782.70
519.62	35241.45
519.79	35447.41
519.96	34939.52
520.14	35786.79
520.31	35351.45
520.48	35524.65
520.65	35468.48
520.83	35725.94
521.00	35466.14
521.17	35901.48
521.34	36168.30
521.52	35679.13
521.69	36336.82
521.86	36116.81
522.03	35835.94
522.20	36247.88
522.38	36467.89
522.55	36484.27
522.72	36217.45
522.89	36376.61
523.07	36947.70
523.24	36208.09
523.41	36758.11
523.58	36793.22
523.75	37315.16
523.92	36896.20
524.10	37553.90
524.27	37385.38
524.44	36985.15
524.61	37404.10
524.78	37724.75
524.96	37457.93
525.13	37558.58
525.30	37544.53
525.47	37483.68
525.64	37677.94
525.81	37422.83
525.98	37467.30
526.16	36999.19
526.33	36968.76
526.50	37530.49
526.67	37165.37
526.84	37214.52
527.01	37483.68
527.18	37759.86
527.36	38363.72
527.53	37968.17
527.70	38419.89
527.87	38426.92
528.04	37776.25
528.21	38146.05
528.38	38651.61
528.55	38742.89
528.72	38766.29
528.89	38827.15
529.07	38773.31
529.24	38873.96
529.41	39145.46
529.58	39014.39
529.75	38944.17
529.92	38871.62
530.09	39283.55
530.26	38899.70
530.43	39136.10
530.60	38976.94
530.77	39236.74
530.94	39030.77
531.11	38857.57
531.28	39229.72
531.46	39807.83
531.63	39665.06
531.80	39763.36
531.97	39306.96
532.14	39122.05
532.31	38979.28
532.48	39353.77
532.65	39421.64
532.82	39512.92
532.99	39276.53
533.16	39325.68
533.33	39880.39
533.50	40046.57
533.67	39536.33
533.84	39758.68
534.01	39402.92
534.18	39889.75
534.35	40177.64
534.52	39803.15
534.69	40561.48
534.86	40753.41
535.03	40034.86
535.20	40591.91
535.37	40545.10
535.54	40828.30
535.71	40531.06
535.88	40912.56
536.05	40774.47
536.22	40390.62
536.38	40404.67
536.55	40666.81
536.72	40811.92
536.89	40297.00
537.06	40348.50
537.23	40877.46
537.40	40598.93
537.57	40893.84
537.74	40940.65
537.91	41287.05
538.08	41219.17
538.25	41088.10
538.42	40891.50
538.59	41249.60
538.75	40872.78
538.92	41113.85
539.09	41443.87
539.26	41158.32
539.43	41577.28
539.60	41413.44
539.77	41317.48
539.94	41443.87
540.11	41069.38
540.28	41127.89
540.44	41415.78
540.61	41509.40
540.78	41378.33
540.95	41301.09
541.12	41368.97
541.29	41930.70
541.46	42141.35
541.62	41628.77
541.79	41773.88
541.96	41219.17
542.13	41745.80
542.30	41811.33
542.47	42169.43
542.63	42136.66
542.80	42153.05
542.97	42440.93
543.14	42766.27
543.31	42529.87
543.48	42579.03
543.64	42674.99
543.81	42768.61
543.98	42511.15
544.15	42466.68
544.32	43098.62
544.48	42965.21
544.65	42838.83
544.82	42534.56
544.99	42614.13
545.16	42890.32
545.32	43098.62
545.49	43583.12
545.66	43491.83
545.83	43241.40
546.00	43159.48
546.16	42665.63
546.33	42845.85
546.50	42684.35
546.67	43084.58
546.83	43199.27
547.00	43131.39
547.17	43517.58
547.34	42787.33
547.50	43007.34
547.67	43250.76
547.84	43180.54
548.00	43856.96
548.17	43707.16
548.34	43828.87
548.51	43999.73
548.67	43735.25
548.84	43702.48
549.01	43672.06
549.18	43796.10
549.34	43407.58
549.51	43646.31
549.68	44081.65
549.84	43400.55
550.01	43824.19
550.18	43981.01
550.34	44069.95
550.51	43913.13
550.68	43473.11
550.84	43086.92
551.01	44046.54
551.18	43849.94
551.34	43772.70
551.51	44039.52
551.68	44240.81
551.84	44414.01
552.01	44512.31
552.18	44222.08
552.34	43847.60
552.51	44566.14
552.68	44224.42
552.84	44236.12
553.01	44065.27
553.18	44222.08
553.34	44397.62
553.51	44706.57
553.67	44414.01
553.84	44533.37
554.01	44502.95
554.17	44725.30
554.34	44238.47
554.51	44945.31
554.67	44535.71
554.84	44589.55
555.00	44165.91
555.17	44942.97
555.33	44629.34
555.50	44133.14
555.67	44018.46
555.83	44350.81
556.00	44626.99
556.16	45045.95
556.33	44858.71
556.50	45036.59
556.66	45106.80
556.83	44343.79
556.99	44690.19
557.16	44863.39
557.32	45216.81
557.49	45284.68
557.65	44610.61
557.82	45031.91
557.98	45287.03
558.15	45191.06
558.32	45052.97
558.48	44926.58
558.65	45263.62
558.81	44659.76
558.98	45064.67
559.14	44713.59
559.31	45432.14
559.47	45139.57
559.64	45305.75
559.80	44921.90
559.97	44746.36
560.13	44935.95
560.30	45013.18
560.46	45375.97
560.63	45425.12
560.79	45397.03
560.96	45420.44
561.12	45223.83
561.29	45132.55
561.45	45312.77
561.61	45219.15
561.78	45525.76
561.94	45177.02
562.11	45177.02
562.27	45443.84
562.44	45392.35
562.60	45663.85
562.77	45436.82
562.93	45254.26
563.10	45481.29
563.26	45645.13
563.42	45663.85
563.59	45736.41
563.75	45188.72
563.92	45420.44
564.08	45584.27
564.24	45762.15
564.41	45956.42
564.57	45755.13
564.74	45834.71
564.90	45516.40
565.07	45633.42
565.23	45130.21
565.39	45516.40
565.56	45659.17
565.72	44912.54
565.88	45453.20
566.05	45698.96
566.21	45329.16
566.38	45394.69
566.54	45265.96
566.70	45310.43
566.87	45691.94
567.03	45593.64
567.19	46328.56
567.36	45823.01
567.52	45933.01
567.68	46256.01
567.85	45867.48
568.01	45677.90
568.17	45776.20
568.34	45986.85
568.50	45577.25
568.66	45865.14
568.83	45893.22
568.99	45319.79
569.15	45989.19
569.32	45827.69
569.48	45607.68
569.64	46017.27
569.81	45825.35
569.97	45598.32
570.13	45752.79
570.30	45502.35
570.46	45441.50
570.62	45694.28
570.78	45567.89
570.95	45331.50
571.11	46136.64
571.27	45603.00
571.43	45591.30
571.60	45757.47
571.76	45853.44
571.92	46099.19
572.09	45853.44
572.25	45727.05
572.41	45883.86
572.57	45701.30
572.74	46335.59
572.90	45811.31
573.06	45930.67
573.22	45904.93
573.38	45743.43
573.55	45617.04
573.71	46143.66
573.87	45865.14
574.03	45649.81
574.20	46003.23
574.36	45942.38
574.52	46298.14
574.68	45755.13
574.84	46036.00
575.01	46239.62
575.17	46092.17
575.33	45535.12
575.49	45373.63
575.65	46246.65
575.82	45998.55
575.98	45560.87
576.14	46274.73
576.30	46024.29
576.46	45750.45
576.62	46305.16
576.79	46183.45
576.95	45675.55
577.11	46052.38
577.27	46171.75
577.43	45565.55
577.59	45933.01
577.75	45921.31
577.92	45595.98
578.08	45755.13
578.24	45656.83
578.40	45652.15
578.56	46469.00
578.72	45984.51
578.88	45944.72
579.04	45968.12
579.21	46096.85
579.37	45832.37
579.53	46232.60
579.69	46071.10
579.85	45727.05
580.01	45998.55
580.17	45738.75
580.33	45680.24
580.49	46319.20
580.65	45977.48
580.82	46106.21
580.98	45986.85
581.14	45680.24
581.30	46295.80
581.46	45900.25
581.62	46244.30
581.78	45911.95
581.94	46127.28
582.10	46089.83
582.26	46220.90
582.42	46258.35
582.58	46485.38
582.74	46092.17
582.90	46054.72
583.06	46412.82
583.22	46124.94
583.38	46583.68
583.54	46204.52
583.70	46176.43
583.86	46389.42
584.02	45914.29
584.18	46134.30
584.34	45968.12
584.50	46284.09
584.66	46141.32
584.82	46136.64
584.98	46075.79
585.14	46106.21
585.30	45801.94
585.46	46101.53
585.62	45659.17
585.78	46167.07
585.94	45933.01
586.10	46099.19
586.26	45567.89
586.42	46305.16
586.58	46206.86
586.74	46277.07
586.90	46050.04
587.06	45811.31
587.22	46277.07
587.38	46033.66
587.54	45949.40
587.70	46225.58
587.86	45975.14
588.02	45844.07
588.18	46218.56
588.34	45872.16
588.49	45855.78
588.65	45858.12
588.81	45471.93
588.97	45778.54
589.13	45947.06
589.29	45778.54
589.45	45727.05
589.61	46150.68
589.77	46146.00
589.93	46110.89
