SpectraSuite Data File
++++++++++++++++++++++++++++++++++++
Date: Fri Oct 25 10:43:18 EDT 2013
User: price-jones
Dark Spectrum Present: No
Reference Spectrum Present: No
Number of Sampled Component Spectra: 1
Spectrometers: USB2+H05261
Integration Time (usec): 100000 (USB2+H05261)
Spectra Averaged: 1 (USB2+H05261)
Boxcar Smoothing: 0 (USB2+H05261)
Correct for Electrical Dark: No (USB2+H05261)
Strobe/Lamp Enabled: No (USB2+H05261)
Correct for Detector Non-linearity: No (USB2+H05261)
Correct for Stray Light: No (USB2+H05261)
Number of Pixels in Processed Spectrum: 2048
>>>>>Begin Processed Spectral Data<<<<<
365.73	100.64
365.92	100.64
366.12	100.64
366.32	79.58
366.52	0.00
366.72	74.90
366.91	46.81
367.11	37.45
367.31	0.00
367.51	16.38
367.70	30.43
367.90	93.62
368.10	98.30
368.30	0.00
368.49	70.22
368.69	65.54
368.89	86.60
369.09	0.00
369.28	63.19
369.48	65.54
369.68	88.94
369.87	84.26
370.07	77.24
370.27	84.26
370.47	119.37
370.66	393.21
370.86	374.49
371.06	442.36
371.25	440.02
371.45	404.91
371.65	374.49
371.84	435.34
372.04	383.85
372.24	493.85
372.44	428.32
372.63	479.81
372.83	512.58
373.03	442.36
373.22	489.17
373.42	512.58
373.62	559.39
373.81	589.82
374.01	571.09
374.21	505.56
374.40	564.07
374.60	580.45
374.79	456.40
374.99	634.29
375.19	554.71
375.38	547.69
375.58	521.94
375.78	575.77
375.97	620.24
376.17	601.52
376.37	543.00
376.56	486.83
376.76	667.05
376.95	608.54
377.15	655.35
377.35	655.35
377.54	653.01
377.74	636.63
377.93	627.26
378.13	702.16
378.33	634.29
378.52	648.33
378.72	699.82
378.91	641.31
379.11	669.39
379.31	620.24
379.50	629.60
379.70	624.92
379.89	697.48
380.09	718.54
380.28	629.60
380.48	725.57
380.68	671.73
380.87	744.29
381.07	697.48
381.26	674.07
381.46	678.76
381.65	688.12
381.85	655.35
382.04	615.56
382.24	718.54
382.43	786.42
382.63	692.80
382.83	734.93
383.02	734.93
383.22	734.93
383.41	706.84
383.61	669.39
383.80	725.57
384.00	699.82
384.19	786.42
384.39	753.65
384.58	875.36
384.78	819.19
384.97	739.61
385.17	849.61
385.36	800.46
385.56	835.57
385.75	870.68
385.95	826.21
386.14	905.79
386.34	856.64
386.53	748.97
386.72	828.55
386.92	812.17
387.11	926.85
387.31	936.21
387.50	784.08
387.70	856.64
387.89	903.45
388.09	891.74
388.28	823.87
388.48	882.38
388.67	1004.09
388.86	912.81
389.06	842.59
389.25	952.60
389.45	987.71
389.64	976.00
389.84	1039.20
390.03	945.58
390.22	966.64
390.42	1018.13
390.61	1036.86
390.81	1137.50
391.00	1034.52
391.19	1053.24
391.39	1011.11
391.58	1027.50
391.78	1062.60
391.97	1067.28
392.16	997.07
392.36	985.37
392.55	1020.47
392.75	1025.15
392.94	992.39
393.13	999.41
393.33	1015.79
393.52	1060.26
393.71	1097.71
393.91	1081.33
394.10	1109.41
394.29	1163.25
394.49	1118.78
394.68	1198.35
394.88	1287.29
395.07	1179.63
395.26	1221.76
395.46	1184.31
395.65	1270.91
395.84	1235.80
396.04	1233.46
396.23	1179.63
396.42	1139.84
396.62	1198.35
396.81	1233.46
397.00	1151.54
397.19	1240.48
397.39	1313.04
397.58	1310.70
397.77	1357.51
397.97	1425.39
398.16	1453.47
398.35	1348.15
398.55	1483.90
398.74	1427.73
398.93	1596.25
399.12	1469.86
399.32	1437.09
399.51	1521.35
399.70	1554.12
399.90	1549.43
400.09	1570.50
400.28	1521.35
400.47	1504.96
400.67	1633.69
400.86	1692.21
401.05	1638.38
401.24	1675.82
401.44	1650.08
401.63	1764.76
401.82	1710.93
402.01	1708.59
402.21	1734.34
402.40	1785.83
402.59	1699.23
402.78	1827.96
402.97	1703.91
403.17	1804.55
403.36	1778.81
403.55	1856.04
403.74	1886.47
403.93	1863.07
404.13	1820.94
404.32	1874.77
404.51	1834.98
404.70	1900.52
404.89	1912.22
405.09	1987.11
405.28	1849.02
405.47	1926.26
405.66	1877.11
405.85	2033.93
406.05	1898.17
406.24	1916.90
406.43	1893.49
406.62	2043.29
406.81	2139.25
407.00	2026.90
407.20	2052.65
407.39	2015.20
407.58	2104.14
407.77	2139.25
407.96	2174.36
408.15	2246.91
408.34	2193.08
408.54	2141.59
408.73	2305.43
408.92	2319.47
409.11	2239.89
409.30	2270.32
409.49	2345.22
409.68	2340.54
409.87	2249.25
410.07	2345.22
410.26	2328.83
410.45	2380.32
410.64	2466.92
410.83	2408.41
411.02	2459.90
411.21	2583.95
411.40	2476.29
411.59	2464.58
411.78	2518.42
411.98	2635.44
412.17	2572.25
412.36	2635.44
412.55	2733.75
412.74	2675.23
412.93	2705.66
413.12	2689.28
413.31	2768.85
413.50	2829.71
413.69	2801.62
413.88	2895.24
414.07	2832.05
414.26	2782.90
414.45	2897.58
414.64	2972.48
414.83	3049.72
415.02	3110.57
415.22	2890.56
415.41	3178.45
415.60	3054.40
415.79	3117.59
415.98	3321.22
416.17	3300.16
416.36	3222.92
416.55	3098.87
416.74	3353.99
416.93	3332.92
417.12	3269.73
417.31	3391.44
417.50	3342.28
417.69	3468.67
417.88	3375.05
418.07	3410.16
418.26	3496.76
418.45	3398.46
418.64	3581.02
418.83	3599.74
419.02	3529.53
419.21	3534.21
419.39	3531.87
419.58	3552.93
419.77	3508.46
419.96	3569.32
420.15	3515.48
420.34	3665.28
420.53	3588.04
420.72	3779.97
420.91	3754.22
421.10	3784.65
421.29	3843.16
421.48	3681.66
421.67	3737.84
421.86	3864.22
422.05	3693.37
422.24	3885.29
422.43	3691.02
422.61	3824.44
422.80	3899.33
422.99	3936.78
423.18	3950.82
423.37	3939.12
423.56	4009.34
423.75	3906.35
423.94	3896.99
424.13	3660.60
424.32	3779.97
424.50	3936.78
424.69	4065.51
424.88	3911.04
425.07	3889.97
425.26	3852.52
425.45	3953.16
425.64	4058.49
425.83	3887.63
426.01	4007.00
426.20	3960.19
426.39	4065.51
426.58	3950.82
426.77	3901.67
426.96	3953.16
427.15	3988.27
427.33	4138.07
427.52	4042.11
427.71	4119.34
427.90	4070.19
428.09	4231.69
428.28	4159.13
428.46	4124.02
428.65	4004.66
428.84	4222.33
429.03	4203.60
429.22	4114.66
429.40	4056.15
429.59	4121.68
429.78	3824.44
429.97	3772.94
430.16	3967.21
430.34	4091.26
430.53	4093.60
430.72	4159.13
430.91	4198.92
431.10	4280.84
431.28	4557.02
431.47	4561.70
431.66	4521.92
431.85	4369.78
432.03	4470.42
432.22	4648.30
432.41	4559.36
432.60	4629.58
432.79	4606.17
432.97	4648.30
433.16	4681.07
433.35	4564.04
433.54	4744.27
433.72	4723.20
433.91	4697.46
434.10	4643.62
434.28	4631.92
434.47	4777.03
434.66	4990.02
434.85	4830.87
435.03	4814.48
435.22	4851.93
435.41	5078.96
435.59	5008.75
435.78	4999.38
435.97	5132.79
436.16	5046.20
436.34	5055.56
436.53	5071.94
436.72	5149.18
436.90	5130.45
437.09	5156.20
437.28	5071.94
437.46	5111.73
437.65	5095.35
437.84	5203.01
438.02	5043.85
438.21	5116.41
438.40	5228.76
438.58	5242.80
438.77	5296.63
438.96	5284.93
439.14	5418.34
439.33	5404.30
439.52	5624.31
439.70	5444.09
439.89	5767.08
440.08	5713.25
440.26	5600.90
440.45	5692.18
440.63	5734.31
440.82	6061.99
441.01	5966.03
441.19	5909.85
441.38	6087.73
441.57	6113.48
441.75	6218.80
441.94	6251.57
442.12	6349.87
442.31	6331.15
442.50	6286.68
442.68	6284.34
442.87	6207.10
443.05	6317.11
443.24	6282.00
443.43	6382.64
443.61	6282.00
443.80	6532.44
443.98	6370.94
444.17	6183.70
444.35	6394.34
444.54	6497.33
444.73	6518.39
444.91	6490.31
445.10	6368.60
445.28	6401.37
445.47	6448.18
445.65	6441.15
445.84	6523.07
446.02	6689.25
446.21	6455.20
446.39	6431.79
446.58	6619.04
446.77	6668.19
446.95	6588.61
447.14	6602.65
447.32	6736.06
447.51	6574.56
447.69	6478.60
447.88	6698.61
448.06	6647.12
448.25	6518.39
448.43	6567.54
448.62	6759.47
448.80	6656.48
448.99	6705.63
449.17	6874.15
449.36	6684.57
449.54	7059.06
449.73	6817.98
449.91	7016.93
450.10	6991.18
450.28	7140.97
450.46	7117.57
450.65	7255.66
450.83	7056.72
451.02	7145.66
451.20	7197.15
451.39	7241.62
451.57	7281.41
451.76	7159.70
451.94	7145.66
452.13	7316.51
452.31	7122.25
452.49	7108.21
452.68	7222.89
452.86	7227.57
453.05	7169.06
453.23	7162.04
453.42	7356.30
453.60	7365.67
453.78	7463.97
453.97	7265.02
454.15	7473.33
454.34	7412.48
454.52	7590.36
454.70	7473.33
454.89	7555.25
455.07	7454.61
455.26	7606.74
455.44	7541.21
455.62	7829.09
455.81	7707.38
455.99	7857.18
456.17	7742.49
456.36	7592.70
456.54	7744.83
456.73	7793.98
456.91	8198.90
457.09	8065.49
457.28	8245.71
457.46	7817.39
457.64	8226.98
457.83	8102.93
458.01	8056.12
458.19	8248.05
458.38	8121.66
458.56	8088.89
458.74	8037.40
458.93	8381.46
459.11	8276.13
459.29	8208.26
459.48	8191.88
459.66	8327.63
459.84	8266.77
460.03	8416.57
460.21	8411.89
460.39	8446.99
460.57	8439.97
460.76	8416.57
460.94	8645.94
461.12	8540.61
461.31	8709.13
461.49	8435.29
461.67	8479.76
461.85	8659.98
462.04	8772.33
462.22	9294.27
462.40	8697.43
462.59	8882.33
462.77	8912.76
462.95	8875.31
463.13	8844.88
463.32	8784.03
463.50	9036.81
463.68	9076.60
463.86	8903.40
464.05	8409.54
464.23	8727.86
464.41	8896.38
464.59	8720.84
464.78	9163.20
464.96	8971.27
465.14	8910.42
465.32	9006.38
465.50	9252.14
465.69	9071.92
465.87	9170.22
466.05	9193.62
466.23	9137.45
466.41	9083.62
466.60	9427.68
466.78	9355.12
466.96	9282.56
467.14	9490.87
467.32	9247.46
467.51	9542.36
467.69	9104.68
467.87	9446.40
468.05	9320.01
468.23	9287.25
468.41	9226.39
468.60	9621.94
468.78	9530.66
468.96	9303.63
469.14	9406.61
469.32	9586.83
469.50	9364.48
469.69	9514.28
469.87	9891.10
470.05	9830.25
470.23	9689.82
470.41	9778.76
470.59	9912.17
470.77	9900.47
470.95	9994.09
471.14	10019.83
471.32	10022.17
471.50	10377.94
471.68	10277.29
471.86	10258.57
472.04	10209.42
472.22	10490.28
472.40	10111.11
472.58	10424.75
472.77	10375.59
472.95	10530.07
473.13	10836.68
473.31	10548.79
473.49	10602.63
473.67	10551.14
473.85	10553.48
474.03	10951.37
474.21	10946.69
474.39	10897.53
474.57	10878.81
474.75	11021.58
474.93	11154.99
475.12	10836.68
475.30	11101.16
475.48	11227.55
475.66	11393.73
475.84	11290.74
476.02	11452.24
476.20	11494.37
476.38	11353.94
476.56	11840.77
476.74	11716.72
476.92	11822.05
477.10	11740.13
477.28	11920.35
477.46	11918.01
477.64	12035.03
477.82	12203.55
478.00	12315.90
478.18	12203.55
478.36	12294.83
478.54	12526.55
478.72	12641.23
478.90	12830.82
479.08	12744.22
479.26	13282.54
479.44	13142.11
479.62	13139.77
479.80	13188.92
479.98	13329.35
480.16	13427.65
480.34	13434.68
480.52	13888.74
480.70	13654.69
480.88	13659.37
481.06	13776.39
481.24	13879.38
481.41	14083.00
481.59	13909.80
481.77	14211.73
481.95	14305.35
482.13	14553.45
482.31	14436.42
482.49	14733.67
482.67	14576.86
482.85	14892.83
483.03	15026.24
483.21	15456.90
483.39	15330.51
483.57	15208.80
483.74	15410.09
483.92	15382.00
484.10	15555.20
484.28	15782.23
484.46	15868.83
484.64	15934.37
484.82	15742.44
485.00	15765.85
485.18	16002.24
485.35	16760.58
485.53	16013.95
485.71	16105.23
485.89	16285.45
486.07	16549.93
486.25	16549.93
486.43	16791.00
486.61	16992.29
486.78	17090.59
486.96	17294.22
487.14	17511.89
487.32	17420.61
487.50	17774.03
487.68	18132.13
487.85	18487.89
488.03	18452.78
488.21	18738.33
488.39	18338.10
488.57	18562.79
488.75	18473.85
488.92	18967.70
489.10	19145.58
489.28	19119.84
489.46	19454.53
489.64	19728.38
489.81	20173.08
489.99	20130.95
490.17	20020.94
490.35	20128.61
490.53	19817.32
490.70	20173.08
490.88	20189.46
491.06	20535.86
491.24	20475.01
491.41	20496.07
491.59	20582.67
491.77	20835.45
491.95	20807.36
492.13	21200.57
492.30	20978.22
492.48	21298.88
492.66	21481.44
492.84	21682.72
493.01	21717.83
493.19	21942.52
493.37	22207.00
493.54	21839.54
493.72	22239.77
493.90	22370.84
494.08	22750.01
494.25	23014.49
494.43	22885.76
494.61	23002.78
494.79	23342.16
494.96	23159.60
495.14	23522.38
495.32	23583.24
495.49	23281.31
495.67	23456.85
495.85	24004.53
496.02	24507.75
496.20	24208.16
496.38	24191.78
496.55	24231.57
496.73	24905.64
496.91	24802.66
497.09	24727.76
497.26	24968.84
497.44	25029.69
497.62	25060.12
497.79	25287.15
497.97	25139.69
498.14	24886.92
498.32	25429.92
498.50	25319.92
498.67	25762.28
498.85	25855.90
499.03	26071.23
499.20	25977.61
499.38	26106.34
499.56	26206.98
499.73	26211.66
499.91	26331.03
500.08	26586.15
500.26	25802.07
500.44	26787.43
500.61	26380.18
500.79	26036.12
500.97	26740.62
501.14	26663.38
501.32	26972.33
501.49	27171.28
501.67	26759.34
501.84	27187.66
502.02	27346.82
502.20	27578.53
502.37	27988.13
502.55	27463.85
502.72	27850.03
502.90	27730.67
503.07	27835.99
503.25	27744.71
503.43	27552.79
503.60	27934.29
503.78	28247.93
503.95	27838.33
504.13	28264.31
504.30	28325.16
504.48	28748.80
504.65	28268.99
504.83	28388.36
505.01	29090.52
505.18	28716.03
505.36	28797.95
505.53	29247.33
505.71	29567.99
505.88	29490.75
506.06	29151.37
506.23	29659.27
506.41	29397.13
506.58	29425.22
506.76	29289.46
506.93	29729.48
507.11	29263.72
507.28	29916.73
507.46	29481.39
507.63	29696.72
507.81	30106.31
507.98	29495.43
508.16	30125.04
508.33	30286.53
508.50	30403.56
508.68	30443.35
508.85	30742.94
509.03	30616.55
509.20	30562.72
509.38	31197.00
509.55	31110.40
509.73	31105.72
509.90	31384.24
510.08	31105.72
510.25	31374.88
510.42	31391.26
510.60	31910.86
510.77	31725.96
510.95	31861.71
511.12	31466.16
511.30	31889.80
511.47	32275.99
511.64	32177.68
511.82	32290.03
511.99	32112.15
512.17	32299.39
512.34	31695.53
512.51	32627.07
512.69	32704.31
512.86	32444.51
513.04	32456.21
513.21	32823.67
513.38	32510.04
513.56	32671.54
513.73	32393.01
513.90	32919.63
514.08	33069.43
514.25	32720.69
514.43	32561.53
514.60	32945.38
514.77	33118.58
514.95	33228.59
515.12	33645.20
515.29	33394.76
515.47	33853.51
515.64	33511.79
515.81	33603.07
515.99	33675.63
516.16	33493.07
516.33	33282.42
516.51	33572.64
516.68	32851.76
516.85	33181.77
517.03	33013.26
517.20	33729.46
517.37	33832.44
517.54	34307.57
517.72	33965.85
517.89	33923.72
518.06	33621.80
518.24	33954.15
518.41	34195.23
518.58	34518.22
518.75	34536.94
518.93	34595.46
519.10	34834.19
519.27	34567.37
519.45	34824.83
519.62	34754.61
519.79	35110.38
519.96	35033.14
520.14	34965.26
520.31	34780.36
520.48	35519.97
520.65	35089.31
520.83	35510.61
521.00	35606.57
521.17	35641.68
521.34	35660.40
521.52	35445.07
521.69	36147.23
521.86	36149.57
522.03	36112.13
522.20	35697.85
522.38	36318.09
522.55	36194.04
522.72	36055.95
522.89	36100.42
523.07	36521.72
523.24	36519.38
523.41	36683.22
523.58	36503.00
523.75	36935.99
523.92	37013.23
524.10	36779.18
524.27	36992.17
524.44	37249.63
524.61	37083.45
524.78	37046.00
524.96	37371.33
525.13	37069.40
525.30	37429.85
525.47	37303.46
525.64	37214.52
525.81	37179.41
525.98	37310.48
526.16	37067.06
526.33	36999.19
526.50	37123.24
526.67	36680.88
526.84	37120.90
527.01	36825.99
527.18	37242.60
527.36	37640.50
527.53	37764.54
527.70	38267.76
527.87	38384.79
528.04	37659.22
528.21	38134.35
528.38	38340.32
528.55	38323.93
528.72	38225.63
528.89	38384.79
529.07	37904.98
529.24	38127.33
529.41	38447.98
529.58	38314.57
529.75	38579.05
529.92	38787.36
530.09	38749.91
530.26	39068.22
530.43	38689.06
530.60	38752.25
530.77	38944.17
530.94	39206.31
531.11	39201.63
531.28	38848.21
531.46	39002.69
531.63	38848.21
531.80	39030.77
531.97	39168.87
532.14	39124.40
532.31	38770.97
532.48	39555.05
532.65	39180.57
532.82	39154.82
532.99	39412.28
533.16	39489.52
533.33	39590.16
533.50	39669.74
533.67	39690.80
533.84	39763.36
534.01	39983.37
534.18	39988.05
534.35	40055.93
534.52	40301.68
534.69	40297.00
534.86	40266.58
535.03	40355.52
535.20	40645.74
535.37	40634.04
535.54	40570.85
535.71	40297.00
535.88	40353.18
536.05	40168.27
536.22	40266.58
536.38	40509.99
536.55	40215.08
536.72	40275.94
536.89	40091.04
537.06	40589.57
537.23	40617.66
537.40	40624.68
537.57	41170.02
537.74	41043.63
537.91	41027.25
538.08	40884.48
538.25	40751.07
538.42	41141.94
538.59	41006.19
538.75	41127.89
538.92	41207.47
539.09	41109.17
539.26	40989.80
539.43	41104.49
539.60	41015.55
539.77	41078.74
539.94	41174.70
540.11	41198.11
540.28	41130.23
540.44	41256.62
540.61	41462.59
540.78	40950.01
540.95	41392.37
541.12	41235.56
541.29	40987.46
541.46	41268.33
541.62	41581.96
541.79	41888.57
541.96	41371.31
542.13	41312.80
542.30	41588.98
542.47	42012.62
542.63	41443.87
542.80	41797.29
542.97	42590.73
543.14	42377.74
543.31	42494.77
543.48	42349.65
543.64	42756.91
543.81	42548.60
543.98	42174.11
544.15	42066.45
544.32	42766.27
544.48	42410.51
544.65	42749.88
544.82	42799.04
544.99	42349.65
545.16	42267.73
545.32	42302.84
545.49	43189.91
545.66	42813.08
545.83	42300.50
546.00	42918.40
546.16	42916.06
546.33	42759.25
546.50	42618.81
546.67	42955.85
546.83	42859.89
547.00	42548.60
547.17	42555.62
547.34	42810.74
547.50	42705.41
547.67	43068.20
547.84	43033.09
548.00	43421.62
548.17	43393.53
548.34	43807.81
548.51	43910.79
548.67	43349.06
548.84	43311.61
549.01	43049.47
549.18	43629.93
549.34	43423.96
549.51	43381.83
549.68	43419.28
549.84	43681.42
550.01	43545.67
550.18	43548.01
550.34	43742.27
550.51	43805.47
550.68	43433.32
550.84	43519.92
551.01	43597.16
551.18	43615.88
551.34	43442.68
551.51	43962.28
551.68	43906.11
551.84	43669.72
552.01	43943.56
552.18	43868.66
552.34	43533.96
552.51	44083.99
552.68	43906.11
552.84	43990.37
553.01	44224.42
553.18	44245.49
553.34	44095.69
553.51	44109.74
553.67	44327.41
553.84	44512.31
554.01	44362.51
554.17	44315.70
554.34	44519.33
554.51	44437.41
554.67	44257.19
554.84	44182.29
555.00	44327.41
555.17	44076.97
555.33	44395.28
555.50	44678.49
555.67	44643.38
555.83	44240.81
556.00	44542.74
556.16	44727.64
556.33	44009.09
556.50	44584.86
556.66	44596.57
556.83	44201.02
556.99	44697.21
557.16	44067.61
557.32	44402.30
557.49	44907.86
557.65	44378.90
557.82	44615.29
557.98	44790.83
558.15	44589.55
558.32	44664.44
558.48	44198.68
558.65	44652.74
558.81	44535.71
558.98	44449.11
559.14	44280.60
559.31	44502.95
559.47	44694.87
559.64	45090.42
559.80	44556.78
559.97	45186.38
560.13	44847.00
560.30	44968.71
560.46	45001.48
560.63	44914.88
560.79	45191.06
560.96	45181.70
561.12	45015.52
561.29	45425.12
561.45	45373.63
561.61	44968.71
561.78	44921.90
561.94	44774.45
562.11	44821.26
562.27	44910.20
562.44	44828.28
562.60	45249.58
562.77	44928.92
562.93	45256.60
563.10	45460.23
563.26	45102.12
563.42	45350.22
563.59	45441.50
563.75	45495.33
563.92	45881.52
564.08	45404.05
564.24	45354.90
564.41	45172.34
564.57	45127.87
564.74	45258.94
564.90	45284.68
565.07	45240.21
565.23	45478.95
565.39	45205.11
565.56	45708.32
565.72	45287.03
565.88	44926.58
566.05	45067.02
566.21	45347.88
566.38	45162.98
566.54	45694.28
566.70	45738.75
566.87	45382.99
567.03	45249.58
567.19	45811.31
567.36	45925.99
567.52	45425.12
567.68	45411.07
567.85	45577.25
568.01	45727.05
568.17	45467.25
568.34	45713.00
568.50	45453.20
568.66	45626.40
568.83	45649.81
568.99	45109.14
569.15	45488.31
569.32	45687.26
569.48	45411.07
569.64	45923.65
569.81	45940.04
569.97	45628.74
570.13	45670.87
570.30	44966.37
570.46	45340.86
570.62	45265.96
570.78	45036.59
570.95	45357.24
571.11	45666.19
571.27	45673.21
571.43	45411.07
571.60	45481.29
571.76	45855.78
571.92	45251.92
572.09	45713.00
572.25	45382.99
572.41	45893.22
572.57	45710.66
572.74	46031.32
572.90	45478.95
573.06	45893.22
573.22	45268.30
573.38	45888.54
573.55	45434.48
573.71	46178.77
573.87	45787.90
574.03	45549.17
574.20	45677.90
574.36	45851.09
574.52	45556.19
574.68	45813.65
574.84	45574.91
575.01	45600.66
575.17	45558.53
575.33	45542.14
575.49	45502.35
575.65	45694.28
575.82	45773.86
575.98	45727.05
576.14	46223.24
576.30	45961.10
576.46	45684.92
576.62	45631.08
576.79	45610.02
576.95	45741.09
577.11	45862.80
577.27	46061.74
577.43	45916.63
577.59	45928.33
577.75	45656.83
577.92	45326.81
578.08	44617.63
578.24	45036.59
578.40	45535.12
578.56	45331.50
578.72	46038.34
578.88	46155.36
579.04	46106.21
579.21	45490.65
579.37	45617.04
579.53	45387.67
579.69	45818.33
579.85	45783.22
580.01	46094.51
580.17	45380.65
580.33	45380.65
580.49	45696.62
580.65	45518.74
580.82	45801.94
580.98	45710.66
581.14	45483.63
581.30	45436.82
581.46	45860.46
581.62	45680.24
581.78	45366.60
581.94	46227.92
582.10	45647.47
582.26	45818.33
582.42	45914.29
582.58	45553.85
582.74	45523.42
582.90	45607.68
583.06	45970.46
583.22	45469.59
583.38	45972.80
583.54	46138.98
583.70	45848.75
583.86	45972.80
584.02	45888.54
584.18	46031.32
584.34	45771.52
584.50	45844.07
584.66	45876.84
584.82	45324.47
584.98	45680.24
585.14	45535.12
585.30	45287.03
585.46	45483.63
585.62	45277.66
585.78	45511.72
585.94	45619.38
586.10	45518.74
586.26	45516.40
586.42	46160.05
586.58	46096.85
586.74	46277.07
586.90	45553.85
587.06	45722.37
587.22	45982.16
587.38	45523.42
587.54	45872.16
587.70	46136.64
587.86	46005.57
588.02	45560.87
588.18	46021.95
588.34	45647.47
588.49	45642.79
588.65	45411.07
588.81	45064.67
588.97	45151.27
589.13	45235.53
589.29	45092.76
589.45	45668.53
589.61	46005.57
589.77	45759.81
589.93	46031.32
