SpectraSuite Data File
++++++++++++++++++++++++++++++++++++
Date: Fri Oct 25 11:25:59 EDT 2013
User: price-jones
Dark Spectrum Present: No
Reference Spectrum Present: No
Number of Sampled Component Spectra: 1
Spectrometers: USB2+H05261
Integration Time (usec): 100000 (USB2+H05261)
Spectra Averaged: 1 (USB2+H05261)
Boxcar Smoothing: 0 (USB2+H05261)
Correct for Electrical Dark: No (USB2+H05261)
Strobe/Lamp Enabled: No (USB2+H05261)
Correct for Detector Non-linearity: No (USB2+H05261)
Correct for Stray Light: No (USB2+H05261)
Number of Pixels in Processed Spectrum: 2048
>>>>>Begin Processed Spectral Data<<<<<
365.73	208.31
365.92	208.31
366.12	208.31
366.32	168.52
366.52	154.48
366.72	201.29
366.91	168.52
367.11	112.35
367.31	126.39
367.51	114.69
367.70	196.60
367.90	133.41
368.10	131.07
368.30	173.20
368.49	220.01
368.69	189.58
368.89	142.77
369.09	245.76
369.28	182.56
369.48	166.18
369.68	187.24
369.87	194.26
370.07	212.99
370.27	276.18
370.47	292.57
370.66	585.13
370.86	510.24
371.06	660.03
371.25	638.97
371.45	681.10
371.65	627.26
371.84	662.37
372.04	627.26
372.24	753.65
372.44	741.95
372.63	791.10
372.83	791.10
373.03	770.04
373.22	676.41
373.42	734.93
373.62	858.98
373.81	805.14
374.01	793.44
374.21	849.61
374.40	805.14
374.60	922.17
374.79	858.98
374.99	805.14
375.19	835.57
375.38	840.25
375.58	837.91
375.78	814.51
375.97	858.98
376.17	898.77
376.37	889.40
376.56	847.27
376.76	917.49
376.95	856.64
377.15	898.77
377.35	851.96
377.54	910.47
377.74	959.62
377.93	842.59
378.13	891.74
378.33	903.45
378.52	868.34
378.72	1018.13
378.91	961.96
379.11	924.51
379.31	901.11
379.50	898.77
379.70	947.92
379.89	1022.81
380.09	994.73
380.28	983.02
380.48	997.07
380.68	997.07
380.87	1008.77
381.07	994.73
381.26	1158.57
381.46	1029.84
381.65	1008.77
381.85	1022.81
382.04	994.73
382.24	980.68
382.43	1046.22
382.63	971.32
382.83	1069.62
383.02	1151.54
383.22	1151.54
383.41	1090.69
383.61	1074.31
383.80	1179.63
384.00	1114.10
384.19	1135.16
384.39	1116.44
384.58	1123.46
384.78	1132.82
384.97	1081.33
385.17	1233.46
385.36	1256.87
385.56	1174.95
385.75	1156.22
385.95	1177.29
386.14	1210.06
386.34	1153.88
386.53	1200.69
386.72	1294.32
386.92	1186.65
387.11	1203.04
387.31	1226.44
387.50	1160.91
387.70	1256.87
387.89	1270.91
388.09	1315.38
388.28	1252.19
388.48	1280.27
388.67	1247.51
388.86	1282.61
389.06	1338.79
389.25	1359.85
389.45	1296.66
389.64	1254.53
389.84	1385.60
390.03	1413.68
390.22	1343.47
390.42	1430.07
390.61	1296.66
390.81	1348.15
391.00	1399.64
391.19	1406.66
391.39	1430.07
391.58	1444.11
391.78	1509.65
391.97	1554.12
392.16	1558.80
392.36	1467.52
392.55	1490.92
392.75	1479.22
392.94	1554.12
393.13	1547.09
393.33	1554.12
393.52	1521.35
393.71	1577.52
393.91	1544.75
394.10	1612.63
394.29	1624.33
394.49	1593.90
394.68	1612.63
394.88	1575.18
395.07	1696.89
395.26	1605.61
395.46	1652.42
395.65	1757.74
395.84	1657.10
396.04	1755.40
396.23	1804.55
396.42	1781.15
396.62	1755.40
396.81	1813.92
397.00	1701.57
397.19	1710.93
397.39	1802.21
397.58	1799.87
397.77	1902.86
397.97	1874.77
398.16	1933.28
398.35	1799.87
398.55	1860.73
398.74	1907.54
398.93	1975.41
399.12	1895.83
399.32	1900.52
399.51	1966.05
399.70	2052.65
399.90	2059.67
400.09	1891.15
400.28	2043.29
400.47	1923.92
400.67	2052.65
400.86	2069.03
401.05	2036.27
401.24	2062.01
401.44	2092.44
401.63	2099.46
401.82	2064.35
402.01	2064.35
402.21	2195.42
402.40	2143.93
402.59	2221.17
402.78	2218.83
402.97	2305.43
403.17	2235.21
403.36	2197.76
403.55	2275.00
403.74	2455.22
403.93	2314.79
404.13	2324.15
404.32	2373.30
404.51	2462.24
404.70	2410.75
404.89	2338.20
405.09	2553.52
405.28	2480.97
405.47	2495.01
405.66	2523.10
405.85	2506.71
406.05	2558.21
406.24	2497.35
406.43	2530.12
406.62	2583.95
406.81	2661.19
407.00	2546.50
407.20	2551.18
407.39	2523.10
407.58	2619.06
407.77	2719.70
407.96	2780.56
408.15	2787.58
408.34	2708.00
408.54	2888.22
408.73	2668.21
408.92	2766.51
409.11	2923.33
409.30	2825.03
409.49	2843.75
409.68	3009.93
409.87	3023.97
410.07	2972.48
410.26	2986.52
410.45	2993.55
410.64	3028.65
410.83	3059.08
411.02	3180.79
411.21	3138.66
411.40	3073.12
411.59	3162.06
411.78	3171.43
411.98	3157.38
412.17	3229.94
412.36	3302.50
412.55	3258.03
412.74	3421.86
412.93	3342.28
413.12	3335.26
413.31	3559.95
413.50	3538.89
413.69	3384.41
413.88	3501.44
414.07	3637.19
414.26	3688.68
414.45	3733.15
414.64	3669.96
414.83	3775.28
415.02	3681.66
415.22	3854.86
415.41	3871.25
415.60	3831.46
415.79	3836.14
415.98	4004.66
416.17	4011.68
416.36	4009.34
416.55	3995.29
416.74	4117.00
416.93	4131.05
417.12	4042.11
417.31	4044.45
417.50	4077.21
417.69	4212.96
417.88	4257.43
418.07	4287.86
418.26	4435.32
418.45	4229.35
418.64	4486.81
418.83	4348.72
419.02	4383.82
419.21	4451.70
419.39	4479.79
419.58	4461.06
419.77	4358.08
419.96	4564.04
420.15	4552.34
420.34	4702.14
420.53	4552.34
420.72	4634.26
420.91	4531.28
421.10	4821.50
421.29	4725.54
421.48	4706.82
421.67	4894.06
421.86	4812.14
422.05	4861.29
422.24	4854.27
422.43	4924.49
422.61	4945.55
422.80	4931.51
422.99	4861.29
423.18	5008.75
423.37	5055.56
423.56	4910.44
423.75	4980.66
423.94	4816.82
424.13	4585.11
424.32	4758.31
424.50	4947.89
424.69	5111.73
424.88	5233.44
425.07	4945.55
425.26	4833.21
425.45	4994.70
425.64	4887.04
425.83	5121.09
426.01	5088.32
426.20	4873.00
426.39	4875.34
426.58	5233.44
426.77	4997.04
426.96	5039.17
427.15	5163.22
427.33	5163.22
427.52	5226.42
427.71	5252.16
427.90	5198.33
428.09	5275.57
428.28	5348.12
428.46	5324.72
428.65	5336.42
428.84	5432.38
429.03	5394.93
429.22	5423.02
429.40	5345.78
429.59	5640.69
429.78	5357.49
429.97	5441.75
430.16	5516.64
430.34	5551.75
430.53	5767.08
430.72	5734.31
430.91	5696.86
431.10	5668.78
431.28	5802.19
431.47	5750.70
431.66	5767.08
431.85	5797.51
432.03	5902.83
432.22	5870.06
432.41	5734.31
432.60	5919.21
432.79	5741.33
432.97	5987.09
433.16	6050.28
433.35	5888.79
433.54	6211.78
433.72	6125.18
433.91	6197.74
434.10	6169.65
434.28	6001.13
434.47	6092.41
434.66	6246.89
434.85	6277.32
435.03	6340.51
435.22	6274.98
435.41	6576.91
435.59	6340.51
435.78	6553.50
435.97	6452.86
436.16	6513.71
436.34	6420.09
436.53	6375.62
436.72	6604.99
436.90	6520.73
437.09	6633.08
437.28	6466.90
437.46	6548.82
437.65	6670.53
437.84	6771.17
438.02	6848.41
438.21	6717.34
438.40	6700.95
438.58	7045.01
438.77	6829.68
438.96	6984.16
439.14	6923.30
439.33	7169.06
439.52	7342.26
439.70	7155.02
439.89	7283.75
440.08	7344.60
440.26	7358.64
440.45	7328.22
440.63	7536.52
440.82	7611.42
441.01	7503.76
441.19	7676.96
441.38	7845.48
441.57	7735.47
441.75	7686.32
441.94	7941.44
442.12	8013.99
442.31	7992.93
442.50	8105.28
442.68	7805.69
442.87	8135.70
443.05	8067.83
443.24	8245.71
443.43	8084.21
443.61	8259.75
443.80	8259.75
443.98	7939.10
444.17	7784.62
444.35	8133.36
444.54	8252.73
444.73	8313.58
444.91	8400.18
445.10	8435.29
445.28	8336.99
445.47	8416.57
445.65	8329.97
445.84	8442.31
446.02	8388.48
446.21	8486.78
446.39	8217.62
446.58	8334.65
446.77	8336.99
446.95	8238.69
447.14	8458.70
447.32	8589.77
447.51	8465.72
447.69	8409.54
447.88	8526.57
448.06	8535.93
448.25	8697.43
448.43	8542.96
448.62	8716.16
448.80	8547.64
448.99	8837.86
449.17	8800.41
449.36	8557.00
449.54	8898.72
449.73	8774.67
449.91	9011.06
450.10	8889.35
450.28	9053.19
450.46	9200.65
450.65	8905.74
450.83	9055.53
451.02	9022.77
451.20	9074.26
451.39	9174.90
451.57	9036.81
451.76	9050.85
451.94	9202.99
452.13	9357.46
452.31	9137.45
452.49	9242.78
452.68	9296.61
452.86	9097.66
453.05	9572.79
453.23	9202.99
453.42	9144.47
453.60	9383.21
453.78	9652.37
453.97	9584.49
454.15	9565.77
454.34	9298.95
454.52	9542.36
454.70	9764.72
454.89	9788.12
455.07	9806.84
455.26	9724.93
455.44	9827.91
455.62	9961.32
455.81	10005.79
455.99	9898.13
456.17	9891.10
456.36	9858.34
456.54	10274.95
456.73	10399.00
456.91	10312.40
457.09	10363.89
457.28	10401.34
457.46	10176.65
457.64	10497.30
457.83	10551.14
458.01	10560.50
458.19	10710.29
458.38	10281.97
458.56	10693.91
458.74	10684.55
458.93	10743.06
459.11	10654.12
459.29	10597.95
459.48	10675.18
459.66	10729.02
459.84	10698.59
460.03	11117.54
460.21	11073.07
460.39	11056.69
460.57	10979.45
460.76	11176.06
460.94	11080.10
461.12	11281.38
461.31	11194.78
461.49	10974.77
461.67	11023.92
461.85	11651.19
462.04	11360.96
462.22	11840.77
462.40	11630.12
462.59	11602.04
462.77	11342.24
462.95	11674.59
463.13	11426.50
463.32	11501.39
463.50	11770.55
463.68	11758.85
463.86	11903.96
464.05	11824.39
464.23	11726.08
464.41	11871.20
464.59	11487.35
464.78	11899.28
464.96	12002.27
465.14	11920.35
465.32	11878.22
465.50	11978.86
465.69	12271.43
465.87	12095.89
466.05	12196.53
466.23	12105.25
466.41	12287.81
466.60	12388.46
466.78	12224.62
466.96	11992.90
467.14	12379.09
467.32	12198.87
467.51	12414.20
467.69	12065.46
467.87	12411.86
468.05	12636.55
468.23	12538.25
468.41	12622.51
468.60	12720.81
468.78	12786.35
468.96	12461.01
469.14	12849.54
469.32	12961.89
469.50	12706.77
469.69	13069.55
469.87	13179.56
470.05	12966.57
470.23	13209.98
470.41	13142.11
470.59	13427.65
470.77	13277.86
470.95	13343.39
471.14	13174.88
471.32	13268.50
471.50	13558.72
471.68	13673.41
471.86	13729.58
472.04	13626.60
472.22	13877.04
472.40	13715.54
472.58	13525.96
472.77	13921.51
472.95	14113.43
473.13	14382.59
473.31	14047.90
473.49	14015.13
473.67	14008.11
473.85	14380.25
474.03	14286.63
474.21	14377.91
474.39	14618.99
474.57	14710.27
474.75	14675.16
474.93	15122.20
475.12	14913.89
475.30	15042.62
475.48	15131.56
475.66	15293.06
475.84	15145.61
476.02	15538.82
476.20	15119.86
476.38	15466.26
476.56	15939.05
476.74	15976.50
476.92	15585.63
477.10	15749.46
477.28	15836.06
477.46	16072.46
477.64	16095.86
477.82	16538.23
478.00	16671.64
478.18	16575.67
478.36	17092.93
478.54	17048.46
478.72	17238.05
478.90	17539.97
479.08	17563.38
479.26	17877.01
479.44	17687.43
479.62	17762.33
479.80	17827.86
479.98	17970.63
480.16	18401.29
480.34	18448.10
480.52	18572.15
480.70	18827.27
480.88	18586.19
481.06	18693.86
481.24	18609.60
481.41	18815.57
481.59	19442.83
481.77	19321.12
481.95	19541.13
482.13	19627.73
482.31	19316.44
482.49	20201.16
482.67	20308.83
482.85	20456.28
483.03	20556.93
483.21	20648.21
483.39	21376.11
483.57	21008.65
483.74	21289.51
483.92	21390.16
484.10	21214.62
484.28	21654.64
484.46	21671.02
484.64	22176.58
484.82	22111.04
485.00	22153.17
485.18	22623.62
485.35	22663.41
485.53	22939.59
485.71	23084.70
485.89	23442.81
486.07	23082.36
486.25	23218.11
486.43	23470.89
486.61	23805.59
486.78	23995.17
486.96	24044.32
487.14	24456.26
487.32	25027.35
487.50	24772.23
487.68	25076.50
487.85	25008.62
488.03	25336.30
488.21	25663.97
488.39	26092.29
488.57	26080.59
488.75	25942.50
488.92	26300.60
489.10	26712.53
489.28	27040.21
489.46	26998.08
489.64	27281.28
489.81	27318.73
489.99	27365.54
490.17	27477.89
490.35	28198.77
490.53	28093.45
490.70	28386.02
490.88	28222.18
491.06	28676.24
491.24	28734.76
491.41	28877.53
491.59	28992.22
491.77	29504.79
491.95	29685.01
492.13	29710.76
492.30	29933.11
492.48	29991.62
492.66	30132.06
492.84	30080.56
493.01	30625.91
493.19	30520.59
493.37	30668.04
493.54	30604.84
493.72	31276.58
493.90	31363.18
494.08	31754.05
494.25	32060.66
494.43	31985.76
494.61	31995.12
494.79	32545.15
494.96	32624.73
495.14	32823.67
495.32	33029.64
495.49	33153.69
495.67	33284.76
495.85	33486.04
496.02	33563.28
496.20	34012.66
496.38	33795.00
496.55	33855.85
496.73	34883.34
496.91	34504.18
497.09	34852.92
497.26	34670.36
497.44	34944.20
497.62	35349.11
497.79	35758.70
497.97	35351.45
498.14	35702.53
498.32	35847.64
498.50	35990.42
498.67	36624.70
498.85	36390.65
499.03	36617.68
499.20	36725.35
499.38	37008.55
499.56	36987.49
499.73	37254.31
499.91	37230.90
500.08	37022.59
500.26	37408.78
500.44	37596.03
500.61	37560.92
500.79	37429.85
500.97	38246.69
501.14	38773.31
501.32	38667.99
501.49	38424.57
501.67	38644.59
501.84	38902.04
502.02	38885.66
502.20	38920.77
502.37	39344.41
502.55	39194.61
502.72	39255.46
502.90	39784.43
503.07	39533.99
503.25	39636.97
503.43	39330.36
503.60	40128.48
503.78	40203.38
503.95	39810.17
504.13	40472.54
504.30	40350.84
504.48	40259.55
504.65	40830.65
504.83	40842.35
505.01	41415.78
505.18	41493.02
505.36	41064.70
505.53	40910.22
505.71	41785.58
505.88	41806.65
506.06	41504.72
506.23	41846.44
506.41	41621.75
506.58	41790.27
506.76	42462.00
506.93	42424.55
507.11	42223.26
507.28	42616.47
507.46	42342.63
507.63	42962.87
507.81	43421.62
507.98	42904.36
508.16	42925.42
508.33	43117.35
508.50	43344.38
508.68	44081.65
508.85	43966.96
509.03	43454.39
509.20	43613.54
509.38	44093.35
509.55	44191.65
509.73	44453.79
509.90	44563.80
510.08	44369.54
510.25	44275.91
510.42	44762.75
510.60	44924.24
510.77	44886.79
510.95	45631.08
511.12	45249.58
511.30	45155.96
511.47	45237.87
511.64	45478.95
511.82	45975.14
511.99	45258.94
512.17	45724.71
512.34	45361.92
512.51	46267.71
512.69	46309.84
512.86	45975.14
513.04	46756.88
513.21	46464.32
513.38	46691.35
513.56	46784.97
513.73	46890.29
513.90	46948.81
514.08	46862.21
514.25	46663.26
514.43	47531.60
514.60	47023.70
514.77	46937.10
514.95	47283.50
515.12	47491.81
515.29	47501.17
515.47	47880.34
515.64	48093.33
515.81	47503.51
515.99	48133.12
516.16	48210.35
516.33	48182.27
516.51	48453.77
516.68	48690.16
516.85	48250.14
517.03	48687.82
517.20	48711.23
517.37	48739.32
517.54	48444.41
517.72	48746.34
517.89	49076.35
518.06	49155.93
518.24	49106.78
518.41	49055.29
518.58	49188.70
518.75	49584.25
518.93	49614.68
519.10	49219.13
519.27	49588.93
519.45	49322.11
519.62	49837.03
519.79	49930.65
519.96	49661.49
520.14	50028.95
520.31	49787.88
520.48	50085.12
520.65	50361.31
520.83	50468.97
521.00	50986.23
521.17	50639.83
521.34	50740.47
521.52	50703.03
521.69	50646.85
521.86	50848.14
522.03	51093.89
522.20	51124.32
522.38	51318.59
522.55	51480.08
522.72	51121.98
522.89	51440.29
523.07	51306.88
523.24	51526.89
523.41	51442.63
523.58	51264.75
523.75	51990.32
523.92	52004.36
524.10	51599.45
524.27	51805.42
524.44	52018.41
524.61	52018.41
524.78	51995.00
524.96	52215.01
525.13	52135.43
525.30	52561.41
525.47	52383.53
525.64	52460.77
525.81	52671.42
525.98	52582.48
526.16	52280.55
526.33	52666.73
526.50	52914.83
526.67	52343.74
526.84	52772.06
527.01	52591.84
527.18	52678.44
527.36	52917.17
527.53	52765.04
527.70	53460.18
527.87	53141.86
528.04	52720.57
528.21	53490.60
528.38	53286.98
528.55	53682.53
528.72	53235.48
528.89	53303.36
529.07	53368.90
529.24	53116.12
529.41	53619.33
529.58	53752.74
529.75	53216.76
529.92	53820.62
530.09	53813.60
530.26	53881.47
530.43	53883.81
530.60	53647.42
530.77	53827.64
530.94	54012.54
531.11	54241.92
531.28	54157.66
531.46	53968.07
531.63	54466.61
531.80	53932.96
531.97	54419.80
532.14	54251.28
532.31	54522.78
532.48	54726.41
532.65	54532.14
532.82	54129.57
532.99	54504.06
533.16	54363.62
533.33	54794.28
533.50	55018.97
533.67	54681.94
533.84	54529.80
534.01	54841.09
534.18	54742.79
534.35	55044.72
534.52	54838.75
534.69	55009.61
534.86	55274.09
535.03	55124.30
535.20	55082.17
535.37	55114.94
535.54	55283.45
535.71	55054.08
535.88	55267.07
536.05	55634.53
536.22	55508.14
536.38	55435.59
536.55	55365.37
536.72	55599.43
536.89	55182.81
537.06	55412.18
537.23	55608.79
537.40	55587.72
537.57	55608.79
537.74	55566.66
537.91	55927.10
538.08	55763.26
538.25	55707.09
538.42	55627.51
538.59	56126.05
538.75	55884.97
538.92	55870.93
539.09	56179.88
539.26	56154.13
539.43	55887.31
539.60	56133.07
539.77	56137.75
539.94	56498.19
540.11	56271.16
540.28	56320.31
540.44	56533.30
540.61	56332.01
540.78	56095.62
540.95	56128.39
541.12	56495.85
541.29	56498.19
541.46	56563.73
541.62	56472.45
541.79	56685.43
541.96	56074.55
542.13	56516.92
542.30	56516.92
542.47	56816.50
542.63	57003.75
542.80	56465.42
542.97	57200.35
543.14	57134.82
543.31	57010.77
543.48	57090.35
543.64	57471.85
543.81	57268.23
543.98	57378.23
544.15	57375.89
544.32	57429.72
544.48	57448.45
544.65	57359.51
544.82	57270.57
544.99	57263.55
545.16	57425.04
545.32	57179.29
545.49	57628.67
545.66	57621.65
545.83	57570.16
546.00	57738.68
546.16	57577.18
546.33	57429.72
546.50	57570.16
546.67	57682.50
546.83	57244.82
547.00	57577.18
547.17	57640.37
547.34	57846.34
547.50	57771.44
547.67	57914.22
547.84	57902.51
548.00	57968.05
548.17	58363.60
548.34	57998.48
548.51	58342.53
548.67	58157.63
548.84	58216.14
549.01	58082.73
549.18	58141.25
549.34	57977.41
549.51	58115.50
549.68	58188.06
549.84	58450.20
550.01	58305.09
550.18	58239.55
550.34	58398.71
550.51	58433.81
550.68	58216.14
550.84	58246.57
551.01	58471.26
551.18	58515.73
551.34	58300.40
551.51	58356.58
551.68	58679.57
551.84	58494.67
552.01	58349.56
552.18	58660.85
552.34	58511.05
552.51	58656.17
552.68	58532.12
552.84	58529.78
553.01	58904.26
553.18	58557.86
553.34	58876.18
553.51	58525.10
553.67	58866.81
553.84	58941.71
554.01	58939.37
554.17	59028.31
554.34	58892.56
554.51	58927.67
554.67	59002.56
554.84	58887.88
555.00	58759.15
555.17	58887.88
555.33	59157.04
555.50	58820.00
555.67	58995.54
555.83	58990.86
556.00	58955.75
556.16	59325.56
556.33	59309.18
556.50	59135.98
556.66	59304.49
556.83	58876.18
556.99	59360.67
557.16	59309.18
557.32	59306.83
557.49	59763.24
557.65	59238.96
557.82	59449.61
557.98	59323.22
558.15	59306.83
558.32	59512.80
558.48	59320.88
558.65	59215.55
558.81	59407.48
558.98	59419.18
559.14	59426.20
559.31	59660.26
559.47	59599.40
559.64	59540.89
559.80	59711.75
559.97	59742.17
560.13	59519.82
560.30	59566.63
560.46	59657.91
560.63	59828.77
560.79	59618.13
560.96	59877.93
561.12	59681.32
561.29	59573.66
561.45	59803.03
561.61	59657.91
561.78	59840.48
561.94	59866.22
562.11	59678.98
562.27	59863.88
562.44	59978.57
562.60	59938.78
562.77	59980.91
562.93	59831.11
563.10	59931.76
563.26	59910.69
563.42	60055.81
563.59	60023.04
563.75	59856.86
563.92	59976.23
564.08	60030.06
564.24	60130.70
564.41	60200.92
564.57	60023.04
564.74	60151.77
564.90	60009.00
565.07	60100.28
565.23	60032.40
565.39	59948.14
565.56	60259.43
565.72	60053.47
565.88	59987.93
566.05	60013.68
566.21	60011.34
566.38	60217.30
566.54	60130.70
566.70	60182.19
566.87	60257.09
567.03	59971.55
567.19	60341.35
567.36	60308.58
567.52	60339.01
567.68	60369.44
567.85	60191.56
568.01	60371.78
568.17	60081.55
568.34	60329.65
568.50	60324.97
568.66	60250.07
568.83	60456.04
568.99	60367.10
569.15	60360.08
569.32	60411.57
569.48	60324.97
569.64	60467.74
569.81	60376.46
569.97	60254.75
570.13	60456.04
570.30	60236.03
570.46	60617.53
570.62	60439.65
570.78	60381.14
570.95	60535.62
571.11	60413.91
571.27	60245.39
571.43	60434.97
571.60	60500.51
571.76	60397.52
571.92	60446.68
572.09	60374.12
572.25	60512.21
572.41	60580.09
572.57	60264.11
572.74	60762.65
572.90	60582.43
573.06	60610.51
573.22	60477.10
573.38	60685.41
573.55	60292.20
573.71	60746.26
573.87	60757.97
574.03	60306.24
574.20	60694.77
574.36	60662.00
574.52	60692.43
574.68	60739.24
574.84	60715.84
575.01	60570.72
575.17	60809.46
575.33	60573.06
575.49	60561.36
575.65	60676.05
575.82	60804.78
575.98	60870.31
576.14	61090.32
576.30	60753.29
576.46	60664.35
576.62	60624.56
576.79	60715.84
576.95	60704.13
577.11	60762.65
577.27	60711.16
577.43	60711.16
577.59	60638.60
577.75	60657.32
577.92	60505.19
578.08	60931.17
578.24	60683.07
578.40	60940.53
578.56	61059.90
578.72	60598.81
578.88	60945.21
579.04	61010.74
579.21	60898.40
579.37	61017.77
579.53	60832.86
579.69	60580.09
579.85	60884.36
580.01	60729.88
580.17	60659.66
580.33	60750.94
580.49	60889.04
580.65	60856.27
580.82	60830.52
580.98	60666.69
581.14	60697.11
581.30	60968.61
581.46	60711.16
581.62	60839.89
581.78	60734.56
581.94	60837.54
582.10	60898.40
582.26	60947.55
582.42	60760.31
582.58	60910.10
582.74	60704.13
582.90	60750.94
583.06	60839.89
583.22	60802.44
583.38	60823.50
583.54	60809.46
583.70	60980.32
583.86	61010.74
584.02	60816.48
584.18	61020.11
584.34	60968.61
584.50	60739.24
584.66	60718.18
584.82	60947.55
584.98	60839.89
585.14	61062.24
585.30	60561.36
585.46	61116.07
585.62	60830.52
585.78	61160.54
585.94	60654.98
586.10	60959.25
586.26	61073.94
586.42	60905.42
586.58	61050.53
586.74	61092.66
586.90	60924.14
587.06	60970.96
587.22	61043.51
587.38	60954.57
587.54	61214.37
587.70	60954.57
587.86	60910.10
588.02	60835.20
588.18	61095.00
588.34	60935.85
588.49	60945.21
