SpectraSuite Data File
++++++++++++++++++++++++++++++++++++
Date: Fri Oct 25 11:26:41 EDT 2013
User: price-jones
Dark Spectrum Present: No
Reference Spectrum Present: No
Number of Sampled Component Spectra: 1
Spectrometers: USB2+H05261
Integration Time (usec): 100000 (USB2+H05261)
Spectra Averaged: 1 (USB2+H05261)
Boxcar Smoothing: 0 (USB2+H05261)
Correct for Electrical Dark: No (USB2+H05261)
Strobe/Lamp Enabled: No (USB2+H05261)
Correct for Detector Non-linearity: No (USB2+H05261)
Correct for Stray Light: No (USB2+H05261)
Number of Pixels in Processed Spectrum: 2048
>>>>>Begin Processed Spectral Data<<<<<
365.73	217.67
365.92	217.67
366.12	217.67
366.32	156.82
366.52	110.01
366.72	98.30
366.91	189.58
367.11	112.35
367.31	135.75
367.51	145.11
367.70	49.15
367.90	117.03
368.10	175.54
368.30	161.50
368.49	133.41
368.69	184.90
368.89	194.26
369.09	126.39
369.28	220.01
369.48	215.33
369.68	173.20
369.87	166.18
370.07	271.50
370.27	262.14
370.47	348.74
370.66	587.47
370.86	608.54
371.06	669.39
371.25	709.18
371.45	653.01
371.65	720.88
371.84	763.01
372.04	739.61
372.24	678.76
372.44	748.97
372.63	718.54
372.83	767.70
373.03	678.76
373.22	697.48
373.42	737.27
373.62	753.65
373.81	781.74
374.01	861.32
374.21	847.27
374.40	826.21
374.60	849.61
374.79	748.97
374.99	814.51
375.19	849.61
375.38	870.68
375.58	950.26
375.78	919.83
375.97	866.00
376.17	894.08
376.37	842.59
376.56	861.32
376.76	896.43
376.95	840.25
377.15	954.94
377.35	966.64
377.54	973.66
377.74	816.85
377.93	915.15
378.13	915.15
378.33	945.58
378.52	837.91
378.72	919.83
378.91	961.96
379.11	943.24
379.31	994.73
379.50	952.60
379.70	957.28
379.89	884.72
380.09	891.74
380.28	1015.79
380.48	1001.75
380.68	983.02
380.87	973.66
381.07	1060.26
381.26	1090.69
381.46	1001.75
381.65	1029.84
381.85	1048.56
382.04	1025.15
382.24	1088.35
382.43	1081.33
382.63	994.73
382.83	1062.60
383.02	1069.62
383.22	1107.07
383.41	1081.33
383.61	1078.99
383.80	1160.91
384.00	1121.12
384.19	1095.37
384.39	1186.65
384.58	1109.41
384.78	1083.67
384.97	1111.75
385.17	1130.48
385.36	1153.88
385.56	1167.93
385.75	1114.10
385.95	1231.12
386.14	1109.41
386.34	1104.73
386.53	1146.86
386.72	1233.46
386.92	1261.55
387.11	1196.01
387.31	1313.04
387.50	1254.53
387.70	1231.12
387.89	1327.08
388.09	1315.38
388.28	1306.02
388.48	1331.76
388.67	1301.34
388.86	1238.14
389.06	1320.06
389.25	1320.06
389.45	1366.87
389.64	1362.19
389.84	1411.34
390.03	1444.11
390.22	1364.53
390.42	1362.19
390.61	1404.32
390.81	1380.92
391.00	1423.05
391.19	1467.52
391.39	1465.18
391.58	1542.41
391.78	1460.49
391.97	1540.07
392.16	1425.39
392.36	1530.71
392.55	1467.52
392.75	1521.35
392.94	1551.78
393.13	1629.01
393.33	1535.39
393.52	1544.75
393.71	1596.25
393.91	1600.93
394.10	1561.14
394.29	1643.06
394.49	1540.07
394.68	1605.61
394.88	1614.97
395.07	1685.19
395.26	1650.08
395.46	1636.03
395.65	1631.35
395.84	1839.66
396.04	1804.55
396.23	1816.26
396.42	1776.47
396.62	1715.61
396.81	1813.92
397.00	1785.83
397.19	1902.86
397.39	1774.13
397.58	1919.24
397.77	1804.55
397.97	1909.88
398.16	1863.07
398.35	1916.90
398.55	1830.30
398.74	2005.84
398.93	1909.88
399.12	1921.58
399.32	1905.20
399.51	1937.96
399.70	2050.31
399.90	2054.99
400.09	2040.95
400.28	2150.95
400.47	2129.89
400.67	2127.55
400.86	2111.16
401.05	2057.33
401.24	2062.01
401.44	2136.91
401.63	2015.20
401.82	2235.21
402.01	2169.68
402.21	2239.89
402.40	2162.66
402.59	2338.20
402.78	2120.53
402.97	2232.87
403.17	2272.66
403.36	2291.38
403.55	2366.28
403.74	2401.39
403.93	2450.54
404.13	2438.84
404.32	2284.36
404.51	2459.90
404.70	2420.11
404.89	2509.05
405.09	2410.75
405.28	2499.69
405.47	2497.35
405.66	2541.82
405.85	2431.82
406.05	2464.58
406.24	2532.46
406.43	2595.65
406.62	2628.42
406.81	2705.66
407.00	2567.57
407.20	2691.62
407.39	2630.76
407.58	2752.47
407.77	2778.22
407.96	2848.43
408.15	2846.09
408.34	2780.56
408.54	2754.81
408.73	2764.17
408.92	2913.97
409.11	2925.67
409.30	2946.73
409.49	3007.59
409.68	3133.98
409.87	2972.48
410.07	3035.67
410.26	3073.12
410.45	3056.74
410.64	3082.49
410.83	3138.66
411.02	3066.10
411.21	3138.66
411.40	3150.36
411.59	3293.13
411.78	3215.90
411.98	3255.69
412.17	3342.28
412.36	3382.07
412.55	3393.78
412.74	3321.22
412.93	3400.80
413.12	3368.03
413.31	3538.89
413.50	3499.10
413.69	3482.72
413.88	3595.06
414.07	3609.11
414.26	3705.07
414.45	3639.53
414.64	3747.20
414.83	3761.24
415.02	3761.24
415.22	3906.35
415.41	3911.04
415.60	3798.69
415.79	3861.88
415.98	4037.42
416.17	3934.44
416.36	4086.58
416.55	3915.72
416.74	4205.94
416.93	4070.19
417.12	4227.01
417.31	4252.75
417.50	4257.43
417.69	4219.99
417.88	4262.12
418.07	4241.05
418.26	4299.56
418.45	4337.01
418.64	4503.19
418.83	4496.17
419.02	4430.63
419.21	4634.26
419.39	4585.11
419.58	4468.08
419.77	4615.54
419.96	4564.04
420.15	4636.60
420.34	4599.15
420.53	4655.33
420.72	4753.63
420.91	4725.54
421.10	4732.56
421.29	4767.67
421.48	4788.74
421.67	4751.29
421.86	4664.69
422.05	4861.29
422.24	4919.81
422.43	4823.84
422.61	5008.75
422.80	5032.15
422.99	4971.30
423.18	4894.06
423.37	5100.03
423.56	4889.38
423.75	4863.63
423.94	4978.32
424.13	4809.80
424.32	4737.24
424.50	5074.28
424.69	5371.53
424.88	5191.31
425.07	5095.35
425.26	4975.98
425.45	4884.70
425.64	4983.00
425.83	5008.75
426.01	5142.16
426.20	5252.16
426.39	5172.58
426.58	5004.07
426.77	5053.22
426.96	5160.88
427.15	5165.56
427.33	5186.63
427.52	5310.68
427.71	5212.37
427.90	5221.74
428.09	5224.08
428.28	5317.70
428.46	5474.51
428.65	5350.46
428.84	5678.14
429.03	5561.11
429.22	5472.17
429.40	5551.75
429.59	5537.71
429.78	5313.02
429.97	5418.34
430.16	5547.07
430.34	5570.48
430.53	5731.97
430.72	5551.75
430.91	5706.23
431.10	5600.90
431.28	5699.20
431.47	5930.92
431.66	5919.21
431.85	5708.57
432.03	6005.81
432.22	5839.64
432.41	6003.47
432.60	5942.62
432.79	5980.07
432.97	6052.63
433.16	5984.75
433.35	6125.18
433.54	6153.27
433.72	6197.74
433.91	6085.39
434.10	6195.40
434.28	6101.78
434.47	6153.27
434.66	6349.87
434.85	6300.72
435.03	6338.17
435.22	6282.00
435.41	6438.81
435.59	6342.85
435.78	6394.34
435.97	6509.03
436.16	6492.65
436.34	6420.09
436.53	6724.36
436.72	6764.15
436.90	6583.93
437.09	6785.21
437.28	6506.69
437.46	6607.33
437.65	6560.52
437.84	6839.05
438.02	6649.46
438.21	6829.68
438.40	6869.47
438.58	7155.02
438.77	7148.00
438.96	7014.59
439.14	7087.14
439.33	7145.66
439.52	7138.63
439.70	7140.97
439.89	7363.33
440.08	7339.92
440.26	7311.83
440.45	7307.15
440.63	7625.47
440.82	7581.00
441.01	7468.65
441.19	7667.60
441.38	7915.69
441.57	7665.25
441.75	7873.56
441.94	8283.16
442.12	8084.21
442.31	8156.77
442.50	8088.89
442.68	8016.33
442.87	8201.24
443.05	8156.77
443.24	8163.79
443.43	8292.52
443.61	8430.61
443.80	8493.80
443.98	8290.18
444.17	8074.85
444.35	8311.24
444.54	8458.70
444.73	8360.39
444.91	8482.10
445.10	8355.71
445.28	8435.29
445.47	8428.27
445.65	8395.50
445.84	8454.02
446.02	8479.76
446.21	8507.85
446.39	8559.34
446.58	8681.05
446.77	8526.57
446.95	8533.59
447.14	8643.60
447.32	8737.22
447.51	8325.29
447.69	8566.36
447.88	8688.07
448.06	8489.12
448.25	8561.68
448.43	8767.65
448.62	8643.60
448.80	8510.19
448.99	8667.00
449.17	8657.64
449.36	8800.41
449.54	9312.99
449.73	9090.64
449.91	9149.15
450.10	8931.48
450.28	9254.48
450.46	9177.24
450.65	8987.66
450.83	9043.83
451.02	8947.87
451.20	9341.08
451.39	9210.01
451.57	9270.86
451.76	9170.22
451.94	9521.30
452.13	9373.85
452.31	9341.08
452.49	9437.04
452.68	9327.03
452.86	9261.50
453.05	9696.84
453.23	9483.85
453.42	9488.53
453.60	9401.93
453.78	9682.80
453.97	9500.23
454.15	9408.95
454.34	9561.09
454.52	9694.50
454.70	9865.36
454.89	9717.90
455.07	9694.50
455.26	9867.70
455.44	9956.64
455.62	10012.81
455.81	9970.68
455.99	9944.94
456.17	10190.69
456.36	10118.14
456.54	10427.09
456.73	10345.17
456.91	10677.52
457.09	10623.69
457.28	10471.56
457.46	10443.47
457.64	10555.82
457.83	10420.06
458.01	10593.26
458.19	10848.38
458.38	10663.48
458.56	10946.69
458.74	10855.40
458.93	10672.84
459.11	10815.62
459.29	10768.80
459.48	10995.84
459.66	10820.30
459.84	11059.03
460.03	10981.79
460.21	11056.69
460.39	11101.16
460.57	11108.18
460.76	11239.25
460.94	11253.30
461.12	11328.19
461.31	11243.93
461.49	11265.00
461.67	11164.36
461.85	11555.22
462.04	11510.75
462.22	11545.86
462.40	11576.29
462.59	11522.46
462.77	11566.93
462.95	11513.10
463.13	11452.24
463.32	11580.97
463.50	11861.84
463.68	11847.79
463.86	11896.94
464.05	11770.55
464.23	11693.32
464.41	12016.31
464.59	11747.15
464.78	12341.64
464.96	12109.93
465.14	12006.95
465.32	12037.38
465.50	12121.63
465.69	12259.73
465.87	12086.53
466.05	12264.41
466.23	12166.10
466.41	12306.54
466.60	12479.74
466.78	12152.06
466.96	12482.08
467.14	12435.27
467.32	12374.41
467.51	12606.13
467.69	12278.45
467.87	12690.38
468.05	12681.02
468.23	12545.27
468.41	12446.97
468.60	12627.19
468.78	12669.32
468.96	12819.11
469.14	13142.11
469.32	12926.78
469.50	12767.62
469.69	13172.54
469.87	13125.72
470.05	13284.88
470.23	13509.57
470.41	13383.18
470.59	13319.99
470.77	13352.76
470.95	13422.97
471.14	13397.23
471.32	13209.98
471.50	13558.72
471.68	13699.16
471.86	14015.13
472.04	13781.07
472.22	14083.00
472.40	13605.53
472.58	13790.44
472.77	14162.58
472.95	14345.14
473.13	14567.49
473.31	14307.69
473.49	14106.41
473.67	14078.32
473.85	14127.47
474.03	14768.78
474.21	14675.16
474.39	14829.63
474.57	14731.33
474.75	15094.11
474.93	15119.86
475.12	14923.26
475.30	15356.25
475.48	15136.24
475.66	15150.29
475.84	15236.89
476.02	15496.69
476.20	15550.52
476.38	15840.75
476.56	16004.58
476.74	15719.04
476.92	15906.28
477.10	15925.00
477.28	16128.63
477.46	16280.77
477.64	16533.54
477.82	16737.17
478.00	16933.78
478.18	17057.82
478.36	16926.75
478.54	17111.66
478.72	17331.67
478.90	17717.86
479.08	17605.51
479.26	17989.36
479.44	17872.33
479.62	18125.11
479.80	18504.28
479.98	18216.39
480.16	18864.72
480.34	18171.92
480.52	18754.71
480.70	18916.21
480.88	18546.40
481.06	19054.30
481.24	18841.31
481.41	19016.85
481.59	19360.91
481.77	19513.05
481.95	19763.48
482.13	19957.75
482.31	20114.56
482.49	20224.57
482.67	20357.98
482.85	20716.08
483.03	20905.66
483.21	20552.24
483.39	20987.58
483.57	21018.01
483.74	21109.29
483.92	21518.89
484.10	21467.39
484.28	21766.98
484.46	22146.15
484.64	22015.08
484.82	22075.93
485.00	22609.58
485.18	22885.76
485.35	23222.80
485.53	22939.59
485.71	23166.62
485.89	23709.63
486.07	23618.35
486.25	23740.05
486.43	23660.48
486.61	24154.33
486.78	24147.31
486.96	24128.58
487.14	24547.54
487.32	24680.95
487.50	24968.84
487.68	25069.48
487.85	25460.35
488.03	25474.39
488.21	25912.07
488.39	25621.84
488.57	26134.42
488.75	26302.94
488.92	26672.74
489.10	26810.84
489.28	27325.75
489.46	26958.29
489.64	27124.47
489.81	27725.99
489.99	28009.19
490.17	28360.27
490.35	28386.02
490.53	28222.18
490.70	28624.75
490.88	28514.75
491.06	28554.54
491.24	28840.08
491.41	29329.25
491.59	29305.85
491.77	29207.55
491.95	29539.90
492.13	30108.65
492.30	29984.60
492.48	29823.11
492.66	30527.61
492.84	30368.45
493.01	30895.07
493.19	30845.92
493.37	31061.25
493.54	31372.54
493.72	31587.87
493.90	31522.34
494.08	32114.49
494.25	32091.09
494.43	31983.42
494.61	32472.59
494.79	32371.95
494.96	32568.55
495.14	32505.36
495.32	33298.80
495.49	33518.81
495.67	33521.15
495.85	33804.36
496.02	34335.66
496.20	34094.58
496.38	34213.95
496.55	34223.31
496.73	35070.59
496.91	34869.30
497.09	34803.77
497.26	35047.18
497.44	35681.47
497.62	35592.53
497.79	36163.62
497.97	35587.85
498.14	36275.96
498.32	36088.72
498.50	36306.39
498.67	36697.26
498.85	37071.75
499.03	37088.13
499.20	36886.84
499.38	37069.40
499.56	37216.86
499.73	37207.50
499.91	37268.35
500.08	38036.05
500.26	37247.29
500.44	37642.84
500.61	38141.37
500.79	38057.11
500.97	38979.28
501.14	38621.18
501.32	38738.21
501.49	38445.64
501.67	38895.02
501.84	38885.66
502.02	39112.69
502.20	39428.66
502.37	39365.47
502.55	39344.41
502.72	39892.09
502.90	39885.07
503.07	39899.11
503.25	39887.41
503.43	39950.60
503.60	39730.59
503.78	40446.80
503.95	40362.54
504.13	40329.77
504.30	40865.75
504.48	40556.80
504.65	40741.71
504.83	40950.01
505.01	41401.74
505.18	41385.35
505.36	41640.47
505.53	41214.49
505.71	42031.34
505.88	41689.62
506.06	42066.45
506.23	41368.97
506.41	42012.62
506.58	42274.76
506.76	42239.65
506.93	42623.50
507.11	42405.83
507.28	43227.35
507.46	42742.86
507.63	43482.47
507.81	43688.44
507.98	43173.52
508.16	43679.08
508.33	43381.83
508.50	43744.61
508.68	43730.57
508.85	44502.95
509.03	43990.37
509.20	44304.00
509.38	44919.56
509.55	44495.92
509.73	44678.49
509.90	44737.00
510.08	44793.17
510.25	44776.79
510.42	44807.22
510.60	45198.09
510.77	45382.99
510.95	45603.00
511.12	45155.96
511.30	45258.94
511.47	45399.37
511.64	45490.65
511.82	46426.87
511.99	45741.09
512.17	46071.10
512.34	46003.23
512.51	46445.59
512.69	46263.03
512.86	46478.36
513.04	46981.57
513.21	46789.65
513.38	46904.34
513.56	47112.64
513.73	46946.47
513.90	46927.74
514.08	47114.98
514.25	47283.50
514.43	47239.03
514.60	47821.83
514.77	47594.79
514.95	47924.81
515.12	47833.53
515.29	47571.39
515.47	48006.73
515.64	47875.66
515.81	47969.28
515.99	47899.06
516.16	48669.10
516.33	48594.20
516.51	48807.19
516.68	48575.48
516.85	48376.53
517.03	48758.04
517.20	49111.46
517.37	49109.12
517.54	49371.26
517.72	49144.23
517.89	49272.96
518.06	49499.99
518.24	49476.58
518.41	49750.43
518.58	49818.30
518.75	49492.97
518.93	49844.05
519.10	49563.18
519.27	49900.22
519.45	50087.46
519.62	50021.93
519.79	50183.43
519.96	50260.66
520.14	50277.05
520.31	50377.69
520.48	50609.40
520.65	50396.42
520.83	50937.08
521.00	51105.60
521.17	50499.40
521.34	50979.21
521.52	50593.02
521.69	51030.70
521.86	51014.32
522.03	51332.63
522.20	51320.93
522.38	51468.38
522.55	51482.42
522.72	51346.67
522.89	51468.38
523.07	51936.49
523.24	51257.73
523.41	51774.99
523.58	51599.45
523.75	52233.74
523.92	51927.13
524.10	52158.84
524.27	52278.21
524.44	52069.90
524.61	52325.02
524.78	52266.50
524.96	52383.53
525.13	52397.57
525.30	52554.39
525.47	52683.12
525.64	52638.65
525.81	52648.01
525.98	52746.31
526.16	52917.17
526.33	52879.72
526.50	53132.50
526.67	52811.85
526.84	53408.68
527.01	52882.06
527.18	52928.87
527.36	53333.79
527.53	53183.99
527.70	53509.33
527.87	53474.22
528.04	53464.86
528.21	53549.12
528.38	53532.73
528.55	53497.62
528.72	53626.35
528.89	53638.06
529.07	53598.27
529.24	53616.99
529.41	53827.64
529.58	54049.99
529.75	53717.64
529.92	54202.13
530.09	53869.77
530.26	53947.01
530.43	54450.22
530.60	53977.43
530.77	54164.68
530.94	54150.63
531.11	54162.34
531.28	54384.69
531.46	54286.39
531.63	54284.04
531.80	54298.09
531.97	54597.68
532.14	54712.36
532.31	54794.28
532.48	54827.05
532.65	54841.09
532.82	54497.03
532.99	54995.57
533.16	54805.98
533.33	54887.90
533.50	55068.12
533.67	54810.67
533.84	54995.57
534.01	54745.13
534.18	55128.98
534.35	55487.08
534.52	55208.56
534.69	55304.52
534.86	55351.33
535.03	55061.10
535.20	55269.41
535.37	55447.29
535.54	55241.32
535.71	55323.24
535.88	55517.51
536.05	55498.78
536.22	55693.05
536.38	55948.17
536.55	55742.20
536.72	55693.05
536.89	55657.94
537.06	55786.67
537.23	55861.57
537.40	55835.82
537.57	55910.72
537.74	55931.78
537.91	55987.95
538.08	55908.38
538.25	55826.46
538.42	56100.30
538.59	56142.43
538.75	56055.83
538.92	56144.77
539.09	56528.62
539.26	56207.97
539.43	56280.52
539.60	56388.19
539.77	56437.34
539.94	56722.88
540.11	56769.69
540.28	56378.82
540.44	56367.12
540.61	56563.73
540.78	56554.36
540.95	56362.44
541.12	56631.60
541.29	56498.19
541.46	56685.43
541.62	56839.91
541.79	56701.82
541.96	56559.05
542.13	56554.36
542.30	56753.31
542.47	57172.27
542.63	56900.76
542.80	57240.14
542.97	57139.50
543.14	57537.39
543.31	57415.68
543.48	57509.30
543.64	57605.26
543.81	57647.39
543.98	57361.85
544.15	57525.69
544.32	57542.07
544.48	57661.44
544.65	57469.51
544.82	57542.07
544.99	57403.98
545.16	57780.81
545.32	57485.90
545.49	57921.24
545.66	57846.34
545.83	57668.46
546.00	57972.73
546.16	57818.25
546.33	57675.48
546.50	57523.35
546.67	57869.75
546.83	57579.52
547.00	57839.32
547.17	57731.65
547.34	58010.18
547.50	58061.67
547.67	58106.14
547.84	57951.66
548.00	58195.08
548.17	58482.97
548.34	58204.44
548.51	58375.30
548.67	58356.58
548.84	58272.32
549.01	58269.98
549.18	58291.04
549.34	58284.02
549.51	58468.92
549.68	58522.76
549.84	58337.85
550.01	58391.68
550.18	58445.52
550.34	58548.50
550.51	58721.70
550.68	58525.10
550.84	58487.65
551.01	58784.90
551.18	58525.10
551.34	58801.28
551.51	58592.97
551.68	58721.70
551.84	58710.00
552.01	58698.30
552.18	58691.27
552.34	58487.65
552.51	58948.73
552.68	58419.77
552.84	58972.14
553.01	59016.61
553.18	58859.79
553.34	59011.93
553.51	58915.96
553.67	58967.46
553.84	58930.01
554.01	59107.89
554.17	59128.95
554.34	59203.85
554.51	59283.43
554.67	59477.69
554.84	59054.06
555.00	59227.26
555.17	59145.34
555.33	59187.47
555.50	59032.99
555.67	59231.94
555.83	59185.13
556.00	59447.27
556.16	59515.14
556.33	59409.82
556.50	59288.11
556.66	59395.77
556.83	59320.88
556.99	59402.80
557.16	59636.85
557.32	59550.25
557.49	59744.51
557.65	59545.57
557.82	59529.19
557.98	59540.89
558.15	59583.02
558.32	59826.43
558.48	59505.78
558.65	59580.68
558.81	59643.87
558.98	59779.62
559.14	59753.88
559.31	59777.28
559.47	59540.89
559.64	59664.94
559.80	59774.94
559.97	59863.88
560.13	59653.23
560.30	59931.76
560.46	59922.40
560.63	59950.48
560.79	59849.84
560.96	60123.68
561.12	59894.31
561.29	60013.68
561.45	60058.15
561.61	59917.71
561.78	59908.35
561.94	59847.50
562.11	60109.64
562.27	59922.40
562.44	60055.81
562.60	60207.94
562.77	59969.21
562.93	59980.91
563.10	60114.32
563.26	59973.89
563.42	60430.29
563.59	60219.64
563.75	59976.23
563.92	60123.68
564.08	60102.62
564.24	60303.90
564.41	60266.45
564.57	60240.71
564.74	60364.76
564.90	60289.86
565.07	60350.71
565.23	60273.48
565.39	60336.67
565.56	60439.65
565.72	60200.92
565.88	60355.39
566.05	60193.90
566.21	60238.37
566.38	60364.76
566.54	60315.61
566.70	60388.16
566.87	60441.99
567.03	60083.89
567.19	60612.85
567.36	60416.25
567.52	60441.99
567.68	60640.94
567.85	60390.50
568.01	60449.02
568.17	60512.21
568.34	60406.89
568.50	60495.83
568.66	60423.27
568.83	60463.06
568.99	60313.26
569.15	60554.34
569.32	60339.01
569.48	60411.57
569.64	60589.45
569.81	60566.04
569.97	60505.19
570.13	60427.95
570.30	60420.93
570.46	60589.45
570.62	60589.45
570.78	60722.86
570.95	60678.39
571.11	60622.22
571.27	60526.25
571.43	60516.89
571.60	60680.73
571.76	60662.00
571.92	60725.20
572.09	60664.35
572.25	60509.87
572.41	60617.53
572.57	60748.60
572.74	60860.95
572.90	60500.51
573.06	60666.69
573.22	60701.79
573.38	60788.39
573.55	60638.60
573.71	60903.08
573.87	60718.18
574.03	60650.30
574.20	60952.23
574.36	60779.03
574.52	60835.20
574.68	60734.56
574.84	60940.53
575.01	60926.49
575.17	60760.31
575.33	60818.82
575.49	60664.35
575.65	60825.84
575.82	60832.86
575.98	60970.96
576.14	61027.13
576.30	61038.83
576.46	60907.76
576.62	60846.91
576.79	60860.95
576.95	60790.73
577.11	60867.97
577.27	60977.98
577.43	61148.84
577.59	60942.87
577.75	60921.80
577.92	60683.07
578.08	60846.91
578.24	60800.10
578.40	61099.68
578.56	61059.90
578.72	61052.87
578.88	61237.78
579.04	61181.60
579.21	60919.46
579.37	61001.38
579.53	61179.26
579.69	60774.35
579.85	60879.67
580.01	60896.06
580.17	60898.40
580.33	60882.02
580.49	61080.96
580.65	60898.40
580.82	60949.89
580.98	60919.46
581.14	60949.89
581.30	61127.77
581.46	61095.00
581.62	61176.92
581.78	60772.01
581.94	60935.85
582.10	60954.57
582.26	60928.83
582.42	60926.49
582.58	60900.74
582.74	61048.19
582.90	60992.02
583.06	61006.06
583.22	60804.78
583.38	61181.60
583.54	60921.80
583.70	61111.39
583.86	61298.63
584.02	61013.08
584.18	61193.31
584.34	61113.73
584.50	61127.77
584.66	61038.83
584.82	61085.64
584.98	61340.76
585.14	61249.48
585.30	60900.74
585.46	60952.23
585.62	60966.27
585.78	61298.63
585.94	61041.17
586.10	61127.77
586.26	61403.95
586.42	61235.44
586.58	61261.18
586.74	61265.86
586.90	61092.66
587.06	61125.43
587.22	61151.18
587.38	61151.18
587.54	61315.01
587.70	61237.78
587.86	61366.51
588.02	61268.20
588.18	61162.88
588.34	61109.05
588.49	61069.26
