SpectraSuite Data File
++++++++++++++++++++++++++++++++++++
Date: Fri Oct 25 11:25:15 EDT 2013
User: price-jones
Dark Spectrum Present: No
Reference Spectrum Present: No
Number of Sampled Component Spectra: 1
Spectrometers: USB2+H05261
Integration Time (usec): 100000 (USB2+H05261)
Spectra Averaged: 1 (USB2+H05261)
Boxcar Smoothing: 0 (USB2+H05261)
Correct for Electrical Dark: No (USB2+H05261)
Strobe/Lamp Enabled: No (USB2+H05261)
Correct for Detector Non-linearity: No (USB2+H05261)
Correct for Stray Light: No (USB2+H05261)
Number of Pixels in Processed Spectrum: 2048
>>>>>Begin Processed Spectral Data<<<<<
365.73	262.14
365.92	262.14
366.12	262.14
366.32	156.82
366.52	124.05
366.72	205.97
366.91	131.07
367.11	135.75
367.31	67.88
367.51	131.07
367.70	46.81
367.90	161.50
368.10	142.77
368.30	51.49
368.49	175.54
368.69	194.26
368.89	147.45
369.09	131.07
369.28	124.05
369.48	156.82
369.68	145.11
369.87	149.79
370.07	180.22
370.27	189.58
370.47	304.27
370.66	582.79
370.86	622.58
371.06	603.86
371.25	695.14
371.45	678.76
371.65	690.46
371.84	599.18
372.04	643.65
372.24	660.03
372.44	678.76
372.63	732.59
372.83	802.80
373.03	709.18
373.22	765.36
373.42	758.33
373.62	763.01
373.81	772.38
374.01	812.17
374.21	793.44
374.40	816.85
374.60	823.87
374.79	786.42
374.99	854.30
375.19	830.89
375.38	992.39
375.58	812.17
375.78	837.91
375.97	898.77
376.17	901.11
376.37	835.57
376.56	814.51
376.76	851.96
376.95	856.64
377.15	842.59
377.35	901.11
377.54	945.58
377.74	919.83
377.93	877.70
378.13	863.66
378.33	1020.47
378.52	919.83
378.72	915.15
378.91	894.08
379.11	980.68
379.31	891.74
379.50	966.64
379.70	891.74
379.89	1027.50
380.09	1022.81
380.28	912.81
380.48	924.51
380.68	896.43
380.87	947.92
381.07	1041.54
381.26	997.07
381.46	994.73
381.65	978.34
381.85	1067.28
382.04	1043.88
382.24	1086.01
382.43	1067.28
382.63	1053.24
382.83	1022.81
383.02	1111.75
383.22	1107.07
383.41	1102.39
383.61	1114.10
383.80	1130.48
384.00	1088.35
384.19	1076.65
384.39	1163.25
384.58	1153.88
384.78	1179.63
384.97	1193.67
385.17	1144.52
385.36	1184.31
385.56	1137.50
385.75	1097.71
385.95	1233.46
386.14	1174.95
386.34	1235.80
386.53	1205.38
386.72	1153.88
386.92	1268.57
387.11	1226.44
387.31	1226.44
387.50	1245.16
387.70	1210.06
387.89	1252.19
388.09	1291.98
388.28	1226.44
388.48	1259.21
388.67	1273.25
388.86	1238.14
389.06	1348.15
389.25	1308.36
389.45	1324.74
389.64	1434.75
389.84	1413.68
390.03	1329.42
390.22	1343.47
390.42	1434.75
390.61	1369.21
390.81	1301.34
391.00	1416.02
391.19	1411.34
391.39	1404.32
391.58	1486.24
391.78	1563.48
391.97	1378.58
392.16	1486.24
392.36	1558.80
392.55	1483.90
392.75	1533.05
392.94	1425.39
393.13	1439.43
393.33	1572.84
393.52	1530.71
393.71	1558.80
393.91	1619.65
394.10	1519.01
394.29	1596.25
394.49	1624.33
394.68	1605.61
394.88	1657.10
395.07	1570.50
395.26	1575.18
395.46	1720.29
395.65	1696.89
395.84	1710.93
396.04	1727.32
396.23	1839.66
396.42	1753.06
396.62	1729.66
396.81	1799.87
397.00	1806.89
397.19	1788.17
397.39	1865.41
397.58	1739.02
397.77	1813.92
397.97	1778.81
398.16	1905.20
398.35	1870.09
398.55	1877.11
398.74	1926.26
398.93	1858.39
399.12	1966.05
399.32	1900.52
399.51	1905.20
399.70	2017.54
399.90	1928.60
400.09	2005.84
400.28	2080.74
400.47	1989.46
400.67	1989.46
400.86	2141.59
401.05	2115.84
401.24	2106.48
401.44	2071.37
401.63	2122.87
401.82	2062.01
402.01	1982.43
402.21	2087.76
402.40	2232.87
402.59	2162.66
402.78	2211.81
402.97	2230.53
403.17	2270.32
403.36	2298.41
403.55	2146.27
403.74	2307.77
403.93	2417.77
404.13	2267.98
404.32	2317.13
404.51	2296.07
404.70	2331.17
404.89	2375.64
405.09	2476.29
405.28	2537.14
405.47	2527.78
405.66	2562.89
405.85	2406.07
406.05	2520.76
406.24	2445.86
406.43	2569.91
406.62	2532.46
406.81	2661.19
407.00	2565.23
407.20	2497.35
407.39	2651.83
407.58	2691.62
407.77	2689.28
407.96	2818.00
408.15	2871.84
408.34	2799.28
408.54	2822.69
408.73	2710.34
408.92	2740.77
409.11	2846.09
409.30	2860.13
409.49	2916.31
409.68	2853.11
409.87	2928.01
410.07	2857.79
410.26	2993.55
410.45	2965.46
410.64	3019.29
410.83	3178.45
411.02	3052.06
411.21	3215.90
411.40	3049.72
411.59	3213.56
411.78	3283.77
411.98	3087.17
412.17	3281.43
412.36	3253.34
412.55	3316.54
412.74	3173.77
412.93	3433.57
413.12	3365.69
413.31	3503.78
413.50	3323.56
413.69	3403.14
413.88	3527.19
414.07	3471.01
414.26	3632.51
414.45	3655.92
414.64	3637.19
414.83	3819.75
415.02	3808.05
415.22	3843.16
415.41	3716.77
415.60	3824.44
415.79	3971.89
415.98	3885.29
416.17	3953.16
416.36	3988.27
416.55	4107.64
416.74	4091.26
416.93	4138.07
417.12	4126.36
417.31	4191.90
417.50	4184.88
417.69	4397.87
417.88	4184.88
418.07	4187.22
418.26	4306.59
418.45	4367.44
418.64	4437.66
418.83	4383.82
419.02	4393.19
419.21	4496.17
419.39	4416.59
419.58	4386.16
419.77	4388.50
419.96	4489.15
420.15	4594.47
420.34	4606.17
420.53	4456.38
420.72	4610.86
420.91	4690.43
421.10	4641.28
421.29	4732.56
421.48	4660.01
421.67	4709.16
421.86	4786.40
422.05	4727.88
422.24	4634.26
422.43	4833.21
422.61	4851.93
422.80	5050.88
422.99	4826.18
423.18	5025.13
423.37	4966.62
423.56	4961.94
423.75	4837.89
423.94	4835.55
424.13	4634.26
424.32	4786.40
424.50	4929.17
424.69	4983.00
424.88	5043.85
425.07	4884.70
425.26	4772.35
425.45	4762.99
425.64	4938.53
425.83	4915.12
426.01	5057.90
426.20	5111.73
426.39	5060.24
426.58	5008.75
426.77	4980.66
426.96	5083.64
427.15	5104.71
427.33	5341.10
427.52	5146.84
427.71	5273.23
427.90	5207.69
428.09	5308.34
428.28	5338.76
428.46	5399.62
428.65	5327.06
428.84	5399.62
429.03	5446.43
429.22	5432.38
429.40	5317.70
429.59	5518.98
429.78	5275.57
429.97	5338.76
430.16	5434.72
430.34	5427.70
430.53	5598.56
430.72	5596.22
430.91	5591.54
431.10	5490.90
431.28	5650.05
431.47	5687.50
431.66	5839.64
431.85	5816.23
432.03	5738.99
432.22	5851.34
432.41	5811.55
432.60	5989.43
432.79	6036.24
432.97	5923.90
433.16	5954.32
433.35	5935.60
433.54	6043.26
433.72	5980.07
433.91	6080.71
434.10	5991.77
434.28	6076.03
434.47	6076.03
434.66	6312.42
434.85	6303.06
435.03	6263.27
435.22	6284.34
435.41	6347.53
435.59	6408.39
435.78	6352.21
435.97	6410.73
436.16	6335.83
436.34	6396.68
436.53	6361.58
436.72	6567.54
436.90	6338.17
437.09	6604.99
437.28	6291.36
437.46	6537.12
437.65	6729.04
437.84	6661.16
438.02	6637.76
438.21	6703.29
438.40	6792.23
438.58	6949.05
438.77	6860.11
438.96	7021.61
439.14	7014.59
439.33	7178.42
439.52	7047.35
439.70	7258.00
439.89	7389.07
440.08	7330.56
440.26	7258.00
440.45	7358.64
440.63	7363.33
440.82	7494.40
441.01	7349.28
441.19	7508.44
441.38	7646.53
441.57	7599.72
441.75	7791.64
441.94	7911.01
442.12	7943.78
442.31	7934.42
442.50	8116.98
442.68	7899.31
442.87	7864.20
443.05	7978.89
443.24	8248.05
443.43	7864.20
443.61	8152.09
443.80	8318.26
443.98	8168.47
444.17	7812.71
444.35	8224.64
444.54	8145.06
444.73	8177.83
444.91	8212.94
445.10	8397.84
445.28	8449.33
445.47	8208.26
445.65	8313.58
445.84	8334.65
446.02	8418.91
446.21	8439.97
446.39	8329.97
446.58	8463.38
446.77	8439.97
446.95	8463.38
447.14	8369.76
447.32	8245.71
447.51	8332.31
447.69	8472.74
447.88	8489.12
448.06	8416.57
448.25	8503.17
448.43	8678.71
448.62	8498.49
448.80	8538.27
448.99	8674.03
449.17	8652.96
449.36	8620.19
449.54	8662.32
449.73	8992.34
449.91	8812.12
450.10	9018.08
450.28	9071.92
450.46	9043.83
450.65	9008.72
450.83	9015.74
451.02	8917.44
451.20	9156.18
451.39	9104.68
451.57	9067.24
451.76	8887.01
451.94	9116.39
452.13	9291.93
452.31	9029.79
452.49	9245.12
452.68	9369.16
452.86	9327.03
453.05	9296.61
453.23	9128.09
453.42	9310.65
453.60	9483.85
453.78	9369.16
453.97	9430.02
454.15	9455.76
454.34	9469.81
454.52	9628.96
454.70	9708.54
454.89	9647.69
455.07	9682.80
455.26	9687.48
455.44	9830.25
455.62	9596.20
455.81	9722.59
455.99	9837.27
456.17	10193.03
456.36	9832.59
456.54	10216.44
456.73	10281.97
456.91	10108.77
457.09	10253.89
457.28	10654.12
457.46	10218.78
457.64	10436.45
457.83	10604.97
458.01	10314.74
458.19	10546.45
458.38	10504.32
458.56	10731.36
458.74	10377.94
458.93	10420.06
459.11	10588.58
459.29	10848.38
459.48	10764.12
459.66	10752.42
459.84	10829.66
460.03	10958.39
460.21	10799.23
460.39	10799.23
460.57	11005.20
460.76	11110.52
460.94	11173.72
461.12	10923.28
461.31	11061.37
461.49	11073.07
461.67	11157.33
461.85	11250.96
462.04	11215.85
462.22	11651.19
462.40	11501.39
462.59	11456.92
462.77	11463.94
462.95	11543.52
463.13	11494.37
463.32	11583.31
463.50	11754.17
463.68	11496.71
463.86	11681.61
464.05	11723.74
464.23	11513.10
464.41	11974.18
464.59	11662.89
464.78	12006.95
464.96	11992.90
465.14	11672.25
465.32	12049.08
465.50	12002.27
465.69	12273.77
465.87	12212.92
466.05	12025.67
466.23	12065.46
466.41	12013.97
466.60	12695.07
466.78	12112.27
466.96	12187.17
467.14	12107.59
467.32	12152.06
467.51	12477.40
467.69	11885.24
467.87	12360.37
468.05	12746.56
468.23	12149.72
468.41	12554.63
468.60	12755.92
468.78	12617.83
468.96	12360.37
469.14	12716.13
469.32	12849.54
469.50	12645.91
469.69	12833.16
469.87	13011.04
470.05	13186.58
470.23	13085.94
470.41	12865.92
470.59	13128.06
470.77	13390.20
470.95	13156.15
471.14	13394.89
471.32	13109.34
471.50	13593.83
471.68	13540.00
471.86	13469.78
472.04	13624.26
472.22	13949.59
472.40	13724.90
472.58	13813.84
472.77	13703.84
472.95	13797.46
473.13	14534.73
473.31	13998.74
473.49	13973.00
473.67	13965.98
473.85	14223.44
474.03	14511.32
474.21	14850.70
474.39	14759.42
474.57	14686.86
474.75	14633.03
474.93	14939.64
475.12	14787.50
475.30	14712.61
475.48	15000.49
475.66	15164.33
475.84	15089.43
476.02	15412.43
476.20	15091.77
476.38	15403.07
476.56	15723.72
476.74	15683.93
476.92	15683.93
477.10	15646.48
477.28	15733.08
477.46	15967.13
477.64	16269.06
477.82	16325.24
478.00	16858.88
478.18	16458.65
478.36	16753.55
478.54	16798.02
478.72	16996.97
478.90	17359.75
479.08	17383.16
479.26	17614.87
479.44	17621.89
479.62	17884.03
479.80	17968.29
479.98	17982.34
480.16	18801.52
480.34	18143.83
480.52	18211.71
480.70	18298.31
480.88	18176.60
481.06	18951.32
481.24	18572.15
481.41	18948.98
481.59	18904.51
481.77	19468.58
481.95	19435.81
482.13	19775.19
482.31	19733.06
482.49	19999.88
482.67	20102.86
482.85	20301.81
483.03	20437.56
483.21	20697.36
483.39	20877.58
483.57	20624.80
483.74	20950.14
483.92	21453.35
484.10	21092.91
484.28	21493.14
484.46	21589.10
484.64	22307.65
484.82	21902.73
485.00	22185.94
485.18	22469.14
485.35	22955.97
485.53	22803.84
485.71	22539.36
485.89	23213.43
486.07	22995.76
486.25	23192.37
486.43	23396.00
486.61	23899.21
486.78	23894.53
486.96	24016.24
487.14	24308.80
487.32	24704.35
487.50	24467.96
487.68	25102.25
487.85	25074.16
488.03	25385.45
488.21	25582.06
488.39	25266.08
488.57	25570.35
488.75	26045.48
488.92	26188.25
489.10	26569.76
489.28	26403.58
489.46	26831.90
489.64	26586.15
489.81	27536.40
489.99	27510.66
490.17	27487.25
490.35	28088.77
490.53	27917.91
490.70	28517.09
490.88	28170.69
491.06	28449.21
491.24	28781.57
491.41	28851.78
491.59	28847.10
491.77	29235.63
491.95	29668.63
492.13	29507.13
492.30	30043.12
492.48	30057.16
492.66	29797.36
492.84	29982.26
493.01	30230.36
493.19	30188.23
493.37	30806.13
493.54	30888.05
493.72	31262.54
493.90	31140.83
494.08	31498.93
494.25	31714.26
494.43	32034.91
494.61	32388.33
494.79	32425.78
494.96	32360.25
495.14	32348.54
495.32	32957.08
495.49	32561.53
495.67	33226.24
495.85	33387.74
496.02	33467.32
496.20	33713.08
496.38	33645.20
496.55	33989.26
496.73	34675.04
496.91	34527.58
497.09	34265.44
497.26	34941.86
497.44	34864.62
497.62	34967.60
497.79	35391.24
497.97	35164.21
498.14	35676.79
498.32	35534.01
498.50	36016.16
498.67	36313.41
498.85	36027.87
499.03	36638.75
499.20	36650.45
499.38	36755.77
499.56	37099.83
499.73	36554.49
499.91	37008.55
500.08	37071.75
500.26	37308.14
500.44	37329.20
500.61	37652.20
500.79	37614.75
500.97	37851.14
501.14	38230.31
501.32	38286.48
501.49	38345.00
501.67	38368.40
501.84	38710.12
502.02	38876.30
502.20	38838.85
502.37	38600.12
502.55	38904.38
502.72	39269.51
502.90	39222.70
503.07	38714.80
503.25	39758.68
503.43	39438.03
503.60	39541.01
503.78	39871.03
503.95	40053.59
504.13	40177.64
504.30	40399.99
504.48	39594.84
504.65	40409.35
504.83	40587.23
505.01	40903.20
505.18	41090.44
505.36	41029.59
505.53	40996.82
505.71	41368.97
505.88	40861.07
506.06	41132.57
506.23	41736.43
506.41	41591.32
506.58	42059.43
506.76	42113.26
506.93	42157.73
507.11	42153.05
507.28	42314.55
507.46	42167.09
507.63	42878.61
507.81	42777.97
507.98	42557.96
508.16	42878.61
508.33	43423.96
508.50	43445.02
508.68	43482.47
508.85	43545.67
509.03	43718.87
509.20	43409.92
509.38	44282.94
509.55	44076.97
509.73	44154.21
509.90	44191.65
510.08	43793.76
510.25	44414.01
510.42	44645.72
510.60	45242.56
510.77	44266.55
510.95	44975.73
511.12	44563.80
511.30	45186.38
511.47	45378.31
511.64	45125.53
511.82	45799.60
511.99	45464.91
512.17	45462.57
512.34	45937.69
512.51	46094.51
512.69	46061.74
512.86	46293.46
513.04	46625.81
513.21	46160.05
513.38	46588.36
513.56	46660.92
513.73	46440.91
513.90	46454.95
514.08	46527.51
514.25	46993.28
514.43	47302.23
514.60	47030.72
514.77	47192.22
514.95	47426.28
515.12	47154.77
515.29	47278.82
515.47	47508.19
515.64	47540.96
515.81	47124.35
515.99	47751.61
516.16	48516.96
516.33	47847.57
516.51	48348.45
516.68	47767.99
516.85	48032.47
517.03	48868.05
517.20	48339.08
517.37	48748.68
517.54	48545.05
517.72	48474.84
517.89	48844.64
518.06	48825.92
518.24	49088.06
518.41	49029.54
518.58	49242.53
518.75	48999.12
518.93	49202.74
519.10	49095.08
519.27	49546.80
519.45	49612.34
519.62	49607.65
519.79	49764.47
519.96	50216.19
520.14	49783.19
520.31	50003.20
520.48	50314.50
520.65	50157.68
520.83	50480.67
521.00	50260.66
521.17	50216.19
521.34	50258.32
521.52	50642.17
521.69	50845.80
521.86	50616.43
522.03	50890.27
522.20	50988.57
522.38	51283.48
522.55	50639.83
522.72	50925.38
522.89	51002.61
523.07	51395.82
523.24	51236.67
523.41	51468.38
523.58	51274.12
523.75	51569.02
523.92	51452.00
524.10	51934.15
524.27	51920.10
524.44	51700.09
524.61	51772.65
524.78	51894.36
524.96	52212.67
525.13	52088.62
525.30	52240.76
525.47	52332.04
525.64	52130.75
525.81	52540.35
525.98	52341.40
526.16	52580.13
526.33	52645.67
526.50	52879.72
526.67	52821.21
526.84	52898.45
527.01	52765.04
527.18	52725.25
527.36	52488.85
527.53	52741.63
527.70	53247.19
527.87	53043.56
528.04	53109.10
528.21	53062.29
528.38	53155.91
528.55	53286.98
528.72	53310.38
528.89	52931.22
529.07	53251.87
529.24	53352.51
529.41	53251.87
529.58	53352.51
529.75	53368.90
529.92	53539.75
530.09	53710.61
530.26	53776.15
530.43	53813.60
530.60	53551.46
530.77	53876.79
530.94	53984.46
531.11	54003.18
531.28	53797.21
531.46	54066.38
531.63	53972.75
531.80	54167.02
531.97	54279.36
532.14	54330.86
532.31	54305.11
532.48	54272.34
532.65	54279.36
532.82	54150.63
532.99	54501.71
533.16	54550.87
533.33	54625.76
533.50	54504.06
533.67	54569.59
533.84	54499.37
534.01	54583.63
534.18	54712.36
534.35	55100.89
534.52	54808.32
534.69	55063.44
534.86	55234.30
535.03	54738.11
535.20	54913.65
535.37	55147.70
535.54	55217.92
535.71	55159.41
535.88	55405.16
536.05	55192.17
536.22	55285.79
536.38	55267.07
536.55	55447.29
536.72	55604.11
536.89	55105.57
537.06	55566.66
537.23	55608.79
537.40	55227.28
537.57	55566.66
537.74	55583.04
537.91	55791.35
538.08	55744.54
538.25	55297.50
538.42	55683.69
538.59	56020.72
538.75	55667.30
538.92	55683.69
539.09	56175.20
539.26	56009.02
539.43	55906.04
539.60	56226.69
539.77	56079.24
539.94	56294.56
540.11	55983.27
540.28	56104.98
540.44	56037.11
540.61	56041.79
540.78	56154.13
540.95	56065.19
541.12	56175.20
541.29	56133.07
541.46	56156.47
541.62	56535.64
541.79	56156.47
541.96	56046.47
542.13	56427.98
542.30	56556.70
542.47	56467.76
542.63	56507.55
542.80	56650.33
542.97	56868.00
543.14	56963.96
543.31	57024.81
543.48	56966.30
543.64	57373.55
543.81	57336.10
543.98	57214.40
544.15	57188.65
544.32	57373.55
544.48	57298.65
544.65	57296.31
544.82	57202.69
544.99	57059.92
545.16	57373.55
545.32	57176.95
545.49	57425.04
545.66	57439.09
545.83	57418.02
546.00	57586.54
546.16	57326.74
546.33	57499.94
546.50	57396.96
546.67	57516.32
546.83	57368.87
547.00	57659.10
547.17	57567.82
547.34	57628.67
547.50	57652.08
547.67	57935.28
547.84	57876.77
548.00	57949.32
548.17	58012.52
548.34	57888.47
548.51	58157.63
548.67	57965.71
548.84	58115.50
549.01	57963.37
549.18	57717.61
549.34	58136.57
549.51	58206.78
549.68	58218.49
549.84	58244.23
550.01	58188.06
550.18	57865.06
550.34	58356.58
550.51	58330.83
550.68	58347.21
550.84	57984.43
551.01	58274.66
551.18	58417.43
551.34	58478.28
551.51	58426.79
551.68	58363.60
551.84	58492.33
552.01	58309.77
552.18	58440.84
552.34	58436.16
552.51	58557.86
552.68	58436.16
552.84	58492.33
553.01	58773.19
553.18	58794.26
553.34	58988.52
553.51	58569.57
553.67	58864.47
553.84	58822.34
554.01	58731.06
554.17	58946.39
554.34	58864.47
554.51	58862.13
554.67	59077.46
554.84	58820.00
555.00	58710.00
555.17	58859.79
555.33	58740.42
555.50	58766.17
555.67	58953.41
555.83	58915.96
556.00	58988.52
556.16	59318.54
556.33	59098.53
556.50	59093.85
556.66	59072.78
556.83	58995.54
556.99	59040.01
557.16	59276.41
557.32	59332.58
557.49	59444.93
557.65	59152.36
557.82	59306.83
557.98	59234.28
558.15	59318.54
558.32	59473.01
558.48	59171.08
558.65	59309.18
558.81	59255.34
558.98	59334.92
559.14	59494.08
559.31	59355.99
559.47	59419.18
559.64	59421.52
559.80	59496.42
559.97	59650.89
560.13	59475.35
560.30	59442.59
560.46	59489.40
560.63	59760.90
560.79	59456.63
560.96	59796.01
561.12	59339.60
561.29	59608.76
561.45	59700.04
561.61	59735.15
561.78	59503.44
561.94	59412.16
562.11	59564.29
562.27	59697.70
562.44	59814.73
562.60	59950.48
562.77	59891.97
562.93	59732.81
563.10	60053.47
563.26	59735.15
563.42	59969.21
563.59	59868.56
563.75	59744.51
563.92	59812.39
564.08	59917.71
564.24	60097.94
564.41	59997.29
564.57	59969.21
564.74	60060.49
564.90	59945.80
565.07	59962.18
565.23	59985.59
565.39	59880.27
565.56	60025.38
565.72	59957.50
565.88	59994.95
566.05	60048.78
566.21	59812.39
566.38	60200.92
566.54	60142.41
566.70	60051.12
566.87	60327.31
567.03	60039.42
567.19	60301.56
567.36	60229.01
567.52	60062.83
567.68	60493.49
567.85	60350.71
568.01	60200.92
568.17	60072.19
568.34	60376.46
568.50	60205.60
568.66	60102.62
568.83	59999.63
568.99	60306.24
569.15	60413.91
569.32	60343.69
569.48	60224.32
569.64	60479.44
569.81	60257.09
569.97	60301.56
570.13	60383.48
570.30	60088.57
570.46	60261.77
570.62	60268.79
570.78	60456.04
570.95	60299.22
571.11	60441.99
571.27	60313.26
571.43	60224.32
571.60	60444.33
571.76	60434.97
571.92	60395.18
572.09	60315.61
572.25	60568.38
572.41	60390.50
572.57	60367.10
572.74	60598.81
572.90	60406.89
573.06	60449.02
573.22	60528.59
573.38	60409.23
573.55	60512.21
573.71	60776.69
573.87	60680.73
574.03	60341.35
574.20	60598.81
574.36	60706.47
574.52	60685.41
574.68	60594.13
574.84	60498.17
575.01	60725.20
575.17	60516.89
575.33	60603.49
575.49	60460.72
575.65	60638.60
575.82	60528.59
575.98	60577.75
576.14	60835.20
576.30	60692.43
576.46	60444.33
576.62	60561.36
576.79	60622.22
576.95	60481.78
577.11	60629.24
577.27	60741.58
577.43	60495.83
577.59	60554.34
577.75	60659.66
577.92	60509.87
578.08	60570.72
578.24	60671.37
578.40	60914.78
578.56	60919.46
578.72	60549.66
578.88	60924.14
579.04	60772.01
579.21	60640.94
579.37	60938.19
579.53	60945.21
579.69	60547.32
579.85	60746.26
580.01	60636.26
580.17	60596.47
580.33	60718.18
580.49	60800.10
580.65	60739.24
580.82	60708.82
580.98	60842.23
581.14	60699.45
581.30	60816.48
581.46	60584.77
581.62	60711.16
581.78	60598.81
581.94	60685.41
582.10	60753.29
582.26	60769.67
582.42	60809.46
582.58	60975.64
582.74	60762.65
582.90	60924.14
583.06	60753.29
583.22	60706.47
583.38	60708.82
583.54	60835.20
583.70	60893.72
583.86	60736.90
584.02	60844.57
584.18	60921.80
584.34	60750.94
584.50	60821.16
584.66	60619.88
584.82	60825.84
584.98	61008.40
585.14	60949.89
585.30	60711.16
585.46	60919.46
585.62	60851.59
585.78	60996.70
585.94	60662.00
586.10	60889.04
586.26	60903.08
586.42	60828.18
586.58	60844.57
586.74	60725.20
586.90	61006.06
587.06	60725.20
587.22	60973.30
587.38	60839.89
587.54	61092.66
587.70	60999.04
587.86	60963.93
588.02	60935.85
588.18	61013.08
588.34	60650.30
588.49	60938.19
