SpectraSuite Data File
++++++++++++++++++++++++++++++++++++
Date: Fri Oct 25 11:34:35 EDT 2013
User: price-jones
Dark Spectrum Present: No
Reference Spectrum Present: No
Number of Sampled Component Spectra: 1
Spectrometers: USB2+H05261
Integration Time (usec): 100000 (USB2+H05261)
Spectra Averaged: 1 (USB2+H05261)
Boxcar Smoothing: 0 (USB2+H05261)
Correct for Electrical Dark: No (USB2+H05261)
Strobe/Lamp Enabled: No (USB2+H05261)
Correct for Detector Non-linearity: No (USB2+H05261)
Correct for Stray Light: No (USB2+H05261)
Number of Pixels in Processed Spectrum: 2048
>>>>>Begin Processed Spectral Data<<<<<
365.73	332.36
365.92	332.36
366.12	332.36
366.32	194.26
366.52	217.67
366.72	180.22
366.91	168.52
367.11	88.94
367.31	212.99
367.51	208.31
367.70	135.75
367.90	117.03
368.10	201.29
368.30	173.20
368.49	126.39
368.69	250.44
368.89	205.97
369.09	159.16
369.28	252.78
369.48	149.79
369.68	245.76
369.87	170.86
370.07	215.33
370.27	283.20
370.47	325.33
370.66	421.30
370.86	428.32
371.06	507.90
371.25	552.37
371.45	528.96
371.65	543.00
371.84	552.37
372.04	503.22
372.24	580.45
372.44	510.24
372.63	578.11
372.83	608.54
373.03	596.84
373.22	564.07
373.42	617.90
373.62	678.76
373.81	631.94
374.01	660.03
374.21	622.58
374.40	620.24
374.60	643.65
374.79	667.05
374.99	699.82
375.19	631.94
375.38	723.23
375.58	664.71
375.78	660.03
375.97	709.18
376.17	662.37
376.37	613.22
376.56	643.65
376.76	638.97
376.95	592.16
377.15	697.48
377.35	697.48
377.54	692.80
377.74	641.31
377.93	631.94
378.13	688.12
378.33	664.71
378.52	603.86
378.72	685.78
378.91	610.88
379.11	627.26
379.31	657.69
379.50	613.22
379.70	688.12
379.89	753.65
380.09	678.76
380.28	741.95
380.48	774.72
380.68	676.41
380.87	741.95
381.07	748.97
381.26	748.97
381.46	793.44
381.65	788.76
381.85	774.72
382.04	718.54
382.24	727.91
382.43	709.18
382.63	695.14
382.83	781.74
383.02	751.31
383.22	814.51
383.41	741.95
383.61	760.67
383.80	851.96
384.00	809.83
384.19	844.93
384.39	802.80
384.58	837.91
384.78	842.59
384.97	791.10
385.17	774.72
385.36	844.93
385.56	807.48
385.75	800.46
385.95	807.48
386.14	870.68
386.34	856.64
386.53	863.66
386.72	821.53
386.92	847.27
387.11	835.57
387.31	898.77
387.50	830.89
387.70	809.83
387.89	861.32
388.09	933.87
388.28	870.68
388.48	868.34
388.67	917.49
388.86	959.62
389.06	875.36
389.25	947.92
389.45	896.43
389.64	912.81
389.84	901.11
390.03	938.55
390.22	908.13
390.42	908.13
390.61	929.19
390.81	983.02
391.00	924.51
391.19	968.98
391.39	1029.84
391.58	968.98
391.78	973.66
391.97	978.34
392.16	983.02
392.36	1013.45
392.55	1067.28
392.75	1015.79
392.94	994.73
393.13	1036.86
393.33	983.02
393.52	971.32
393.71	1043.88
393.91	1095.37
394.10	1114.10
394.29	1043.88
394.49	1104.73
394.68	1116.44
394.88	1151.54
395.07	1090.69
395.26	1104.73
395.46	1186.65
395.65	1128.14
395.84	1118.78
396.04	1242.82
396.23	1177.29
396.42	1224.10
396.62	1172.61
396.81	1226.44
397.00	1114.10
397.19	1160.91
397.39	1109.41
397.58	1144.52
397.77	1160.91
397.97	1228.78
398.16	1186.65
398.35	1205.38
398.55	1217.08
398.74	1268.57
398.93	1235.80
399.12	1322.40
399.32	1249.85
399.51	1231.12
399.70	1287.29
399.90	1233.46
400.09	1268.57
400.28	1252.19
400.47	1273.25
400.67	1371.55
400.86	1315.38
401.05	1289.64
401.24	1385.60
401.44	1364.53
401.63	1448.79
401.82	1401.98
402.01	1376.24
402.21	1427.73
402.40	1462.83
402.59	1453.47
402.78	1455.81
402.97	1446.45
403.17	1392.62
403.36	1500.28
403.55	1519.01
403.74	1507.30
403.93	1519.01
404.13	1586.88
404.32	1596.25
404.51	1600.93
404.70	1652.42
404.89	1619.65
405.09	1650.08
405.28	1650.08
405.47	1640.72
405.66	1614.97
405.85	1664.12
406.05	1617.31
406.24	1614.97
406.43	1607.95
406.62	1643.06
406.81	1832.64
407.00	1692.21
407.20	1746.04
407.39	1790.51
407.58	1762.42
407.77	1739.02
407.96	1753.06
408.15	1806.89
408.34	1685.19
408.54	1755.40
408.73	1776.47
408.92	1928.60
409.11	1886.47
409.30	1858.39
409.49	2005.84
409.68	1996.48
409.87	1895.83
410.07	1905.20
410.26	1923.92
410.45	1905.20
410.64	2038.61
410.83	1959.03
411.02	2062.01
411.21	2221.17
411.40	2092.44
411.59	2181.38
411.78	2076.06
411.98	2052.65
412.17	2047.97
412.36	2066.69
412.55	2183.72
412.74	2366.28
412.93	2223.51
413.12	2282.02
413.31	2298.41
413.50	2289.04
413.69	2333.51
413.88	2354.58
414.07	2394.37
414.26	2314.79
414.45	2277.34
414.64	2361.60
414.83	2452.88
415.02	2513.74
415.22	2569.91
415.41	2562.89
415.60	2544.16
415.79	2511.39
415.98	2651.83
416.17	2581.61
416.36	2565.23
416.55	2635.44
416.74	2754.81
416.93	2677.57
417.12	2670.55
417.31	2773.53
417.50	2661.19
417.69	2710.34
417.88	2850.77
418.07	2724.38
418.26	2972.48
418.45	2883.54
418.64	2977.16
418.83	2897.58
419.02	2974.82
419.21	2946.73
419.39	2958.44
419.58	2958.44
419.77	2871.84
419.96	3002.91
420.15	3150.36
420.34	3009.93
420.53	3014.61
420.72	3096.53
420.91	3171.43
421.10	3150.36
421.29	3192.49
421.48	3187.81
421.67	3119.93
421.86	3098.87
422.05	3255.69
422.24	3101.21
422.43	3243.98
422.61	3286.11
422.80	3311.86
422.99	3342.28
423.18	3262.71
423.37	3215.90
423.56	3225.26
423.75	3311.86
423.94	3241.64
424.13	3084.83
424.32	3253.34
424.50	3183.13
424.69	3407.82
424.88	3295.47
425.07	3173.77
425.26	3255.69
425.45	3304.84
425.64	3141.00
425.83	3246.32
426.01	3300.16
426.20	3361.01
426.39	3351.65
426.58	3281.43
426.77	3330.58
426.96	3403.14
427.15	3529.53
427.33	3480.38
427.52	3414.84
427.71	3440.59
427.90	3520.17
428.09	3506.12
428.28	3536.55
428.46	3550.59
428.65	3604.42
428.84	3632.51
429.03	3555.27
429.22	3405.48
429.40	3555.27
429.59	3562.30
429.78	3576.34
429.97	3569.32
430.16	3545.91
430.34	3777.62
430.53	3712.09
430.72	3716.77
430.91	3705.07
431.10	3513.14
431.28	3824.44
431.47	3934.44
431.66	3901.67
431.85	3885.29
432.03	3758.90
432.22	3815.07
432.41	3887.63
432.60	3838.48
432.79	3882.95
432.97	3843.16
433.16	3873.59
433.35	3960.19
433.54	3948.48
433.72	4035.08
433.91	4032.74
434.10	3943.80
434.28	3901.67
434.47	4105.30
434.66	4161.47
434.85	4070.19
435.03	4210.62
435.22	4145.09
435.41	4234.03
435.59	4124.02
435.78	4114.66
435.97	4245.73
436.16	4227.01
436.34	4208.28
436.53	4227.01
436.72	4238.71
436.90	4194.24
437.09	4203.60
437.28	4124.02
437.46	4397.87
437.65	4388.50
437.84	4411.91
438.02	4463.40
438.21	4402.55
438.40	4358.08
438.58	4444.68
438.77	4561.70
438.96	4542.98
439.14	4587.45
439.33	4573.41
439.52	4692.77
439.70	4638.94
439.89	4784.06
440.08	4734.90
440.26	4854.27
440.45	4945.55
440.63	4936.19
440.82	4903.42
441.01	4910.44
441.19	5022.79
441.38	5036.83
441.57	4990.02
441.75	5174.92
441.94	5195.99
442.12	5011.09
442.31	5128.11
442.50	5301.31
442.68	5233.44
442.87	5195.99
443.05	5261.52
443.24	5156.20
443.43	5301.31
443.61	5315.36
443.80	5441.75
443.98	5254.50
444.17	5062.58
444.35	5364.51
444.54	5460.47
444.73	5441.75
444.91	5385.57
445.10	5252.16
445.28	5467.49
445.47	5338.76
445.65	5294.29
445.84	5352.81
446.02	5514.30
446.21	5423.02
446.39	5296.63
446.58	5598.56
446.77	5350.46
446.95	5423.02
447.14	5441.75
447.32	5502.60
447.51	5544.73
447.69	5476.85
447.88	5406.64
448.06	5586.86
448.25	5504.94
448.43	5640.69
448.62	5486.22
448.80	5610.26
448.99	5668.78
449.17	5685.16
449.36	5504.94
449.54	5853.68
449.73	5841.98
449.91	5839.64
450.10	5844.32
450.28	5851.34
450.46	5804.53
450.65	5687.50
450.83	5942.62
451.02	5898.15
451.20	5921.56
451.39	5860.70
451.57	5802.19
451.76	5865.38
451.94	6036.24
452.13	5895.81
452.31	5942.62
452.49	5935.60
452.68	5909.85
452.86	6087.73
453.05	6031.56
453.23	6115.82
453.42	5975.39
453.60	6036.24
453.78	6043.26
453.97	6085.39
454.15	6183.70
454.34	6029.22
454.52	6263.27
454.70	6237.53
454.89	6286.68
455.07	6307.74
455.26	6284.34
455.44	6186.04
455.62	6466.90
455.81	6366.26
455.99	6354.55
456.17	6450.52
456.36	6431.79
456.54	6415.41
456.73	6523.07
456.91	6836.70
457.09	6647.12
457.28	6729.04
457.46	6780.53
457.64	6825.00
457.83	6715.00
458.01	6628.40
458.19	6825.00
458.38	6736.06
458.56	6745.42
458.74	6825.00
458.93	6939.69
459.11	6771.17
459.29	6841.39
459.48	6843.73
459.66	6885.86
459.84	6984.16
460.03	7087.14
460.21	7089.48
460.39	6953.73
460.57	7166.72
460.76	7126.93
460.94	7108.21
461.12	7218.21
461.31	7133.95
461.49	7255.66
461.67	7126.93
461.85	7262.68
462.04	7133.95
462.22	7618.44
462.40	7524.82
462.59	7403.11
462.77	7272.04
462.95	7246.30
463.13	7501.42
463.32	7318.86
463.50	7559.93
463.68	7499.08
463.86	7609.08
464.05	7459.29
464.23	7480.35
464.41	7419.50
464.59	7461.63
464.78	7691.00
464.96	7676.96
465.14	7665.25
465.32	7627.81
465.50	7911.01
465.69	7866.54
465.87	7801.01
466.05	7651.21
466.23	7838.45
466.41	7772.92
466.60	8056.12
466.78	7796.32
466.96	7915.69
467.14	7798.66
467.32	7676.96
467.51	7866.54
467.69	7719.09
467.87	8065.49
468.05	8039.74
468.23	7878.24
468.41	7880.58
468.60	8046.76
468.78	8084.21
468.96	7939.10
469.14	8308.90
469.32	8203.58
469.50	8030.38
469.69	8383.80
469.87	8245.71
470.05	8205.92
470.23	8484.44
470.41	8290.18
470.59	8599.13
470.77	8500.83
470.95	8517.21
471.14	8638.92
471.32	8454.02
471.50	8596.79
471.68	8557.00
471.86	8795.73
472.04	8706.79
472.22	8879.99
472.40	8755.94
472.58	8650.62
472.77	8699.77
472.95	8877.65
473.13	9254.48
473.31	9097.66
473.49	9043.83
473.67	8926.80
473.85	9053.19
474.03	9357.46
474.21	9238.09
474.39	9315.33
474.57	9273.20
474.75	9451.08
474.93	9387.89
475.12	9259.16
475.30	9554.07
475.48	9401.93
475.66	9701.52
475.84	9745.99
476.02	9544.70
476.20	9753.01
476.38	9856.00
476.56	10171.97
476.74	9980.04
476.92	9825.57
477.10	9771.74
477.28	10101.75
477.46	10157.92
477.64	10164.95
477.82	10377.94
478.00	10775.83
478.18	10714.97
478.36	10661.14
478.54	10736.04
478.72	10726.68
478.90	10956.05
479.08	11054.35
479.26	11218.19
479.44	10953.71
479.62	11250.96
479.80	11204.14
479.98	11316.49
480.16	11559.91
480.34	11337.56
480.52	11702.68
480.70	11749.49
480.88	11662.89
481.06	11639.48
481.24	11859.49
481.41	11880.56
481.59	12397.82
481.77	12194.19
481.95	12341.64
482.13	12407.18
482.31	12072.48
482.49	12650.60
482.67	12814.43
482.85	12718.47
483.03	13135.09
483.21	13214.66
483.39	13184.24
483.57	13128.06
483.74	12849.54
483.92	13324.67
484.10	13198.28
484.28	13544.68
484.46	13703.84
484.64	14031.51
484.82	13710.86
485.00	13874.70
485.18	14270.25
485.35	14406.00
485.53	14396.64
485.71	14382.59
485.89	14691.54
486.07	14539.41
486.25	14499.62
486.43	15012.20
486.61	14813.25
486.78	14920.92
486.96	15272.00
487.14	15286.04
487.32	15229.87
487.50	15594.99
487.68	15644.14
487.85	15845.43
488.03	16210.55
488.21	16203.53
488.39	16287.79
488.57	16283.11
488.75	16248.00
488.92	16376.73
489.10	16702.06
489.28	16460.99
489.46	16858.88
489.64	17041.44
489.81	17132.72
489.99	16973.56
490.17	17348.05
490.35	17631.26
490.53	17479.12
490.70	17591.47
490.88	17692.11
491.06	17935.53
491.24	17858.29
491.41	17860.63
491.59	18216.39
491.77	18235.11
491.95	18691.52
492.13	18520.66
492.30	18874.08
492.48	19110.47
492.66	18588.53
492.84	18642.37
493.01	19009.83
493.19	18991.11
493.37	19325.80
493.54	19538.79
493.72	19477.94
493.90	19506.02
494.08	20109.88
494.25	19669.86
494.43	19831.36
494.61	20231.59
494.79	20077.12
494.96	20208.19
495.14	20540.54
495.32	20402.45
495.49	20512.46
495.67	20648.21
495.85	20978.22
496.02	20975.88
496.20	21177.17
496.38	21448.67
496.55	21296.53
496.73	21720.17
496.91	21561.02
497.09	21678.04
497.26	21514.20
497.44	21699.11
497.62	22024.44
497.79	22401.27
497.97	22150.83
498.14	22129.77
498.32	22483.19
498.50	22305.31
498.67	22864.69
498.85	22841.29
499.03	22925.55
499.20	22764.05
499.38	23033.21
499.56	23007.47
499.73	23126.83
499.91	22998.10
500.08	23314.08
500.26	23185.35
500.44	23688.56
500.61	23501.32
500.79	23669.84
500.97	23627.71
501.14	24058.37
501.32	24091.13
501.49	23679.20
501.67	24149.65
501.84	24577.97
502.02	24269.01
502.20	24266.67
502.37	24304.12
502.55	24451.58
502.72	24308.80
502.90	24683.29
503.07	24379.02
503.25	24985.22
503.43	24540.52
503.60	25036.71
503.78	25153.74
503.95	25296.51
504.13	25156.08
504.30	25069.48
504.48	25088.20
504.65	25441.62
504.83	25329.28
505.01	25888.67
505.18	26089.95
505.36	26059.52
505.53	26054.84
505.71	26092.29
505.88	26256.13
506.06	25689.72
506.23	25853.56
506.41	26565.08
506.58	26295.92
506.76	26326.35
506.93	26609.55
507.11	26457.42
507.28	26923.18
507.46	26525.29
507.63	27454.48
507.81	27236.81
507.98	26637.64
508.16	26937.23
508.33	27140.85
508.50	27779.82
508.68	27548.11
508.85	27283.62
509.03	27473.21
509.20	27559.81
509.38	28002.17
509.55	27618.32
509.73	27960.04
509.90	27983.44
510.08	27770.46
510.25	27880.46
510.42	28086.43
510.60	28428.15
510.77	28278.35
510.95	28601.35
511.12	28278.35
511.30	28353.25
511.47	28666.88
511.64	28896.25
511.82	29170.10
511.99	29195.84
512.17	28828.38
512.34	28666.88
512.51	29160.73
512.69	29504.79
512.86	29202.86
513.04	29565.65
513.21	29013.28
513.38	29750.55
513.56	29441.60
513.73	29614.80
513.90	29612.46
514.08	29869.92
514.25	30059.50
514.43	30052.48
514.60	30127.38
514.77	29900.34
514.95	29942.47
515.12	30155.46
515.29	30185.89
515.47	30630.59
515.64	30321.64
515.81	30309.94
515.99	30314.62
516.16	30946.56
516.33	30902.09
516.51	30719.53
516.68	30693.79
516.85	30675.06
517.03	30981.67
517.20	30899.75
517.37	31417.01
517.54	31007.42
517.72	31122.10
517.89	31058.91
518.06	31622.98
518.24	31566.81
518.41	31171.25
518.58	31510.63
518.75	31651.06
518.93	31702.56
519.10	31754.05
519.27	31915.54
519.45	31910.86
519.62	31922.57
519.79	32142.58
519.96	32182.37
520.14	32563.87
520.31	32477.27
520.48	32231.52
520.65	31922.57
520.83	32708.99
521.00	32872.82
521.17	32650.47
521.34	32591.96
521.52	32730.05
521.69	33207.52
521.86	32882.19
522.03	33046.02
522.20	33308.16
522.38	33315.19
522.55	32987.51
522.72	33572.64
522.89	33113.90
523.07	33247.31
523.24	33156.03
523.41	33507.11
523.58	33043.68
523.75	33687.33
523.92	33558.60
524.10	33804.36
524.27	33872.23
524.44	33886.28
524.61	34026.71
524.78	33968.19
524.96	34185.86
525.13	34071.18
525.30	33951.81
525.47	34614.18
525.64	34810.79
525.81	34555.67
525.98	34279.49
526.16	34550.99
526.33	34532.26
526.50	34841.21
526.67	34455.03
526.84	34766.32
527.01	34756.96
527.18	34988.67
527.36	34864.62
527.53	35157.19
527.70	35447.41
527.87	35402.94
528.04	34916.11
528.21	35138.46
528.38	34768.66
528.55	35351.45
528.72	35641.68
528.89	35353.79
529.07	35349.11
529.24	35332.73
529.41	35833.60
529.58	35562.10
529.75	35536.35
529.92	35756.36
530.09	35466.14
530.26	35814.88
530.43	35887.43
530.60	35908.50
530.77	35915.52
530.94	36254.90
531.11	36135.53
531.28	35810.20
531.46	36329.80
531.63	36416.40
531.80	36072.34
531.97	36137.87
532.14	36182.34
532.31	36194.04
532.48	36774.50
532.65	36849.39
532.82	36121.49
532.99	36451.50
533.16	36524.06
533.33	36863.44
533.50	36821.31
533.67	36437.46
533.84	36514.70
534.01	37198.13
534.18	36933.65
534.35	37020.25
534.52	37319.84
534.69	37387.72
534.86	37858.17
535.03	37432.19
535.20	37432.19
535.37	37074.09
535.54	37673.26
535.71	37504.74
535.88	37404.10
536.05	37560.92
536.22	37919.02
536.38	37633.47
536.55	37734.12
536.72	37834.76
536.89	37926.04
537.06	37797.31
537.23	38120.31
537.40	37518.79
537.57	37818.38
537.74	37893.27
537.91	37837.10
538.08	38232.65
538.25	37769.22
538.42	38373.08
538.59	38480.75
538.75	38092.22
538.92	38260.74
539.09	38604.80
539.26	38424.57
539.43	37940.08
539.60	38148.39
539.77	38738.21
539.94	38946.51
540.11	38515.86
540.28	38703.10
540.44	38810.76
540.61	38646.93
540.78	38693.74
540.95	38909.07
541.12	38916.09
541.29	38799.06
541.46	38995.67
541.62	38817.78
541.79	39014.39
541.96	38478.41
542.13	38873.96
542.30	39274.19
542.47	39093.97
542.63	39234.40
542.80	39072.90
542.97	39917.84
543.14	39679.10
543.31	40048.91
543.48	39683.78
543.64	39927.20
543.81	40273.60
543.98	40046.57
544.15	39711.87
544.32	40444.46
544.48	40549.78
544.65	40292.32
544.82	40409.35
544.99	40194.02
545.16	40025.50
545.32	40034.86
545.49	40229.13
545.66	40872.78
545.83	40509.99
546.00	40507.65
546.16	40456.16
546.33	40018.48
546.50	40027.84
546.67	40903.20
546.83	40465.52
547.00	40526.38
547.17	40280.62
547.34	40697.24
547.50	40704.26
547.67	41013.21
547.84	40858.73
548.00	40865.75
548.17	41551.53
548.34	41422.80
548.51	40701.92
548.67	41294.07
548.84	41425.14
549.01	40903.20
549.18	41010.87
549.34	41418.12
549.51	41291.73
549.68	41483.66
549.84	41523.44
550.01	41851.12
550.18	41294.07
550.34	41256.62
550.51	41429.82
550.68	41507.06
550.84	41375.99
551.01	41481.31
551.18	41273.01
551.34	41558.55
551.51	42012.62
551.68	41808.99
551.84	41628.77
552.01	41729.41
552.18	42010.28
552.34	41500.04
552.51	41668.56
552.68	42197.52
552.84	42117.94
553.01	41741.11
553.18	41787.92
553.34	42382.42
553.51	41890.91
553.67	42279.44
553.84	42176.45
554.01	42431.57
554.17	42181.13
554.34	42349.65
554.51	42607.11
554.67	42429.23
554.84	42501.79
555.00	42539.24
555.17	42178.79
555.33	42265.39
555.50	42335.61
555.67	42415.19
555.83	42307.52
556.00	42621.16
556.16	42719.46
556.33	42717.12
556.50	42845.85
556.66	42850.53
556.83	42986.28
556.99	42595.41
557.16	42913.72
557.32	43035.43
557.49	42878.61
557.65	42792.01
557.82	42810.74
557.98	42644.56
558.15	42637.54
558.32	43021.39
558.48	42948.83
558.65	42911.38
558.81	42674.99
558.98	42480.72
559.14	43065.86
559.31	42951.17
559.47	43295.23
559.64	43360.76
559.80	43316.29
559.97	43232.04
560.13	42941.81
560.30	42845.85
560.46	43863.98
560.63	43398.21
560.79	43842.92
560.96	43756.32
561.12	43669.72
561.29	43487.15
561.45	43672.06
561.61	43805.47
561.78	43805.47
561.94	43475.45
562.11	43372.47
562.27	43807.81
562.44	43552.69
562.60	43667.37
562.77	43590.14
562.93	43629.93
563.10	43821.85
563.26	43763.34
563.42	44079.31
563.59	43374.81
563.75	43395.87
563.92	43915.47
564.08	43833.55
564.24	44664.44
564.41	43543.33
564.57	43814.83
564.74	43999.73
564.90	43646.31
565.07	43936.54
565.23	44119.10
565.39	43931.86
565.56	44020.80
565.72	44198.68
565.88	43529.28
566.05	44114.42
566.21	44060.58
566.38	44360.17
566.54	44191.65
566.70	43938.88
566.87	43920.15
567.03	44128.46
567.19	44535.71
567.36	44091.01
567.52	44093.35
567.68	44182.29
567.85	44526.35
568.01	44708.91
568.17	44086.33
568.34	44135.48
568.50	44271.23
568.66	44069.95
568.83	44037.18
568.99	44011.43
569.15	44467.84
569.32	43917.81
569.48	43915.47
569.64	44657.42
569.81	44385.92
569.97	44783.81
570.13	44758.06
570.30	43899.09
570.46	44322.72
570.62	44795.51
570.78	44524.01
570.95	44339.11
571.11	44552.10
571.27	44809.56
571.43	43936.54
571.60	44624.65
571.76	44624.65
571.92	44261.87
572.09	44566.14
572.25	44194.00
572.41	44442.09
572.57	44502.95
572.74	44540.39
572.90	44437.41
573.06	44655.08
573.22	44568.48
573.38	44474.86
573.55	44727.64
573.71	44999.14
573.87	45015.52
574.03	44524.01
574.20	44959.35
574.36	45120.85
574.52	45083.40
574.68	44921.90
574.84	45139.57
575.01	44765.09
575.17	44636.36
575.33	44706.57
575.49	44842.32
575.65	45029.57
575.82	44957.01
575.98	44739.34
576.14	45088.08
576.30	44889.13
576.46	44545.08
576.62	44992.12
576.79	44706.57
576.95	44655.08
577.11	44509.97
577.27	45081.06
577.43	45146.59
577.59	44601.25
577.75	44875.09
577.92	44453.79
578.08	45048.29
578.24	44561.46
578.40	44966.37
578.56	44931.26
578.72	44921.90
578.88	45034.25
579.04	45045.95
579.21	44744.02
579.37	44804.88
579.53	44865.73
579.69	44538.05
579.85	44659.76
580.01	44765.09
580.17	44673.81
580.33	45631.08
580.49	44758.06
580.65	44935.95
580.82	44968.71
580.98	44732.32
581.14	44584.86
581.30	44701.89
581.46	44559.12
581.62	45191.06
581.78	44652.74
581.94	45223.83
582.10	45083.40
582.26	45099.78
582.42	45263.62
582.58	45495.33
582.74	45214.47
582.90	45268.30
583.06	45371.28
583.22	44811.90
583.38	44903.18
583.54	45045.95
583.70	45184.04
583.86	44961.69
584.02	45462.57
584.18	45270.64
584.34	45301.07
584.50	45085.74
584.66	45081.06
584.82	45090.42
584.98	45268.30
585.14	45291.71
585.30	45258.94
585.46	45385.33
585.62	44769.77
585.78	45258.94
585.94	45179.36
586.10	45102.12
586.26	44952.33
586.42	44847.00
586.58	45010.84
586.74	45308.09
586.90	45151.27
587.06	45378.31
587.22	45375.97
587.38	45141.91
587.54	45483.63
587.70	45298.73
587.86	45422.78
588.02	45195.74
588.18	45127.87
588.34	45378.31
588.49	45420.44
588.65	44839.98
588.81	45219.15
588.97	45350.22
589.13	45064.67
589.29	45230.85
589.45	45535.12
589.61	45436.82
589.77	45621.72
589.93	45478.95
590.08	45270.64
590.24	45439.16
