SpectraSuite Data File
++++++++++++++++++++++++++++++++++++
Date: Fri Oct 25 11:26:36 EDT 2013
User: price-jones
Dark Spectrum Present: No
Reference Spectrum Present: No
Number of Sampled Component Spectra: 1
Spectrometers: USB2+H05261
Integration Time (usec): 100000 (USB2+H05261)
Spectra Averaged: 1 (USB2+H05261)
Boxcar Smoothing: 0 (USB2+H05261)
Correct for Electrical Dark: No (USB2+H05261)
Strobe/Lamp Enabled: No (USB2+H05261)
Correct for Detector Non-linearity: No (USB2+H05261)
Correct for Stray Light: No (USB2+H05261)
Number of Pixels in Processed Spectrum: 2048
>>>>>Begin Processed Spectral Data<<<<<
365.73	210.65
365.92	210.65
366.12	210.65
366.32	140.43
366.52	168.52
366.72	231.71
366.91	168.52
367.11	201.29
367.31	173.20
367.51	65.54
367.70	177.88
367.90	194.26
368.10	58.51
368.30	119.37
368.49	168.52
368.69	198.95
368.89	163.84
369.09	159.16
369.28	191.92
369.48	159.16
369.68	173.20
369.87	182.56
370.07	175.54
370.27	301.93
370.47	304.27
370.66	603.86
370.86	653.01
371.06	657.69
371.25	713.86
371.45	648.33
371.65	716.20
371.84	667.05
372.04	681.10
372.24	727.91
372.44	667.05
372.63	767.70
372.83	681.10
373.03	739.61
373.22	814.51
373.42	695.14
373.62	777.06
373.81	748.97
374.01	781.74
374.21	758.33
374.40	903.45
374.60	809.83
374.79	835.57
374.99	889.40
375.19	856.64
375.38	819.19
375.58	840.25
375.78	898.77
375.97	922.17
376.17	896.43
376.37	896.43
376.56	880.04
376.76	973.66
376.95	863.66
377.15	919.83
377.35	910.47
377.54	912.81
377.74	887.06
377.93	833.23
378.13	929.19
378.33	1001.75
378.52	945.58
378.72	997.07
378.91	994.73
379.11	912.81
379.31	851.96
379.50	945.58
379.70	940.90
379.89	936.21
380.09	997.07
380.28	1046.22
380.48	957.28
380.68	1050.90
380.87	978.34
381.07	1020.47
381.26	1097.71
381.46	1041.54
381.65	1048.56
381.85	1081.33
382.04	1060.26
382.24	1100.05
382.43	1039.20
382.63	1078.99
382.83	1048.56
383.02	1015.79
383.22	1137.50
383.41	1060.26
383.61	1046.22
383.80	1088.35
384.00	1086.01
384.19	1125.80
384.39	1109.41
384.58	1146.86
384.78	1121.12
384.97	1184.31
385.17	1107.07
385.36	1111.75
385.56	1200.69
385.75	1165.59
385.95	1184.31
386.14	1188.99
386.34	1245.16
386.53	1217.08
386.72	1210.06
386.92	1207.72
387.11	1329.42
387.31	1266.23
387.50	1306.02
387.70	1137.50
387.89	1205.38
388.09	1282.61
388.28	1242.82
388.48	1235.80
388.67	1277.93
388.86	1350.49
389.06	1373.89
389.25	1299.00
389.45	1439.43
389.64	1385.60
389.84	1430.07
390.03	1462.83
390.22	1359.85
390.42	1397.30
390.61	1338.79
390.81	1371.55
391.00	1394.96
391.19	1474.54
391.39	1514.33
391.58	1437.09
391.78	1497.94
391.97	1427.73
392.16	1416.02
392.36	1589.22
392.55	1561.14
392.75	1605.61
392.94	1497.94
393.13	1511.99
393.33	1511.99
393.52	1579.86
393.71	1554.12
393.91	1568.16
394.10	1661.78
394.29	1647.74
394.49	1565.82
394.68	1661.78
394.88	1659.44
395.07	1638.38
395.26	1713.27
395.46	1687.53
395.65	1762.42
395.84	1792.85
396.04	1809.23
396.23	1692.21
396.42	1696.89
396.62	1797.53
396.81	1781.15
397.00	1792.85
397.19	1776.47
397.39	1710.93
397.58	1893.49
397.77	1746.04
397.97	1820.94
398.16	1867.75
398.35	1856.04
398.55	1865.41
398.74	1940.30
398.93	1989.46
399.12	1877.11
399.32	1928.60
399.51	1879.45
399.70	2066.69
399.90	1980.09
400.09	2038.61
400.28	2047.97
400.47	2029.24
400.67	2024.56
400.86	2115.84
401.05	2003.50
401.24	1994.14
401.44	2019.88
401.63	2200.10
401.82	2097.12
402.01	2253.94
402.21	2333.51
402.40	2237.55
402.59	2186.06
402.78	2260.96
402.97	2207.13
403.17	2286.70
403.36	2310.11
403.55	2277.34
403.74	2303.09
403.93	2415.43
404.13	2289.04
404.32	2417.77
404.51	2408.41
404.70	2406.07
404.89	2502.03
405.09	2516.08
405.28	2480.97
405.47	2464.58
405.66	2572.25
405.85	2597.99
406.05	2605.02
406.24	2583.95
406.43	2537.14
406.62	2733.75
406.81	2745.45
407.00	2693.96
407.20	2679.91
407.39	2574.59
407.58	2750.13
407.77	2602.68
407.96	2818.00
408.15	2801.62
408.34	2775.88
408.54	2775.88
408.73	2780.56
408.92	2864.82
409.11	2916.31
409.30	2836.73
409.49	2848.43
409.68	2963.12
409.87	2902.26
410.07	3026.31
410.26	3131.64
410.45	2965.46
410.64	3075.46
410.83	3126.96
411.02	2932.69
411.21	3213.56
411.40	3059.08
411.59	3318.88
411.78	3232.28
411.98	3155.04
412.17	3288.45
412.36	3370.37
412.55	3251.00
412.74	3337.60
412.93	3445.27
413.12	3302.50
413.31	3590.38
413.50	3536.55
413.69	3442.93
413.88	3562.30
414.07	3527.19
414.26	3653.58
414.45	3712.09
414.64	3728.47
414.83	3735.50
415.02	3885.29
415.22	3861.88
415.41	3742.52
415.60	3887.63
415.79	3906.35
415.98	4109.98
416.17	3983.59
416.36	3950.82
416.55	3997.64
416.74	4093.60
416.93	4063.17
417.12	4208.28
417.31	4241.05
417.50	4135.73
417.69	4381.48
417.88	4301.90
418.07	4280.84
418.26	4290.20
418.45	4306.59
418.64	4428.29
418.83	4355.74
419.02	4519.57
419.21	4587.45
419.39	4425.95
419.58	4491.49
419.77	4514.89
419.96	4484.47
420.15	4573.41
420.34	4594.47
420.53	4681.07
420.72	4606.17
420.91	4734.90
421.10	4858.95
421.29	4753.63
421.48	4758.31
421.67	4842.57
421.86	4753.63
422.05	4842.57
422.24	4856.61
422.43	4980.66
422.61	4994.70
422.80	4880.02
422.99	4922.15
423.18	4919.81
423.37	5041.51
423.56	4954.91
423.75	5004.07
423.94	4858.95
424.13	4643.62
424.32	4739.58
424.50	5064.92
424.69	5041.51
424.88	5090.67
425.07	5100.03
425.26	4957.25
425.45	5034.49
425.64	4950.23
425.83	4931.51
426.01	4992.36
426.20	5111.73
426.39	5011.09
426.58	5111.73
426.77	5100.03
426.96	5184.29
427.15	5151.52
427.33	5413.66
427.52	5195.99
427.71	5303.65
427.90	5233.44
428.09	5266.21
428.28	5502.60
428.46	5444.09
428.65	5359.83
428.84	5476.85
429.03	5717.93
429.22	5540.05
429.40	5472.17
429.59	5556.43
429.78	5320.04
429.97	5369.19
430.16	5692.18
430.34	5706.23
430.53	5853.68
430.72	5692.18
430.91	5626.65
431.10	5619.63
431.28	5762.40
431.47	5874.74
431.66	5933.26
431.85	5715.59
432.03	5968.37
432.22	6071.35
432.41	5893.47
432.60	6099.44
432.79	6258.59
432.97	5984.75
433.16	6054.97
433.35	5966.03
433.54	5916.87
433.72	6232.85
433.91	6174.33
434.10	6190.72
434.28	5959.00
434.47	6209.44
434.66	6282.00
434.85	6373.28
435.03	6258.59
435.22	6328.81
435.41	6546.48
435.59	6476.26
435.78	6527.75
435.97	6480.94
436.16	6459.88
436.34	6384.98
436.53	6466.90
436.72	6609.67
436.90	6607.33
437.09	6686.91
437.28	6619.04
437.46	6796.92
437.65	6677.55
437.84	6864.79
438.02	6834.36
438.21	6817.98
438.40	6745.42
438.58	6944.37
438.77	7117.57
438.96	6986.50
439.14	7143.32
439.33	7363.33
439.52	7253.32
439.70	7377.37
439.89	7250.98
440.08	7379.71
440.26	7421.84
440.45	7241.62
440.63	7510.78
440.82	7583.34
441.01	7506.10
441.19	7660.57
441.38	7744.83
441.57	7810.37
441.75	7880.58
441.94	8025.70
442.12	7969.52
442.31	8046.76
442.50	8226.98
442.68	7899.31
442.87	8013.99
443.05	7922.71
443.24	8084.21
443.43	8163.79
443.61	8046.76
443.80	8477.42
443.98	8222.30
444.17	7995.27
444.35	8278.47
444.54	8439.97
444.73	8238.69
444.91	8149.75
445.10	8369.76
445.28	8374.44
445.47	8374.44
445.65	8458.70
445.84	8358.05
446.02	8430.61
446.21	8348.69
446.39	8545.30
446.58	8542.96
446.77	8655.30
446.95	8156.77
447.14	8446.99
447.32	8580.40
447.51	8514.87
447.69	8524.23
447.88	8669.34
448.06	8683.39
448.25	8571.04
448.43	8683.39
448.62	8795.73
448.80	8624.87
448.99	8842.54
449.17	8882.33
449.36	8620.19
449.54	8875.31
449.73	9195.96
449.91	9238.09
450.10	9050.85
450.28	9172.56
450.46	9137.45
450.65	9085.96
450.83	9132.77
451.02	9221.71
451.20	9317.67
451.39	9217.03
451.57	9142.13
451.76	9043.83
451.94	8980.64
452.13	9369.16
452.31	9394.91
452.49	9107.02
452.68	9355.12
452.86	9008.72
453.05	9561.09
453.23	9596.20
453.42	9525.98
453.60	9439.38
453.78	9547.05
453.97	9542.36
454.15	9465.13
454.34	9488.53
454.52	9689.82
454.70	9930.89
454.89	9926.21
455.07	9736.63
455.26	9809.19
455.44	10010.47
455.62	9886.42
455.81	10087.71
455.99	10178.99
456.17	10221.12
456.36	10160.27
456.54	10176.65
456.73	10115.80
456.91	10527.73
457.09	10483.26
457.28	10698.59
457.46	10443.47
457.64	10478.58
457.83	10532.41
458.01	10310.06
458.19	10698.59
458.38	10677.52
458.56	10546.45
458.74	10768.80
458.93	10658.80
459.11	11063.71
459.29	10937.32
459.48	11101.16
459.66	10909.24
459.84	11000.52
460.03	11154.99
460.21	11073.07
460.39	11007.54
460.57	11005.20
460.76	11272.02
460.94	11061.37
461.12	11314.15
461.31	11145.63
461.49	11131.59
461.67	11140.95
461.85	11550.54
462.04	11311.81
462.22	11616.08
462.40	11583.31
462.59	11468.62
462.77	11515.44
462.95	11864.18
463.13	11646.51
463.32	11927.37
463.50	11693.32
463.68	11815.02
463.86	12018.65
464.05	11705.02
464.23	11882.90
464.41	12187.17
464.59	11927.37
464.78	11995.25
464.96	12020.99
465.14	11946.09
465.32	12025.67
465.50	12060.78
465.69	12622.51
465.87	12161.42
466.05	12362.71
466.23	12360.37
466.41	12236.32
466.60	12241.00
466.78	12049.08
466.96	12329.94
467.14	12446.97
467.32	12505.48
467.51	12556.97
467.69	12304.20
467.87	12425.90
468.05	12657.62
468.23	12648.26
468.41	12390.80
468.60	12596.76
468.78	12636.55
468.96	12671.66
469.14	12812.09
469.32	13020.40
469.50	12615.49
469.69	12940.82
469.87	13088.28
470.05	13074.23
470.23	13280.20
470.41	13280.20
470.59	13128.06
470.77	13312.97
470.95	13235.73
471.14	13593.83
471.32	13296.58
471.50	13654.69
471.68	13504.89
471.86	13778.73
472.04	13650.00
472.22	14061.94
472.40	13731.92
472.58	13657.03
472.77	13923.85
472.95	14134.50
473.13	14787.50
473.31	14174.28
473.49	14246.84
473.67	14312.38
473.85	14410.68
474.03	14747.72
474.21	14665.80
474.39	14736.01
474.57	14944.32
474.75	14864.74
474.93	14801.55
475.12	15019.22
475.30	15075.39
475.48	15204.12
475.66	15262.63
475.84	15187.74
476.02	15492.01
476.20	15037.94
476.38	15894.58
476.56	15971.82
476.74	15843.09
476.92	15974.16
477.10	16018.63
477.28	16016.29
477.46	16379.07
477.64	16496.10
477.82	16446.94
478.00	17216.98
478.18	16879.94
478.36	16762.92
478.54	17083.57
478.72	17153.79
478.90	17462.74
479.08	17715.51
479.26	17858.29
479.44	17841.90
479.62	18001.06
479.80	17968.29
479.98	18366.18
480.16	18705.56
480.34	18417.68
480.52	18586.19
480.70	18750.03
480.88	18310.01
481.06	18845.99
481.24	18661.09
481.41	19126.86
481.59	19396.02
481.77	19482.62
481.95	19868.81
482.13	19840.72
482.31	19688.59
482.49	20308.83
482.67	20175.42
482.85	20554.58
483.03	21074.18
483.21	20936.09
483.39	21001.63
483.57	20940.77
483.74	21378.45
483.92	21425.26
484.10	21247.38
484.28	21614.85
484.46	21839.54
484.64	22478.50
484.82	22354.46
485.00	22661.07
485.18	22789.80
485.35	22967.68
485.53	23157.26
485.71	23063.64
485.89	23194.71
486.07	23550.47
486.25	23611.32
486.43	23847.72
486.61	23730.69
486.78	24203.48
486.96	24276.04
487.14	24706.70
487.32	24819.04
487.50	24772.23
487.68	25298.85
487.85	25085.86
488.03	25420.56
488.21	26003.35
488.39	25858.24
488.57	26438.69
488.75	26197.62
488.92	26513.59
489.10	26515.93
489.28	26869.35
489.46	27084.68
489.64	27068.30
489.81	27721.30
489.99	27931.95
490.17	27910.89
490.35	28339.21
490.53	28402.40
490.70	27971.74
490.88	28428.15
491.06	28744.12
491.24	28999.24
491.41	29160.73
491.59	29202.86
491.77	29448.62
491.95	29785.66
492.13	29638.20
492.30	30040.78
492.48	30169.51
492.66	30323.98
492.84	30361.43
493.01	31035.50
493.19	30630.59
493.37	30855.28
493.54	31681.49
493.72	31548.08
493.90	31555.10
494.08	31854.69
494.25	32009.17
494.43	32201.09
494.61	32751.12
494.79	32587.28
494.96	32205.77
495.14	32772.18
495.32	33120.92
495.49	33153.69
495.67	33331.57
495.85	33401.79
496.02	34068.84
496.20	34195.23
496.38	33895.64
496.55	34492.47
496.73	35276.55
496.91	34565.03
497.09	34796.74
497.26	35220.38
497.44	34801.43
497.62	35239.11
497.79	36116.81
497.97	35349.11
498.14	35945.95
498.32	36446.82
498.50	36620.02
498.67	36547.47
498.85	36781.52
499.03	36732.37
499.20	36594.28
499.38	37368.99
499.56	37273.03
499.73	37207.50
499.91	37694.33
500.08	37418.14
500.26	37361.97
500.44	37708.37
500.61	38347.34
500.79	38071.15
500.97	38279.46
501.14	38986.30
501.32	38492.45
501.49	38543.94
501.67	38810.76
501.84	39288.23
502.02	38667.99
502.20	39133.76
502.37	39065.88
502.55	39442.71
502.72	39466.11
502.90	39784.43
503.07	39931.88
503.25	40018.48
503.43	39819.53
503.60	40187.00
503.78	40161.25
503.95	40739.36
504.13	40933.63
504.30	40498.29
504.48	40877.46
504.65	40931.29
504.83	41055.34
505.01	41731.75
505.18	41434.50
505.36	41947.08
505.53	41455.57
505.71	41724.73
505.88	42206.88
506.06	41684.94
506.23	42237.31
506.41	41991.55
506.58	42321.57
506.76	42698.39
506.93	42232.63
507.11	42410.51
507.28	42887.98
507.46	43079.90
507.63	43096.28
507.81	43234.38
507.98	42728.82
508.16	43281.19
508.33	43613.54
508.50	43269.48
508.68	43779.72
508.85	43945.90
509.03	44226.76
509.20	44261.87
509.38	44308.68
509.55	44591.89
509.73	44278.25
509.90	44711.25
510.08	44533.37
510.25	44847.00
510.42	45177.02
510.60	44708.91
510.77	44957.01
510.95	45921.31
511.12	45603.00
511.30	45436.82
511.47	45776.20
511.64	45584.27
511.82	45872.16
511.99	45631.08
512.17	46314.52
512.34	45860.46
512.51	46319.20
512.69	46841.14
512.86	46232.60
513.04	46752.20
513.21	47107.96
513.38	46735.82
513.56	47313.93
513.73	46906.68
513.90	47391.17
514.08	46983.91
514.25	47129.03
514.43	47264.78
514.60	47388.83
514.77	47433.30
514.95	47718.84
515.12	47852.25
515.29	47803.10
515.47	48095.67
515.64	48126.10
515.81	47861.61
515.99	48224.40
516.16	48751.02
516.33	48751.02
516.51	48566.12
516.68	48446.75
516.85	49144.23
517.03	49188.70
517.20	48851.66
517.37	48989.75
517.54	48966.35
517.72	49193.38
517.89	49226.15
518.06	49471.90
518.24	49647.44
518.41	49666.17
518.58	49577.23
518.75	49518.71
518.93	49757.45
519.10	49434.45
519.27	49808.94
519.45	49591.27
519.62	50106.19
519.79	49972.78
519.96	50073.42
520.14	50373.01
520.31	50155.34
520.48	50693.66
520.65	50726.43
520.83	50995.59
521.00	50707.71
521.17	50529.83
521.34	51161.77
521.52	50749.84
521.69	51028.36
521.86	50705.37
522.03	50960.48
522.20	51456.68
522.38	51767.97
522.55	51639.24
522.72	51412.21
522.89	51454.34
523.07	51215.60
523.24	51793.71
523.41	51856.91
523.58	51428.59
523.75	51810.10
523.92	51915.42
524.10	52023.09
524.27	52250.12
524.44	52102.67
524.61	52177.56
524.78	52437.36
524.96	52306.29
525.13	52133.09
525.30	52416.30
525.47	52538.01
525.64	52317.99
525.81	52739.29
525.98	52633.97
526.16	52699.50
526.33	52835.25
526.50	53521.03
526.67	53118.46
526.84	53059.94
527.01	52779.08
527.18	53322.08
527.36	52945.26
527.53	53169.95
527.70	53289.32
527.87	53396.98
528.04	53279.96
528.21	53532.73
528.38	53418.05
528.55	53663.80
528.72	53727.00
528.89	53521.03
529.07	53394.64
529.24	53453.15
529.41	53886.15
529.58	53897.86
529.75	53703.59
529.92	53731.68
530.09	54073.40
530.26	53993.82
530.43	54143.61
530.60	53844.02
530.77	54033.61
530.94	54155.32
531.11	54195.10
531.28	54078.08
531.46	54447.88
531.63	54508.74
531.80	54326.17
531.97	54174.04
532.14	54349.58
532.31	54541.50
532.48	54761.51
532.65	55009.61
532.82	54796.62
532.99	54946.42
533.16	54672.57
533.33	54651.51
533.50	54880.88
533.67	55011.95
533.84	54740.45
534.01	54836.41
534.18	55224.94
534.35	55370.05
534.52	54988.55
534.69	55213.24
534.86	55248.35
535.03	55210.90
535.20	55274.09
535.37	55501.12
535.54	55662.62
535.71	55412.18
535.88	55702.41
536.05	55437.93
536.22	55622.83
536.38	55763.26
536.55	55671.98
536.72	55643.90
536.89	55590.06
537.06	55859.23
537.23	55580.70
537.40	55915.40
537.57	55819.44
537.74	55732.84
537.91	55966.89
538.08	55866.25
538.25	55896.67
538.42	55987.95
538.59	56128.39
538.75	55927.10
538.92	56123.71
539.09	56411.59
539.26	56102.64
539.43	56189.24
539.60	56509.89
539.77	56287.54
539.94	56460.74
540.11	56296.91
540.28	56435.00
540.44	56720.54
540.61	56413.93
540.78	56409.25
540.95	56685.43
541.12	56619.90
541.29	56453.72
541.46	56535.64
541.62	56776.72
541.79	56720.54
541.96	56367.12
542.13	56774.37
542.30	56650.33
542.47	57083.33
542.63	56842.25
542.80	56884.38
542.97	57160.56
543.14	57216.74
543.31	57453.13
543.48	57481.22
543.64	57626.33
543.81	57558.45
543.98	57293.97
544.15	57364.19
544.32	57602.92
544.48	57544.41
544.65	57509.30
544.82	57513.98
544.99	57282.27
545.16	57581.86
545.32	57537.39
545.49	57925.92
545.66	57930.60
545.83	57736.34
546.00	57797.19
546.16	57780.81
546.33	57511.64
546.50	57509.30
546.67	57626.33
546.83	57652.08
547.00	57825.28
547.17	57921.24
547.34	57808.89
547.50	57970.39
547.67	58230.19
547.84	58157.63
548.00	58372.96
548.17	58361.26
548.34	58171.67
548.51	58342.53
548.67	58358.92
548.84	58244.23
549.01	58143.59
549.18	58150.61
549.34	58323.81
549.51	58377.64
549.68	58412.75
549.84	58328.49
550.01	58356.58
550.18	58300.40
550.34	58295.72
550.51	58424.45
550.68	58841.07
550.84	58232.53
551.01	58693.61
551.18	58501.69
551.34	58693.61
551.51	58532.12
551.68	58679.57
551.84	58539.14
552.01	58363.60
552.18	58632.76
552.34	58457.22
552.51	58616.38
552.68	58855.11
552.84	58866.81
553.01	58899.58
553.18	59025.97
553.34	58796.60
553.51	58686.59
553.67	59002.56
553.84	59215.55
554.01	59072.78
554.17	59047.04
554.34	59061.08
554.51	59203.85
554.67	59100.87
554.84	59257.68
555.00	59082.14
555.17	58953.41
555.33	59281.09
555.50	59079.80
555.67	59311.52
555.83	59075.12
556.00	59103.21
556.16	59526.84
556.33	59206.19
556.50	59412.16
556.66	59461.31
556.83	59222.58
556.99	59484.72
557.16	59784.30
557.32	59753.88
557.49	59716.43
557.65	59330.24
557.82	59529.19
557.98	59508.12
558.15	59723.45
558.32	59391.09
558.48	59365.35
558.65	59608.76
558.81	59863.88
558.98	59718.77
559.14	59618.13
559.31	59760.90
559.47	59693.02
559.64	59798.35
559.80	59643.87
559.97	59938.78
560.13	59877.93
560.30	59657.91
560.46	59718.77
560.63	59973.89
560.79	59859.20
560.96	59959.84
561.12	59746.86
561.29	59957.50
561.45	60100.28
561.61	60048.78
561.78	59887.29
561.94	59800.69
562.11	60142.41
562.27	59758.56
562.44	60165.81
562.60	60282.84
562.77	60039.42
562.93	59955.16
563.10	60292.20
563.26	60020.70
563.42	60238.37
563.59	60198.58
563.75	60233.69
563.92	60088.57
564.08	60163.47
564.24	60226.66
564.41	60203.26
564.57	60271.14
564.74	60207.94
564.90	60156.45
565.07	60032.40
565.23	60257.09
565.39	60102.62
565.56	60243.05
565.72	59997.29
565.88	60331.99
566.05	60233.69
566.21	60430.29
566.38	60409.23
566.54	60310.92
566.70	60512.21
566.87	60439.65
567.03	60093.25
567.19	60409.23
567.36	60355.39
567.52	60364.76
567.68	60598.81
567.85	60451.36
568.01	60383.48
568.17	60313.26
568.34	60521.57
568.50	60458.38
568.66	60355.39
568.83	60568.38
568.99	60327.31
569.15	60516.89
569.32	60411.57
569.48	60575.40
569.64	60748.60
569.81	60556.68
569.97	60502.85
570.13	60552.00
570.30	60390.50
570.46	60584.77
570.62	60507.53
570.78	60537.96
570.95	60542.64
571.11	60701.79
571.27	60608.17
571.43	60420.93
571.60	60760.31
571.76	60619.88
571.92	60699.45
572.09	60659.66
572.25	60645.62
572.41	60481.78
572.57	60605.83
572.74	60907.76
572.90	60556.68
573.06	60631.58
573.22	60959.25
573.38	60746.26
573.55	60570.72
573.71	61097.34
573.87	60687.75
574.03	60711.16
574.20	60643.28
574.36	60624.56
574.52	60907.76
574.68	60884.36
574.84	60741.58
575.01	60919.46
575.17	60568.38
575.33	60807.12
575.49	60699.45
575.65	60956.91
575.82	60921.80
575.98	61029.47
576.14	61048.19
576.30	60818.82
576.46	60767.33
576.62	60940.53
576.79	60839.89
576.95	60706.47
577.11	60877.33
577.27	60947.55
577.43	60821.16
577.59	60575.40
577.75	60867.97
577.92	60811.80
578.08	60769.67
578.24	60973.30
578.40	61141.81
578.56	61008.40
578.72	60882.02
578.88	60772.01
579.04	61062.24
579.21	61010.74
579.37	61111.39
579.53	61085.64
579.69	60715.84
579.85	60879.67
580.01	60853.93
580.17	60701.79
580.33	60779.03
580.49	61034.15
580.65	61017.77
580.82	61006.06
580.98	60947.55
581.14	60800.10
581.30	61118.41
581.46	60917.12
581.62	60900.74
581.78	60832.86
581.94	61172.24
582.10	60846.91
582.26	60893.72
582.42	60748.60
582.58	60769.67
582.74	60898.40
582.90	61029.47
583.06	61015.43
583.22	60872.65
583.38	60926.49
583.54	60919.46
583.70	60996.70
583.86	61123.09
584.02	60942.87
584.18	61095.00
584.34	60973.30
584.50	61134.79
584.66	60872.65
584.82	60907.76
584.98	61329.06
585.14	61167.56
585.30	61095.00
585.46	61034.15
585.62	60938.19
585.78	61104.37
585.94	60905.42
586.10	60945.21
586.26	61045.85
586.42	61137.13
586.58	61190.97
586.74	61066.92
586.90	61160.54
587.06	61158.20
587.22	61275.22
587.38	61064.58
587.54	61296.29
587.70	61282.25
587.86	61113.73
588.02	61202.67
588.18	61120.75
588.34	61190.97
