SpectraSuite Data File
++++++++++++++++++++++++++++++++++++
Date: Fri Oct 25 11:33:35 EDT 2013
User: price-jones
Dark Spectrum Present: No
Reference Spectrum Present: No
Number of Sampled Component Spectra: 1
Spectrometers: USB2+H05261
Integration Time (usec): 100000 (USB2+H05261)
Spectra Averaged: 1 (USB2+H05261)
Boxcar Smoothing: 0 (USB2+H05261)
Correct for Electrical Dark: No (USB2+H05261)
Strobe/Lamp Enabled: No (USB2+H05261)
Correct for Detector Non-linearity: No (USB2+H05261)
Correct for Stray Light: No (USB2+H05261)
Number of Pixels in Processed Spectrum: 2048
>>>>>Begin Processed Spectral Data<<<<<
365.73	290.23
365.92	290.23
366.12	290.23
366.32	194.26
366.52	198.95
366.72	173.20
366.91	119.37
367.11	229.37
367.31	166.18
367.51	119.37
367.70	264.48
367.90	156.82
368.10	168.52
368.30	131.07
368.49	163.84
368.69	147.45
368.89	241.08
369.09	184.90
369.28	210.65
369.48	126.39
369.68	191.92
369.87	287.89
370.07	285.55
370.27	297.25
370.47	311.29
370.66	425.98
370.86	472.79
371.06	533.64
371.25	622.58
371.45	547.69
371.65	571.09
371.84	601.52
372.04	535.98
372.24	571.09
372.44	559.39
372.63	613.22
372.83	585.13
373.03	561.73
373.22	568.75
373.42	634.29
373.62	552.37
373.81	634.29
374.01	603.86
374.21	664.71
374.40	620.24
374.60	627.26
374.79	660.03
374.99	657.69
375.19	606.20
375.38	660.03
375.58	657.69
375.78	610.88
375.97	699.82
376.17	725.57
376.37	732.59
376.56	685.78
376.76	589.82
376.95	641.31
377.15	636.63
377.35	681.10
377.54	606.20
377.74	657.69
377.93	671.73
378.13	629.60
378.33	751.31
378.52	662.37
378.72	791.10
378.91	760.67
379.11	713.86
379.31	683.44
379.50	636.63
379.70	692.80
379.89	746.63
380.09	716.20
380.28	699.82
380.48	720.88
380.68	706.84
380.87	690.46
381.07	760.67
381.26	779.40
381.46	727.91
381.65	753.65
381.85	744.29
382.04	713.86
382.24	777.06
382.43	767.70
382.63	755.99
382.83	788.76
383.02	812.17
383.22	795.78
383.41	784.08
383.61	800.46
383.80	896.43
384.00	828.55
384.19	748.97
384.39	774.72
384.58	826.21
384.78	798.12
384.97	781.74
385.17	800.46
385.36	896.43
385.56	887.06
385.75	765.36
385.95	894.08
386.14	858.98
386.34	915.15
386.53	929.19
386.72	858.98
386.92	889.40
387.11	894.08
387.31	915.15
387.50	833.23
387.70	819.19
387.89	926.85
388.09	847.27
388.28	978.34
388.48	877.70
388.67	882.38
388.86	994.73
389.06	933.87
389.25	973.66
389.45	945.58
389.64	924.51
389.84	973.66
390.03	987.71
390.22	1032.18
390.42	978.34
390.61	891.74
390.81	973.66
391.00	985.37
391.19	957.28
391.39	1081.33
391.58	992.39
391.78	971.32
391.97	1029.84
392.16	976.00
392.36	1060.26
392.55	1032.18
392.75	1081.33
392.94	1053.24
393.13	1118.78
393.33	1090.69
393.52	987.71
393.71	1121.12
393.91	1128.14
394.10	1078.99
394.29	1039.20
394.49	1121.12
394.68	1128.14
394.88	1184.31
395.07	1139.84
395.26	1123.46
395.46	1135.16
395.65	1142.18
395.84	1116.44
396.04	1228.78
396.23	1177.29
396.42	1207.72
396.62	1210.06
396.81	1245.16
397.00	1207.72
397.19	1135.16
397.39	1273.25
397.58	1249.85
397.77	1170.27
397.97	1287.29
398.16	1306.02
398.35	1299.00
398.55	1299.00
398.74	1268.57
398.93	1378.58
399.12	1252.19
399.32	1207.72
399.51	1282.61
399.70	1362.19
399.90	1383.26
400.09	1411.34
400.28	1362.19
400.47	1303.68
400.67	1336.45
400.86	1441.77
401.05	1406.66
401.24	1359.85
401.44	1486.24
401.63	1390.28
401.82	1479.22
402.01	1441.77
402.21	1486.24
402.40	1364.53
402.59	1523.69
402.78	1582.20
402.97	1554.12
403.17	1542.41
403.36	1481.56
403.55	1584.54
403.74	1629.01
403.93	1582.20
404.13	1621.99
404.32	1650.08
404.51	1551.78
404.70	1661.78
404.89	1715.61
405.09	1809.23
405.28	1710.93
405.47	1657.10
405.66	1666.46
405.85	1696.89
406.05	1724.97
406.24	1673.48
406.43	1809.23
406.62	1816.26
406.81	1867.75
407.00	1764.76
407.20	1720.29
407.39	1785.83
407.58	1863.07
407.77	1902.86
407.96	1870.09
408.15	1877.11
408.34	1834.98
408.54	1942.64
408.73	1884.13
408.92	1959.03
409.11	1942.64
409.30	2012.86
409.49	1980.09
409.68	1968.39
409.87	1970.73
410.07	2090.10
410.26	2059.67
410.45	2008.18
410.64	2062.01
410.83	2078.40
411.02	2069.03
411.21	2258.62
411.40	2174.36
411.59	2265.64
411.78	2115.84
411.98	2193.08
412.17	2202.44
412.36	2356.92
412.55	2340.54
412.74	2272.66
412.93	2326.49
413.12	2326.49
413.31	2457.56
413.50	2352.24
413.69	2434.16
413.88	2485.65
414.07	2434.16
414.26	2469.27
414.45	2445.86
414.64	2417.77
414.83	2541.82
415.02	2614.38
415.22	2630.76
415.41	2722.04
415.60	2609.70
415.79	2818.00
415.98	2740.77
416.17	2665.87
416.36	2703.32
416.55	2839.07
416.74	2869.50
416.93	2693.96
417.12	2754.81
417.31	2920.99
417.50	2916.31
417.69	3040.36
417.88	3026.31
418.07	2949.08
418.26	2902.26
418.45	2963.12
418.64	3035.67
418.83	2995.89
419.02	2984.18
419.21	3096.53
419.39	3049.72
419.58	2984.18
419.77	3098.87
419.96	3070.78
420.15	3267.39
420.34	3068.44
420.53	3126.96
420.72	3269.73
420.91	3398.46
421.10	3197.17
421.29	3332.92
421.48	3225.26
421.67	3318.88
421.86	3229.94
422.05	3398.46
422.24	3342.28
422.43	3363.35
422.61	3510.80
422.80	3442.93
422.99	3265.05
423.18	3454.63
423.37	3463.99
423.56	3337.60
423.75	3506.12
423.94	3403.14
424.13	3272.07
424.32	3311.86
424.50	3463.99
424.69	3384.41
424.88	3613.79
425.07	3410.16
425.26	3431.23
425.45	3379.73
425.64	3393.78
425.83	3314.20
426.01	3471.01
426.20	3482.72
426.39	3482.72
426.58	3335.26
426.77	3531.87
426.96	3499.10
427.15	3625.49
427.33	3503.78
427.52	3602.08
427.71	3536.55
427.90	3637.19
428.09	3702.73
428.28	3679.32
428.46	3644.21
428.65	3592.72
428.84	3808.05
429.03	3810.39
429.22	3653.58
429.40	3749.54
429.59	3693.37
429.78	3726.13
429.97	3655.92
430.16	3719.11
430.34	3751.88
430.53	3969.55
430.72	3859.54
430.91	3974.23
431.10	3810.39
431.28	3978.91
431.47	3957.85
431.66	3992.95
431.85	3960.19
432.03	3915.72
432.22	4147.43
432.41	3957.85
432.60	4196.58
432.79	4051.47
432.97	4021.04
433.16	4208.28
433.35	4072.53
433.54	4119.34
433.72	4173.18
433.91	4058.49
434.10	4252.75
434.28	4121.68
434.47	4224.67
434.66	4280.84
434.85	4376.80
435.03	4383.82
435.22	4414.25
435.41	4435.32
435.59	4360.42
435.78	4341.69
435.97	4540.64
436.16	4491.49
436.34	4418.93
436.53	4407.23
436.72	4603.83
436.90	4395.53
437.09	4711.50
437.28	4362.76
437.46	4468.08
437.65	4470.42
437.84	4830.87
438.02	4559.36
438.21	4765.33
438.40	4664.69
438.58	4730.22
438.77	4854.27
438.96	4830.87
439.14	4847.25
439.33	4968.96
439.52	4985.34
439.70	4891.72
439.89	4999.38
440.08	4924.49
440.26	5144.50
440.45	5095.35
440.63	5027.47
440.82	5195.99
441.01	5139.82
441.19	5151.52
441.38	5261.52
441.57	5102.37
441.75	5193.65
441.94	5317.70
442.12	5530.69
442.31	5451.11
442.50	5434.72
442.68	5362.17
442.87	5650.05
443.05	5530.69
443.24	5514.30
443.43	5689.84
443.61	5521.32
443.80	5710.91
443.98	5547.07
444.17	5303.65
444.35	5490.90
444.54	5701.54
444.73	5612.60
444.91	5591.54
445.10	5579.84
445.28	5706.23
445.47	5638.35
445.65	5598.56
445.84	5799.85
446.02	5636.01
446.21	5748.36
446.39	5849.00
446.58	5830.27
446.77	5778.78
446.95	5598.56
447.14	5832.62
447.32	5755.38
447.51	5797.51
447.69	5774.10
447.88	5724.95
448.06	5834.96
448.25	5877.09
448.43	5802.19
448.62	5865.38
448.80	5954.32
448.99	5977.73
449.17	5921.56
449.36	5827.93
449.54	5902.83
449.73	6061.99
449.91	6097.10
450.10	5998.79
450.28	5980.07
450.46	6200.08
450.65	6094.76
450.83	6209.44
451.02	6080.71
451.20	6153.27
451.39	6085.39
451.57	6139.23
451.76	6087.73
451.94	6040.92
452.13	6352.21
452.31	6282.00
452.49	6129.86
452.68	6310.08
452.86	6155.61
453.05	6377.96
453.23	6401.37
453.42	6443.49
453.60	6298.38
453.78	6462.22
453.97	6424.77
454.15	6267.95
454.34	6375.62
454.52	6569.88
454.70	6523.07
454.89	6567.54
455.07	6544.14
455.26	6761.81
455.44	6700.95
455.62	6612.01
455.81	6745.42
455.99	6853.09
456.17	6764.15
456.36	6876.49
456.54	6717.34
456.73	6883.52
456.91	6988.84
457.09	7145.66
457.28	7019.27
457.46	6916.28
457.64	7159.70
457.83	7241.62
458.01	7236.94
458.19	7007.56
458.38	7281.41
458.56	6998.20
458.74	7377.37
458.93	7206.51
459.11	7318.86
459.29	7101.19
459.48	7286.09
459.66	7262.68
459.84	7428.86
460.03	7461.63
460.21	7522.48
460.39	7466.31
460.57	7468.65
460.76	7520.14
460.94	7559.93
461.12	7260.34
461.31	7410.14
461.49	7452.27
461.67	7473.33
461.85	7852.50
462.04	7660.57
462.22	8037.40
462.40	7779.94
462.59	7686.32
462.77	7562.27
462.95	7655.89
463.13	7829.09
463.32	7803.35
463.50	7918.03
463.68	7824.41
463.86	7962.50
464.05	7859.52
464.23	7805.69
464.41	7950.80
464.59	7782.28
464.78	8231.66
464.96	8025.70
465.14	7906.33
465.32	7880.58
465.50	8133.36
465.69	8142.72
465.87	8264.43
466.05	8147.40
466.23	8238.69
466.41	8109.96
466.60	8456.36
466.78	8056.12
466.96	8049.10
467.14	8121.66
467.32	8423.59
467.51	8290.18
467.69	8098.25
467.87	8283.16
468.05	8428.27
468.23	8266.77
468.41	8425.93
468.60	8416.57
468.78	8554.66
468.96	8344.01
469.14	8470.40
469.32	8601.47
469.50	8458.70
469.69	8617.85
469.87	8510.19
470.05	8688.07
470.23	8828.50
470.41	8769.99
470.59	8816.80
470.77	8718.50
470.95	8774.67
471.14	9214.69
471.32	8908.08
471.50	9057.87
471.68	9032.13
471.86	9224.05
472.04	9116.39
472.22	9320.01
472.40	9226.39
472.58	9294.27
472.77	9231.07
472.95	9430.02
473.13	9699.18
473.31	9490.87
473.49	9373.85
473.67	9359.80
473.85	9547.05
474.03	9635.99
474.21	9614.92
474.39	9738.97
474.57	9886.42
474.75	9963.66
474.93	9830.25
475.12	9947.28
475.30	10134.52
475.48	10211.76
475.66	9989.41
475.84	10038.56
476.02	10342.83
476.20	10200.05
476.38	10663.48
476.56	10848.38
476.74	10483.26
476.92	10611.99
477.10	10361.55
477.28	10534.75
477.46	10712.63
477.64	10892.85
477.82	11204.14
478.00	11089.46
478.18	11002.86
478.36	11218.19
478.54	11300.11
478.72	11370.32
478.90	11410.11
479.08	11552.88
479.26	11740.13
479.44	11660.55
479.62	11815.02
479.80	11693.32
479.98	12074.82
480.16	12278.45
480.34	11920.35
480.52	12107.59
480.70	12243.34
480.88	12044.40
481.06	12147.38
481.24	12407.18
481.41	12856.56
481.59	12716.13
481.77	13027.42
481.95	12912.74
482.13	13142.11
482.31	13114.02
482.49	13315.31
482.67	13301.26
482.85	13692.13
483.03	13525.96
483.21	13671.07
483.39	13851.29
483.57	13785.76
483.74	14136.84
483.92	14045.55
484.10	13935.55
484.28	14368.55
484.46	14363.87
484.64	14633.03
484.82	14424.72
485.00	14750.06
485.18	14909.21
485.35	15037.94
485.53	14920.92
485.71	15208.80
485.89	15470.94
486.07	15396.04
486.25	15321.15
486.43	15789.25
486.61	15606.69
486.78	15850.11
486.96	16098.20
487.14	16276.09
487.32	16353.32
487.50	16367.37
487.68	16184.80
487.85	16781.64
488.03	16629.51
488.21	16772.28
488.39	16746.53
488.57	16959.52
488.75	17537.63
488.92	17221.66
489.10	17434.65
489.28	17448.69
489.46	17930.84
489.64	17820.84
489.81	18085.32
489.99	18068.94
490.17	18111.07
490.35	18478.53
490.53	18443.42
490.70	18918.55
490.88	18677.48
491.06	18988.77
491.24	18677.48
491.41	18956.00
491.59	19049.62
491.77	19126.86
491.95	19431.13
492.13	19445.17
492.30	19901.58
492.48	19695.61
492.66	19770.51
492.84	19962.43
493.01	20109.88
493.19	20231.59
493.37	20208.19
493.54	20692.68
493.72	20959.50
493.90	20643.52
494.08	20779.28
494.25	20732.47
494.43	20961.84
494.61	21149.08
494.79	21116.31
494.96	21713.15
495.14	21465.05
495.32	21972.95
495.49	21886.35
495.67	22134.45
495.85	22092.32
496.02	22052.53
496.20	22225.73
496.38	22043.17
496.55	22649.36
496.73	23009.81
496.91	22848.31
497.09	22780.43
497.26	23051.94
497.44	23047.26
497.62	22909.16
497.79	23821.97
497.97	23431.10
498.14	23482.59
498.32	23637.07
498.50	23477.91
498.67	24166.03
498.85	23906.23
499.03	23995.17
499.20	24011.56
499.38	24130.92
499.56	24575.62
499.73	24273.70
499.91	24657.54
500.08	24603.71
500.26	24627.12
500.44	24842.45
500.61	24807.34
500.79	24856.49
500.97	25081.18
501.14	25305.87
501.32	25296.51
501.49	25214.59
501.67	25563.33
501.84	25572.69
502.02	25317.57
502.20	25722.49
502.37	25474.39
502.55	25680.36
502.72	25963.56
502.90	25968.24
503.07	26134.42
503.25	26354.43
503.43	25895.69
503.60	26518.27
503.78	26136.76
503.95	26333.37
504.13	26644.66
504.30	26848.29
504.48	26806.16
504.65	26597.85
504.83	27304.69
505.01	27267.24
505.18	27187.66
505.36	27524.70
505.53	27187.66
505.71	27555.13
505.88	27353.84
506.06	27520.02
506.23	27777.48
506.41	27204.05
506.58	28144.94
506.76	27740.03
506.93	28156.64
507.11	27910.89
507.28	28203.46
507.46	28053.66
507.63	28428.15
507.81	28496.02
507.98	28339.21
508.16	28638.80
508.33	28610.71
508.50	28980.51
508.68	28809.65
508.85	29195.84
509.03	28561.56
509.20	29146.69
509.38	29090.52
509.55	29441.60
509.73	29359.68
509.90	29699.06
510.08	29790.34
510.25	29603.10
510.42	29912.05
510.60	29457.98
510.77	29989.28
510.95	30256.11
511.12	30008.01
511.30	30073.54
511.47	30108.65
511.64	29881.62
511.82	29701.40
511.99	30438.67
512.17	30525.27
512.34	30778.04
512.51	30817.83
512.69	31016.78
512.86	30836.56
513.04	30897.41
513.21	30792.09
513.38	31529.36
513.56	31498.93
513.73	30967.63
513.90	31246.15
514.08	30941.88
514.25	31866.39
514.43	31957.67
514.60	31693.19
514.77	31622.98
514.95	32041.93
515.12	31431.05
515.29	31683.83
515.47	31845.33
515.64	32196.41
515.81	31728.30
515.99	31978.74
516.16	32191.73
516.33	32491.32
516.51	32549.83
516.68	32367.27
516.85	33010.92
517.03	32861.12
517.20	32617.71
517.37	32957.08
517.54	32936.02
517.72	33022.62
517.89	32697.28
518.06	33053.05
518.24	33057.73
518.41	33027.30
518.58	33146.67
518.75	33111.56
518.93	33687.33
519.10	33418.17
519.27	33029.64
519.45	33333.91
519.62	33841.81
519.79	33605.41
519.96	33640.52
520.14	33799.68
520.31	33846.49
520.48	34260.76
520.65	33993.94
520.83	34768.66
521.00	34569.71
521.17	33820.74
521.34	34354.38
521.52	34398.85
521.69	34534.60
521.86	34686.74
522.03	34904.41
522.20	34988.67
522.38	35367.84
522.55	35124.42
522.72	35271.87
522.89	34848.24
523.07	35672.10
523.24	35140.80
523.41	35211.02
523.58	35131.44
523.75	35211.02
523.92	35646.36
524.10	35555.08
524.27	35744.66
524.44	35763.39
524.61	36006.80
524.78	35725.94
524.96	36304.05
525.13	35922.54
525.30	36613.00
525.47	35754.02
525.64	35644.02
525.81	36353.20
525.98	36477.25
526.16	35894.46
526.33	36545.12
526.50	36566.19
526.67	36137.87
526.84	36659.81
527.01	36814.29
527.18	36542.78
527.36	36781.52
527.53	37177.07
527.70	37125.58
527.87	37404.10
528.04	36987.49
528.21	37322.18
528.38	37191.11
528.55	37097.49
528.72	37340.91
528.89	37392.40
529.07	37385.38
529.24	37067.06
529.41	37457.93
529.58	37801.99
529.75	37567.94
529.92	37509.43
530.09	37591.34
530.26	37752.84
530.43	38314.57
530.60	37989.24
530.77	37752.84
530.94	37853.48
531.11	37916.68
531.28	38115.62
531.46	37933.06
531.63	38288.82
531.80	38419.89
531.97	38565.01
532.14	38705.44
532.31	38302.87
532.48	38438.62
532.65	38469.04
532.82	38328.61
532.99	38794.38
533.16	38492.45
533.33	38740.55
533.50	38897.36
533.67	38464.36
533.84	38941.83
534.01	38951.20
534.18	38969.92
534.35	39618.25
534.52	38831.83
534.69	39470.79
534.86	39274.19
535.03	38775.66
535.20	39318.66
535.37	39489.52
535.54	39243.76
535.71	39407.60
535.88	39742.30
536.05	39438.03
536.22	39917.84
536.38	40053.59
536.55	39335.04
536.72	39978.69
536.89	39604.20
537.06	39679.10
537.23	40212.74
537.40	39913.16
537.57	39667.40
537.74	40126.14
537.91	40187.00
538.08	39875.71
538.25	39920.18
538.42	40179.98
538.59	40605.95
538.75	40013.80
538.92	40486.59
539.09	40683.19
539.26	40711.28
539.43	40673.83
539.60	40886.82
539.77	40444.46
539.94	40982.78
540.11	40931.29
540.28	40545.10
540.44	41116.19
540.61	40519.35
540.78	40938.31
540.95	40662.13
541.12	40514.67
541.29	40832.99
541.46	41200.45
541.62	41254.28
541.79	41294.07
541.96	41200.45
542.13	41198.11
542.30	41357.27
542.47	40889.16
542.63	41656.85
542.80	41425.14
542.97	41874.52
543.14	41975.17
543.31	41462.59
543.48	41734.09
543.64	42050.06
543.81	42263.05
543.98	42253.69
544.15	42010.28
544.32	42108.58
544.48	42045.38
544.65	42169.43
544.82	42464.34
544.99	42129.64
545.16	42422.21
545.32	41764.52
545.49	42878.61
545.66	42810.74
545.83	42553.28
546.00	42859.89
546.16	42836.48
546.33	42241.99
546.50	42356.67
546.67	42997.98
546.83	42225.60
547.00	42698.39
547.17	42759.25
547.34	42822.44
547.50	42780.31
547.67	43501.20
547.84	42820.10
548.00	42845.85
548.17	43536.30
548.34	43391.19
548.51	43452.05
548.67	43138.41
548.84	43131.39
549.01	43201.61
549.18	43239.06
549.34	43789.08
549.51	43983.35
549.68	43580.78
549.84	43428.64
550.01	43463.75
550.18	43622.90
550.34	43878.02
550.51	43847.60
550.68	43463.75
550.84	43662.69
551.01	43985.69
551.18	43875.68
551.34	43807.81
551.51	43927.17
551.68	43821.85
551.84	43344.38
552.01	43798.44
552.18	43746.95
552.34	43901.43
552.51	44165.91
552.68	43714.19
552.84	44226.76
553.01	44318.04
553.18	44144.84
553.34	44175.27
553.51	44189.31
553.67	44294.64
553.84	44456.14
554.01	44589.55
554.17	44470.18
554.34	44896.16
554.51	44556.78
554.67	44673.81
554.84	44612.95
555.00	44451.45
555.17	45059.99
555.33	44416.35
555.50	44996.80
555.67	44411.67
555.83	44861.05
556.00	45022.54
556.16	45301.07
556.33	45029.57
556.50	45141.91
556.66	45020.20
556.83	44814.24
556.99	45460.23
557.16	45329.16
557.32	45003.82
557.49	45223.83
557.65	44863.39
557.82	44935.95
557.98	45216.81
558.15	45322.13
558.32	45092.76
558.48	45205.11
558.65	45308.09
558.81	45158.30
558.98	45048.29
559.14	45134.89
559.31	45191.06
559.47	45036.59
559.64	45579.59
559.80	45057.65
559.97	45654.49
560.13	45333.84
560.30	45429.80
560.46	45661.51
560.63	45705.98
560.79	46040.68
560.96	46178.77
561.12	45687.26
561.29	45773.86
561.45	45675.55
561.61	45743.43
561.78	45446.18
561.94	45495.33
562.11	45923.65
562.27	45862.80
562.44	45200.43
562.60	45640.45
562.77	45991.53
562.93	45446.18
563.10	46199.83
563.26	45600.66
563.42	46410.48
563.59	46043.02
563.75	45823.01
563.92	45755.13
564.08	46375.37
564.24	46169.41
564.41	46153.02
564.57	45689.60
564.74	45965.78
564.90	45722.37
565.07	45895.56
565.23	46071.10
565.39	46129.62
565.56	46422.19
565.72	46061.74
565.88	46267.71
566.05	46349.63
566.21	46356.65
566.38	46218.56
566.54	46316.86
566.70	46394.10
566.87	46525.17
567.03	46094.51
567.19	46588.36
567.36	46113.23
567.52	46012.59
567.68	46571.98
567.85	46401.12
568.01	46368.35
568.17	45900.25
568.34	46876.25
568.50	46791.99
568.66	46185.79
568.83	46848.16
568.99	46639.86
569.15	46845.82
569.32	46590.70
569.48	46653.90
569.64	46904.34
569.81	46883.27
569.97	46696.03
570.13	47002.64
570.30	46204.52
570.46	46618.79
570.62	46698.37
570.78	46485.38
570.95	46911.36
571.11	46773.27
571.27	46789.65
571.43	46712.41
571.60	47007.32
571.76	46555.60
571.92	46644.54
572.09	46791.99
572.25	46700.71
572.41	46712.41
572.57	46927.74
572.74	47756.29
572.90	46740.50
573.06	46876.25
573.22	46988.60
573.38	47044.77
573.55	46663.26
573.71	47620.54
573.87	47316.27
574.03	47047.11
574.20	47405.21
574.36	47166.48
574.52	47171.16
574.68	46951.15
574.84	47243.71
575.01	47344.36
575.17	47168.82
575.33	47206.26
575.49	46902.00
575.65	47239.03
575.82	46948.81
575.98	47297.55
576.14	46923.06
576.30	47381.80
576.46	47414.57
576.62	47093.92
576.79	47150.09
576.95	46639.86
577.11	46906.68
577.27	46920.72
577.43	46813.05
577.59	47290.52
577.75	47437.98
577.92	46930.08
578.08	47004.98
578.24	47533.94
578.40	47463.72
578.56	47384.15
578.72	47030.72
578.88	47213.29
579.04	47353.72
579.21	46611.77
579.37	47292.86
579.53	47620.54
579.69	47311.59
579.85	47140.73
580.01	47466.06
580.17	46859.87
580.33	47421.59
580.49	47547.98
580.65	47625.22
580.82	47246.05
580.98	47196.90
581.14	46948.81
581.30	47082.22
581.46	46944.12
581.62	47313.93
581.78	47140.73
581.94	47271.80
582.10	47126.69
582.26	47559.69
582.42	47239.03
582.58	47655.65
582.74	47304.57
582.90	47442.66
583.06	47213.29
583.22	46955.83
583.38	47828.85
583.54	47318.61
583.70	47437.98
583.86	47253.08
584.02	47400.53
584.18	47320.95
584.34	47475.43
584.50	47702.46
584.66	47505.85
584.82	47136.05
584.98	48051.20
585.14	47662.67
585.30	47356.06
585.46	47461.38
585.62	47657.99
585.78	47870.98
585.94	47049.45
586.10	47662.67
586.26	47529.26
586.42	47215.63
586.58	47693.10
586.74	47498.83
586.90	46979.23
587.06	47519.90
587.22	47540.96
587.38	47033.07
587.54	47833.53
587.70	47756.29
587.86	46955.83
588.02	47269.46
588.18	47377.12
588.34	47536.28
588.49	47445.00
588.65	47648.63
588.81	47538.62
588.97	47826.51
589.13	47552.66
589.29	47646.29
589.45	47807.78
589.61	47515.22
589.77	47838.21
589.93	47674.37
590.08	47924.81
