SpectraSuite Data File
++++++++++++++++++++++++++++++++++++
Date: Fri Oct 25 11:34:02 EDT 2013
User: price-jones
Dark Spectrum Present: No
Reference Spectrum Present: No
Number of Sampled Component Spectra: 1
Spectrometers: USB2+H05261
Integration Time (usec): 100000 (USB2+H05261)
Spectra Averaged: 1 (USB2+H05261)
Boxcar Smoothing: 0 (USB2+H05261)
Correct for Electrical Dark: No (USB2+H05261)
Strobe/Lamp Enabled: No (USB2+H05261)
Correct for Detector Non-linearity: No (USB2+H05261)
Correct for Stray Light: No (USB2+H05261)
Number of Pixels in Processed Spectrum: 2048
>>>>>Begin Processed Spectral Data<<<<<
365.73	290.23
365.92	290.23
366.12	290.23
366.32	196.60
366.52	182.56
366.72	229.37
366.91	72.56
367.11	222.35
367.31	180.22
367.51	234.05
367.70	215.33
367.90	184.90
368.10	163.84
368.30	159.16
368.49	156.82
368.69	187.24
368.89	180.22
369.09	180.22
369.28	203.63
369.48	196.60
369.68	229.37
369.87	276.18
370.07	201.29
370.27	229.37
370.47	313.63
370.66	479.81
370.86	545.34
371.06	528.96
371.25	599.18
371.45	561.73
371.65	491.51
371.84	561.73
372.04	540.66
372.24	641.31
372.44	519.60
372.63	599.18
372.83	622.58
373.03	596.84
373.22	538.32
373.42	575.77
373.62	641.31
373.81	631.94
374.01	683.44
374.21	699.82
374.40	596.84
374.60	615.56
374.79	664.71
374.99	608.54
375.19	697.48
375.38	657.69
375.58	685.78
375.78	711.52
375.97	704.50
376.17	718.54
376.37	648.33
376.56	746.63
376.76	702.16
376.95	641.31
377.15	744.29
377.35	648.33
377.54	669.39
377.74	716.20
377.93	734.93
378.13	751.31
378.33	711.52
378.52	704.50
378.72	723.23
378.91	732.59
379.11	603.86
379.31	725.57
379.50	692.80
379.70	690.46
379.89	772.38
380.09	692.80
380.28	711.52
380.48	772.38
380.68	746.63
380.87	690.46
381.07	849.61
381.26	802.80
381.46	779.40
381.65	737.27
381.85	725.57
382.04	823.87
382.24	732.59
382.43	678.76
382.63	793.44
382.83	784.08
383.02	821.53
383.22	842.59
383.41	695.14
383.61	788.76
383.80	828.55
384.00	788.76
384.19	791.10
384.39	854.30
384.58	844.93
384.78	781.74
384.97	835.57
385.17	884.72
385.36	875.36
385.56	901.11
385.75	777.06
385.95	856.64
386.14	840.25
386.34	842.59
386.53	922.17
386.72	873.02
386.92	894.08
387.11	880.04
387.31	821.53
387.50	826.21
387.70	826.21
387.89	952.60
388.09	807.48
388.28	884.72
388.48	866.00
388.67	884.72
388.86	966.64
389.06	882.38
389.25	880.04
389.45	898.77
389.64	980.68
389.84	1011.11
390.03	947.92
390.22	971.32
390.42	924.51
390.61	990.05
390.81	976.00
391.00	1015.79
391.19	1074.31
391.39	1015.79
391.58	943.24
391.78	1048.56
391.97	938.55
392.16	1114.10
392.36	1015.79
392.55	1057.92
392.75	1086.01
392.94	976.00
393.13	1088.35
393.33	1050.90
393.52	1027.50
393.71	1020.47
393.91	1135.16
394.10	1041.54
394.29	1125.80
394.49	1041.54
394.68	1132.82
394.88	1069.62
395.07	1102.39
395.26	1153.88
395.46	1055.58
395.65	1224.10
395.84	1210.06
396.04	1221.76
396.23	1135.16
396.42	1210.06
396.62	1142.18
396.81	1242.82
397.00	1280.27
397.19	1142.18
397.39	1226.44
397.58	1268.57
397.77	1299.00
397.97	1203.04
398.16	1226.44
398.35	1231.12
398.55	1275.59
398.74	1294.32
398.93	1322.40
399.12	1266.23
399.32	1277.93
399.51	1366.87
399.70	1315.38
399.90	1313.04
400.09	1306.02
400.28	1317.72
400.47	1362.19
400.67	1416.02
400.86	1369.21
401.05	1444.11
401.24	1313.04
401.44	1530.71
401.63	1469.86
401.82	1418.36
402.01	1364.53
402.21	1474.54
402.40	1430.07
402.59	1423.05
402.78	1355.17
402.97	1493.26
403.17	1469.86
403.36	1476.88
403.55	1577.52
403.74	1589.22
403.93	1519.01
404.13	1680.50
404.32	1540.07
404.51	1685.19
404.70	1582.20
404.89	1563.48
405.09	1633.69
405.28	1610.29
405.47	1713.27
405.66	1717.95
405.85	1724.97
406.05	1659.44
406.24	1743.70
406.43	1720.29
406.62	1830.30
406.81	1781.15
407.00	1722.63
407.20	1633.69
407.39	1781.15
407.58	1811.57
407.77	1858.39
407.96	1816.26
408.15	1858.39
408.34	1865.41
408.54	1844.34
408.73	1900.52
408.92	1870.09
409.11	1844.34
409.30	2097.12
409.49	1926.26
409.68	1944.99
409.87	1944.99
410.07	2043.29
410.26	2080.74
410.45	2031.58
410.64	1935.62
410.83	2066.69
411.02	2090.10
411.21	2069.03
411.40	2134.57
411.59	2050.31
411.78	2115.84
411.98	2153.29
412.17	2157.97
412.36	2139.25
412.55	2216.49
412.74	2232.87
412.93	2314.79
413.12	2335.85
413.31	2532.46
413.50	2319.47
413.69	2427.14
413.88	2370.96
414.07	2401.39
414.26	2473.95
414.45	2504.37
414.64	2504.37
414.83	2459.90
415.02	2647.15
415.22	2553.52
415.41	2637.78
415.60	2626.08
415.79	2523.10
415.98	2754.81
416.17	2640.12
416.36	2698.64
416.55	2712.68
416.74	2745.45
416.93	2796.94
417.12	2881.20
417.31	2818.00
417.50	2881.20
417.69	2998.23
417.88	2789.92
418.07	2874.18
418.26	2832.05
418.45	2932.69
418.64	3098.87
418.83	2899.92
419.02	3052.06
419.21	3033.33
419.39	3049.72
419.58	3131.64
419.77	3035.67
419.96	3094.19
420.15	3070.78
420.34	3117.59
420.53	3169.09
420.72	3087.17
420.91	3131.64
421.10	3316.54
421.29	3253.34
421.48	3171.43
421.67	3239.30
421.86	3272.07
422.05	3302.50
422.24	3295.47
422.43	3330.58
422.61	3290.79
422.80	3344.63
422.99	3222.92
423.18	3234.62
423.37	3372.71
423.56	3389.10
423.75	3260.37
423.94	3283.77
424.13	3091.85
424.32	3297.81
424.50	3337.60
424.69	3349.31
424.88	3405.48
425.07	3234.62
425.26	3353.99
425.45	3311.86
425.64	3412.50
425.83	3279.09
426.01	3417.18
426.20	3426.54
426.39	3510.80
426.58	3433.57
426.77	3456.97
426.96	3466.33
427.15	3449.95
427.33	3515.48
427.52	3456.97
427.71	3489.74
427.90	3520.17
428.09	3606.77
428.28	3585.70
428.46	3513.14
428.65	3578.68
428.84	3590.38
429.03	3641.87
429.22	3709.75
429.40	3768.26
429.59	3702.73
429.78	3623.15
429.97	3559.95
430.16	3775.28
430.34	3716.77
430.53	3868.91
430.72	3838.48
430.91	3822.09
431.10	3693.37
431.28	3833.80
431.47	3932.10
431.66	3887.63
431.85	3861.88
432.03	3908.69
432.22	3882.95
432.41	3999.98
432.60	4053.81
432.79	3971.89
432.97	4156.79
433.16	4208.28
433.35	4079.55
433.54	4177.86
433.72	4234.03
433.91	4135.73
434.10	4154.45
434.28	4021.04
434.47	4131.05
434.66	4145.09
434.85	4142.75
435.03	4290.20
435.22	4168.49
435.41	4379.14
435.59	4292.54
435.78	4440.00
435.97	4402.55
436.16	4351.06
436.34	4334.67
436.53	4411.91
436.72	4524.26
436.90	4287.86
437.09	4461.06
437.28	4292.54
437.46	4407.23
437.65	4510.21
437.84	4566.39
438.02	4519.57
438.21	4578.09
438.40	4564.04
438.58	4674.05
438.77	4720.86
438.96	4580.43
439.14	4732.56
439.33	4858.95
439.52	4884.70
439.70	4997.04
439.89	4912.78
440.08	5057.90
440.26	4945.55
440.45	4898.74
440.63	5006.41
440.82	5046.20
441.01	5015.77
441.19	4968.96
441.38	5121.09
441.57	5172.58
441.75	5259.18
441.94	5107.05
442.12	5350.46
442.31	5420.68
442.50	5373.87
442.68	5373.87
442.87	5359.83
443.05	5378.55
443.24	5462.81
443.43	5465.15
443.61	5666.44
443.80	5778.78
443.98	5289.61
444.17	5308.34
444.35	5439.40
444.54	5495.58
444.73	5561.11
444.91	5526.00
445.10	5668.78
445.28	5687.50
445.47	5570.48
445.65	5636.01
445.84	5458.13
446.02	5703.89
446.21	5511.96
446.39	5397.28
446.58	5603.24
446.77	5692.18
446.95	5481.53
447.14	5446.43
447.32	5731.97
447.51	5671.12
447.69	5607.92
447.88	5607.92
448.06	5729.63
448.25	5776.44
448.43	5750.70
448.62	5692.18
448.80	5614.95
448.99	5811.55
449.17	5799.85
449.36	5888.79
449.54	5856.02
449.73	5966.03
449.91	6050.28
450.10	5956.66
450.28	6141.57
450.46	6031.56
450.65	5930.92
450.83	6101.78
451.02	6061.99
451.20	6200.08
451.39	6239.87
451.57	5827.93
451.76	6052.63
451.94	6111.14
452.13	6218.80
452.31	6132.20
452.49	6078.37
452.68	6045.60
452.86	6087.73
453.05	6167.31
453.23	6249.23
453.42	6141.57
453.60	6061.99
453.78	6347.53
453.97	6359.24
454.15	6160.29
454.34	6146.25
454.52	6541.80
454.70	6487.96
454.89	6384.98
455.07	6469.24
455.26	6513.71
455.44	6590.95
455.62	6722.02
455.81	6628.40
455.99	6747.76
456.17	6586.27
456.36	6761.81
456.54	6698.61
456.73	6834.36
456.91	6892.88
457.09	6815.64
457.28	7150.34
457.46	6642.44
457.64	6920.96
457.83	6974.80
458.01	6899.90
458.19	7014.59
458.38	7108.21
458.56	7061.40
458.74	6972.46
458.93	7070.76
459.11	7117.57
459.29	7119.91
459.48	7211.19
459.66	7279.07
459.84	7250.98
460.03	7304.81
460.21	7246.30
460.39	7166.72
460.57	7328.22
460.76	7346.94
460.94	7440.56
461.12	7250.98
461.31	7405.46
461.49	7225.23
461.67	7255.66
461.85	7669.94
462.04	7599.72
462.22	7899.31
462.40	7623.12
462.59	7536.52
462.77	7803.35
462.95	7644.19
463.13	7630.15
463.32	7588.02
463.50	7700.36
463.68	7976.55
463.86	7878.24
464.05	7714.41
464.23	7779.94
464.41	7892.29
464.59	7712.07
464.78	8107.62
464.96	7880.58
465.14	7908.67
465.32	7843.14
465.50	8074.85
465.69	8016.33
465.87	7915.69
466.05	8116.98
466.23	7925.05
466.41	8037.40
466.60	8243.37
466.78	8028.04
466.96	8070.17
467.14	8046.76
467.32	7983.57
467.51	8327.63
467.69	7946.12
467.87	7974.21
468.05	8187.19
468.23	8311.24
468.41	8313.58
468.60	8184.85
468.78	8217.62
468.96	8425.93
469.14	8262.09
469.32	8596.79
469.50	8264.43
469.69	8446.99
469.87	8491.46
470.05	8542.96
470.23	8622.53
470.41	8762.97
470.59	8851.91
470.77	8741.90
470.95	8699.77
471.14	8816.80
471.32	8573.38
471.50	8959.57
471.68	8980.64
471.86	8931.48
472.04	9097.66
472.22	9008.72
472.40	8936.17
472.58	9083.62
472.77	9111.71
472.95	9205.33
473.13	9455.76
473.31	9301.29
473.49	9102.34
473.67	9252.14
473.85	9210.01
474.03	9432.36
474.21	9720.24
474.39	9657.05
474.57	9682.80
474.75	9762.37
474.93	9575.13
475.12	9762.37
475.30	10066.64
475.48	9776.42
475.66	9926.21
475.84	9914.51
476.02	10200.05
476.20	9956.64
476.38	10207.08
476.56	10462.19
476.74	10485.60
476.92	10417.72
477.10	10382.62
477.28	10450.49
477.46	10476.24
477.64	10588.58
477.82	10649.44
478.00	11030.94
478.18	10984.13
478.36	11096.48
478.54	11321.17
478.72	11084.78
478.90	11201.80
479.08	11435.86
479.26	11463.94
479.44	11522.46
479.62	11576.29
479.80	11578.63
479.98	11918.01
480.16	12126.32
480.34	12025.67
480.52	12023.33
480.70	12198.87
480.88	12086.53
481.06	12362.71
481.24	12318.24
481.41	12575.70
481.59	12503.14
481.77	12709.11
481.95	12690.38
482.13	12901.03
482.31	12697.41
482.49	12961.89
482.67	13245.09
482.85	13163.17
483.03	13532.98
483.21	13284.88
483.39	13659.37
483.57	13680.43
483.74	13706.18
483.92	13678.09
484.10	13738.94
484.28	14146.20
484.46	14036.19
484.64	14455.15
484.82	14209.39
485.00	14246.84
485.18	14787.50
485.35	14754.74
485.53	14913.89
485.71	14860.06
485.89	15325.83
486.07	15047.30
486.25	15154.97
486.43	15386.68
486.61	15468.60
486.78	15358.60
486.96	15384.34
487.14	15749.46
487.32	16201.19
487.50	16180.12
487.68	16367.37
487.85	16313.53
488.03	16346.30
488.21	16657.59
488.39	16496.10
488.57	16706.74
488.75	16865.90
488.92	17172.51
489.10	17069.53
489.28	17380.82
489.46	17474.44
489.64	17549.34
489.81	17692.11
489.99	17298.90
490.17	17963.61
490.35	18073.62
490.53	18237.45
490.70	18190.64
490.88	18445.76
491.06	18515.98
491.24	18707.90
491.41	18747.69
491.59	18726.63
491.77	18831.95
491.95	19000.47
492.13	19208.78
492.30	19309.42
492.48	19449.85
492.66	19550.49
492.84	19742.42
493.01	19976.47
493.19	20081.80
493.37	19906.26
493.54	20023.28
493.72	20442.24
493.90	20180.10
494.08	20444.58
494.25	20526.50
494.43	20411.81
494.61	20753.53
494.79	20793.32
494.96	20835.45
495.14	21221.64
495.32	21806.77
495.49	21261.43
495.67	21523.57
495.85	21823.16
496.02	22036.14
496.20	22047.85
496.38	22225.73
496.55	21860.60
496.73	22525.32
496.91	22494.89
497.09	22389.56
497.26	22670.43
497.44	22366.16
497.62	22522.98
497.79	23161.94
497.97	22838.95
498.14	23232.16
498.32	23337.48
498.50	23180.67
498.67	23403.02
498.85	23506.00
499.03	23419.40
499.20	23660.48
499.38	23913.25
499.56	23899.21
499.73	24077.09
499.91	23955.38
500.08	24151.99
500.26	24498.39
500.44	24638.82
500.61	24474.98
500.79	24514.77
500.97	24386.04
501.14	24805.00
501.32	25188.85
501.49	25027.35
501.67	25355.02
501.84	25373.75
502.02	25181.82
502.20	25163.10
502.37	25345.66
502.55	25242.68
502.72	25462.69
502.90	25362.04
503.07	25273.10
503.25	25392.47
503.43	25811.43
503.60	25942.50
503.78	25682.70
503.95	25984.63
504.13	26246.77
504.30	26064.21
504.48	26003.35
504.65	26525.29
504.83	26504.23
505.01	26539.33
505.18	26504.23
505.36	27164.26
505.53	26878.71
505.71	26948.93
505.88	27040.21
506.06	26862.33
506.23	27201.71
506.41	27040.21
506.58	27529.38
506.76	27730.67
506.93	27683.86
507.11	27679.18
507.28	27714.28
507.46	27683.86
507.63	27887.48
507.81	28051.32
507.98	28109.83
508.16	27623.00
508.33	28184.73
508.50	28187.07
508.68	28266.65
508.85	28622.41
509.03	28250.27
509.20	28737.10
509.38	28929.02
509.55	28489.00
509.73	28753.48
509.90	29076.48
510.08	29067.11
510.25	28755.82
510.42	29095.20
510.60	29027.32
510.77	29322.23
510.95	29771.61
511.12	29476.71
511.30	29441.60
511.47	29479.05
511.64	29509.47
511.82	30113.33
511.99	29345.64
512.17	30206.95
512.34	30157.80
512.51	30199.93
512.69	30433.99
512.86	30370.79
513.04	30644.63
513.21	30459.73
513.38	30340.36
513.56	30705.49
513.73	30553.35
513.90	30394.20
514.08	30705.49
514.25	30775.70
514.43	31033.16
514.60	31337.43
514.77	31161.89
514.95	31384.24
515.12	31096.36
515.29	31395.95
515.47	31299.98
515.64	31421.69
515.81	31227.43
515.99	32119.17
516.16	32095.77
516.33	31601.91
516.51	31889.80
516.68	31665.11
516.85	31688.51
517.03	32231.52
517.20	32077.04
517.37	32397.70
517.54	32198.75
517.72	32173.00
517.89	32437.48
518.06	32556.85
518.24	32439.82
518.41	32201.09
518.58	32627.07
518.75	32741.75
518.93	32542.81
519.10	32460.89
519.27	33207.52
519.45	33263.69
519.62	33137.30
519.79	33010.92
519.96	33020.28
520.14	33006.23
520.31	32966.45
520.48	33415.83
520.65	33539.88
520.83	33834.78
521.00	33624.14
521.17	34085.22
521.34	34012.66
521.52	33853.51
521.69	33905.00
521.86	34080.54
522.03	34141.39
522.20	34450.35
522.38	34660.99
522.55	34593.12
522.72	34298.21
522.89	34312.25
523.07	35110.38
523.24	34789.72
523.41	34754.61
523.58	34253.74
523.75	35084.63
523.92	34895.05
524.10	35023.78
524.27	34923.13
524.44	35264.85
524.61	35257.83
524.78	35262.51
524.96	35646.36
525.13	35508.27
525.30	35957.65
525.47	35262.51
525.64	35304.64
525.81	36067.66
525.98	35725.94
526.16	35997.44
526.33	35477.84
526.50	35730.62
526.67	35924.88
526.84	35880.41
527.01	36212.77
527.18	35866.37
527.36	36009.14
527.53	36039.57
527.70	36282.98
527.87	36507.68
528.04	36048.93
528.21	36610.66
528.38	36643.43
528.55	36900.89
528.72	36531.08
528.89	36835.35
529.07	36425.76
529.24	36535.76
529.41	36800.24
529.58	36608.32
529.75	37097.49
529.92	36783.86
530.09	37317.50
530.26	36889.18
530.43	37649.86
530.60	36987.49
530.77	36809.61
530.94	37165.37
531.11	37268.35
531.28	37195.79
531.46	37481.34
531.63	37251.97
531.80	37509.43
531.97	37713.05
532.14	38024.34
532.31	37614.75
532.48	38143.71
532.65	38033.71
532.82	38096.90
532.99	38031.36
533.16	37729.44
533.33	37919.02
533.50	38043.07
533.67	38223.29
533.84	38038.39
534.01	38506.49
534.18	38087.54
534.35	38583.73
534.52	38356.70
534.69	38625.86
534.86	38899.70
535.03	38869.28
535.20	38345.00
535.37	38763.95
535.54	39044.82
535.71	38890.34
535.88	39000.35
536.05	39203.97
536.22	39536.33
536.38	39002.69
536.55	38965.24
536.72	38841.19
536.89	38939.49
537.06	39253.12
537.23	38976.94
537.40	38958.22
537.57	39281.21
537.74	39124.40
537.91	39421.64
538.08	39480.16
538.25	39103.33
538.42	39445.05
538.59	39548.03
538.75	39531.65
538.92	39873.37
539.09	40046.57
539.26	39749.32
539.43	40088.70
539.60	40109.76
539.77	39782.09
539.94	40201.04
540.11	39966.99
540.28	40048.91
540.44	40395.31
540.61	39421.64
540.78	39695.49
540.95	40158.91
541.12	40425.73
541.29	40390.62
541.46	40039.54
541.62	40526.38
541.79	40612.98
541.96	40390.62
542.13	40608.29
542.30	40605.95
542.47	40708.94
542.63	40931.29
542.80	40877.46
542.97	40942.99
543.14	41523.44
543.31	41081.08
543.48	41289.39
543.64	41724.73
543.81	41558.55
543.98	41148.96
544.15	40912.56
544.32	41471.95
544.48	41904.95
544.65	41233.22
544.82	41696.64
544.99	41537.49
545.16	41497.70
545.32	41352.58
545.49	41687.28
545.66	42527.53
545.83	41694.30
546.00	42321.57
546.16	41799.63
546.33	41656.85
546.50	41708.35
546.67	42106.24
546.83	41570.25
547.00	41818.35
547.17	42019.64
547.34	41844.10
547.50	41940.06
547.67	42653.92
547.84	42026.66
548.00	41930.70
548.17	43201.61
548.34	42768.61
548.51	42562.64
548.67	42436.25
548.84	42485.40
549.01	42258.37
549.18	42667.97
549.34	42628.18
549.51	43082.24
549.68	42862.23
549.84	42710.10
550.01	42557.96
550.18	42506.47
550.34	42651.58
550.51	42857.55
550.68	43388.85
550.84	42953.51
551.01	43206.29
551.18	42927.77
551.34	43112.67
551.51	43215.65
551.68	43578.43
551.84	42871.59
552.01	42939.47
552.18	42941.81
552.34	43012.02
552.51	43585.46
552.68	43271.82
552.84	43342.04
553.01	43508.22
553.18	43180.54
553.34	43880.36
553.51	43363.11
553.67	43704.82
553.84	44016.11
554.01	43784.40
554.17	43346.72
554.34	43746.95
554.51	43859.30
554.67	44013.77
554.84	43978.67
555.00	43943.56
555.17	43976.33
555.33	43856.96
555.50	44147.18
555.67	44142.50
555.83	43831.21
556.00	43931.86
556.16	45043.61
556.33	44409.32
556.50	44020.80
556.66	44196.34
556.83	44327.41
556.99	44196.34
557.16	44528.69
557.32	44783.81
557.49	44437.41
557.65	44264.21
557.82	44437.41
557.98	44392.94
558.15	44603.59
558.32	44416.35
558.48	44006.75
558.65	44488.90
558.81	44561.46
558.98	44144.84
559.14	44554.44
559.31	44336.77
559.47	44638.70
559.64	44832.96
559.80	44554.44
559.97	45050.63
560.13	44470.18
560.30	44737.00
560.46	44547.42
560.63	44842.32
560.79	44858.71
560.96	45357.24
561.12	45027.23
561.29	45043.61
561.45	45359.58
561.61	44940.63
561.78	44931.26
561.94	45162.98
562.11	44584.86
562.27	44949.99
562.44	45287.03
562.60	45132.55
562.77	45120.85
562.93	44992.12
563.10	45343.20
563.26	45179.36
563.42	45434.48
563.59	45144.25
563.75	44392.94
563.92	45326.81
564.08	45057.65
564.24	45544.48
564.41	45221.49
564.57	45303.41
564.74	45319.79
564.90	45446.18
565.07	45368.94
565.23	45434.48
565.39	45696.62
565.56	45280.00
565.72	45612.36
565.88	45818.33
566.05	45387.67
566.21	45773.86
566.38	45584.27
566.54	45598.32
566.70	45860.46
566.87	45427.46
567.03	45556.19
567.19	45724.71
567.36	45673.21
567.52	45546.82
567.68	46031.32
567.85	45652.15
568.01	46082.81
568.17	45509.38
568.34	45879.18
568.50	45928.33
568.66	45471.93
568.83	45963.44
568.99	45631.08
569.15	45542.14
569.32	45956.42
569.48	45617.04
569.64	46211.54
569.81	46136.64
569.97	45701.30
570.13	46326.22
570.30	46148.34
570.46	46227.92
570.62	45815.99
570.78	45900.25
570.95	45979.82
571.11	46216.22
571.27	45727.05
571.43	45956.42
571.60	45944.72
571.76	46026.63
571.92	45883.86
572.09	46066.42
572.25	46211.54
572.41	45514.06
572.57	46344.95
572.74	46562.62
572.90	46031.32
573.06	45787.90
573.22	45963.44
573.38	45996.21
573.55	46335.59
573.71	46876.25
573.87	46080.47
574.03	46113.23
574.20	46071.10
574.36	46611.77
574.52	45738.75
574.68	46071.10
574.84	46377.72
575.01	46499.42
575.17	46632.83
575.33	46038.34
575.49	46256.01
575.65	46335.59
575.82	46328.56
575.98	46415.16
576.14	46894.97
576.30	46726.46
576.46	46419.84
576.62	46068.76
576.79	46284.09
576.95	46094.51
577.11	46085.15
577.27	46197.49
577.43	45797.26
577.59	46466.66
577.75	46267.71
577.92	46054.72
578.08	46438.57
578.24	46433.89
578.40	46431.55
578.56	46651.56
578.72	46452.61
578.88	46209.20
579.04	46202.18
579.21	46110.89
579.37	46525.17
579.53	46351.97
579.69	46831.78
579.85	46368.35
580.01	46780.29
580.17	46307.50
580.33	46461.97
580.49	46588.36
580.65	46373.03
580.82	46630.49
580.98	46394.10
581.14	46244.30
581.30	46738.16
581.46	46291.12
581.62	46188.13
581.78	46670.28
581.94	46557.94
582.10	46419.84
582.26	46515.81
582.42	46843.48
582.58	46569.64
582.74	46663.26
582.90	46607.09
583.06	46838.80
583.22	46759.22
583.38	46965.19
583.54	46951.15
583.70	46459.63
583.86	46981.57
584.02	46213.88
584.18	46958.17
584.34	46878.59
584.50	47002.64
584.66	46660.92
584.82	46663.26
584.98	46930.08
585.14	46735.82
585.30	46403.46
585.46	46419.84
585.62	46738.16
585.78	46660.92
585.94	46295.80
586.10	46799.01
586.26	46480.70
586.42	46841.14
586.58	47215.63
586.74	46646.88
586.90	46487.72
587.06	46689.01
587.22	46866.89
587.38	46562.62
587.54	46824.76
587.70	46902.00
587.86	46923.06
588.02	46663.26
588.18	46639.86
588.34	46689.01
588.49	46838.80
588.65	46745.18
588.81	46806.03
588.97	47236.69
589.13	46731.14
589.29	46941.78
589.45	46897.31
589.61	46993.28
589.77	47248.39
589.93	46712.41
590.08	47014.34
