SpectraSuite Data File
++++++++++++++++++++++++++++++++++++
Date: Fri Oct 25 11:26:01 EDT 2013
User: price-jones
Dark Spectrum Present: No
Reference Spectrum Present: No
Number of Sampled Component Spectra: 1
Spectrometers: USB2+H05261
Integration Time (usec): 100000 (USB2+H05261)
Spectra Averaged: 1 (USB2+H05261)
Boxcar Smoothing: 0 (USB2+H05261)
Correct for Electrical Dark: No (USB2+H05261)
Strobe/Lamp Enabled: No (USB2+H05261)
Correct for Detector Non-linearity: No (USB2+H05261)
Correct for Stray Light: No (USB2+H05261)
Number of Pixels in Processed Spectrum: 2048
>>>>>Begin Processed Spectral Data<<<<<
365.73	241.08
365.92	241.08
366.12	241.08
366.32	203.63
366.52	131.07
366.72	170.86
366.91	131.07
367.11	126.39
367.31	107.66
367.51	107.66
367.70	79.58
367.90	194.26
368.10	46.81
368.30	124.05
368.49	135.75
368.69	142.77
368.89	175.54
369.09	191.92
369.28	266.82
369.48	166.18
369.68	182.56
369.87	238.73
370.07	224.69
370.27	252.78
370.47	322.99
370.66	552.37
370.86	627.26
371.06	676.41
371.25	653.01
371.45	627.26
371.65	706.84
371.84	664.71
372.04	643.65
372.24	711.52
372.44	727.91
372.63	727.91
372.83	816.85
373.03	784.08
373.22	840.25
373.42	809.83
373.62	777.06
373.81	819.19
374.01	798.12
374.21	763.01
374.40	779.40
374.60	793.44
374.79	788.76
374.99	908.13
375.19	840.25
375.38	837.91
375.58	866.00
375.78	842.59
375.97	873.02
376.17	919.83
376.37	833.23
376.56	905.79
376.76	880.04
376.95	866.00
377.15	809.83
377.35	905.79
377.54	898.77
377.74	837.91
377.93	863.66
378.13	910.47
378.33	882.38
378.52	866.00
378.72	940.90
378.91	905.79
379.11	940.90
379.31	887.06
379.50	924.51
379.70	1078.99
379.89	973.66
380.09	985.37
380.28	901.11
380.48	945.58
380.68	1060.26
380.87	957.28
381.07	1011.11
381.26	1086.01
381.46	976.00
381.65	1036.86
381.85	1067.28
382.04	997.07
382.24	1088.35
382.43	1078.99
382.63	1107.07
382.83	1034.52
383.02	1050.90
383.22	1151.54
383.41	1153.88
383.61	1109.41
383.80	1118.78
384.00	1076.65
384.19	1177.29
384.39	1088.35
384.58	1217.08
384.78	1128.14
384.97	1200.69
385.17	1210.06
385.36	1217.08
385.56	1144.52
385.75	1191.33
385.95	1210.06
386.14	1128.14
386.34	1167.93
386.53	1233.46
386.72	1198.35
386.92	1270.91
387.11	1299.00
387.31	1167.93
387.50	1226.44
387.70	1212.40
387.89	1231.12
388.09	1179.63
388.28	1280.27
388.48	1303.68
388.67	1324.74
388.86	1296.66
389.06	1289.64
389.25	1343.47
389.45	1364.53
389.64	1448.79
389.84	1369.21
390.03	1444.11
390.22	1359.85
390.42	1366.87
390.61	1416.02
390.81	1409.00
391.00	1411.34
391.19	1427.73
391.39	1483.90
391.58	1479.22
391.78	1533.05
391.97	1469.86
392.16	1474.54
392.36	1530.71
392.55	1502.62
392.75	1430.07
392.94	1493.26
393.13	1516.67
393.33	1474.54
393.52	1624.33
393.71	1638.38
393.91	1507.30
394.10	1612.63
394.29	1596.25
394.49	1659.44
394.68	1633.69
394.88	1640.72
395.07	1584.54
395.26	1715.61
395.46	1673.48
395.65	1617.31
395.84	1715.61
396.04	1675.82
396.23	1741.36
396.42	1689.87
396.62	1863.07
396.81	1792.85
397.00	1701.57
397.19	1849.02
397.39	1760.08
397.58	1846.68
397.77	1804.55
397.97	1891.15
398.16	1900.52
398.35	1921.58
398.55	1912.22
398.74	2003.50
398.93	1994.14
399.12	1926.26
399.32	1909.88
399.51	1996.48
399.70	2022.22
399.90	1942.64
400.09	2031.58
400.28	1937.96
400.47	1959.03
400.67	2076.06
400.86	2094.78
401.05	2085.42
401.24	2143.93
401.44	2148.61
401.63	2038.61
401.82	2092.44
402.01	2134.57
402.21	2160.31
402.40	2181.38
402.59	2244.57
402.78	2242.23
402.97	2270.32
403.17	2183.72
403.36	2335.85
403.55	2225.85
403.74	2190.74
403.93	2354.58
404.13	2406.07
404.32	2342.88
404.51	2366.28
404.70	2356.92
404.89	2377.98
405.09	2485.65
405.28	2607.36
405.47	2380.32
405.66	2516.08
405.85	2441.18
406.05	2527.78
406.24	2532.46
406.43	2576.93
406.62	2693.96
406.81	2733.75
407.00	2450.54
407.20	2616.72
407.39	2663.53
407.58	2789.92
407.77	2679.91
407.96	2750.13
408.15	2768.85
408.34	2700.98
408.54	2757.15
408.73	2780.56
408.92	2876.52
409.11	2841.41
409.30	2829.71
409.49	2902.26
409.68	2963.12
409.87	2902.26
410.07	2998.23
410.26	2937.37
410.45	2953.76
410.64	3103.55
410.83	2993.55
411.02	3080.14
411.21	3042.70
411.40	3030.99
411.59	3234.62
411.78	3253.34
411.98	3220.58
412.17	3276.75
412.36	3262.71
412.55	3398.46
412.74	3389.10
412.93	3468.67
413.12	3405.48
413.31	3527.19
413.50	3412.50
413.69	3529.53
413.88	3482.72
414.07	3602.08
414.26	3707.41
414.45	3672.30
414.64	3836.14
414.83	3749.54
415.02	3672.30
415.22	3758.90
415.41	3847.84
415.60	3794.01
415.79	3747.20
415.98	4018.70
416.17	4021.04
416.36	3918.06
416.55	3873.59
416.74	4039.76
416.93	4014.02
417.12	4081.89
417.31	4217.65
417.50	4133.39
417.69	4283.18
417.88	4173.18
418.07	4212.96
418.26	4365.10
418.45	4320.63
418.64	4507.87
418.83	4334.67
419.02	4535.96
419.21	4358.08
419.39	4664.69
419.58	4418.93
419.77	4475.10
419.96	4613.20
420.15	4528.94
420.34	4627.24
420.53	4713.84
420.72	4589.79
420.91	4660.01
421.10	4793.42
421.29	4746.61
421.48	4737.24
421.67	4779.37
421.86	4744.27
422.05	4863.63
422.24	4744.27
422.43	4887.04
422.61	4844.91
422.80	4924.49
422.99	4922.15
423.18	4983.00
423.37	5057.90
423.56	4997.04
423.75	4922.15
423.94	4863.63
424.13	4690.43
424.32	4800.44
424.50	5018.11
424.69	5158.54
424.88	5039.17
425.07	4945.55
425.26	4851.93
425.45	4947.89
425.64	4894.06
425.83	4905.76
426.01	5195.99
426.20	5205.35
426.39	5029.81
426.58	5064.92
426.77	5036.83
426.96	5074.28
427.15	4880.02
427.33	5195.99
427.52	5357.49
427.71	5238.12
427.90	5207.69
428.09	5439.40
428.28	5341.10
428.46	5308.34
428.65	5116.41
428.84	5369.19
429.03	5556.43
429.22	5399.62
429.40	5490.90
429.59	5451.11
429.78	5170.24
429.97	5125.77
430.16	5434.72
430.34	5666.44
430.53	5664.10
430.72	5530.69
430.91	5549.41
431.10	5748.36
431.28	5636.01
431.47	5762.40
431.66	5884.11
431.85	5736.65
432.03	5799.85
432.22	6036.24
432.41	5928.58
432.60	5865.38
432.79	5991.77
432.97	6097.10
433.16	6022.20
433.35	5987.09
433.54	5991.77
433.72	6179.01
433.91	6118.16
434.10	5841.98
434.28	6071.35
434.47	6155.61
434.66	6235.19
434.85	6296.04
435.03	6356.90
435.22	6427.11
435.41	6352.21
435.59	6282.00
435.78	6434.13
435.97	6420.09
436.16	6480.94
436.34	6420.09
436.53	6401.37
436.72	6703.29
436.90	6438.81
437.09	6567.54
437.28	6476.26
437.46	6553.50
437.65	6707.98
437.84	6691.59
438.02	6771.17
438.21	6801.60
438.40	6766.49
438.58	6848.41
438.77	6930.33
438.96	6855.43
439.14	6988.84
439.33	7094.16
439.52	7143.32
439.70	7080.12
439.89	7176.08
440.08	7166.72
440.26	7356.30
440.45	7363.33
440.63	7393.75
440.82	7428.86
441.01	7578.65
441.19	7536.52
441.38	7489.71
441.57	7566.95
441.75	7637.17
441.94	7775.26
442.12	7941.44
442.31	7744.83
442.50	8009.31
442.68	7957.82
442.87	7775.26
443.05	8084.21
443.24	8093.57
443.43	7983.57
443.61	8152.09
443.80	8386.14
443.98	8060.80
444.17	7763.56
444.35	8196.56
444.54	8475.08
444.73	8344.01
444.91	8229.32
445.10	8341.67
445.28	8280.82
445.47	8203.58
445.65	8273.79
445.84	8421.25
446.02	8336.99
446.21	8147.40
446.39	8353.37
446.58	8596.79
446.77	8531.25
446.95	8404.86
447.14	8287.84
447.32	8496.14
447.51	8402.52
447.69	8430.61
447.88	8573.38
448.06	8622.53
448.25	8512.53
448.43	8542.96
448.62	8627.21
448.80	8606.15
448.99	8643.60
449.17	8823.82
449.36	8437.63
449.54	8648.28
449.73	8957.23
449.91	8898.72
450.10	8835.52
450.28	9158.52
450.46	8975.95
450.65	9029.79
450.83	9039.15
451.02	8957.23
451.20	9071.92
451.39	8973.61
451.57	9116.39
451.76	9064.89
451.94	9245.12
452.13	9312.99
452.31	9195.96
452.49	9228.73
452.68	9390.23
452.86	9327.03
453.05	9408.95
453.23	9486.19
453.42	9324.69
453.60	9296.61
453.78	9516.62
453.97	9430.02
454.15	9584.49
454.34	9359.80
454.52	9610.24
454.70	9654.71
454.89	9802.16
455.07	9720.24
455.26	9834.93
455.44	9879.40
455.62	9895.78
455.81	9802.16
455.99	9970.68
456.17	10057.28
456.36	10061.96
456.54	10052.60
456.73	10136.86
456.91	10239.84
457.09	10511.35
457.28	10532.41
457.46	10303.04
457.64	10384.96
457.83	10569.86
458.01	10417.72
458.19	10738.38
458.38	10544.11
458.56	10855.40
458.74	10518.37
458.93	10651.78
459.11	10724.33
459.29	10768.80
459.48	10623.69
459.66	10801.57
459.84	10902.22
460.03	10953.71
460.21	10932.64
460.39	11014.56
460.57	10773.49
460.76	11147.97
460.94	11105.84
461.12	11033.29
461.31	11119.89
461.49	11126.91
461.67	11185.42
461.85	11428.84
462.04	11250.96
462.22	11716.72
462.40	11424.15
462.59	11377.34
462.77	11506.07
462.95	11515.44
463.13	11541.18
463.32	11463.94
463.50	11611.40
463.68	11587.99
463.86	11786.94
464.05	11611.40
464.23	11501.39
464.41	11941.41
464.59	11468.62
464.78	12009.29
464.96	12088.87
465.14	11852.47
465.32	12009.29
465.50	11960.14
465.69	12159.08
465.87	12093.55
466.05	11971.84
466.23	11932.05
466.41	12201.21
466.60	12411.86
466.78	12264.41
466.96	12180.15
467.14	12219.94
467.32	12388.46
467.51	12517.18
467.69	12219.94
467.87	12664.64
468.05	12414.20
468.23	12505.48
468.41	12395.48
468.60	12559.31
468.78	12772.30
468.96	12610.81
469.14	12695.07
469.32	12933.80
469.50	12505.48
469.69	13013.38
469.87	13200.62
470.05	13153.81
470.23	12886.99
470.41	13254.45
470.59	13144.45
470.77	13013.38
470.95	13139.77
471.14	13429.99
471.32	13378.50
471.50	13827.88
471.68	13617.24
471.86	13701.50
472.04	13547.02
472.22	13940.23
472.40	13509.57
472.58	13736.60
472.77	13799.80
472.95	14066.62
473.13	14176.62
473.31	14038.53
473.49	14040.87
473.67	14157.90
473.85	14459.83
474.03	14541.75
474.21	14808.57
474.39	14780.48
474.57	14382.59
474.75	14759.42
474.93	14663.46
475.12	14913.89
475.30	14981.77
475.48	14986.45
475.66	15257.95
475.84	14967.73
476.02	15330.51
476.20	15428.81
476.38	15730.74
476.56	15948.41
476.74	15920.32
476.92	15768.19
477.10	16128.63
477.28	16250.34
477.46	16149.70
477.64	16145.02
477.82	16388.43
478.00	16643.55
478.18	16760.58
478.36	16795.68
478.54	17076.55
478.72	17069.53
478.90	17373.80
479.08	17455.72
479.26	17657.00
479.44	17621.89
479.62	17774.03
479.80	17984.68
479.98	18253.84
480.16	18583.85
480.34	18310.01
480.52	18398.95
480.70	18412.99
480.88	18682.16
481.06	18431.72
481.24	18958.34
481.41	18824.93
481.59	18937.27
481.77	19286.01
481.95	19323.46
482.13	19590.28
482.31	19623.05
482.49	20116.90
482.67	20093.50
482.85	20484.37
483.03	20465.64
483.21	20706.72
483.39	21057.80
483.57	20704.38
483.74	20968.86
483.92	21390.16
484.10	21163.12
484.28	21635.91
484.46	21902.73
484.64	22450.42
484.82	21874.65
485.00	22412.97
485.18	22766.39
485.35	22775.75
485.53	22717.24
485.71	22890.44
485.89	23641.75
486.07	23459.19
486.25	23576.22
486.43	23452.17
486.61	23908.57
486.78	23997.51
486.96	23611.32
487.14	24877.55
487.32	24493.71
487.50	24760.53
487.68	24971.18
487.85	25266.08
488.03	24816.70
488.21	25745.89
488.39	25762.28
488.57	25930.80
488.75	26452.73
488.92	26700.83
489.10	26441.03
489.28	26546.36
489.46	26895.10
489.64	26948.93
489.81	27412.35
489.99	27527.04
490.17	27775.14
490.35	28027.92
490.53	28037.28
490.70	28053.66
490.88	28243.24
491.06	29088.18
491.24	28790.93
491.41	29228.61
491.59	29244.99
491.77	29027.32
491.95	29394.79
492.13	29778.64
492.30	29745.87
492.48	29844.17
492.66	30387.18
492.84	30616.55
493.01	30759.32
493.19	30656.34
493.37	30838.90
493.54	31051.89
493.72	31274.24
493.90	31496.59
494.08	31307.01
494.25	31676.81
494.43	31688.51
494.61	32470.25
494.79	32133.21
494.96	32556.85
495.14	32065.34
495.32	33254.33
495.49	33076.45
495.67	33343.27
495.85	33228.59
496.02	33617.11
496.20	33900.32
496.38	33804.36
496.55	34108.63
496.73	34962.92
496.91	34323.96
497.09	34609.50
497.26	34471.41
497.44	34663.33
497.62	35262.51
497.79	35505.93
497.97	35133.78
498.14	36128.51
498.32	35812.54
498.50	35990.42
498.67	36467.89
498.85	36189.36
499.03	36355.54
499.20	36903.23
499.38	36821.31
499.56	36891.52
499.73	36687.90
499.91	37301.12
500.08	37301.12
500.26	37139.62
500.44	37837.10
500.61	37633.47
500.79	37553.90
500.97	38010.30
501.14	38202.22
501.32	38443.30
501.49	38146.05
501.67	38885.66
501.84	39091.63
502.02	39227.38
502.20	38492.45
502.37	39133.76
502.55	39117.37
502.72	39388.88
502.90	39512.92
503.07	39751.66
503.25	39651.02
503.43	39475.48
503.60	39648.68
503.78	40098.06
503.95	39974.01
504.13	40371.90
504.30	40676.17
504.48	40161.25
504.65	40577.87
504.83	41017.89
505.01	41448.55
505.18	40914.90
505.36	41254.28
505.53	41155.98
505.71	41841.76
505.88	41347.90
506.06	41509.40
506.23	41825.37
506.41	41642.81
506.58	41869.84
506.76	42160.07
506.93	42234.97
507.11	42349.65
507.28	42380.08
507.46	42230.29
507.63	42380.08
507.81	43037.77
507.98	43065.86
508.16	43058.84
508.33	43194.59
508.50	42925.42
508.68	43597.16
508.85	43868.66
509.03	43461.41
509.20	43833.55
509.38	44439.75
509.55	44245.49
509.73	44498.26
509.90	44168.25
510.08	44650.40
510.25	44652.74
510.42	44446.77
510.60	44975.73
510.77	45167.66
510.95	45275.32
511.12	45322.13
511.30	45008.50
511.47	44996.80
511.64	45256.60
511.82	45563.21
511.99	45401.71
512.17	45874.50
512.34	45911.95
512.51	46080.47
512.69	46213.88
512.86	46146.00
513.04	46405.80
513.21	46431.55
513.38	46759.22
513.56	46946.47
513.73	46649.22
513.90	46834.12
514.08	47145.41
514.25	46953.49
514.43	47297.55
514.60	47210.95
514.77	47196.90
514.95	47665.01
515.12	47587.77
515.29	47477.77
515.47	47789.06
515.64	48041.84
515.81	47655.65
515.99	47709.48
516.16	48397.60
516.33	48186.95
516.51	48392.92
516.68	48516.96
516.85	48301.64
517.03	48631.65
517.20	48863.36
517.37	49134.87
517.54	48451.43
517.72	48898.47
517.89	48807.19
518.06	49130.19
518.24	49279.98
518.41	48959.33
518.58	49172.31
518.75	49289.34
518.93	49455.52
519.10	49097.42
519.27	49862.77
519.45	49427.43
519.62	49940.01
519.79	49455.52
519.96	49925.97
520.14	50305.13
520.31	50110.87
520.48	50220.87
520.65	50094.49
520.83	50494.72
521.00	50354.29
521.17	50522.80
521.34	50843.46
521.52	50892.61
521.69	50848.14
521.86	50967.51
522.03	50876.22
522.20	51061.13
522.38	51194.54
522.55	51330.29
522.72	51107.94
522.89	51337.31
523.07	51707.12
523.24	51185.18
523.41	51325.61
523.58	51306.88
523.75	51707.12
523.92	51384.12
524.10	51634.56
524.27	51737.54
524.44	51821.80
524.61	52048.83
524.78	52151.82
524.96	52135.43
525.13	52219.69
525.30	52383.53
525.47	52353.10
525.64	52275.87
525.81	52481.83
525.98	52404.59
526.16	52811.85
526.33	52435.02
526.50	52804.83
526.67	52802.49
526.84	52594.18
527.01	52804.83
527.18	53169.95
527.36	53041.22
527.53	53125.48
527.70	53277.61
527.87	53429.75
528.04	53202.72
528.21	53364.21
528.38	53471.88
528.55	53455.50
528.72	53254.21
528.89	53429.75
529.07	53235.48
529.24	53413.37
529.41	53347.83
529.58	53633.38
529.75	53450.81
529.92	53666.14
530.09	53621.67
530.26	53588.91
530.43	54049.99
530.60	53586.57
530.77	54038.29
530.94	54028.93
531.11	53923.60
531.28	54099.14
531.46	53820.62
531.63	54106.16
531.80	54204.47
531.97	54145.95
532.14	54417.46
532.31	54162.34
532.48	54349.58
532.65	54431.50
532.82	54408.09
532.99	54445.54
533.16	54637.47
533.33	54911.31
533.50	54843.43
533.67	54855.14
533.84	54569.59
534.01	54651.51
534.18	55082.17
534.35	55248.35
534.52	55049.40
534.69	54932.37
534.86	55276.43
535.03	54798.96
535.20	55231.96
535.37	55166.43
535.54	55480.06
535.71	55318.56
535.88	55458.99
536.05	55253.03
536.22	55381.76
536.38	55709.43
536.55	55498.78
536.72	55634.53
536.89	55468.36
537.06	55475.38
537.23	55702.41
537.40	55613.47
537.57	55730.50
537.74	55709.43
537.91	56062.85
538.08	55671.98
538.25	55725.81
538.42	55590.06
538.59	55943.48
538.75	55917.74
538.92	55899.01
539.09	56179.88
539.26	56158.81
539.43	55913.06
539.60	56278.18
539.77	56226.69
539.94	56320.31
540.11	56184.56
540.28	56329.67
540.44	56369.46
540.61	56280.52
540.78	56413.93
540.95	56198.60
541.12	56193.92
541.29	56343.72
541.46	56324.99
541.62	56479.47
541.79	56732.25
541.96	56310.95
542.13	56217.33
542.30	56481.81
542.47	56673.73
542.63	56692.46
542.80	56921.83
542.97	56970.98
543.14	57106.73
543.31	57169.93
543.48	57209.71
543.64	57244.82
543.81	57286.95
543.98	57235.46
544.15	57193.33
544.32	57516.32
544.48	57403.98
544.65	57403.98
544.82	57544.41
544.99	57183.97
545.16	57504.62
545.32	57261.21
545.49	57642.71
545.66	57415.68
545.83	57633.35
546.00	57827.62
546.16	57712.93
546.33	57708.25
546.50	57329.08
546.67	57799.53
546.83	57354.83
547.00	57799.53
547.17	57797.19
547.34	57869.75
547.50	57970.39
547.67	57916.56
547.84	57925.92
548.00	58066.35
548.17	58138.91
548.34	58120.18
548.51	58000.82
548.67	58073.37
548.84	58244.23
549.01	57755.06
549.18	58082.73
549.34	58159.97
549.51	58232.53
549.68	58351.90
549.84	58265.30
550.01	58422.11
550.18	58321.47
550.34	58218.49
550.51	58309.77
550.68	58548.50
550.84	58237.21
551.01	58321.47
551.18	58536.80
551.34	58464.24
551.51	58309.77
551.68	58473.60
551.84	58550.84
552.01	58532.12
552.18	58628.08
552.34	58468.92
552.51	58553.18
552.68	58333.17
552.84	58590.63
553.01	58841.07
553.18	58829.37
553.34	58555.52
553.51	58712.34
553.67	58808.30
553.84	59011.93
554.01	59047.04
554.17	58944.05
554.34	59018.95
554.51	58880.86
554.67	58988.52
554.84	59007.25
555.00	58798.94
555.17	58965.12
555.33	58953.41
555.50	58834.05
555.67	58899.58
555.83	58925.33
556.00	58920.65
556.16	59208.53
556.33	59168.74
556.50	59061.08
556.66	59285.77
556.83	59203.85
556.99	59384.07
557.16	59297.47
557.32	59311.52
557.49	59440.24
557.65	59302.15
557.82	59435.56
557.98	59433.22
558.15	59400.46
558.32	59444.93
558.48	59334.92
558.65	59444.93
558.81	59341.94
558.98	59414.50
559.14	59409.82
559.31	59662.60
559.47	59538.55
559.64	59557.27
559.80	59550.25
559.97	59554.93
560.13	59505.78
560.30	59531.53
560.46	59594.72
560.63	59564.29
560.79	59634.51
560.96	59730.47
561.12	59852.18
561.29	59646.21
561.45	59774.94
561.61	59749.20
561.78	59831.11
561.94	59678.98
562.11	59594.72
562.27	59667.28
562.44	59882.61
562.60	59875.58
562.77	60093.25
562.93	59824.09
563.10	60048.78
563.26	59791.33
563.42	60058.15
563.59	59913.03
563.75	59987.93
563.92	59861.54
564.08	59887.29
564.24	60027.72
564.41	59920.05
564.57	59800.69
564.74	60149.43
564.90	60252.41
565.07	60086.23
565.23	60219.64
565.39	59997.29
565.56	60193.90
565.72	60126.02
565.88	60100.28
566.05	60123.68
566.21	60018.36
566.38	60306.24
566.54	60273.48
566.70	60275.82
566.87	60299.22
567.03	60083.89
567.19	60430.29
567.36	60320.29
567.52	60219.64
567.68	60341.35
567.85	60322.63
568.01	60395.18
568.17	60163.47
568.34	60261.77
568.50	60334.33
568.66	60231.35
568.83	60292.20
568.99	60320.29
569.15	60418.59
569.32	60355.39
569.48	60296.88
569.64	60271.14
569.81	60631.58
569.97	60119.00
570.13	60549.66
570.30	60432.63
570.46	60528.59
570.62	60484.12
570.78	60378.80
570.95	60320.29
571.11	60521.57
571.27	60392.84
571.43	60643.28
571.60	60654.98
571.76	60577.75
571.92	60570.72
572.09	60397.52
572.25	60374.12
572.41	60547.32
572.57	60540.30
572.74	60830.52
572.90	60657.32
573.06	60474.76
573.22	60498.17
573.38	60734.56
573.55	60449.02
573.71	60849.25
573.87	60774.35
574.03	60570.72
574.20	60509.87
574.36	60739.24
574.52	60568.38
574.68	60886.70
574.84	60757.97
575.01	60804.78
575.17	60542.64
575.33	60411.57
575.49	60495.83
575.65	60552.00
575.82	60589.45
575.98	60797.76
576.14	60933.51
576.30	60690.09
576.46	60542.64
576.62	60589.45
576.79	60757.97
576.95	60519.23
577.11	60584.77
577.27	60743.92
577.43	60757.97
577.59	60622.22
577.75	60580.09
577.92	60615.19
578.08	60711.16
578.24	60945.21
578.40	61085.64
578.56	60952.23
578.72	60687.75
578.88	60919.46
579.04	60919.46
579.21	60725.20
579.37	60945.21
579.53	60779.03
579.69	60505.19
579.85	60793.07
580.01	60734.56
580.17	60713.50
580.33	60893.72
580.49	60846.91
580.65	60732.22
580.82	60896.06
580.98	60711.16
581.14	60760.31
581.30	61003.72
581.46	60764.99
581.62	60753.29
581.78	60636.26
581.94	60947.55
582.10	60825.84
582.26	60870.31
582.42	60818.82
582.58	60734.56
582.74	60725.20
582.90	60933.51
583.06	60818.82
583.22	60715.84
583.38	60795.42
583.54	60858.61
583.70	60830.52
583.86	60970.96
584.02	60877.33
584.18	60961.59
584.34	60872.65
584.50	60893.72
584.66	60949.89
584.82	60949.89
584.98	61041.17
585.14	60959.25
585.30	60764.99
585.46	60889.04
585.62	60938.19
585.78	61205.01
585.94	60795.42
586.10	60863.29
586.26	60999.04
586.42	61055.21
586.58	60893.72
586.74	60999.04
586.90	60830.52
587.06	60921.80
587.22	60891.38
587.38	61036.49
587.54	60980.32
587.70	61141.81
587.86	60949.89
588.02	60912.44
588.18	61111.39
588.34	61050.53
588.49	60942.87
