SpectraSuite Data File
++++++++++++++++++++++++++++++++++++
Date: Fri Oct 25 11:22:34 EDT 2013
User: price-jones
Dark Spectrum Present: No
Reference Spectrum Present: No
Number of Sampled Component Spectra: 1
Spectrometers: USB2+H05261
Integration Time (usec): 100000 (USB2+H05261)
Spectra Averaged: 1 (USB2+H05261)
Boxcar Smoothing: 0 (USB2+H05261)
Correct for Electrical Dark: No (USB2+H05261)
Strobe/Lamp Enabled: No (USB2+H05261)
Correct for Detector Non-linearity: No (USB2+H05261)
Correct for Stray Light: No (USB2+H05261)
Number of Pixels in Processed Spectrum: 2048
>>>>>Begin Processed Spectral Data<<<<<
365.73	196.60
365.92	196.60
366.12	196.60
366.32	117.03
366.52	117.03
366.72	163.84
366.91	163.84
367.11	102.98
367.31	126.39
367.51	119.37
367.70	229.37
367.90	173.20
368.10	88.94
368.30	159.16
368.49	93.62
368.69	194.26
368.89	149.79
369.09	135.75
369.28	156.82
369.48	142.77
369.68	91.28
369.87	187.24
370.07	156.82
370.27	215.33
370.47	245.76
370.66	589.82
370.86	608.54
371.06	622.58
371.25	697.48
371.45	615.56
371.65	620.24
371.84	678.76
372.04	739.61
372.24	702.16
372.44	718.54
372.63	737.27
372.83	798.12
373.03	753.65
373.22	840.25
373.42	704.50
373.62	737.27
373.81	819.19
374.01	821.53
374.21	786.42
374.40	800.46
374.60	823.87
374.79	807.48
374.99	809.83
375.19	816.85
375.38	856.64
375.58	922.17
375.78	828.55
375.97	898.77
376.17	814.51
376.37	802.80
376.56	863.66
376.76	835.57
376.95	744.29
377.15	866.00
377.35	922.17
377.54	915.15
377.74	940.90
377.93	788.76
378.13	924.51
378.33	870.68
378.52	919.83
378.72	931.53
378.91	910.47
379.11	938.55
379.31	968.98
379.50	896.43
379.70	999.41
379.89	957.28
380.09	924.51
380.28	910.47
380.48	992.39
380.68	931.53
380.87	917.49
381.07	1015.79
381.26	1048.56
381.46	1004.09
381.65	992.39
381.85	1039.20
382.04	1055.58
382.24	1100.05
382.43	1086.01
382.63	1036.86
382.83	1034.52
383.02	1090.69
383.22	1132.82
383.41	1086.01
383.61	1053.24
383.80	1196.01
384.00	1074.31
384.19	1177.29
384.39	1203.04
384.58	1116.44
384.78	1109.41
384.97	1165.59
385.17	1088.35
385.36	1163.25
385.56	1172.61
385.75	1179.63
385.95	1203.04
386.14	1130.48
386.34	1233.46
386.53	1198.35
386.72	1214.74
386.92	1306.02
387.11	1284.95
387.31	1270.91
387.50	1235.80
387.70	1221.76
387.89	1320.06
388.09	1235.80
388.28	1294.32
388.48	1338.79
388.67	1259.21
388.86	1228.78
389.06	1315.38
389.25	1355.17
389.45	1359.85
389.64	1291.98
389.84	1383.26
390.03	1308.36
390.22	1493.26
390.42	1390.28
390.61	1423.05
390.81	1446.45
391.00	1399.64
391.19	1474.54
391.39	1418.36
391.58	1493.26
391.78	1493.26
391.97	1441.77
392.16	1453.47
392.36	1565.82
392.55	1474.54
392.75	1535.39
392.94	1544.75
393.13	1544.75
393.33	1528.37
393.52	1530.71
393.71	1614.97
393.91	1537.73
394.10	1582.20
394.29	1619.65
394.49	1589.22
394.68	1706.25
394.88	1568.16
395.07	1682.85
395.26	1631.35
395.46	1673.48
395.65	1769.44
395.84	1736.68
396.04	1706.25
396.23	1713.27
396.42	1699.23
396.62	1870.09
396.81	1750.72
397.00	1769.44
397.19	1863.07
397.39	1802.21
397.58	1879.45
397.77	1797.53
397.97	1736.68
398.16	1933.28
398.35	1856.04
398.55	1856.04
398.74	1900.52
398.93	1989.46
399.12	1947.33
399.32	1851.36
399.51	1930.94
399.70	1982.43
399.90	1937.96
400.09	1980.09
400.28	2047.97
400.47	2008.18
400.67	2132.23
400.86	2024.56
401.05	2214.15
401.24	2078.40
401.44	2085.42
401.63	2139.25
401.82	2125.21
402.01	2150.95
402.21	2260.96
402.40	2282.02
402.59	2270.32
402.78	2146.27
402.97	2275.00
403.17	2307.77
403.36	2310.11
403.55	2359.26
403.74	2331.17
403.93	2335.85
404.13	2340.54
404.32	2335.85
404.51	2328.83
404.70	2478.63
404.89	2394.37
405.09	2567.57
405.28	2436.50
405.47	2546.50
405.66	2459.90
405.85	2476.29
406.05	2544.16
406.24	2605.02
406.43	2590.97
406.62	2626.08
406.81	2738.43
407.00	2567.57
407.20	2630.76
407.39	2630.76
407.58	2724.38
407.77	2672.89
407.96	2768.85
408.15	2822.69
408.34	2691.62
408.54	2930.35
408.73	2759.49
408.92	2850.77
409.11	2848.43
409.30	2951.42
409.49	2953.76
409.68	2946.73
409.87	2993.55
410.07	3052.06
410.26	2932.69
410.45	2916.31
410.64	3016.95
410.83	3148.02
411.02	3080.14
411.21	3129.30
411.40	3173.77
411.59	3255.69
411.78	3220.58
411.98	3112.91
412.17	3370.37
412.36	3255.69
412.55	3255.69
412.74	3403.14
412.93	3403.14
413.12	3471.01
413.31	3552.93
413.50	3597.40
413.69	3520.17
413.88	3590.38
414.07	3604.42
414.26	3770.60
414.45	3754.22
414.64	3691.02
414.83	3728.47
415.02	3892.31
415.22	3632.51
415.41	3981.25
415.60	3904.01
415.79	3960.19
415.98	4098.28
416.17	3861.88
416.36	3899.33
416.55	3985.93
416.74	4142.75
416.93	4107.64
417.12	4070.19
417.31	4376.80
417.50	4311.27
417.69	4266.80
417.88	4409.57
418.07	4301.90
418.26	4372.12
418.45	4348.72
418.64	4568.73
418.83	4334.67
419.02	4519.57
419.21	4561.70
419.39	4519.57
419.58	4512.55
419.77	4617.88
419.96	4734.90
420.15	4561.70
420.34	4613.20
420.53	4690.43
420.72	4786.40
420.91	4828.53
421.10	4746.61
421.29	4945.55
421.48	4772.35
421.67	4800.44
421.86	4786.40
422.05	4873.00
422.24	4919.81
422.43	4844.91
422.61	5015.77
422.80	4975.98
422.99	4912.78
423.18	4861.29
423.37	4983.00
423.56	4887.04
423.75	4936.19
423.94	4863.63
424.13	4681.07
424.32	4774.69
424.50	5102.37
424.69	5343.44
424.88	5111.73
425.07	5046.20
425.26	4873.00
425.45	5055.56
425.64	5172.58
425.83	5069.60
426.01	5093.01
426.20	5200.67
426.39	4922.15
426.58	5032.15
426.77	5093.01
426.96	5195.99
427.15	5130.45
427.33	5132.79
427.52	5259.18
427.71	5231.10
427.90	5401.96
428.09	5226.42
428.28	5427.70
428.46	5303.65
428.65	5579.84
428.84	5547.07
429.03	5647.71
429.22	5502.60
429.40	5542.39
429.59	5575.16
429.78	5420.68
429.97	5280.25
430.16	5584.52
430.34	5703.89
430.53	5619.63
430.72	5734.31
430.91	5628.99
431.10	5643.03
431.28	5706.23
431.47	5928.58
431.66	5940.28
431.85	5968.37
432.03	5987.09
432.22	6090.07
432.41	6047.94
432.60	6050.28
432.79	6010.50
432.97	6141.57
433.16	6160.29
433.35	6031.56
433.54	6150.93
433.72	6338.17
433.91	6155.61
434.10	6136.88
434.28	6225.82
434.47	6223.48
434.66	6429.45
434.85	6282.00
435.03	6258.59
435.22	6293.70
435.41	6462.22
435.59	6438.81
435.78	6551.16
435.97	6396.68
436.16	6450.52
436.34	6530.09
436.53	6532.44
436.72	6703.29
436.90	6562.86
437.09	6888.20
437.28	6593.29
437.46	6663.51
437.65	6773.51
437.84	6834.36
438.02	6813.30
438.21	6675.21
438.40	6693.93
438.58	6888.20
438.77	7091.82
438.96	7066.08
439.14	7098.84
439.33	7180.76
439.52	7414.82
439.70	7316.51
439.89	7365.67
440.08	7382.05
440.26	7344.60
440.45	7482.69
440.63	7691.00
440.82	7700.36
441.01	7396.09
441.19	7819.73
441.38	7754.19
441.57	7803.35
441.75	7777.60
441.94	8138.04
442.12	8177.83
442.31	8131.02
442.50	8234.00
442.68	8063.15
442.87	8107.62
443.05	8215.28
443.24	8280.82
443.43	8353.37
443.61	8320.60
443.80	8695.09
443.98	8116.98
444.17	8009.31
444.35	8234.00
444.54	8451.67
444.73	8531.25
444.91	8465.72
445.10	8278.47
445.28	8294.86
445.47	8376.78
445.65	8549.98
445.84	8475.08
446.02	8549.98
446.21	8557.00
446.39	8519.55
446.58	8753.60
446.77	8517.21
446.95	8645.94
447.14	8479.76
447.32	8791.05
447.51	8624.87
447.69	8484.44
447.88	8627.21
448.06	8608.49
448.25	8587.43
448.43	8910.42
448.62	8744.24
448.80	8503.17
448.99	8774.67
449.17	8990.00
449.36	8760.63
449.54	9004.04
449.73	8922.12
449.91	9064.89
450.10	9043.83
450.28	9018.08
450.46	9191.28
450.65	9193.62
450.83	9008.72
451.02	8940.85
451.20	9432.36
451.39	9174.90
451.57	9277.88
451.76	8940.85
451.94	9254.48
452.13	9462.79
452.31	9488.53
452.49	9413.63
452.68	9383.21
452.86	9352.78
453.05	9619.60
453.23	9741.31
453.42	9549.39
453.60	9467.47
453.78	9895.78
453.97	9722.59
454.15	9785.78
454.34	9493.21
454.52	9916.85
454.70	9657.05
454.89	9928.55
455.07	9984.73
455.26	9657.05
455.44	10022.17
455.62	10026.86
455.81	10111.11
455.99	9902.81
456.17	10068.98
456.36	10186.01
456.54	10260.91
456.73	10286.65
456.91	10516.03
457.09	10609.65
457.28	10721.99
457.46	10363.89
457.64	10520.71
457.83	10635.39
458.01	10633.05
458.19	10881.15
458.38	10600.29
458.56	10759.44
458.74	10902.22
458.93	10822.64
459.11	11028.60
459.29	10883.49
459.48	10920.94
459.66	10946.69
459.84	10960.73
460.03	11286.06
460.21	11150.31
460.39	11075.42
460.57	11365.64
460.76	11157.33
460.94	11339.90
461.12	11433.52
461.31	11185.42
461.49	11482.67
461.67	11220.53
461.85	11604.38
462.04	11431.18
462.22	11985.88
462.40	11534.16
462.59	11555.22
462.77	11506.07
462.95	11618.42
463.13	11864.18
463.32	11726.08
463.50	11978.86
463.68	12016.31
463.86	11985.88
464.05	11772.89
464.23	11772.89
464.41	11831.41
464.59	11721.40
464.78	12360.37
464.96	11974.18
465.14	12060.78
465.32	12219.94
465.50	12308.88
465.69	12285.47
465.87	12358.03
466.05	12285.47
466.23	12140.36
466.41	12327.60
466.60	12610.81
466.78	12201.21
466.96	12442.29
467.14	12402.50
467.32	12552.29
467.51	12706.77
467.69	12208.23
467.87	12540.59
468.05	12905.71
468.23	12697.41
468.41	12423.56
468.60	12704.43
468.78	13013.38
468.96	12971.25
469.14	13097.64
469.32	13310.63
469.50	12952.52
469.69	13172.54
469.87	13266.16
470.05	13233.39
470.23	13427.65
470.41	13427.65
470.59	13460.42
470.77	13191.26
470.95	13703.84
471.14	13940.23
471.32	13247.43
471.50	13544.68
471.68	13926.19
471.86	13792.78
472.04	13582.13
472.22	14033.85
472.40	13891.08
472.58	13963.64
472.77	14438.76
472.95	14293.65
473.13	14939.64
473.31	14188.33
473.49	14298.33
473.67	14375.57
473.85	14642.39
474.03	15009.86
474.21	14726.65
474.39	14958.36
474.57	14778.14
474.75	15267.31
474.93	15253.27
475.12	15143.27
475.30	15229.87
475.48	15316.47
475.66	15250.93
475.84	15417.11
476.02	15585.63
476.20	15527.11
476.38	15894.58
476.56	16198.85
476.74	16140.33
476.92	16147.36
477.10	15920.32
477.28	15964.79
477.46	16475.03
477.64	16592.06
477.82	16879.94
478.00	17224.00
478.18	16917.39
478.36	17106.98
478.54	17474.44
478.72	17413.59
478.90	17458.06
479.08	17561.04
479.26	17886.37
479.44	17818.50
479.62	18033.83
479.80	18317.03
479.98	18302.99
480.16	18792.16
480.34	18546.40
480.52	18668.11
480.70	18796.84
480.88	19005.15
481.06	18750.03
481.24	19136.22
481.41	19122.18
481.59	19513.05
481.77	19646.46
481.95	19798.59
482.13	20159.03
482.31	20187.12
482.49	20404.79
482.67	20365.00
482.85	20718.42
483.03	20744.17
483.21	20994.61
483.39	21385.47
483.57	21495.48
483.74	21748.26
483.92	21600.80
484.10	21303.56
484.28	22136.79
484.46	22286.58
484.64	22686.81
484.82	22050.19
485.00	22457.44
485.18	23140.88
485.35	23236.84
485.53	23222.80
485.71	23175.98
485.89	23974.11
486.07	23611.32
486.25	23426.42
486.43	24006.87
486.61	24233.91
486.78	24498.39
486.96	24486.68
487.14	24905.64
487.32	24669.25
487.50	25212.25
487.68	25315.23
487.85	25661.63
488.03	25879.30
488.21	25958.88
488.39	25851.22
488.57	26387.20
488.75	26565.08
488.92	26494.86
489.10	27175.96
489.28	27199.37
489.46	27283.62
489.64	27260.22
489.81	28006.85
489.99	28018.55
490.17	27845.35
490.35	28512.41
490.53	28425.81
490.70	28961.79
490.88	28507.72
491.06	29177.12
491.24	29355.00
491.41	29322.23
491.59	29624.16
491.77	29565.65
491.95	30008.01
492.13	30106.31
492.30	30328.66
492.48	30433.99
492.66	30387.18
492.84	30820.17
493.01	31218.07
493.19	31044.87
493.37	31569.15
493.54	31793.84
493.72	31990.44
493.90	31899.16
494.08	32402.38
494.25	32355.57
494.43	32734.73
494.61	32718.35
494.79	33329.23
494.96	33055.39
495.14	33226.24
495.32	33240.29
495.49	33579.67
495.67	33692.01
495.85	34061.82
496.02	34115.65
496.20	34398.85
496.38	34384.81
496.55	34639.93
496.73	35204.00
496.91	34541.63
497.09	35536.35
497.26	35639.34
497.44	35498.91
497.62	35484.86
497.79	36491.29
497.97	35847.64
498.14	36512.36
498.32	36655.13
498.50	36456.18
498.67	37207.50
498.85	36608.32
499.03	36807.26
499.20	37460.27
499.38	37317.50
499.56	37640.50
499.73	37663.90
499.91	38038.39
500.08	38497.13
500.26	38000.94
500.44	37710.71
500.61	38312.23
500.79	38401.17
500.97	38518.20
501.14	38958.22
501.32	38873.96
501.49	38621.18
501.67	39271.85
501.84	39576.12
502.02	39901.45
502.20	39086.95
502.37	39585.48
502.55	39936.56
502.72	39962.31
502.90	40074.65
503.07	39938.90
503.25	40189.34
503.43	40067.63
503.60	40659.79
503.78	40472.54
503.95	40975.76
504.13	40711.28
504.30	41357.27
504.48	40844.69
504.65	41280.03
504.83	41315.14
505.01	41476.63
505.18	42033.68
505.36	41888.57
505.53	41853.46
505.71	42167.09
505.88	42270.08
506.06	42234.97
506.23	42761.59
506.41	42209.22
506.58	42752.23
506.76	42691.37
506.93	43217.99
507.11	42974.58
507.28	43515.24
507.46	43180.54
507.63	43285.87
507.81	43887.39
507.98	43182.88
508.16	43569.07
508.33	43854.62
508.50	43868.66
508.68	44488.90
508.85	43835.89
509.03	44158.89
509.20	44839.98
509.38	45006.16
509.55	44755.72
509.73	45406.39
509.90	45354.90
510.08	45209.79
510.25	45134.89
510.42	45521.08
510.60	45336.18
510.77	45942.38
510.95	45759.81
511.12	45462.57
511.30	45687.26
511.47	45993.87
511.64	46234.94
511.82	46326.22
511.99	45930.67
512.17	46487.72
512.34	46401.12
512.51	46593.04
512.69	46862.21
512.86	46906.68
513.04	47000.30
513.21	46724.11
513.38	47082.22
513.56	47253.08
513.73	47463.72
513.90	47388.83
514.08	47650.97
514.25	47487.13
514.43	47892.04
514.60	47980.98
514.77	47737.57
514.95	47917.79
515.12	48357.81
515.29	47910.77
515.47	48090.99
515.64	48505.26
515.81	48523.99
515.99	48617.61
516.16	49111.46
516.33	49113.80
516.51	48744.00
516.68	49022.52
516.85	48727.61
517.03	49422.75
517.20	49448.50
517.37	49188.70
517.54	49205.08
517.72	49553.82
517.89	49490.63
518.06	49434.45
518.24	49720.00
518.41	49593.61
518.58	49792.56
518.75	49516.37
518.93	49951.71
519.10	49869.79
519.27	50073.42
519.45	50438.54
519.62	50581.32
519.79	50403.44
519.96	50251.30
520.14	50536.85
520.31	50202.15
520.48	50955.80
520.65	50958.14
520.83	51222.62
521.00	51217.94
521.17	51019.00
521.34	51194.54
521.52	50951.12
521.69	51063.47
521.86	51543.28
522.03	51613.49
522.20	51686.05
522.38	51831.16
522.55	51854.57
522.72	51728.18
522.89	51903.72
523.07	52140.11
523.24	52116.71
523.41	52158.84
523.58	52039.47
523.75	52617.58
523.92	52186.92
524.10	52374.17
524.27	52376.51
524.44	52683.12
524.61	52603.54
524.78	52671.42
524.96	52626.95
525.13	52552.05
525.30	52863.34
525.47	52783.76
525.64	52846.96
525.81	52872.70
525.98	53532.73
526.16	53113.78
526.33	52921.85
526.50	53277.61
526.67	53312.72
526.84	53530.39
527.01	53345.49
527.18	53324.43
527.36	53404.00
527.53	53432.09
527.70	53696.57
527.87	53560.82
528.04	53443.79
528.21	53584.22
528.38	53729.34
528.55	53867.43
528.72	53663.80
528.89	54136.59
529.07	53741.04
529.24	53776.15
529.41	54064.03
529.58	54129.57
529.75	53598.27
529.92	54134.25
530.09	54307.45
530.26	54616.40
530.43	54347.24
530.60	54157.66
530.77	54295.75
530.94	54424.48
531.11	54450.22
531.28	54335.54
531.46	54871.52
531.63	54630.44
531.80	54656.19
531.97	54897.27
532.14	54948.76
532.31	54843.43
532.48	55096.21
532.65	55072.81
532.82	54614.06
532.99	55023.65
533.16	54710.02
533.33	55285.79
533.50	55215.58
533.67	55058.76
533.84	54920.67
534.01	55423.89
534.18	55072.81
534.35	55435.59
534.52	55494.10
534.69	55543.25
534.86	55388.78
535.03	55292.82
535.20	55657.94
535.37	55840.50
535.54	55655.60
535.71	55674.32
535.88	56072.21
536.05	56025.40
536.22	55852.20
536.38	56062.85
536.55	55833.48
536.72	56034.77
536.89	55957.53
537.06	56161.15
537.23	56397.55
537.40	55901.36
537.57	56203.28
537.74	56023.06
537.91	56271.16
538.08	56374.14
538.25	56067.53
538.42	56191.58
538.59	56465.42
538.75	56207.97
538.92	56275.84
539.09	56584.79
539.26	56603.52
539.43	56432.66
539.60	56535.64
539.77	56711.18
539.94	56966.30
540.11	56676.07
540.28	56830.55
540.44	56978.00
540.61	56769.69
540.78	56879.70
540.95	56762.67
541.12	56708.84
541.29	56631.60
541.46	56928.85
541.62	56783.74
541.79	56975.66
541.96	56556.70
542.13	57008.43
542.30	56975.66
542.47	57181.63
542.63	57167.58
542.80	57240.14
542.97	57230.78
543.14	57471.85
543.31	57490.58
543.48	57635.69
543.64	57750.38
543.81	57923.58
543.98	57829.96
544.15	57797.19
544.32	57691.86
544.48	57944.64
544.65	57666.12
544.82	57619.31
544.99	57752.72
545.16	57804.21
545.32	57673.14
545.49	57972.73
545.66	57968.05
545.83	58052.31
546.00	58157.63
546.16	58052.31
546.33	57956.35
546.50	57804.21
546.67	57909.53
546.83	58054.65
547.00	58131.89
547.17	58085.07
547.34	58019.54
547.50	58213.80
547.67	58527.44
547.84	58314.45
548.00	58569.57
548.17	58571.91
548.34	58499.35
548.51	58525.10
548.67	58602.33
548.84	58363.60
549.01	58742.77
549.18	58347.21
549.34	58529.78
549.51	58770.85
549.68	58550.84
549.84	58691.27
550.01	58740.42
550.18	58431.47
550.34	58784.90
550.51	58775.53
550.68	58820.00
550.84	58475.94
551.01	58859.79
551.18	59002.56
551.34	58974.48
551.51	58878.52
551.68	58754.47
551.84	58815.32
552.01	58628.08
552.18	58820.00
552.34	58698.30
552.51	59044.69
552.68	58974.48
552.84	59063.42
553.01	59285.77
553.18	59213.21
553.34	59147.68
553.51	59133.63
553.67	59042.35
553.84	59189.81
554.01	59363.01
554.17	59365.35
554.34	59491.74
554.51	59180.45
554.67	59465.99
554.84	59161.72
555.00	59260.02
555.17	59243.64
555.33	59297.47
555.50	59248.32
555.67	59253.00
555.83	59318.54
556.00	59634.51
556.16	59849.84
556.33	59554.93
556.50	59440.24
556.66	59693.02
556.83	59564.29
556.99	59529.19
557.16	59924.74
557.32	59826.43
557.49	59842.82
557.65	59735.15
557.82	59639.19
557.98	59550.25
558.15	59812.39
558.32	59700.04
558.48	59531.53
558.65	59714.09
558.81	59547.91
558.98	59831.11
559.14	60147.09
559.31	59807.71
559.47	59966.87
559.64	59950.48
559.80	59920.05
559.97	60039.42
560.13	59915.37
560.30	59676.64
560.46	59913.03
560.63	59910.69
560.79	60039.42
560.96	60114.32
561.12	60301.56
561.29	60175.17
561.45	59990.27
561.61	59922.40
561.78	60055.81
561.94	60058.15
562.11	60182.19
562.27	60144.75
562.44	60219.64
562.60	60238.37
562.77	60271.14
562.93	60133.04
563.10	60423.27
563.26	60123.68
563.42	60570.72
563.59	60317.95
563.75	60329.65
563.92	60280.50
564.08	60135.38
564.24	60327.31
564.41	60353.05
564.57	60437.31
564.74	60484.12
564.90	60247.73
565.07	60289.86
565.23	60505.19
565.39	60406.89
565.56	60458.38
565.72	60275.82
565.88	60458.38
566.05	60308.58
566.21	60416.25
566.38	60594.13
566.54	60474.76
566.70	60732.22
566.87	60561.36
567.03	60392.84
567.19	60729.88
567.36	60779.03
567.52	60420.93
567.68	60725.20
567.85	60516.89
568.01	60748.60
568.17	60535.62
568.34	60755.63
568.50	60720.52
568.66	60458.38
568.83	60795.42
568.99	60537.96
569.15	60860.95
569.32	60683.07
569.48	60673.71
569.64	60748.60
569.81	60769.67
569.97	60671.37
570.13	60683.07
570.30	60622.22
570.46	60795.42
570.62	60781.37
570.78	60856.27
570.95	60764.99
571.11	60889.04
571.27	60683.07
571.43	60788.39
571.60	61043.51
571.76	60921.80
571.92	61045.85
572.09	60879.67
572.25	60889.04
572.41	60800.10
572.57	60657.32
572.74	61249.48
572.90	60963.93
573.06	61022.45
573.22	60884.36
573.38	60896.06
573.55	60795.42
573.71	61214.37
573.87	60825.84
574.03	60760.31
574.20	60987.34
574.36	60842.23
574.52	60900.74
574.68	60788.39
574.84	61300.97
575.01	61029.47
575.17	61071.60
575.33	60802.44
575.49	61090.32
575.65	61008.40
575.82	61116.07
575.98	61144.16
576.14	61024.79
576.30	61197.99
576.46	61083.30
576.62	60832.86
576.79	60795.42
576.95	61085.64
577.11	61230.75
577.27	61193.31
577.43	61076.28
577.59	61055.21
577.75	60853.93
577.92	61066.92
578.08	61148.84
578.24	61013.08
578.40	61298.63
578.56	61305.65
578.72	61165.22
578.88	61127.77
579.04	61317.35
579.21	61347.78
579.37	61048.19
579.53	61275.22
579.69	61144.16
579.85	61092.66
580.01	61087.98
580.17	61197.99
580.33	61036.49
580.49	61315.01
580.65	61102.03
580.82	61179.26
580.98	60989.68
581.14	61235.44
581.30	61158.20
581.46	61216.71
581.62	61258.84
581.78	61205.01
581.94	61261.18
582.10	61216.71
582.26	61226.07
582.42	61099.68
582.58	61174.58
582.74	61284.59
582.90	61207.35
583.06	61078.62
583.22	61006.06
583.38	61244.80
583.54	61298.63
583.70	61307.99
583.86	61291.61
584.02	61312.67
584.18	61460.13
584.34	61268.20
584.50	61326.72
584.66	61319.70
584.82	61010.74
584.98	61319.70
585.14	61380.55
585.30	61146.50
585.46	61172.24
585.62	61256.50
585.78	61291.61
585.94	61031.81
586.10	61322.04
586.26	61219.05
586.42	61340.76
586.58	61432.04
586.74	61310.33
586.90	61268.20
587.06	61209.69
587.22	61392.25
587.38	61345.44
587.54	61401.61
587.70	61403.95
587.86	61336.08
588.02	61385.23
588.18	61441.40
588.34	61251.82
588.49	61420.34
