SpectraSuite Data File
++++++++++++++++++++++++++++++++++++
Date: Fri Oct 25 10:43:59 EDT 2013
User: price-jones
Dark Spectrum Present: No
Reference Spectrum Present: No
Number of Sampled Component Spectra: 1
Spectrometers: USB2+H05261
Integration Time (usec): 100000 (USB2+H05261)
Spectra Averaged: 1 (USB2+H05261)
Boxcar Smoothing: 0 (USB2+H05261)
Correct for Electrical Dark: No (USB2+H05261)
Strobe/Lamp Enabled: No (USB2+H05261)
Correct for Detector Non-linearity: No (USB2+H05261)
Correct for Stray Light: No (USB2+H05261)
Number of Pixels in Processed Spectrum: 2048
>>>>>Begin Processed Spectral Data<<<<<
365.73	86.60
365.92	86.60
366.12	86.60
366.32	37.45
366.52	77.24
366.72	74.90
366.91	0.00
367.11	44.47
367.31	9.36
367.51	18.72
367.70	35.11
367.90	9.36
368.10	51.49
368.30	42.13
368.49	49.15
368.69	25.75
368.89	16.38
369.09	7.02
369.28	14.04
369.48	25.75
369.68	74.90
369.87	107.66
370.07	58.51
370.27	42.13
370.47	194.26
370.66	393.21
370.86	463.43
371.06	496.19
371.25	535.98
371.45	475.13
371.65	505.56
371.84	449.38
372.04	409.59
372.24	416.62
372.44	519.60
372.63	503.22
372.83	573.43
373.03	514.92
373.22	540.66
373.42	559.39
373.62	517.26
373.81	493.85
374.01	528.96
374.21	550.03
374.40	566.41
374.60	482.15
374.79	657.69
374.99	622.58
375.19	582.79
375.38	636.63
375.58	545.34
375.78	610.88
375.97	627.26
376.17	669.39
376.37	634.29
376.56	617.90
376.76	589.82
376.95	578.11
377.15	599.18
377.35	664.71
377.54	636.63
377.74	730.25
377.93	685.78
378.13	688.12
378.33	648.33
378.52	683.44
378.72	650.67
378.91	704.50
379.11	660.03
379.31	620.24
379.50	653.01
379.70	744.29
379.89	711.52
380.09	662.37
380.28	678.76
380.48	751.31
380.68	777.06
380.87	720.88
381.07	718.54
381.26	791.10
381.46	678.76
381.65	713.86
381.85	681.10
382.04	706.84
382.24	645.99
382.43	788.76
382.63	648.33
382.83	704.50
383.02	697.48
383.22	791.10
383.41	699.82
383.61	688.12
383.80	774.72
384.00	819.19
384.19	772.38
384.39	840.25
384.58	828.55
384.78	842.59
384.97	823.87
385.17	805.14
385.36	807.48
385.56	788.76
385.75	814.51
385.95	795.78
386.14	795.78
386.34	887.06
386.53	812.17
386.72	835.57
386.92	929.19
387.11	837.91
387.31	866.00
387.50	882.38
387.70	830.89
387.89	884.72
388.09	929.19
388.28	873.02
388.48	943.24
388.67	947.92
388.86	947.92
389.06	954.94
389.25	947.92
389.45	1032.18
389.64	994.73
389.84	1029.84
390.03	924.51
390.22	950.26
390.42	968.98
390.61	1020.47
390.81	1128.14
391.00	1107.07
391.19	1064.94
391.39	999.41
391.58	1151.54
391.78	1111.75
391.97	1020.47
392.16	1027.50
392.36	1076.65
392.55	1071.97
392.75	1032.18
392.94	959.62
393.13	959.62
393.33	978.34
393.52	1022.81
393.71	1167.93
393.91	1179.63
394.10	1205.38
394.29	1219.42
394.49	1090.69
394.68	1245.16
394.88	1174.95
395.07	1287.29
395.26	1181.97
395.46	1256.87
395.65	1242.82
395.84	1233.46
396.04	1235.80
396.23	1165.59
396.42	1165.59
396.62	1245.16
396.81	1242.82
397.00	1214.74
397.19	1287.29
397.39	1231.12
397.58	1453.47
397.77	1413.68
397.97	1355.17
398.16	1399.64
398.35	1579.86
398.55	1350.49
398.74	1530.71
398.93	1603.27
399.12	1542.41
399.32	1598.59
399.51	1516.67
399.70	1556.46
399.90	1540.07
400.09	1680.50
400.28	1650.08
400.47	1577.52
400.67	1636.03
400.86	1769.44
401.05	1614.97
401.24	1713.27
401.44	1774.13
401.63	1717.95
401.82	1820.94
402.01	1734.34
402.21	1813.92
402.40	1743.70
402.59	1778.81
402.78	1710.93
402.97	1788.17
403.17	1696.89
403.36	1743.70
403.55	1788.17
403.74	1893.49
403.93	1877.11
404.13	1865.41
404.32	1914.56
404.51	2003.50
404.70	1944.99
404.89	1975.41
405.09	2113.50
405.28	1998.82
405.47	1952.01
405.66	2017.54
405.85	2010.52
406.05	1994.14
406.24	2111.16
406.43	1961.37
406.62	2022.22
406.81	2186.06
407.00	2150.95
407.20	2022.22
407.39	2033.93
407.58	2141.59
407.77	2153.29
407.96	2319.47
408.15	2265.64
408.34	2197.76
408.54	2349.90
408.73	2331.17
408.92	2282.02
409.11	2293.72
409.30	2258.62
409.49	2183.72
409.68	2338.20
409.87	2310.11
410.07	2382.67
410.26	2293.72
410.45	2485.65
410.64	2612.04
410.83	2438.84
411.02	2626.08
411.21	2691.62
411.40	2593.31
411.59	2710.34
411.78	2607.36
411.98	2532.46
412.17	2651.83
412.36	2572.25
412.55	2642.46
412.74	2677.57
412.93	2860.13
413.12	2686.94
413.31	2967.80
413.50	2841.41
413.69	2888.22
413.88	2836.73
414.07	3035.67
414.26	3012.27
414.45	3012.27
414.64	3063.76
414.83	3009.93
415.02	3023.97
415.22	3112.91
415.41	3094.19
415.60	3122.27
415.79	3220.58
415.98	3344.63
416.17	3304.84
416.36	3276.75
416.55	3346.97
416.74	3241.64
416.93	3370.37
417.12	3251.00
417.31	3536.55
417.50	3361.01
417.69	3449.95
417.88	3414.84
418.07	3431.23
418.26	3503.78
418.45	3527.19
418.64	3646.55
418.83	3632.51
419.02	3648.90
419.21	3595.06
419.39	3548.25
419.58	3616.13
419.77	3536.55
419.96	3705.07
420.15	3662.94
420.34	3709.75
420.53	3702.73
420.72	3925.08
420.91	3880.61
421.10	3948.48
421.29	3880.61
421.48	3859.54
421.67	3936.78
421.86	3871.25
422.05	3805.71
422.24	3836.14
422.43	3889.97
422.61	3681.66
422.80	4140.41
422.99	3941.46
423.18	4105.30
423.37	4117.00
423.56	3957.85
423.75	3953.16
423.94	3946.14
424.13	3730.81
424.32	3850.18
424.50	3936.78
424.69	3962.53
424.88	4133.39
425.07	3967.21
425.26	3880.61
425.45	4004.66
425.64	3779.97
425.83	3913.38
426.01	4018.70
426.20	3997.64
426.39	4084.23
426.58	4032.74
426.77	4058.49
426.96	3957.85
427.15	4037.42
427.33	4016.36
427.52	4107.64
427.71	4156.79
427.90	4227.01
428.09	4285.52
428.28	4203.60
428.46	4166.15
428.65	4131.05
428.84	4229.35
429.03	4327.65
429.22	4107.64
429.40	4243.39
429.59	4056.15
429.78	4004.66
429.97	3985.93
430.16	4105.30
430.34	4156.79
430.53	4184.88
430.72	4205.94
430.91	4348.72
431.10	4400.21
431.28	4409.57
431.47	4631.92
431.66	4828.53
431.85	4561.70
432.03	4662.35
432.22	4821.50
432.41	4564.04
432.60	4685.75
432.79	4807.46
432.97	4784.06
433.16	4835.55
433.35	4540.64
433.54	4758.31
433.72	4830.87
433.91	4624.90
434.10	4793.42
434.28	4882.36
434.47	4887.04
434.66	5022.79
434.85	4865.97
435.03	4919.81
435.22	4990.02
435.41	5259.18
435.59	5210.03
435.78	5109.39
435.97	5198.33
436.16	5287.27
436.34	5025.13
436.53	5266.21
436.72	5158.54
436.90	5256.84
437.09	5186.63
437.28	5259.18
437.46	5205.35
437.65	5284.93
437.84	5123.43
438.02	5273.23
438.21	5165.56
438.40	5093.01
438.58	5387.91
438.77	5416.00
438.96	5305.99
439.14	5568.13
439.33	5619.63
439.52	5544.73
439.70	5483.88
439.89	5891.13
440.08	5652.39
440.26	5774.10
440.45	5731.97
440.63	6059.65
440.82	6033.90
441.01	5970.71
441.19	6033.90
441.38	6094.76
441.57	6104.12
441.75	6296.04
441.94	6392.00
442.12	6490.31
442.31	6448.18
442.50	6356.90
442.68	6368.60
442.87	6413.07
443.05	6354.55
443.24	6534.78
443.43	6485.62
443.61	6523.07
443.80	6546.48
443.98	6289.02
444.17	6282.00
444.35	6623.72
444.54	6635.42
444.73	6691.59
444.91	6483.28
445.10	6656.48
445.28	6431.79
445.47	6310.08
445.65	6469.24
445.84	6698.61
446.02	6707.98
446.21	6675.21
446.39	6574.56
446.58	6656.48
446.77	6672.87
446.95	6553.50
447.14	6846.07
447.32	6848.41
447.51	6675.21
447.69	6832.02
447.88	6703.29
448.06	6869.47
448.25	6635.42
448.43	6757.13
448.62	6623.72
448.80	6810.96
448.99	7000.54
449.17	6815.64
449.36	6754.79
449.54	6958.41
449.73	7133.95
449.91	7047.35
450.10	7096.50
450.28	7246.30
450.46	7283.75
450.65	7342.26
450.83	7241.62
451.02	7208.85
451.20	7279.07
451.39	7180.76
451.57	7131.61
451.76	7143.32
451.94	7227.57
452.13	7393.75
452.31	7368.01
452.49	7267.36
452.68	7267.36
452.86	7250.98
453.05	7192.47
453.23	7375.03
453.42	7375.03
453.60	7452.27
453.78	7571.63
453.97	7604.40
454.15	7543.55
454.34	7372.69
454.52	7590.36
454.70	7496.74
454.89	7599.72
455.07	7564.61
455.26	7562.27
455.44	7831.43
455.62	7868.88
455.81	7866.54
455.99	7786.96
456.17	7747.17
456.36	7939.10
456.54	8149.75
456.73	8049.10
456.91	8159.11
457.09	8461.04
457.28	8264.43
457.46	8128.68
457.64	8102.93
457.83	8203.58
458.01	8088.89
458.19	8538.27
458.38	8182.51
458.56	8194.22
458.74	8180.17
458.93	8383.80
459.11	8402.52
459.29	8545.30
459.48	8425.93
459.66	8468.06
459.84	8496.14
460.03	8585.08
460.21	8571.04
460.39	8744.24
460.57	8542.96
460.76	8585.08
460.94	8671.68
461.12	8865.95
461.31	8746.58
461.49	8458.70
461.67	8828.50
461.85	8999.36
462.04	9008.72
462.22	8973.61
462.40	9022.77
462.59	9053.19
462.77	9114.05
462.95	8936.17
463.13	8884.67
463.32	9081.28
463.50	9114.05
463.68	9195.96
463.86	9057.87
464.05	8877.65
464.23	9186.60
464.41	9121.07
464.59	8961.91
464.78	9350.44
464.96	9245.12
465.14	9200.65
465.32	9261.50
465.50	9259.16
465.69	9434.70
465.87	9397.25
466.05	9060.21
466.23	9231.07
466.41	9184.26
466.60	9518.96
466.78	9240.44
466.96	9144.47
467.14	9245.12
467.32	9455.76
467.51	9598.54
467.69	9296.61
467.87	9497.89
468.05	9729.61
468.23	9549.39
468.41	9390.23
468.60	9668.75
468.78	10015.15
468.96	9731.95
469.14	9804.50
469.32	9928.55
469.50	9582.15
469.69	9795.14
469.87	9909.83
470.05	9879.40
470.23	10022.17
470.41	9870.04
470.59	10134.52
470.77	9996.43
470.95	10076.01
471.14	10139.20
471.32	10090.05
471.50	10352.19
471.68	10637.73
471.86	10485.60
472.04	10370.91
472.22	10754.76
472.40	10434.11
472.58	10443.47
472.77	10509.01
472.95	10827.32
473.13	10871.79
473.31	10457.51
473.49	10782.85
473.67	10637.73
473.85	10813.28
474.03	10927.96
474.21	10979.45
474.39	10977.11
474.57	11091.80
474.75	11496.71
474.93	11480.33
475.12	11281.38
475.30	11363.30
475.48	11028.60
475.66	11342.24
475.84	11255.64
476.02	11604.38
476.20	11536.50
476.38	11712.04
476.56	12049.08
476.74	12107.59
476.92	12042.06
477.10	12109.93
477.28	12114.61
477.46	12343.99
477.64	12299.52
477.82	12461.01
478.00	12578.04
478.18	12781.67
478.36	12683.36
478.54	12851.88
478.72	12758.26
478.90	13118.70
479.08	12982.95
479.26	13226.37
479.44	13202.96
479.62	13338.71
479.80	13453.40
479.98	13540.00
480.16	13689.79
480.34	13851.29
480.52	14160.24
480.70	13996.40
480.88	13951.93
481.06	14125.13
481.24	14188.33
481.41	14415.36
481.59	14633.03
481.77	14588.56
481.95	14530.05
482.13	14796.87
482.31	14785.16
482.49	15000.49
482.67	15094.11
482.85	15197.10
483.03	15370.30
483.21	15314.13
483.39	15735.42
483.57	15426.47
483.74	15550.52
483.92	15662.86
484.10	15716.70
484.28	16051.39
484.46	15946.07
484.64	16617.80
484.82	16262.04
485.00	16283.11
485.18	16744.19
485.35	16709.08
485.53	16318.22
485.71	16538.23
485.89	16393.11
486.07	16610.78
486.25	16730.15
486.43	17003.99
486.61	17209.96
486.78	17334.01
486.96	17547.00
487.14	17722.54
487.32	17891.06
487.50	18157.88
487.68	18469.17
487.85	18686.84
488.03	18373.21
488.21	18607.26
488.39	18635.35
488.57	18553.43
488.75	19061.32
488.92	19332.82
489.10	19412.40
489.28	19716.67
489.46	19957.75
489.64	19740.08
489.81	20233.93
489.99	20116.90
490.17	20545.22
490.35	20362.66
490.53	20858.85
490.70	20854.17
490.88	20723.10
491.06	20807.36
491.24	21020.35
491.41	21081.21
491.59	21069.50
491.77	20807.36
491.95	21404.20
492.13	21240.36
492.30	21731.87
492.48	21710.81
492.66	21769.32
492.84	21972.95
493.01	22288.92
493.19	22422.33
493.37	21986.99
493.54	22733.62
493.72	22906.82
493.90	22778.09
494.08	23068.32
494.25	23358.55
494.43	23421.74
494.61	23283.65
494.79	23590.26
494.96	23566.85
495.14	23779.84
495.32	23826.65
495.49	23981.13
495.67	23981.13
495.85	24500.73
496.02	24339.23
496.20	24369.66
496.38	24725.42
496.55	25097.56
496.73	25406.52
496.91	25015.65
497.09	25640.57
497.26	24821.38
497.44	25254.38
497.62	25460.35
497.79	25680.36
497.97	25352.68
498.14	25928.45
498.32	25645.25
498.50	26068.89
498.67	26225.70
498.85	26328.69
499.03	26604.87
499.20	26363.79
499.38	26551.04
499.56	26541.68
499.73	26569.76
499.91	26780.41
500.08	26862.33
500.26	26511.25
500.44	26775.73
500.61	26630.62
500.79	26771.05
500.97	27068.30
501.14	27552.79
501.32	27075.32
501.49	27402.99
501.67	27377.25
501.84	27491.93
502.02	27662.79
502.20	27885.14
502.37	28006.85
502.55	27882.80
502.72	28016.21
502.90	28278.35
503.07	28474.96
503.25	28594.32
503.43	28254.95
503.60	28395.38
503.78	28313.46
503.95	28673.90
504.13	28716.03
504.30	28751.14
504.48	28898.59
504.65	29331.59
504.83	29371.38
505.01	29488.41
505.18	29310.53
505.36	29855.87
505.53	29509.47
505.71	30029.07
505.88	29970.56
506.06	29479.05
506.23	29890.98
506.41	29670.97
506.58	30118.01
506.76	30066.52
506.93	29942.47
507.11	29717.78
507.28	30616.55
507.46	30433.99
507.63	30192.91
507.81	30649.32
507.98	30403.56
508.16	30476.12
508.33	31084.65
508.50	30974.65
508.68	31087.00
508.85	31564.46
509.03	30972.31
509.20	31250.83
509.38	31246.15
509.55	31749.37
509.73	31592.55
509.90	31934.27
510.08	31695.53
510.25	31796.18
510.42	31850.01
510.60	31697.88
510.77	32149.60
510.95	31892.14
511.12	32278.33
511.30	32498.34
511.47	32545.15
511.64	32645.79
511.82	32671.54
511.99	32432.80
512.17	32484.30
512.34	32664.52
512.51	32547.49
512.69	33039.00
512.86	33251.99
513.04	33174.75
513.21	33092.83
513.38	33099.86
513.56	33343.27
513.73	33352.63
513.90	33432.21
514.08	33301.14
514.25	33490.73
514.43	33404.13
514.60	33476.68
514.77	33572.64
514.95	34017.35
515.12	33614.77
515.29	34022.03
515.47	34623.54
515.64	33963.51
515.81	33806.70
515.99	34071.18
516.16	34164.80
516.33	33659.24
516.51	33897.98
516.68	33619.46
516.85	33827.76
517.03	33802.02
517.20	34106.29
517.37	34408.22
517.54	34536.94
517.72	34312.25
517.89	34487.79
518.06	34265.44
518.24	34218.63
518.41	34597.80
518.58	34768.66
518.75	34827.17
518.93	34962.92
519.10	35089.31
519.27	35351.45
519.45	35578.48
519.62	35517.63
519.79	35178.25
519.96	35311.66
520.14	35779.77
520.31	35718.92
520.48	35651.04
520.65	35793.81
520.83	36013.82
521.00	36133.19
521.17	36009.14
521.34	36034.89
521.52	36631.72
521.69	36804.92
521.86	36823.65
522.03	36641.09
522.20	36563.85
522.38	36423.42
522.55	36582.57
522.72	36491.29
522.89	36898.55
523.07	37137.28
523.24	36732.37
523.41	37479.00
523.58	37188.77
523.75	37563.26
523.92	37322.18
524.10	37221.54
524.27	37624.11
524.44	37659.22
524.61	37694.33
524.78	37640.50
524.96	37411.12
525.13	38181.16
525.30	37670.92
525.47	38066.47
525.64	38036.05
525.81	38043.07
525.98	37933.06
526.16	37305.80
526.33	37766.88
526.50	37881.57
526.67	37834.76
526.84	37661.56
527.01	37996.26
527.18	37806.67
527.36	38258.40
527.53	38124.99
527.70	38761.61
527.87	38604.80
528.04	38422.23
528.21	38909.07
528.38	38590.75
528.55	39014.39
528.72	39342.06
528.89	39377.17
529.07	39021.41
529.24	39225.04
529.41	39250.78
529.58	39108.01
529.75	38962.90
529.92	39283.55
530.09	39416.96
530.26	39452.07
530.43	40226.79
530.60	39445.05
530.77	39508.24
530.94	39955.29
531.11	39445.05
531.28	39578.46
531.46	39711.87
531.63	40339.13
531.80	40072.31
531.97	39508.24
532.14	39793.79
532.31	39246.10
532.48	39768.04
532.65	39803.15
532.82	40084.01
532.99	40060.61
533.16	40060.61
533.33	40151.89
533.50	40154.23
533.67	40601.27
533.84	40182.32
534.01	40928.95
534.18	40397.65
534.35	40219.77
534.52	40243.17
534.69	40612.98
534.86	40755.75
535.03	40832.99
535.20	41174.70
535.37	41383.01
535.54	41027.25
535.71	41378.33
535.88	41301.09
536.05	40622.34
536.22	41097.47
536.38	40821.28
536.55	41235.56
536.72	41076.40
536.89	40865.75
537.06	41050.66
537.23	41551.53
537.40	41242.58
537.57	41359.61
537.74	41186.41
537.91	41558.55
538.08	41722.39
538.25	41383.01
538.42	41600.68
538.59	41691.96
538.75	41111.51
538.92	41420.46
539.09	41689.62
539.26	41811.33
539.43	41694.30
539.60	42073.47
539.77	41715.37
539.94	41717.71
540.11	41904.95
540.28	41441.53
540.44	41663.88
540.61	41652.17
540.78	41268.33
540.95	41949.42
541.12	41860.48
541.29	41710.69
541.46	42206.88
541.62	42319.23
541.79	42527.53
541.96	41888.57
542.13	42183.48
542.30	42293.48
542.47	42391.78
542.63	41872.18
542.80	42801.38
542.97	42801.38
543.14	42869.25
543.31	42855.21
543.48	43171.18
543.64	43243.74
543.81	43012.02
543.98	43306.93
544.15	43157.14
544.32	42897.34
544.48	43421.62
544.65	43428.64
544.82	43019.05
544.99	42967.55
545.16	43220.33
545.32	43597.16
545.49	43250.76
545.66	43665.03
545.83	43629.93
546.00	43342.04
546.16	43559.71
546.33	43103.31
546.50	43285.87
546.67	43225.01
546.83	43058.84
547.00	43313.95
547.17	43693.12
547.34	43419.28
547.50	43606.52
547.67	44388.26
547.84	43845.26
548.00	44549.76
548.17	44098.03
548.34	43674.40
548.51	44542.74
548.67	44198.68
548.84	44144.84
549.01	43983.35
549.18	44062.93
549.34	43915.47
549.51	44339.11
549.68	44254.85
549.84	44406.98
550.01	44472.52
550.18	44072.29
550.34	44439.75
550.51	44247.83
550.68	44341.45
550.84	43768.02
551.01	44399.96
551.18	44477.20
551.34	44296.98
551.51	44502.95
551.68	44561.46
551.84	44552.10
552.01	44552.10
552.18	44816.58
552.34	44217.40
552.51	44458.48
552.68	44406.98
552.84	44584.86
553.01	44839.98
553.18	44664.44
553.34	44767.43
553.51	44928.92
553.67	45059.99
553.84	45633.42
554.01	44849.35
554.17	45017.86
554.34	45329.16
554.51	45113.83
554.67	45282.34
554.84	45184.04
555.00	44933.60
555.17	44804.88
555.33	44919.56
555.50	45221.49
555.67	45038.93
555.83	44779.13
556.00	45151.27
556.16	45701.30
556.33	45184.04
556.50	45219.15
556.66	45226.17
556.83	45090.42
556.99	45364.26
557.16	45511.72
557.32	45303.41
557.49	45230.85
557.65	45399.37
557.82	45160.64
557.98	45478.95
558.15	44933.60
558.32	45708.32
558.48	44982.76
558.65	45249.58
558.81	45411.07
558.98	45659.17
559.14	45045.95
559.31	45319.79
559.47	45792.58
559.64	45556.19
559.80	45523.42
559.97	45666.19
560.13	45860.46
560.30	45668.53
560.46	45834.71
560.63	45614.70
560.79	45607.68
560.96	45951.74
561.12	45619.38
561.29	45443.84
561.45	45556.19
561.61	45972.80
561.78	45757.47
561.94	45258.94
562.11	45539.80
562.27	45287.03
562.44	45722.37
562.60	45736.41
562.77	45947.06
562.93	46192.81
563.10	45647.47
563.26	45635.77
563.42	45846.41
563.59	45844.07
563.75	45776.20
563.92	45834.71
564.08	46284.09
564.24	46525.17
564.41	46075.79
564.57	46052.38
564.74	45528.10
564.90	46251.33
565.07	45977.48
565.23	45949.40
565.39	45680.24
565.56	46291.12
565.72	45188.72
565.88	46195.15
566.05	46192.81
566.21	45965.78
566.38	46073.45
566.54	46012.59
566.70	46206.86
566.87	46562.62
567.03	46321.54
567.19	46527.51
567.36	46089.83
567.52	46099.19
567.68	46319.20
567.85	45572.57
568.01	46136.64
568.17	46071.10
568.34	46424.53
568.50	46342.61
568.66	46241.96
568.83	45921.31
568.99	45804.28
569.15	46335.59
569.32	45963.44
569.48	46064.08
569.64	46674.96
569.81	46122.60
569.97	46110.89
570.13	45998.55
570.30	46143.66
570.46	46024.29
570.62	45645.13
570.78	45968.12
570.95	45904.93
571.11	46405.80
571.27	45949.40
571.43	45617.04
571.60	46335.59
571.76	46281.75
571.92	46375.37
572.09	45823.01
572.25	46169.41
572.41	46761.56
572.57	46307.50
572.74	46848.16
572.90	46295.80
573.06	45984.51
573.22	46162.39
573.38	46291.12
573.55	46260.69
573.71	46438.57
573.87	46791.99
574.03	46571.98
574.20	46623.47
574.36	46038.34
574.52	45979.82
574.68	46019.61
574.84	46576.66
575.01	46150.68
575.17	46314.52
575.33	46211.54
575.49	46398.78
575.65	46422.19
575.82	46628.15
575.98	46436.23
576.14	46508.79
576.30	46394.10
576.46	46363.67
576.62	46459.63
576.79	46436.23
576.95	45897.91
577.11	46539.21
577.27	46363.67
577.43	46586.02
577.59	46403.46
577.75	46007.91
577.92	45893.22
578.08	46021.95
578.24	46000.89
578.40	46054.72
578.56	46337.93
578.72	46382.40
578.88	46665.60
579.04	47009.66
579.21	46103.87
579.37	46412.82
579.53	46384.74
579.69	46234.94
579.85	46202.18
580.01	46492.40
580.17	46347.29
580.33	46382.40
580.49	46609.43
580.65	46719.43
580.82	45727.05
580.98	46361.33
581.14	46562.62
581.30	46799.01
581.46	46351.97
581.62	46719.43
581.78	46497.08
581.94	46602.41
582.10	46454.95
582.26	46188.13
582.42	46508.79
582.58	46515.81
582.74	46550.91
582.90	46848.16
583.06	46700.71
583.22	46614.11
583.38	46529.85
583.54	46366.01
583.70	46461.97
583.86	46513.47
584.02	46637.51
584.18	46623.47
584.34	46281.75
584.50	46169.41
584.66	46459.63
584.82	46073.45
584.98	46333.24
585.14	46522.83
585.30	46436.23
585.46	46546.23
585.62	46213.88
585.78	45869.82
585.94	46052.38
586.10	46504.10
586.26	46408.14
586.42	46469.00
586.58	46485.38
586.74	46681.98
586.90	46567.30
587.06	46190.47
587.22	46576.66
587.38	46300.48
587.54	46820.08
587.70	46824.76
587.86	46562.62
588.02	46270.05
588.18	46529.85
588.34	46134.30
588.49	46052.38
588.65	45921.31
588.81	46127.28
588.97	46113.23
589.13	46047.70
589.29	46344.95
589.45	46506.44
589.61	46351.97
589.77	46712.41
589.93	46670.28
