SpectraSuite Data File
++++++++++++++++++++++++++++++++++++
Date: Fri Oct 25 10:47:50 EDT 2013
User: price-jones
Dark Spectrum Present: No
Reference Spectrum Present: No
Number of Sampled Component Spectra: 1
Spectrometers: USB2+H05261
Integration Time (usec): 100000 (USB2+H05261)
Spectra Averaged: 1 (USB2+H05261)
Boxcar Smoothing: 0 (USB2+H05261)
Correct for Electrical Dark: No (USB2+H05261)
Strobe/Lamp Enabled: No (USB2+H05261)
Correct for Detector Non-linearity: No (USB2+H05261)
Correct for Stray Light: No (USB2+H05261)
Number of Pixels in Processed Spectrum: 2048
>>>>>Begin Processed Spectral Data<<<<<
365.73	184.90
365.92	184.90
366.12	184.90
366.32	51.49
366.52	86.60
366.72	107.66
366.91	51.49
367.11	107.66
367.31	42.13
367.51	23.41
367.70	39.79
367.90	4.68
368.10	11.70
368.30	39.79
368.49	60.85
368.69	51.49
368.89	16.38
369.09	44.47
369.28	77.24
369.48	70.22
369.68	117.03
369.87	63.19
370.07	184.90
370.27	175.54
370.47	182.56
370.66	315.97
370.86	390.87
371.06	351.08
371.25	458.74
371.45	451.72
371.65	425.98
371.84	510.24
372.04	454.06
372.24	540.66
372.44	472.79
372.63	454.06
372.83	554.71
373.03	468.11
373.22	414.27
373.42	498.53
373.62	512.58
373.81	510.24
374.01	601.52
374.21	566.41
374.40	524.28
374.60	510.24
374.79	465.77
374.99	524.28
375.19	582.79
375.38	620.24
375.58	648.33
375.78	526.62
375.97	622.58
376.17	655.35
376.37	561.73
376.56	587.47
376.76	589.82
376.95	620.24
377.15	648.33
377.35	606.20
377.54	650.67
377.74	580.45
377.93	592.16
378.13	571.09
378.33	613.22
378.52	620.24
378.72	774.72
378.91	610.88
379.11	671.73
379.31	638.97
379.50	641.31
379.70	648.33
379.89	610.88
380.09	641.31
380.28	627.26
380.48	557.05
380.68	585.13
380.87	674.07
381.07	629.60
381.26	674.07
381.46	650.67
381.65	734.93
381.85	695.14
382.04	657.69
382.24	697.48
382.43	753.65
382.63	671.73
382.83	676.41
383.02	695.14
383.22	725.57
383.41	711.52
383.61	779.40
383.80	767.70
384.00	713.86
384.19	774.72
384.39	858.98
384.58	760.67
384.78	760.67
384.97	800.46
385.17	767.70
385.36	734.93
385.56	781.74
385.75	713.86
385.95	791.10
386.14	795.78
386.34	753.65
386.53	758.33
386.72	723.23
386.92	851.96
387.11	880.04
387.31	833.23
387.50	837.91
387.70	833.23
387.89	877.70
388.09	861.32
388.28	833.23
388.48	805.14
388.67	877.70
388.86	896.43
389.06	851.96
389.25	854.30
389.45	961.96
389.64	940.90
389.84	917.49
390.03	922.17
390.22	945.58
390.42	901.11
390.61	858.98
390.81	922.17
391.00	922.17
391.19	854.30
391.39	1011.11
391.58	985.37
391.78	901.11
391.97	959.62
392.16	1013.45
392.36	968.98
392.55	1027.50
392.75	1004.09
392.94	922.17
393.13	922.17
393.33	992.39
393.52	1027.50
393.71	1107.07
393.91	1022.81
394.10	1060.26
394.29	1025.15
394.49	1041.54
394.68	1025.15
394.88	1132.82
395.07	1165.59
395.26	1095.37
395.46	1132.82
395.65	1165.59
395.84	1121.12
396.04	1188.99
396.23	1177.29
396.42	1043.88
396.62	1149.20
396.81	1191.33
397.00	1111.75
397.19	1158.57
397.39	1174.95
397.58	1179.63
397.77	1240.48
397.97	1207.72
398.16	1212.40
398.35	1296.66
398.55	1188.99
398.74	1291.98
398.93	1324.74
399.12	1282.61
399.32	1291.98
399.51	1310.70
399.70	1369.21
399.90	1427.73
400.09	1371.55
400.28	1425.39
400.47	1357.51
400.67	1409.00
400.86	1460.49
401.05	1504.96
401.24	1446.45
401.44	1507.30
401.63	1483.90
401.82	1516.67
402.01	1392.62
402.21	1486.24
402.40	1556.46
402.59	1502.62
402.78	1401.98
402.97	1544.75
403.17	1640.72
403.36	1600.93
403.55	1687.53
403.74	1664.12
403.93	1593.90
404.13	1645.40
404.32	1654.76
404.51	1661.78
404.70	1675.82
404.89	1661.78
405.09	1689.87
405.28	1699.23
405.47	1727.32
405.66	1783.49
405.85	1774.13
406.05	1778.81
406.24	1746.04
406.43	1764.76
406.62	1839.66
406.81	1781.15
407.00	1827.96
407.20	1741.36
407.39	1907.54
407.58	1980.09
407.77	1797.53
407.96	1977.75
408.15	1991.80
408.34	1930.94
408.54	1956.69
408.73	1998.82
408.92	2069.03
409.11	2120.53
409.30	1942.64
409.49	1966.05
409.68	2040.95
409.87	2001.16
410.07	2118.18
410.26	2047.97
410.45	2052.65
410.64	2165.00
410.83	2115.84
411.02	2181.38
411.21	2319.47
411.40	2239.89
411.59	2263.30
411.78	2207.13
411.98	2263.30
412.17	2356.92
412.36	2319.47
412.55	2331.17
412.74	2462.24
412.93	2434.16
413.12	2340.54
413.31	2583.95
413.50	2530.12
413.69	2633.10
413.88	2551.18
414.07	2576.93
414.26	2583.95
414.45	2658.85
414.64	2672.89
414.83	2602.68
415.02	2743.11
415.22	2733.75
415.41	2789.92
415.60	2808.64
415.79	2815.66
415.98	2906.95
416.17	2883.54
416.36	2930.35
416.55	2881.20
416.74	2953.76
416.93	2902.26
417.12	2855.45
417.31	2942.05
417.50	2965.46
417.69	3206.53
417.88	3059.08
418.07	3014.61
418.26	3103.55
418.45	3126.96
418.64	3157.38
418.83	3126.96
419.02	3091.85
419.21	3295.47
419.39	3141.00
419.58	3084.83
419.77	3056.74
419.96	3199.51
420.15	3295.47
420.34	3372.71
420.53	3243.98
420.72	3389.10
420.91	3417.18
421.10	3251.00
421.29	3445.27
421.48	3403.14
421.67	3478.04
421.86	3330.58
422.05	3478.04
422.24	3428.88
422.43	3459.31
422.61	3482.72
422.80	3515.48
422.99	3431.23
423.18	3557.61
423.37	3653.58
423.56	3571.66
423.75	3506.12
423.94	3564.64
424.13	3433.57
424.32	3440.59
424.50	3611.45
424.69	3613.79
424.88	3611.45
425.07	3403.14
425.26	3576.34
425.45	3730.81
425.64	3618.47
425.83	3492.08
426.01	3655.92
426.20	3590.38
426.39	3662.94
426.58	3487.40
426.77	3646.55
426.96	3693.37
427.15	3695.71
427.33	3606.77
427.52	3644.21
427.71	3747.20
427.90	3768.26
428.09	3803.37
428.28	3744.86
428.46	3782.31
428.65	3817.41
428.84	3868.91
429.03	3908.69
429.22	3744.86
429.40	3805.71
429.59	3679.32
429.78	3693.37
429.97	3698.05
430.16	3768.26
430.34	3702.73
430.53	3911.04
430.72	3932.10
430.91	3857.20
431.10	4037.42
431.28	4053.81
431.47	3995.29
431.66	4285.52
431.85	4149.77
432.03	4269.14
432.22	4241.05
432.41	4154.45
432.60	4238.71
432.79	4154.45
432.97	4301.90
433.16	4231.69
433.35	4269.14
433.54	4283.18
433.72	4210.62
433.91	4166.15
434.10	4332.33
434.28	4318.29
434.47	4325.31
434.66	4355.74
434.85	4456.38
435.03	4372.12
435.22	4376.80
435.41	4641.28
435.59	4493.83
435.78	4493.83
435.97	4624.90
436.16	4568.73
436.34	4716.18
436.53	4545.32
436.72	4662.35
436.90	4610.86
437.09	4678.73
437.28	4596.81
437.46	4580.43
437.65	4713.84
437.84	4840.23
438.02	4767.67
438.21	4741.93
438.40	4645.96
438.58	4751.29
438.77	4837.89
438.96	4861.29
439.14	4936.19
439.33	5062.58
439.52	5064.92
439.70	5036.83
439.89	5172.58
440.08	5280.25
440.26	5195.99
440.45	5139.82
440.63	5200.67
440.82	5378.55
441.01	5406.64
441.19	5451.11
441.38	5591.54
441.57	5493.24
441.75	5476.85
441.94	5675.80
442.12	5488.56
442.31	5685.16
442.50	5743.67
442.68	5710.91
442.87	5771.76
443.05	5645.37
443.24	5743.67
443.43	5795.17
443.61	5816.23
443.80	5937.94
443.98	5818.57
444.17	5579.84
444.35	5879.43
444.54	5853.68
444.73	5900.49
444.91	5912.19
445.10	5881.77
445.28	5799.85
445.47	5593.88
445.65	5680.48
445.84	5858.36
446.02	5991.77
446.21	5961.34
446.39	5778.78
446.58	6092.41
446.77	5923.90
446.95	5905.17
447.14	6076.03
447.32	6174.33
447.51	6054.97
447.69	6029.22
447.88	6024.54
448.06	6064.33
448.25	6069.01
448.43	6057.31
448.62	6061.99
448.80	6003.47
448.99	6104.12
449.17	6129.86
449.36	5930.92
449.54	6150.93
449.73	6237.53
449.91	6284.34
450.10	6382.64
450.28	6328.81
450.46	6289.02
450.65	6590.95
450.83	6443.49
451.02	6422.43
451.20	6366.26
451.39	6457.54
451.57	6438.81
451.76	6497.33
451.94	6494.99
452.13	6572.22
452.31	6525.41
452.49	6420.09
452.68	6455.20
452.86	6565.20
453.05	6555.84
453.23	6745.42
453.42	6707.98
453.60	6441.15
453.78	6700.95
453.97	6665.85
454.15	6675.21
454.34	6597.97
454.52	6843.73
454.70	6705.63
454.89	6775.85
455.07	6935.01
455.26	6743.08
455.44	6935.01
455.62	6841.39
455.81	7096.50
455.99	7068.42
456.17	7047.35
456.36	7007.56
456.54	7073.10
456.73	7138.63
456.91	7372.69
457.09	7250.98
457.28	7438.22
457.46	7258.00
457.64	7375.03
457.83	7288.43
458.01	7190.13
458.19	7330.56
458.38	7290.77
458.56	7433.54
458.74	7433.54
458.93	7426.52
459.11	7536.52
459.29	7531.84
459.48	7438.22
459.66	7468.65
459.84	7501.42
460.03	7492.05
460.21	7578.65
460.39	7653.55
460.57	7793.98
460.76	7775.26
460.94	7730.79
461.12	7730.79
461.31	7784.62
461.49	7672.28
461.67	7978.89
461.85	8138.04
462.04	7850.16
462.22	8318.26
462.40	8086.55
462.59	8105.28
462.77	7969.52
462.95	8135.70
463.13	7932.08
463.32	7995.27
463.50	8081.87
463.68	8138.04
463.86	8215.28
464.05	8070.17
464.23	8065.49
464.41	8203.58
464.59	8133.36
464.78	8229.32
464.96	8409.54
465.14	8124.00
465.32	8414.23
465.50	8423.59
465.69	8315.92
465.87	8257.41
466.05	8507.85
466.23	8425.93
466.41	8245.71
466.60	8477.42
466.78	8332.31
466.96	8290.18
467.14	8386.14
467.32	8568.70
467.51	8594.45
467.69	8421.25
467.87	8802.75
468.05	8669.34
468.23	8578.06
468.41	8360.39
468.60	8620.19
468.78	8856.59
468.96	8652.96
469.14	8746.58
469.32	9041.49
469.50	8615.51
469.69	8894.04
469.87	8973.61
470.05	8945.53
470.23	9013.40
470.41	9195.96
470.59	9121.07
470.77	9090.64
470.95	9137.45
471.14	9233.41
471.32	9055.53
471.50	9575.13
471.68	9338.74
471.86	9312.99
472.04	9392.57
472.22	9673.43
472.40	9341.08
472.58	9394.91
472.77	9675.77
472.95	9593.86
473.13	9799.82
473.31	9668.75
473.49	9830.25
473.67	9610.24
473.85	9722.59
474.03	10141.54
474.21	9879.40
474.39	10036.22
474.57	10005.79
474.75	10033.88
474.93	10232.82
475.12	10078.35
475.30	10459.85
475.48	10384.96
475.66	10530.07
475.84	10286.65
476.02	10448.15
476.20	10085.37
476.38	10743.06
476.56	10909.24
476.74	10780.51
476.92	10867.11
477.10	10843.70
477.28	10979.45
477.46	10946.69
477.64	11005.20
477.82	11084.78
478.00	11225.21
478.18	11510.75
478.36	11428.84
478.54	11187.76
478.72	11520.12
478.90	11843.11
479.08	11819.71
479.26	11836.09
479.44	12198.87
479.62	12149.72
479.80	12042.06
479.98	12067.80
480.16	12325.26
480.34	12439.95
480.52	12510.16
480.70	12620.17
480.88	12428.24
481.06	12734.85
481.24	12533.57
481.41	12664.64
481.59	13034.44
481.77	12896.35
481.95	13081.25
482.13	13577.45
482.31	13193.60
482.49	13472.12
482.67	13687.45
482.85	13362.12
483.03	13888.74
483.21	13898.10
483.39	13870.01
483.57	13867.67
483.74	14246.84
483.92	14176.62
484.10	14232.80
484.28	14324.08
484.46	14663.46
484.64	15028.58
484.82	14534.73
485.00	14909.21
485.18	15243.91
485.35	15105.82
485.53	15077.73
485.71	15365.62
485.89	15204.12
486.07	15152.63
486.25	15087.09
486.43	15529.45
486.61	16020.97
486.78	16135.65
486.96	16032.67
487.14	16196.51
487.32	16161.40
487.50	16458.65
487.68	16570.99
487.85	16793.34
488.03	17018.04
488.21	17018.04
488.39	16882.28
488.57	17352.73
488.75	17345.71
488.92	17600.83
489.10	17748.28
489.28	17907.44
489.46	17956.59
489.64	18118.09
489.81	18328.74
489.99	18469.17
490.17	18363.84
490.35	18911.53
490.53	18602.58
490.70	18677.48
490.88	18609.60
491.06	19302.40
491.24	18841.31
491.41	19115.16
491.59	19286.01
491.77	19328.14
491.95	19536.45
492.13	19880.51
492.30	19606.67
492.48	19997.54
492.66	20128.61
492.84	20009.24
493.01	20224.57
493.19	20149.67
493.37	20725.44
493.54	20613.10
493.72	20900.98
493.90	20666.93
494.08	21036.74
494.25	21139.72
494.43	21483.78
494.61	21427.60
494.79	21570.38
494.96	21338.66
495.14	21659.32
495.32	22010.40
495.49	21804.43
495.67	21811.45
495.85	22171.89
496.02	22197.64
496.20	22391.91
496.38	22504.25
496.55	22586.17
496.73	23225.14
496.91	22937.25
497.09	22876.40
497.26	23080.02
497.44	22684.47
497.62	23248.54
497.79	23522.38
497.97	23388.97
498.14	23290.67
498.32	23377.27
498.50	23431.10
498.67	23971.77
498.85	24084.11
499.03	23669.84
499.20	24297.10
499.38	24547.54
499.56	24393.06
499.73	24575.62
499.91	24388.38
500.08	24477.32
500.26	24453.92
500.44	24360.30
500.61	24739.46
500.79	24758.19
500.97	24774.57
501.14	25408.86
501.32	25418.22
501.49	25102.25
501.67	25406.52
501.84	25572.69
502.02	25371.41
502.20	25788.02
502.37	25778.66
502.55	25851.22
502.72	25855.90
502.90	25748.23
503.07	25951.86
503.25	26206.98
503.43	26054.84
503.60	26375.50
503.78	26324.01
503.95	26256.13
504.13	26291.24
504.30	26651.68
504.48	26504.23
504.65	26981.70
504.83	26602.53
505.01	26967.65
505.18	27234.47
505.36	27431.08
505.53	27482.57
505.71	27424.06
505.88	27452.14
506.06	27229.79
506.23	27672.15
506.41	27548.11
506.58	27325.75
506.76	27529.38
506.93	28292.40
507.11	27789.18
507.28	28098.13
507.46	28105.15
507.63	27714.28
507.81	28210.48
507.98	27978.76
508.16	28048.98
508.33	28259.63
508.50	28259.63
508.68	28811.99
508.85	28716.03
509.03	28692.63
509.20	29184.14
509.38	29064.77
509.55	29043.71
509.73	29242.65
509.90	29153.71
510.08	29319.89
510.25	29015.62
510.42	29766.93
510.60	29659.27
510.77	29582.03
510.95	29724.80
511.12	29322.23
511.30	29984.60
511.47	29909.71
511.64	29783.32
511.82	29947.15
511.99	30087.59
512.17	30202.27
512.34	30171.85
512.51	30836.56
512.69	30558.03
512.86	30349.73
513.04	31227.43
513.21	30581.44
513.38	30670.38
513.56	30981.67
513.73	30347.39
513.90	30883.37
514.08	30967.63
514.25	31079.97
514.43	30995.71
514.60	30979.33
514.77	30951.24
514.95	31639.36
515.12	31225.09
515.29	31672.13
515.47	31466.16
515.64	31749.37
515.81	31550.42
515.99	31501.27
516.16	31828.95
516.33	31648.72
516.51	32002.14
516.68	32105.13
516.85	31683.83
517.03	31772.77
517.20	32467.91
517.37	32285.35
517.54	32390.67
517.72	32086.40
517.89	32060.66
518.06	32355.57
518.24	32210.45
518.41	32297.05
518.58	32582.60
518.75	32369.61
518.93	32666.86
519.10	32797.93
519.27	33149.01
519.45	32889.21
519.62	32907.93
519.79	33268.37
519.96	33345.61
520.14	33333.91
520.31	33511.79
520.48	33582.01
520.65	33586.69
520.83	33441.57
521.00	33216.88
521.17	33930.75
521.34	33949.47
521.52	33703.71
521.69	33755.21
521.86	34265.44
522.03	33860.53
522.20	34197.57
522.38	34253.74
522.55	34550.99
522.72	34277.15
522.89	34029.05
523.07	34607.16
523.24	34085.22
523.41	34422.26
523.58	34492.47
523.75	34983.99
523.92	34927.81
524.10	35264.85
524.27	35016.75
524.44	35262.51
524.61	34918.45
524.78	35304.64
524.96	35274.21
525.13	35218.04
525.30	35756.36
525.47	35262.51
525.64	35466.14
525.81	35550.40
525.98	35665.08
526.16	35447.41
526.33	35166.55
526.50	36187.02
526.67	35639.34
526.84	35239.11
527.01	35505.93
527.18	35952.97
527.36	35938.93
527.53	36259.58
527.70	36313.41
527.87	35854.67
528.04	36261.92
528.21	36100.42
528.38	36060.63
528.55	36308.73
528.72	36989.83
528.89	36601.30
529.07	36364.90
529.24	36713.64
529.41	36650.45
529.58	36620.02
529.75	36788.54
529.92	36980.46
530.09	37034.30
530.26	36968.76
530.43	36961.74
530.60	36524.06
530.77	36840.03
530.94	37008.55
531.11	37013.23
531.28	37207.50
531.46	37469.64
531.63	37546.87
531.80	37471.98
531.97	37254.31
532.14	37343.25
532.31	37036.64
532.48	37317.50
532.65	37965.83
532.82	37270.69
532.99	37542.19
533.16	37642.84
533.33	37680.28
533.50	38169.46
533.67	38022.00
533.84	37745.82
534.01	37972.85
534.18	37392.40
534.35	38232.65
534.52	38295.85
534.69	38384.79
534.86	38202.22
535.03	38157.75
535.20	38096.90
535.37	38979.28
535.54	38969.92
535.71	38082.86
535.88	38394.15
536.05	38499.47
536.22	38384.79
536.38	38483.09
536.55	38593.09
536.72	38684.37
536.89	38190.52
537.06	38433.94
537.23	38796.72
537.40	38785.02
537.57	39061.20
537.74	38754.59
537.91	39154.82
538.08	39021.41
538.25	39091.63
538.42	39391.22
538.59	39349.09
538.75	38752.25
538.92	38960.56
539.09	39288.23
539.26	39302.28
539.43	39477.82
539.60	39213.34
539.77	39227.38
539.94	39655.70
540.11	39220.36
540.28	39634.63
540.44	39487.18
540.61	39526.97
540.78	39016.73
540.95	39342.06
541.12	39311.64
541.29	39592.50
541.46	39938.90
541.62	39693.15
541.79	39952.94
541.96	39571.44
542.13	40196.36
542.30	39768.04
542.47	39915.50
542.63	40093.38
542.80	39590.16
542.97	40392.97
543.14	40779.15
543.31	40634.04
543.48	40463.18
543.64	41507.06
543.81	40996.82
543.98	40348.50
544.15	40545.10
544.32	40797.88
544.48	41202.79
544.65	40751.07
544.82	40589.57
544.99	40552.12
545.16	41013.21
545.32	40975.76
545.49	41020.23
545.66	41493.02
545.83	41230.88
546.00	41553.87
546.16	41240.24
546.33	41364.29
546.50	40652.76
546.67	41184.07
546.83	40673.83
547.00	41240.24
547.17	41507.06
547.34	41015.55
547.50	41605.36
547.67	41734.09
547.84	41371.31
548.00	41986.87
548.17	41593.66
548.34	41553.87
548.51	41869.84
548.67	41361.95
548.84	41741.11
549.01	41764.52
549.18	41762.18
549.34	41504.72
549.51	42340.29
549.68	42117.94
549.84	42066.45
550.01	42239.65
550.18	41998.57
550.34	41731.75
550.51	41673.24
550.68	41682.60
550.84	41418.12
551.01	42351.99
551.18	42064.11
551.34	42120.28
551.51	42291.14
551.68	42127.30
551.84	42218.58
552.01	42141.35
552.18	42504.13
552.34	41764.52
552.51	42164.75
552.68	42625.84
552.84	42251.35
553.01	42487.74
553.18	42281.78
553.34	42340.29
553.51	42366.04
553.67	42153.05
553.84	42759.25
554.01	42595.41
554.17	42862.23
554.34	43051.81
554.51	43159.48
554.67	42976.92
554.84	42937.13
555.00	42721.80
555.17	42600.09
555.33	42773.29
555.50	43295.23
555.67	43147.78
555.83	43180.54
556.00	43019.05
556.16	43552.69
556.33	43180.54
556.50	42883.30
556.66	43112.67
556.83	43075.22
556.99	43232.04
557.16	43189.91
557.32	43543.33
557.49	43042.45
557.65	42815.42
557.82	42944.15
557.98	42813.08
558.15	43484.81
558.32	43695.46
558.48	43126.71
558.65	43201.61
558.81	43271.82
558.98	43194.59
559.14	43423.96
559.31	43786.74
559.47	43515.24
559.64	43777.38
559.80	44013.77
559.97	43328.00
560.13	43487.15
560.30	43264.80
560.46	43473.11
560.63	43452.05
560.79	43959.94
560.96	43473.11
561.12	43667.37
561.29	43732.91
561.45	43679.08
561.61	43913.13
561.78	43557.37
561.94	43665.03
562.11	43583.12
562.27	43414.60
562.44	43021.39
562.60	43749.29
562.77	44006.75
562.93	43732.91
563.10	43948.24
563.26	44095.69
563.42	43641.63
563.59	43810.15
563.75	43669.72
563.92	43913.13
564.08	43957.60
564.24	44088.67
564.41	43824.19
564.57	43735.25
564.74	44282.94
564.90	44074.63
565.07	44194.00
565.23	43587.80
565.39	43697.80
565.56	44074.63
565.72	43674.40
565.88	43957.60
566.05	43913.13
566.21	43955.26
566.38	43847.60
566.54	44002.07
566.70	44311.02
566.87	44755.72
567.03	43995.05
567.19	44737.00
567.36	44229.10
567.52	44435.07
567.68	44133.14
567.85	44381.24
568.01	44222.08
568.17	43948.24
568.34	44296.98
568.50	44308.68
568.66	44495.92
568.83	44282.94
568.99	43798.44
569.15	44147.18
569.32	43915.47
569.48	44105.06
569.64	44631.68
569.81	44673.81
569.97	44186.97
570.13	44390.60
570.30	43845.26
570.46	44105.06
570.62	43833.55
570.78	44329.75
570.95	44058.24
571.11	44512.31
571.27	44128.46
571.43	44463.16
571.60	44643.38
571.76	44751.04
571.92	43988.03
572.09	44744.02
572.25	44304.00
572.41	44177.61
572.57	44570.82
572.74	45095.10
572.90	44177.61
573.06	44533.37
573.22	44678.49
573.38	44659.76
573.55	44423.37
573.71	45198.09
573.87	44500.61
574.03	44196.34
574.20	44470.18
574.36	44411.67
574.52	44781.47
574.68	44919.56
574.84	44509.97
575.01	44311.02
575.17	44301.66
575.33	44067.61
575.49	44224.42
575.65	44713.59
575.82	44704.23
575.98	44598.91
576.14	45160.64
576.30	44552.10
576.46	44500.61
576.62	44442.09
576.79	44383.58
576.95	44650.40
577.11	44376.56
577.27	44835.30
577.43	44612.95
577.59	44505.29
577.75	44542.74
577.92	44229.10
578.08	44343.79
578.24	44437.41
578.40	44048.88
578.56	44673.81
578.72	44676.15
578.88	44715.93
579.04	44877.43
579.21	44116.76
579.37	44718.28
579.53	44531.03
579.69	44343.79
579.85	44940.63
580.01	45057.65
580.17	44371.88
580.33	45148.93
580.49	44491.24
580.65	44795.51
580.82	44744.02
580.98	44596.57
581.14	44650.40
581.30	44985.10
581.46	44662.10
581.62	44519.33
581.78	44760.40
581.94	44933.60
582.10	44893.82
582.26	44687.85
582.42	44889.13
582.58	45085.74
582.74	44456.14
582.90	44865.73
583.06	45071.70
583.22	44655.08
583.38	45010.84
583.54	45195.74
583.70	44622.31
583.86	44641.04
584.02	44509.97
584.18	45085.74
584.34	45043.61
584.50	44921.90
584.66	44758.06
584.82	44671.46
584.98	44924.24
585.14	44762.75
585.30	44617.63
585.46	44652.74
585.62	44758.06
585.78	44751.04
585.94	44467.84
586.10	44547.42
586.26	44687.85
586.42	44774.45
586.58	44903.18
586.74	44959.35
586.90	44531.03
587.06	44580.18
587.22	45291.71
587.38	44617.63
587.54	44563.80
587.70	45198.09
587.86	45191.06
588.02	44839.98
588.18	44844.66
588.34	45123.19
588.49	44673.81
588.65	45188.72
588.81	44414.01
588.97	44573.16
589.13	44395.28
589.29	44465.50
589.45	44839.98
589.61	44645.72
589.77	45254.26
589.93	45062.33
590.08	45184.04
590.24	44992.12
