SpectraSuite Data File
++++++++++++++++++++++++++++++++++++
Date: Fri Oct 25 11:34:07 EDT 2013
User: price-jones
Dark Spectrum Present: No
Reference Spectrum Present: No
Number of Sampled Component Spectra: 1
Spectrometers: USB2+H05261
Integration Time (usec): 100000 (USB2+H05261)
Spectra Averaged: 1 (USB2+H05261)
Boxcar Smoothing: 0 (USB2+H05261)
Correct for Electrical Dark: No (USB2+H05261)
Strobe/Lamp Enabled: No (USB2+H05261)
Correct for Detector Non-linearity: No (USB2+H05261)
Correct for Stray Light: No (USB2+H05261)
Number of Pixels in Processed Spectrum: 2048
>>>>>Begin Processed Spectral Data<<<<<
365.73	299.59
365.92	299.59
366.12	299.59
366.32	180.22
366.52	152.13
366.72	156.82
366.91	227.03
367.11	191.92
367.31	210.65
367.51	173.20
367.70	189.58
367.90	194.26
368.10	224.69
368.30	191.92
368.49	201.29
368.69	175.54
368.89	140.43
369.09	201.29
369.28	184.90
369.48	198.95
369.68	292.57
369.87	271.50
370.07	212.99
370.27	234.05
370.47	313.63
370.66	444.70
370.86	444.70
371.06	505.56
371.25	507.90
371.45	496.19
371.65	566.41
371.84	491.51
372.04	535.98
372.24	664.71
372.44	617.90
372.63	594.50
372.83	594.50
373.03	641.31
373.22	526.62
373.42	645.99
373.62	587.47
373.81	645.99
374.01	648.33
374.21	608.54
374.40	543.00
374.60	631.94
374.79	594.50
374.99	613.22
375.19	610.88
375.38	620.24
375.58	601.52
375.78	697.48
375.97	699.82
376.17	683.44
376.37	589.82
376.56	634.29
376.76	622.58
376.95	765.36
377.15	662.37
377.35	748.97
377.54	620.24
377.74	636.63
377.93	734.93
378.13	667.05
378.33	774.72
378.52	751.31
378.72	800.46
378.91	695.14
379.11	706.84
379.31	720.88
379.50	755.99
379.70	763.01
379.89	767.70
380.09	737.27
380.28	713.86
380.48	681.10
380.68	709.18
380.87	758.33
381.07	688.12
381.26	758.33
381.46	758.33
381.65	678.76
381.85	751.31
382.04	777.06
382.24	760.67
382.43	795.78
382.63	779.40
382.83	814.51
383.02	835.57
383.22	744.29
383.41	767.70
383.61	795.78
383.80	809.83
384.00	772.38
384.19	770.04
384.39	828.55
384.58	823.87
384.78	809.83
384.97	786.42
385.17	786.42
385.36	823.87
385.56	823.87
385.75	884.72
385.95	741.95
386.14	791.10
386.34	819.19
386.53	847.27
386.72	840.25
386.92	929.19
387.11	877.70
387.31	823.87
387.50	837.91
387.70	840.25
387.89	905.79
388.09	898.77
388.28	887.06
388.48	896.43
388.67	933.87
388.86	833.23
389.06	931.53
389.25	954.94
389.45	990.05
389.64	966.64
389.84	922.17
390.03	973.66
390.22	964.30
390.42	1034.52
390.61	910.47
390.81	931.53
391.00	945.58
391.19	1067.28
391.39	943.24
391.58	1034.52
391.78	1008.77
391.97	1109.41
392.16	1074.31
392.36	1074.31
392.55	1048.56
392.75	1036.86
392.94	1004.09
393.13	1076.65
393.33	992.39
393.52	994.73
393.71	1055.58
393.91	1086.01
394.10	1090.69
394.29	1102.39
394.49	1020.47
394.68	1184.31
394.88	1086.01
395.07	1053.24
395.26	1137.50
395.46	1144.52
395.65	1097.71
395.84	1050.90
396.04	1184.31
396.23	1158.57
396.42	1076.65
396.62	1139.84
396.81	1247.51
397.00	1076.65
397.19	1146.86
397.39	1231.12
397.58	1238.14
397.77	1306.02
397.97	1263.89
398.16	1165.59
398.35	1261.55
398.55	1184.31
398.74	1273.25
398.93	1336.45
399.12	1378.58
399.32	1313.04
399.51	1324.74
399.70	1270.91
399.90	1341.13
400.09	1359.85
400.28	1348.15
400.47	1416.02
400.67	1392.62
400.86	1373.89
401.05	1387.94
401.24	1287.29
401.44	1504.96
401.63	1411.34
401.82	1483.90
402.01	1409.00
402.21	1441.77
402.40	1509.65
402.59	1369.21
402.78	1483.90
402.97	1549.43
403.17	1603.27
403.36	1652.42
403.55	1516.67
403.74	1568.16
403.93	1486.24
404.13	1558.80
404.32	1570.50
404.51	1523.69
404.70	1551.78
404.89	1643.06
405.09	1673.48
405.28	1643.06
405.47	1586.88
405.66	1680.50
405.85	1694.55
406.05	1694.55
406.24	1729.66
406.43	1720.29
406.62	1685.19
406.81	1760.08
407.00	1732.00
407.20	1706.25
407.39	1748.38
407.58	1851.36
407.77	1776.47
407.96	1872.43
408.15	1907.54
408.34	1933.28
408.54	1839.66
408.73	2005.84
408.92	1959.03
409.11	1874.77
409.30	1898.17
409.49	1940.30
409.68	2001.16
409.87	2038.61
410.07	1949.67
410.26	2073.71
410.45	1902.86
410.64	2015.20
410.83	2094.78
411.02	2118.18
411.21	2120.53
411.40	2092.44
411.59	2017.54
411.78	2113.50
411.98	2270.32
412.17	2263.30
412.36	2204.78
412.55	2270.32
412.74	2239.89
412.93	2333.51
413.12	2260.96
413.31	2352.24
413.50	2312.45
413.69	2340.54
413.88	2380.32
414.07	2459.90
414.26	2370.96
414.45	2415.43
414.64	2476.29
414.83	2607.36
415.02	2499.69
415.22	2558.21
415.41	2630.76
415.60	2602.68
415.79	2612.04
415.98	2693.96
416.17	2612.04
416.36	2612.04
416.55	2726.72
416.74	2843.75
416.93	2715.02
417.12	2796.94
417.31	2778.22
417.50	2778.22
417.69	2836.73
417.88	2904.60
418.07	2949.08
418.26	2911.63
418.45	2935.03
418.64	3119.93
418.83	3014.61
419.02	3052.06
419.21	3007.59
419.39	3103.55
419.58	3005.25
419.77	2963.12
419.96	3131.64
420.15	3152.70
420.34	3199.51
420.53	3122.27
420.72	3068.44
420.91	3159.72
421.10	3267.39
421.29	3276.75
421.48	3133.98
421.67	3297.81
421.86	3232.28
422.05	3325.90
422.24	3108.23
422.43	3251.00
422.61	3300.16
422.80	3339.94
422.99	3335.26
423.18	3459.31
423.37	3454.63
423.56	3342.28
423.75	3449.95
423.94	3417.18
424.13	3131.64
424.32	3288.45
424.50	3407.82
424.69	3473.36
424.88	3424.20
425.07	3342.28
425.26	3358.67
425.45	3335.26
425.64	3286.11
425.83	3318.88
426.01	3454.63
426.20	3412.50
426.39	3524.85
426.58	3365.69
426.77	3346.97
426.96	3506.12
427.15	3349.31
427.33	3382.07
427.52	3428.88
427.71	3543.57
427.90	3559.95
428.09	3435.91
428.28	3772.94
428.46	3534.21
428.65	3534.21
428.84	3730.81
429.03	3836.14
429.22	3581.02
429.40	3693.37
429.59	3754.22
429.78	3501.44
429.97	3501.44
430.16	3751.88
430.34	3737.84
430.53	3805.71
430.72	3749.54
430.91	3824.44
431.10	3721.45
431.28	3829.12
431.47	3889.97
431.66	3997.64
431.85	3885.29
432.03	3990.61
432.22	4065.51
432.41	3896.99
432.60	4030.40
432.79	3941.46
432.97	4046.79
433.16	3999.98
433.35	4023.38
433.54	4088.92
433.72	4051.47
433.91	4109.98
434.10	4067.85
434.28	3990.61
434.47	4100.62
434.66	4217.65
434.85	4351.06
435.03	4325.31
435.22	4168.49
435.41	4388.50
435.59	4074.87
435.78	4163.81
435.97	4341.69
436.16	4203.60
436.34	4304.25
436.53	4348.72
436.72	4241.05
436.90	4231.69
437.09	4477.44
437.28	4266.80
437.46	4360.42
437.65	4414.25
437.84	4519.57
438.02	4510.21
438.21	4428.29
438.40	4514.89
438.58	4643.62
438.77	4599.15
438.96	4657.67
439.14	4868.31
439.33	4699.80
439.52	4875.34
439.70	4807.46
439.89	4884.70
440.08	5090.67
440.26	4770.01
440.45	4961.94
440.63	5081.30
440.82	4994.70
441.01	4952.57
441.19	5032.15
441.38	5242.80
441.57	5200.67
441.75	5245.14
441.94	5259.18
442.12	5310.68
442.31	5359.83
442.50	5359.83
442.68	5315.36
442.87	5270.89
443.05	5392.59
443.24	5497.92
443.43	5310.68
443.61	5427.70
443.80	5591.54
443.98	5385.57
444.17	5294.29
444.35	5387.91
444.54	5628.99
444.73	5448.77
444.91	5535.37
445.10	5509.62
445.28	5455.79
445.47	5542.39
445.65	5610.26
445.84	5851.34
446.02	5631.33
446.21	5664.10
446.39	5612.60
446.58	5619.63
446.77	5638.35
446.95	5584.52
447.14	5628.99
447.32	5673.46
447.51	5636.01
447.69	5589.20
447.88	5729.63
448.06	5547.07
448.25	5633.67
448.43	5678.14
448.62	5750.70
448.80	5715.59
448.99	5717.93
449.17	5844.32
449.36	5713.25
449.54	5886.45
449.73	5980.07
449.91	5937.94
450.10	5940.28
450.28	6050.28
450.46	6113.48
450.65	5919.21
450.83	6204.76
451.02	6066.67
451.20	6111.14
451.39	5870.06
451.57	5947.30
451.76	5942.62
451.94	6094.76
452.13	6197.74
452.31	6069.01
452.49	6211.78
452.68	6218.80
452.86	6207.10
453.05	6354.55
453.23	6277.32
453.42	6354.55
453.60	6200.08
453.78	6305.40
453.97	6286.68
454.15	6193.06
454.34	6342.85
454.52	6415.41
454.70	6368.60
454.89	6413.07
455.07	6609.67
455.26	6530.09
455.44	6525.41
455.62	6457.54
455.81	6675.21
455.99	6516.05
456.17	6752.45
456.36	6698.61
456.54	6752.45
456.73	6782.87
456.91	6951.39
457.09	6935.01
457.28	6942.03
457.46	6609.67
457.64	6867.13
457.83	6839.05
458.01	6722.02
458.19	6998.20
458.38	6892.88
458.56	7052.03
458.74	7063.74
458.93	7049.69
459.11	7016.93
459.29	7098.84
459.48	7243.96
459.66	7117.57
459.84	7206.51
460.03	7325.88
460.21	7255.66
460.39	7253.32
460.57	7133.95
460.76	7267.36
460.94	7276.73
461.12	7506.10
461.31	7438.22
461.49	7461.63
461.67	7391.41
461.85	7478.01
462.04	7424.18
462.22	7847.82
462.40	7569.29
462.59	7494.40
462.77	7644.19
462.95	7613.76
463.13	7623.12
463.32	7599.72
463.50	7695.68
463.68	7658.23
463.86	7742.49
464.05	7616.10
464.23	7747.17
464.41	7768.24
464.59	7634.83
464.78	7782.28
464.96	7948.46
465.14	7723.77
465.32	7899.31
465.50	7936.76
465.69	7995.27
465.87	7803.35
466.05	7936.76
466.23	7999.95
466.41	8072.51
466.60	8105.28
466.78	8109.96
466.96	7740.15
467.14	7805.69
467.32	8081.87
467.51	8226.98
467.69	7779.94
467.87	8025.70
468.05	8276.13
468.23	8339.33
468.41	8126.34
468.60	8224.64
468.78	8210.60
468.96	8353.37
469.14	8259.75
469.32	8554.66
469.50	8072.51
469.69	8615.51
469.87	8594.45
470.05	8493.80
470.23	8697.43
470.41	8468.06
470.59	8613.17
470.77	8564.02
470.95	8568.70
471.14	8889.35
471.32	8868.29
471.50	8959.57
471.68	8751.26
471.86	8854.25
472.04	8739.56
472.22	9067.24
472.40	8711.47
472.58	9050.85
472.77	8924.46
472.95	9048.51
473.13	9343.42
473.31	9198.31
473.49	9207.67
473.67	9226.39
473.85	9378.53
474.03	9511.94
474.21	9509.60
474.39	9542.36
474.57	9565.77
474.75	9643.01
474.93	9675.77
475.12	9809.19
475.30	9778.76
475.48	9762.37
475.66	9926.21
475.84	9912.17
476.02	10120.48
476.20	9839.61
476.38	10314.74
476.56	10431.77
476.74	10230.48
476.92	10228.14
477.10	10221.12
477.28	10675.18
477.46	10450.49
477.64	10436.45
477.82	10562.84
478.00	10771.15
478.18	10911.58
478.36	11019.24
478.54	10951.37
478.72	10988.82
478.90	11190.10
479.08	11435.86
479.26	11405.43
479.44	11623.10
479.62	11431.18
479.80	11461.60
479.98	11786.94
480.16	11969.50
480.34	11819.71
480.52	12196.53
480.70	12138.02
480.88	12025.67
481.06	12161.42
481.24	12107.59
481.41	12393.14
481.59	12582.72
481.77	12622.51
481.95	12627.19
482.13	12968.91
482.31	12751.24
482.49	12896.35
482.67	13202.96
482.85	13081.25
483.03	13345.73
483.21	13259.13
483.39	13565.74
483.57	13514.25
483.74	13561.06
483.92	13617.24
484.10	13760.01
484.28	13961.30
484.46	14003.43
484.64	14228.12
484.82	14066.62
485.00	14389.61
485.18	14686.86
485.35	14745.38
485.53	14586.22
485.71	14839.00
485.89	15108.16
486.07	15176.03
486.25	15129.22
486.43	15112.84
486.61	15550.52
486.78	15435.83
486.96	15545.84
487.14	15770.53
487.32	15777.55
487.50	15990.54
487.68	16088.84
487.85	16140.33
488.03	16641.21
488.21	16760.58
488.39	16664.61
488.57	16601.42
488.75	16854.20
488.92	17109.32
489.10	17064.85
489.28	16868.24
489.46	17261.45
489.64	17282.52
489.81	17642.96
489.99	17865.31
490.17	17619.55
490.35	18026.81
490.53	18104.04
490.70	18057.23
490.88	18057.23
491.06	18679.82
491.24	18600.24
491.41	18625.98
491.59	18539.38
491.77	18562.79
491.95	19140.90
492.13	19194.73
492.30	19307.08
492.48	19314.10
492.66	19234.52
492.84	19381.98
493.01	19592.62
493.19	19695.61
493.37	20074.77
493.54	19873.49
493.72	20168.40
493.90	20046.69
494.08	20704.38
494.25	20273.72
494.43	20664.59
494.61	20688.00
494.79	21186.53
494.96	21006.31
495.14	20814.38
495.32	21198.23
495.49	21128.02
495.67	21427.60
495.85	21495.48
496.02	21802.09
496.20	21769.32
496.38	21617.19
496.55	22005.72
496.73	22281.90
496.91	21975.29
497.09	21926.14
497.26	22436.38
497.44	22155.51
497.62	22640.00
497.79	22803.84
497.97	22663.41
498.14	23421.74
498.32	23225.14
498.50	23065.98
498.67	23433.44
498.85	23349.18
499.03	23700.26
499.20	23374.93
499.38	23702.61
499.56	23791.55
499.73	23983.47
499.91	23836.02
500.08	24325.19
500.26	23875.80
500.44	24149.65
500.61	24247.95
500.79	24341.57
500.97	24521.79
501.14	24884.58
501.32	24797.98
501.49	24648.18
501.67	24875.21
501.84	25324.60
502.02	25137.35
502.20	25221.61
502.37	25280.13
502.55	24989.90
502.72	25568.01
502.90	25235.66
503.07	25102.25
503.25	25745.89
503.43	25326.94
503.60	25741.21
503.78	25558.65
503.95	25900.37
504.13	25851.22
504.30	26195.28
504.48	25778.66
504.65	26361.45
504.83	26382.52
505.01	26693.81
505.18	26544.02
505.36	26703.17
505.53	26333.37
505.71	26969.99
505.88	26979.36
506.06	26824.88
506.23	26794.45
506.41	27047.23
506.58	27180.64
506.76	27440.44
506.93	27646.41
507.11	27445.12
507.28	27431.08
507.46	27587.89
507.63	27475.55
507.81	27997.49
507.98	27623.00
508.16	27800.88
508.33	27798.54
508.50	28051.32
508.68	28025.57
508.85	28102.81
509.03	27978.76
509.20	28489.00
509.38	28924.34
509.55	28701.99
509.73	28577.94
509.90	28739.44
510.08	28877.53
510.25	28615.39
510.42	29137.33
510.60	28809.65
510.77	29350.32
510.95	29511.81
511.12	28826.04
511.30	29642.88
511.47	29488.41
511.64	29137.33
511.82	29986.94
511.99	29900.34
512.17	29933.11
512.34	29446.28
512.51	30391.86
512.69	30134.40
512.86	30195.25
513.04	30401.22
513.21	30171.85
513.38	30677.40
513.56	30560.37
513.73	30408.24
513.90	30651.66
514.08	30352.07
514.25	30944.22
514.43	30895.07
514.60	30698.47
514.77	30836.56
514.95	31220.41
515.12	30859.96
515.29	31033.16
515.47	31637.02
515.64	31428.71
515.81	31477.86
515.99	31894.48
516.16	31915.54
516.33	31658.09
516.51	31578.51
516.68	31859.37
516.85	31861.71
517.03	32182.37
517.20	31765.75
517.37	31903.84
517.54	31758.73
517.72	31945.97
517.89	32467.91
518.06	32414.08
518.24	32208.11
518.41	32278.33
518.58	32840.06
518.75	32107.47
518.93	32708.99
519.10	32486.64
519.27	32378.97
519.45	32804.95
519.62	32926.66
519.79	33111.56
519.96	32566.21
520.14	33376.04
520.31	33062.41
520.48	33085.81
520.65	33226.24
520.83	33820.74
521.00	33654.56
521.17	33415.83
521.34	33921.38
521.52	33823.08
521.69	33715.42
521.86	33778.61
522.03	34050.11
522.20	34192.89
522.38	34190.55
522.55	34314.59
522.72	34162.46
522.89	34047.77
523.07	34693.76
523.24	34480.77
523.41	34319.28
523.58	34607.16
523.75	34389.49
523.92	34660.99
524.10	34850.58
524.27	34986.33
524.44	35323.36
524.61	35330.39
524.78	35204.00
524.96	35180.59
525.13	35374.86
525.30	35290.60
525.47	35337.41
525.64	35161.87
525.81	35641.68
525.98	35337.41
526.16	35388.90
526.33	35143.14
526.50	35555.08
526.67	35604.23
526.84	35871.05
527.01	35702.53
527.18	35927.22
527.36	35959.99
527.53	36165.96
527.70	36229.15
527.87	36292.35
528.04	36175.32
528.21	35791.47
528.38	36390.65
528.55	36378.95
528.72	36493.63
528.89	36657.47
529.07	36687.90
529.24	36362.56
529.41	36528.74
529.58	36584.91
529.75	36825.99
529.92	36715.98
530.09	36875.14
530.26	37109.19
530.43	36987.49
530.60	36573.21
530.77	36411.71
530.94	36935.99
531.11	37060.04
531.28	37102.17
531.46	37364.31
531.63	37177.07
531.80	37036.64
531.97	37504.74
532.14	37474.32
532.31	37186.43
532.48	37322.18
532.65	37493.04
532.82	37729.44
532.99	37645.18
533.16	37792.63
533.33	37867.53
533.50	37904.98
533.67	37965.83
533.84	37759.86
534.01	37663.90
534.18	37820.72
534.35	38307.55
534.52	38258.40
534.69	38452.66
534.86	38288.82
535.03	38569.69
535.20	38480.75
535.37	38927.79
535.54	38483.09
535.71	38534.58
535.88	39009.71
536.05	38429.26
536.22	39082.27
536.38	38955.88
536.55	38775.66
536.72	38972.26
536.89	38859.91
537.06	39089.29
537.23	39044.82
537.40	38937.15
537.57	39171.21
537.74	38658.63
537.91	39084.61
538.08	39253.12
538.25	39449.73
538.42	39157.16
538.59	39379.51
538.75	39538.67
538.92	39604.20
539.09	39908.47
539.26	39606.55
539.43	39777.40
539.60	39763.36
539.77	39903.79
539.94	39721.23
540.11	39772.72
540.28	39749.32
540.44	39791.45
540.61	39878.05
540.78	39758.68
540.95	40144.87
541.12	40105.08
541.29	39885.07
541.46	40137.85
541.62	39873.37
541.79	40414.03
541.96	39981.03
542.13	40238.49
542.30	40184.66
542.47	40531.06
542.63	40226.79
542.80	40844.69
542.97	40751.07
543.14	41249.60
543.31	40933.63
543.48	40645.74
543.64	41244.92
543.81	41366.63
543.98	41074.06
544.15	41022.57
544.32	41062.36
544.48	41930.70
544.65	41191.09
544.82	41411.10
544.99	41319.82
545.16	41406.42
545.32	41607.70
545.49	42029.00
545.66	41755.16
545.83	41329.18
546.00	41834.74
546.16	41743.45
546.33	41743.45
546.50	41446.21
546.67	41734.09
546.83	41333.86
547.00	41612.38
547.17	41832.39
547.34	41851.12
547.50	41991.55
547.67	42344.97
547.84	41968.15
548.00	41879.21
548.17	42642.22
548.34	42239.65
548.51	42452.64
548.67	42632.86
548.84	42410.51
549.01	42630.52
549.18	42239.65
549.34	42291.14
549.51	42174.11
549.68	42665.63
549.84	42359.02
550.01	42588.39
550.18	42803.72
550.34	42745.20
550.51	42637.54
550.68	42962.87
550.84	42588.39
551.01	43442.68
551.18	42595.41
551.34	42864.57
551.51	42766.27
551.68	42866.91
551.84	42483.06
552.01	43152.46
552.18	42976.92
552.34	42742.86
552.51	43047.13
552.68	42691.37
552.84	42897.34
553.01	43332.68
553.18	43100.97
553.34	43672.06
553.51	42632.86
553.67	43320.98
553.84	43679.08
554.01	43529.28
554.17	43323.32
554.34	43636.95
554.51	43756.32
554.67	43505.88
554.84	43585.46
555.00	43498.86
555.17	43402.89
555.33	43239.06
555.50	43744.61
555.67	43763.34
555.83	43978.67
556.00	43791.42
556.16	44577.84
556.33	44105.06
556.50	43650.99
556.66	44320.38
556.83	43627.59
556.99	44325.07
557.16	44428.05
557.32	44191.65
557.49	44172.93
557.65	43812.49
557.82	43728.23
557.98	44067.61
558.15	44098.03
558.32	44531.03
558.48	44030.16
558.65	44023.14
558.81	44561.46
558.98	44016.11
559.14	44329.75
559.31	44112.08
559.47	44645.72
559.64	44060.58
559.80	44268.89
559.97	44257.19
560.13	44266.55
560.30	44697.21
560.46	44755.72
560.63	44809.56
560.79	44877.43
560.96	45036.59
561.12	45284.68
561.29	44744.02
561.45	44807.22
561.61	44540.39
561.78	44870.41
561.94	44584.86
562.11	44999.14
562.27	44917.22
562.44	45013.18
562.60	45294.05
562.77	44844.66
562.93	44849.35
563.10	44931.26
563.26	44957.01
563.42	45158.30
563.59	44868.07
563.75	44645.72
563.92	45230.85
564.08	44900.84
564.24	45509.38
564.41	44830.62
564.57	45422.78
564.74	45172.34
564.90	44844.66
565.07	45078.72
565.23	44519.33
565.39	45237.87
565.56	45432.14
565.72	45148.93
565.88	44910.20
566.05	45387.67
566.21	45633.42
566.38	45331.50
566.54	45694.28
566.70	45492.99
566.87	45069.36
567.03	45272.98
567.19	45504.70
567.36	45333.84
567.52	45188.72
567.68	46014.93
567.85	45514.06
568.01	45368.94
568.17	45373.63
568.34	45904.93
568.50	45263.62
568.66	45216.81
568.83	45343.20
568.99	45638.11
569.15	45907.27
569.32	45502.35
569.48	45364.26
569.64	45743.43
569.81	45464.91
569.97	45333.84
570.13	45940.04
570.30	45518.74
570.46	45954.08
570.62	46078.13
570.78	46197.49
570.95	45572.57
571.11	45977.48
571.27	45497.67
571.43	45911.95
571.60	45844.07
571.76	45441.50
571.92	45776.20
572.09	45895.56
572.25	45633.42
572.41	45916.63
572.57	45626.40
572.74	46277.07
572.90	45951.74
573.06	46113.23
573.22	46183.45
573.38	45996.21
573.55	45806.62
573.71	45902.59
573.87	46501.76
574.03	46115.58
574.20	46693.69
574.36	45698.96
574.52	45900.25
574.68	46267.71
574.84	45921.31
575.01	46408.14
575.17	46024.29
575.33	46485.38
575.49	46150.68
575.65	46330.90
575.82	46101.53
575.98	45937.69
576.14	46206.86
576.30	46548.57
576.46	46597.73
576.62	45883.86
576.79	46026.63
576.95	45532.78
577.11	46040.68
577.27	45935.35
577.43	46265.37
577.59	45766.84
577.75	45666.19
577.92	45979.82
578.08	46506.44
578.24	45986.85
578.40	46204.52
578.56	46590.70
578.72	46066.42
578.88	46309.84
579.04	45862.80
579.21	45874.50
579.37	45874.50
579.53	46358.99
579.69	46127.28
579.85	46181.11
580.01	46628.15
580.17	46005.57
580.33	46258.35
580.49	46244.30
580.65	46347.29
580.82	45897.91
580.98	46003.23
581.14	46576.66
581.30	46129.62
581.46	45759.81
581.62	46532.19
581.78	45933.01
581.94	46506.44
582.10	46391.76
582.26	46696.03
582.42	46220.90
582.58	46483.04
582.74	46253.67
582.90	46246.65
583.06	46492.40
583.22	46007.91
583.38	46717.09
583.54	46466.66
583.70	46693.69
583.86	46681.98
584.02	46384.74
584.18	46576.66
584.34	46787.31
584.50	46714.75
584.66	46663.26
584.82	46230.26
584.98	46667.94
585.14	46686.67
585.30	46703.05
585.46	46307.50
585.62	46169.41
585.78	46323.88
585.94	46101.53
586.10	46157.70
586.26	46286.43
586.42	46398.78
586.58	46759.22
586.74	46356.65
586.90	46485.38
587.06	46487.72
587.22	46447.93
587.38	46663.26
587.54	46602.41
587.70	46855.18
587.86	46693.69
588.02	46197.49
588.18	46382.40
588.34	46445.59
588.49	47056.47
588.65	46504.10
588.81	46099.19
588.97	46927.74
589.13	46436.23
589.29	46705.39
589.45	46756.88
589.61	46841.14
589.77	46681.98
589.93	46913.70
590.08	46859.87
