SpectraSuite Data File
++++++++++++++++++++++++++++++++++++
Date: Fri Oct 25 11:23:28 EDT 2013
User: price-jones
Dark Spectrum Present: No
Reference Spectrum Present: No
Number of Sampled Component Spectra: 1
Spectrometers: USB2+H05261
Integration Time (usec): 100000 (USB2+H05261)
Spectra Averaged: 1 (USB2+H05261)
Boxcar Smoothing: 0 (USB2+H05261)
Correct for Electrical Dark: No (USB2+H05261)
Strobe/Lamp Enabled: No (USB2+H05261)
Correct for Detector Non-linearity: No (USB2+H05261)
Correct for Stray Light: No (USB2+H05261)
Number of Pixels in Processed Spectrum: 2048
>>>>>Begin Processed Spectral Data<<<<<
365.73	210.65
365.92	210.65
366.12	210.65
366.32	135.75
366.52	173.20
366.72	133.41
366.91	166.18
367.11	173.20
367.31	100.64
367.51	121.71
367.70	117.03
367.90	170.86
368.10	112.35
368.30	91.28
368.49	173.20
368.69	229.37
368.89	140.43
369.09	95.96
369.28	147.45
369.48	126.39
369.68	161.50
369.87	161.50
370.07	208.31
370.27	222.35
370.47	346.40
370.66	528.96
370.86	545.34
371.06	610.88
371.25	594.50
371.45	582.79
371.65	650.67
371.84	657.69
372.04	627.26
372.24	685.78
372.44	660.03
372.63	786.42
372.83	840.25
373.03	671.73
373.22	713.86
373.42	737.27
373.62	786.42
373.81	788.76
374.01	786.42
374.21	798.12
374.40	835.57
374.60	751.31
374.79	866.00
374.99	851.96
375.19	777.06
375.38	905.79
375.58	809.83
375.78	971.32
375.97	821.53
376.17	915.15
376.37	905.79
376.56	901.11
376.76	903.45
376.95	760.67
377.15	915.15
377.35	777.06
377.54	863.66
377.74	915.15
377.93	985.37
378.13	844.93
378.33	994.73
378.52	910.47
378.72	922.17
378.91	971.32
379.11	936.21
379.31	976.00
379.50	959.62
379.70	971.32
379.89	1018.13
380.09	1034.52
380.28	851.96
380.48	1004.09
380.68	908.13
380.87	936.21
381.07	961.96
381.26	1020.47
381.46	997.07
381.65	1062.60
381.85	1029.84
382.04	1013.45
382.24	1055.58
382.43	1032.18
382.63	1020.47
382.83	1144.52
383.02	1102.39
383.22	1083.67
383.41	1083.67
383.61	1104.73
383.80	1090.69
384.00	1050.90
384.19	1142.18
384.39	1097.71
384.58	1196.01
384.78	1093.03
384.97	1205.38
385.17	1123.46
385.36	1048.56
385.56	1273.25
385.75	1193.67
385.95	1214.74
386.14	1259.21
386.34	1142.18
386.53	1188.99
386.72	1123.46
386.92	1217.08
387.11	1224.10
387.31	1191.33
387.50	1193.67
387.70	1139.84
387.89	1226.44
388.09	1226.44
388.28	1224.10
388.48	1275.59
388.67	1259.21
388.86	1345.81
389.06	1221.76
389.25	1317.72
389.45	1291.98
389.64	1362.19
389.84	1413.68
390.03	1233.46
390.22	1394.96
390.42	1277.93
390.61	1397.30
390.81	1371.55
391.00	1401.98
391.19	1394.96
391.39	1394.96
391.58	1411.34
391.78	1446.45
391.97	1420.71
392.16	1397.30
392.36	1514.33
392.55	1533.05
392.75	1526.03
392.94	1544.75
393.13	1535.39
393.33	1556.46
393.52	1533.05
393.71	1605.61
393.91	1600.93
394.10	1558.80
394.29	1636.03
394.49	1610.29
394.68	1666.46
394.88	1610.29
395.07	1638.38
395.26	1586.88
395.46	1640.72
395.65	1650.08
395.84	1722.63
396.04	1813.92
396.23	1755.40
396.42	1788.17
396.62	1781.15
396.81	1816.26
397.00	1710.93
397.19	1762.42
397.39	1818.60
397.58	1790.51
397.77	1886.47
397.97	1907.54
398.16	1891.15
398.35	1802.21
398.55	1839.66
398.74	1895.83
398.93	1832.64
399.12	1959.03
399.32	1914.56
399.51	1987.11
399.70	1952.01
399.90	1980.09
400.09	1935.62
400.28	2033.93
400.47	2057.33
400.67	2062.01
400.86	2050.31
401.05	2003.50
401.24	2118.18
401.44	2080.74
401.63	2160.31
401.82	2101.80
402.01	2143.93
402.21	2143.93
402.40	2101.80
402.59	2237.55
402.78	2207.13
402.97	2317.13
403.17	2244.57
403.36	2165.00
403.55	2251.60
403.74	2300.75
403.93	2331.17
404.13	2375.64
404.32	2349.90
404.51	2408.41
404.70	2424.80
404.89	2373.30
405.09	2471.61
405.28	2527.78
405.47	2562.89
405.66	2520.76
405.85	2630.76
406.05	2464.58
406.24	2729.06
406.43	2649.49
406.62	2726.72
406.81	2803.96
407.00	2565.23
407.20	2633.10
407.39	2619.06
407.58	2569.91
407.77	2806.30
407.96	2757.15
408.15	2869.50
408.34	2712.68
408.54	2958.44
408.73	2708.00
408.92	2888.22
409.11	2806.30
409.30	3005.25
409.49	2937.37
409.68	3012.27
409.87	2878.86
410.07	3005.25
410.26	3101.21
410.45	2972.48
410.64	3098.87
410.83	3227.60
411.02	3138.66
411.21	3220.58
411.40	2986.52
411.59	3208.87
411.78	3201.85
411.98	3096.53
412.17	3206.53
412.36	3300.16
412.55	3349.31
412.74	3471.01
412.93	3384.41
413.12	3344.63
413.31	3566.98
413.50	3424.20
413.69	3555.27
413.88	3660.60
414.07	3604.42
414.26	3688.68
414.45	3660.60
414.64	3742.52
414.83	3831.46
415.02	3824.44
415.22	3880.61
415.41	3779.97
415.60	3904.01
415.79	3936.78
415.98	4004.66
416.17	3992.95
416.36	3904.01
416.55	4030.40
416.74	4021.04
416.93	3999.98
417.12	4105.30
417.31	4177.86
417.50	4145.09
417.69	4339.35
417.88	4390.84
418.07	4271.48
418.26	4360.42
418.45	4381.48
418.64	4526.60
418.83	4437.66
419.02	4430.63
419.21	4596.81
419.39	4545.32
419.58	4416.59
419.77	4360.42
419.96	4596.81
420.15	4552.34
420.34	4816.82
420.53	4552.34
420.72	4643.62
420.91	4617.88
421.10	4657.67
421.29	4877.68
421.48	4737.24
421.67	4765.33
421.86	4699.80
422.05	4828.53
422.24	4994.70
422.43	4760.65
422.61	4837.89
422.80	4961.94
422.99	4863.63
423.18	4926.83
423.37	5046.20
423.56	5015.77
423.75	5006.41
423.94	4842.57
424.13	4713.84
424.32	4777.03
424.50	5046.20
424.69	5104.71
424.88	5095.35
425.07	4875.34
425.26	4816.82
425.45	4971.30
425.64	5029.81
425.83	4961.94
426.01	5069.60
426.20	4950.23
426.39	5233.44
426.58	5172.58
426.77	5146.84
426.96	5174.92
427.15	4961.94
427.33	5242.80
427.52	5151.52
427.71	5198.33
427.90	5121.09
428.09	5282.59
428.28	5247.48
428.46	5423.02
428.65	5355.15
428.84	5638.35
429.03	5394.93
429.22	5411.32
429.40	5500.26
429.59	5518.98
429.78	5245.14
429.97	5221.74
430.16	5518.98
430.34	5645.37
430.53	5633.67
430.72	5610.26
430.91	5589.20
431.10	5598.56
431.28	5823.25
431.47	5820.91
431.66	5806.87
431.85	5799.85
432.03	5771.76
432.22	6076.03
432.41	5916.87
432.60	5996.45
432.79	5942.62
432.97	6118.16
433.16	5998.79
433.35	6033.90
433.54	6207.10
433.72	6115.82
433.91	6218.80
434.10	6139.23
434.28	6122.84
434.47	6291.36
434.66	6256.25
434.85	6279.66
435.03	6471.58
435.22	6457.54
435.41	6602.65
435.59	6389.66
435.78	6389.66
435.97	6562.86
436.16	6494.99
436.34	6272.64
436.53	6499.67
436.72	6637.76
436.90	6520.73
437.09	6455.20
437.28	6434.13
437.46	6635.42
437.65	6532.44
437.84	6883.52
438.02	6820.32
438.21	6736.06
438.40	6768.83
438.58	7096.50
438.77	6993.52
438.96	7063.74
439.14	7009.90
439.33	7040.33
439.52	7126.93
439.70	7410.14
439.89	7372.69
440.08	7400.77
440.26	7358.64
440.45	7344.60
440.63	7468.65
440.82	7541.21
441.01	7283.75
441.19	7555.25
441.38	7784.62
441.57	7548.23
441.75	7826.75
441.94	7854.84
442.12	7967.18
442.31	8065.49
442.50	7922.71
442.68	8147.40
442.87	8170.81
443.05	8086.55
443.24	8212.94
443.43	8152.09
443.61	8175.49
443.80	8421.25
443.98	7976.55
444.17	7908.67
444.35	8177.83
444.54	8336.99
444.73	8285.50
444.91	8135.70
445.10	8470.40
445.28	8404.86
445.47	8266.77
445.65	8351.03
445.84	8393.16
446.02	8767.65
446.21	8238.69
446.39	8383.80
446.58	8159.11
446.77	8475.08
446.95	8353.37
447.14	8498.49
447.32	8479.76
447.51	8540.61
447.69	8395.50
447.88	8753.60
448.06	8521.89
448.25	8599.13
448.43	8566.36
448.62	8683.39
448.80	8629.56
448.99	8830.84
449.17	8835.52
449.36	8613.17
449.54	8861.27
449.73	8933.82
449.91	8997.02
450.10	8870.63
450.28	9006.38
450.46	8833.18
450.65	9046.17
450.83	9083.62
451.02	9172.56
451.20	9137.45
451.39	9308.31
451.57	9177.24
451.76	9055.53
451.94	9294.27
452.13	9322.35
452.31	9261.50
452.49	9263.84
452.68	9345.76
452.86	9504.92
453.05	9327.03
453.23	9628.96
453.42	9481.51
453.60	9420.66
453.78	9418.32
453.97	9413.63
454.15	9404.27
454.34	9439.38
454.52	9650.03
454.70	9722.59
454.89	9666.41
455.07	9722.59
455.26	9792.80
455.44	9818.55
455.62	9980.04
455.81	9877.06
455.99	10167.29
456.17	10127.50
456.36	9984.73
456.54	10345.17
456.73	10129.84
456.91	10490.28
457.09	10328.78
457.28	10541.77
457.46	10298.36
457.64	10593.26
457.83	10600.29
458.01	10513.69
458.19	10670.50
458.38	10452.83
458.56	10934.98
458.74	10619.01
458.93	10506.66
459.11	10738.38
459.29	10719.65
459.48	11098.82
459.66	10916.26
459.84	10895.19
460.03	11016.90
460.21	11115.20
460.39	11056.69
460.57	11030.94
460.76	11080.10
460.94	11110.52
461.12	11143.29
461.31	11131.59
461.49	11225.21
461.67	11145.63
461.85	11578.63
462.04	11239.25
462.22	11822.05
462.40	11445.22
462.59	11506.07
462.77	11379.68
462.95	11634.80
463.13	11660.55
463.32	11740.13
463.50	12039.72
463.68	12013.97
463.86	11903.96
464.05	11784.60
464.23	11646.51
464.41	11822.05
464.59	11702.68
464.78	12138.02
464.96	12002.27
465.14	12063.12
465.32	12116.95
465.50	12175.47
465.69	12002.27
465.87	12142.70
466.05	12276.11
466.23	12257.39
466.41	12201.21
466.60	12524.21
466.78	12334.62
466.96	12168.45
467.14	12346.33
467.32	12210.57
467.51	12531.23
467.69	12257.39
467.87	12486.76
468.05	12325.26
468.23	12463.35
468.41	12664.64
468.60	12786.35
468.78	12695.07
468.96	12638.89
469.14	13071.89
469.32	13123.38
469.50	12807.41
469.69	12999.34
469.87	13334.03
470.05	13317.65
470.23	13158.49
470.41	13177.22
470.59	13418.29
470.77	13092.96
470.95	13394.89
471.14	13619.58
471.32	13109.34
471.50	13509.57
471.68	13673.41
471.86	13619.58
472.04	13516.59
472.22	14099.39
472.40	13668.73
472.58	13846.61
472.77	14010.45
472.95	14317.06
473.13	14728.99
473.31	14190.67
473.49	13980.02
473.67	14129.81
473.85	14387.27
474.03	14618.99
474.21	14771.12
474.39	14691.54
474.57	14892.83
474.75	14733.67
474.93	14897.51
475.12	14846.02
475.30	15365.62
475.48	15150.29
475.66	15412.43
475.84	15260.29
476.02	15400.72
476.20	15555.20
476.38	15580.95
476.56	16091.18
476.74	16152.04
476.92	15946.07
477.10	15807.98
477.28	15932.03
477.46	16243.32
477.64	16231.62
477.82	16493.76
478.00	17102.29
478.18	16779.30
478.36	16936.12
478.54	17071.87
478.72	17128.04
478.90	17500.19
479.08	17706.15
479.26	17673.39
479.44	17923.82
479.62	17738.92
479.80	17970.63
479.98	18136.81
480.16	18246.82
480.34	18410.65
480.52	18831.95
480.70	18707.90
480.88	18412.99
481.06	18665.77
481.24	18857.70
481.41	19145.58
481.59	19433.47
481.77	19632.41
481.95	19665.18
482.13	19899.23
482.31	19611.35
482.49	20362.66
482.67	20201.16
482.85	20961.84
483.03	20758.21
483.21	20554.58
483.39	21029.71
483.57	20924.39
483.74	21209.93
483.92	21811.45
484.10	21544.63
484.28	22005.72
484.46	22242.11
484.64	22317.01
484.82	22148.49
485.00	22642.34
485.18	22703.20
485.35	23246.20
485.53	22871.72
485.71	22916.19
485.89	23463.87
486.07	23115.13
486.25	23559.83
486.43	23527.06
486.61	23939.00
486.78	24046.66
486.96	24472.64
487.14	24563.92
487.32	24463.28
487.50	24943.09
487.68	25120.97
487.85	25446.30
488.03	25771.64
488.21	25874.62
488.39	25972.92
488.57	26054.84
488.75	26546.36
488.92	26408.26
489.10	26714.87
489.28	27201.71
489.46	27042.55
489.64	27175.96
489.81	27709.60
489.99	27847.69
490.17	27728.33
490.35	28528.79
490.53	28329.84
490.70	28498.36
490.88	28479.64
491.06	28498.36
491.24	28758.16
491.41	29015.62
491.59	29027.32
491.77	29214.57
491.95	29654.59
492.13	29916.73
492.30	30038.44
492.48	30574.42
492.66	30157.80
492.84	30441.01
493.01	30684.42
493.19	30775.70
493.37	31098.70
493.54	31246.15
493.72	31775.11
493.90	31735.32
494.08	32353.23
494.25	31929.59
494.43	31903.84
494.61	32238.54
494.79	32577.92
494.96	32201.09
495.14	33209.86
495.32	33046.02
495.49	33097.52
495.67	33359.66
495.85	33832.44
496.02	33680.31
496.20	34232.68
496.38	33867.55
496.55	34136.71
496.73	35007.39
496.91	34806.11
497.09	35330.39
497.26	34927.81
497.44	35077.61
497.62	35257.83
497.79	35943.61
497.97	35646.36
498.14	36182.34
498.32	35871.05
498.50	36629.38
498.67	36690.24
498.85	36353.20
499.03	37170.05
499.20	36545.12
499.38	37471.98
499.56	37148.98
499.73	36800.24
499.91	37467.30
500.08	37724.75
500.26	37443.89
500.44	37942.42
500.61	38389.47
500.79	37734.12
500.97	38422.23
501.14	38588.41
501.32	39126.74
501.49	38651.61
501.67	38433.94
501.84	39239.08
502.02	38862.26
502.20	39435.69
502.37	39295.25
502.55	39218.02
502.72	39321.00
502.90	39845.28
503.07	39435.69
503.25	40137.85
503.43	39791.45
503.60	40184.66
503.78	40313.39
503.95	40460.84
504.13	40828.30
504.30	41053.00
504.48	40870.43
504.65	40886.82
504.83	41092.79
505.01	41383.01
505.18	41081.08
505.36	42085.17
505.53	41275.35
505.71	41509.40
505.88	41771.54
506.06	41785.58
506.23	42183.48
506.41	41989.21
506.58	42251.35
506.76	42239.65
506.93	42543.92
507.11	42281.78
507.28	42761.59
507.46	43215.65
507.63	42784.99
507.81	43452.05
507.98	42937.13
508.16	43477.79
508.33	43653.33
508.50	43945.90
508.68	43753.97
508.85	43889.73
509.03	43634.61
509.20	43861.64
509.38	44409.32
509.55	44811.90
509.73	44854.03
509.90	44980.42
510.08	45113.83
510.25	44856.37
510.42	44839.98
510.60	45202.77
510.77	45282.34
510.95	45340.86
511.12	45343.20
511.30	45336.18
511.47	45504.70
511.64	45825.35
511.82	46146.00
511.99	45883.86
512.17	46492.40
512.34	45996.21
512.51	46920.72
512.69	46707.73
512.86	46244.30
513.04	46836.46
513.21	46878.59
513.38	46590.70
513.56	47122.01
513.73	46827.10
513.90	46864.55
514.08	46988.60
514.25	47274.14
514.43	47622.88
514.60	47412.23
514.77	47767.99
514.95	48081.63
515.12	47283.50
515.29	47646.29
515.47	48149.50
515.64	48268.87
515.81	48233.76
515.99	48425.68
516.16	48924.22
516.33	48233.76
516.51	48711.23
516.68	48451.43
516.85	49015.50
517.03	49294.02
517.20	49055.29
517.37	48832.94
517.54	48748.68
517.72	48921.88
517.89	49167.63
518.06	49532.76
518.24	49141.89
518.41	49364.24
518.58	49560.84
518.75	49174.66
518.93	49645.10
519.10	49918.95
519.27	49900.22
519.45	49764.47
519.62	49785.54
519.79	50031.29
519.96	49982.14
520.14	50260.66
520.31	50085.12
520.48	50522.80
520.65	50518.12
520.83	50808.35
521.00	50960.48
521.17	50688.98
521.34	50880.91
521.52	51105.60
521.69	50866.86
521.86	50967.51
522.03	51428.59
522.20	51400.50
522.38	51894.36
522.55	51227.31
522.72	51583.07
522.89	51466.04
523.07	51674.35
523.24	51679.03
523.41	52032.45
523.58	51606.47
523.75	52186.92
523.92	51840.53
524.10	51985.64
524.27	52151.82
524.44	52137.77
524.61	51854.57
524.78	52292.25
524.96	52420.98
525.13	52308.63
525.30	52444.38
525.47	52802.49
525.64	52645.67
525.81	52900.79
525.98	53024.84
526.16	52790.78
526.33	52917.17
526.50	53165.27
526.67	53251.87
526.84	53097.39
527.01	53113.78
527.18	53006.11
527.36	53013.13
527.53	53090.37
527.70	53553.80
527.87	53516.35
528.04	53497.62
528.21	53418.05
528.38	53478.90
528.55	53820.62
528.72	53490.60
528.89	53743.38
529.07	53600.61
529.24	53813.60
529.41	53785.51
529.58	53827.64
529.75	53631.04
529.92	53956.37
530.09	53837.00
530.26	53982.12
530.43	53996.16
530.60	54017.22
530.77	54071.06
530.94	54375.33
531.11	54274.68
531.28	54150.63
531.46	54550.87
531.63	54452.56
531.80	54405.75
531.97	54511.08
532.14	54452.56
532.31	54667.89
532.48	54602.36
532.65	54667.89
532.82	54497.03
532.99	54618.74
533.16	54611.72
533.33	54897.27
533.50	54969.82
533.67	54892.58
533.84	54871.52
534.01	55079.83
534.18	55082.17
534.35	55379.42
534.52	55021.31
534.69	55278.77
534.86	55435.59
535.03	55304.52
535.20	55379.42
535.37	55597.09
535.54	55473.04
535.71	55309.20
535.88	55695.39
536.05	55676.66
536.22	55622.83
536.38	55463.67
536.55	55634.53
536.72	55749.22
536.89	55552.62
537.06	55573.68
537.23	55955.19
537.40	55711.77
537.57	55875.61
537.74	56119.02
537.91	56123.71
538.08	55849.86
538.25	55987.95
538.42	55955.19
538.59	56399.89
538.75	56133.07
538.92	55894.33
539.09	56200.94
539.26	56179.88
539.43	56149.45
539.60	56392.87
539.77	56240.73
539.94	56666.71
540.11	56477.13
540.28	56509.89
540.44	56479.47
540.61	56526.28
540.78	56692.46
540.95	56765.01
541.12	56594.15
541.29	56638.62
541.46	56662.03
541.62	56743.95
541.79	57120.77
541.96	56591.81
542.13	56697.14
542.30	56601.18
542.47	57179.29
542.63	56926.51
542.80	57073.96
542.97	57226.10
543.14	57293.97
543.31	57425.04
543.48	57331.42
543.64	57464.83
543.81	57535.05
543.98	57420.36
544.15	57513.98
544.32	57539.73
544.48	57495.26
544.65	57647.39
544.82	57443.77
544.99	57497.60
545.16	57612.29
545.32	57469.51
545.49	57729.31
545.66	57930.60
545.83	57726.97
546.00	57897.83
546.16	57565.48
546.33	57771.44
546.50	57628.67
546.67	57764.42
546.83	57687.18
547.00	58038.26
547.17	57792.51
547.34	58040.60
547.50	58026.56
547.67	58003.16
547.84	58124.86
548.00	58335.51
548.17	58452.54
548.34	58178.70
548.51	58370.62
548.67	58277.00
548.84	58389.34
549.01	58127.20
549.18	58410.41
549.34	58288.70
549.51	58298.06
549.68	58482.97
549.84	58468.92
550.01	58492.33
550.18	58234.87
550.34	58485.31
550.51	58534.46
550.68	58602.33
550.84	58279.34
551.01	58848.09
551.18	58623.40
551.34	58595.31
551.51	58621.06
551.68	58717.02
551.84	58646.80
552.01	58590.63
552.18	58979.16
552.34	58621.06
552.51	58908.94
552.68	58869.15
552.84	58906.60
553.01	58953.41
553.18	58939.37
553.34	58866.81
553.51	58787.24
553.67	59018.95
553.84	59007.25
554.01	58904.26
554.17	59098.53
554.34	58946.39
554.51	58937.03
554.67	59082.14
554.84	59269.39
555.00	58993.20
555.17	59035.33
555.33	59072.78
555.50	59030.65
555.67	59276.41
555.83	59007.25
556.00	59379.39
556.16	59540.89
556.33	59339.60
556.50	59267.05
556.66	59440.24
556.83	59426.20
556.99	59454.29
557.16	59697.70
557.32	59423.86
557.49	59531.53
557.65	59365.35
557.82	59341.94
557.98	59529.19
558.15	59482.37
558.32	59505.78
558.48	59430.88
558.65	59540.89
558.81	59447.27
558.98	59753.88
559.14	59807.71
559.31	59688.34
559.47	59934.10
559.64	59704.73
559.80	59756.22
559.97	59828.77
560.13	59592.38
560.30	59842.82
560.46	59847.50
560.63	59753.88
560.79	59613.44
560.96	60044.10
561.12	59994.95
561.29	59831.11
561.45	59931.76
561.61	59812.39
561.78	59884.95
561.94	60044.10
562.11	59709.41
562.27	60079.21
562.44	60126.02
562.60	60168.15
562.77	60053.47
562.93	59875.58
563.10	59927.08
563.26	59915.37
563.42	60322.63
563.59	60041.76
563.75	60053.47
563.92	60196.24
564.08	60100.28
564.24	60217.30
564.41	60226.66
564.57	60329.65
564.74	60238.37
564.90	60231.35
565.07	59978.57
565.23	60163.47
565.39	60203.26
565.56	60163.47
565.72	60420.93
565.88	60385.82
566.05	60121.34
566.21	60081.55
566.38	60198.58
566.54	60402.21
566.70	60434.97
566.87	60434.97
567.03	60381.14
567.19	60554.34
567.36	60512.21
567.52	60392.84
567.68	60552.00
567.85	60434.97
568.01	60666.69
568.17	60612.85
568.34	60479.44
568.50	60245.39
568.66	60376.46
568.83	60603.49
568.99	60427.95
569.15	60425.61
569.32	60563.70
569.48	60378.80
569.64	60580.09
569.81	60514.55
569.97	60383.48
570.13	60603.49
570.30	60472.42
570.46	60753.29
570.62	60528.59
570.78	60540.30
570.95	60465.40
571.11	60594.13
571.27	60722.86
571.43	60603.49
571.60	60671.37
571.76	60612.85
571.92	60699.45
572.09	60617.53
572.25	60683.07
572.41	60608.17
572.57	60783.71
572.74	60800.10
572.90	60631.58
573.06	60849.25
573.22	60561.36
573.38	60870.31
573.55	60683.07
573.71	60802.44
573.87	60889.04
574.03	60680.73
574.20	60657.32
574.36	60666.69
574.52	60879.67
574.68	60795.42
574.84	61127.77
575.01	61038.83
575.17	60903.08
575.33	60938.19
575.49	60617.53
575.65	61010.74
575.82	60856.27
575.98	60910.10
576.14	61034.15
576.30	60767.33
576.46	60753.29
576.62	60701.79
576.79	60800.10
576.95	60774.35
577.11	60940.53
577.27	61020.11
577.43	61048.19
577.59	60959.25
577.75	60814.14
577.92	60802.44
578.08	61064.58
578.24	60795.42
578.40	61064.58
578.56	61078.62
578.72	60863.29
578.88	61099.68
579.04	61235.44
579.21	61057.56
579.37	60952.23
579.53	61254.16
579.69	60795.42
579.85	60912.44
580.01	61034.15
580.17	60839.89
580.33	61048.19
580.49	61120.75
580.65	61050.53
580.82	60996.70
580.98	60903.08
581.14	60968.61
581.30	61071.60
581.46	60879.67
581.62	61338.42
581.78	60832.86
581.94	61207.35
582.10	61130.11
582.26	61015.43
582.42	61038.83
582.58	60889.04
582.74	61130.11
582.90	61001.38
583.06	61057.56
583.22	60987.34
583.38	61071.60
583.54	60987.34
583.70	61216.71
583.86	61132.45
584.02	61022.45
584.18	61036.49
584.34	61048.19
584.50	61013.08
584.66	61123.09
584.82	60807.12
584.98	61106.71
585.14	61116.07
585.30	60839.89
585.46	60973.30
585.62	61137.13
585.78	61223.73
585.94	60910.10
586.10	61209.69
586.26	61097.34
586.42	61130.11
586.58	61371.19
586.74	61130.11
586.90	61200.33
587.06	61127.77
587.22	61226.07
587.38	61216.71
587.54	61249.48
587.70	61132.45
587.86	61125.43
588.02	61024.79
588.18	61265.86
588.34	61106.71
588.49	60949.89
