SpectraSuite Data File
++++++++++++++++++++++++++++++++++++
Date: Fri Oct 25 11:25:52 EDT 2013
User: price-jones
Dark Spectrum Present: No
Reference Spectrum Present: No
Number of Sampled Component Spectra: 1
Spectrometers: USB2+H05261
Integration Time (usec): 100000 (USB2+H05261)
Spectra Averaged: 1 (USB2+H05261)
Boxcar Smoothing: 0 (USB2+H05261)
Correct for Electrical Dark: No (USB2+H05261)
Strobe/Lamp Enabled: No (USB2+H05261)
Correct for Detector Non-linearity: No (USB2+H05261)
Correct for Stray Light: No (USB2+H05261)
Number of Pixels in Processed Spectrum: 2048
>>>>>Begin Processed Spectral Data<<<<<
365.73	280.86
365.92	280.86
366.12	280.86
366.32	126.39
366.52	156.82
366.72	117.03
366.91	98.30
367.11	145.11
367.31	88.94
367.51	124.05
367.70	119.37
367.90	102.98
368.10	166.18
368.30	175.54
368.49	189.58
368.69	140.43
368.89	110.01
369.09	166.18
369.28	149.79
369.48	145.11
369.68	205.97
369.87	210.65
370.07	229.37
370.27	250.44
370.47	297.25
370.66	589.82
370.86	587.47
371.06	655.35
371.25	716.20
371.45	620.24
371.65	690.46
371.84	739.61
372.04	819.19
372.24	823.87
372.44	697.48
372.63	805.14
372.83	758.33
373.03	727.91
373.22	770.04
373.42	709.18
373.62	774.72
373.81	779.40
374.01	807.48
374.21	847.27
374.40	791.10
374.60	856.64
374.79	858.98
374.99	805.14
375.19	784.08
375.38	922.17
375.58	863.66
375.78	849.61
375.97	898.77
376.17	875.36
376.37	901.11
376.56	877.70
376.76	851.96
376.95	851.96
377.15	882.38
377.35	849.61
377.54	912.81
377.74	887.06
377.93	978.34
378.13	983.02
378.33	959.62
378.52	809.83
378.72	973.66
378.91	1048.56
379.11	936.21
379.31	887.06
379.50	910.47
379.70	1018.13
379.89	891.74
380.09	966.64
380.28	1015.79
380.48	964.30
380.68	952.60
380.87	940.90
381.07	1027.50
381.26	1053.24
381.46	1004.09
381.65	1027.50
381.85	973.66
382.04	1053.24
382.24	1055.58
382.43	999.41
382.63	1069.62
382.83	1036.86
383.02	1064.94
383.22	999.41
383.41	1078.99
383.61	1083.67
383.80	1172.61
384.00	1111.75
384.19	1071.97
384.39	1193.67
384.58	1163.25
384.78	1186.65
384.97	1163.25
385.17	1132.82
385.36	1177.29
385.56	1116.44
385.75	1104.73
385.95	1146.86
386.14	1179.63
386.34	1203.04
386.53	1142.18
386.72	1123.46
386.92	1245.16
387.11	1242.82
387.31	1306.02
387.50	1273.25
387.70	1306.02
387.89	1341.13
388.09	1320.06
388.28	1348.15
388.48	1249.85
388.67	1317.72
388.86	1226.44
389.06	1343.47
389.25	1427.73
389.45	1329.42
389.64	1247.51
389.84	1376.24
390.03	1315.38
390.22	1444.11
390.42	1469.86
390.61	1387.94
390.81	1455.81
391.00	1348.15
391.19	1472.20
391.39	1497.94
391.58	1511.99
391.78	1483.90
391.97	1465.18
392.16	1451.13
392.36	1500.28
392.55	1556.46
392.75	1519.01
392.94	1495.60
393.13	1561.14
393.33	1490.92
393.52	1575.18
393.71	1577.52
393.91	1575.18
394.10	1605.61
394.29	1596.25
394.49	1579.86
394.68	1624.33
394.88	1605.61
395.07	1668.80
395.26	1589.22
395.46	1619.65
395.65	1722.63
395.84	1713.27
396.04	1804.55
396.23	1816.26
396.42	1870.09
396.62	1823.28
396.81	1785.83
397.00	1790.51
397.19	1870.09
397.39	1727.32
397.58	1870.09
397.77	1820.94
397.97	1893.49
398.16	1851.36
398.35	1963.71
398.55	1818.60
398.74	1900.52
398.93	1947.33
399.12	1891.15
399.32	1923.92
399.51	1877.11
399.70	1977.75
399.90	1989.46
400.09	1977.75
400.28	2038.61
400.47	2064.35
400.67	2127.55
400.86	2071.37
401.05	2078.40
401.24	2069.03
401.44	2043.29
401.63	2085.42
401.82	2172.02
402.01	2186.06
402.21	2200.10
402.40	2188.40
402.59	2155.63
402.78	2172.02
402.97	2237.55
403.17	2230.53
403.36	2319.47
403.55	2218.83
403.74	2207.13
403.93	2438.84
404.13	2237.55
404.32	2368.62
404.51	2410.75
404.70	2361.60
404.89	2385.01
405.09	2497.35
405.28	2523.10
405.47	2513.74
405.66	2366.28
405.85	2609.70
406.05	2623.74
406.24	2497.35
406.43	2562.89
406.62	2658.85
406.81	2633.10
407.00	2628.42
407.20	2558.21
407.39	2656.51
407.58	2675.23
407.77	2745.45
407.96	2768.85
408.15	2593.31
408.34	2679.91
408.54	2719.70
408.73	2782.90
408.92	2853.11
409.11	3101.21
409.30	2836.73
409.49	2768.85
409.68	2857.79
409.87	2925.67
410.07	2953.76
410.26	2998.23
410.45	2916.31
410.64	3009.93
410.83	3148.02
411.02	2995.89
411.21	3112.91
411.40	3185.47
411.59	3178.45
411.78	3178.45
411.98	3159.72
412.17	3255.69
412.36	3316.54
412.55	3279.09
412.74	3478.04
412.93	3527.19
413.12	3468.67
413.31	3480.38
413.50	3428.88
413.69	3398.46
413.88	3641.87
414.07	3506.12
414.26	3534.21
414.45	3641.87
414.64	3641.87
414.83	3782.31
415.02	3740.18
415.22	3847.84
415.41	3786.99
415.60	3927.42
415.79	3784.65
415.98	3913.38
416.17	3878.27
416.36	4081.89
416.55	3976.57
416.74	4056.15
416.93	3936.78
417.12	4070.19
417.31	4154.45
417.50	4241.05
417.69	4390.84
417.88	4180.20
418.07	4238.71
418.26	4273.82
418.45	4252.75
418.64	4428.29
418.83	4440.00
419.02	4440.00
419.21	4512.55
419.39	4475.10
419.58	4585.11
419.77	4421.27
419.96	4559.36
420.15	4624.90
420.34	4667.03
420.53	4678.73
420.72	4706.82
420.91	4791.08
421.10	4674.05
421.29	4767.67
421.48	4699.80
421.67	4755.97
421.86	4844.91
422.05	4774.69
422.24	4807.46
422.43	4830.87
422.61	4947.89
422.80	4856.61
422.99	4884.70
423.18	4837.89
423.37	4957.25
423.56	4936.19
423.75	4987.68
423.94	4814.48
424.13	4629.58
424.32	4734.90
424.50	4964.28
424.69	5048.54
424.88	5053.22
425.07	5184.29
425.26	4999.38
425.45	4954.91
425.64	5022.79
425.83	4924.49
426.01	4938.53
426.20	5032.15
426.39	4968.96
426.58	5018.11
426.77	5153.86
426.96	5081.30
427.15	5114.07
427.33	5331.74
427.52	5083.64
427.71	5188.97
427.90	5338.76
428.09	5219.39
428.28	5364.51
428.46	5322.38
428.65	5373.87
428.84	5444.09
429.03	5460.47
429.22	5476.85
429.40	5486.22
429.59	5575.16
429.78	5195.99
429.97	5181.95
430.16	5331.74
430.34	5521.32
430.53	5643.03
430.72	5607.92
430.91	5701.54
431.10	5647.71
431.28	5694.52
431.47	5764.74
431.66	5790.49
431.85	5820.91
432.03	5811.55
432.22	5940.28
432.41	5895.81
432.60	5933.26
432.79	6010.50
432.97	6040.92
433.16	5977.73
433.35	5877.09
433.54	5994.11
433.72	5940.28
433.91	6052.63
434.10	6179.01
434.28	6003.47
434.47	6282.00
434.66	6352.21
434.85	6321.79
435.03	6333.49
435.22	6235.19
435.41	6595.63
435.59	6427.11
435.78	6483.28
435.97	6387.32
436.16	6487.96
436.34	6471.58
436.53	6663.51
436.72	6775.85
436.90	6506.69
437.09	6558.18
437.28	6523.07
437.46	6590.95
437.65	6647.12
437.84	6651.80
438.02	6672.87
438.21	6939.69
438.40	6670.53
438.58	7009.90
438.77	6946.71
438.96	6991.18
439.14	7155.02
439.33	7108.21
439.52	7101.19
439.70	7243.96
439.89	7328.22
440.08	7300.13
440.26	7267.36
440.45	7307.15
440.63	7377.37
440.82	7391.41
441.01	7405.46
441.19	7679.30
441.38	7627.81
441.57	7686.32
441.75	7920.37
441.94	8060.80
442.12	7948.46
442.31	8119.32
442.50	8021.02
442.68	7932.08
442.87	7957.82
443.05	8131.02
443.24	8112.30
443.43	8163.79
443.61	8128.68
443.80	8547.64
443.98	8077.19
444.17	7793.98
444.35	8290.18
444.54	8383.80
444.73	8346.35
444.91	8360.39
445.10	8360.39
445.28	8212.94
445.47	8215.28
445.65	8559.34
445.84	8292.52
446.02	8500.83
446.21	8458.70
446.39	8301.88
446.58	8477.42
446.77	8620.19
446.95	8449.33
447.14	8421.25
447.32	8479.76
447.51	8449.33
447.69	8482.10
447.88	8547.64
448.06	8505.51
448.25	8360.39
448.43	8774.67
448.62	8568.70
448.80	8528.91
448.99	8650.62
449.17	8746.58
449.36	8533.59
449.54	8814.46
449.73	8779.35
449.91	9095.32
450.10	9043.83
450.28	9046.17
450.46	8915.10
450.65	9188.94
450.83	9245.12
451.02	9109.36
451.20	9104.68
451.39	9095.32
451.57	9261.50
451.76	9067.24
451.94	9214.69
452.13	9167.88
452.31	9123.41
452.49	9083.62
452.68	9282.56
452.86	9483.85
453.05	9540.02
453.23	9371.50
453.42	9301.29
453.60	9266.18
453.78	9558.75
453.97	9504.92
454.15	9146.81
454.34	9362.14
454.52	9701.52
454.70	9687.48
454.89	9830.25
455.07	9790.46
455.26	10012.81
455.44	9895.78
455.62	9839.61
455.81	9923.87
455.99	10001.11
456.17	9886.42
456.36	10054.94
456.54	10148.56
456.73	10249.21
456.91	10551.14
457.09	10347.51
457.28	10658.80
457.46	10310.06
457.64	10487.94
457.83	10572.20
458.01	10284.31
458.19	10630.71
458.38	10672.84
458.56	10754.76
458.74	10848.38
458.93	10665.82
459.11	10813.28
459.29	10729.02
459.48	10747.74
459.66	10637.73
459.84	10860.09
460.03	10888.17
460.21	10888.17
460.39	10771.15
460.57	10832.00
460.76	11094.14
460.94	11000.52
461.12	11019.24
461.31	11126.91
461.49	11094.14
461.67	10988.82
461.85	11304.79
462.04	11124.57
462.22	11768.21
462.40	11672.25
462.59	11485.01
462.77	11550.54
462.95	11878.22
463.13	11712.04
463.32	11679.27
463.50	11744.81
463.68	11805.66
463.86	11698.00
464.05	11775.24
464.23	11770.55
464.41	11873.54
464.59	11517.78
464.78	12208.23
464.96	12123.98
465.14	11672.25
465.32	12035.03
465.50	12175.47
465.69	12233.98
465.87	12280.79
466.05	12046.74
466.23	11990.56
466.41	12397.82
466.60	12161.42
466.78	12109.93
466.96	12278.45
467.14	12215.26
467.32	12453.99
467.51	12575.70
467.69	11988.22
467.87	12568.68
468.05	12587.40
468.23	12556.97
468.41	12297.17
468.60	12573.36
468.78	12716.13
468.96	12767.62
469.14	12758.26
469.32	12779.32
469.50	12683.36
469.69	12910.40
469.87	13034.44
470.05	13039.12
470.23	13123.38
470.41	13121.04
470.59	13355.10
470.77	13125.72
470.95	13118.70
471.14	13387.86
471.32	13121.04
471.50	13420.63
471.68	13474.46
471.86	13710.86
472.04	13682.77
472.22	14090.02
472.40	13767.03
472.58	13827.88
472.77	13802.14
472.95	14193.01
473.13	14576.86
473.31	14078.32
473.49	14328.76
473.67	14148.54
473.85	14288.97
474.03	14576.86
474.21	14406.00
474.39	14630.69
474.57	14743.03
474.75	14918.57
474.93	14892.83
475.12	14993.47
475.30	15012.20
475.48	15119.86
475.66	15169.01
475.84	15197.10
476.02	15220.50
476.20	15066.03
476.38	15620.74
476.56	15861.81
476.74	15974.16
476.92	15744.78
477.10	15754.15
477.28	15840.75
477.46	15826.70
477.64	16376.73
477.82	16379.07
478.00	17071.87
478.18	16418.86
478.36	17046.12
478.54	17324.65
478.72	17104.64
478.90	17202.94
479.08	17575.08
479.26	17799.77
479.44	17635.94
479.62	17816.16
479.80	18059.57
479.98	18251.50
480.16	18651.73
480.34	18171.92
480.52	18799.18
480.70	18810.89
480.88	18438.74
481.06	18796.84
481.24	18728.97
481.41	19157.28
481.59	19391.34
481.77	19344.53
481.95	19461.55
482.13	19470.92
482.31	19616.03
482.49	20159.03
482.67	20287.76
482.85	20489.05
483.03	20753.53
483.21	20446.92
483.39	20809.70
483.57	21022.69
483.74	20908.01
483.92	21022.69
484.10	21078.86
484.28	21757.62
484.46	21834.86
484.64	22324.03
484.82	21820.81
485.00	22223.39
485.18	22436.38
485.35	23019.17
485.53	22661.07
485.71	23236.84
485.89	23812.61
486.07	23255.56
486.25	23466.21
486.43	23697.92
486.61	23796.23
486.78	24123.90
486.96	24229.23
487.14	24350.93
487.32	24500.73
487.50	24697.33
487.68	24917.34
487.85	25373.75
488.03	25315.23
488.21	25619.50
488.39	25898.03
488.57	26265.49
488.75	26216.34
488.92	26377.84
489.10	26429.33
489.28	26731.26
489.46	26937.23
489.64	27023.83
489.81	27690.88
489.99	27524.70
490.17	27786.84
490.35	27976.42
490.53	28177.71
490.70	28044.30
490.88	28524.11
491.06	28713.69
491.24	28664.54
491.41	28657.52
491.59	29383.09
491.77	29310.53
491.95	29628.84
492.13	29951.84
492.30	29600.76
492.48	29762.25
492.66	30415.26
492.84	30579.10
493.01	30953.58
493.19	30391.86
493.37	30976.99
493.54	31189.98
493.72	31519.99
493.90	31447.44
494.08	31522.34
494.25	32540.47
494.43	32004.49
494.61	32460.89
494.79	32446.85
494.96	32439.82
495.14	32603.66
495.32	33542.22
495.49	33474.34
495.67	32779.20
495.85	33507.11
496.02	33687.33
496.20	34003.30
496.38	33830.10
496.55	34036.07
496.73	34871.64
496.91	34534.60
497.09	34974.63
497.26	35000.37
497.44	34717.17
497.62	35213.36
497.79	35721.26
497.97	35543.38
498.14	35505.93
498.32	36264.26
498.50	36016.16
498.67	36781.52
498.85	36584.91
499.03	36304.05
499.20	36762.79
499.38	36687.90
499.56	37083.45
499.73	37130.26
499.91	37483.68
500.08	37956.47
500.26	37198.13
500.44	37886.25
500.61	38232.65
500.79	37804.33
500.97	38096.90
501.14	38483.09
501.32	38426.92
501.49	38405.85
501.67	38677.35
501.84	39026.09
502.02	38951.20
502.20	38855.23
502.37	39292.91
502.55	39084.61
502.72	39234.40
502.90	39438.03
503.07	39159.50
503.25	40030.18
503.43	39739.96
503.60	39976.35
503.78	40020.82
503.95	40449.14
504.13	40257.21
504.30	40669.15
504.48	40629.36
504.65	40252.53
504.83	41038.95
505.01	41233.22
505.18	41336.20
505.36	41226.20
505.53	41060.02
505.71	41507.06
505.88	41368.97
506.06	41188.75
506.23	42057.09
506.41	41937.72
506.58	42066.45
506.76	42211.56
506.93	42560.30
507.11	42031.34
507.28	42274.76
507.46	42824.78
507.63	43119.69
507.81	43192.25
507.98	42630.52
508.16	43054.15
508.33	43351.40
508.50	43728.23
508.68	43777.38
508.85	43550.35
509.03	43578.43
509.20	44140.16
509.38	44172.93
509.55	44383.58
509.73	44395.28
509.90	44542.74
510.08	44498.26
510.25	44247.83
510.42	44793.17
510.60	44776.79
510.77	44933.60
510.95	45504.70
511.12	45216.81
511.30	45130.21
511.47	45492.99
511.64	45528.10
511.82	45680.24
511.99	45851.09
512.17	45804.28
512.34	45907.27
512.51	46454.95
512.69	45993.87
512.86	46300.48
513.04	46330.90
513.21	46522.83
513.38	46759.22
513.56	46824.76
513.73	46705.39
513.90	47028.38
514.08	46789.65
514.25	47213.29
514.43	47515.22
514.60	47665.01
514.77	47374.78
514.95	47234.35
515.12	47405.21
515.29	47679.05
515.47	47988.00
515.64	47746.93
515.81	47618.20
515.99	47969.28
516.16	48442.07
516.33	48222.06
516.51	48523.99
516.68	48126.10
516.85	48811.87
517.03	49055.29
517.20	48886.77
517.37	49118.48
517.54	48877.41
517.72	48694.85
517.89	49118.48
518.06	48942.94
518.24	49254.23
518.41	49301.04
518.58	49375.94
518.75	49219.13
518.93	49303.38
519.10	49289.34
519.27	50045.33
519.45	49998.52
519.62	49715.32
519.79	49666.17
519.96	49977.46
520.14	50204.49
520.31	50192.79
520.48	50504.08
520.65	50241.94
520.83	50712.39
521.00	50611.74
521.17	50497.06
521.34	50403.44
521.52	50707.71
521.69	50714.73
521.86	50859.84
522.03	50834.10
522.20	51276.46
522.38	51274.12
522.55	51346.67
522.72	51391.14
522.89	51030.70
523.07	51770.31
523.24	51363.06
523.41	51578.39
523.58	51409.87
523.75	51875.63
523.92	51814.78
524.10	52151.82
524.27	52137.77
524.44	52072.24
524.61	52257.14
524.78	52163.52
524.96	52268.84
525.13	52282.89
525.30	52102.67
525.47	52406.94
525.64	52381.19
525.81	52547.37
525.98	52851.64
526.16	52512.26
526.33	52278.21
526.50	53144.20
526.67	52631.63
526.84	52947.60
527.01	53038.88
527.18	52905.47
527.36	53258.89
527.53	52889.09
527.70	53443.79
527.87	53387.62
528.04	53191.01
528.21	53392.30
528.38	53485.92
528.55	53308.04
528.72	53111.44
528.89	53242.51
529.07	53577.20
529.24	53296.34
529.41	53624.01
529.58	53832.32
529.75	53418.05
529.92	53820.62
530.09	53705.93
530.26	53928.28
530.43	53939.99
530.60	53801.89
530.77	53759.76
530.94	54073.40
531.11	54014.88
531.28	54003.18
531.46	54279.36
531.63	54349.58
531.80	54148.29
531.97	54562.57
532.14	54452.56
532.31	54344.90
532.48	54607.04
532.65	54515.76
532.82	54068.72
532.99	54590.66
533.16	54468.95
533.33	54728.75
533.50	54616.40
533.67	54841.09
533.84	54688.96
534.01	54703.00
534.18	54967.48
534.35	55332.60
534.52	54918.33
534.69	55033.02
534.86	54932.37
535.03	55143.02
535.20	54934.71
535.37	55229.62
535.54	55604.11
535.71	54958.12
535.88	55283.45
536.05	55196.85
536.22	55444.95
536.38	55292.82
536.55	55800.71
536.72	55587.72
536.89	55295.16
537.06	55576.02
537.23	55730.50
537.40	55515.17
537.57	55875.61
537.74	55648.58
537.91	55896.67
538.08	55728.16
538.25	55529.21
538.42	56076.90
538.59	56261.80
538.75	55784.33
538.92	56161.15
539.09	56285.20
539.26	56217.33
539.43	56140.09
539.60	56175.20
539.77	56023.06
539.94	56362.44
540.11	56285.20
540.28	56226.69
540.44	56465.42
540.61	56210.31
540.78	56397.55
540.95	56222.01
541.12	56411.59
541.29	56303.93
541.46	56439.68
541.62	56528.62
541.79	56463.08
541.96	56121.37
542.13	56507.55
542.30	56722.88
542.47	56931.19
542.63	56722.88
542.80	56755.65
542.97	56963.96
543.14	57200.35
543.31	57003.75
543.48	57153.54
543.64	57509.30
543.81	57317.38
543.98	57233.12
544.15	57109.07
544.32	57425.04
544.48	57701.23
544.65	57275.25
544.82	57415.68
544.99	57270.57
545.16	57455.47
545.32	57322.06
545.49	57715.27
545.66	57687.18
545.83	57556.11
546.00	57635.69
546.16	57375.89
546.33	57785.49
546.50	57492.92
546.67	57633.35
546.83	57357.17
547.00	57769.10
547.17	57649.74
547.34	57712.93
547.50	57991.45
547.67	57946.98
547.84	58042.95
548.00	57921.24
548.17	58176.36
548.34	58024.22
548.51	58309.77
548.67	58244.23
548.84	58094.44
549.01	58007.84
549.18	58209.12
549.34	58281.68
549.51	58300.40
549.68	58085.07
549.84	58363.60
550.01	58333.17
550.18	58117.84
550.34	58314.45
550.51	58368.28
550.68	58389.34
550.84	58141.25
551.01	58398.71
551.18	58471.26
551.34	58494.67
551.51	58574.25
551.68	58621.06
551.84	58529.78
552.01	58443.18
552.18	58424.45
552.34	58398.71
552.51	58536.80
552.68	58284.02
552.84	58548.50
553.01	58623.40
553.18	58862.13
553.34	58812.98
553.51	58588.29
553.67	58820.00
553.84	58904.26
554.01	59014.27
554.17	59100.87
554.34	58930.01
554.51	58974.48
554.67	59058.74
554.84	58782.55
555.00	59056.40
555.17	58925.33
555.33	59196.83
555.50	58953.41
555.67	58876.18
555.83	59208.53
556.00	58965.12
556.16	59395.77
556.33	59299.81
556.50	59049.38
556.66	59292.79
556.83	59213.21
556.99	59288.11
557.16	59538.55
557.32	59405.14
557.49	59524.50
557.65	59140.66
557.82	59150.02
557.98	59341.94
558.15	59292.79
558.32	59578.34
558.48	59526.84
558.65	59458.97
558.81	59414.50
558.98	59447.27
559.14	59444.93
559.31	59868.56
559.47	59503.44
559.64	59526.84
559.80	59540.89
559.97	59690.68
560.13	59327.90
560.30	59643.87
560.46	59894.31
560.63	59744.51
560.79	59590.04
560.96	59812.39
561.12	59870.90
561.29	59686.00
561.45	59824.09
561.61	59786.64
561.78	59840.48
561.94	59866.22
562.11	59913.03
562.27	59882.61
562.44	60182.19
562.60	59948.14
562.77	59945.80
562.93	59884.95
563.10	60006.65
563.26	59934.10
563.42	59971.55
563.59	59781.96
563.75	59966.87
563.92	60046.44
564.08	60027.72
564.24	60123.68
564.41	60170.49
564.57	59887.29
564.74	59971.55
564.90	60093.25
565.07	60238.37
565.23	60013.68
565.39	60013.68
565.56	60226.66
565.72	59943.46
565.88	60023.04
566.05	60303.90
566.21	60184.54
566.38	60285.18
566.54	60142.41
566.70	60310.92
566.87	60353.05
567.03	60090.91
567.19	60406.89
567.36	60238.37
567.52	60243.05
567.68	60481.78
567.85	60032.40
568.01	60320.29
568.17	60467.74
568.34	60416.25
568.50	60339.01
568.66	60425.61
568.83	60254.75
568.99	60334.33
569.15	60299.22
569.32	60472.42
569.48	60477.10
569.64	60306.24
569.81	60420.93
569.97	60119.00
570.13	60360.08
570.30	60271.14
570.46	60306.24
570.62	60371.78
570.78	60519.23
570.95	60505.19
571.11	60463.06
571.27	60367.10
571.43	60491.15
571.60	60528.59
571.76	60385.82
571.92	60652.64
572.09	60491.15
572.25	60364.76
572.41	60563.70
572.57	60507.53
572.74	60849.25
572.90	60467.74
573.06	60505.19
573.22	60755.63
573.38	60507.53
573.55	60617.53
573.71	60835.20
573.87	60750.94
574.03	60376.46
574.20	60556.68
574.36	60458.38
574.52	60683.07
574.68	60694.77
574.84	60748.60
575.01	60821.16
575.17	60706.47
575.33	60764.99
575.49	60460.72
575.65	60542.64
575.82	60795.42
575.98	60973.30
576.14	60818.82
576.30	60853.93
576.46	60825.84
576.62	60650.30
576.79	60633.92
576.95	60598.81
577.11	60690.09
577.27	60954.57
577.43	60743.92
577.59	60664.35
577.75	60823.50
577.92	60694.77
578.08	60552.00
578.24	60865.63
578.40	60877.33
578.56	60830.52
578.72	60676.05
578.88	60853.93
579.04	60882.02
579.21	60860.95
579.37	60889.04
579.53	60800.10
579.69	60601.15
579.85	60697.11
580.01	60598.81
580.17	60762.65
580.33	60736.90
580.49	60858.61
580.65	60961.59
580.82	60882.02
580.98	60743.92
581.14	60858.61
581.30	60903.08
581.46	60853.93
581.62	60889.04
581.78	60722.86
581.94	60959.25
582.10	60926.49
582.26	60905.42
582.42	60982.66
582.58	60846.91
582.74	60842.23
582.90	60877.33
583.06	60783.71
583.22	60673.71
583.38	60865.63
583.54	60889.04
583.70	61038.83
583.86	60987.34
584.02	61015.43
584.18	60985.00
584.34	60982.66
584.50	61022.45
584.66	60952.23
584.82	60954.57
584.98	61205.01
585.14	60893.72
585.30	61050.53
585.46	61127.77
585.62	60844.57
585.78	60987.34
585.94	60786.05
586.10	60832.86
586.26	61062.24
586.42	61226.07
586.58	61141.81
586.74	60996.70
586.90	61069.26
587.06	60825.84
587.22	61017.77
587.38	61020.11
587.54	61043.51
587.70	61186.28
587.86	60938.19
588.02	60935.85
588.18	61104.37
588.34	61066.92
588.49	60977.98
