SpectraSuite Data File
++++++++++++++++++++++++++++++++++++
Date: Fri Oct 25 11:23:38 EDT 2013
User: price-jones
Dark Spectrum Present: No
Reference Spectrum Present: No
Number of Sampled Component Spectra: 1
Spectrometers: USB2+H05261
Integration Time (usec): 100000 (USB2+H05261)
Spectra Averaged: 1 (USB2+H05261)
Boxcar Smoothing: 0 (USB2+H05261)
Correct for Electrical Dark: No (USB2+H05261)
Strobe/Lamp Enabled: No (USB2+H05261)
Correct for Detector Non-linearity: No (USB2+H05261)
Correct for Stray Light: No (USB2+H05261)
Number of Pixels in Processed Spectrum: 2048
>>>>>Begin Processed Spectral Data<<<<<
365.73	217.67
365.92	217.67
366.12	217.67
366.32	159.16
366.52	58.51
366.72	95.96
366.91	147.45
367.11	63.19
367.31	117.03
367.51	149.79
367.70	175.54
367.90	121.71
368.10	16.38
368.30	159.16
368.49	124.05
368.69	135.75
368.89	93.62
369.09	114.69
369.28	196.60
369.48	163.84
369.68	170.86
369.87	131.07
370.07	257.46
370.27	212.99
370.47	304.27
370.66	627.26
370.86	587.47
371.06	723.23
371.25	645.99
371.45	645.99
371.65	648.33
371.84	624.92
372.04	634.29
372.24	601.52
372.44	767.70
372.63	730.25
372.83	833.23
373.03	723.23
373.22	711.52
373.42	664.71
373.62	784.08
373.81	805.14
374.01	786.42
374.21	833.23
374.40	805.14
374.60	746.63
374.79	861.32
374.99	770.04
375.19	849.61
375.38	826.21
375.58	849.61
375.78	816.85
375.97	889.40
376.17	877.70
376.37	924.51
376.56	812.17
376.76	791.10
376.95	866.00
377.15	922.17
377.35	828.55
377.54	870.68
377.74	877.70
377.93	854.30
378.13	830.89
378.33	929.19
378.52	931.53
378.72	971.32
378.91	901.11
379.11	954.94
379.31	966.64
379.50	1006.43
379.70	978.34
379.89	997.07
380.09	954.94
380.28	992.39
380.48	940.90
380.68	905.79
380.87	1015.79
381.07	987.71
381.26	1006.43
381.46	1001.75
381.65	1057.92
381.85	1078.99
382.04	1055.58
382.24	1086.01
382.43	1078.99
382.63	1008.77
382.83	1100.05
383.02	1139.84
383.22	1144.52
383.41	1088.35
383.61	1064.94
383.80	1062.60
384.00	1109.41
384.19	1130.48
384.39	1186.65
384.58	1069.62
384.78	1203.04
384.97	1198.35
385.17	1200.69
385.36	1174.95
385.56	1207.72
385.75	1156.22
385.95	1158.57
386.14	1231.12
386.34	1245.16
386.53	1153.88
386.72	1210.06
386.92	1221.76
387.11	1266.23
387.31	1200.69
387.50	1179.63
387.70	1121.12
387.89	1238.14
388.09	1249.85
388.28	1320.06
388.48	1280.27
388.67	1306.02
388.86	1238.14
389.06	1336.45
389.25	1409.00
389.45	1331.76
389.64	1359.85
389.84	1404.32
390.03	1355.17
390.22	1291.98
390.42	1352.83
390.61	1458.15
390.81	1404.32
391.00	1444.11
391.19	1324.74
391.39	1458.15
391.58	1495.60
391.78	1439.43
391.97	1467.52
392.16	1460.49
392.36	1547.09
392.55	1504.96
392.75	1540.07
392.94	1514.33
393.13	1465.18
393.33	1570.50
393.52	1570.50
393.71	1540.07
393.91	1549.43
394.10	1537.73
394.29	1666.46
394.49	1650.08
394.68	1685.19
394.88	1589.22
395.07	1664.12
395.26	1717.95
395.46	1551.78
395.65	1659.44
395.84	1727.32
396.04	1682.85
396.23	1722.63
396.42	1640.72
396.62	1767.10
396.81	1778.81
397.00	1659.44
397.19	1771.79
397.39	1769.44
397.58	1884.13
397.77	1832.64
397.97	1811.57
398.16	1811.57
398.35	1902.86
398.55	1830.30
398.74	1940.30
398.93	1942.64
399.12	1949.67
399.32	1937.96
399.51	1975.41
399.70	2080.74
399.90	1949.67
400.09	2043.29
400.28	2083.08
400.47	1961.37
400.67	2001.16
400.86	2092.44
401.05	2026.90
401.24	2132.23
401.44	2101.80
401.63	2080.74
401.82	2111.16
402.01	2092.44
402.21	2076.06
402.40	2190.74
402.59	2176.70
402.78	2200.10
402.97	2157.97
403.17	2218.83
403.36	2218.83
403.55	2354.58
403.74	2314.79
403.93	2352.24
404.13	2342.88
404.32	2333.51
404.51	2333.51
404.70	2427.14
404.89	2368.62
405.09	2417.77
405.28	2413.09
405.47	2492.67
405.66	2576.93
405.85	2576.93
406.05	2495.01
406.24	2523.10
406.43	2513.74
406.62	2546.50
406.81	2766.51
407.00	2509.05
407.20	2511.39
407.39	2612.04
407.58	2689.28
407.77	2693.96
407.96	2740.77
408.15	2801.62
408.34	2731.41
408.54	2717.36
408.73	2899.92
408.92	2813.32
409.11	2825.03
409.30	2881.20
409.49	2909.29
409.68	2892.90
409.87	2979.50
410.07	2972.48
410.26	2956.10
410.45	3021.63
410.64	3084.83
410.83	3131.64
411.02	3033.33
411.21	3166.74
411.40	3066.10
411.59	3208.87
411.78	3232.28
411.98	3187.81
412.17	3309.52
412.36	3248.66
412.55	3372.71
412.74	3414.84
412.93	3243.98
413.12	3396.12
413.31	3524.85
413.50	3475.70
413.69	3543.57
413.88	3674.64
414.07	3543.57
414.26	3669.96
414.45	3625.49
414.64	3702.73
414.83	3747.20
415.02	3644.21
415.22	3962.53
415.41	3875.93
415.60	3920.40
415.79	3943.80
415.98	3901.67
416.17	3843.16
416.36	3990.61
416.55	4037.42
416.74	3957.85
416.93	4093.60
417.12	4065.51
417.31	4128.70
417.50	4187.22
417.69	4435.32
417.88	4280.84
418.07	4262.12
418.26	4329.99
418.45	4259.78
418.64	4402.55
418.83	4358.08
419.02	4395.53
419.21	4526.60
419.39	4573.41
419.58	4510.21
419.77	4409.57
419.96	4545.32
420.15	4585.11
420.34	4571.07
420.53	4542.98
420.72	4685.75
420.91	4664.69
421.10	4669.37
421.29	4922.15
421.48	4603.83
421.67	4835.55
421.86	4634.26
422.05	4840.23
422.24	4669.37
422.43	4943.21
422.61	4905.76
422.80	5055.56
422.99	4961.94
423.18	4905.76
423.37	4959.60
423.56	4887.04
423.75	4863.63
423.94	4983.00
424.13	4589.79
424.32	4753.63
424.50	4924.49
424.69	4999.38
424.88	5188.97
425.07	5163.22
425.26	4987.68
425.45	4973.64
425.64	4926.83
425.83	4784.06
426.01	5039.17
426.20	4975.98
426.39	5090.67
426.58	4992.36
426.77	5071.94
426.96	5170.24
427.15	5060.24
427.33	5149.18
427.52	5221.74
427.71	5284.93
427.90	5151.52
428.09	5394.93
428.28	5509.62
428.46	5315.36
428.65	5380.89
428.84	5631.33
429.03	5523.66
429.22	5408.98
429.40	5570.48
429.59	5600.90
429.78	5282.59
429.97	5233.44
430.16	5497.92
430.34	5479.19
430.53	5703.89
430.72	5731.97
430.91	5643.03
431.10	5554.09
431.28	5769.42
431.47	5729.63
431.66	5783.46
431.85	5612.60
432.03	5926.24
432.22	6050.28
432.41	5961.34
432.60	5984.75
432.79	5895.81
432.97	5940.28
433.16	6003.47
433.35	5928.58
433.54	6167.31
433.72	6017.52
433.91	6160.29
434.10	6106.46
434.28	6113.48
434.47	6057.31
434.66	6263.27
434.85	6406.05
435.03	6349.87
435.22	6408.39
435.41	6434.13
435.59	6497.33
435.78	6380.30
435.97	6441.15
436.16	6487.96
436.34	6274.98
436.53	6490.31
436.72	6637.76
436.90	6509.03
437.09	6635.42
437.28	6588.61
437.46	6534.78
437.65	6705.63
437.84	6806.28
438.02	6806.28
438.21	6733.72
438.40	6665.85
438.58	6946.71
438.77	7091.82
438.96	6932.67
439.14	7040.33
439.33	6920.96
439.52	7239.28
439.70	7225.23
439.89	7316.51
440.08	7669.94
440.26	7349.28
440.45	7372.69
440.63	7407.80
440.82	7480.35
441.01	7478.01
441.19	7805.69
441.38	7616.10
441.57	7623.12
441.75	7683.98
441.94	8016.33
442.12	7805.69
442.31	8138.04
442.50	8016.33
442.68	8131.02
442.87	8217.62
443.05	7960.16
443.24	8177.83
443.43	8095.91
443.61	8053.78
443.80	8400.18
443.98	8009.31
444.17	8039.74
444.35	8194.22
444.54	8442.31
444.73	8306.56
444.91	8222.30
445.10	8451.67
445.28	8156.77
445.47	8180.17
445.65	8297.20
445.84	8486.78
446.02	8617.85
446.21	8442.31
446.39	8430.61
446.58	8589.77
446.77	8472.74
446.95	8332.31
447.14	8285.50
447.32	8561.68
447.51	8437.63
447.69	8493.80
447.88	8475.08
448.06	8454.02
448.25	8561.68
448.43	8793.39
448.62	8589.77
448.80	8503.17
448.99	8622.53
449.17	8596.79
449.36	8657.64
449.54	8830.84
449.73	8912.76
449.91	8985.32
450.10	9109.36
450.28	8851.91
450.46	9125.75
450.65	8975.95
450.83	8997.02
451.02	8872.97
451.20	9221.71
451.39	9231.07
451.57	9298.95
451.76	9142.13
451.94	9228.73
452.13	9296.61
452.31	9135.11
452.49	9018.08
452.68	9469.81
452.86	9500.23
453.05	9441.72
453.23	9486.19
453.42	9537.68
453.60	9404.27
453.78	9750.67
453.97	9277.88
454.15	9458.10
454.34	9497.89
454.52	9710.88
454.70	9760.03
454.89	9863.02
455.07	9593.86
455.26	9816.21
455.44	9764.72
455.62	9753.01
455.81	9989.41
455.99	9891.10
456.17	10054.94
456.36	9956.64
456.54	10195.37
456.73	10244.52
456.91	10471.56
457.09	10403.68
457.28	10700.93
457.46	10246.87
457.64	10602.63
457.83	10511.35
458.01	10359.21
458.19	10864.77
458.38	10590.92
458.56	10721.99
458.74	10663.48
458.93	10810.93
459.11	10834.34
459.29	10668.16
459.48	10780.51
459.66	10731.36
459.84	10855.40
460.03	11222.87
460.21	11047.33
460.39	10956.05
460.57	10970.09
460.76	11023.92
460.94	11192.44
461.12	11358.62
461.31	11169.04
461.49	11232.23
461.67	11208.83
461.85	11524.80
462.04	11300.11
462.22	11435.86
462.40	11433.52
462.59	11506.07
462.77	11335.21
462.95	11590.33
463.13	11709.70
463.32	11751.83
463.50	11838.43
463.68	11688.64
463.86	11683.95
464.05	11707.36
464.23	11679.27
464.41	11962.48
464.59	11871.20
464.78	12042.06
464.96	11864.18
465.14	11925.03
465.32	12065.46
465.50	12238.66
465.69	12283.13
465.87	12236.32
466.05	11976.52
466.23	12283.13
466.41	12196.53
466.60	12472.71
466.78	12116.95
466.96	12079.50
467.14	12271.43
467.32	12067.80
467.51	12650.60
467.69	12142.70
467.87	12489.10
468.05	12568.68
468.23	12538.25
468.41	12472.71
468.60	12458.67
468.78	12854.22
468.96	12704.43
469.14	13081.25
469.32	12737.20
469.50	12514.84
469.69	13242.75
469.87	13125.72
470.05	13039.12
470.23	13097.64
470.41	13174.88
470.59	13315.31
470.77	12964.23
470.95	13179.56
471.14	13544.68
471.32	13277.86
471.50	13544.68
471.68	13673.41
471.86	13511.91
472.04	13722.56
472.22	14202.37
472.40	13708.52
472.58	13809.16
472.77	14026.83
472.95	14317.06
473.13	14766.44
473.31	14015.13
473.49	14225.78
473.67	14197.69
473.85	14005.77
474.03	14890.49
474.21	14743.03
474.39	14736.01
474.57	14457.49
474.75	14799.21
474.93	14754.74
475.12	14796.87
475.30	15241.57
475.48	15323.49
475.66	15262.63
475.84	15236.89
476.02	15286.04
476.20	15487.32
476.38	15709.68
476.56	15920.32
476.74	15917.98
476.92	15789.25
477.10	15733.08
477.28	16435.24
477.46	16273.74
477.64	16402.47
477.82	16425.88
478.00	17254.43
478.18	16741.85
478.36	16844.84
478.54	17163.15
478.72	17177.19
478.90	17427.63
479.08	17654.66
479.26	17678.07
479.44	17708.49
479.62	17902.76
479.80	17954.25
479.98	18209.37
480.16	18452.78
480.34	18534.70
480.52	18520.66
480.70	18981.74
480.88	18508.96
481.06	18628.32
481.24	18934.93
481.41	19122.18
481.59	19356.23
481.77	19557.52
481.95	19789.23
482.13	19679.22
482.31	19695.61
482.49	20503.09
482.67	20077.12
482.85	20437.56
483.03	20856.51
483.21	20547.56
483.39	21001.63
483.57	20886.94
483.74	21163.12
483.92	21390.16
484.10	21418.24
484.28	21460.37
484.46	22085.30
484.64	22349.78
484.82	22115.72
485.00	22345.09
485.18	22717.24
485.35	22909.16
485.53	22972.36
485.71	23091.73
485.89	23379.61
486.07	23377.27
486.25	23410.04
486.43	23878.15
486.61	23917.93
486.78	24294.76
486.96	24257.31
487.14	24683.29
487.32	24931.39
487.50	24971.18
487.68	24964.15
487.85	25303.53
488.03	25886.32
488.21	26031.44
488.39	25748.23
488.57	25797.38
488.75	26384.86
488.92	26745.30
489.10	26808.50
489.28	26803.82
489.46	26944.25
489.64	27255.54
489.81	27711.94
489.99	27665.13
490.17	27779.82
490.35	28355.59
490.53	28100.47
490.70	28233.88
490.88	28037.28
491.06	28723.05
491.24	28896.25
491.41	29167.76
491.59	29659.27
491.77	29851.19
491.95	29673.31
492.13	30092.27
492.30	29890.98
492.48	30244.40
492.66	30225.68
492.84	30258.45
493.01	30764.00
493.19	30668.04
493.37	31133.81
493.54	31311.69
493.72	31463.82
493.90	31683.83
494.08	31791.50
494.25	32182.37
494.43	31889.80
494.61	32507.70
494.79	32449.19
494.96	32512.38
495.14	32601.32
495.32	33184.12
495.49	33621.80
495.67	33352.63
495.85	33406.47
496.02	33799.68
496.20	34150.76
496.38	33830.10
496.55	34408.22
496.73	34822.49
496.91	34630.57
497.09	34347.36
497.26	35042.50
497.44	34876.32
497.62	35016.75
497.79	35796.15
497.97	35611.25
498.14	35861.69
498.32	36128.51
498.50	36299.37
498.67	36666.83
498.85	36863.44
499.03	36662.15
499.20	36739.39
499.38	37160.69
499.56	36870.46
499.73	36849.39
499.91	37411.12
500.08	37858.17
500.26	37303.46
500.44	37521.13
500.61	37881.57
500.79	37855.82
500.97	38132.01
501.14	38565.01
501.32	38354.36
501.49	38286.48
501.67	38820.13
501.84	38876.30
502.02	39093.97
502.20	39552.71
502.37	39229.72
502.55	39061.20
502.72	39615.91
502.90	39796.13
503.07	39601.86
503.25	39873.37
503.43	39849.96
503.60	40306.37
503.78	40238.49
503.95	40273.60
504.13	40301.68
504.30	40582.55
504.48	40491.27
504.65	40624.68
504.83	41151.30
505.01	41436.84
505.18	41343.22
505.36	41148.96
505.53	41081.08
505.71	41392.37
505.88	41647.49
506.06	41375.99
506.23	42115.60
506.41	41743.45
506.58	42230.29
506.76	42572.00
506.93	42567.32
507.11	42539.24
507.28	42513.49
507.46	42822.44
507.63	43129.05
507.81	43189.91
507.98	43030.75
508.16	43428.64
508.33	43672.06
508.50	43529.28
508.68	43658.01
508.85	44304.00
509.03	44130.80
509.20	44119.10
509.38	44596.57
509.55	44669.12
509.73	44582.52
509.90	44776.79
510.08	44404.64
510.25	44542.74
510.42	44807.22
510.60	45418.10
510.77	45214.47
510.95	45361.92
511.12	45605.34
511.30	45097.44
511.47	45453.20
511.64	45263.62
511.82	45621.72
511.99	45921.31
512.17	45467.25
512.34	45752.79
512.51	46419.84
512.69	46609.43
512.86	46244.30
513.04	46801.35
513.21	47133.71
513.38	46960.51
513.56	46841.14
513.73	47232.01
513.90	47072.85
514.08	46780.29
514.25	47246.05
514.43	47459.04
514.60	47604.16
514.77	47316.27
514.95	47803.10
515.12	47447.34
515.29	47718.84
515.47	47885.02
515.64	48299.30
515.81	48325.04
515.99	48114.39
516.16	48332.06
516.33	48289.93
516.51	49240.19
516.68	48545.05
516.85	48516.96
517.03	48727.61
517.20	49045.93
517.37	48837.62
517.54	49001.46
517.72	48975.71
517.89	49169.97
518.06	49333.81
518.24	49434.45
518.41	49167.63
518.58	49443.82
518.75	49539.78
518.93	49518.71
519.10	49846.39
519.27	49830.01
519.45	50181.09
519.62	49720.00
519.79	50148.32
519.96	49626.38
520.14	50190.45
520.31	50075.76
520.48	50391.73
520.65	50454.93
520.83	50637.49
521.00	50791.97
521.17	50754.52
521.34	50501.74
521.52	50808.35
521.69	51082.19
521.86	50944.10
522.03	51440.29
522.20	51543.28
522.38	51550.30
522.55	51613.49
522.72	51650.94
522.89	51838.18
523.07	51807.76
523.24	51501.15
523.41	51320.93
523.58	51613.49
523.75	52060.54
523.92	51751.59
524.10	51814.78
524.27	52044.15
524.44	52102.67
524.61	52025.43
524.78	52264.16
524.96	52289.91
525.13	52226.71
525.30	52516.94
525.47	52636.31
525.64	52603.54
525.81	52697.16
525.98	52680.78
526.16	52355.44
526.33	52687.80
526.50	52999.09
526.67	52947.60
526.84	52870.36
527.01	52926.53
527.18	53043.56
527.36	53092.71
527.53	53186.33
527.70	53324.43
527.87	53279.96
528.04	53448.47
528.21	53261.23
528.38	53366.55
528.55	53378.26
528.72	53439.11
528.89	53607.63
529.07	53275.27
529.24	53631.04
529.41	53883.81
529.58	53404.00
529.75	53619.33
529.92	53652.10
530.09	54199.79
530.26	54314.47
530.43	54012.54
530.60	53771.47
530.77	53844.02
530.94	54094.46
531.11	54106.16
531.28	54550.87
531.46	54457.24
531.63	54211.49
531.80	54377.67
531.97	54429.16
532.14	54347.24
532.31	54433.84
532.48	54602.36
532.65	54827.05
532.82	54642.15
532.99	54719.38
533.16	54588.31
533.33	55164.09
533.50	55269.41
533.67	55016.63
533.84	54726.41
534.01	54838.75
534.18	54965.14
534.35	55545.59
534.52	54894.92
534.69	55143.02
534.86	55262.39
535.03	55077.49
535.20	55351.33
535.37	55625.17
535.54	55339.63
535.71	55388.78
535.88	55671.98
536.05	55662.62
536.22	55405.16
536.38	55772.63
536.55	55550.27
536.72	55655.60
536.89	55437.93
537.06	55540.91
537.23	56055.83
537.40	55887.31
537.57	55854.54
537.74	55707.09
537.91	56224.35
538.08	55838.16
538.25	56013.70
538.42	56128.39
538.59	56198.60
538.75	55945.83
538.92	55945.83
539.09	56470.11
539.26	56205.62
539.43	56329.67
539.60	56381.16
539.77	56093.28
539.94	56545.00
540.11	56317.97
540.28	56765.01
540.44	56549.68
540.61	56243.07
540.78	56481.81
540.95	56521.60
541.12	56240.73
541.29	56664.37
541.46	56442.02
541.62	56505.21
541.79	56472.45
541.96	56488.83
542.13	56727.56
542.30	56753.31
542.47	56896.08
542.63	56828.21
542.80	56774.37
542.97	56987.36
543.14	57052.90
543.31	57242.48
543.48	57359.51
543.64	57499.94
543.81	57415.68
543.98	57434.41
544.15	57401.64
544.32	57633.35
544.48	57750.38
544.65	57478.88
544.82	57471.85
544.99	57265.89
545.16	57591.22
545.32	57483.56
545.49	57703.57
545.66	57844.00
545.83	57794.85
546.00	57549.09
546.16	57668.46
546.33	57586.54
546.50	57680.16
546.67	57925.92
546.83	57483.56
547.00	57717.61
547.17	57670.80
547.34	57930.60
547.50	58089.76
547.67	57951.66
547.84	58000.82
548.00	58269.98
548.17	58272.32
548.34	58064.01
548.51	58328.49
548.67	58440.84
548.84	58473.60
549.01	58232.53
549.18	58087.42
549.34	58379.98
549.51	58412.75
549.68	58578.93
549.84	58438.50
550.01	58515.73
550.18	58415.09
550.34	58557.86
550.51	58475.94
550.68	58520.41
550.84	58415.09
551.01	58482.97
551.18	58665.53
551.34	58548.50
551.51	58660.85
551.68	58672.55
551.84	58628.08
552.01	58403.39
552.18	58632.76
552.34	58536.80
552.51	58796.60
552.68	58574.25
552.84	58726.38
553.01	58906.60
553.18	58962.78
553.34	58951.07
553.51	58784.90
553.67	58843.41
553.84	58960.44
554.01	59004.91
554.17	59044.69
554.34	59056.40
554.51	58932.35
554.67	59278.75
554.84	58911.28
555.00	59051.72
555.17	59110.23
555.33	59215.55
555.50	59070.44
555.67	59444.93
555.83	59065.76
556.00	58965.12
556.16	59297.47
556.33	59400.46
556.50	59285.77
556.66	59341.94
556.83	59112.57
556.99	59517.48
557.16	59477.69
557.32	59543.23
557.49	59814.73
557.65	59398.12
557.82	59554.93
557.98	59550.25
558.15	59428.54
558.32	59517.48
558.48	59454.29
558.65	59547.91
558.81	59763.24
558.98	59653.23
559.14	59866.22
559.31	59772.60
559.47	59891.97
559.64	59894.31
559.80	59896.65
559.97	59632.17
560.13	59606.42
560.30	59746.86
560.46	59597.06
560.63	59866.22
560.79	59814.73
560.96	59784.30
561.12	59898.99
561.29	59938.78
561.45	59863.88
561.61	59966.87
561.78	59856.86
561.94	59999.63
562.11	59781.96
562.27	60048.78
562.44	60177.51
562.60	60182.19
562.77	59936.44
562.93	59767.92
563.10	60254.75
563.26	59819.41
563.42	60320.29
563.59	60076.87
563.75	60023.04
563.92	60058.15
564.08	60100.28
564.24	60273.48
564.41	60221.98
564.57	60278.16
564.74	60254.75
564.90	60062.83
565.07	60100.28
565.23	60259.43
565.39	60133.04
565.56	60285.18
565.72	60374.12
565.88	60439.65
566.05	60292.20
566.21	60278.16
566.38	60257.09
566.54	60397.52
566.70	60392.84
566.87	60310.92
567.03	60245.39
567.19	60336.67
567.36	60355.39
567.52	60413.91
567.68	60552.00
567.85	60346.03
568.01	60657.32
568.17	60271.14
568.34	60537.96
568.50	60411.57
568.66	60360.08
568.83	60736.90
568.99	60441.99
569.15	60437.31
569.32	60481.78
569.48	60505.19
569.64	60474.76
569.81	60537.96
569.97	60233.69
570.13	60378.80
570.30	60367.10
570.46	60509.87
570.62	60580.09
570.78	60441.99
570.95	60364.76
571.11	60708.82
571.27	60493.49
571.43	60654.98
571.60	60940.53
571.76	60608.17
571.92	60687.75
572.09	60582.43
572.25	60676.05
572.41	60781.37
572.57	60704.13
572.74	60837.54
572.90	60659.66
573.06	60690.09
573.22	60582.43
573.38	60748.60
573.55	60720.52
573.71	61010.74
573.87	60821.16
574.03	60523.91
574.20	60636.26
574.36	60776.69
574.52	60811.80
574.68	60935.85
574.84	60797.76
575.01	60732.22
575.17	60568.38
575.33	60732.22
575.49	60622.22
575.65	60757.97
575.82	60977.98
575.98	60748.60
576.14	61062.24
576.30	61043.51
576.46	60722.86
576.62	60626.90
576.79	60666.69
576.95	60666.69
577.11	60935.85
577.27	60837.54
577.43	60821.16
577.59	60779.03
577.75	60753.29
577.92	60853.93
578.08	60811.80
578.24	61085.64
578.40	60896.06
578.56	61055.21
578.72	60809.46
578.88	60959.25
579.04	61052.87
579.21	61034.15
579.37	61205.01
579.53	61249.48
579.69	60853.93
579.85	60959.25
580.01	60926.49
580.17	60963.93
580.33	61003.72
580.49	61099.68
580.65	60886.70
580.82	61045.85
580.98	60685.41
581.14	60872.65
581.30	60938.19
581.46	60963.93
581.62	60970.96
581.78	60917.12
581.94	60973.30
582.10	61027.13
582.26	60999.04
582.42	60982.66
582.58	60921.80
582.74	60921.80
582.90	60975.64
583.06	61090.32
583.22	60954.57
583.38	61050.53
583.54	60896.06
583.70	61087.98
583.86	61193.31
584.02	60933.51
584.18	60872.65
584.34	60938.19
584.50	61043.51
584.66	60942.87
584.82	60963.93
584.98	61291.61
585.14	61064.58
585.30	60963.93
585.46	61020.11
585.62	61169.90
585.78	61443.74
585.94	60987.34
586.10	60928.83
586.26	61244.80
586.42	61169.90
586.58	61165.22
586.74	61080.96
586.90	61134.79
587.06	61165.22
587.22	61216.71
587.38	61221.39
587.54	61277.57
587.70	61392.25
587.86	61034.15
588.02	61123.09
588.18	61263.52
588.34	61043.51
588.49	60945.21
