SpectraSuite Data File
++++++++++++++++++++++++++++++++++++
Date: Fri Oct 25 10:47:45 EDT 2013
User: price-jones
Dark Spectrum Present: No
Reference Spectrum Present: No
Number of Sampled Component Spectra: 1
Spectrometers: USB2+H05261
Integration Time (usec): 100000 (USB2+H05261)
Spectra Averaged: 1 (USB2+H05261)
Boxcar Smoothing: 0 (USB2+H05261)
Correct for Electrical Dark: No (USB2+H05261)
Strobe/Lamp Enabled: No (USB2+H05261)
Correct for Detector Non-linearity: No (USB2+H05261)
Correct for Stray Light: No (USB2+H05261)
Number of Pixels in Processed Spectrum: 2048
>>>>>Begin Processed Spectral Data<<<<<
365.73	98.30
365.92	98.30
366.12	98.30
366.32	23.41
366.52	9.36
366.72	77.24
366.91	100.64
367.11	44.47
367.31	79.58
367.51	53.83
367.70	0.00
367.90	9.36
368.10	0.00
368.30	81.92
368.49	39.79
368.69	65.54
368.89	56.17
369.09	84.26
369.28	79.58
369.48	86.60
369.68	93.62
369.87	126.39
370.07	175.54
370.27	110.01
370.47	220.01
370.66	301.93
370.86	433.00
371.06	496.19
371.25	465.77
371.45	435.34
371.65	442.36
371.84	475.13
372.04	435.34
372.24	435.34
372.44	484.49
372.63	503.22
372.83	470.45
373.03	456.40
373.22	465.77
373.42	535.98
373.62	514.92
373.81	538.32
374.01	580.45
374.21	545.34
374.40	566.41
374.60	601.52
374.79	456.40
374.99	498.53
375.19	631.94
375.38	571.09
375.58	545.34
375.78	622.58
375.97	580.45
376.17	617.90
376.37	589.82
376.56	631.94
376.76	580.45
376.95	554.71
377.15	568.75
377.35	655.35
377.54	552.37
377.74	629.60
377.93	582.79
378.13	660.03
378.33	631.94
378.52	690.46
378.72	573.43
378.91	587.47
379.11	634.29
379.31	566.41
379.50	664.71
379.70	692.80
379.89	587.47
380.09	650.67
380.28	582.79
380.48	699.82
380.68	624.92
380.87	564.07
381.07	706.84
381.26	692.80
381.46	650.67
381.65	634.29
381.85	688.12
382.04	627.26
382.24	739.61
382.43	746.63
382.63	706.84
382.83	716.20
383.02	706.84
383.22	727.91
383.41	723.23
383.61	760.67
383.80	732.59
384.00	748.97
384.19	716.20
384.39	807.48
384.58	763.01
384.78	760.67
384.97	755.99
385.17	732.59
385.36	753.65
385.56	706.84
385.75	816.85
385.95	732.59
386.14	737.27
386.34	767.70
386.53	816.85
386.72	830.89
386.92	798.12
387.11	856.64
387.31	816.85
387.50	835.57
387.70	798.12
387.89	875.36
388.09	819.19
388.28	882.38
388.48	844.93
388.67	751.31
388.86	880.04
389.06	894.08
389.25	919.83
389.45	814.51
389.64	910.47
389.84	950.26
390.03	940.90
390.22	863.66
390.42	898.77
390.61	926.85
390.81	873.02
391.00	919.83
391.19	915.15
391.39	950.26
391.58	1006.43
391.78	954.94
391.97	978.34
392.16	940.90
392.36	917.49
392.55	976.00
392.75	968.98
392.94	940.90
393.13	919.83
393.33	964.30
393.52	912.81
393.71	990.05
393.91	1104.73
394.10	1055.58
394.29	1083.67
394.49	1137.50
394.68	1086.01
394.88	1123.46
395.07	1118.78
395.26	1036.86
395.46	1137.50
395.65	1090.69
395.84	1111.75
396.04	1224.10
396.23	1132.82
396.42	1121.12
396.62	1137.50
396.81	1153.88
397.00	1093.03
397.19	1163.25
397.39	1240.48
397.58	1200.69
397.77	1137.50
397.97	1228.78
398.16	1242.82
398.35	1280.27
398.55	1369.21
398.74	1348.15
398.93	1427.73
399.12	1313.04
399.32	1296.66
399.51	1261.55
399.70	1425.39
399.90	1291.98
400.09	1444.11
400.28	1357.51
400.47	1366.87
400.67	1390.28
400.86	1399.64
401.05	1523.69
401.24	1437.09
401.44	1479.22
401.63	1533.05
401.82	1526.03
402.01	1500.28
402.21	1607.95
402.40	1434.75
402.59	1556.46
402.78	1535.39
402.97	1504.96
403.17	1591.56
403.36	1533.05
403.55	1526.03
403.74	1624.33
403.93	1654.76
404.13	1598.59
404.32	1591.56
404.51	1657.10
404.70	1748.38
404.89	1598.59
405.09	1687.53
405.28	1746.04
405.47	1727.32
405.66	1778.81
405.85	1736.68
406.05	1710.93
406.24	1708.59
406.43	1715.61
406.62	1776.47
406.81	1781.15
407.00	1764.76
407.20	1825.62
407.39	1783.49
407.58	1832.64
407.77	1954.35
407.96	1926.26
408.15	2066.69
408.34	1980.09
408.54	1893.49
408.73	1940.30
408.92	1942.64
409.11	1956.69
409.30	2071.37
409.49	2001.16
409.68	2001.16
409.87	2073.71
410.07	2050.31
410.26	2153.29
410.45	2092.44
410.64	1994.14
410.83	2087.76
411.02	2139.25
411.21	2174.36
411.40	2265.64
411.59	2267.98
411.78	2235.21
411.98	2258.62
412.17	2289.04
412.36	2345.22
412.55	2436.50
412.74	2333.51
412.93	2509.05
413.12	2389.69
413.31	2553.52
413.50	2593.31
413.69	2469.27
413.88	2665.87
414.07	2614.38
414.26	2527.78
414.45	2551.18
414.64	2586.29
414.83	2651.83
415.02	2534.80
415.22	2773.53
415.41	2878.86
415.60	2794.60
415.79	2754.81
415.98	2820.35
416.17	2832.05
416.36	2860.13
416.55	2895.24
416.74	2846.09
416.93	2829.71
417.12	2848.43
417.31	2920.99
417.50	2956.10
417.69	3073.12
417.88	3021.63
418.07	3012.27
418.26	3185.47
418.45	3159.72
418.64	3117.59
418.83	3119.93
419.02	3215.90
419.21	3232.28
419.39	3192.49
419.58	3169.09
419.77	3059.08
419.96	3279.09
420.15	3274.41
420.34	3253.34
420.53	3325.90
420.72	3449.95
420.91	3300.16
421.10	3363.35
421.29	3412.50
421.48	3405.48
421.67	3377.39
421.86	3213.56
422.05	3379.73
422.24	3396.12
422.43	3445.27
422.61	3461.65
422.80	3496.76
422.99	3405.48
423.18	3541.23
423.37	3506.12
423.56	3592.72
423.75	3538.89
423.94	3393.78
424.13	3321.22
424.32	3471.01
424.50	3501.44
424.69	3513.14
424.88	3543.57
425.07	3564.64
425.26	3529.53
425.45	3515.48
425.64	3576.34
425.83	3613.79
426.01	3651.24
426.20	3627.83
426.39	3515.48
426.58	3672.30
426.77	3599.74
426.96	3655.92
427.15	3524.85
427.33	3707.41
427.52	3674.64
427.71	3674.64
427.90	3712.09
428.09	3782.31
428.28	3585.70
428.46	3758.90
428.65	3716.77
428.84	3808.05
429.03	3789.33
429.22	3784.65
429.40	3859.54
429.59	3700.39
429.78	3648.90
429.97	3695.71
430.16	3702.73
430.34	3662.94
430.53	3822.09
430.72	3911.04
430.91	3843.16
431.10	3964.87
431.28	4028.06
431.47	4168.49
431.66	4182.54
431.85	4140.41
432.03	4119.34
432.22	4161.47
432.41	4191.90
432.60	4173.18
432.79	4133.39
432.97	4231.69
433.16	4313.61
433.35	4208.28
433.54	4250.41
433.72	4201.26
433.91	4273.82
434.10	4306.59
434.28	4329.99
434.47	4355.74
434.66	4381.48
434.85	4423.61
435.03	4561.70
435.22	4491.49
435.41	4608.51
435.59	4554.68
435.78	4519.57
435.97	4428.29
436.16	4400.21
436.34	4594.47
436.53	4601.49
436.72	4585.11
436.90	4660.01
437.09	4599.15
437.28	4596.81
437.46	4554.68
437.65	4608.51
437.84	4636.60
438.02	4615.54
438.21	4678.73
438.40	4559.36
438.58	4753.63
438.77	4854.27
438.96	4922.15
439.14	4999.38
439.33	4901.08
439.52	5008.75
439.70	5172.58
439.89	5095.35
440.08	5123.43
440.26	5177.26
440.45	5039.17
440.63	5245.14
440.82	5341.10
441.01	5193.65
441.19	5254.50
441.38	5530.69
441.57	5348.12
441.75	5628.99
441.94	5577.50
442.12	5589.20
442.31	5729.63
442.50	5521.32
442.68	5544.73
442.87	5685.16
443.05	5671.12
443.24	5781.12
443.43	5654.73
443.61	5799.85
443.80	5825.59
443.98	5664.10
444.17	5575.16
444.35	5778.78
444.54	5898.15
444.73	5898.15
444.91	5844.32
445.10	5778.78
445.28	5699.20
445.47	5792.83
445.65	5743.67
445.84	5706.23
446.02	5947.30
446.21	5748.36
446.39	6012.84
446.58	6059.65
446.77	5867.72
446.95	5673.46
447.14	5930.92
447.32	5919.21
447.51	5830.27
447.69	6017.52
447.88	5987.09
448.06	6054.97
448.25	5980.07
448.43	6064.33
448.62	6176.67
448.80	5961.34
448.99	6153.27
449.17	6195.40
449.36	6090.07
449.54	6244.55
449.73	6408.39
449.91	6157.95
450.10	6305.40
450.28	6284.34
450.46	6356.90
450.65	6314.77
450.83	6324.13
451.02	6314.77
451.20	6569.88
451.39	6445.84
451.57	6188.38
451.76	6462.22
451.94	6284.34
452.13	6387.32
452.31	6471.58
452.49	6310.08
452.68	6452.86
452.86	6331.15
453.05	6532.44
453.23	6551.16
453.42	6359.24
453.60	6853.09
453.78	6551.16
453.97	6565.20
454.15	6558.18
454.34	6546.48
454.52	6675.21
454.70	6640.10
454.89	6604.99
455.07	6785.21
455.26	6766.49
455.44	7124.59
455.62	6958.41
455.81	6890.54
455.99	6918.62
456.17	6958.41
456.36	6998.20
456.54	7133.95
456.73	6993.52
456.91	7283.75
457.09	7131.61
457.28	7274.38
457.46	7152.68
457.64	7173.74
457.83	7229.91
458.01	7173.74
458.19	7508.44
458.38	7148.00
458.56	7473.33
458.74	7412.48
458.93	7286.09
459.11	7410.14
459.29	7548.23
459.48	7515.46
459.66	7489.71
459.84	7599.72
460.03	7449.93
460.21	7517.80
460.39	7557.59
460.57	7463.97
460.76	7714.41
460.94	7676.96
461.12	7737.81
461.31	7786.96
461.49	7798.66
461.67	7679.30
461.85	7880.58
462.04	7826.75
462.22	8411.89
462.40	7988.25
462.59	8053.78
462.77	7913.35
462.95	8109.96
463.13	7906.33
463.32	8088.89
463.50	8049.10
463.68	7969.52
463.86	8140.38
464.05	7934.42
464.23	7885.26
464.41	8217.62
464.59	8135.70
464.78	8091.23
464.96	8152.09
465.14	8030.38
465.32	8116.98
465.50	8159.11
465.69	8287.84
465.87	8334.65
466.05	8219.96
466.23	8056.12
466.41	8219.96
466.60	8503.17
466.78	8273.79
466.96	8250.39
467.14	8285.50
467.32	8187.19
467.51	8814.46
467.69	8418.91
467.87	8592.11
468.05	8404.86
468.23	8439.97
468.41	8486.78
468.60	8685.73
468.78	8709.13
468.96	8615.51
469.14	8709.13
469.32	8674.03
469.50	8435.29
469.69	8606.15
469.87	8793.39
470.05	8973.61
470.23	9088.30
470.41	8936.17
470.59	9041.49
470.77	8882.33
470.95	9046.17
471.14	9104.68
471.32	9001.70
471.50	9188.94
471.68	9252.14
471.86	9310.65
472.04	9184.26
472.22	9544.70
472.40	9233.41
472.58	9387.89
472.77	9521.30
472.95	9554.07
473.13	9865.36
473.31	9521.30
473.49	9469.81
473.67	9561.09
473.85	9781.10
474.03	9926.21
474.21	9895.78
474.39	10043.24
474.57	9991.75
474.75	10068.98
474.93	10045.58
475.12	9954.30
475.30	10029.20
475.48	10352.19
475.66	10272.61
475.84	10246.87
476.02	10473.90
476.20	10307.72
476.38	10595.61
476.56	10635.39
476.74	10869.45
476.92	10569.86
477.10	10696.25
477.28	10736.04
477.46	11026.26
477.64	10981.79
477.82	11012.22
478.00	11442.88
478.18	11353.94
478.36	11393.73
478.54	11363.30
478.72	11543.52
478.90	11662.89
479.08	11721.40
479.26	11934.39
479.44	11810.34
479.62	12056.10
479.80	12070.14
479.98	12175.47
480.16	12159.08
480.34	12215.26
480.52	12643.57
480.70	12444.63
480.88	12184.83
481.06	12278.45
481.24	12659.96
481.41	12872.95
481.59	13018.06
481.77	13081.25
481.95	13184.24
482.13	13034.44
482.31	12933.80
482.49	13359.78
482.67	13488.51
482.85	13570.43
483.03	13582.13
483.21	13834.91
483.39	14094.71
483.57	13874.70
483.74	14195.35
483.92	14232.80
484.10	14209.39
484.28	14223.44
484.46	14707.93
484.64	14803.89
484.82	14796.87
485.00	14576.86
485.18	14878.79
485.35	15030.92
485.53	14740.69
485.71	14965.39
485.89	15161.99
486.07	15021.56
486.25	15339.87
486.43	15637.12
486.61	15733.08
486.78	15852.45
486.96	15878.19
487.14	16411.84
487.32	16283.11
487.50	16407.16
487.68	16835.47
487.85	16840.15
488.03	16727.81
488.21	17104.64
488.39	17233.36
488.57	17326.99
488.75	17233.36
488.92	17378.48
489.10	17544.66
489.28	17659.34
489.46	17518.91
489.64	17577.42
489.81	18445.76
489.99	18141.49
490.17	18314.69
490.35	18450.44
490.53	18794.50
490.70	19023.87
490.88	18616.62
491.06	18946.64
491.24	18953.66
491.41	18895.14
491.59	19040.26
491.77	19026.21
491.95	19157.28
492.13	19573.90
492.30	19927.32
492.48	20079.46
492.66	19889.87
492.84	20088.82
493.01	20215.21
493.19	20219.89
493.37	20561.61
493.54	20329.89
493.72	20802.68
493.90	20659.91
494.08	21116.31
494.25	21076.52
494.43	21394.84
494.61	21511.86
494.79	21474.42
494.96	21139.72
495.14	21626.55
495.32	21722.51
495.49	21563.36
495.67	21916.78
495.85	22094.66
496.02	22239.77
496.20	22253.81
496.38	22253.81
496.55	22162.53
496.73	22977.04
496.91	22635.32
497.09	23140.88
497.26	23009.81
497.44	22775.75
497.62	22946.61
497.79	23611.32
497.97	23250.88
498.14	23417.06
498.32	23381.95
498.50	23325.78
498.67	23892.19
498.85	23466.21
499.03	24049.00
499.20	23536.43
499.38	24350.93
499.56	23981.13
499.73	24229.23
499.91	24498.39
500.08	24683.29
500.26	24219.86
500.44	24835.42
500.61	24577.97
500.79	24369.66
500.97	24669.25
501.14	25277.79
501.32	25039.05
501.49	24786.27
501.67	25212.25
501.84	25458.01
502.02	25151.40
502.20	25642.91
502.37	25521.20
502.55	25434.60
502.72	25811.43
502.90	25678.02
503.07	25937.82
503.25	25710.78
503.43	25867.60
503.60	26265.49
503.78	25979.95
503.95	26010.37
504.13	26160.17
504.30	26352.09
504.48	26340.39
504.65	26707.85
504.83	26904.46
505.01	26527.63
505.18	26944.25
505.36	27206.39
505.53	27082.34
505.71	26979.36
505.88	27365.54
506.06	27164.26
506.23	27211.07
506.41	27480.23
506.58	27601.94
506.76	27501.29
506.93	27775.14
507.11	27597.26
507.28	27899.19
507.46	27765.78
507.63	27789.18
507.81	28367.29
507.98	28140.26
508.16	28163.67
508.33	28154.30
508.50	28489.00
508.68	28645.82
508.85	28774.55
509.03	28563.90
509.20	28816.68
509.38	28690.29
509.55	28692.63
509.73	29104.56
509.90	29027.32
510.08	28863.49
510.25	29226.27
510.42	28833.06
510.60	29415.85
510.77	29259.04
510.95	29855.87
511.12	29750.55
511.30	29631.18
511.47	29717.78
511.64	30120.35
511.82	30209.29
511.99	29858.21
512.17	30146.10
512.34	29748.21
512.51	30312.28
512.69	30291.21
512.86	30281.85
513.04	30483.14
513.21	30686.76
513.38	29958.86
513.56	30546.33
513.73	30263.13
513.90	30759.32
514.08	31070.61
514.25	30857.62
514.43	31063.59
514.60	30883.37
514.77	30689.10
514.95	31892.14
515.12	31325.73
515.29	31091.68
515.47	31246.15
515.64	32229.18
515.81	31531.70
515.99	31379.56
516.16	31360.84
516.33	31800.86
516.51	31938.95
516.68	31578.51
516.85	31461.48
517.03	31695.53
517.20	31714.26
517.37	32243.22
517.54	31969.38
517.72	31964.70
517.89	31899.16
518.06	32215.13
518.24	31859.37
518.41	32271.31
518.58	32275.99
518.75	32397.70
518.93	32781.54
519.10	32596.64
519.27	32961.76
519.45	32840.06
519.62	32542.81
519.79	32364.93
519.96	33081.13
520.14	33132.62
520.31	33015.60
520.48	33223.90
520.65	32952.40
520.83	33600.73
521.00	33329.23
521.17	33596.05
521.34	33399.44
521.52	33991.60
521.69	33684.99
521.86	33799.68
522.03	33900.32
522.20	34405.88
522.38	33841.81
522.55	34396.51
522.72	34263.10
522.89	33837.12
523.07	34380.13
523.24	33565.62
523.41	34433.96
523.58	34288.85
523.75	35108.04
523.92	34630.57
524.10	34756.96
524.27	35072.93
524.44	34855.26
524.61	34780.36
524.78	35079.95
524.96	35239.11
525.13	35426.35
525.30	35510.61
525.47	35189.95
525.64	35566.78
525.81	35424.01
525.98	35379.54
526.16	35051.86
526.33	35585.50
526.50	35618.27
526.67	35119.74
526.84	35550.40
527.01	35243.79
527.18	35772.75
527.36	35452.09
527.53	35686.15
527.70	36325.11
527.87	36243.20
528.04	36170.64
528.21	36034.89
528.38	35653.38
528.55	36495.97
528.72	36383.63
528.89	36720.66
529.07	36594.28
529.24	36575.55
529.41	36311.07
529.58	36510.02
529.75	36046.59
529.92	36308.73
530.09	36449.16
530.26	36734.71
530.43	37085.79
530.60	36624.70
530.77	37216.86
530.94	36816.63
531.11	36669.17
531.28	36957.06
531.46	37273.03
531.63	37170.05
531.80	37614.75
531.97	36931.31
532.14	37464.96
532.31	37116.22
532.48	37347.93
532.65	37675.60
532.82	37331.54
532.99	37479.00
533.16	37408.78
533.33	37422.83
533.50	37862.85
533.67	37839.44
533.84	37965.83
534.01	37706.03
534.18	37324.52
534.35	37949.45
534.52	37577.30
534.69	37834.76
534.86	38115.62
535.03	37848.80
535.20	38387.13
535.37	38220.95
535.54	38616.50
535.71	38146.05
535.88	38600.12
536.05	38246.69
536.22	38508.83
536.38	38225.63
536.55	38487.77
536.72	38459.68
536.89	38557.99
537.06	38345.00
537.23	38532.24
537.40	38899.70
537.57	38656.29
537.74	38602.46
537.91	38897.36
538.08	38745.23
538.25	38742.89
538.42	38930.13
538.59	39297.59
538.75	38686.71
538.92	39365.47
539.09	39173.55
539.26	38899.70
539.43	39124.40
539.60	39321.00
539.77	39005.03
539.94	39077.58
540.11	39035.45
540.28	38904.38
540.44	39299.94
540.61	39192.27
540.78	39117.37
540.95	39239.08
541.12	39292.91
541.29	39421.64
541.46	39210.99
541.62	39742.30
541.79	39828.90
541.96	39569.10
542.13	39395.90
542.30	39711.87
542.47	39913.16
542.63	39721.23
542.80	39901.45
542.97	40692.55
543.14	40547.44
543.31	40891.50
543.48	40460.84
543.64	40783.83
543.81	40397.65
543.98	40399.99
544.15	40259.55
544.32	40524.04
544.48	40697.24
544.65	40804.90
544.82	40556.80
544.99	40701.92
545.16	40676.17
545.32	40744.05
545.49	41067.04
545.66	40676.17
545.83	40919.59
546.00	40898.52
546.16	40793.20
546.33	40399.99
546.50	40385.94
546.67	41198.11
546.83	40774.47
547.00	41345.56
547.17	40921.93
547.34	41155.98
547.50	41345.56
547.67	41818.35
547.84	41294.07
548.00	41200.45
548.17	42038.36
548.34	41874.52
548.51	41656.85
548.67	41921.34
548.84	41684.94
549.01	41717.71
549.18	41551.53
549.34	41574.94
549.51	41619.41
549.68	42117.94
549.84	42066.45
550.01	42143.69
550.18	41635.79
550.34	41633.45
550.51	41972.83
550.68	41816.01
550.84	41523.44
551.01	41579.62
551.18	41801.97
551.34	42169.43
551.51	42391.78
551.68	42007.94
551.84	41773.88
552.01	41867.50
552.18	42232.63
552.34	41860.48
552.51	42258.37
552.68	42274.76
552.84	42459.66
553.01	43014.37
553.18	42164.75
553.34	41944.74
553.51	42050.06
553.67	42508.81
553.84	42590.73
554.01	42955.85
554.17	42717.12
554.34	43070.54
554.51	42335.61
554.67	43281.19
554.84	42462.00
555.00	42447.96
555.17	42635.20
555.33	42766.27
555.50	42686.69
555.67	42560.30
555.83	42639.88
556.00	42939.47
556.16	43475.45
556.33	43166.50
556.50	43271.82
556.66	42899.68
556.83	42426.89
556.99	43051.81
557.16	43049.47
557.32	43386.51
557.49	43290.55
557.65	43124.37
557.82	42628.18
557.98	43171.18
558.15	42941.81
558.32	43335.02
558.48	42974.58
558.65	43227.35
558.81	43213.31
558.98	43075.22
559.14	43152.46
559.31	43281.19
559.47	43175.86
559.64	43683.76
559.80	43512.90
559.97	43784.40
560.13	42997.98
560.30	43012.02
560.46	43150.12
560.63	43438.00
560.79	43606.52
560.96	43842.92
561.12	43597.16
561.29	43761.00
561.45	43370.13
561.61	43590.14
561.78	43346.72
561.94	43356.08
562.11	43388.85
562.27	43063.52
562.44	43707.16
562.60	43517.58
562.77	43842.92
562.93	43564.39
563.10	44004.41
563.26	43557.37
563.42	44044.20
563.59	43590.14
563.75	43697.80
563.92	43714.19
564.08	43803.13
564.24	43978.67
564.41	44282.94
564.57	43770.36
564.74	44147.18
564.90	44179.95
565.07	44023.14
565.23	43770.36
565.39	43913.13
565.56	43995.05
565.72	43459.07
565.88	44208.04
566.05	43732.91
566.21	44088.67
566.38	43899.09
566.54	43709.50
566.70	43973.98
566.87	44418.69
567.03	44299.32
567.19	44322.72
567.36	43871.00
567.52	44119.10
567.68	44591.89
567.85	44243.15
568.01	44105.06
568.17	44371.88
568.34	44182.29
568.50	44264.21
568.66	43871.00
568.83	44048.88
568.99	43976.33
569.15	43849.94
569.32	44189.31
569.48	44196.34
569.64	44526.35
569.81	44168.25
569.97	44172.93
570.13	44268.89
570.30	44182.29
570.46	44065.27
570.62	44086.33
570.78	44285.28
570.95	44067.61
571.11	43847.60
571.27	44231.44
571.43	44130.80
571.60	44439.75
571.76	44055.90
571.92	44116.76
572.09	44521.67
572.25	44336.77
572.41	44439.75
572.57	44252.51
572.74	45270.64
572.90	44313.36
573.06	44762.75
573.22	44669.12
573.38	44360.17
573.55	44030.16
573.71	44626.99
573.87	44215.06
574.03	43990.37
574.20	44481.88
574.36	44350.81
574.52	44257.19
574.68	44877.43
574.84	44449.11
575.01	44039.52
575.17	44226.76
575.33	44165.91
575.49	44339.11
575.65	44687.85
575.82	44935.95
575.98	44610.61
576.14	44917.22
576.30	44325.07
576.46	44339.11
576.62	43772.70
576.79	44332.09
576.95	44254.85
577.11	44463.16
577.27	44612.95
577.43	44526.35
577.59	44264.21
577.75	44507.63
577.92	44105.06
578.08	44123.78
578.24	44119.10
578.40	44308.68
578.56	44533.37
578.72	44446.77
578.88	44715.93
579.04	44238.47
579.21	44444.43
579.37	44282.94
579.53	44392.94
579.69	44177.61
579.85	44467.84
580.01	44856.37
580.17	44601.25
580.33	44509.97
580.49	45116.17
580.65	44727.64
580.82	45097.44
580.98	44526.35
581.14	44205.70
581.30	44842.32
581.46	44589.55
581.62	44561.46
581.78	44582.52
581.94	44994.46
582.10	44421.03
582.26	44538.05
582.42	44573.16
582.58	44603.59
582.74	44547.42
582.90	44704.23
583.06	44399.96
583.22	44725.30
583.38	44631.68
583.54	44725.30
583.70	44699.55
583.86	44385.92
584.02	44584.86
584.18	44720.62
584.34	44790.83
584.50	44872.75
584.66	44535.71
584.82	44268.89
584.98	44484.22
585.14	44421.03
585.30	44636.36
585.46	44587.21
585.62	44304.00
585.78	44423.37
585.94	44278.25
586.10	44313.36
586.26	44189.31
586.42	44683.17
586.58	44582.52
586.74	44954.67
586.90	44540.39
587.06	44612.95
587.22	44802.53
587.38	44690.19
587.54	44395.28
587.70	44739.34
587.86	44659.76
588.02	44762.75
588.18	44767.43
588.34	44811.90
588.49	44100.37
588.65	44320.38
588.81	44156.55
588.97	44198.68
589.13	44692.53
589.29	44367.20
589.45	44657.42
589.61	44790.83
589.77	44807.22
589.93	44884.45
590.08	44989.78
590.24	45172.34
590.40	45088.08
