SpectraSuite Data File
++++++++++++++++++++++++++++++++++++
Date: Fri Oct 25 11:22:44 EDT 2013
User: price-jones
Dark Spectrum Present: No
Reference Spectrum Present: No
Number of Sampled Component Spectra: 1
Spectrometers: USB2+H05261
Integration Time (usec): 100000 (USB2+H05261)
Spectra Averaged: 1 (USB2+H05261)
Boxcar Smoothing: 0 (USB2+H05261)
Correct for Electrical Dark: No (USB2+H05261)
Strobe/Lamp Enabled: No (USB2+H05261)
Correct for Detector Non-linearity: No (USB2+H05261)
Correct for Stray Light: No (USB2+H05261)
Number of Pixels in Processed Spectrum: 2048
>>>>>Begin Processed Spectral Data<<<<<
365.73	222.35
365.92	222.35
366.12	222.35
366.32	81.92
366.52	173.20
366.72	119.37
366.91	56.17
367.11	142.77
367.31	58.51
367.51	81.92
367.70	126.39
367.90	161.50
368.10	107.66
368.30	184.90
368.49	100.64
368.69	147.45
368.89	107.66
369.09	114.69
369.28	173.20
369.48	173.20
369.68	161.50
369.87	191.92
370.07	189.58
370.27	220.01
370.47	322.99
370.66	468.11
370.86	650.67
371.06	610.88
371.25	770.04
371.45	631.94
371.65	692.80
371.84	613.22
372.04	720.88
372.24	725.57
372.44	671.73
372.63	662.37
372.83	758.33
373.03	781.74
373.22	709.18
373.42	760.67
373.62	730.25
373.81	770.04
374.01	814.51
374.21	786.42
374.40	753.65
374.60	837.91
374.79	786.42
374.99	828.55
375.19	812.17
375.38	746.63
375.58	868.34
375.78	868.34
375.97	812.17
376.17	863.66
376.37	847.27
376.56	912.81
376.76	847.27
376.95	826.21
377.15	877.70
377.35	915.15
377.54	931.53
377.74	936.21
377.93	882.38
378.13	943.24
378.33	837.91
378.52	922.17
378.72	866.00
378.91	961.96
379.11	884.72
379.31	910.47
379.50	924.51
379.70	1001.75
379.89	915.15
380.09	973.66
380.28	968.98
380.48	952.60
380.68	971.32
380.87	973.66
381.07	994.73
381.26	1011.11
381.46	1008.77
381.65	957.28
381.85	1060.26
382.04	1027.50
382.24	1027.50
382.43	1088.35
382.63	1032.18
382.83	1015.79
383.02	1153.88
383.22	1184.31
383.41	1060.26
383.61	1081.33
383.80	1184.31
384.00	1067.28
384.19	1114.10
384.39	1132.82
384.58	1107.07
384.78	1135.16
384.97	1090.69
385.17	1200.69
385.36	1214.74
385.56	1144.52
385.75	1174.95
385.95	1188.99
386.14	1256.87
386.34	1228.78
386.53	1146.86
386.72	1121.12
386.92	1277.93
387.11	1203.04
387.31	1196.01
387.50	1308.36
387.70	1221.76
387.89	1219.42
388.09	1320.06
388.28	1338.79
388.48	1268.57
388.67	1329.42
388.86	1350.49
389.06	1451.13
389.25	1387.94
389.45	1231.12
389.64	1310.70
389.84	1380.92
390.03	1385.60
390.22	1397.30
390.42	1378.58
390.61	1343.47
390.81	1348.15
391.00	1390.28
391.19	1378.58
391.39	1369.21
391.58	1416.02
391.78	1467.52
391.97	1586.88
392.16	1425.39
392.36	1535.39
392.55	1514.33
392.75	1565.82
392.94	1521.35
393.13	1549.43
393.33	1521.35
393.52	1556.46
393.71	1509.65
393.91	1565.82
394.10	1568.16
394.29	1664.12
394.49	1614.97
394.68	1593.90
394.88	1626.67
395.07	1727.32
395.26	1668.80
395.46	1757.74
395.65	1715.61
395.84	1701.57
396.04	1748.38
396.23	1797.53
396.42	1717.95
396.62	1706.25
396.81	1844.34
397.00	1771.79
397.19	1764.76
397.39	1781.15
397.58	1856.04
397.77	1820.94
397.97	1975.41
398.16	1895.83
398.35	1872.43
398.55	1853.70
398.74	1902.86
398.93	1977.75
399.12	1996.48
399.32	1905.20
399.51	1996.48
399.70	2015.20
399.90	2083.08
400.09	2064.35
400.28	2040.95
400.47	2012.86
400.67	1980.09
400.86	2029.24
401.05	2155.63
401.24	2122.87
401.44	2078.40
401.63	2209.47
401.82	2207.13
402.01	2111.16
402.21	2150.95
402.40	2218.83
402.59	2157.97
402.78	2169.68
402.97	2246.91
403.17	2260.96
403.36	2286.70
403.55	2286.70
403.74	2513.74
403.93	2312.45
404.13	2267.98
404.32	2410.75
404.51	2452.88
404.70	2389.69
404.89	2473.95
405.09	2417.77
405.28	2436.50
405.47	2441.18
405.66	2420.11
405.85	2523.10
406.05	2558.21
406.24	2450.54
406.43	2551.18
406.62	2677.57
406.81	2661.19
407.00	2551.18
407.20	2567.57
407.39	2558.21
407.58	2719.70
407.77	2773.53
407.96	2708.00
408.15	2810.98
408.34	2698.64
408.54	2799.28
408.73	2864.82
408.92	2827.37
409.11	2869.50
409.30	2888.22
409.49	2937.37
409.68	2951.42
409.87	2911.63
410.07	3073.12
410.26	2991.20
410.45	2995.89
410.64	3091.85
410.83	3133.98
411.02	3005.25
411.21	3112.91
411.40	3126.96
411.59	3187.81
411.78	3295.47
411.98	3272.07
412.17	3243.98
412.36	3323.56
412.55	3496.76
412.74	3379.73
412.93	3403.14
413.12	3272.07
413.31	3623.15
413.50	3513.14
413.69	3407.82
413.88	3597.40
414.07	3702.73
414.26	3754.22
414.45	3623.15
414.64	3712.09
414.83	3756.56
415.02	3714.43
415.22	3737.84
415.41	3733.15
415.60	3908.69
415.79	3908.69
415.98	3906.35
416.17	3974.23
416.36	4065.51
416.55	4053.81
416.74	4124.02
416.93	3969.55
417.12	4161.47
417.31	4182.54
417.50	4032.74
417.69	4245.73
417.88	4334.67
418.07	4262.12
418.26	4124.02
418.45	4285.52
418.64	4486.81
418.83	4353.40
419.02	4430.63
419.21	4587.45
419.39	4629.58
419.58	4568.73
419.77	4442.34
419.96	4580.43
420.15	4608.51
420.34	4631.92
420.53	4641.28
420.72	4629.58
420.91	4648.30
421.10	4800.44
421.29	4826.18
421.48	4620.22
421.67	4959.60
421.86	4980.66
422.05	4875.34
422.24	4861.29
422.43	4915.12
422.61	4901.08
422.80	4945.55
422.99	4819.16
423.18	4945.55
423.37	5069.60
423.56	5034.49
423.75	4938.53
423.94	4760.65
424.13	4648.30
424.32	4805.12
424.50	4952.57
424.69	5135.14
424.88	5088.32
425.07	5076.62
425.26	4987.68
425.45	4987.68
425.64	4954.91
425.83	5032.15
426.01	4882.36
426.20	4950.23
426.39	5219.39
426.58	5055.56
426.77	5025.13
426.96	5128.11
427.15	5041.51
427.33	5132.79
427.52	5135.14
427.71	5254.50
427.90	5240.46
428.09	5270.89
428.28	5472.17
428.46	5277.91
428.65	5493.24
428.84	5636.01
429.03	5497.92
429.22	5254.50
429.40	5509.62
429.59	5446.43
429.78	5448.77
429.97	5343.44
430.16	5504.94
430.34	5556.43
430.53	5708.57
430.72	5647.71
430.91	5636.01
431.10	5724.95
431.28	5610.26
431.47	5771.76
431.66	5870.06
431.85	5884.11
432.03	6019.86
432.22	6005.81
432.41	5874.74
432.60	5881.77
432.79	5895.81
432.97	6200.08
433.16	5923.90
433.35	5968.37
433.54	6080.71
433.72	6230.51
433.91	6265.61
434.10	6183.70
434.28	6017.52
434.47	6324.13
434.66	6225.82
434.85	6382.64
435.03	6331.15
435.22	6258.59
435.41	6513.71
435.59	6459.88
435.78	6408.39
435.97	6394.34
436.16	6349.87
436.34	6415.41
436.53	6539.46
436.72	6670.53
436.90	6502.01
437.09	6644.78
437.28	6499.67
437.46	6707.98
437.65	6670.53
437.84	6855.43
438.02	6696.27
438.21	6717.34
438.40	6855.43
438.58	6895.22
438.77	7096.50
438.96	7073.10
439.14	7082.46
439.33	7269.70
439.52	7248.64
439.70	7302.47
439.89	7527.16
440.08	7290.77
440.26	7428.86
440.45	7470.99
440.63	7290.77
440.82	7651.21
441.01	7672.28
441.19	7915.69
441.38	7590.36
441.57	7770.58
441.75	7798.66
441.94	7836.11
442.12	7864.20
442.31	8201.24
442.50	8051.44
442.68	8044.42
442.87	7941.44
443.05	8182.51
443.24	8124.00
443.43	8121.66
443.61	8224.64
443.80	8458.70
443.98	8248.05
444.17	8016.33
444.35	8332.31
444.54	8276.13
444.73	8404.86
444.91	8196.56
445.10	8416.57
445.28	8245.71
445.47	8273.79
445.65	8365.07
445.84	8463.38
446.02	8397.84
446.21	8393.16
446.39	8376.78
446.58	8393.16
446.77	8592.11
446.95	8379.12
447.14	8498.49
447.32	8528.91
447.51	8540.61
447.69	8622.53
447.88	8697.43
448.06	8500.83
448.25	8786.37
448.43	8566.36
448.62	8737.22
448.80	8561.68
448.99	8678.71
449.17	8732.54
449.36	8807.44
449.54	8723.18
449.73	8872.97
449.91	9090.64
450.10	8973.61
450.28	9071.92
450.46	9039.15
450.65	8807.44
450.83	9137.45
451.02	9046.17
451.20	9331.72
451.39	9277.88
451.57	9266.18
451.76	9095.32
451.94	9240.44
452.13	9261.50
452.31	9392.57
452.49	9320.01
452.68	9423.00
452.86	9247.46
453.05	9329.38
453.23	9467.47
453.42	9411.29
453.60	9563.43
453.78	9614.92
453.97	9474.49
454.15	9542.36
454.34	9525.98
454.52	9893.44
454.70	9703.86
454.89	9750.67
455.07	9834.93
455.26	9921.53
455.44	10015.15
455.62	10094.73
455.81	9961.32
455.99	10003.45
456.17	9888.76
456.36	10190.69
456.54	10270.27
456.73	10403.68
456.91	10537.09
457.09	10452.83
457.28	10672.84
457.46	10225.80
457.64	10523.05
457.83	10707.95
458.01	10422.41
458.19	10874.13
458.38	10525.39
458.56	10775.83
458.74	10801.57
458.93	10682.20
459.11	10839.02
459.29	10822.64
459.48	10918.60
459.66	10869.45
459.84	11066.05
460.03	11110.52
460.21	11183.08
460.39	11211.17
460.57	11023.92
460.76	11288.40
460.94	11391.39
461.12	11400.75
461.31	11119.89
461.49	11279.04
461.67	11192.44
461.85	11522.46
462.04	11358.62
462.22	11768.21
462.40	11463.94
462.59	11702.68
462.77	11618.42
462.95	11730.76
463.13	11777.58
463.32	11889.92
463.50	11920.35
463.68	11885.24
463.86	12135.68
464.05	11726.08
464.23	11602.04
464.41	11948.43
464.59	11822.05
464.78	11932.05
464.96	12121.63
465.14	11974.18
465.32	11929.71
465.50	12339.30
465.69	12224.62
465.87	12327.60
466.05	12437.61
466.23	12187.17
466.41	12320.58
466.60	12802.73
466.78	12395.48
466.96	12203.55
467.14	12343.99
467.32	12470.37
467.51	12760.60
467.69	12287.81
467.87	12372.07
468.05	12697.41
468.23	12346.33
468.41	12329.94
468.60	12755.92
468.78	12695.07
468.96	12545.27
469.14	12919.76
469.32	12996.99
469.50	12805.07
469.69	13064.87
469.87	13242.75
470.05	13188.92
470.23	13074.23
470.41	13202.96
470.59	13294.24
470.77	13235.73
470.95	13322.33
471.14	13874.70
471.32	13041.46
471.50	13563.40
471.68	13710.86
471.86	13734.26
472.04	13916.83
472.22	14075.98
472.40	13745.97
472.58	13870.01
472.77	14228.12
472.95	14122.79
473.13	14633.03
473.31	14064.28
473.49	14146.20
473.67	14127.47
473.85	14314.72
474.03	14635.37
474.21	14670.48
474.39	14677.50
474.57	14633.03
474.75	14789.85
474.93	14925.60
475.12	15030.92
475.30	15150.29
475.48	15140.93
475.66	15337.53
475.84	15087.09
476.02	15269.66
476.20	15496.69
476.38	15555.20
476.56	16287.79
476.74	16285.45
476.92	15800.96
477.10	15971.82
477.28	16119.27
477.46	16098.20
477.64	16425.88
477.82	16723.13
478.00	17041.44
478.18	16835.47
478.36	16973.56
478.54	17277.83
478.72	17224.00
478.90	17591.47
479.08	17680.41
479.26	17877.01
479.44	18101.70
479.62	18094.68
479.80	18155.54
479.98	18164.90
480.16	18497.25
480.34	18429.38
480.52	18745.35
480.70	18824.93
480.88	18469.17
481.06	18897.49
481.24	19112.81
481.41	19066.00
481.59	19506.02
481.77	19618.37
481.95	19389.00
482.13	20053.71
482.31	19644.12
482.49	20592.03
482.67	20652.89
482.85	20514.80
483.03	20538.20
483.21	20915.03
483.39	21137.38
483.57	20872.90
483.74	21380.79
483.92	21607.83
484.10	21387.82
484.28	21909.75
484.46	22092.32
484.64	22228.07
484.82	22101.68
485.00	22508.93
485.18	22742.99
485.35	23140.88
485.53	22967.68
485.71	23407.70
485.89	23571.54
486.07	23461.53
486.25	23597.28
486.43	23903.89
486.61	23917.93
486.78	23988.15
486.96	24362.64
487.14	24727.76
487.32	24826.06
487.50	24945.43
487.68	25228.63
487.85	25549.29
488.03	25687.38
488.21	25933.14
488.39	26169.53
488.57	26073.57
488.75	26361.45
488.92	26691.47
489.10	26822.54
489.28	27304.69
489.46	27255.54
489.64	27676.83
489.81	27873.44
489.99	28161.33
490.17	27992.81
490.35	28379.00
490.53	28163.67
490.70	28074.73
490.88	28510.07
491.06	29020.30
491.24	28769.86
491.41	29193.50
491.59	29104.56
491.77	29270.74
491.95	29455.64
492.13	29806.72
492.30	30202.27
492.48	30108.65
492.66	29996.31
492.84	30359.09
493.01	30663.36
493.19	30815.49
493.37	31068.27
493.54	30986.35
493.72	31985.76
493.90	31618.30
494.08	31945.97
494.25	32313.44
494.43	32002.14
494.61	32266.63
494.79	32594.30
494.96	32615.37
495.14	32847.08
495.32	33277.74
495.49	33092.83
495.67	33565.62
495.85	33425.19
496.02	33598.39
496.20	34029.05
496.38	34206.93
496.55	34335.66
496.73	34976.97
496.91	34906.75
497.09	34967.60
497.26	35721.26
497.44	34700.78
497.62	35842.96
497.79	35880.41
497.97	35798.49
498.14	36046.59
498.32	36077.02
498.50	36266.60
498.67	36610.66
498.85	36737.05
499.03	36772.16
499.20	37017.91
499.38	37366.65
499.56	36985.15
499.73	37455.59
499.91	37483.68
500.08	38019.66
500.26	37553.90
500.44	37853.48
500.61	38352.02
500.79	38195.20
500.97	38398.83
501.14	38937.15
501.32	38789.70
501.49	38728.84
501.67	38920.77
501.84	39040.14
502.02	39171.21
502.20	39236.74
502.37	39955.29
502.55	39730.59
502.72	39564.42
502.90	39840.60
503.07	39683.78
503.25	39775.06
503.43	39945.92
503.60	40353.18
503.78	40364.88
503.95	40524.04
504.13	40823.62
504.30	40968.74
504.48	40825.96
504.65	40809.58
504.83	41621.75
505.01	41483.66
505.18	41394.71
505.36	41528.13
505.53	41581.96
505.71	41425.14
505.88	41954.10
506.06	41621.75
506.23	42045.38
506.41	42342.63
506.58	42335.61
506.76	42560.30
506.93	42726.48
507.11	42450.30
507.28	42749.88
507.46	43079.90
507.63	42932.45
507.81	43339.70
507.98	42902.02
508.16	43234.38
508.33	44191.65
508.50	43786.74
508.68	43934.20
508.85	44053.56
509.03	44179.95
509.20	44514.65
509.38	44196.34
509.55	44605.93
509.73	44774.45
509.90	44804.88
510.08	44861.05
510.25	44519.33
510.42	45064.67
510.60	45291.71
510.77	45155.96
510.95	45708.32
511.12	45427.46
511.30	45244.90
511.47	45399.37
511.64	46134.30
511.82	45925.99
511.99	46024.29
512.17	46377.72
512.34	46014.93
512.51	46426.87
512.69	46445.59
512.86	46405.80
513.04	46354.31
513.21	46749.86
513.38	46880.93
513.56	46843.48
513.73	47096.26
513.90	47463.72
514.08	46883.27
514.25	47323.29
514.43	47859.27
514.60	47735.23
514.77	47601.82
514.95	47988.00
515.12	48009.07
515.29	47767.99
515.47	48360.15
515.64	48421.00
515.81	47969.28
515.99	48222.06
516.16	48437.39
516.33	48664.42
516.51	48882.09
516.68	49022.52
516.85	49174.66
517.03	49214.44
517.20	49003.80
517.37	49083.37
517.54	49382.96
517.72	48877.41
517.89	49212.10
518.06	49640.42
518.24	49415.73
518.41	49757.45
518.58	49780.85
518.75	49485.95
518.93	49776.17
519.10	49542.12
519.27	50155.34
519.45	50209.17
519.62	50007.89
519.79	50185.77
519.96	50274.71
520.14	50223.22
520.31	50108.53
520.48	50735.79
520.65	50733.45
520.83	50827.07
521.00	50656.21
521.17	50923.04
521.34	51096.24
521.52	50913.67
521.69	50798.99
521.86	50995.59
522.03	51337.31
522.20	51313.90
522.38	51580.73
522.55	51461.36
522.72	51419.23
522.89	52002.02
523.07	51997.34
523.24	51716.48
523.41	52086.28
523.58	51494.13
523.75	51803.08
523.92	51983.30
524.10	52626.95
524.27	52411.62
524.44	52076.92
524.61	51875.63
524.78	52465.45
524.96	52420.98
525.13	52697.16
525.30	52638.65
525.47	52938.24
525.64	52790.78
525.81	52615.24
525.98	52933.56
526.16	52648.01
526.33	52460.77
526.50	53336.13
526.67	53064.63
526.84	53249.53
527.01	52853.98
527.18	53127.82
527.36	53006.11
527.53	52851.64
527.70	53535.07
527.87	53591.25
528.04	53380.60
528.21	53483.58
528.38	53666.14
528.55	53829.98
528.72	53741.04
528.89	53450.81
529.07	53408.68
529.24	53453.15
529.41	53935.30
529.58	53820.62
529.75	53715.29
529.92	53963.39
530.09	54057.01
530.26	53914.24
530.43	53862.75
530.60	53914.24
530.77	54124.89
530.94	54415.11
531.11	54330.86
531.28	54340.22
531.46	54555.55
531.63	54578.95
531.80	54567.25
531.97	54836.41
532.14	54513.42
532.31	54665.55
532.48	54742.79
532.65	54979.18
532.82	54529.80
532.99	54780.24
533.16	54941.74
533.33	55061.10
533.50	55203.88
533.67	54759.17
533.84	54808.32
534.01	55224.94
534.18	55210.90
534.35	55428.57
534.52	55189.83
534.69	55412.18
534.86	55323.24
535.03	55210.90
535.20	55599.43
535.37	55461.33
535.54	55547.93
535.71	55356.01
535.88	55566.66
536.05	55737.52
536.22	55716.45
536.38	55863.91
536.55	55674.32
536.72	55824.12
536.89	55877.95
537.06	55660.28
537.23	56114.34
537.40	55784.33
537.57	55779.65
537.74	55913.06
537.91	56177.54
538.08	56053.49
538.25	56172.86
538.42	56053.49
538.59	56266.48
538.75	56104.98
538.92	56219.67
539.09	56624.58
539.26	56465.42
539.43	56498.19
539.60	56523.94
539.77	56446.70
539.94	56516.92
540.11	56456.06
540.28	56561.39
540.44	56750.97
540.61	56587.13
540.78	56629.26
540.95	56526.28
541.12	56488.83
541.29	56680.75
541.46	56662.03
541.62	56898.42
541.79	56879.70
541.96	56650.33
542.13	56732.25
542.30	56928.85
542.47	56877.36
542.63	57073.96
542.80	57120.77
542.97	57249.50
543.14	57535.05
543.31	57495.26
543.48	57291.63
543.64	57558.45
543.81	57633.35
543.98	57380.57
544.15	57525.69
544.32	57855.70
544.48	57429.72
544.65	57490.58
544.82	57598.24
544.99	57176.95
545.16	57396.96
545.32	57682.50
545.49	57827.62
545.66	57909.53
545.83	57635.69
546.00	57792.51
546.16	57766.76
546.33	57738.68
546.50	57745.70
546.67	57738.68
546.83	57616.97
547.00	57925.92
547.17	57986.77
547.34	57879.11
547.50	58204.44
547.67	58284.02
547.84	58171.67
548.00	58518.07
548.17	58431.47
548.34	58068.69
548.51	58384.66
548.67	58164.65
548.84	58454.88
549.01	58232.53
549.18	58354.24
549.34	58361.26
549.51	58515.73
549.68	58592.97
549.84	58176.36
550.01	58518.07
550.18	58688.93
550.34	58618.72
550.51	58726.38
550.68	58578.93
550.84	58642.12
551.01	58766.17
551.18	58621.06
551.34	58763.83
551.51	58644.46
551.68	58808.30
551.84	58691.27
552.01	58635.10
552.18	58740.42
552.34	58726.38
552.51	58894.90
552.68	58822.34
552.84	58845.75
553.01	59311.52
553.18	59037.67
553.34	59037.67
553.51	58876.18
553.67	58925.33
553.84	59164.06
554.01	59093.85
554.17	59147.68
554.34	59210.87
554.51	59213.21
554.67	59117.25
554.84	59320.88
555.00	59119.59
555.17	58915.96
555.33	59222.58
555.50	59138.32
555.67	59229.60
555.83	59145.34
556.00	59339.60
556.16	59681.32
556.33	59543.23
556.50	59409.82
556.66	59475.35
556.83	59318.54
556.99	59592.38
557.16	59784.30
557.32	59669.62
557.49	59863.88
557.65	59494.08
557.82	59533.87
557.98	59646.21
558.15	59641.53
558.32	59723.45
558.48	59550.25
558.65	59739.83
558.81	59788.98
558.98	59732.81
559.14	59583.02
559.31	59826.43
559.47	59788.98
559.64	59779.62
559.80	59767.92
559.97	60254.75
560.13	59688.34
560.30	59856.86
560.46	59852.18
560.63	59994.95
560.79	59774.94
560.96	59971.55
561.12	60076.87
561.29	59894.31
561.45	59873.24
561.61	60020.70
561.78	59838.14
561.94	59964.52
562.11	59884.95
562.27	60067.51
562.44	60037.08
562.60	60123.68
562.77	60259.43
562.93	59812.39
563.10	60107.30
563.26	60025.38
563.42	60535.62
563.59	60221.98
563.75	60243.05
563.92	60427.95
564.08	60217.30
564.24	60184.54
564.41	60404.55
564.57	60369.44
564.74	60093.25
564.90	60477.10
565.07	60236.03
565.23	60224.32
565.39	60221.98
565.56	60406.89
565.72	60402.21
565.88	60324.97
566.05	60301.56
566.21	60556.68
566.38	60399.86
566.54	60643.28
566.70	60432.63
566.87	60355.39
567.03	60299.22
567.19	60484.12
567.36	60495.83
567.52	60360.08
567.68	60781.37
567.85	60446.68
568.01	60734.56
568.17	60507.53
568.34	60514.55
568.50	60584.77
568.66	60495.83
568.83	60786.05
568.99	60425.61
569.15	60636.26
569.32	60584.77
569.48	60491.15
569.64	60704.13
569.81	60643.28
569.97	60678.39
570.13	60378.80
570.30	60603.49
570.46	60619.88
570.62	60676.05
570.78	60732.22
570.95	60629.24
571.11	60907.76
571.27	60640.94
571.43	60776.69
571.60	61003.72
571.76	60584.77
571.92	60725.20
572.09	60727.54
572.25	60715.84
572.41	60793.07
572.57	60907.76
572.74	60933.51
572.90	60666.69
573.06	60708.82
573.22	60739.24
573.38	60900.74
573.55	60800.10
573.71	60853.93
573.87	60800.10
574.03	60535.62
574.20	60704.13
574.36	60835.20
574.52	60654.98
574.68	60835.20
574.84	60825.84
575.01	60910.10
575.17	60844.57
575.33	60851.59
575.49	60772.01
575.65	60912.44
575.82	60879.67
575.98	60781.37
576.14	61132.45
576.30	60942.87
576.46	60870.31
576.62	60872.65
576.79	60790.73
576.95	60830.52
577.11	60839.89
577.27	60889.04
577.43	60949.89
577.59	60905.42
577.75	60811.80
577.92	60760.31
578.08	60863.29
578.24	60975.64
578.40	60973.30
578.56	61106.71
578.72	60896.06
578.88	61132.45
579.04	61188.63
579.21	60999.04
579.37	61132.45
579.53	61205.01
579.69	60617.53
579.85	60898.40
580.01	61118.41
580.17	60947.55
580.33	61162.88
580.49	61258.84
580.65	60797.76
580.82	61038.83
580.98	61137.13
581.14	60900.74
581.30	61169.90
581.46	61080.96
581.62	61076.28
581.78	60977.98
581.94	61162.88
582.10	61055.21
582.26	61205.01
582.42	60977.98
582.58	61113.73
582.74	60982.66
582.90	61076.28
583.06	61003.72
583.22	61055.21
583.38	61165.22
583.54	61116.07
583.70	61116.07
583.86	61176.92
584.02	60917.12
584.18	61212.03
584.34	61322.04
584.50	61233.10
584.66	60973.30
584.82	61010.74
584.98	61237.78
585.14	61352.46
585.30	61031.81
585.46	60992.02
585.62	61270.54
585.78	61315.01
585.94	61052.87
586.10	61116.07
586.26	61254.16
586.42	61258.84
586.58	61116.07
586.74	61123.09
586.90	61041.17
587.06	60816.48
587.22	61242.46
587.38	61296.29
587.54	61476.51
587.70	61331.40
587.86	61422.68
588.02	61176.92
588.18	61347.78
588.34	61289.27
588.49	61116.07
