SpectraSuite Data File
++++++++++++++++++++++++++++++++++++
Date: Fri Oct 25 10:47:07 EDT 2013
User: price-jones
Dark Spectrum Present: No
Reference Spectrum Present: No
Number of Sampled Component Spectra: 1
Spectrometers: USB2+H05261
Integration Time (usec): 100000 (USB2+H05261)
Spectra Averaged: 1 (USB2+H05261)
Boxcar Smoothing: 0 (USB2+H05261)
Correct for Electrical Dark: No (USB2+H05261)
Strobe/Lamp Enabled: No (USB2+H05261)
Correct for Detector Non-linearity: No (USB2+H05261)
Correct for Stray Light: No (USB2+H05261)
Number of Pixels in Processed Spectrum: 2048
>>>>>Begin Processed Spectral Data<<<<<
365.73	98.30
365.92	98.30
366.12	98.30
366.32	107.66
366.52	21.06
366.72	23.41
366.91	0.00
367.11	51.49
367.31	49.15
367.51	72.56
367.70	56.17
367.90	58.51
368.10	4.68
368.30	0.00
368.49	11.70
368.69	67.88
368.89	86.60
369.09	42.13
369.28	95.96
369.48	77.24
369.68	156.82
369.87	107.66
370.07	44.47
370.27	175.54
370.47	196.60
370.66	390.87
370.86	365.12
371.06	454.06
371.25	521.94
371.45	470.45
371.65	381.51
371.84	430.66
372.04	463.43
372.24	465.77
372.44	489.17
372.63	458.74
372.83	472.79
373.03	507.90
373.22	482.15
373.42	526.62
373.62	491.51
373.81	521.94
374.01	603.86
374.21	521.94
374.40	559.39
374.60	543.00
374.79	535.98
374.99	585.13
375.19	470.45
375.38	578.11
375.58	528.96
375.78	624.92
375.97	613.22
376.17	592.16
376.37	561.73
376.56	547.69
376.76	554.71
376.95	613.22
377.15	573.43
377.35	526.62
377.54	594.50
377.74	561.73
377.93	634.29
378.13	660.03
378.33	704.50
378.52	592.16
378.72	608.54
378.91	608.54
379.11	601.52
379.31	547.69
379.50	617.90
379.70	624.92
379.89	587.47
380.09	674.07
380.28	667.05
380.48	641.31
380.68	643.65
380.87	704.50
381.07	664.71
381.26	702.16
381.46	653.01
381.65	720.88
381.85	575.77
382.04	566.41
382.24	723.23
382.43	678.76
382.63	718.54
382.83	704.50
383.02	758.33
383.22	713.86
383.41	627.26
383.61	667.05
383.80	777.06
384.00	657.69
384.19	725.57
384.39	648.33
384.58	748.97
384.78	723.23
384.97	739.61
385.17	788.76
385.36	800.46
385.56	819.19
385.75	737.27
385.95	737.27
386.14	802.80
386.34	779.40
386.53	784.08
386.72	842.59
386.92	837.91
387.11	734.93
387.31	894.08
387.50	821.53
387.70	763.01
387.89	877.70
388.09	800.46
388.28	821.53
388.48	788.76
388.67	891.74
388.86	882.38
389.06	800.46
389.25	854.30
389.45	903.45
389.64	861.32
389.84	884.72
390.03	1004.09
390.22	1001.75
390.42	898.77
390.61	805.14
390.81	908.13
391.00	891.74
391.19	901.11
391.39	973.66
391.58	1015.79
391.78	910.47
391.97	971.32
392.16	964.30
392.36	1032.18
392.55	1041.54
392.75	961.96
392.94	922.17
393.13	978.34
393.33	926.85
393.52	952.60
393.71	1036.86
393.91	938.55
394.10	1048.56
394.29	1107.07
394.49	1015.79
394.68	1167.93
394.88	1081.33
395.07	1069.62
395.26	1107.07
395.46	1128.14
395.65	1048.56
395.84	1083.67
396.04	1116.44
396.23	1097.71
396.42	1090.69
396.62	1053.24
396.81	1107.07
397.00	1214.74
397.19	1165.59
397.39	1210.06
397.58	1224.10
397.77	1172.61
397.97	1191.33
398.16	1315.38
398.35	1289.64
398.55	1327.08
398.74	1284.95
398.93	1352.83
399.12	1350.49
399.32	1324.74
399.51	1268.57
399.70	1418.36
399.90	1338.79
400.09	1371.55
400.28	1413.68
400.47	1369.21
400.67	1446.45
400.86	1313.04
401.05	1474.54
401.24	1423.05
401.44	1507.30
401.63	1448.79
401.82	1387.94
402.01	1465.18
402.21	1495.60
402.40	1467.52
402.59	1568.16
402.78	1500.28
402.97	1483.90
403.17	1619.65
403.36	1516.67
403.55	1631.35
403.74	1675.82
403.93	1556.46
404.13	1633.69
404.32	1565.82
404.51	1554.12
404.70	1694.55
404.89	1575.18
405.09	1652.42
405.28	1724.97
405.47	1666.46
405.66	1776.47
405.85	1732.00
406.05	1790.51
406.24	1750.72
406.43	1799.87
406.62	1825.62
406.81	1933.28
407.00	1734.34
407.20	1741.36
407.39	1797.53
407.58	1858.39
407.77	1860.73
407.96	1905.20
408.15	1799.87
408.34	1902.86
408.54	2073.71
408.73	2052.65
408.92	1884.13
409.11	2045.63
409.30	1947.33
409.49	2062.01
409.68	1984.77
409.87	2080.74
410.07	2012.86
410.26	1998.82
410.45	2083.08
410.64	1982.43
410.83	2204.78
411.02	2197.76
411.21	2291.38
411.40	2228.19
411.59	2214.15
411.78	2373.30
411.98	2260.96
412.17	2359.26
412.36	2270.32
412.55	2363.94
412.74	2443.52
412.93	2471.61
413.12	2356.92
413.31	2593.31
413.50	2462.24
413.69	2483.31
413.88	2548.84
414.07	2473.95
414.26	2642.46
414.45	2612.04
414.64	2579.27
414.83	2675.23
415.02	2715.02
415.22	2731.41
415.41	2647.15
415.60	2773.53
415.79	2778.22
415.98	2810.98
416.17	2878.86
416.36	2818.00
416.55	2906.95
416.74	2942.05
416.93	2876.52
417.12	2869.50
417.31	2932.69
417.50	2993.55
417.69	3075.46
417.88	2977.16
418.07	3035.67
418.26	3129.30
418.45	3005.25
418.64	3080.14
418.83	3143.34
419.02	3145.68
419.21	3129.30
419.39	3234.62
419.58	3070.78
419.77	3096.53
419.96	3236.96
420.15	3281.43
420.34	3248.66
420.53	3251.00
420.72	3344.63
420.91	3379.73
421.10	3332.92
421.29	3445.27
421.48	3452.29
421.67	3356.33
421.86	3332.92
422.05	3431.23
422.24	3426.54
422.43	3407.82
422.61	3412.50
422.80	3442.93
422.99	3524.85
423.18	3410.16
423.37	3616.13
423.56	3536.55
423.75	3489.74
423.94	3372.71
424.13	3262.71
424.32	3412.50
424.50	3414.84
424.69	3588.04
424.88	3658.26
425.07	3559.95
425.26	3566.98
425.45	3655.92
425.64	3499.10
425.83	3576.34
426.01	3550.59
426.20	3559.95
426.39	3494.42
426.58	3506.12
426.77	3552.93
426.96	3517.83
427.15	3538.89
427.33	3669.96
427.52	3644.21
427.71	3599.74
427.90	3686.34
428.09	3597.40
428.28	3644.21
428.46	3693.37
428.65	3749.54
428.84	3770.60
429.03	3866.56
429.22	3730.81
429.40	3812.73
429.59	3817.41
429.78	3506.12
429.97	3660.60
430.16	3669.96
430.34	3723.79
430.53	3918.06
430.72	3754.22
430.91	3838.48
431.10	3850.18
431.28	4051.47
431.47	4067.85
431.66	4070.19
431.85	3906.35
432.03	4025.72
432.22	4201.26
432.41	4184.88
432.60	4227.01
432.79	4210.62
432.97	4227.01
433.16	4245.73
433.35	4177.86
433.54	4222.33
433.72	4266.80
433.91	4182.54
434.10	4376.80
434.28	4484.47
434.47	4344.03
434.66	4423.61
434.85	4404.89
435.03	4365.10
435.22	4437.66
435.41	4578.09
435.59	4454.04
435.78	4416.59
435.97	4610.86
436.16	4592.13
436.34	4472.76
436.53	4753.63
436.72	4676.39
436.90	4493.83
437.09	4451.70
437.28	4582.77
437.46	4671.71
437.65	4650.64
437.84	4671.71
438.02	4697.46
438.21	4582.77
438.40	4564.04
438.58	4898.74
438.77	4760.65
438.96	4802.78
439.14	4889.38
439.33	4964.28
439.52	4919.81
439.70	5060.24
439.89	5048.54
440.08	4994.70
440.26	5212.37
440.45	5198.33
440.63	5186.63
440.82	5284.93
441.01	5287.27
441.19	5416.00
441.38	5343.44
441.57	5425.36
441.75	5343.44
441.94	5509.62
442.12	5617.29
442.31	5488.56
442.50	5664.10
442.68	5636.01
442.87	5490.90
443.05	5682.82
443.24	5612.60
443.43	5537.71
443.61	5757.72
443.80	5888.79
443.98	5551.75
444.17	5472.17
444.35	5823.25
444.54	6052.63
444.73	5767.08
444.91	5935.60
445.10	5921.56
445.28	5734.31
445.47	5755.38
445.65	5799.85
445.84	5895.81
446.02	5858.36
446.21	5881.77
446.39	5809.21
446.58	5996.45
446.77	5870.06
446.95	5909.85
447.14	5771.76
447.32	5853.68
447.51	6129.86
447.69	5975.39
447.88	5928.58
448.06	6061.99
448.25	5954.32
448.43	6057.31
448.62	5902.83
448.80	6136.88
448.99	6164.97
449.17	6012.84
449.36	5914.53
449.54	6036.24
449.73	6354.55
449.91	6183.70
450.10	6214.12
450.28	6368.60
450.46	6246.89
450.65	6366.26
450.83	6354.55
451.02	6429.45
451.20	6518.39
451.39	6438.81
451.57	6392.00
451.76	6373.28
451.94	6420.09
452.13	6469.24
452.31	6609.67
452.49	6406.05
452.68	6471.58
452.86	6438.81
453.05	6649.46
453.23	6499.67
453.42	6523.07
453.60	6506.69
453.78	6619.04
453.97	6635.42
454.15	6801.60
454.34	6616.69
454.52	6628.40
454.70	6670.53
454.89	6787.55
455.07	6801.60
455.26	6876.49
455.44	6913.94
455.62	6956.07
455.81	6780.53
455.99	6927.99
456.17	6864.79
456.36	6857.77
456.54	6967.77
456.73	7089.48
456.91	7215.87
457.09	7208.85
457.28	7384.39
457.46	7185.44
457.64	7150.34
457.83	7073.10
458.01	7208.85
458.19	7375.03
458.38	7265.02
458.56	7386.73
458.74	7349.28
458.93	7368.01
459.11	7564.61
459.29	7342.26
459.48	7386.73
459.66	7461.63
459.84	7419.50
460.03	7784.62
460.21	7602.06
460.39	7515.46
460.57	7456.95
460.76	7515.46
460.94	7786.96
461.12	7644.19
461.31	7602.06
461.49	7674.62
461.67	7627.81
461.85	7831.43
462.04	7712.07
462.22	8355.71
462.40	8016.33
462.59	7934.42
462.77	7651.21
462.95	7971.86
463.13	8131.02
463.32	7911.01
463.50	8196.56
463.68	8154.43
463.86	8126.34
464.05	7882.92
464.23	8035.06
464.41	8189.53
464.59	7978.89
464.78	8257.41
464.96	8135.70
465.14	8184.85
465.32	8203.58
465.50	8374.44
465.69	8294.86
465.87	8198.90
466.05	8425.93
466.23	8362.73
466.41	8355.71
466.60	8477.42
466.78	8222.30
466.96	8159.11
467.14	8241.03
467.32	8280.82
467.51	8390.82
467.69	8386.14
467.87	8255.07
468.05	8549.98
468.23	8519.55
468.41	8517.21
468.60	8617.85
468.78	8578.06
468.96	8690.41
469.14	8624.87
469.32	8741.90
469.50	8535.93
469.69	8723.18
469.87	8936.17
470.05	9006.38
470.23	8957.23
470.41	8828.50
470.59	8912.76
470.77	8807.44
470.95	9008.72
471.14	9057.87
471.32	8952.55
471.50	9242.78
471.68	9338.74
471.86	9362.14
472.04	9123.41
472.22	9284.91
472.40	9165.54
472.58	9308.31
472.77	9247.46
472.95	9404.27
473.13	9764.72
473.31	9535.34
473.49	9427.68
473.67	9572.79
473.85	9516.62
474.03	9841.95
474.21	9834.93
474.39	9715.56
474.57	9956.64
474.75	9989.41
474.93	10204.74
475.12	10031.54
475.30	10190.69
475.48	10106.43
475.66	10228.14
475.84	10214.10
476.02	10150.90
476.20	10289.00
476.38	10485.60
476.56	10803.91
476.74	10471.56
476.92	10602.63
477.10	10663.48
477.28	10789.87
477.46	10752.42
477.64	11040.31
477.82	11164.36
478.00	11059.03
478.18	11190.10
478.36	11372.66
478.54	11225.21
478.72	11412.45
478.90	11819.71
479.08	11698.00
479.26	11850.13
479.44	11829.07
479.62	11988.22
479.80	12074.82
479.98	11985.88
480.16	12311.22
480.34	12145.04
480.52	12554.63
480.70	12292.49
480.88	12339.30
481.06	12676.34
481.24	12564.00
481.41	12826.14
481.59	12961.89
481.77	13011.04
481.95	12978.27
482.13	13181.90
482.31	13036.78
482.49	13432.33
482.67	13355.10
482.85	13486.17
483.03	13542.34
483.21	13748.31
483.39	13912.14
483.57	13977.68
483.74	14183.65
483.92	14015.13
484.10	13743.63
484.28	14504.30
484.46	14434.08
484.64	15115.18
484.82	14537.07
485.00	14516.00
485.18	14815.59
485.35	15171.35
485.53	14724.31
485.71	15115.18
485.89	15281.36
486.07	15246.25
486.25	15344.55
486.43	15391.36
486.61	15733.08
486.78	15779.89
486.96	15824.36
487.14	15833.72
487.32	15932.03
487.50	16219.91
487.68	16538.23
487.85	16542.91
488.03	16727.81
488.21	16985.27
488.39	16812.07
488.57	17184.21
488.75	16837.81
488.92	17219.32
489.10	17399.54
489.28	17479.12
489.46	17701.47
489.64	17788.07
489.81	18359.16
489.99	18148.51
490.17	18356.82
490.35	18794.50
490.53	18537.04
490.70	18705.56
490.88	18539.38
491.06	19145.58
491.24	18773.44
491.41	18794.50
491.59	19145.58
491.77	19108.13
491.95	19482.62
492.13	19508.37
492.30	19878.17
492.48	19810.29
492.66	19850.08
492.84	19847.74
493.01	20149.67
493.19	20070.09
493.37	20154.35
493.54	20201.16
493.72	20458.62
493.90	20690.34
494.08	20634.16
494.25	21001.63
494.43	21284.83
494.61	21277.81
494.79	21315.26
494.96	21355.05
495.14	21298.88
495.32	21626.55
495.49	21392.50
495.67	21596.12
495.85	22040.82
496.02	22405.95
496.20	22223.39
496.38	22085.30
496.55	22441.06
496.73	22733.62
496.91	22663.41
497.09	22614.26
497.26	22817.88
497.44	22850.65
497.62	22675.11
497.79	22836.61
497.97	22726.60
498.14	23232.16
498.32	23414.72
498.50	23718.99
498.67	23847.72
498.85	23704.95
499.03	24051.34
499.20	24173.05
499.38	24084.11
499.56	23920.28
499.73	24243.27
499.91	24243.27
500.08	24500.73
500.26	24577.97
500.44	24402.43
500.61	24680.95
500.79	24482.00
500.97	24690.31
501.14	24933.73
501.32	25013.31
501.49	24886.92
501.67	25298.85
501.84	25537.59
502.02	25230.98
502.20	25216.93
502.37	25626.53
502.55	25465.03
502.72	25673.34
502.90	25816.11
503.07	25579.71
503.25	25982.29
503.43	25811.43
503.60	26050.16
503.78	25935.48
503.95	26316.98
504.13	26202.30
504.30	26642.32
504.48	26291.24
504.65	26345.07
504.83	26401.24
505.01	26817.86
505.18	26684.45
505.36	27021.48
505.53	26911.48
505.71	27199.37
505.88	27150.21
506.06	26794.45
506.23	27080.00
506.41	27342.14
506.58	27236.81
506.76	27400.65
506.93	27646.41
507.11	27718.96
507.28	27981.10
507.46	27761.09
507.63	27882.80
507.81	28163.67
507.98	27882.80
508.16	28201.11
508.33	28266.65
508.50	28486.66
508.68	28364.95
508.85	28971.15
509.03	28692.63
509.20	29027.32
509.38	28912.64
509.55	28725.39
509.73	28811.99
509.90	28830.72
510.08	29090.52
510.25	28947.75
510.42	29060.09
510.60	29331.59
510.77	29635.86
510.95	29776.30
511.12	29549.26
511.30	29668.63
511.47	29837.15
511.64	29818.42
511.82	30199.93
511.99	29708.42
512.17	30075.88
512.34	29736.51
512.51	30356.75
512.69	30441.01
512.86	30225.68
513.04	30637.61
513.21	30480.80
513.38	30403.56
513.56	30771.02
513.73	30356.75
513.90	30672.72
514.08	30623.57
514.25	30595.48
514.43	31201.68
514.60	30976.99
514.77	31051.89
514.95	31246.15
515.12	31370.20
515.29	30981.67
515.47	31325.73
515.64	31821.92
515.81	31536.38
515.99	31454.46
516.16	31428.71
516.33	31480.21
516.51	31665.11
516.68	31098.70
516.85	31360.84
517.03	31482.55
517.20	32086.40
517.37	31419.35
517.54	31934.27
517.72	32027.89
517.89	31852.35
518.06	31842.99
518.24	31854.69
518.41	32367.27
518.58	32168.32
518.75	32257.26
518.93	32437.48
519.10	32713.67
519.27	32694.94
519.45	32477.27
519.62	32980.49
519.79	33067.09
519.96	32889.21
520.14	33345.61
520.31	33207.52
520.48	33134.96
520.65	33357.32
520.83	33469.66
521.00	33226.24
521.17	33364.34
521.34	33589.03
521.52	33743.50
521.69	33661.58
521.86	33621.80
522.03	33563.28
522.20	34139.05
522.38	33905.00
522.55	33979.90
522.72	33769.25
522.89	33876.91
523.07	34281.83
523.24	34092.24
523.41	34555.67
523.58	34253.74
523.75	34747.59
523.92	34136.71
524.10	34747.59
524.27	34536.94
524.44	34651.63
524.61	34965.26
524.78	34916.11
524.96	35105.70
525.13	35049.52
525.30	35648.70
525.47	35484.86
525.64	35199.32
525.81	35257.83
525.98	35459.12
526.16	34995.69
526.33	34925.47
526.50	35550.40
526.67	35159.53
526.84	35510.61
527.01	35194.64
527.18	35463.80
527.36	35674.45
527.53	35936.59
527.70	36177.66
527.87	35915.52
528.04	35878.07
528.21	36020.84
528.38	35929.56
528.55	36224.47
528.72	35934.24
528.89	36603.64
529.07	36037.23
529.24	36325.11
529.41	36634.06
529.58	36463.21
529.75	36467.89
529.92	36339.16
530.09	36491.29
530.26	36404.69
530.43	36921.95
530.60	36821.31
530.77	36353.20
530.94	37209.84
531.11	37036.64
531.28	37186.43
531.46	37132.60
531.63	37085.79
531.80	37104.51
531.97	36935.99
532.14	37078.77
532.31	37284.73
532.48	37502.40
532.65	37387.72
532.82	37303.46
532.99	37544.53
533.16	37207.50
533.33	37315.16
533.50	37986.89
533.67	37794.97
533.84	37137.28
534.01	37397.08
534.18	37352.61
534.35	37928.38
534.52	37628.79
534.69	38000.94
534.86	37986.89
535.03	38092.22
535.20	38635.22
535.37	38616.50
535.54	38181.16
535.71	37993.92
535.88	38176.48
536.05	38263.08
536.22	38806.08
536.38	38326.27
536.55	38316.91
536.72	38349.68
536.89	38148.39
537.06	38401.17
537.23	38272.44
537.40	38319.25
537.57	38628.20
537.74	38391.81
537.91	38616.50
538.08	38799.06
538.25	38902.04
538.42	39079.92
538.59	39117.37
538.75	38817.78
538.92	38815.44
539.09	38923.11
539.26	39257.81
539.43	39292.91
539.60	39433.35
539.77	39206.31
539.94	39028.43
540.11	39452.07
540.28	39321.00
540.44	39112.69
540.61	39239.08
540.78	38941.83
540.95	39213.34
541.12	38815.44
541.29	39065.88
541.46	39075.24
541.62	39431.01
541.79	39714.21
541.96	39676.76
542.13	39639.31
542.30	39480.16
542.47	39807.83
542.63	39611.23
542.80	39786.77
542.97	40395.31
543.14	40456.16
543.31	40009.12
543.48	40297.00
543.64	40779.15
543.81	40601.27
543.98	40645.74
544.15	40282.96
544.32	40582.55
544.48	40837.67
544.65	40320.41
544.82	40348.50
544.99	40268.92
545.16	40957.03
545.32	40285.30
545.49	41502.38
545.66	41228.54
545.83	40701.92
546.00	40964.06
546.16	40987.46
546.33	41060.02
546.50	40615.32
546.67	40961.72
546.83	40559.14
547.00	40882.14
547.17	40608.29
547.34	41340.88
547.50	41628.77
547.67	41324.50
547.84	41312.80
548.00	41724.73
548.17	41942.40
548.34	41240.24
548.51	41706.01
548.67	41743.45
548.84	41769.20
549.01	41301.09
549.18	41209.81
549.34	41556.21
549.51	41724.73
549.68	41551.53
549.84	41691.96
550.01	41790.27
550.18	41862.82
550.34	41265.99
550.51	41844.10
550.68	41628.77
550.84	41212.15
551.01	42019.64
551.18	41656.85
551.34	41797.29
551.51	41940.06
551.68	41951.76
551.84	42356.67
552.01	41839.42
552.18	41998.57
552.34	41453.23
552.51	42377.74
552.68	42190.50
552.84	41914.31
553.01	42588.39
553.18	42071.13
553.34	42155.39
553.51	42270.08
553.67	42073.47
553.84	42962.87
554.01	42553.28
554.17	42595.41
554.34	42689.03
554.51	42637.54
554.67	43009.68
554.84	42607.11
555.00	42321.57
555.17	42295.82
555.33	43178.20
555.50	42724.14
555.67	42906.70
555.83	42728.82
556.00	43007.34
556.16	43049.47
556.33	43203.95
556.50	42665.63
556.66	42787.33
556.83	42679.67
556.99	43161.82
557.16	43110.33
557.32	42995.64
557.49	42920.74
557.65	42632.86
557.82	42527.53
557.98	43084.58
558.15	43175.86
558.32	42969.90
558.48	43381.83
558.65	43262.46
558.81	43152.46
558.98	43056.50
559.14	42880.95
559.31	43042.45
559.47	43147.78
559.64	43650.99
559.80	43517.58
559.97	43484.81
560.13	42918.40
560.30	43601.84
560.46	43100.97
560.63	43470.77
560.79	43576.09
560.96	43896.75
561.12	43421.62
561.29	43826.53
561.45	43709.50
561.61	43428.64
561.78	43489.49
561.94	43239.06
562.11	43533.96
562.27	43349.06
562.44	43641.63
562.60	43840.57
562.77	43793.76
562.93	43475.45
563.10	43538.65
563.26	43545.67
563.42	44069.95
563.59	43606.52
563.75	43938.88
563.92	43686.10
564.08	44163.57
564.24	43580.78
564.41	43650.99
564.57	43459.07
564.74	44168.25
564.90	43866.32
565.07	44074.63
565.23	44112.08
565.39	43856.96
565.56	43854.62
565.72	43400.55
565.88	43840.57
566.05	43615.88
566.21	43744.61
566.38	43662.69
566.54	43716.53
566.70	44020.80
566.87	44439.75
567.03	43814.83
567.19	44626.99
567.36	43856.96
567.52	43934.20
567.68	44051.22
567.85	43964.62
568.01	44151.87
568.17	43955.26
568.34	43962.28
568.50	44341.45
568.66	43807.81
568.83	44327.41
568.99	43753.97
569.15	43753.97
569.32	43917.81
569.48	43952.92
569.64	44507.63
569.81	44287.62
569.97	44313.36
570.13	44357.83
570.30	43833.55
570.46	43592.48
570.62	44091.01
570.78	43758.66
570.95	43852.28
571.11	44521.67
571.27	44018.46
571.43	44006.75
571.60	43934.20
571.76	43910.79
571.92	44201.02
572.09	43871.00
572.25	44041.86
572.41	44020.80
572.57	44346.13
572.74	44603.59
572.90	44140.16
573.06	44245.49
573.22	44378.90
573.38	44226.76
573.55	44102.71
573.71	44669.12
573.87	44217.40
574.03	43906.11
574.20	43927.17
574.36	44388.26
574.52	43924.83
574.68	44442.09
574.84	44758.06
575.01	44348.47
575.17	44442.09
575.33	44133.14
575.49	44245.49
575.65	44645.72
575.82	44493.58
575.98	44505.29
576.14	44942.97
576.30	44058.24
576.46	44456.14
576.62	43985.69
576.79	44507.63
576.95	43995.05
577.11	44554.44
577.27	44659.76
577.43	44135.48
577.59	44299.32
577.75	44250.17
577.92	43791.42
578.08	44027.82
578.24	44126.12
578.40	44449.11
578.56	44367.20
578.72	44348.47
578.88	44816.58
579.04	44692.53
579.21	44081.65
579.37	44397.62
579.53	44161.23
579.69	44458.48
579.85	44479.54
580.01	44596.57
580.17	44619.97
580.33	44596.57
580.49	44357.83
580.65	44825.94
580.82	44376.56
580.98	44329.75
581.14	43852.28
581.30	44442.09
581.46	44186.97
581.62	44722.96
581.78	44212.72
581.94	44978.07
582.10	44231.44
582.26	44650.40
582.42	44858.71
582.58	44364.85
582.74	44748.70
582.90	44786.15
583.06	44804.88
583.22	44367.20
583.38	44744.02
583.54	44811.90
583.70	44083.99
583.86	44465.50
584.02	44509.97
584.18	44573.16
584.34	44818.92
584.50	44392.94
584.66	44619.97
584.82	44409.32
584.98	44854.03
585.14	44453.79
585.30	44505.29
585.46	44210.38
585.62	44601.25
585.78	44327.41
585.94	44540.39
586.10	44451.45
586.26	44416.35
586.42	44861.05
586.58	44971.05
586.74	44624.65
586.90	44683.17
587.06	44215.06
587.22	44603.59
587.38	44538.05
587.54	44720.62
587.70	45139.57
587.86	44865.73
588.02	44711.25
588.18	44605.93
588.34	44460.82
588.49	44418.69
588.65	44259.53
588.81	45067.02
588.97	44535.71
589.13	44196.34
589.29	44514.65
589.45	44912.54
589.61	44568.48
589.77	45118.51
589.93	44631.68
590.08	44847.00
590.24	44849.35
