SpectraSuite Data File
++++++++++++++++++++++++++++++++++++
Date: Fri Oct 25 10:46:55 EDT 2013
User: price-jones
Dark Spectrum Present: No
Reference Spectrum Present: No
Number of Sampled Component Spectra: 1
Spectrometers: USB2+H05261
Integration Time (usec): 100000 (USB2+H05261)
Spectra Averaged: 1 (USB2+H05261)
Boxcar Smoothing: 0 (USB2+H05261)
Correct for Electrical Dark: No (USB2+H05261)
Strobe/Lamp Enabled: No (USB2+H05261)
Correct for Detector Non-linearity: No (USB2+H05261)
Correct for Stray Light: No (USB2+H05261)
Number of Pixels in Processed Spectrum: 2048
>>>>>Begin Processed Spectral Data<<<<<
365.73	135.75
365.92	135.75
366.12	135.75
366.32	51.49
366.52	63.19
366.72	2.34
366.91	23.41
367.11	18.72
367.31	28.09
367.51	30.43
367.70	11.70
367.90	53.83
368.10	28.09
368.30	77.24
368.49	18.72
368.69	46.81
368.89	93.62
369.09	67.88
369.28	53.83
369.48	37.45
369.68	74.90
369.87	58.51
370.07	93.62
370.27	112.35
370.47	198.95
370.66	395.55
370.86	381.51
371.06	510.24
371.25	465.77
371.45	447.04
371.65	519.60
371.84	437.68
372.04	538.32
372.24	610.88
372.44	484.49
372.63	477.47
372.83	528.96
373.03	496.19
373.22	470.45
373.42	578.11
373.62	477.47
373.81	461.09
374.01	550.03
374.21	540.66
374.40	596.84
374.60	580.45
374.79	568.75
374.99	561.73
375.19	561.73
375.38	690.46
375.58	648.33
375.78	627.26
375.97	629.60
376.17	678.76
376.37	627.26
376.56	648.33
376.76	587.47
376.95	660.03
377.15	685.78
377.35	645.99
377.54	678.76
377.74	587.47
377.93	655.35
378.13	629.60
378.33	596.84
378.52	521.94
378.72	664.71
378.91	688.12
379.11	645.99
379.31	648.33
379.50	641.31
379.70	669.39
379.89	704.50
380.09	725.57
380.28	664.71
380.48	704.50
380.68	706.84
380.87	690.46
381.07	755.99
381.26	805.14
381.46	727.91
381.65	706.84
381.85	739.61
382.04	751.31
382.24	709.18
382.43	734.93
382.63	739.61
382.83	758.33
383.02	739.61
383.22	737.27
383.41	751.31
383.61	734.93
383.80	828.55
384.00	758.33
384.19	755.99
384.39	791.10
384.58	791.10
384.78	807.48
384.97	880.04
385.17	706.84
385.36	866.00
385.56	854.30
385.75	704.50
385.95	828.55
386.14	936.21
386.34	816.85
386.53	828.55
386.72	802.80
386.92	922.17
387.11	912.81
387.31	791.10
387.50	875.36
387.70	961.96
387.89	873.02
388.09	887.06
388.28	868.34
388.48	912.81
388.67	943.24
388.86	973.66
389.06	943.24
389.25	1006.43
389.45	966.64
389.64	952.60
389.84	1057.92
390.03	959.62
390.22	1008.77
390.42	1013.45
390.61	1055.58
390.81	987.71
391.00	950.26
391.19	1050.90
391.39	1004.09
391.58	1053.24
391.78	1097.71
391.97	1027.50
392.16	1078.99
392.36	971.32
392.55	973.66
392.75	1064.94
392.94	1041.54
393.13	1006.43
393.33	997.07
393.52	978.34
393.71	1097.71
393.91	1081.33
394.10	1135.16
394.29	1114.10
394.49	1130.48
394.68	1254.53
394.88	1151.54
395.07	1275.59
395.26	1214.74
395.46	1217.08
395.65	1259.21
395.84	1200.69
396.04	1322.40
396.23	1270.91
396.42	1158.57
396.62	1196.01
396.81	1266.23
397.00	1280.27
397.19	1329.42
397.39	1287.29
397.58	1394.96
397.77	1336.45
397.97	1308.36
398.16	1474.54
398.35	1542.41
398.55	1378.58
398.74	1394.96
398.93	1568.16
399.12	1416.02
399.32	1469.86
399.51	1462.83
399.70	1561.14
399.90	1516.67
400.09	1511.99
400.28	1598.59
400.47	1523.69
400.67	1570.50
400.86	1694.55
401.05	1703.91
401.24	1636.03
401.44	1717.95
401.63	1734.34
401.82	1643.06
402.01	1743.70
402.21	1739.02
402.40	1720.29
402.59	1629.01
402.78	1715.61
402.97	1734.34
403.17	1795.19
403.36	1825.62
403.55	1802.21
403.74	1863.07
403.93	1923.92
404.13	1802.21
404.32	1804.55
404.51	1797.53
404.70	1827.96
404.89	1846.68
405.09	1966.05
405.28	1966.05
405.47	1980.09
405.66	1952.01
405.85	1956.69
406.05	1954.35
406.24	1956.69
406.43	2012.86
406.62	2008.18
406.81	2064.35
407.00	2038.61
407.20	1963.71
407.39	2155.63
407.58	2062.01
407.77	1994.14
407.96	2200.10
408.15	2094.78
408.34	2111.16
408.54	2232.87
408.73	2326.49
408.92	2172.02
409.11	2310.11
409.30	2277.34
409.49	2207.13
409.68	2312.45
409.87	2193.08
410.07	2286.70
410.26	2387.35
410.45	2286.70
410.64	2476.29
410.83	2356.92
411.02	2441.18
411.21	2490.33
411.40	2504.37
411.59	2651.83
411.78	2595.65
411.98	2499.69
412.17	2623.74
412.36	2656.51
412.55	2628.42
412.74	2773.53
412.93	2675.23
413.12	2605.02
413.31	2796.94
413.50	2761.83
413.69	2799.28
413.88	2848.43
414.07	2796.94
414.26	2792.26
414.45	2916.31
414.64	2857.79
414.83	3059.08
415.02	2972.48
415.22	2977.16
415.41	3098.87
415.60	3119.93
415.79	3180.79
415.98	3342.28
416.17	3239.30
416.36	3075.46
416.55	3201.85
416.74	3243.98
416.93	3243.98
417.12	3375.05
417.31	3220.58
417.50	3337.60
417.69	3332.92
417.88	3311.86
418.07	3339.94
418.26	3389.10
418.45	3433.57
418.64	3613.79
418.83	3515.48
419.02	3522.51
419.21	3499.10
419.39	3595.06
419.58	3478.04
419.77	3552.93
419.96	3564.64
420.15	3590.38
420.34	3662.94
420.53	3749.54
420.72	3669.96
420.91	3873.59
421.10	3728.47
421.29	3833.80
421.48	3726.13
421.67	3742.52
421.86	3653.58
422.05	3714.43
422.24	3726.13
422.43	3688.68
422.61	3906.35
422.80	3847.84
422.99	3889.97
423.18	3960.19
423.37	3922.74
423.56	3988.27
423.75	3810.39
423.94	3864.22
424.13	3585.70
424.32	3845.50
424.50	3847.84
424.69	3967.21
424.88	3925.08
425.07	3882.95
425.26	3894.65
425.45	3840.82
425.64	3899.33
425.83	3936.78
426.01	3943.80
426.20	3946.14
426.39	4112.32
426.58	4049.13
426.77	3946.14
426.96	3983.59
427.15	3866.56
427.33	3997.64
427.52	4091.26
427.71	4212.96
427.90	4177.86
428.09	4135.73
428.28	4058.49
428.46	4168.49
428.65	3983.59
428.84	4191.90
429.03	4215.30
429.22	4025.72
429.40	4107.64
429.59	4124.02
429.78	3974.23
429.97	3831.46
430.16	3999.98
430.34	4124.02
430.53	4170.83
430.72	4184.88
430.91	4156.79
431.10	4102.96
431.28	4617.88
431.47	4624.90
431.66	4580.43
431.85	4454.04
432.03	4592.13
432.22	4601.49
432.41	4571.07
432.60	4681.07
432.79	4449.36
432.97	4833.21
433.16	4667.03
433.35	4575.75
433.54	4610.86
433.72	4627.24
433.91	4601.49
434.10	4676.39
434.28	4777.03
434.47	4954.91
434.66	4798.10
434.85	4833.21
435.03	5097.69
435.22	4814.48
435.41	5207.69
435.59	5011.09
435.78	5032.15
435.97	5191.31
436.16	5088.32
436.34	5025.13
436.53	4922.15
436.72	5172.58
436.90	4884.70
437.09	5165.56
437.28	5064.92
437.46	5219.39
437.65	5172.58
437.84	5240.46
438.02	5139.82
438.21	5151.52
438.40	5088.32
438.58	5263.86
438.77	5376.21
438.96	5291.95
439.14	5549.41
439.33	5458.13
439.52	5497.92
439.70	5544.73
439.89	5490.90
440.08	5549.41
440.26	5582.18
440.45	5699.20
440.63	5860.70
440.82	5968.37
441.01	5898.15
441.19	5813.89
441.38	6080.71
441.57	6120.50
441.75	6164.97
441.94	6047.94
442.12	6193.06
442.31	6223.48
442.50	6115.82
442.68	6253.91
442.87	6328.81
443.05	6235.19
443.24	6291.36
443.43	6417.75
443.61	6469.24
443.80	6401.37
443.98	6289.02
444.17	6326.47
444.35	6546.48
444.54	6466.90
444.73	6431.79
444.91	6527.75
445.10	6441.15
445.28	6349.87
445.47	6153.27
445.65	6466.90
445.84	6410.73
446.02	6436.47
446.21	6597.97
446.39	6384.98
446.58	6637.76
446.77	6576.91
446.95	6572.22
447.14	6754.79
447.32	6614.35
447.51	6679.89
447.69	6539.46
447.88	6607.33
448.06	6532.44
448.25	6602.65
448.43	6757.13
448.62	6499.67
448.80	6778.19
448.99	6740.74
449.17	6927.99
449.36	6595.63
449.54	6904.58
449.73	7204.17
449.91	7094.16
450.10	6979.48
450.28	7115.23
450.46	7082.46
450.65	7009.90
450.83	7061.40
451.02	7035.65
451.20	7255.66
451.39	7211.19
451.57	7351.62
451.76	7040.33
451.94	7000.54
452.13	7204.17
452.31	7119.91
452.49	7206.51
452.68	7159.70
452.86	7204.17
453.05	7288.43
453.23	7335.24
453.42	7208.85
453.60	7234.60
453.78	7396.09
453.97	7309.49
454.15	7185.44
454.34	7293.11
454.52	7382.05
454.70	7557.59
454.89	7419.50
455.07	7536.52
455.26	7557.59
455.44	7606.74
455.62	7634.83
455.81	7712.07
455.99	7557.59
456.17	7840.79
456.36	7679.30
456.54	7887.61
456.73	8060.80
456.91	8077.19
457.09	8025.70
457.28	8051.44
457.46	7971.86
457.64	8177.83
457.83	8086.55
458.01	7889.95
458.19	8065.49
458.38	8063.15
458.56	8152.09
458.74	8390.82
458.93	8107.62
459.11	8112.30
459.29	8039.74
459.48	8388.48
459.66	8283.16
459.84	8348.69
460.03	8318.26
460.21	8306.56
460.39	8362.73
460.57	8400.18
460.76	8395.50
460.94	8517.21
461.12	8622.53
461.31	8381.46
461.49	8369.76
461.67	8566.36
461.85	8681.05
462.04	8664.66
462.22	9376.19
462.40	8884.67
462.59	8784.03
462.77	8798.07
462.95	9053.19
463.13	8788.71
463.32	8826.16
463.50	8999.36
463.68	9111.71
463.86	8940.85
464.05	8800.41
464.23	8667.00
464.41	9001.70
464.59	8645.94
464.78	9048.51
464.96	9142.13
465.14	9034.47
465.32	8877.65
465.50	9125.75
465.69	9317.67
465.87	9125.75
466.05	8973.61
466.23	8992.34
466.41	9172.56
466.60	9217.03
466.78	9132.77
466.96	9128.09
467.14	9088.30
467.32	9156.18
467.51	9535.34
467.69	9263.84
467.87	9437.04
468.05	9357.46
468.23	9439.38
468.41	9362.14
468.60	9455.76
468.78	9650.03
468.96	9696.84
469.14	9572.79
469.32	9802.16
469.50	9413.63
469.69	9738.97
469.87	9825.57
470.05	9834.93
470.23	9816.21
470.41	9589.17
470.59	9912.17
470.77	9799.82
470.95	9757.69
471.14	10118.14
471.32	9853.66
471.50	10190.69
471.68	9966.00
471.86	10073.67
472.04	10319.42
472.22	10417.72
472.40	10289.00
472.58	10298.36
472.77	10455.17
472.95	10649.44
473.13	10710.29
473.31	10312.40
473.49	10546.45
473.67	10317.08
473.85	10780.51
474.03	10846.04
474.21	10885.83
474.39	10700.93
474.57	10904.56
474.75	10974.77
474.93	10878.81
475.12	10834.34
475.30	11220.53
475.48	11056.69
475.66	11300.11
475.84	11012.22
476.02	11257.98
476.20	11255.64
476.38	11597.35
476.56	11941.41
476.74	11625.44
476.92	11791.62
477.10	11784.60
477.28	11918.01
477.46	12035.03
477.64	11868.86
477.82	12262.07
478.00	12135.68
478.18	12255.04
478.36	12681.02
478.54	12547.61
478.72	12542.93
478.90	12823.80
479.08	13041.46
479.26	13069.55
479.44	13387.86
479.62	13004.02
479.80	13235.73
479.98	13420.63
480.16	13598.51
480.34	13497.87
480.52	13682.77
480.70	13544.68
480.88	13600.85
481.06	13605.53
481.24	13701.50
481.41	14286.63
481.59	14017.47
481.77	14295.99
481.95	14197.69
482.13	14450.47
482.31	14626.01
482.49	14993.47
482.67	14677.50
482.85	15042.62
483.03	15260.29
483.21	15101.14
483.39	15428.81
483.57	15161.99
483.74	15690.95
483.92	15630.10
484.10	15161.99
484.28	15826.70
484.46	16088.84
484.64	16194.17
484.82	15831.38
485.00	16086.50
485.18	16482.05
485.35	16325.24
485.53	15957.77
485.71	16051.39
485.89	16315.87
486.07	16418.86
486.25	16648.23
486.43	16776.96
486.61	16947.82
486.78	17078.89
486.96	17097.61
487.14	17596.15
487.32	17530.61
487.50	17970.63
487.68	17907.44
487.85	17956.59
488.03	18553.43
488.21	18562.79
488.39	18377.89
488.57	18560.45
488.75	18988.77
488.92	19150.26
489.10	19131.54
489.28	19449.85
489.46	19405.38
489.64	19335.17
489.81	19637.09
489.99	20070.09
490.17	19971.79
490.35	20198.82
490.53	19995.20
490.70	20491.39
490.88	20519.48
491.06	20634.16
491.24	20865.88
491.41	20486.71
491.59	20652.89
491.77	20493.73
491.95	21043.76
492.13	21177.17
492.30	21319.94
492.48	21460.37
492.66	21614.85
492.84	21666.34
493.01	22089.98
493.19	21565.70
493.37	22101.68
493.54	22305.31
493.72	22321.69
493.90	22408.29
494.08	22742.99
494.25	22939.59
494.43	23435.78
494.61	23213.43
494.79	23206.41
494.96	23494.30
495.14	23424.08
495.32	23491.96
495.49	23473.23
495.67	23707.29
495.85	23587.92
496.02	24006.87
496.20	24030.28
496.38	24423.49
496.55	24559.24
496.73	24980.54
496.91	24521.79
497.09	24802.66
497.26	25130.33
497.44	24730.10
497.62	24886.92
497.79	25130.33
497.97	25053.09
498.14	25369.07
498.32	25371.41
498.50	25596.10
498.67	26008.03
498.85	25773.98
499.03	26075.91
499.20	26356.77
499.38	26209.32
499.56	26316.98
499.73	26490.18
499.91	26508.91
500.08	26312.30
500.26	26260.81
500.44	26569.76
500.61	26195.28
500.79	26529.97
500.97	26766.37
501.14	27061.27
501.32	27143.19
501.49	26962.97
501.67	27140.85
501.84	27520.02
502.02	27332.78
502.20	27461.51
502.37	27793.86
502.55	27417.04
502.72	27901.53
502.90	27831.31
503.07	27896.85
503.25	28177.71
503.43	27896.85
503.60	28053.66
503.78	28002.17
503.95	27929.61
504.13	28486.66
504.30	28737.10
504.48	28517.09
504.65	28662.20
504.83	28709.01
505.01	29024.98
505.18	28952.43
505.36	29345.64
505.53	29399.47
505.71	29692.04
505.88	29280.10
506.06	28858.81
506.23	29310.53
506.41	29511.81
506.58	29631.18
506.76	29895.66
506.93	30284.19
507.11	29844.17
507.28	30017.37
507.46	29675.65
507.63	29713.10
507.81	30221.00
507.98	30391.86
508.16	30284.19
508.33	30590.80
508.50	30356.75
508.68	30590.80
508.85	31112.74
509.03	30738.26
509.20	31061.25
509.38	31225.09
509.55	31314.03
509.73	30878.69
509.90	31307.01
510.08	31435.74
510.25	31150.19
510.42	31456.80
510.60	31541.06
510.77	31473.18
510.95	32109.81
511.12	31730.64
511.30	31875.76
511.47	32250.24
511.64	32182.37
511.82	32407.06
511.99	32308.76
512.17	32219.81
512.34	32081.72
512.51	32849.42
512.69	32706.65
512.86	32339.18
513.04	32896.23
513.21	32631.75
513.38	32657.49
513.56	32795.59
513.73	33041.34
513.90	32762.82
514.08	33078.79
514.25	32861.12
514.43	33195.82
514.60	33167.73
514.77	33174.75
514.95	33640.52
515.12	33104.54
515.29	33408.81
515.47	34010.32
515.64	34050.11
515.81	33347.95
515.99	33467.32
516.16	33701.37
516.33	33787.97
516.51	33766.91
516.68	33422.85
516.85	32964.10
517.03	33556.26
517.20	33397.10
517.37	33745.84
517.54	34377.79
517.72	33921.38
517.89	34398.85
518.06	34305.23
518.24	34005.64
518.41	34251.40
518.58	34529.92
518.75	34529.92
518.93	34740.57
519.10	34405.88
519.27	35009.73
519.45	34845.90
519.62	35154.85
519.79	34976.97
519.96	35604.23
520.14	35775.09
520.31	35243.79
520.48	35770.41
520.65	35419.33
520.83	36126.17
521.00	35936.59
521.17	35854.67
521.34	35835.94
521.52	36112.13
521.69	36416.40
521.86	36259.58
522.03	36084.04
522.20	36126.17
522.38	36208.09
522.55	36383.63
522.72	36149.57
522.89	36378.95
523.07	36685.56
523.24	36463.21
523.41	36966.42
523.58	36451.50
523.75	37041.32
523.92	37376.01
524.10	37457.93
524.27	37413.46
524.44	36928.97
524.61	37507.08
524.78	37476.66
524.96	37570.28
525.13	37935.40
525.30	37724.75
525.47	37720.07
525.64	37844.12
525.81	37736.46
525.98	37518.79
526.16	37411.12
526.33	37387.72
526.50	37748.16
526.67	37539.85
526.84	37263.67
527.01	37553.90
527.18	37958.81
527.36	37741.14
527.53	37846.46
527.70	38431.60
527.87	38656.29
528.04	38204.56
528.21	38370.74
528.38	38604.80
528.55	38962.90
528.72	38506.49
528.89	38686.71
529.07	38623.52
529.24	38590.75
529.41	39110.35
529.58	38897.36
529.75	39042.48
529.92	38548.62
530.09	39042.48
530.26	39339.72
530.43	39316.32
530.60	39264.83
530.77	38948.85
530.94	39306.96
531.11	38972.26
531.28	39138.44
531.46	39688.46
531.63	39402.92
531.80	39117.37
531.97	39405.26
532.14	39051.84
532.31	39395.90
532.48	39604.20
532.65	39665.06
532.82	39484.84
532.99	40170.61
533.16	39328.02
533.33	39742.30
533.50	40472.54
533.67	39700.17
533.84	39629.95
534.01	39777.40
534.18	39852.30
534.35	40149.55
534.52	40589.57
534.69	40088.70
534.86	40631.70
535.03	40226.79
535.20	40671.49
535.37	40732.34
535.54	40781.49
535.71	40289.98
535.88	40840.01
536.05	40411.69
536.22	40577.87
536.38	41174.70
536.55	41024.91
536.72	40612.98
536.89	40385.94
537.06	41043.63
537.23	40947.67
537.40	40931.29
537.57	40659.79
537.74	41247.26
537.91	41373.65
538.08	41205.13
538.25	40720.64
538.42	41172.36
538.59	41322.16
538.75	41350.24
538.92	41350.24
539.09	41373.65
539.26	41394.71
539.43	41282.37
539.60	41668.56
539.77	41460.25
539.94	41481.31
540.11	41303.43
540.28	41666.22
540.44	41223.86
540.61	41514.08
540.78	41308.11
540.95	41329.18
541.12	41710.69
541.29	41469.61
541.46	41392.37
541.62	41883.89
541.79	42047.72
541.96	41614.72
542.13	42017.30
542.30	41743.45
542.47	41937.72
542.63	41991.55
542.80	42211.56
542.97	42501.79
543.14	43171.18
543.31	42710.10
543.48	42693.71
543.64	43154.80
543.81	43351.40
543.98	42866.91
544.15	42815.42
544.32	42986.28
544.48	42703.07
544.65	42337.95
544.82	42993.30
544.99	43054.15
545.16	43349.06
545.32	42813.08
545.49	43533.96
545.66	42979.26
545.83	42738.18
546.00	43597.16
546.16	43021.39
546.33	42906.70
546.50	42899.68
546.67	43384.17
546.83	42827.12
547.00	43515.24
547.17	43718.87
547.34	43524.60
547.50	43590.14
547.67	43978.67
547.84	43468.43
548.00	43910.79
548.17	43653.33
548.34	43531.62
548.51	43889.73
548.67	43931.86
548.84	43810.15
549.01	43943.56
549.18	43636.95
549.34	43538.65
549.51	43793.76
549.68	44208.04
549.84	43945.90
550.01	44030.16
550.18	43746.95
550.34	43999.73
550.51	43873.34
550.68	43782.06
550.84	43718.87
551.01	44280.60
551.18	43885.04
551.34	44095.69
551.51	44339.11
551.68	44322.72
551.84	44648.06
552.01	44261.87
552.18	44388.26
552.34	44313.36
552.51	44226.76
552.68	44308.68
552.84	44306.34
553.01	44720.62
553.18	44566.14
553.34	44254.85
553.51	44308.68
553.67	44664.44
553.84	45240.21
554.01	44505.29
554.17	44729.98
554.34	44931.26
554.51	44825.94
554.67	45055.31
554.84	44470.18
555.00	44706.57
555.17	44729.98
555.33	45167.66
555.50	44652.74
555.67	45022.54
555.83	44767.43
556.00	44912.54
556.16	45340.86
556.33	45015.52
556.50	45074.04
556.66	45045.95
556.83	45134.89
556.99	45209.79
557.16	45177.02
557.32	44973.39
557.49	45364.26
557.65	44863.39
557.82	45179.36
557.98	44837.64
558.15	45067.02
558.32	45621.72
558.48	45045.95
558.65	45413.41
558.81	44957.01
558.98	45401.71
559.14	45123.19
559.31	45404.05
559.47	45464.91
559.64	45352.56
559.80	45434.48
559.97	45418.10
560.13	45497.67
560.30	45574.91
560.46	45734.07
560.63	45701.30
560.79	45717.68
560.96	45741.09
561.12	45338.52
561.29	45296.39
561.45	45736.41
561.61	45846.41
561.78	45687.26
561.94	45565.55
562.11	45570.23
562.27	45687.26
562.44	45738.75
562.60	45193.40
562.77	46129.62
562.93	45832.37
563.10	46000.89
563.26	45265.96
563.42	46103.87
563.59	45808.96
563.75	45827.69
563.92	46167.07
564.08	45998.55
564.24	45860.46
564.41	46005.57
564.57	45916.63
564.74	45727.05
564.90	45727.05
565.07	46040.68
565.23	45563.21
565.39	45841.73
565.56	46258.35
565.72	46078.13
565.88	46010.25
566.05	46068.76
566.21	45687.26
566.38	45656.83
566.54	45734.07
566.70	45933.01
566.87	46628.15
567.03	46160.05
567.19	46635.17
567.36	46321.54
567.52	45668.53
567.68	46066.42
567.85	46124.94
568.01	45832.37
568.17	45858.12
568.34	46293.46
568.50	46328.56
568.66	46274.73
568.83	46281.75
568.99	46075.79
569.15	45897.91
569.32	45933.01
569.48	45619.38
569.64	46227.92
569.81	46447.93
569.97	46122.60
570.13	46391.76
570.30	46078.13
570.46	45654.49
570.62	45572.57
570.78	45841.73
570.95	45897.91
571.11	45982.16
571.27	45696.62
571.43	45890.88
571.60	45993.87
571.76	45897.91
571.92	45731.73
572.09	46333.24
572.25	45914.29
572.41	46061.74
572.57	46082.81
572.74	46244.30
572.90	46206.86
573.06	46220.90
573.22	46033.66
573.38	45972.80
573.55	46092.17
573.71	46253.67
573.87	46520.49
574.03	45904.93
574.20	46454.95
574.36	46230.26
574.52	46122.60
574.68	46064.08
574.84	46574.32
575.01	46527.51
575.17	46349.63
575.33	46185.79
575.49	45848.75
575.65	46281.75
575.82	46522.83
575.98	46241.96
576.14	46595.38
576.30	46473.68
576.46	46291.12
576.62	46232.60
576.79	46012.59
576.95	45703.64
577.11	46461.97
577.27	46155.36
577.43	46227.92
577.59	46490.06
577.75	46124.94
577.92	45933.01
578.08	46019.61
578.24	45780.88
578.40	45979.82
578.56	45998.55
578.72	46239.62
578.88	46632.83
579.04	46206.86
579.21	46258.35
579.37	46068.76
579.53	45893.22
579.69	46068.76
579.85	46658.58
580.01	46291.12
580.17	46223.24
580.33	46635.17
580.49	46131.96
580.65	46703.05
580.82	46206.86
580.98	45937.69
581.14	46387.08
581.30	46667.94
581.46	46438.57
581.62	46623.47
581.78	46681.98
581.94	46518.15
582.10	46611.77
582.26	46501.76
582.42	46506.44
582.58	46483.04
582.74	46263.03
582.90	46387.08
583.06	46550.91
583.22	46721.77
583.38	46899.65
583.54	46433.89
583.70	46672.62
583.86	46600.07
584.02	45986.85
584.18	46506.44
584.34	46810.71
584.50	46590.70
584.66	46780.29
584.82	46218.56
584.98	46806.03
585.14	46480.70
585.30	46204.52
585.46	46394.10
585.62	46146.00
585.78	46188.13
585.94	46160.05
586.10	46515.81
586.26	46033.66
586.42	46609.43
586.58	46487.72
586.74	46630.49
586.90	46358.99
587.06	46092.17
587.22	46534.53
587.38	46188.13
587.54	46937.10
587.70	46227.92
587.86	46227.92
588.02	46342.61
588.18	46726.46
588.34	46354.31
588.49	46277.07
588.65	46244.30
588.81	46267.71
588.97	46075.79
589.13	46089.83
589.29	46021.95
589.45	46384.74
589.61	46234.94
589.77	46670.28
589.93	46499.42
