SpectraSuite Data File
++++++++++++++++++++++++++++++++++++
Date: Fri Oct 25 11:26:26 EDT 2013
User: price-jones
Dark Spectrum Present: No
Reference Spectrum Present: No
Number of Sampled Component Spectra: 1
Spectrometers: USB2+H05261
Integration Time (usec): 100000 (USB2+H05261)
Spectra Averaged: 1 (USB2+H05261)
Boxcar Smoothing: 0 (USB2+H05261)
Correct for Electrical Dark: No (USB2+H05261)
Strobe/Lamp Enabled: No (USB2+H05261)
Correct for Detector Non-linearity: No (USB2+H05261)
Correct for Stray Light: No (USB2+H05261)
Number of Pixels in Processed Spectrum: 2048
>>>>>Begin Processed Spectral Data<<<<<
365.73	306.61
365.92	306.61
366.12	306.61
366.32	131.07
366.52	201.29
366.72	149.79
366.91	128.73
367.11	117.03
367.31	133.41
367.51	100.64
367.70	124.05
367.90	147.45
368.10	166.18
368.30	131.07
368.49	138.09
368.69	201.29
368.89	142.77
369.09	107.66
369.28	161.50
369.48	201.29
369.68	152.13
369.87	201.29
370.07	198.95
370.27	205.97
370.47	355.76
370.66	613.22
370.86	688.12
371.06	620.24
371.25	573.43
371.45	699.82
371.65	683.44
371.84	603.86
372.04	603.86
372.24	699.82
372.44	716.20
372.63	711.52
372.83	812.17
373.03	730.25
373.22	791.10
373.42	732.59
373.62	730.25
373.81	833.23
374.01	758.33
374.21	840.25
374.40	781.74
374.60	889.40
374.79	826.21
374.99	814.51
375.19	835.57
375.38	873.02
375.58	777.06
375.78	828.55
375.97	901.11
376.17	985.37
376.37	884.72
376.56	905.79
376.76	880.04
376.95	793.44
377.15	875.36
377.35	973.66
377.54	947.92
377.74	894.08
377.93	915.15
378.13	915.15
378.33	954.94
378.52	931.53
378.72	901.11
378.91	957.28
379.11	968.98
379.31	968.98
379.50	905.79
379.70	990.05
379.89	985.37
380.09	959.62
380.28	929.19
380.48	959.62
380.68	1020.47
380.87	1088.35
381.07	929.19
381.26	1020.47
381.46	1008.77
381.65	1043.88
381.85	1022.81
382.04	1074.31
382.24	1032.18
382.43	1039.20
382.63	1006.43
382.83	1100.05
383.02	1076.65
383.22	1062.60
383.41	1015.79
383.61	1137.50
383.80	1111.75
384.00	1071.97
384.19	1086.01
384.39	1116.44
384.58	1125.80
384.78	1128.14
384.97	1116.44
385.17	1135.16
385.36	1095.37
385.56	1181.97
385.75	1219.42
385.95	1130.48
386.14	1226.44
386.34	1228.78
386.53	1210.06
386.72	1270.91
386.92	1144.52
387.11	1210.06
387.31	1214.74
387.50	1320.06
387.70	1301.34
387.89	1310.70
388.09	1268.57
388.28	1331.76
388.48	1261.55
388.67	1291.98
388.86	1357.51
389.06	1364.53
389.25	1315.38
389.45	1380.92
389.64	1385.60
389.84	1462.83
390.03	1385.60
390.22	1345.81
390.42	1458.15
390.61	1392.62
390.81	1406.66
391.00	1390.28
391.19	1413.68
391.39	1437.09
391.58	1504.96
391.78	1425.39
391.97	1462.83
392.16	1479.22
392.36	1483.90
392.55	1584.54
392.75	1551.78
392.94	1479.22
393.13	1434.75
393.33	1497.94
393.52	1530.71
393.71	1577.52
393.91	1600.93
394.10	1596.25
394.29	1675.82
394.49	1638.38
394.68	1589.22
394.88	1666.46
395.07	1652.42
395.26	1692.21
395.46	1647.74
395.65	1708.59
395.84	1671.14
396.04	1785.83
396.23	1746.04
396.42	1834.98
396.62	1785.83
396.81	1734.34
397.00	1724.97
397.19	1947.33
397.39	1790.51
397.58	1762.42
397.77	1816.26
397.97	1914.56
398.16	1865.41
398.35	1926.26
398.55	1853.70
398.74	1851.36
398.93	1909.88
399.12	1989.46
399.32	1912.22
399.51	1893.49
399.70	2038.61
399.90	2080.74
400.09	1968.39
400.28	2136.91
400.47	1989.46
400.67	2069.03
400.86	2001.16
401.05	2052.65
401.24	2136.91
401.44	2022.22
401.63	2101.80
401.82	2047.97
402.01	2050.31
402.21	2113.50
402.40	2111.16
402.59	2249.25
402.78	2139.25
402.97	2258.62
403.17	2228.19
403.36	2235.21
403.55	2267.98
403.74	2352.24
403.93	2406.07
404.13	2382.67
404.32	2399.05
404.51	2406.07
404.70	2389.69
404.89	2445.86
405.09	2427.14
405.28	2541.82
405.47	2363.94
405.66	2534.80
405.85	2485.65
406.05	2586.29
406.24	2600.34
406.43	2586.29
406.62	2576.93
406.81	2684.59
407.00	2546.50
407.20	2572.25
407.39	2567.57
407.58	2623.74
407.77	2738.43
407.96	2698.64
408.15	2656.51
408.34	2778.22
408.54	2902.26
408.73	2913.97
408.92	2810.98
409.11	2904.60
409.30	2977.16
409.49	2904.60
409.68	3012.27
409.87	2862.48
410.07	3012.27
410.26	3150.36
410.45	3073.12
410.64	3000.57
410.83	3141.00
411.02	3105.89
411.21	3220.58
411.40	3201.85
411.59	3246.32
411.78	3183.13
411.98	3155.04
412.17	3222.92
412.36	3222.92
412.55	3339.94
412.74	3445.27
412.93	3297.81
413.12	3251.00
413.31	3515.48
413.50	3461.65
413.69	3581.02
413.88	3552.93
414.07	3611.45
414.26	3674.64
414.45	3581.02
414.64	3599.74
414.83	3754.22
415.02	3796.35
415.22	3836.14
415.41	3798.69
415.60	3772.94
415.79	3786.99
415.98	3808.05
416.17	3985.93
416.36	4053.81
416.55	3971.89
416.74	4161.47
416.93	3960.19
417.12	4060.83
417.31	4301.90
417.50	4173.18
417.69	4217.65
417.88	4234.03
418.07	4198.92
418.26	4231.69
418.45	4329.99
418.64	4381.48
418.83	4332.33
419.02	4503.19
419.21	4533.62
419.39	4414.25
419.58	4458.72
419.77	4557.02
419.96	4589.79
420.15	4582.77
420.34	4524.26
420.53	4664.69
420.72	4592.13
420.91	4535.96
421.10	4709.16
421.29	4877.68
421.48	4690.43
421.67	4793.42
421.86	4802.78
422.05	4723.20
422.24	4858.95
422.43	4868.31
422.61	4851.93
422.80	5011.09
422.99	4884.70
423.18	4940.87
423.37	5100.03
423.56	4931.51
423.75	4910.44
423.94	4805.12
424.13	4580.43
424.32	4770.01
424.50	4901.08
424.69	5027.47
424.88	5088.32
425.07	4999.38
425.26	4877.68
425.45	4891.72
425.64	4856.61
425.83	4952.57
426.01	5121.09
426.20	4922.15
426.39	5067.26
426.58	4917.47
426.77	5139.82
426.96	5144.50
427.15	5350.46
427.33	5263.86
427.52	4966.62
427.71	5287.27
427.90	5135.14
428.09	5210.03
428.28	5266.21
428.46	5174.92
428.65	5364.51
428.84	5451.11
429.03	5584.52
429.22	5504.94
429.40	5444.09
429.59	5591.54
429.78	5228.76
429.97	5163.22
430.16	5467.49
430.34	5657.07
430.53	5451.11
430.72	5575.16
430.91	5788.14
431.10	5540.05
431.28	5736.65
431.47	5673.46
431.66	5799.85
431.85	5607.92
432.03	6083.05
432.22	5944.96
432.41	6029.22
432.60	5940.28
432.79	6005.81
432.97	6099.44
433.16	5989.43
433.35	5930.92
433.54	5991.77
433.72	6141.57
433.91	6054.97
434.10	6080.71
434.28	5886.45
434.47	6083.05
434.66	6209.44
434.85	6291.36
435.03	6202.42
435.22	6216.46
435.41	6406.05
435.59	6251.57
435.78	6511.37
435.97	6457.54
436.16	6333.49
436.34	6384.98
436.53	6452.86
436.72	6555.84
436.90	6448.18
437.09	6607.33
437.28	6516.05
437.46	6445.84
437.65	6707.98
437.84	6766.49
438.02	6633.08
438.21	6600.31
438.40	6635.42
438.58	6925.65
438.77	6925.65
438.96	6991.18
439.14	7016.93
439.33	7169.06
439.52	7087.14
439.70	7323.54
439.89	7318.86
440.08	7332.90
440.26	7314.17
440.45	7260.34
440.63	7468.65
440.82	7541.21
441.01	7578.65
441.19	7625.47
441.38	7721.43
441.57	7531.84
441.75	7815.05
441.94	7955.48
442.12	7793.98
442.31	8067.83
442.50	8021.02
442.68	7936.76
442.87	8067.83
443.05	7981.23
443.24	8135.70
443.43	8276.13
443.61	8042.08
443.80	8365.07
443.98	8187.19
444.17	7843.14
444.35	8236.35
444.54	8439.97
444.73	8367.42
444.91	8299.54
445.10	8283.16
445.28	8334.65
445.47	8042.08
445.65	8311.24
445.84	8332.31
446.02	8503.17
446.21	8299.54
446.39	8498.49
446.58	8383.80
446.77	8475.08
446.95	8245.71
447.14	8168.47
447.32	8538.27
447.51	8351.03
447.69	8344.01
447.88	8477.42
448.06	8358.05
448.25	8379.12
448.43	8559.34
448.62	8578.06
448.80	8372.10
448.99	8580.40
449.17	8430.61
449.36	8603.81
449.54	8643.60
449.73	8994.68
449.91	8858.93
450.10	8901.06
450.28	9029.79
450.46	8971.27
450.65	9156.18
450.83	9064.89
451.02	8968.93
451.20	9043.83
451.39	8947.87
451.57	9214.69
451.76	9102.34
451.94	9205.33
452.13	9401.93
452.31	9179.58
452.49	9092.98
452.68	9394.91
452.86	9254.48
453.05	9334.06
453.23	9322.35
453.42	9259.16
453.60	9486.19
453.78	9502.58
453.97	9336.40
454.15	9362.14
454.34	9291.93
454.52	9745.99
454.70	9834.93
454.89	9589.17
455.07	9776.42
455.26	9682.80
455.44	9863.02
455.62	9748.33
455.81	9919.19
455.99	10134.52
456.17	9907.49
456.36	9921.53
456.54	9909.83
456.73	10118.14
456.91	10286.65
457.09	10431.77
457.28	10387.30
457.46	10204.74
457.64	10497.30
457.83	10349.85
458.01	10354.53
458.19	10829.66
458.38	10565.18
458.56	10843.70
458.74	10527.73
458.93	10506.66
459.11	10691.57
459.29	10626.03
459.48	10988.82
459.66	10555.82
459.84	10754.76
460.03	10923.28
460.21	10843.70
460.39	10792.21
460.57	10988.82
460.76	11082.44
460.94	11070.73
461.12	11021.58
461.31	10934.98
461.49	11084.78
461.67	11009.88
461.85	11115.20
462.04	11288.40
462.22	11712.04
462.40	11510.75
462.59	11449.90
462.77	11501.39
462.95	11475.65
463.13	11501.39
463.32	11641.82
463.50	11805.66
463.68	11836.09
463.86	11822.05
464.05	11660.55
464.23	11735.45
464.41	11859.49
464.59	11433.52
464.78	12079.50
464.96	11854.81
465.14	12023.33
465.32	11946.09
465.50	11936.73
465.69	12149.72
465.87	12095.89
466.05	11969.50
466.23	12313.56
466.41	11943.75
466.60	12482.08
466.78	12058.44
466.96	12133.34
467.14	12198.87
467.32	12269.09
467.51	12327.60
467.69	12369.73
467.87	12273.77
468.05	12486.76
468.23	12437.61
468.41	12697.41
468.60	12638.89
468.78	12786.35
468.96	12620.17
469.14	12870.61
469.32	12821.45
469.50	12709.11
469.69	12910.40
469.87	13046.15
470.05	13121.04
470.23	13029.76
470.41	13135.09
470.59	13427.65
470.77	13322.33
470.95	13181.90
471.14	13198.28
471.32	13165.51
471.50	13549.36
471.68	13757.67
471.86	13549.36
472.04	13659.37
472.22	14017.47
472.40	13572.77
472.58	13764.69
472.77	14141.52
472.95	13914.48
473.13	14628.35
473.31	13895.76
473.49	14235.14
473.67	14094.71
473.85	14153.22
474.03	14630.69
474.21	14487.92
474.39	14560.47
474.57	14569.83
474.75	14885.81
474.93	14967.73
475.12	14710.27
475.30	14951.34
475.48	14871.76
475.66	15105.82
475.84	14860.06
476.02	15140.93
476.20	15021.56
476.38	15538.82
476.56	15714.36
476.74	15929.69
476.92	15700.31
477.10	15414.77
477.28	16243.32
477.46	16077.14
477.64	16257.36
477.82	16292.47
478.00	16559.29
478.18	16479.71
478.36	16849.52
478.54	17151.45
478.72	16847.18
478.90	17224.00
479.08	17539.97
479.26	17415.93
479.44	17301.24
479.62	17804.46
479.80	17923.82
479.98	17879.35
480.16	18464.49
480.34	18281.92
480.52	18513.64
480.70	18335.76
480.88	18197.67
481.06	18569.81
481.24	18995.79
481.41	19019.19
481.59	18963.02
481.77	19271.97
481.95	19585.60
482.13	19489.64
482.31	19377.30
482.49	19807.95
482.67	19873.49
482.85	20250.32
483.03	20198.82
483.21	20688.00
483.39	20730.12
483.57	20517.14
483.74	20699.70
483.92	21289.51
484.10	21226.32
484.28	21488.46
484.46	21621.87
484.64	22171.89
484.82	21968.27
485.00	22199.98
485.18	22534.68
485.35	22581.49
485.53	22583.83
485.71	23098.75
485.89	23056.62
486.07	23145.56
486.25	23246.20
486.43	23592.60
486.61	23758.78
486.78	23819.63
486.96	24154.33
487.14	24327.53
487.32	24283.06
487.50	24697.33
487.68	24994.58
487.85	24966.49
488.03	25348.00
488.21	25809.09
488.39	25797.38
488.57	25556.31
488.75	25944.84
488.92	26274.85
489.10	26717.22
489.28	26649.34
489.46	26817.86
489.64	26902.12
489.81	27536.40
489.99	27204.05
490.17	27505.98
490.35	27880.46
490.53	28254.95
490.70	28379.00
490.88	27845.35
491.06	28781.57
491.24	28552.20
491.41	28545.17
491.59	29387.77
491.77	29319.89
491.95	29385.43
492.13	29301.17
492.30	29881.62
492.48	29612.46
492.66	29874.60
492.84	30185.89
493.01	30625.91
493.19	30532.29
493.37	31028.48
493.54	30813.15
493.72	31309.35
493.90	31201.68
494.08	31847.67
494.25	32170.66
494.43	31796.18
494.61	31952.99
494.79	32254.92
494.96	32329.82
495.14	32629.41
495.32	33031.98
495.49	33081.13
495.67	33289.44
495.85	33303.48
496.02	33408.81
496.20	33692.01
496.38	33745.84
496.55	33675.63
496.73	34391.83
496.91	34459.71
497.09	34998.03
497.26	34909.09
497.44	34731.21
497.62	34902.07
497.79	35419.33
497.97	35124.42
498.14	35714.23
498.32	35562.10
498.50	36133.19
498.67	36407.03
498.85	36217.45
499.03	36240.86
499.20	36039.57
499.38	36500.65
499.56	36779.18
499.73	36823.65
499.91	36879.82
500.08	37368.99
500.26	37001.53
500.44	37263.67
500.61	37432.19
500.79	37741.14
500.97	38417.55
501.14	38167.12
501.32	38490.11
501.49	38583.73
501.67	38300.53
501.84	39012.05
502.02	38359.04
502.20	38756.93
502.37	39377.17
502.55	39438.03
502.72	39533.99
502.90	39285.89
503.07	39168.87
503.25	39438.03
503.43	39299.94
503.60	39821.87
503.78	39845.28
503.95	40250.19
504.13	40037.20
504.30	40409.35
504.48	40325.09
504.65	40032.52
504.83	40627.02
505.01	40987.46
505.18	40620.00
505.36	40788.52
505.53	41027.25
505.71	41567.91
505.88	41237.90
506.06	41191.09
506.23	41900.27
506.41	41432.16
506.58	42082.83
506.76	41621.75
506.93	42333.27
507.11	42162.41
507.28	42054.75
507.46	42616.47
507.63	42705.41
507.81	42993.30
507.98	42429.23
508.16	43222.67
508.33	42927.77
508.50	43276.51
508.68	43428.64
508.85	43550.35
509.03	43192.25
509.20	43810.15
509.38	44142.50
509.55	44385.92
509.73	44044.20
509.90	44549.76
510.08	44154.21
510.25	44226.76
510.42	44568.48
510.60	44769.77
510.77	44938.29
510.95	45127.87
511.12	44694.87
511.30	44949.99
511.47	45116.17
511.64	45240.21
511.82	45528.10
511.99	45485.97
512.17	45448.52
512.34	45970.46
512.51	46075.79
512.69	46267.71
512.86	45797.26
513.04	46085.15
513.21	46384.74
513.38	46185.79
513.56	46955.83
513.73	46656.24
513.90	46749.86
514.08	46899.65
514.25	47208.61
514.43	47126.69
514.60	46799.01
514.77	47138.39
514.95	47674.37
515.12	46969.87
515.29	47253.08
515.47	47557.35
515.64	47800.76
515.81	47538.62
515.99	47875.66
516.16	47945.87
516.33	48086.31
516.51	48378.87
516.68	48041.84
516.85	48163.54
517.03	48421.00
517.20	48135.46
517.37	48760.38
517.54	48413.98
517.72	48786.13
517.89	48650.38
518.06	48861.02
518.24	49127.84
518.41	48818.89
518.58	49097.42
518.75	49294.02
518.93	49516.37
519.10	48849.32
519.27	49584.25
519.45	49628.72
519.62	49722.34
519.79	49773.83
519.96	49832.35
520.14	49745.75
520.31	50199.81
520.48	49890.86
520.65	50197.47
520.83	50298.11
521.00	50564.93
521.17	50270.03
521.34	50408.12
521.52	50365.99
521.69	50365.99
521.86	51056.45
522.03	51044.74
522.20	51210.92
522.38	51274.12
522.55	51187.52
522.72	51098.58
522.89	51042.40
523.07	51295.18
523.24	51346.67
523.41	51508.17
523.58	51393.48
523.75	51749.24
523.92	51393.48
524.10	51737.54
524.27	51915.42
524.44	51732.86
524.61	52009.04
524.78	51826.48
524.96	51838.18
525.13	52156.50
525.30	52116.71
525.47	52589.50
525.64	52341.40
525.81	52486.51
525.98	52334.38
526.16	52683.12
526.33	52280.55
526.50	52692.48
526.67	52720.57
526.84	53167.61
527.01	52470.13
527.18	52830.57
527.36	52371.83
527.53	52793.12
527.70	53139.52
527.87	53165.27
528.04	52905.47
528.21	53195.70
528.38	53404.00
528.55	53263.57
528.72	53399.32
528.89	53097.39
529.07	53116.12
529.24	53205.06
529.41	53558.48
529.58	53432.09
529.75	53595.93
529.92	53322.08
530.09	53703.59
530.26	53970.41
530.43	53963.39
530.60	53659.12
530.77	53628.69
530.94	54000.84
531.11	53668.48
531.28	54024.25
531.46	53872.11
531.63	54040.63
531.80	54206.81
531.97	54330.86
532.14	54248.94
532.31	53972.75
532.48	54342.56
532.65	54370.64
532.82	54115.53
532.99	54485.33
533.16	54143.61
533.33	54789.60
533.50	54623.42
533.67	54466.61
533.84	54382.35
534.01	54391.71
534.18	54906.63
534.35	55091.53
534.52	54777.90
534.69	55004.93
534.86	54988.55
535.03	54995.57
535.20	54864.50
535.37	55250.69
535.54	55416.86
535.71	55004.93
535.88	55180.47
536.05	55250.69
536.22	55318.56
536.38	55538.57
536.55	55419.20
536.72	55398.14
536.89	55182.81
537.06	55576.02
537.23	55512.83
537.40	55557.30
537.57	55580.70
537.74	55552.62
537.91	55770.28
538.08	55693.05
538.25	55442.61
538.42	55852.20
538.59	55910.72
538.75	55657.94
538.92	55889.65
539.09	56142.43
539.26	56252.44
539.43	56067.53
539.60	55969.23
539.77	56002.00
539.94	56392.87
540.11	56158.81
540.28	56341.38
540.44	56172.86
540.61	56257.12
540.78	56109.66
540.95	56142.43
541.12	56254.78
541.29	56259.46
541.46	56385.85
541.62	56549.68
541.79	56624.58
541.96	56264.14
542.13	56296.91
542.30	56495.85
542.47	56652.67
542.63	56814.16
542.80	56643.30
542.97	56970.98
543.14	56987.36
543.31	56870.34
543.48	57137.16
543.64	57474.20
543.81	57265.89
543.98	57301.00
544.15	57113.75
544.32	57324.40
544.48	57396.96
544.65	57298.65
544.82	57371.21
544.99	57298.65
545.16	57497.60
545.32	57296.31
545.49	57497.60
545.66	57670.80
545.83	57432.07
546.00	57717.61
546.16	57513.98
546.33	57490.58
546.50	57539.73
546.67	57574.84
546.83	57326.74
547.00	57661.44
547.17	57467.17
547.34	57525.69
547.50	57841.66
547.67	57808.89
547.84	57839.32
548.00	57946.98
548.17	58134.23
548.34	57888.47
548.51	58202.10
548.67	58085.07
548.84	57780.81
549.01	57872.09
549.18	57993.79
549.34	57942.30
549.51	58122.52
549.68	58213.80
549.84	58171.67
550.01	58403.39
550.18	58042.95
550.34	58361.26
550.51	58440.84
550.68	58183.38
550.84	58061.67
551.01	58134.23
551.18	58431.47
551.34	58410.41
551.51	58300.40
551.68	58583.61
551.84	58155.29
552.01	58349.56
552.18	58443.18
552.34	58281.68
552.51	58515.73
552.68	58365.94
552.84	58440.84
553.01	58618.72
553.18	58562.54
553.34	58618.72
553.51	58529.78
553.67	58604.67
553.84	58878.52
554.01	58876.18
554.17	58841.07
554.34	58965.12
554.51	58848.09
554.67	59166.40
554.84	58843.41
555.00	58848.09
555.17	58958.09
555.33	59082.14
555.50	58922.99
555.67	58810.64
555.83	58782.55
556.00	59086.82
556.16	59030.65
556.33	59063.42
556.50	59075.12
556.66	59040.01
556.83	59025.97
556.99	59339.60
557.16	59262.36
557.32	59334.92
557.49	59351.30
557.65	59208.53
557.82	59292.79
557.98	59201.51
558.15	59379.39
558.32	59412.16
558.48	59194.49
558.65	59311.52
558.81	59311.52
558.98	59374.71
559.14	59538.55
559.31	59501.10
559.47	59564.29
559.64	59379.39
559.80	59585.36
559.97	59519.82
560.13	59475.35
560.30	59348.96
560.46	59681.32
560.63	59568.97
560.79	59559.61
560.96	59606.42
561.12	59561.95
561.29	59824.09
561.45	59646.21
561.61	59634.51
561.78	59711.75
561.94	59786.64
562.11	59678.98
562.27	59683.66
562.44	59625.15
562.60	59849.84
562.77	59973.89
562.93	59800.69
563.10	59931.76
563.26	59686.00
563.42	60102.62
563.59	59913.03
563.75	59763.24
563.92	59760.90
564.08	59835.80
564.24	59936.44
564.41	59936.44
564.57	60006.65
564.74	59964.52
564.90	59966.87
565.07	59936.44
565.23	60025.38
565.39	59824.09
565.56	60111.98
565.72	60097.94
565.88	60111.98
566.05	59983.25
566.21	59966.87
566.38	59945.80
566.54	60165.81
566.70	60111.98
566.87	60046.44
567.03	60032.40
567.19	60406.89
567.36	60285.18
567.52	60053.47
567.68	60217.30
567.85	60191.56
568.01	60399.86
568.17	60177.51
568.34	60423.27
568.50	60315.61
568.66	60137.72
568.83	60331.99
568.99	60221.98
569.15	60598.81
569.32	60430.29
569.48	60257.09
569.64	60339.01
569.81	60158.79
569.97	60287.52
570.13	60348.37
570.30	60170.49
570.46	60392.84
570.62	60229.01
570.78	60446.68
570.95	60306.24
571.11	60479.44
571.27	60240.71
571.43	60289.86
571.60	60278.16
571.76	60474.76
571.92	60463.06
572.09	60554.34
572.25	60331.99
572.41	60397.52
572.57	60449.02
572.74	60662.00
572.90	60444.33
573.06	60416.25
573.22	60495.83
573.38	60460.72
573.55	60226.66
573.71	60631.58
573.87	60573.06
574.03	60601.15
574.20	60697.11
574.36	60413.91
574.52	60533.28
574.68	60563.70
574.84	60685.41
575.01	60523.91
575.17	60638.60
575.33	60324.97
575.49	60477.10
575.65	60498.17
575.82	60678.39
575.98	60486.46
576.14	60575.40
576.30	60640.94
576.46	60561.36
576.62	60640.94
576.79	60587.11
576.95	60596.47
577.11	60594.13
577.27	60718.18
577.43	60519.23
577.59	60486.46
577.75	60549.66
577.92	60498.17
578.08	60755.63
578.24	60477.10
578.40	60832.86
578.56	60718.18
578.72	60697.11
578.88	61036.49
579.04	60949.89
579.21	60790.73
579.37	60889.04
579.53	60727.54
579.69	60451.36
579.85	60711.16
580.01	60617.53
580.17	60376.46
580.33	60708.82
580.49	60779.03
580.65	60772.01
580.82	60793.07
580.98	60694.77
581.14	60596.47
581.30	60973.30
581.46	60767.33
581.62	60657.32
581.78	60647.96
581.94	60678.39
582.10	60879.67
582.26	60903.08
582.42	60596.47
582.58	60793.07
582.74	60783.71
582.90	60795.42
583.06	60767.33
583.22	60643.28
583.38	60685.41
583.54	60940.53
583.70	60701.79
583.86	60931.17
584.02	60762.65
584.18	60837.54
584.34	60910.10
584.50	60994.36
584.66	60746.26
584.82	60739.24
584.98	61104.37
585.14	60931.17
585.30	60828.18
585.46	60921.80
585.62	60818.82
585.78	61127.77
585.94	60680.73
586.10	60708.82
586.26	60832.86
586.42	61137.13
586.58	60992.02
586.74	60849.25
586.90	60795.42
587.06	61034.15
587.22	60926.49
587.38	60727.54
587.54	60942.87
587.70	61095.00
587.86	60959.25
588.02	60952.23
588.18	60919.46
588.34	60907.76
588.49	60804.78
