SpectraSuite Data File
++++++++++++++++++++++++++++++++++++
Date: Fri Oct 25 11:34:34 EDT 2013
User: price-jones
Dark Spectrum Present: No
Reference Spectrum Present: No
Number of Sampled Component Spectra: 1
Spectrometers: USB2+H05261
Integration Time (usec): 100000 (USB2+H05261)
Spectra Averaged: 1 (USB2+H05261)
Boxcar Smoothing: 0 (USB2+H05261)
Correct for Electrical Dark: No (USB2+H05261)
Strobe/Lamp Enabled: No (USB2+H05261)
Correct for Detector Non-linearity: No (USB2+H05261)
Correct for Stray Light: No (USB2+H05261)
Number of Pixels in Processed Spectrum: 2048
>>>>>Begin Processed Spectral Data<<<<<
365.73	266.82
365.92	266.82
366.12	266.82
366.32	271.50
366.52	166.18
366.72	175.54
366.91	173.20
367.11	166.18
367.31	194.26
367.51	175.54
367.70	138.09
367.90	208.31
368.10	177.88
368.30	259.80
368.49	191.92
368.69	231.71
368.89	168.52
369.09	191.92
369.28	203.63
369.48	191.92
369.68	191.92
369.87	198.95
370.07	266.82
370.27	217.67
370.47	346.40
370.66	500.87
370.86	454.06
371.06	461.09
371.25	550.03
371.45	533.64
371.65	535.98
371.84	557.05
372.04	531.30
372.24	557.05
372.44	580.45
372.63	589.82
372.83	636.63
373.03	510.24
373.22	512.58
373.42	582.79
373.62	669.39
373.81	676.41
374.01	636.63
374.21	599.18
374.40	617.90
374.60	594.50
374.79	697.48
374.99	631.94
375.19	669.39
375.38	606.20
375.58	627.26
375.78	725.57
375.97	688.12
376.17	737.27
376.37	629.60
376.56	660.03
376.76	702.16
376.95	608.54
377.15	683.44
377.35	681.10
377.54	685.78
377.74	627.26
377.93	706.84
378.13	734.93
378.33	674.07
378.52	706.84
378.72	695.14
378.91	671.73
379.11	767.70
379.31	636.63
379.50	645.99
379.70	732.59
379.89	702.16
380.09	760.67
380.28	671.73
380.48	699.82
380.68	746.63
380.87	751.31
381.07	716.20
381.26	809.83
381.46	716.20
381.65	723.23
381.85	774.72
382.04	760.67
382.24	760.67
382.43	784.08
382.63	821.53
382.83	828.55
383.02	800.46
383.22	697.48
383.41	723.23
383.61	823.87
383.80	779.40
384.00	826.21
384.19	767.70
384.39	863.66
384.58	798.12
384.78	828.55
384.97	891.74
385.17	770.04
385.36	863.66
385.56	837.91
385.75	835.57
385.95	809.83
386.14	854.30
386.34	847.27
386.53	833.23
386.72	861.32
386.92	781.74
387.11	835.57
387.31	952.60
387.50	915.15
387.70	854.30
387.89	882.38
388.09	917.49
388.28	917.49
388.48	915.15
388.67	947.92
388.86	884.72
389.06	842.59
389.25	903.45
389.45	910.47
389.64	877.70
389.84	933.87
390.03	971.32
390.22	936.21
390.42	966.64
390.61	910.47
390.81	978.34
391.00	926.85
391.19	950.26
391.39	926.85
391.58	1029.84
391.78	1008.77
391.97	987.71
392.16	943.24
392.36	1064.94
392.55	1039.20
392.75	1074.31
392.94	997.07
393.13	1004.09
393.33	990.05
393.52	1081.33
393.71	1081.33
393.91	1043.88
394.10	1018.13
394.29	1011.11
394.49	1069.62
394.68	1071.97
394.88	1011.11
395.07	1186.65
395.26	1088.35
395.46	1114.10
395.65	1238.14
395.84	1093.03
396.04	1193.67
396.23	1135.16
396.42	1086.01
396.62	1125.80
396.81	1167.93
397.00	1158.57
397.19	1261.55
397.39	1160.91
397.58	1205.38
397.77	1219.42
397.97	1219.42
398.16	1165.59
398.35	1256.87
398.55	1303.68
398.74	1348.15
398.93	1287.29
399.12	1212.40
399.32	1282.61
399.51	1200.69
399.70	1364.53
399.90	1310.70
400.09	1350.49
400.28	1378.58
400.47	1219.42
400.67	1378.58
400.86	1235.80
401.05	1427.73
401.24	1369.21
401.44	1439.43
401.63	1406.66
401.82	1413.68
402.01	1306.02
402.21	1378.58
402.40	1385.60
402.59	1437.09
402.78	1427.73
402.97	1453.47
403.17	1540.07
403.36	1474.54
403.55	1425.39
403.74	1458.15
403.93	1465.18
404.13	1549.43
404.32	1495.60
404.51	1554.12
404.70	1643.06
404.89	1565.82
405.09	1631.35
405.28	1675.82
405.47	1593.90
405.66	1626.67
405.85	1664.12
406.05	1650.08
406.24	1689.87
406.43	1633.69
406.62	1727.32
406.81	1811.57
407.00	1659.44
407.20	1661.78
407.39	1797.53
407.58	1699.23
407.77	1809.23
407.96	1729.66
408.15	1846.68
408.34	1727.32
408.54	1895.83
408.73	1811.57
408.92	1900.52
409.11	1736.68
409.30	1898.17
409.49	1844.34
409.68	1937.96
409.87	1963.71
410.07	1884.13
410.26	1937.96
410.45	1970.73
410.64	1996.48
410.83	1952.01
411.02	1994.14
411.21	2115.84
411.40	2069.03
411.59	2122.87
411.78	2146.27
411.98	2214.15
412.17	2143.93
412.36	2160.31
412.55	2176.70
412.74	2253.94
412.93	2193.08
413.12	2169.68
413.31	2443.52
413.50	2356.92
413.69	2232.87
413.88	2448.20
414.07	2480.97
414.26	2417.77
414.45	2401.39
414.64	2464.58
414.83	2502.03
415.02	2476.29
415.22	2509.05
415.41	2640.12
415.60	2502.03
415.79	2609.70
415.98	2686.94
416.17	2614.38
416.36	2590.97
416.55	2562.89
416.74	2708.00
416.93	2630.76
417.12	2708.00
417.31	2649.49
417.50	2754.81
417.69	2832.05
417.88	2801.62
418.07	2855.45
418.26	2839.07
418.45	2939.71
418.64	3038.02
418.83	2860.13
419.02	2862.48
419.21	2981.84
419.39	3012.27
419.58	2953.76
419.77	2918.65
419.96	3047.38
420.15	3096.53
420.34	3087.17
420.53	2932.69
420.72	3040.36
420.91	3089.51
421.10	3180.79
421.29	3260.37
421.48	3131.64
421.67	3236.96
421.86	3185.47
422.05	3138.66
422.24	3180.79
422.43	3300.16
422.61	3220.58
422.80	3295.47
422.99	3185.47
423.18	3274.41
423.37	3234.62
423.56	3265.05
423.75	3279.09
423.94	3105.89
424.13	2967.80
424.32	3180.79
424.50	3236.96
424.69	3286.11
424.88	3435.91
425.07	3215.90
425.26	3222.92
425.45	3281.43
425.64	3349.31
425.83	3279.09
426.01	3337.60
426.20	3229.94
426.39	3304.84
426.58	3346.97
426.77	3468.67
426.96	3510.80
427.15	3375.05
427.33	3382.07
427.52	3290.79
427.71	3435.91
427.90	3363.35
428.09	3396.12
428.28	3454.63
428.46	3555.27
428.65	3487.40
428.84	3599.74
429.03	3655.92
429.22	3463.99
429.40	3611.45
429.59	3550.59
429.78	3527.19
429.97	3492.08
430.16	3681.66
430.34	3768.26
430.53	3911.04
430.72	3868.91
430.91	3728.47
431.10	3667.62
431.28	3765.92
431.47	3889.97
431.66	3927.42
431.85	3693.37
432.03	3801.03
432.22	3976.57
432.41	3871.25
432.60	3960.19
432.79	3964.87
432.97	3922.74
433.16	3873.59
433.35	3882.95
433.54	3985.93
433.72	3995.29
433.91	4112.32
434.10	4051.47
434.28	3990.61
434.47	4196.58
434.66	4210.62
434.85	4173.18
435.03	4109.98
435.22	4088.92
435.41	4318.29
435.59	4217.65
435.78	4198.92
435.97	4269.14
436.16	4011.68
436.34	4290.20
436.53	4294.88
436.72	4358.08
436.90	4264.46
437.09	4315.95
437.28	4070.19
437.46	4411.91
437.65	4402.55
437.84	4470.42
438.02	4432.97
438.21	4421.27
438.40	4376.80
438.58	4568.73
438.77	4606.17
438.96	4428.29
439.14	4517.23
439.33	4491.49
439.52	4713.84
439.70	4788.74
439.89	4774.69
440.08	4898.74
440.26	4746.61
440.45	4770.01
440.63	4793.42
440.82	4842.57
441.01	4903.42
441.19	4933.85
441.38	5102.37
441.57	5069.60
441.75	4973.64
441.94	5022.79
442.12	5165.56
442.31	5200.67
442.50	5158.54
442.68	5100.03
442.87	5118.75
443.05	5275.57
443.24	5238.12
443.43	5083.64
443.61	5195.99
443.80	5490.90
443.98	5088.32
444.17	4975.98
444.35	5301.31
444.54	5500.26
444.73	5228.76
444.91	5432.38
445.10	5502.60
445.28	5444.09
445.47	5341.10
445.65	5460.47
445.84	5549.41
446.02	5371.53
446.21	5394.93
446.39	5380.89
446.58	5425.36
446.77	5350.46
446.95	5404.30
447.14	5387.91
447.32	5572.82
447.51	5502.60
447.69	5486.22
447.88	5310.68
448.06	5530.69
448.25	5614.95
448.43	5460.47
448.62	5575.16
448.80	5621.97
448.99	5577.50
449.17	5685.16
449.36	5572.82
449.54	5631.33
449.73	5820.91
449.91	5809.21
450.10	5827.93
450.28	5940.28
450.46	5781.12
450.65	5792.83
450.83	5966.03
451.02	5799.85
451.20	6085.39
451.39	6017.52
451.57	5809.21
451.76	5820.91
451.94	5951.98
452.13	6059.65
452.31	5975.39
452.49	5783.46
452.68	6038.58
452.86	5937.94
453.05	6143.91
453.23	6050.28
453.42	6092.41
453.60	6019.86
453.78	6214.12
453.97	6160.29
454.15	6078.37
454.34	6136.88
454.52	6263.27
454.70	6148.59
454.89	6305.40
455.07	6286.68
455.26	6249.23
455.44	6326.47
455.62	6352.21
455.81	6296.04
455.99	6590.95
456.17	6532.44
456.36	6623.72
456.54	6518.39
456.73	6651.80
456.91	6719.68
457.09	6686.91
457.28	6890.54
457.46	6707.98
457.64	6705.63
457.83	6661.16
458.01	6768.83
458.19	6703.29
458.38	6616.69
458.56	6759.47
458.74	6752.45
458.93	6745.42
459.11	7033.31
459.29	6881.18
459.48	7035.65
459.66	6843.73
459.84	6953.73
460.03	7077.78
460.21	7021.61
460.39	7035.65
460.57	7094.16
460.76	7014.59
460.94	7276.73
461.12	7187.79
461.31	7000.54
461.49	6965.43
461.67	7215.87
461.85	7438.22
462.04	7279.07
462.22	7492.05
462.40	7353.96
462.59	7220.55
462.77	7358.64
462.95	7351.62
463.13	7569.29
463.32	7529.50
463.50	7653.55
463.68	7555.25
463.86	7478.01
464.05	7445.24
464.23	7513.12
464.41	7555.25
464.59	7506.10
464.78	7836.11
464.96	7716.75
465.14	7515.46
465.32	7789.30
465.50	7840.79
465.69	7840.79
465.87	7779.94
466.05	7709.72
466.23	7882.92
466.41	7915.69
466.60	7602.06
466.78	7768.24
466.96	7899.31
467.14	7665.25
467.32	7943.78
467.51	8107.62
467.69	7934.42
467.87	7868.88
468.05	8084.21
468.23	7950.80
468.41	7948.46
468.60	7950.80
468.78	7983.57
468.96	8009.31
469.14	8091.23
469.32	8301.88
469.50	8198.90
469.69	8500.83
469.87	8402.52
470.05	8449.33
470.23	8383.80
470.41	8411.89
470.59	8348.69
470.77	8250.39
470.95	8432.95
471.14	8547.64
471.32	8397.84
471.50	8512.53
471.68	8617.85
471.86	8744.24
472.04	8594.45
472.22	8961.91
472.40	8688.07
472.58	8823.82
472.77	8947.87
472.95	8917.44
473.13	9191.28
473.31	8786.37
473.49	9130.43
473.67	8851.91
473.85	9097.66
474.03	9460.45
474.21	9027.45
474.39	9525.98
474.57	9315.33
474.75	9341.08
474.93	9563.43
475.12	9664.07
475.30	9675.77
475.48	9479.17
475.66	9635.99
475.84	9460.45
476.02	9575.13
476.20	9713.22
476.38	9933.23
476.56	10176.65
476.74	9956.64
476.92	9898.13
477.10	10047.92
477.28	10328.78
477.46	10195.37
477.64	10171.97
477.82	10406.02
478.00	10635.39
478.18	10675.18
478.36	10537.09
478.54	10967.75
478.72	10700.93
478.90	10979.45
479.08	11215.85
479.26	11206.48
479.44	11164.36
479.62	11396.07
479.80	11332.87
479.98	11396.07
480.16	11573.95
480.34	11625.44
480.52	11419.47
480.70	11894.60
480.88	11599.70
481.06	11772.89
481.24	11812.68
481.41	11974.18
481.59	12161.42
481.77	12248.02
481.95	11999.93
482.13	12304.20
482.31	12402.50
482.49	12585.06
482.67	12741.88
482.85	12697.41
483.03	12802.73
483.21	13249.77
483.39	13139.77
483.57	13107.00
483.74	13432.33
483.92	13275.52
484.10	13359.78
484.28	13710.86
484.46	13675.75
484.64	13825.54
484.82	13804.48
485.00	13958.96
485.18	14352.16
485.35	14501.96
485.53	14160.24
485.71	14403.66
485.89	14518.34
486.07	14492.60
486.25	14420.04
486.43	14860.06
486.61	14958.36
486.78	14890.49
486.96	15133.90
487.14	15403.07
487.32	15154.97
487.50	15690.95
487.68	15503.71
487.85	15527.11
488.03	15756.49
488.21	16023.31
488.39	16304.17
488.57	16142.67
488.75	16173.10
488.92	16561.63
489.10	16587.38
489.28	16666.95
489.46	16868.24
489.64	16933.78
489.81	17399.54
489.99	17114.00
490.17	17296.56
490.35	17341.03
490.53	17369.12
490.70	17748.28
490.88	17455.72
491.06	18099.36
491.24	17930.84
491.41	17764.67
491.59	18288.95
491.77	18302.99
491.95	18450.44
492.13	18668.11
492.30	18572.15
492.48	18789.82
492.66	18726.63
492.84	18738.33
493.01	19140.90
493.19	19389.00
493.37	19606.67
493.54	19391.34
493.72	19786.89
493.90	19494.32
494.08	19604.33
494.25	20208.19
494.43	20184.78
494.61	20215.21
494.79	20198.82
494.96	20318.19
495.14	20421.17
495.32	20357.98
495.49	20444.58
495.67	20629.48
495.85	20987.58
496.02	21088.23
496.20	21528.25
496.38	21008.65
496.55	21184.19
496.73	21612.51
496.91	21596.12
497.09	21788.05
497.26	21774.00
497.44	21783.37
497.62	21792.73
497.79	22134.45
497.97	21879.33
498.14	22513.61
498.32	22654.05
498.50	22632.98
498.67	22693.83
498.85	22850.65
499.03	22850.65
499.20	22944.27
499.38	22845.97
499.56	23138.54
499.73	23454.51
499.91	23274.29
500.08	23171.30
500.26	23304.71
500.44	23253.22
500.61	23873.46
500.79	23501.32
500.97	23847.72
501.14	23693.24
501.32	23899.21
501.49	24283.06
501.67	24126.24
501.84	24467.96
502.02	24100.50
502.20	24704.35
502.37	24308.80
502.55	24479.66
502.72	24638.82
502.90	24533.50
503.07	24746.48
503.25	25013.31
503.43	24868.19
503.60	25146.72
503.78	25291.83
503.95	24837.76
504.13	25127.99
504.30	25516.52
504.48	25362.04
504.65	25230.98
504.83	25631.21
505.01	25788.02
505.18	25315.23
505.36	25841.85
505.53	25724.83
505.71	26363.79
505.88	25862.92
506.06	26019.74
506.23	26576.78
506.41	26368.48
506.58	26302.94
506.76	26274.85
506.93	26490.18
507.11	26436.35
507.28	26665.72
507.46	26757.00
507.63	27026.17
507.81	27208.73
507.98	26677.43
508.16	27035.53
508.33	27112.77
508.50	27255.54
508.68	27213.41
508.85	27414.69
509.03	27438.10
509.20	27454.48
509.38	27498.95
509.55	27702.58
509.73	27941.32
509.90	27861.74
510.08	28364.95
510.25	27861.74
510.42	28184.73
510.60	28318.14
510.77	27995.15
510.95	28402.40
511.12	27988.13
511.30	28641.14
511.47	28701.99
511.64	28828.38
511.82	29027.32
511.99	28739.44
512.17	29125.63
512.34	28851.78
512.51	29472.03
512.69	29450.96
512.86	29383.09
513.04	29298.83
513.21	29486.07
513.38	29919.07
513.56	29757.57
513.73	29713.10
513.90	29355.00
514.08	29446.28
514.25	29970.56
514.43	29715.44
514.60	29909.71
514.77	29837.15
514.95	30305.26
515.12	30110.99
515.29	30150.78
515.47	30410.58
515.64	30391.86
515.81	30419.94
515.99	30794.43
516.16	30787.41
516.33	30361.43
516.51	30831.88
516.68	30487.82
516.85	30707.83
517.03	30881.03
517.20	31342.11
517.37	30974.65
517.54	31143.17
517.72	31358.50
517.89	31353.82
518.06	31068.27
518.24	31208.70
518.41	31688.51
518.58	31618.30
518.75	31424.03
518.93	31824.26
519.10	31484.89
519.27	31903.84
519.45	31468.50
519.62	31840.65
519.79	31910.86
519.96	31814.90
520.14	32315.78
520.31	32140.24
520.48	32095.77
520.65	32367.27
520.83	32456.21
521.00	32828.35
521.17	32601.32
521.34	32694.94
521.52	32596.64
521.69	33048.36
521.86	32926.66
522.03	33034.32
522.20	32994.53
522.38	33191.14
522.55	33083.47
522.72	33237.95
522.89	32800.27
523.07	33347.95
523.24	33689.67
523.41	33722.44
523.58	33486.04
523.75	33617.11
523.92	33577.33
524.10	33806.70
524.27	33991.60
524.44	34167.14
524.61	33818.40
524.78	33998.62
524.96	34171.82
525.13	34417.58
525.30	34651.63
525.47	34211.61
525.64	33993.94
525.81	34827.17
525.98	34286.51
526.16	34501.84
526.33	34522.90
526.50	34492.47
526.67	34607.16
526.84	34204.59
527.01	34522.90
527.18	34398.85
527.36	34778.02
527.53	35133.78
527.70	35208.68
527.87	35145.48
528.04	34845.90
528.21	35091.65
528.38	35452.09
528.55	35625.29
528.72	35309.32
528.89	35386.56
529.07	35175.91
529.24	35388.90
529.41	35782.11
529.58	35835.94
529.75	35592.53
529.92	36144.89
530.09	35728.28
530.26	35803.17
530.43	35861.69
530.60	35880.41
530.77	35959.99
530.94	36100.42
531.11	35665.08
531.28	36201.07
531.46	36397.67
531.63	36360.22
531.80	36254.90
531.97	36404.69
532.14	36065.31
532.31	36467.89
532.48	36648.11
532.65	36594.28
532.82	36341.50
532.99	36727.69
533.16	36371.92
533.33	36678.54
533.50	37057.70
533.67	36886.84
533.84	36996.85
534.01	36854.08
534.18	36917.27
534.35	37174.73
534.52	37116.22
534.69	37352.61
534.86	37284.73
535.03	37546.87
535.20	37628.79
535.37	37439.21
535.54	37799.65
535.71	37104.51
535.88	37790.29
536.05	37647.52
536.22	37816.04
536.38	37860.51
536.55	37874.55
536.72	37738.80
536.89	37530.49
537.06	37551.56
537.23	38061.79
537.40	37907.32
537.57	37701.35
537.74	38108.60
537.91	38211.59
538.08	38185.84
538.25	37752.84
538.42	38209.25
538.59	38644.59
538.75	38185.84
538.92	38754.59
539.09	38857.57
539.26	38492.45
539.43	38660.97
539.60	38565.01
539.77	38983.96
539.94	38459.68
540.11	38979.28
540.28	38785.02
540.44	38780.34
540.61	38745.23
540.78	38904.38
540.95	39084.61
541.12	38387.13
541.29	39168.87
541.46	38902.04
541.62	39026.09
541.79	39328.02
541.96	39171.21
542.13	39028.43
542.30	39079.92
542.47	39210.99
542.63	39040.14
542.80	38937.15
542.97	40055.93
543.14	40081.67
543.31	39711.87
543.48	39894.43
543.64	39885.07
543.81	39580.80
543.98	39868.69
544.15	39908.47
544.32	40430.41
544.48	40432.75
544.65	40252.53
544.82	40023.16
544.99	40046.57
545.16	40364.88
545.32	40048.91
545.49	40491.27
545.66	40627.02
545.83	40177.64
546.00	40814.26
546.16	40570.85
546.33	40329.77
546.50	40287.64
546.67	40837.67
546.83	40526.38
547.00	40013.80
547.17	40304.02
547.34	40744.05
547.50	41071.72
547.67	40910.22
547.84	40999.16
548.00	40856.39
548.17	41273.01
548.34	40701.92
548.51	41331.52
548.67	41045.97
548.84	41127.89
549.01	41155.98
549.18	41003.85
549.34	41228.54
549.51	41453.23
549.68	41303.43
549.84	41537.49
550.01	41706.01
550.18	41291.73
550.34	41493.02
550.51	41642.81
550.68	42197.52
550.84	41109.17
551.01	41888.57
551.18	41738.77
551.34	41610.04
551.51	41605.36
551.68	41612.38
551.84	41834.74
552.01	41478.97
552.18	41776.22
552.34	42021.98
552.51	42160.07
552.68	41703.67
552.84	41958.78
553.01	41874.52
553.18	41998.57
553.34	42003.25
553.51	42258.37
553.67	42012.62
553.84	42370.72
554.01	42160.07
554.17	41998.57
554.34	42134.32
554.51	42253.69
554.67	42829.46
554.84	41907.29
555.00	42429.23
555.17	42155.39
555.33	42375.40
555.50	42398.80
555.67	42656.26
555.83	42370.72
556.00	43054.15
556.16	43154.80
556.33	42611.79
556.50	42761.59
556.66	42848.19
556.83	42557.96
556.99	42967.55
557.16	42904.36
557.32	42469.02
557.49	43182.88
557.65	42930.11
557.82	42794.36
557.98	42890.32
558.15	42677.33
558.32	43159.48
558.48	42501.79
558.65	42927.77
558.81	42869.25
558.98	42944.15
559.14	43152.46
559.31	43466.09
559.47	43072.88
559.64	43332.68
559.80	43323.32
559.97	43475.45
560.13	43208.63
560.30	43377.15
560.46	43213.31
560.63	43964.62
560.79	43931.86
560.96	43470.77
561.12	43917.81
561.29	43363.11
561.45	43789.08
561.61	43395.87
561.78	44018.46
561.94	43402.89
562.11	43297.57
562.27	43491.83
562.44	43494.18
562.60	43613.54
562.77	43901.43
562.93	43536.30
563.10	44025.48
563.26	43735.25
563.42	43966.96
563.59	43826.53
563.75	43653.33
563.92	43716.53
564.08	43882.70
564.24	43723.55
564.41	43931.86
564.57	43344.38
564.74	44137.82
564.90	43821.85
565.07	43770.36
565.23	44011.43
565.39	43777.38
565.56	44357.83
565.72	43889.73
565.88	43999.73
566.05	44378.90
566.21	43758.66
566.38	44030.16
566.54	44053.56
566.70	44006.75
566.87	43826.53
567.03	43875.68
567.19	44144.84
567.36	43936.54
567.52	44229.10
567.68	44835.30
567.85	44081.65
568.01	44196.34
568.17	44245.49
568.34	44516.99
568.50	44589.55
568.66	43988.03
568.83	44325.07
568.99	44580.18
569.15	44432.73
569.32	43917.81
569.48	44149.53
569.64	44650.40
569.81	44460.82
569.97	44568.48
570.13	44612.95
570.30	43934.20
570.46	44383.58
570.62	44402.30
570.78	44746.36
570.95	44662.10
571.11	44818.92
571.27	44458.48
571.43	44449.11
571.60	44186.97
571.76	44289.96
571.92	44247.83
572.09	44388.26
572.25	44439.75
572.41	44507.63
572.57	44493.58
572.74	44959.35
572.90	44774.45
573.06	44570.82
573.22	44617.63
573.38	45172.34
573.55	44989.78
573.71	45258.94
573.87	44776.79
574.03	44582.52
574.20	44823.60
574.36	44374.22
574.52	44746.36
574.68	44271.23
574.84	45127.87
575.01	45081.06
575.17	44938.29
575.33	44608.27
575.49	44957.01
575.65	45003.82
575.82	44856.37
575.98	44383.58
576.14	44687.85
576.30	45235.53
576.46	44765.09
576.62	44863.39
576.79	44720.62
576.95	44994.46
577.11	44615.29
577.27	45111.49
577.43	44973.39
577.59	45010.84
577.75	44818.92
577.92	44367.20
578.08	44781.47
578.24	45015.52
578.40	44966.37
578.56	44879.77
578.72	44818.92
578.88	45186.38
579.04	44837.64
579.21	44737.00
579.37	45179.36
579.53	45052.97
579.69	44729.98
579.85	44865.73
580.01	44917.22
580.17	44636.36
580.33	45485.97
580.49	44828.28
580.65	44811.90
580.82	45010.84
580.98	44814.24
581.14	44903.18
581.30	45177.02
581.46	44952.33
581.62	45181.70
581.78	44839.98
581.94	45090.42
582.10	44535.71
582.26	45174.68
582.42	45301.07
582.58	45186.38
582.74	45099.78
582.90	45043.61
583.06	45551.51
583.22	45235.53
583.38	45144.25
583.54	45191.06
583.70	44610.61
583.86	45640.45
584.02	45045.95
584.18	45441.50
584.34	45371.28
584.50	45373.63
584.66	45418.10
584.82	45277.66
584.98	45535.12
585.14	45390.01
585.30	44811.90
585.46	44966.37
585.62	44985.10
585.78	45471.93
585.94	44814.24
586.10	45525.76
586.26	45336.18
586.42	45148.93
586.58	44994.46
586.74	45221.49
586.90	45485.97
587.06	45155.96
587.22	45277.66
587.38	44933.60
587.54	45720.02
587.70	45612.36
587.86	45471.93
588.02	45242.56
588.18	45184.04
588.34	45338.52
588.49	45172.34
588.65	45247.24
588.81	45558.53
588.97	45668.53
589.13	45116.17
589.29	45530.44
589.45	45614.70
589.61	45673.21
589.77	45132.55
589.93	45497.67
590.08	45322.13
