SpectraSuite Data File
++++++++++++++++++++++++++++++++++++
Date: Fri Oct 25 10:47:39 EDT 2013
User: price-jones
Dark Spectrum Present: No
Reference Spectrum Present: No
Number of Sampled Component Spectra: 1
Spectrometers: USB2+H05261
Integration Time (usec): 100000 (USB2+H05261)
Spectra Averaged: 1 (USB2+H05261)
Boxcar Smoothing: 0 (USB2+H05261)
Correct for Electrical Dark: No (USB2+H05261)
Strobe/Lamp Enabled: No (USB2+H05261)
Correct for Detector Non-linearity: No (USB2+H05261)
Correct for Stray Light: No (USB2+H05261)
Number of Pixels in Processed Spectrum: 2048
>>>>>Begin Processed Spectral Data<<<<<
365.73	234.05
365.92	234.05
366.12	234.05
366.32	42.13
366.52	14.04
366.72	42.13
366.91	63.19
367.11	56.17
367.31	0.00
367.51	16.38
367.70	88.94
367.90	77.24
368.10	0.00
368.30	51.49
368.49	44.47
368.69	105.32
368.89	102.98
369.09	110.01
369.28	110.01
369.48	74.90
369.68	58.51
369.87	88.94
370.07	65.54
370.27	128.73
370.47	280.86
370.66	451.72
370.86	440.02
371.06	489.17
371.25	486.83
371.45	442.36
371.65	512.58
371.84	468.11
372.04	421.30
372.24	477.47
372.44	475.13
372.63	493.85
372.83	512.58
373.03	468.11
373.22	486.83
373.42	484.49
373.62	477.47
373.81	528.96
374.01	496.19
374.21	627.26
374.40	468.11
374.60	517.26
374.79	519.60
374.99	606.20
375.19	528.96
375.38	554.71
375.58	634.29
375.78	575.77
375.97	587.47
376.17	620.24
376.37	589.82
376.56	594.50
376.76	601.52
376.95	594.50
377.15	650.67
377.35	589.82
377.54	653.01
377.74	580.45
377.93	622.58
378.13	631.94
378.33	636.63
378.52	599.18
378.72	631.94
378.91	720.88
379.11	592.16
379.31	650.67
379.50	641.31
379.70	676.41
379.89	594.50
380.09	657.69
380.28	624.92
380.48	648.33
380.68	709.18
380.87	699.82
381.07	741.95
381.26	702.16
381.46	711.52
381.65	744.29
381.85	678.76
382.04	664.71
382.24	681.10
382.43	713.86
382.63	615.56
382.83	734.93
383.02	692.80
383.22	727.91
383.41	643.65
383.61	835.57
383.80	755.99
384.00	688.12
384.19	692.80
384.39	697.48
384.58	798.12
384.78	781.74
384.97	732.59
385.17	755.99
385.36	791.10
385.56	744.29
385.75	753.65
385.95	753.65
386.14	784.08
386.34	819.19
386.53	816.85
386.72	788.76
386.92	884.72
387.11	882.38
387.31	840.25
387.50	812.17
387.70	880.04
387.89	833.23
388.09	781.74
388.28	828.55
388.48	847.27
388.67	875.36
388.86	835.57
389.06	880.04
389.25	966.64
389.45	889.40
389.64	915.15
389.84	945.58
390.03	898.77
390.22	898.77
390.42	901.11
390.61	919.83
390.81	854.30
391.00	905.79
391.19	990.05
391.39	936.21
391.58	1029.84
391.78	966.64
391.97	971.32
392.16	1006.43
392.36	1029.84
392.55	919.83
392.75	966.64
392.94	997.07
393.13	945.58
393.33	844.93
393.52	1034.52
393.71	1074.31
393.91	1078.99
394.10	1086.01
394.29	1156.22
394.49	1064.94
394.68	1060.26
394.88	1088.35
395.07	1142.18
395.26	1151.54
395.46	1135.16
395.65	1160.91
395.84	1130.48
396.04	1196.01
396.23	1109.41
396.42	1172.61
396.62	1100.05
396.81	1123.46
397.00	1184.31
397.19	1170.27
397.39	1160.91
397.58	1352.83
397.77	1336.45
397.97	1282.61
398.16	1238.14
398.35	1310.70
398.55	1357.51
398.74	1350.49
398.93	1437.09
399.12	1364.53
399.32	1359.85
399.51	1411.34
399.70	1437.09
399.90	1263.89
400.09	1460.49
400.28	1453.47
400.47	1348.15
400.67	1406.66
400.86	1460.49
401.05	1465.18
401.24	1497.94
401.44	1507.30
401.63	1563.48
401.82	1551.78
402.01	1444.11
402.21	1465.18
402.40	1544.75
402.59	1598.59
402.78	1547.09
402.97	1511.99
403.17	1636.03
403.36	1526.03
403.55	1657.10
403.74	1593.90
403.93	1643.06
404.13	1671.14
404.32	1689.87
404.51	1713.27
404.70	1755.40
404.89	1739.02
405.09	1687.53
405.28	1825.62
405.47	1694.55
405.66	1764.76
405.85	1830.30
406.05	1734.34
406.24	1802.21
406.43	1790.51
406.62	1879.45
406.81	1947.33
407.00	1867.75
407.20	1928.60
407.39	1886.47
407.58	1956.69
407.77	1975.41
407.96	1930.94
408.15	1898.17
408.34	1970.73
408.54	2008.18
408.73	1919.24
408.92	2087.76
409.11	1996.48
409.30	2104.14
409.49	2040.95
409.68	2090.10
409.87	2108.82
410.07	2143.93
410.26	2066.69
410.45	2066.69
410.64	2202.44
410.83	2235.21
411.02	2284.36
411.21	2296.07
411.40	2368.62
411.59	2237.55
411.78	2286.70
411.98	2363.94
412.17	2424.80
412.36	2345.22
412.55	2403.73
412.74	2471.61
412.93	2459.90
413.12	2487.99
413.31	2525.44
413.50	2509.05
413.69	2523.10
413.88	2525.44
414.07	2654.17
414.26	2628.42
414.45	2675.23
414.64	2670.55
414.83	2675.23
415.02	2693.96
415.22	2750.13
415.41	2761.83
415.60	2686.94
415.79	2808.64
415.98	2902.26
416.17	2890.56
416.36	2972.48
416.55	3002.91
416.74	2897.58
416.93	2860.13
417.12	2841.41
417.31	2965.46
417.50	3087.17
417.69	3098.87
417.88	3023.97
418.07	3164.40
418.26	3089.51
418.45	3206.53
418.64	3251.00
418.83	3295.47
419.02	3213.56
419.21	3309.52
419.39	3290.79
419.58	3297.81
419.77	3384.41
419.96	3288.45
420.15	3389.10
420.34	3225.26
420.53	3328.24
420.72	3431.23
420.91	3545.91
421.10	3480.38
421.29	3583.36
421.48	3447.61
421.67	3361.01
421.86	3400.80
422.05	3478.04
422.24	3403.14
422.43	3506.12
422.61	3578.68
422.80	3634.85
422.99	3669.96
423.18	3583.36
423.37	3550.59
423.56	3459.31
423.75	3522.51
423.94	3555.27
424.13	3288.45
424.32	3442.93
424.50	3667.62
424.69	3609.11
424.88	3646.55
425.07	3555.27
425.26	3592.72
425.45	3667.62
425.64	3698.05
425.83	3609.11
426.01	3728.47
426.20	3691.02
426.39	3548.25
426.58	3641.87
426.77	3583.36
426.96	3742.52
427.15	3613.79
427.33	3620.81
427.52	3639.53
427.71	3803.37
427.90	3751.88
428.09	3845.50
428.28	3845.50
428.46	3803.37
428.65	3768.26
428.84	3889.97
429.03	3985.93
429.22	3758.90
429.40	3864.22
429.59	3794.01
429.78	3604.42
429.97	3688.68
430.16	3733.15
430.34	3723.79
430.53	3822.09
430.72	3885.29
430.91	4070.19
431.10	4135.73
431.28	4194.24
431.47	4088.92
431.66	4079.55
431.85	4138.07
432.03	4124.02
432.22	4269.14
432.41	4266.80
432.60	4180.20
432.79	4227.01
432.97	4292.54
433.16	4329.99
433.35	4245.73
433.54	4360.42
433.72	4280.84
433.91	4325.31
434.10	4283.18
434.28	4283.18
434.47	4341.69
434.66	4554.68
434.85	4400.21
435.03	4599.15
435.22	4538.30
435.41	4739.58
435.59	4559.36
435.78	4685.75
435.97	4767.67
436.16	4564.04
436.34	4521.92
436.53	4713.84
436.72	4741.93
436.90	4528.94
437.09	4788.74
437.28	4734.90
437.46	4802.78
437.65	4690.43
437.84	4833.21
438.02	4767.67
438.21	4713.84
438.40	4615.54
438.58	4828.53
438.77	4952.57
438.96	4863.63
439.14	4966.62
439.33	5170.24
439.52	5116.41
439.70	5233.44
439.89	5158.54
440.08	5219.39
440.26	5181.95
440.45	5078.96
440.63	5305.99
440.82	5460.47
441.01	5315.36
441.19	5570.48
441.38	5401.96
441.57	5483.88
441.75	5605.58
441.94	5699.20
442.12	5654.73
442.31	5816.23
442.50	5722.61
442.68	5673.46
442.87	5678.14
443.05	5820.91
443.24	5919.21
443.43	5944.96
443.61	5825.59
443.80	5977.73
443.98	5790.49
444.17	5685.16
444.35	5837.30
444.54	5928.58
444.73	5811.55
444.91	5954.32
445.10	5940.28
445.28	6050.28
445.47	5930.92
445.65	5991.77
445.84	5937.94
446.02	6003.47
446.21	6026.88
446.39	5863.04
446.58	6064.33
446.77	6059.65
446.95	5865.38
447.14	6253.91
447.32	6249.23
447.51	5923.90
447.69	6160.29
447.88	6071.35
448.06	6054.97
448.25	6015.18
448.43	6136.88
448.62	6061.99
448.80	6031.56
448.99	6162.63
449.17	6328.81
449.36	6120.50
449.54	6377.96
449.73	6321.79
449.91	6370.94
450.10	6328.81
450.28	6757.13
450.46	6476.26
450.65	6403.71
450.83	6452.86
451.02	6516.05
451.20	6595.63
451.39	6579.25
451.57	6434.13
451.76	6356.90
451.94	6633.08
452.13	6600.31
452.31	6689.25
452.49	6392.00
452.68	6663.51
452.86	6595.63
453.05	6794.58
453.23	6497.33
453.42	6633.08
453.60	6822.66
453.78	6808.62
453.97	6686.91
454.15	6743.08
454.34	6658.82
454.52	6827.34
454.70	6857.77
454.89	6998.20
455.07	7030.97
455.26	6981.82
455.44	7035.65
455.62	6890.54
455.81	6963.09
455.99	6946.71
456.17	7033.31
456.36	7056.72
456.54	7157.36
456.73	7342.26
456.91	7346.94
457.09	7262.68
457.28	7499.08
457.46	7227.57
457.64	7524.82
457.83	7356.30
458.01	7332.90
458.19	7517.80
458.38	7304.81
458.56	7410.14
458.74	7494.40
458.93	7604.40
459.11	7536.52
459.29	7571.63
459.48	7616.10
459.66	7503.76
459.84	7639.51
460.03	7786.96
460.21	7843.14
460.39	7822.07
460.57	7393.75
460.76	7648.87
460.94	7793.98
461.12	7761.22
461.31	7761.22
461.49	7960.16
461.67	8039.74
461.85	7903.99
462.04	8084.21
462.22	8423.59
462.40	7929.74
462.59	8168.47
462.77	8131.02
462.95	8315.92
463.13	8336.99
463.32	8250.39
463.50	8180.17
463.68	8161.45
463.86	8355.71
464.05	8112.30
464.23	8091.23
464.41	8360.39
464.59	8124.00
464.78	8404.86
464.96	8271.45
465.14	8051.44
465.32	8346.35
465.50	8390.82
465.69	8559.34
465.87	8463.38
466.05	8716.16
466.23	8435.29
466.41	8655.30
466.60	8648.28
466.78	8461.04
466.96	8341.67
467.14	8638.92
467.32	8503.17
467.51	8531.25
467.69	8512.53
467.87	8542.96
468.05	8589.77
468.23	8601.47
468.41	8643.60
468.60	8688.07
468.78	8793.39
468.96	8905.74
469.14	8978.30
469.32	8964.25
469.50	8786.37
469.69	8758.28
469.87	8931.48
470.05	8966.59
470.23	9078.94
470.41	9029.79
470.59	9191.28
470.77	9128.09
470.95	9102.34
471.14	9373.85
471.32	9128.09
471.50	9540.02
471.68	9432.36
471.86	9504.92
472.04	9446.40
472.22	9764.72
472.40	9322.35
472.58	9565.77
472.77	9453.42
472.95	9542.36
473.13	10085.37
473.31	9769.40
473.49	9685.14
473.67	9617.26
473.85	9895.78
474.03	9940.26
474.21	10057.28
474.39	10174.31
474.57	10005.79
474.75	9973.02
474.93	10136.86
475.12	10207.08
475.30	10382.62
475.48	10363.89
475.66	10305.38
475.84	10401.34
476.02	10567.52
476.20	10260.91
476.38	10553.48
476.56	11126.91
476.74	10796.89
476.92	10874.13
477.10	10864.77
477.28	11075.42
477.46	11213.51
477.64	11157.33
477.82	11143.29
478.00	11501.39
478.18	11501.39
478.36	11468.62
478.54	11592.67
478.72	11723.74
478.90	11941.41
479.08	12065.46
479.26	12018.65
479.44	12166.10
479.62	12056.10
479.80	12109.93
479.98	12489.10
480.16	12730.17
480.34	12149.72
480.52	12615.49
480.70	12629.53
480.88	12634.21
481.06	12795.71
481.24	12863.58
481.41	12961.89
481.59	13041.46
481.77	13226.37
481.95	13165.51
482.13	13376.16
482.31	13422.97
482.49	13762.35
482.67	13893.42
482.85	13853.63
483.03	13940.23
483.21	13923.85
483.39	13970.66
483.57	14162.58
483.74	14235.14
483.92	14621.33
484.10	14321.74
484.28	14649.41
484.46	14897.51
484.64	15014.54
484.82	14904.53
485.00	14946.66
485.18	15192.42
485.35	15529.45
485.53	15091.77
485.71	14977.09
485.89	15351.57
486.07	15241.57
486.25	15728.40
486.43	15655.84
486.61	16112.25
486.78	15803.30
486.96	16219.91
487.14	16549.93
487.32	16400.13
487.50	16460.99
487.68	16837.81
487.85	17006.33
488.03	17425.29
488.21	17458.06
488.39	17326.99
488.57	17242.73
488.75	17378.48
488.92	17472.10
489.10	17809.14
489.28	17891.06
489.46	18176.60
489.64	18085.32
489.81	18401.29
489.99	18644.71
490.17	18513.64
490.35	18633.00
490.53	19068.34
490.70	19157.28
490.88	19110.47
491.06	19246.23
491.24	18960.68
491.41	19360.91
491.59	19260.27
491.77	19487.30
491.95	19459.21
492.13	20180.10
492.30	19957.75
492.48	20107.54
492.66	19913.28
492.84	20290.10
493.01	20592.03
493.19	20594.37
493.37	20613.10
493.54	20542.88
493.72	20957.16
493.90	20865.88
494.08	20947.79
494.25	21317.60
494.43	21537.61
494.61	21628.89
494.79	22097.00
494.96	21528.25
495.14	21678.04
495.32	22073.59
495.49	22209.34
495.67	22157.85
495.85	22335.73
496.02	22497.23
496.20	22768.73
496.38	22888.10
496.55	22696.17
496.73	23557.49
496.91	22965.34
497.09	23328.12
497.26	23278.97
497.44	23243.86
497.62	23220.45
497.79	23489.62
497.97	23573.88
498.14	23398.34
498.32	24049.00
498.50	23924.96
498.67	24266.67
498.85	24072.41
499.03	24416.47
499.20	24147.31
499.38	24900.96
499.56	24573.28
499.73	24650.52
499.91	24535.84
500.08	24922.02
500.26	24486.68
500.44	24952.45
500.61	24783.93
500.79	24819.04
500.97	24797.98
501.14	25324.60
501.32	25338.64
501.49	25656.95
501.67	25205.23
501.84	25458.01
502.02	25823.13
502.20	26036.12
502.37	26089.95
502.55	25916.75
502.72	26197.62
502.90	26052.50
503.07	26256.13
503.25	26328.69
503.43	26354.43
503.60	26567.42
503.78	26455.08
503.95	26644.66
504.13	26796.79
504.30	26988.72
504.48	26721.90
504.65	26724.24
504.83	26916.16
505.01	27461.51
505.18	27126.81
505.36	27124.47
505.53	27505.98
505.71	27613.64
505.88	27592.58
506.06	27194.68
506.23	27889.82
506.41	27707.26
506.58	27360.86
506.76	28081.75
506.93	27892.16
507.11	27761.09
507.28	27983.44
507.46	28446.87
507.63	27828.97
507.81	28290.06
507.98	28198.77
508.16	28496.02
508.33	28645.82
508.50	28306.44
508.68	28924.34
508.85	28617.73
509.03	29106.90
509.20	29303.51
509.38	29443.94
509.55	28987.53
509.73	29329.25
509.90	29652.25
510.08	29223.93
510.25	29448.62
510.42	29518.84
510.60	29633.52
510.77	29865.24
510.95	30043.12
511.12	29837.15
511.30	30169.51
511.47	30349.73
511.64	30377.81
511.82	30370.79
511.99	30459.73
512.17	30045.46
512.34	30441.01
512.51	30410.58
512.69	30810.81
512.86	30703.15
513.04	30607.19
513.21	30981.67
513.38	30829.54
513.56	30843.58
513.73	30892.73
513.90	31077.63
514.08	31288.28
514.25	31082.31
514.43	31409.99
514.60	31035.50
514.77	31393.61
514.95	31445.10
515.12	31503.61
515.29	31611.28
515.47	31660.43
515.64	32203.43
515.81	31999.80
515.99	31622.98
516.16	31936.61
516.33	32280.67
516.51	31985.76
516.68	31828.95
516.85	31850.01
517.03	32044.27
517.20	31908.52
517.37	32315.78
517.54	32343.86
517.72	32549.83
517.89	32481.95
518.06	32414.08
518.24	32266.63
518.41	32615.37
518.58	32582.60
518.75	32985.17
518.93	33476.68
519.10	33163.05
519.27	33273.06
519.45	33282.42
519.62	33193.48
519.79	33371.36
519.96	33174.75
520.14	33741.16
520.31	33406.47
520.48	33659.24
520.65	33731.80
520.83	34017.35
521.00	33970.54
521.17	34155.44
521.34	34066.50
521.52	34087.56
521.69	34153.10
521.86	34312.25
522.03	34160.12
522.20	34190.55
522.38	34738.23
522.55	34789.72
522.72	34712.49
522.89	34759.30
523.07	34911.43
523.24	34768.66
523.41	34733.55
523.58	34466.73
523.75	35234.42
523.92	35075.27
524.10	35229.74
524.27	35189.95
524.44	35381.88
524.61	35613.59
524.78	35150.17
524.96	35285.92
525.13	35381.88
525.30	35955.31
525.47	35599.55
525.64	35824.24
525.81	36058.29
525.98	35625.29
526.16	35641.68
526.33	35828.92
526.50	35957.65
526.67	35583.16
526.84	35711.89
527.01	35772.75
527.18	36163.62
527.36	35917.86
527.53	35924.88
527.70	36952.38
527.87	36549.81
528.04	36545.12
528.21	36734.71
528.38	36580.23
528.55	36978.12
528.72	36739.39
528.89	37076.43
529.07	36648.11
529.24	36811.95
529.41	36856.42
529.58	36474.91
529.75	37193.45
529.92	37315.16
530.09	36540.44
530.26	37036.64
530.43	37237.92
530.60	36769.82
530.77	37371.33
530.94	37453.25
531.11	37219.20
531.28	37521.13
531.46	37376.01
531.63	37912.00
531.80	37333.89
531.97	37734.12
532.14	37467.30
532.31	37544.53
532.48	37471.98
532.65	37633.47
532.82	37654.54
532.99	38101.58
533.16	37525.81
533.33	37448.57
533.50	37858.17
533.67	38071.15
533.84	37897.95
534.01	38178.82
534.18	38288.82
534.35	38534.58
534.52	38281.80
534.69	38403.51
534.86	38337.98
535.03	38230.31
535.20	38548.62
535.37	38754.59
535.54	39206.31
535.71	38480.75
535.88	38871.62
536.05	37993.92
536.22	38948.85
536.38	38550.96
536.55	38735.87
536.72	38967.58
536.89	38646.93
537.06	39243.76
537.23	39227.38
537.40	39103.33
537.57	38974.60
537.74	39426.32
537.91	39377.17
538.08	39058.86
538.25	38946.51
538.42	39257.81
538.59	39323.34
538.75	39140.78
538.92	39349.09
539.09	39793.79
539.26	39316.32
539.43	39728.25
539.60	39697.83
539.77	39484.84
539.94	39510.58
540.11	39278.87
540.28	39590.16
540.44	39578.46
540.61	39440.37
540.78	39622.93
540.95	39775.06
541.12	39849.96
541.29	39756.34
541.46	39742.30
541.62	39751.66
541.79	39777.40
541.96	39840.60
542.13	39903.79
542.30	40140.19
542.47	40067.63
542.63	40058.27
542.80	40130.83
542.97	40863.41
543.14	40795.54
543.31	41132.57
543.48	40685.53
543.64	41390.03
543.81	40460.84
543.98	40832.99
544.15	40662.13
544.32	40783.83
544.48	41420.46
544.65	41078.74
544.82	41247.26
544.99	40903.20
545.16	41687.28
545.32	41027.25
545.49	40966.40
545.66	41345.56
545.83	40968.74
546.00	41507.06
546.16	41399.40
546.33	41111.51
546.50	40905.54
546.67	41294.07
546.83	40832.99
547.00	41427.48
547.17	41221.52
547.34	41647.49
547.50	41549.19
547.67	41743.45
547.84	41453.23
548.00	41816.01
548.17	42026.66
548.34	41668.56
548.51	41993.89
548.67	41724.73
548.84	42504.13
549.01	42101.56
549.18	41853.46
549.34	41813.67
549.51	42078.15
549.68	42026.66
549.84	42447.96
550.01	42630.52
550.18	42073.47
550.34	42244.33
550.51	42143.69
550.68	42195.18
550.84	41713.03
551.01	42539.24
551.18	42206.88
551.34	41471.95
551.51	42438.59
551.68	42567.32
551.84	42770.95
552.01	42906.70
552.18	42436.25
552.34	42274.76
552.51	42628.18
552.68	42670.31
552.84	42597.75
553.01	42895.00
553.18	42909.04
553.34	42478.38
553.51	42799.04
553.67	42583.71
553.84	42714.78
554.01	42965.21
554.17	43147.78
554.34	43311.61
554.51	42897.34
554.67	43510.56
554.84	42899.68
555.00	42761.59
555.17	42878.61
555.33	43126.71
555.50	42864.57
555.67	42953.51
555.83	43267.14
556.00	43246.08
556.16	43351.40
556.33	43430.98
556.50	43442.68
556.66	43545.67
556.83	43196.93
556.99	43761.00
557.16	43484.81
557.32	43447.36
557.49	43288.21
557.65	43239.06
557.82	43414.60
557.98	43452.05
558.15	43140.75
558.32	43445.02
558.48	43573.75
558.65	43461.41
558.81	43702.48
558.98	43129.05
559.14	43423.96
559.31	43182.88
559.47	44016.11
559.64	43913.13
559.80	43648.65
559.97	43887.39
560.13	43372.47
560.30	43746.95
560.46	43973.98
560.63	43634.61
560.79	43997.39
560.96	43871.00
561.12	43620.56
561.29	43908.45
561.45	43885.04
561.61	43817.17
561.78	43746.95
561.94	43847.60
562.11	43807.81
562.27	43840.57
562.44	44091.01
562.60	43966.96
562.77	44329.75
562.93	44343.79
563.10	43854.62
563.26	43892.07
563.42	44039.52
563.59	44219.74
563.75	43845.26
563.92	44378.90
564.08	43924.83
564.24	44502.95
564.41	44364.85
564.57	44144.84
564.74	44041.86
564.90	43985.69
565.07	44488.90
565.23	44109.74
565.39	44076.97
565.56	44556.78
565.72	44002.07
565.88	44163.57
566.05	44453.79
566.21	44231.44
566.38	43922.49
566.54	44446.77
566.70	44318.04
566.87	44617.63
567.03	43934.20
567.19	44961.69
567.36	44453.79
567.52	44205.70
567.68	44666.78
567.85	44376.56
568.01	44559.12
568.17	44362.51
568.34	44596.57
568.50	44369.54
568.66	44219.74
568.83	44266.55
568.99	44107.40
569.15	44163.57
569.32	44219.74
569.48	44463.16
569.64	44795.51
569.81	44409.32
569.97	44526.35
570.13	44432.73
570.30	44292.30
570.46	43959.94
570.62	44065.27
570.78	44013.77
570.95	44364.85
571.11	44357.83
571.27	44467.84
571.43	44697.21
571.60	44591.89
571.76	44582.52
571.92	44713.59
572.09	44765.09
572.25	44182.29
572.41	44456.14
572.57	44758.06
572.74	45123.19
572.90	44964.03
573.06	44823.60
573.22	44767.43
573.38	44706.57
573.55	44531.03
573.71	44849.35
573.87	44645.72
574.03	44486.56
574.20	44568.48
574.36	44622.31
574.52	45301.07
574.68	44868.07
574.84	44404.64
575.01	44619.97
575.17	44460.82
575.33	44477.20
575.49	44418.69
575.65	45090.42
575.82	45240.21
575.98	44624.65
576.14	45530.44
576.30	45099.78
576.46	44605.93
576.62	44563.80
576.79	44575.50
576.95	44194.00
577.11	44463.16
577.27	45113.83
577.43	45247.24
577.59	44973.39
577.75	44655.08
577.92	45050.63
578.08	44226.76
578.24	44729.98
578.40	44814.24
578.56	44526.35
578.72	44718.28
578.88	44942.97
579.04	45078.72
579.21	44526.35
579.37	45013.18
579.53	44250.17
579.69	44350.81
579.85	44872.75
580.01	45399.37
580.17	45022.54
580.33	45392.35
580.49	44898.50
580.65	44622.31
580.82	45287.03
580.98	44568.48
581.14	44947.65
581.30	45029.57
581.46	44472.52
581.62	44804.88
581.78	44839.98
581.94	44992.12
582.10	44671.46
582.26	45202.77
582.42	44935.95
582.58	44793.17
582.74	44896.16
582.90	44973.39
583.06	44624.65
583.22	44816.58
583.38	44858.71
583.54	45216.81
583.70	44671.46
583.86	45132.55
584.02	44748.70
584.18	44526.35
584.34	44949.99
584.50	44907.86
584.66	44765.09
584.82	44603.59
584.98	44985.10
585.14	45195.74
585.30	44949.99
585.46	44498.26
585.62	44739.34
585.78	44329.75
585.94	44842.32
586.10	44444.43
586.26	44849.35
586.42	45008.50
586.58	45469.59
586.74	44879.77
586.90	44781.47
587.06	45132.55
587.22	45155.96
587.38	44570.82
587.54	45478.95
587.70	44921.90
587.86	45333.84
588.02	45352.56
588.18	45207.45
588.34	45057.65
588.49	44631.68
588.65	44481.88
588.81	44512.31
588.97	44715.93
589.13	44650.40
589.29	45265.96
589.45	44940.63
589.61	44989.78
589.77	45401.71
589.93	44821.26
590.08	45123.19
590.24	45247.24
