SpectraSuite Data File
++++++++++++++++++++++++++++++++++++
Date: Fri Oct 25 11:25:34 EDT 2013
User: price-jones
Dark Spectrum Present: No
Reference Spectrum Present: No
Number of Sampled Component Spectra: 1
Spectrometers: USB2+H05261
Integration Time (usec): 100000 (USB2+H05261)
Spectra Averaged: 1 (USB2+H05261)
Boxcar Smoothing: 0 (USB2+H05261)
Correct for Electrical Dark: No (USB2+H05261)
Strobe/Lamp Enabled: No (USB2+H05261)
Correct for Detector Non-linearity: No (USB2+H05261)
Correct for Stray Light: No (USB2+H05261)
Number of Pixels in Processed Spectrum: 2048
>>>>>Begin Processed Spectral Data<<<<<
365.73	287.89
365.92	287.89
366.12	287.89
366.32	110.01
366.52	243.42
366.72	227.03
366.91	121.71
367.11	124.05
367.31	154.48
367.51	98.30
367.70	149.79
367.90	124.05
368.10	173.20
368.30	131.07
368.49	100.64
368.69	212.99
368.89	198.95
369.09	133.41
369.28	135.75
369.48	72.56
369.68	159.16
369.87	194.26
370.07	210.65
370.27	212.99
370.47	360.44
370.66	571.09
370.86	667.05
371.06	678.76
371.25	774.72
371.45	650.67
371.65	655.35
371.84	573.43
372.04	690.46
372.24	709.18
372.44	704.50
372.63	699.82
372.83	788.76
373.03	730.25
373.22	727.91
373.42	772.38
373.62	800.46
373.81	753.65
374.01	844.93
374.21	844.93
374.40	891.74
374.60	826.21
374.79	830.89
374.99	795.78
375.19	753.65
375.38	891.74
375.58	891.74
375.78	868.34
375.97	854.30
376.17	880.04
376.37	901.11
376.56	793.44
376.76	828.55
376.95	858.98
377.15	851.96
377.35	947.92
377.54	919.83
377.74	868.34
377.93	915.15
378.13	936.21
378.33	875.36
378.52	919.83
378.72	1006.43
378.91	957.28
379.11	994.73
379.31	938.55
379.50	964.30
379.70	985.37
379.89	947.92
380.09	961.96
380.28	905.79
380.48	983.02
380.68	968.98
380.87	973.66
381.07	980.68
381.26	1109.41
381.46	1050.90
381.65	1041.54
381.85	1083.67
382.04	1048.56
382.24	1067.28
382.43	1090.69
382.63	1057.92
382.83	1074.31
383.02	1144.52
383.22	1086.01
383.41	1153.88
383.61	1139.84
383.80	1109.41
384.00	1104.73
384.19	1156.22
384.39	1123.46
384.58	1116.44
384.78	1071.97
384.97	1151.54
385.17	1104.73
385.36	1132.82
385.56	1156.22
385.75	1083.67
385.95	1151.54
386.14	1151.54
386.34	1160.91
386.53	1172.61
386.72	1224.10
386.92	1193.67
387.11	1238.14
387.31	1273.25
387.50	1191.33
387.70	1252.19
387.89	1373.89
388.09	1270.91
388.28	1235.80
388.48	1299.00
388.67	1371.55
388.86	1383.26
389.06	1383.26
389.25	1263.89
389.45	1320.06
389.64	1179.63
389.84	1306.02
390.03	1467.52
390.22	1500.28
390.42	1394.96
390.61	1437.09
390.81	1364.53
391.00	1423.05
391.19	1455.81
391.39	1399.64
391.58	1455.81
391.78	1514.33
391.97	1451.13
392.16	1413.68
392.36	1460.49
392.55	1479.22
392.75	1556.46
392.94	1561.14
393.13	1591.56
393.33	1502.62
393.52	1610.29
393.71	1554.12
393.91	1617.31
394.10	1528.37
394.29	1652.42
394.49	1617.31
394.68	1671.14
394.88	1675.82
395.07	1701.57
395.26	1713.27
395.46	1661.78
395.65	1682.85
395.84	1727.32
396.04	1689.87
396.23	1715.61
396.42	1743.70
396.62	1760.08
396.81	1724.97
397.00	1762.42
397.19	1767.10
397.39	1827.96
397.58	1832.64
397.77	1748.38
397.97	1830.30
398.16	1785.83
398.35	1898.17
398.55	1977.75
398.74	1837.32
398.93	1900.52
399.12	1881.79
399.32	1806.89
399.51	1830.30
399.70	1933.28
399.90	1984.77
400.09	1944.99
400.28	1996.48
400.47	2179.04
400.67	2071.37
400.86	2073.71
401.05	2047.97
401.24	2125.21
401.44	2106.48
401.63	2122.87
401.82	2148.61
402.01	2097.12
402.21	2207.13
402.40	2272.66
402.59	2120.53
402.78	2202.44
402.97	2183.72
403.17	2200.10
403.36	2256.28
403.55	2253.94
403.74	2413.09
403.93	2333.51
404.13	2387.35
404.32	2272.66
404.51	2448.20
404.70	2380.32
404.89	2373.30
405.09	2534.80
405.28	2506.71
405.47	2399.05
405.66	2518.42
405.85	2553.52
406.05	2389.69
406.24	2473.95
406.43	2583.95
406.62	2593.31
406.81	2717.36
407.00	2553.52
407.20	2567.57
407.39	2448.20
407.58	2658.85
407.77	2661.19
407.96	2661.19
408.15	2810.98
408.34	2626.08
408.54	2750.13
408.73	2799.28
408.92	2794.60
409.11	2892.90
409.30	2878.86
409.49	2888.22
409.68	2878.86
409.87	2883.54
410.07	2874.18
410.26	2911.63
410.45	2881.20
410.64	3000.57
410.83	3005.25
411.02	3122.27
411.21	3162.06
411.40	3038.02
411.59	3171.43
411.78	3126.96
411.98	3131.64
412.17	3325.90
412.36	3426.54
412.55	3391.44
412.74	3353.99
412.93	3337.60
413.12	3307.18
413.31	3585.70
413.50	3438.25
413.69	3585.70
413.88	3646.55
414.07	3555.27
414.26	3679.32
414.45	3632.51
414.64	3662.94
414.83	3810.39
415.02	3794.01
415.22	3850.18
415.41	3864.22
415.60	3770.60
415.79	3908.69
415.98	3978.91
416.17	3908.69
416.36	3927.42
416.55	3779.97
416.74	4025.72
416.93	3929.76
417.12	4093.60
417.31	4292.54
417.50	4234.03
417.69	4203.60
417.88	4201.26
418.07	4273.82
418.26	4337.01
418.45	4437.66
418.64	4442.34
418.83	4416.59
419.02	4407.23
419.21	4472.76
419.39	4475.10
419.58	4456.38
419.77	4486.81
419.96	4685.75
420.15	4531.28
420.34	4491.49
420.53	4615.54
420.72	4601.49
420.91	4685.75
421.10	4631.92
421.29	4777.03
421.48	4751.29
421.67	4652.98
421.86	4826.18
422.05	4730.22
422.24	4692.77
422.43	4807.46
422.61	4741.93
422.80	4983.00
422.99	4795.76
423.18	4950.23
423.37	4985.34
423.56	5048.54
423.75	4868.31
423.94	4865.97
424.13	4667.03
424.32	4720.86
424.50	4973.64
424.69	5043.85
424.88	5102.37
425.07	4858.95
425.26	4945.55
425.45	4966.62
425.64	4767.67
425.83	4910.44
426.01	5043.85
426.20	5090.67
426.39	5053.22
426.58	4975.98
426.77	5095.35
426.96	4936.19
427.15	5153.86
427.33	5193.65
427.52	5118.75
427.71	5247.48
427.90	5118.75
428.09	5341.10
428.28	5245.14
428.46	5329.40
428.65	5458.13
428.84	5439.40
429.03	5558.77
429.22	5406.64
429.40	5528.35
429.59	5542.39
429.78	5467.49
429.97	5341.10
430.16	5544.73
430.34	5636.01
430.53	5518.98
430.72	5621.97
430.91	5664.10
431.10	5495.58
431.28	5755.38
431.47	5668.78
431.66	5860.70
431.85	5748.36
432.03	5909.85
432.22	5921.56
432.41	5935.60
432.60	6017.52
432.79	6066.67
432.97	6076.03
433.16	5966.03
433.35	6031.56
433.54	6036.24
433.72	6153.27
433.91	5989.43
434.10	6069.01
434.28	5989.43
434.47	6207.10
434.66	6139.23
434.85	6324.13
435.03	6274.98
435.22	6204.76
435.41	6277.32
435.59	6537.12
435.78	6328.81
435.97	6317.11
436.16	6459.88
436.34	6340.51
436.53	6562.86
436.72	6658.82
436.90	6429.45
437.09	6820.32
437.28	6572.22
437.46	6448.18
437.65	6586.27
437.84	6712.66
438.02	6661.16
438.21	6679.89
438.40	6703.29
438.58	6998.20
438.77	6942.03
438.96	6920.96
439.14	6932.67
439.33	7045.01
439.52	7225.23
439.70	7201.83
439.89	7508.44
440.08	7253.32
440.26	7382.05
440.45	7283.75
440.63	7412.48
440.82	7576.31
441.01	7463.97
441.19	7555.25
441.38	7524.82
441.57	7592.70
441.75	7702.70
441.94	8037.40
442.12	7779.94
442.31	7768.24
442.50	8077.19
442.68	7852.50
442.87	7810.37
443.05	8060.80
443.24	8039.74
443.43	8084.21
443.61	8177.83
443.80	8552.32
443.98	7922.71
444.17	7646.53
444.35	8173.15
444.54	8367.42
444.73	8313.58
444.91	8194.22
445.10	8255.07
445.28	8257.41
445.47	8121.66
445.65	8203.58
445.84	8297.20
446.02	8573.38
446.21	8290.18
446.39	8446.99
446.58	8482.10
446.77	8444.65
446.95	8292.52
447.14	8297.20
447.32	8542.96
447.51	8498.49
447.69	8322.94
447.88	8376.78
448.06	8510.19
448.25	8397.84
448.43	8458.70
448.62	8608.49
448.80	8456.36
448.99	8741.90
449.17	8671.68
449.36	8514.87
449.54	8676.37
449.73	8835.52
449.91	8861.27
450.10	9076.60
450.28	8910.42
450.46	9179.58
450.65	8978.30
450.83	8980.64
451.02	9057.87
451.20	9076.60
451.39	8903.40
451.57	9043.83
451.76	9132.77
451.94	9284.91
452.13	9172.56
452.31	9317.67
452.49	9088.30
452.68	9308.31
452.86	9270.86
453.05	9378.53
453.23	9441.72
453.42	9273.20
453.60	9376.19
453.78	9582.15
453.97	9631.30
454.15	9387.89
454.34	9476.83
454.52	9612.58
454.70	9540.02
454.89	9579.81
455.07	9769.40
455.26	9731.95
455.44	10003.45
455.62	9837.27
455.81	9912.17
455.99	10080.69
456.17	10068.98
456.36	10258.57
456.54	10038.56
456.73	10377.94
456.91	10380.28
457.09	10324.10
457.28	10424.75
457.46	10356.87
457.64	10609.65
457.83	10263.25
458.01	10483.26
458.19	10417.72
458.38	10607.31
458.56	10665.82
458.74	10567.52
458.93	10532.41
459.11	10574.54
459.29	10824.98
459.48	10808.59
459.66	10743.06
459.84	10719.65
460.03	11265.00
460.21	11108.18
460.39	10867.11
460.57	10824.98
460.76	10942.00
460.94	11042.65
461.12	11288.40
461.31	11009.88
461.49	11145.63
461.67	11068.39
461.85	11367.98
462.04	11204.14
462.22	11482.67
462.40	11470.97
462.59	11520.12
462.77	11676.93
462.95	11407.77
463.13	11496.71
463.32	11632.46
463.50	11763.53
463.68	11910.99
463.86	11740.13
464.05	11641.82
464.23	11805.66
464.41	11796.30
464.59	11660.55
464.78	11929.71
464.96	12065.46
465.14	11501.39
465.32	12016.31
465.50	12152.06
465.69	11892.26
465.87	11999.93
466.05	12018.65
466.23	12154.40
466.41	12341.64
466.60	12121.63
466.78	12173.13
466.96	12109.93
467.14	12400.16
467.32	12545.27
467.51	12578.04
467.69	12049.08
467.87	12575.70
468.05	12681.02
468.23	12351.01
468.41	12336.96
468.60	12535.91
468.78	12833.16
468.96	12578.04
469.14	12802.73
469.32	12978.27
469.50	12606.13
469.69	12961.89
469.87	13137.43
470.05	12933.80
470.23	13259.13
470.41	13373.82
470.59	13214.66
470.77	13224.03
470.95	13460.42
471.14	13303.60
471.32	13160.83
471.50	13504.89
471.68	13252.11
471.86	13537.66
472.04	13654.69
472.22	13928.53
472.40	13851.29
472.58	13696.82
472.77	13970.66
472.95	14157.90
473.13	14602.60
473.31	14045.55
473.49	14146.20
473.67	14064.28
473.85	14459.83
474.03	14314.72
474.21	14609.62
474.39	14876.44
474.57	14569.83
474.75	14913.89
474.93	15161.99
475.12	14799.21
475.30	15077.73
475.48	14944.32
475.66	15028.58
475.84	15133.90
476.02	15211.14
476.20	15456.90
476.38	15630.10
476.56	15796.28
476.74	16173.10
476.92	15676.91
477.10	15648.82
477.28	16112.25
477.46	16205.87
477.64	16271.40
477.82	16713.77
478.00	16966.54
478.18	16723.13
478.36	16922.07
478.54	17156.13
478.72	16912.71
478.90	17263.79
479.08	17518.91
479.26	17607.85
479.44	17668.70
479.62	17806.80
479.80	17994.04
479.98	18328.74
480.16	18541.72
480.34	18059.57
480.52	18265.54
480.70	18618.96
480.88	18143.83
481.06	18534.70
481.24	18757.05
481.41	19176.01
481.59	19276.65
481.77	19534.11
481.95	19468.58
482.13	19976.47
482.31	19697.95
482.49	19817.32
482.67	19922.64
482.85	20343.94
483.03	20762.89
483.21	20727.78
483.39	20856.51
483.57	20709.06
483.74	21163.12
483.92	21294.19
484.10	21312.92
484.28	21888.69
484.46	22036.14
484.64	22527.66
484.82	21884.01
485.00	22361.48
485.18	22579.15
485.35	22747.67
485.53	22829.59
485.71	22757.03
485.89	23498.98
486.07	23276.63
486.25	23307.05
486.43	23515.36
486.61	23672.18
486.78	24170.71
486.96	24198.80
487.14	24732.44
487.32	24938.41
487.50	24617.75
487.68	24713.72
487.85	25172.46
488.03	25766.96
488.21	25647.59
488.39	25781.00
488.57	26057.18
488.75	26143.78
488.92	26129.74
489.10	26623.59
489.28	26721.90
489.46	27108.08
489.64	26831.90
489.81	27569.17
489.99	27850.03
490.17	27772.80
490.35	27997.49
490.53	27896.85
490.70	28386.02
490.88	28166.01
491.06	28673.90
491.24	28954.77
491.41	28980.51
491.59	29074.13
491.77	29174.78
491.95	29401.81
492.13	29654.59
492.30	29792.68
492.48	29949.50
492.66	29869.92
492.84	30394.20
493.01	30651.66
493.19	30368.45
493.37	30864.64
493.54	31309.35
493.72	31068.27
493.90	31108.06
494.08	31601.91
494.25	31777.45
494.43	31971.72
494.61	31941.29
494.79	32292.37
494.96	32453.87
495.14	32589.62
495.32	33289.44
495.49	33266.03
495.67	32943.04
495.85	33273.06
496.02	33343.27
496.20	33757.55
496.38	33780.95
496.55	33846.49
496.73	34859.94
496.91	34403.53
497.09	34581.42
497.26	34527.58
497.44	34864.62
497.62	35227.40
497.79	35545.72
497.97	35225.06
498.14	35990.42
498.32	35718.92
498.50	36002.12
498.67	36023.19
498.85	36201.07
499.03	36542.78
499.20	36353.20
499.38	37057.70
499.56	37132.60
499.73	36781.52
499.91	37156.00
500.08	37659.22
500.26	36973.44
500.44	37439.21
500.61	37715.39
500.79	37511.77
500.97	37813.70
501.14	38473.73
501.32	37926.04
501.49	38286.48
501.67	38429.26
501.84	38838.85
502.02	38710.12
502.20	38752.25
502.37	38948.85
502.55	39014.39
502.72	39335.04
502.90	39363.13
503.07	39203.97
503.25	39522.29
503.43	39260.15
503.60	39899.11
503.78	39985.71
503.95	40011.46
504.13	40570.85
504.30	40416.37
504.48	40062.95
504.65	40591.91
504.83	40800.22
505.01	40954.69
505.18	41455.57
505.36	41619.41
505.53	41317.48
505.71	41214.49
505.88	41745.80
506.06	41247.26
506.23	41750.48
506.41	41720.05
506.58	42251.35
506.76	41848.78
506.93	42454.98
507.11	42176.45
507.28	42160.07
507.46	42667.97
507.63	42602.43
507.81	43215.65
507.98	42944.15
508.16	43075.22
508.33	43171.18
508.50	43739.93
508.68	43225.01
508.85	43971.64
509.03	44112.08
509.20	43768.02
509.38	44292.30
509.55	44006.75
509.73	43847.60
509.90	44809.56
510.08	44474.86
510.25	44603.59
510.42	44631.68
510.60	44718.28
510.77	45308.09
510.95	45546.82
511.12	45116.17
511.30	44751.04
511.47	45233.19
511.64	45397.03
511.82	45408.73
511.99	45504.70
512.17	45577.25
512.34	45572.57
512.51	46220.90
512.69	46237.28
512.86	46054.72
513.04	46808.37
513.21	46684.33
513.38	46642.20
513.56	46646.88
513.73	46499.42
513.90	46775.61
514.08	46930.08
514.25	47208.61
514.43	47058.81
514.60	47271.80
514.77	47203.92
514.95	47475.43
515.12	47847.57
515.29	47555.00
515.47	47990.34
515.64	47735.23
515.81	47980.98
515.99	47723.52
516.16	48030.13
516.33	48079.28
516.51	48378.87
516.68	48339.08
516.85	47915.45
517.03	48760.38
517.20	48591.86
517.37	48540.37
517.54	48402.28
517.72	48851.66
517.89	48458.45
518.06	49085.72
518.24	49083.37
518.41	49043.59
518.58	49294.02
518.75	49209.76
518.93	49186.36
519.10	49324.45
519.27	49591.27
519.45	49865.11
519.62	49954.05
519.79	49757.45
519.96	49684.89
520.14	49958.73
520.31	50033.63
520.48	50216.19
520.65	50471.31
520.83	50274.71
521.00	50162.36
521.17	50361.31
521.34	50710.05
521.52	50525.14
521.69	50522.80
521.86	50887.93
522.03	50939.42
522.20	51189.86
522.38	51395.82
522.55	51065.81
522.72	51105.60
522.89	51061.13
523.07	51522.21
523.24	51391.14
523.41	51716.48
523.58	51044.74
523.75	51908.40
523.92	51477.74
524.10	52196.29
524.27	51903.72
524.44	52238.42
524.61	51880.31
524.78	51980.96
524.96	51885.00
525.13	52186.92
525.30	52385.87
525.47	52451.41
525.64	52484.17
525.81	52243.10
525.98	52444.38
526.16	52430.34
526.33	52624.60
526.50	52750.99
526.67	52643.33
526.84	52992.07
527.01	52783.76
527.18	52772.06
527.36	52938.24
527.53	53045.90
527.70	53453.15
527.87	53155.91
528.04	52889.09
528.21	53113.78
528.38	53301.02
528.55	53607.63
528.72	53406.34
528.89	53303.36
529.07	53200.38
529.24	53294.00
529.41	53504.65
529.58	53729.34
529.75	53411.02
529.92	53474.22
530.09	53750.40
530.26	53619.33
530.43	53886.15
530.60	53703.59
530.77	53783.17
530.94	53827.64
531.11	54021.90
531.28	53986.80
531.46	54450.22
531.63	54024.25
531.80	53869.77
531.97	54181.06
532.14	54316.81
532.31	54492.35
532.48	54412.77
532.65	54553.21
532.82	54305.11
532.99	54525.12
533.16	54377.67
533.33	54644.49
533.50	54674.91
533.67	54803.64
533.84	54756.83
534.01	54969.82
534.18	54726.41
534.35	55068.12
534.52	55011.95
534.69	55047.06
534.86	55140.68
535.03	55117.28
535.20	54988.55
535.37	55215.58
535.54	55285.79
535.71	55009.61
535.88	55241.32
536.05	55363.03
536.22	55753.90
536.38	55564.32
536.55	55510.49
536.72	55585.38
536.89	55323.24
537.06	55491.76
537.23	55669.64
537.40	55365.37
537.57	55697.73
537.74	55611.13
537.91	55793.69
538.08	55945.83
538.25	55571.34
538.42	55737.52
538.59	56046.47
538.75	55999.66
538.92	56046.47
539.09	56086.26
539.26	55875.61
539.43	55903.70
539.60	56219.67
539.77	55980.93
539.94	56533.30
540.11	56292.22
540.28	56334.35
540.44	56381.16
540.61	56505.21
540.78	56254.78
540.95	56268.82
541.12	56442.02
541.29	56388.19
541.46	56713.52
541.62	56650.33
541.79	56516.92
541.96	56357.76
542.13	56523.94
542.30	56519.26
542.47	56685.43
542.63	56851.61
542.80	57064.60
542.97	57155.88
543.14	57083.33
543.31	57120.77
543.48	56973.32
543.64	57478.88
543.81	57275.25
543.98	57420.36
544.15	57418.02
544.32	57134.82
544.48	57392.28
544.65	57240.14
544.82	57411.00
544.99	57066.94
545.16	57523.35
545.32	57343.12
545.49	57591.22
545.66	57722.29
545.83	57670.80
546.00	57570.16
546.16	57528.03
546.33	57282.27
546.50	57247.16
546.67	57691.86
546.83	57593.56
547.00	57733.99
547.17	57602.92
547.34	57743.36
547.50	57659.10
547.67	58054.65
547.84	57872.09
548.00	57986.77
548.17	58033.58
548.34	57904.85
548.51	58288.70
548.67	58089.76
548.84	58014.86
549.01	57944.64
549.18	58136.57
549.34	58089.76
549.51	58166.99
549.68	58302.74
549.84	58328.49
550.01	58230.19
550.18	58323.81
550.34	58258.27
550.51	58269.98
550.68	58267.64
550.84	58220.83
551.01	58632.76
551.18	58440.84
551.34	58321.47
551.51	58316.79
551.68	58614.04
551.84	58452.54
552.01	58478.28
552.18	58745.11
552.34	58368.28
552.51	58726.38
552.68	58295.72
552.84	58539.14
553.01	58805.96
553.18	58492.33
553.34	58904.26
553.51	58609.35
553.67	58604.67
553.84	58691.27
554.01	58922.99
554.17	58899.58
554.34	59075.12
554.51	58862.13
554.67	58866.81
554.84	59040.01
555.00	58834.05
555.17	59105.55
555.33	59054.06
555.50	59000.22
555.67	58911.28
555.83	58962.78
556.00	59192.15
556.16	59171.08
556.33	59271.73
556.50	59030.65
556.66	59014.27
556.83	59171.08
556.99	59253.00
557.16	59456.63
557.32	59419.18
557.49	59370.03
557.65	59227.26
557.82	59157.04
557.98	59229.60
558.15	59327.90
558.32	59451.95
558.48	59423.86
558.65	59407.48
558.81	59360.67
558.98	59442.59
559.14	59552.59
559.31	59512.80
559.47	59697.70
559.64	59526.84
559.80	59601.74
559.97	59723.45
560.13	59355.99
560.30	59714.09
560.46	59819.41
560.63	59650.89
560.79	59730.47
560.96	59737.49
561.12	59744.51
561.29	59735.15
561.45	59723.45
561.61	59592.38
561.78	59767.92
561.94	59744.51
562.11	59580.68
562.27	59840.48
562.44	59903.67
562.60	59934.10
562.77	59971.55
562.93	59777.28
563.10	59746.86
563.26	59861.54
563.42	59994.95
563.59	59863.88
563.75	59952.82
563.92	60186.88
564.08	59896.65
564.24	59920.05
564.41	60086.23
564.57	59915.37
564.74	60114.32
564.90	59985.59
565.07	59887.29
565.23	60006.65
565.39	60116.66
565.56	60149.43
565.72	60016.02
565.88	60357.74
566.05	60023.04
566.21	60161.13
566.38	60191.56
566.54	60058.15
566.70	60100.28
566.87	60320.29
567.03	60093.25
567.19	60217.30
567.36	60114.32
567.52	60172.83
567.68	60657.32
567.85	60308.58
568.01	60254.75
568.17	60259.43
568.34	60381.14
568.50	60271.14
568.66	60320.29
568.83	60514.55
568.99	60231.35
569.15	60350.71
569.32	60243.05
569.48	60100.28
569.64	60261.77
569.81	60327.31
569.97	60523.91
570.13	60313.26
570.30	60343.69
570.46	60404.55
570.62	60317.95
570.78	60233.69
570.95	60374.12
571.11	60573.06
571.27	60219.64
571.43	60224.32
571.60	60481.78
571.76	60484.12
571.92	60481.78
572.09	60573.06
572.25	60434.97
572.41	60505.19
572.57	60444.33
572.74	60554.34
572.90	60498.17
573.06	60313.26
573.22	60491.15
573.38	60554.34
573.55	60430.29
573.71	60853.93
573.87	60432.63
574.03	60413.91
574.20	60535.62
574.36	60636.26
574.52	60559.02
574.68	60622.22
574.84	60493.49
575.01	60743.92
575.17	60552.00
575.33	60470.08
575.49	60547.32
575.65	60804.78
575.82	60814.14
575.98	60624.56
576.14	60891.38
576.30	60673.71
576.46	60764.99
576.62	60514.55
576.79	60556.68
576.95	60463.06
577.11	60685.41
577.27	60800.10
577.43	60711.16
577.59	60692.43
577.75	60788.39
577.92	60631.58
578.08	60898.40
578.24	60872.65
578.40	60760.31
578.56	60884.36
578.72	60809.46
578.88	60797.76
579.04	61010.74
579.21	60942.87
579.37	61006.06
579.53	60860.95
579.69	60561.36
579.85	60830.52
580.01	60755.63
580.17	60699.45
580.33	60715.84
580.49	60898.40
580.65	60755.63
580.82	60914.78
580.98	60750.94
581.14	60626.90
581.30	61013.08
581.46	60650.30
581.62	60795.42
581.78	60715.84
581.94	60942.87
582.10	60755.63
582.26	60985.00
582.42	60917.12
582.58	60846.91
582.74	60844.57
582.90	60718.18
583.06	60800.10
583.22	60818.82
583.38	60989.68
583.54	60982.66
583.70	60743.92
583.86	60910.10
584.02	60713.50
584.18	60982.66
584.34	60692.43
584.50	60837.54
584.66	60816.48
584.82	60561.36
584.98	60931.17
585.14	61116.07
585.30	60779.03
585.46	60928.83
585.62	60786.05
585.78	60893.72
585.94	60699.45
586.10	60884.36
586.26	60940.53
586.42	60994.36
586.58	61066.92
586.74	60886.70
586.90	60816.48
587.06	60842.23
587.22	60999.04
587.38	60959.25
587.54	61160.54
587.70	61235.44
587.86	60980.32
588.02	60889.04
588.18	61216.71
588.34	60917.12
588.49	61085.64
