SpectraSuite Data File
++++++++++++++++++++++++++++++++++++
Date: Fri Oct 25 11:23:31 EDT 2013
User: price-jones
Dark Spectrum Present: No
Reference Spectrum Present: No
Number of Sampled Component Spectra: 1
Spectrometers: USB2+H05261
Integration Time (usec): 100000 (USB2+H05261)
Spectra Averaged: 1 (USB2+H05261)
Boxcar Smoothing: 0 (USB2+H05261)
Correct for Electrical Dark: No (USB2+H05261)
Strobe/Lamp Enabled: No (USB2+H05261)
Correct for Detector Non-linearity: No (USB2+H05261)
Correct for Stray Light: No (USB2+H05261)
Number of Pixels in Processed Spectrum: 2048
>>>>>Begin Processed Spectral Data<<<<<
365.73	299.59
365.92	299.59
366.12	299.59
366.32	154.48
366.52	180.22
366.72	65.54
366.91	119.37
367.11	86.60
367.31	53.83
367.51	133.41
367.70	95.96
367.90	161.50
368.10	133.41
368.30	147.45
368.49	110.01
368.69	95.96
368.89	131.07
369.09	180.22
369.28	170.86
369.48	135.75
369.68	229.37
369.87	128.73
370.07	222.35
370.27	217.67
370.47	234.05
370.66	543.00
370.86	629.60
371.06	676.41
371.25	760.67
371.45	608.54
371.65	725.57
371.84	638.97
372.04	725.57
372.24	702.16
372.44	723.23
372.63	772.38
372.83	779.40
373.03	718.54
373.22	667.05
373.42	828.55
373.62	805.14
373.81	802.80
374.01	737.27
374.21	821.53
374.40	814.51
374.60	784.08
374.79	730.25
374.99	847.27
375.19	734.93
375.38	849.61
375.58	835.57
375.78	929.19
375.97	854.30
376.17	854.30
376.37	866.00
376.56	868.34
376.76	919.83
376.95	847.27
377.15	854.30
377.35	926.85
377.54	887.06
377.74	866.00
377.93	954.94
378.13	952.60
378.33	1011.11
378.52	961.96
378.72	858.98
378.91	971.32
379.11	929.19
379.31	919.83
379.50	931.53
379.70	985.37
379.89	910.47
380.09	898.77
380.28	985.37
380.48	1036.86
380.68	992.39
380.87	964.30
381.07	983.02
381.26	1041.54
381.46	999.41
381.65	1081.33
381.85	1046.22
382.04	990.05
382.24	1055.58
382.43	1008.77
382.63	1025.15
382.83	1041.54
383.02	1076.65
383.22	1137.50
383.41	1132.82
383.61	1160.91
383.80	1114.10
384.00	1121.12
384.19	1123.46
384.39	1109.41
384.58	1132.82
384.78	1188.99
384.97	1118.78
385.17	1151.54
385.36	1118.78
385.56	1107.07
385.75	1158.57
385.95	1231.12
386.14	1177.29
386.34	1210.06
386.53	1170.27
386.72	1170.27
386.92	1369.21
387.11	1196.01
387.31	1273.25
387.50	1188.99
387.70	1240.48
387.89	1345.81
388.09	1256.87
388.28	1282.61
388.48	1282.61
388.67	1308.36
388.86	1273.25
389.06	1294.32
389.25	1338.79
389.45	1336.45
389.64	1308.36
389.84	1451.13
390.03	1469.86
390.22	1404.32
390.42	1418.36
390.61	1378.58
390.81	1453.47
391.00	1404.32
391.19	1453.47
391.39	1416.02
391.58	1434.75
391.78	1476.88
391.97	1493.26
392.16	1451.13
392.36	1507.30
392.55	1462.83
392.75	1451.13
392.94	1465.18
393.13	1514.33
393.33	1486.24
393.52	1568.16
393.71	1584.54
393.91	1614.97
394.10	1589.22
394.29	1519.01
394.49	1556.46
394.68	1734.34
394.88	1729.66
395.07	1603.27
395.26	1750.72
395.46	1687.53
395.65	1694.55
395.84	1790.51
396.04	1739.02
396.23	1689.87
396.42	1739.02
396.62	1799.87
396.81	1736.68
397.00	1825.62
397.19	1750.72
397.39	1877.11
397.58	1802.21
397.77	1834.98
397.97	1762.42
398.16	1923.92
398.35	1902.86
398.55	1830.30
398.74	1778.81
398.93	1930.94
399.12	2052.65
399.32	1853.70
399.51	1935.62
399.70	1959.03
399.90	2012.86
400.09	2015.20
400.28	2015.20
400.47	1944.99
400.67	2106.48
400.86	1975.41
401.05	2090.10
401.24	2050.31
401.44	2172.02
401.63	2165.00
401.82	2160.31
402.01	2094.78
402.21	2146.27
402.40	2136.91
402.59	2157.97
402.78	2228.19
402.97	2286.70
403.17	2204.78
403.36	2354.58
403.55	2284.36
403.74	2244.57
403.93	2356.92
404.13	2382.67
404.32	2406.07
404.51	2352.24
404.70	2457.56
404.89	2434.16
405.09	2532.46
405.28	2427.14
405.47	2429.48
405.66	2602.68
405.85	2513.74
406.05	2537.14
406.24	2537.14
406.43	2527.78
406.62	2675.23
406.81	2661.19
407.00	2607.36
407.20	2600.34
407.39	2623.74
407.58	2724.38
407.77	2670.55
407.96	2810.98
408.15	2902.26
408.34	2729.06
408.54	2822.69
408.73	2757.15
408.92	2836.73
409.11	2890.56
409.30	2946.73
409.49	2902.26
409.68	2855.45
409.87	2885.88
410.07	2963.12
410.26	2991.20
410.45	3028.65
410.64	3042.70
410.83	3052.06
411.02	3159.72
411.21	3295.47
411.40	3253.34
411.59	3293.13
411.78	3173.77
411.98	3232.28
412.17	3199.51
412.36	3246.32
412.55	3482.72
412.74	3487.40
412.93	3358.67
413.12	3398.46
413.31	3468.67
413.50	3449.95
413.69	3545.91
413.88	3482.72
414.07	3620.81
414.26	3705.07
414.45	3639.53
414.64	3686.34
414.83	3747.20
415.02	3679.32
415.22	3749.54
415.41	3997.64
415.60	3857.20
415.79	3955.51
415.98	3906.35
416.17	4007.00
416.36	3922.74
416.55	3906.35
416.74	4166.15
416.93	3995.29
417.12	4009.34
417.31	4154.45
417.50	4154.45
417.69	4262.12
417.88	4285.52
418.07	4262.12
418.26	4248.07
418.45	4250.41
418.64	4493.83
418.83	4468.08
419.02	4404.89
419.21	4589.79
419.39	4425.95
419.58	4526.60
419.77	4503.19
419.96	4545.32
420.15	4592.13
420.34	4542.98
420.53	4629.58
420.72	4809.80
420.91	4685.75
421.10	4634.26
421.29	4887.04
421.48	4702.14
421.67	4734.90
421.86	4870.65
422.05	4894.06
422.24	4849.59
422.43	4814.48
422.61	4926.83
422.80	5114.07
422.99	4983.00
423.18	4865.97
423.37	4994.70
423.56	4926.83
423.75	4978.32
423.94	4880.02
424.13	4755.97
424.32	4887.04
424.50	5004.07
424.69	5238.12
424.88	5146.84
425.07	4950.23
425.26	5071.94
425.45	4971.30
425.64	5008.75
425.83	5022.79
426.01	5036.83
426.20	4926.83
426.39	5109.39
426.58	5034.49
426.77	5093.01
426.96	5078.96
427.15	5102.37
427.33	5336.42
427.52	5224.08
427.71	5228.76
427.90	5270.89
428.09	5408.98
428.28	5362.17
428.46	5521.32
428.65	5266.21
428.84	5364.51
429.03	5530.69
429.22	5385.57
429.40	5579.84
429.59	5455.79
429.78	5291.95
429.97	5334.08
430.16	5430.04
430.34	5600.90
430.53	5727.29
430.72	5713.25
430.91	5659.42
431.10	5448.77
431.28	5811.55
431.47	5982.41
431.66	5771.76
431.85	5804.53
432.03	5846.66
432.22	6031.56
432.41	5804.53
432.60	6071.35
432.79	5996.45
432.97	6176.67
433.16	6078.37
433.35	6176.67
433.54	6118.16
433.72	6260.93
433.91	6010.50
434.10	6242.21
434.28	6129.86
434.47	6186.04
434.66	6249.23
434.85	6422.43
435.03	6370.94
435.22	6326.47
435.41	6450.52
435.59	6431.79
435.78	6326.47
435.97	6466.90
436.16	6415.41
436.34	6436.47
436.53	6525.41
436.72	6621.38
436.90	6541.80
437.09	6827.34
437.28	6593.29
437.46	6738.40
437.65	6434.13
437.84	6843.73
438.02	6771.17
438.21	6665.85
438.40	6722.02
438.58	6988.84
438.77	7155.02
438.96	6944.37
439.14	6988.84
439.33	7304.81
439.52	7073.10
439.70	7103.53
439.89	7449.93
440.08	7482.69
440.26	7419.50
440.45	7323.54
440.63	7552.91
440.82	7520.14
441.01	7562.27
441.19	7672.28
441.38	7733.13
441.57	7602.06
441.75	7857.18
441.94	7985.91
442.12	7868.88
442.31	8044.42
442.50	7995.27
442.68	7803.35
442.87	8250.39
443.05	8266.77
443.24	8095.91
443.43	8093.57
443.61	8308.90
443.80	8264.43
443.98	8049.10
444.17	7953.14
444.35	8105.28
444.54	8517.21
444.73	8332.31
444.91	8184.85
445.10	8353.37
445.28	8360.39
445.47	8304.22
445.65	8259.75
445.84	8351.03
446.02	8592.11
446.21	8521.89
446.39	8444.65
446.58	8503.17
446.77	8517.21
446.95	8290.18
447.14	8477.42
447.32	8706.79
447.51	8545.30
447.69	8383.80
447.88	8367.42
448.06	8439.97
448.25	8482.10
448.43	8564.02
448.62	8575.72
448.80	8671.68
448.99	8685.73
449.17	8720.84
449.36	8669.34
449.54	9076.60
449.73	9153.84
449.91	8779.35
450.10	8999.36
450.28	9067.24
450.46	9043.83
450.65	9029.79
450.83	9069.58
451.02	9074.26
451.20	9219.37
451.39	9001.70
451.57	9170.22
451.76	9104.68
451.94	9371.50
452.13	9458.10
452.31	9291.93
452.49	9322.35
452.68	9441.72
452.86	9378.53
453.05	9312.99
453.23	9715.56
453.42	9511.94
453.60	9479.17
453.78	9518.96
453.97	9528.32
454.15	9523.64
454.34	9621.94
454.52	9645.35
454.70	9659.39
454.89	9696.84
455.07	9645.35
455.26	10005.79
455.44	10040.90
455.62	10078.35
455.81	10057.28
455.99	10160.27
456.17	10195.37
456.36	10104.09
456.54	10232.82
456.73	10492.62
456.91	10354.53
457.09	10335.81
457.28	10537.09
457.46	10565.18
457.64	10551.14
457.83	10705.61
458.01	10457.51
458.19	10567.52
458.38	10719.65
458.56	10965.41
458.74	10501.98
458.93	10719.65
459.11	10640.08
459.29	10750.08
459.48	10871.79
459.66	10902.22
459.84	10923.28
460.03	10892.85
460.21	11122.23
460.39	11068.39
460.57	10930.30
460.76	11094.14
460.94	11190.10
461.12	11185.42
461.31	11232.23
461.49	10979.45
461.67	11052.01
461.85	11405.43
462.04	11337.56
462.22	11892.26
462.40	11768.21
462.59	11461.60
462.77	11480.33
462.95	11765.87
463.13	11496.71
463.32	11894.60
463.50	11824.39
463.68	11672.25
463.86	11971.84
464.05	11590.33
464.23	11602.04
464.41	11981.20
464.59	11566.93
464.78	12032.69
464.96	12147.38
465.14	11859.49
465.32	12187.17
465.50	12224.62
465.69	12173.13
465.87	12198.87
466.05	12294.83
466.23	12229.30
466.41	12634.21
466.60	12587.40
466.78	12360.37
466.96	12257.39
467.14	12262.07
467.32	12423.56
467.51	12643.57
467.69	12238.66
467.87	12500.80
468.05	12582.72
468.23	12386.12
468.41	12517.18
468.60	12564.00
468.78	12697.41
468.96	12662.30
469.14	12861.24
469.32	12905.71
469.50	12805.07
469.69	13118.70
469.87	13158.49
470.05	13289.56
470.23	13231.05
470.41	13327.01
470.59	13357.44
470.77	13371.48
470.95	13200.62
471.14	13563.40
471.32	13181.90
471.50	13802.14
471.68	13724.90
471.86	13944.91
472.04	13841.93
472.22	14090.02
472.40	13813.84
472.58	13891.08
472.77	14108.75
472.95	14085.34
473.13	14775.80
473.31	14031.51
473.49	14225.78
473.67	14347.48
473.85	14588.56
474.03	14806.23
474.21	14291.31
474.39	14920.92
474.57	14560.47
474.75	14972.41
474.93	15154.97
475.12	15119.86
475.30	15272.00
475.48	14920.92
475.66	15274.34
475.84	15417.11
476.02	15805.64
476.20	15349.23
476.38	15843.09
476.56	16046.71
476.74	16170.76
476.92	16086.50
477.10	15889.90
477.28	16381.41
477.46	16201.19
477.64	16526.52
477.82	16695.04
478.00	16971.22
478.18	16858.88
478.36	17170.17
478.54	17312.94
478.72	17355.07
478.90	17584.44
479.08	17516.57
479.26	17734.24
479.44	17891.06
479.62	17792.75
479.80	17958.93
479.98	18530.02
480.16	18717.26
480.34	18562.79
480.52	18649.39
480.70	18696.20
480.88	18366.18
481.06	19030.90
481.24	19037.92
481.41	19365.59
481.59	19433.47
481.77	19601.99
481.95	19655.82
482.13	19742.42
482.31	20046.69
482.49	20519.48
482.67	20421.17
482.85	20477.35
483.03	20938.43
483.21	20741.83
483.39	20807.36
483.57	21366.75
483.74	21193.55
483.92	21256.75
484.10	20891.62
484.28	21724.85
484.46	22204.66
484.64	22511.27
484.82	21942.52
485.00	22473.82
485.18	22977.04
485.35	22801.50
485.53	22780.43
485.71	23367.91
485.89	23868.78
486.07	23428.76
486.25	23463.87
486.43	24016.24
486.61	23941.34
486.78	24130.92
486.96	24203.48
487.14	24519.45
487.32	24938.41
487.50	24737.12
487.68	25144.38
487.85	25109.27
488.03	25619.50
488.21	25954.20
488.39	25486.09
488.57	26218.68
488.75	26080.59
488.92	26415.29
489.10	27222.77
489.28	26768.71
489.46	27122.13
489.64	27082.34
489.81	27599.60
489.99	27854.72
490.17	27983.44
490.35	28252.61
490.53	28772.21
490.70	28257.29
490.88	28577.94
491.06	29020.30
491.24	28620.07
491.41	29518.84
491.59	29486.07
491.77	29469.69
491.95	29949.50
492.13	29961.20
492.30	30312.28
492.48	29996.31
492.66	30345.05
492.84	30433.99
493.01	30740.60
493.19	30642.29
493.37	31175.94
493.54	31194.66
493.72	31494.25
493.90	31580.85
494.08	32130.87
494.25	31924.91
494.43	32517.06
494.61	32425.78
494.79	32807.29
494.96	32636.43
495.14	32849.42
495.32	33137.30
495.49	33383.06
495.67	33345.61
495.85	33825.42
496.02	34272.46
496.20	33944.79
496.38	34167.14
496.55	34590.78
496.73	34883.34
496.91	34782.70
497.09	35012.07
497.26	35456.78
497.44	35161.87
497.62	35695.51
497.79	35948.29
497.97	35571.46
498.14	36734.71
498.32	36252.56
498.50	36418.74
498.67	36898.55
498.85	36701.94
499.03	36957.06
499.20	36971.10
499.38	37097.49
499.56	37090.47
499.73	37095.15
499.91	37549.21
500.08	37727.10
500.26	37464.96
500.44	37865.19
500.61	38153.07
500.79	37804.33
500.97	38422.23
501.14	38691.40
501.32	38574.37
501.49	38387.13
501.67	38869.28
501.84	39154.82
502.02	39058.86
502.20	39487.18
502.37	39388.88
502.55	39381.85
502.72	39374.83
502.90	40091.04
503.07	39639.31
503.25	39805.49
503.43	40004.44
503.60	40332.11
503.78	40690.21
503.95	40730.00
504.13	40996.82
504.30	40978.10
504.48	40694.89
504.65	40751.07
504.83	41113.85
505.01	41401.74
505.18	41287.05
505.36	41593.66
505.53	41523.44
505.71	41907.29
505.88	41596.00
506.06	41581.96
506.23	42366.04
506.41	41926.02
506.58	42174.11
506.76	42431.57
506.93	42600.09
507.11	42312.20
507.28	42925.42
507.46	43187.56
507.63	42925.42
507.81	43660.35
507.98	43129.05
508.16	43129.05
508.33	43430.98
508.50	43566.73
508.68	44027.82
508.85	43798.44
509.03	43842.92
509.20	44186.97
509.38	44341.45
509.55	44311.02
509.73	44655.08
509.90	44947.65
510.08	44772.11
510.25	44725.30
510.42	45212.13
510.60	45186.38
510.77	45336.18
510.95	45347.88
511.12	45855.78
511.30	45237.87
511.47	45722.37
511.64	45670.87
511.82	46218.56
511.99	45607.68
512.17	45993.87
512.34	46115.58
512.51	47119.66
512.69	46801.35
512.86	46679.64
513.04	46740.50
513.21	46628.15
513.38	47016.68
513.56	47281.16
513.73	46981.57
513.90	46834.12
514.08	47129.03
514.25	47220.31
514.43	47533.94
514.60	47498.83
514.77	47510.53
514.95	47899.06
515.12	47711.82
515.29	47955.24
515.47	48200.99
515.64	48582.50
515.81	47978.64
515.99	48327.38
516.16	48924.22
516.33	48715.91
516.51	48638.67
516.68	48622.29
516.85	48954.64
517.03	48865.70
517.20	49066.99
517.37	48800.17
517.54	48966.35
517.72	49097.42
517.89	49216.78
518.06	49436.80
518.24	49537.44
518.41	49642.76
518.58	49846.39
518.75	49380.62
518.93	49687.23
519.10	49989.16
519.27	49804.26
519.45	49909.58
519.62	50171.72
519.79	50300.45
519.96	50012.57
520.14	50284.07
520.31	50422.16
520.48	50670.26
520.65	50574.30
520.83	51030.70
521.00	51004.95
521.17	50567.27
521.34	51033.04
521.52	50904.31
521.69	51164.11
521.86	50838.78
522.03	51484.76
522.20	51395.82
522.38	51704.77
522.55	51374.76
522.72	51234.33
522.89	51283.48
523.07	51510.51
523.24	51730.52
523.41	52039.47
523.58	51428.59
523.75	51906.06
523.92	52383.53
524.10	52205.65
524.27	52336.72
524.44	52215.01
524.61	52456.09
524.78	52048.83
524.96	52474.81
525.13	52346.08
525.30	52523.96
525.47	52732.27
525.64	52839.93
525.81	52694.82
525.98	53125.48
526.16	52868.02
526.33	52823.55
526.50	53183.99
526.67	52999.09
526.84	53027.18
527.01	52959.30
527.18	53455.50
527.36	53237.83
527.53	53413.37
527.70	53609.97
527.87	53591.25
528.04	53139.52
528.21	53413.37
528.38	53535.07
528.55	53710.61
528.72	53598.27
528.89	53935.30
529.07	53684.87
529.24	53600.61
529.41	53806.58
529.58	53757.42
529.75	53900.20
529.92	53794.87
530.09	53956.37
530.26	54092.12
530.43	54190.42
530.60	54110.85
530.77	53872.11
530.94	54398.73
531.11	54176.38
531.28	54637.47
531.46	54405.75
531.63	54616.40
531.80	54464.27
531.97	54564.91
532.14	54527.46
532.31	54607.04
532.48	54813.01
532.65	54639.81
532.82	54431.50
532.99	55056.42
533.16	54887.90
533.33	54948.76
533.50	55033.02
533.67	55075.15
533.84	54925.35
534.01	54974.50
534.18	55056.42
534.35	55332.60
534.52	55447.29
534.69	55358.35
534.86	55395.80
535.03	55306.86
535.20	55356.01
535.37	55386.44
535.54	55524.53
535.71	55655.60
535.88	55611.13
536.05	55629.85
536.22	55728.16
536.38	55971.57
536.55	55849.86
536.72	55674.32
536.89	55728.16
537.06	55817.10
537.23	55781.99
537.40	55320.90
537.57	55730.50
537.74	56025.40
537.91	56200.94
538.08	55948.17
538.25	56072.21
538.42	55950.51
538.59	56526.28
538.75	56179.88
538.92	56142.43
539.09	56463.08
539.26	56149.45
539.43	56147.11
539.60	56317.97
539.77	56453.72
539.94	56507.55
540.11	56339.04
540.28	56491.17
540.44	56662.03
540.61	56640.96
540.78	56472.45
540.95	56638.62
541.12	56416.27
541.29	56477.13
541.46	56818.84
541.62	56596.49
541.79	56912.47
541.96	56594.15
542.13	56851.61
542.30	56868.00
542.47	56954.60
542.63	57188.65
542.80	57254.18
542.97	57144.18
543.14	57415.68
543.31	57467.17
543.48	57492.92
543.64	57659.10
543.81	57633.35
543.98	57247.16
544.15	57312.70
544.32	57801.87
544.48	57565.48
544.65	57420.36
544.82	57399.30
544.99	57399.30
545.16	57851.02
545.32	57436.75
545.49	57963.37
545.66	57886.13
545.83	57822.93
546.00	57829.96
546.16	57813.57
546.33	57776.12
546.50	57532.71
546.67	57733.99
546.83	57530.37
547.00	57818.25
547.17	57820.59
547.34	57944.64
547.50	58115.50
547.67	58274.66
547.84	58082.73
548.00	58227.85
548.17	58454.88
548.34	58408.07
548.51	58351.90
548.67	58351.90
548.84	58326.15
549.01	58192.74
549.18	58159.97
549.34	58260.62
549.51	58295.72
549.68	58365.94
549.84	58508.71
550.01	58424.45
550.18	58363.60
550.34	58562.54
550.51	58681.91
550.68	58688.93
550.84	58384.66
551.01	58548.50
551.18	58541.48
551.34	58852.77
551.51	58717.02
551.68	58677.23
551.84	58541.48
552.01	58592.97
552.18	58599.99
552.34	58504.03
552.51	58908.94
552.68	58595.31
552.84	58752.13
553.01	59105.55
553.18	58894.90
553.34	58990.86
553.51	58766.17
553.67	59030.65
553.84	59049.38
554.01	58777.87
554.17	59103.21
554.34	59234.28
554.51	58983.84
554.67	59035.33
554.84	59236.62
555.00	59093.85
555.17	59297.47
555.33	59262.36
555.50	59075.12
555.67	59152.36
555.83	59133.63
556.00	59339.60
556.16	59344.28
556.33	59428.54
556.50	59351.30
556.66	59306.83
556.83	59332.58
556.99	59561.95
557.16	59896.65
557.32	59671.96
557.49	59891.97
557.65	59304.49
557.82	59554.93
557.98	59545.57
558.15	59510.46
558.32	59512.80
558.48	59437.90
558.65	59632.17
558.81	59608.76
558.98	59613.44
559.14	59852.18
559.31	59901.33
559.47	59793.67
559.64	59987.93
559.80	59763.24
559.97	59880.27
560.13	59732.81
560.30	59781.96
560.46	59859.20
560.63	60055.81
560.79	59934.10
560.96	59938.78
561.12	60062.83
561.29	60121.34
561.45	60116.66
561.61	59721.11
561.78	59962.18
561.94	60081.55
562.11	60161.13
562.27	60072.19
562.44	60205.60
562.60	60102.62
562.77	60116.66
562.93	59966.87
563.10	59962.18
563.26	59978.57
563.42	60346.03
563.59	60266.45
563.75	60165.81
563.92	60004.31
564.08	60261.77
564.24	60315.61
564.41	60217.30
564.57	60308.58
564.74	60334.33
564.90	60151.77
565.07	60245.39
565.23	60114.32
565.39	60165.81
565.56	60275.82
565.72	60378.80
565.88	60306.24
566.05	60271.14
566.21	60093.25
566.38	60411.57
566.54	60327.31
566.70	60566.04
566.87	60322.63
567.03	60245.39
567.19	60582.43
567.36	60472.42
567.52	60334.33
567.68	60535.62
567.85	60390.50
568.01	60484.12
568.17	60439.65
568.34	60582.43
568.50	60423.27
568.66	60427.95
568.83	60626.90
568.99	60500.51
569.15	60495.83
569.32	60617.53
569.48	60570.72
569.64	60690.09
569.81	60748.60
569.97	60554.34
570.13	60488.80
570.30	60528.59
570.46	60673.71
570.62	60570.72
570.78	60694.77
570.95	60685.41
571.11	60556.68
571.27	60603.49
571.43	60629.24
571.60	60762.65
571.76	60772.01
571.92	60633.92
572.09	60830.52
572.25	60657.32
572.41	60736.90
572.57	60748.60
572.74	60893.72
572.90	60739.24
573.06	60741.58
573.22	60694.77
573.38	60776.69
573.55	60811.80
573.71	60788.39
573.87	60769.67
574.03	60666.69
574.20	60800.10
574.36	60647.96
574.52	60741.58
574.68	60856.27
574.84	61090.32
575.01	60959.25
575.17	60945.21
575.33	60879.67
575.49	60750.94
575.65	60893.72
575.82	60877.33
575.98	61008.40
576.14	61050.53
576.30	60893.72
576.46	60891.38
576.62	60776.69
576.79	60662.00
576.95	60783.71
577.11	60949.89
577.27	60870.31
577.43	60816.48
577.59	60718.18
577.75	60704.13
577.92	60722.86
578.08	60940.53
578.24	61008.40
578.40	61015.43
578.56	61123.09
578.72	60846.91
578.88	60985.00
579.04	61261.18
579.21	61120.75
579.37	61118.41
579.53	61169.90
579.69	60994.36
579.85	60891.38
580.01	61034.15
580.17	60739.24
580.33	60896.06
580.49	61216.71
580.65	61034.15
580.82	61134.79
580.98	60942.87
581.14	61020.11
581.30	61008.40
581.46	60996.70
581.62	61087.98
581.78	61216.71
581.94	61160.54
582.10	61064.58
582.26	61052.87
582.42	61052.87
582.58	61197.99
582.74	61113.73
582.90	60931.17
583.06	60994.36
583.22	60938.19
583.38	61045.85
583.54	61078.62
583.70	61043.51
583.86	61008.40
584.02	60961.59
584.18	61282.25
584.34	61141.81
584.50	61043.51
584.66	60896.06
584.82	60921.80
584.98	61226.07
585.14	61200.33
585.30	60760.31
585.46	61172.24
585.62	61073.94
585.78	61209.69
585.94	60830.52
586.10	61006.06
586.26	61085.64
586.42	61195.65
586.58	61305.65
586.74	61202.67
586.90	60938.19
587.06	61085.64
587.22	61256.50
587.38	61155.86
587.54	61432.04
587.70	61422.68
587.86	61127.77
588.02	61109.05
588.18	61289.27
588.34	61015.43
588.49	61015.43
