SpectraSuite Data File
++++++++++++++++++++++++++++++++++++
Date: Fri Oct 25 10:48:24 EDT 2013
User: price-jones
Dark Spectrum Present: No
Reference Spectrum Present: No
Number of Sampled Component Spectra: 1
Spectrometers: USB2+H05261
Integration Time (usec): 100000 (USB2+H05261)
Spectra Averaged: 1 (USB2+H05261)
Boxcar Smoothing: 0 (USB2+H05261)
Correct for Electrical Dark: No (USB2+H05261)
Strobe/Lamp Enabled: No (USB2+H05261)
Correct for Detector Non-linearity: No (USB2+H05261)
Correct for Stray Light: No (USB2+H05261)
Number of Pixels in Processed Spectrum: 2048
>>>>>Begin Processed Spectral Data<<<<<
365.73	107.66
365.92	107.66
366.12	107.66
366.32	77.24
366.52	88.94
366.72	51.49
366.91	39.79
367.11	30.43
367.31	0.00
367.51	51.49
367.70	67.88
367.90	100.64
368.10	121.71
368.30	58.51
368.49	56.17
368.69	145.11
368.89	53.83
369.09	39.79
369.28	42.13
369.48	70.22
369.68	117.03
369.87	138.09
370.07	91.28
370.27	168.52
370.47	241.08
370.66	435.34
370.86	393.21
371.06	491.51
371.25	491.51
371.45	463.43
371.65	491.51
371.84	463.43
372.04	477.47
372.24	470.45
372.44	571.09
372.63	566.41
372.83	559.39
373.03	585.13
373.22	510.24
373.42	449.38
373.62	521.94
373.81	634.29
374.01	559.39
374.21	620.24
374.40	531.30
374.60	526.62
374.79	620.24
374.99	564.07
375.19	596.84
375.38	615.56
375.58	676.41
375.78	575.77
375.97	613.22
376.17	653.01
376.37	582.79
376.56	585.13
376.76	543.00
376.95	601.52
377.15	631.94
377.35	676.41
377.54	657.69
377.74	578.11
377.93	627.26
378.13	615.56
378.33	664.71
378.52	599.18
378.72	648.33
378.91	725.57
379.11	737.27
379.31	674.07
379.50	683.44
379.70	664.71
379.89	781.74
380.09	636.63
380.28	695.14
380.48	669.39
380.68	720.88
380.87	711.52
381.07	748.97
381.26	653.01
381.46	669.39
381.65	709.18
381.85	746.63
382.04	676.41
382.24	746.63
382.43	748.97
382.63	744.29
382.83	716.20
383.02	861.32
383.22	758.33
383.41	730.25
383.61	816.85
383.80	800.46
384.00	800.46
384.19	826.21
384.39	739.61
384.58	823.87
384.78	821.53
384.97	795.78
385.17	788.76
385.36	798.12
385.56	870.68
385.75	819.19
385.95	873.02
386.14	805.14
386.34	868.34
386.53	844.93
386.72	908.13
386.92	880.04
387.11	917.49
387.31	884.72
387.50	858.98
387.70	842.59
387.89	861.32
388.09	884.72
388.28	863.66
388.48	908.13
388.67	947.92
388.86	908.13
389.06	901.11
389.25	868.34
389.45	987.71
389.64	931.53
389.84	994.73
390.03	1027.50
390.22	973.66
390.42	936.21
390.61	957.28
390.81	1060.26
391.00	1071.97
391.19	945.58
391.39	1027.50
391.58	1057.92
391.78	1048.56
391.97	1041.54
392.16	1053.24
392.36	1088.35
392.55	1039.20
392.75	1043.88
392.94	1027.50
393.13	968.98
393.33	1057.92
393.52	1097.71
393.71	1130.48
393.91	1097.71
394.10	1125.80
394.29	1158.57
394.49	1130.48
394.68	1233.46
394.88	1200.69
395.07	1245.16
395.26	1188.99
395.46	1163.25
395.65	1219.42
395.84	1245.16
396.04	1291.98
396.23	1177.29
396.42	1284.95
396.62	1158.57
396.81	1224.10
397.00	1249.85
397.19	1294.32
397.39	1387.94
397.58	1275.59
397.77	1364.53
397.97	1462.83
398.16	1423.05
398.35	1420.71
398.55	1460.49
398.74	1493.26
398.93	1432.41
399.12	1483.90
399.32	1394.96
399.51	1465.18
399.70	1488.58
399.90	1416.02
400.09	1577.52
400.28	1526.03
400.47	1577.52
400.67	1600.93
400.86	1603.27
401.05	1561.14
401.24	1572.84
401.44	1631.35
401.63	1732.00
401.82	1659.44
402.01	1661.78
402.21	1694.55
402.40	1720.29
402.59	1689.87
402.78	1682.85
402.97	1750.72
403.17	1678.16
403.36	1776.47
403.55	1806.89
403.74	1867.75
403.93	1802.21
404.13	1856.04
404.32	1858.39
404.51	1900.52
404.70	1827.96
404.89	1832.64
405.09	1905.20
405.28	1837.32
405.47	1905.20
405.66	1952.01
405.85	1975.41
406.05	1954.35
406.24	2031.58
406.43	1963.71
406.62	1952.01
406.81	2040.95
407.00	2005.84
407.20	1900.52
407.39	1966.05
407.58	2172.02
407.77	2062.01
407.96	2221.17
408.15	2195.42
408.34	2080.74
408.54	2108.82
408.73	2202.44
408.92	2204.78
409.11	2225.85
409.30	2345.22
409.49	2207.13
409.68	2305.43
409.87	2141.59
410.07	2265.64
410.26	2321.81
410.45	2300.75
410.64	2286.70
410.83	2377.98
411.02	2448.20
411.21	2399.05
411.40	2499.69
411.59	2504.37
411.78	2497.35
411.98	2469.27
412.17	2553.52
412.36	2485.65
412.55	2583.95
412.74	2569.91
412.93	2724.38
413.12	2693.96
413.31	2801.62
413.50	2672.89
413.69	2710.34
413.88	2806.30
414.07	2782.90
414.26	2829.71
414.45	2888.22
414.64	2778.22
414.83	2890.56
415.02	2991.20
415.22	3068.44
415.41	3019.29
415.60	3047.38
415.79	3133.98
415.98	3070.78
416.17	3047.38
416.36	3084.83
416.55	3155.04
416.74	3213.56
416.93	3169.09
417.12	3222.92
417.31	3155.04
417.50	3293.13
417.69	3377.39
417.88	3391.44
418.07	3251.00
418.26	3272.07
418.45	3375.05
418.64	3508.46
418.83	3503.78
419.02	3449.95
419.21	3487.40
419.39	3447.61
419.58	3372.71
419.77	3595.06
419.96	3499.10
420.15	3599.74
420.34	3674.64
420.53	3536.55
420.72	3613.79
420.91	3599.74
421.10	3698.05
421.29	3688.68
421.48	3751.88
421.67	3623.15
421.86	3662.94
422.05	3632.51
422.24	3749.54
422.43	3674.64
422.61	3758.90
422.80	3735.50
422.99	3815.07
423.18	3691.02
423.37	3761.24
423.56	3833.80
423.75	3815.07
423.94	3777.62
424.13	3686.34
424.32	3721.45
424.50	3892.31
424.69	3871.25
424.88	3971.89
425.07	3801.03
425.26	3775.28
425.45	3686.34
425.64	3803.37
425.83	3913.38
426.01	3784.65
426.20	3784.65
426.39	3831.46
426.58	3786.99
426.77	3969.55
426.96	3878.27
427.15	3845.50
427.33	4037.42
427.52	3880.61
427.71	3950.82
427.90	4175.52
428.09	3941.46
428.28	3948.48
428.46	4180.20
428.65	4086.58
428.84	4156.79
429.03	4112.32
429.22	4107.64
429.40	4149.77
429.59	4145.09
429.78	3747.20
429.97	3943.80
430.16	3885.29
430.34	3939.12
430.53	4032.74
430.72	4159.13
430.91	4255.09
431.10	4346.37
431.28	4461.06
431.47	4435.32
431.66	4725.54
431.85	4397.87
432.03	4388.50
432.22	4423.61
432.41	4496.17
432.60	4645.96
432.79	4582.77
432.97	4657.67
433.16	4531.28
433.35	4615.54
433.54	4493.83
433.72	4629.58
433.91	4620.22
434.10	4463.40
434.28	4772.35
434.47	4692.77
434.66	4760.65
434.85	4730.22
435.03	4702.14
435.22	4830.87
435.41	4968.96
435.59	4973.64
435.78	4971.30
435.97	5135.14
436.16	5034.49
436.34	4968.96
436.53	5081.30
436.72	5074.28
436.90	4990.02
437.09	4905.76
437.28	4966.62
437.46	4999.38
437.65	4994.70
437.84	5057.90
438.02	5128.11
438.21	5050.88
438.40	5067.26
438.58	5212.37
438.77	5472.17
438.96	5259.18
439.14	5411.32
439.33	5371.53
439.52	5469.83
439.70	5392.59
439.89	5437.06
440.08	5572.82
440.26	5589.20
440.45	5490.90
440.63	5647.71
440.82	5820.91
441.01	5755.38
441.19	5951.98
441.38	5900.49
441.57	5984.75
441.75	5872.40
441.94	6057.31
442.12	6052.63
442.31	6160.29
442.50	6246.89
442.68	6153.27
442.87	6085.39
443.05	6214.12
443.24	6312.42
443.43	6293.70
443.61	6136.88
443.80	6277.32
443.98	6162.63
444.17	6108.80
444.35	6239.87
444.54	6506.69
444.73	6211.78
444.91	6380.30
445.10	6146.25
445.28	6452.86
445.47	6260.93
445.65	6370.94
445.84	6417.75
446.02	6179.01
446.21	6359.24
446.39	6438.81
446.58	6403.71
446.77	6431.79
446.95	6303.06
447.14	6445.84
447.32	6682.23
447.51	6476.26
447.69	6417.75
447.88	6473.92
448.06	6431.79
448.25	6544.14
448.43	6743.08
448.62	6424.77
448.80	6408.39
448.99	6647.12
449.17	6544.14
449.36	6504.35
449.54	6780.53
449.73	6649.46
449.91	6881.18
450.10	6883.52
450.28	6939.69
450.46	6991.18
450.65	6965.43
450.83	6930.33
451.02	6942.03
451.20	7171.40
451.39	6988.84
451.57	6916.28
451.76	7084.80
451.94	6906.92
452.13	7059.06
452.31	6995.86
452.49	6787.55
452.68	6932.67
452.86	6888.20
453.05	6904.58
453.23	7148.00
453.42	7033.31
453.60	7131.61
453.78	7318.86
453.97	7110.55
454.15	7152.68
454.34	7138.63
454.52	7229.91
454.70	7309.49
454.89	7162.04
455.07	7119.91
455.26	7260.34
455.44	7676.96
455.62	7358.64
455.81	7550.57
455.99	7695.68
456.17	7562.27
456.36	7786.96
456.54	7721.43
456.73	7648.87
456.91	7988.25
457.09	8030.38
457.28	8006.97
457.46	7826.75
457.64	7873.56
457.83	7964.84
458.01	7819.73
458.19	7997.61
458.38	7843.14
458.56	8124.00
458.74	8147.40
458.93	8095.91
459.11	8056.12
459.29	7908.67
459.48	8028.04
459.66	8095.91
459.84	8051.44
460.03	8442.31
460.21	8252.73
460.39	8173.15
460.57	8292.52
460.76	8482.10
460.94	8423.59
461.12	8269.11
461.31	8435.29
461.49	8205.92
461.67	8234.00
461.85	8538.27
462.04	8617.85
462.22	8940.85
462.40	8720.84
462.59	8706.79
462.77	8760.63
462.95	8571.04
463.13	8573.38
463.32	8760.63
463.50	8833.18
463.68	8844.88
463.86	8915.10
464.05	8730.20
464.23	8634.24
464.41	8884.67
464.59	8524.23
464.78	9090.64
464.96	8875.31
465.14	8823.82
465.32	8809.78
465.50	8812.12
465.69	9219.37
465.87	8908.08
466.05	9067.24
466.23	8851.91
466.41	9057.87
466.60	9116.39
466.78	8910.42
466.96	8905.74
467.14	9041.49
467.32	9050.85
467.51	9469.81
467.69	9137.45
467.87	9095.32
468.05	9404.27
468.23	9240.44
468.41	9100.00
468.60	9205.33
468.78	9240.44
468.96	9270.86
469.14	9135.11
469.32	9502.58
469.50	9270.86
469.69	9425.34
469.87	9556.41
470.05	9516.62
470.23	9626.62
470.41	9556.41
470.59	9729.61
470.77	9633.64
470.95	9804.50
471.14	9802.16
471.32	9682.80
471.50	9989.41
471.68	9895.78
471.86	10232.82
472.04	10054.94
472.22	10289.00
472.40	10059.62
472.58	10010.47
472.77	10115.80
472.95	10235.16
473.13	10724.33
473.31	9994.09
473.49	10342.83
473.67	10501.98
473.85	10375.59
474.03	10609.65
474.21	10759.44
474.39	10623.69
474.57	10869.45
474.75	10829.66
474.93	10892.85
475.12	10937.32
475.30	10965.41
475.48	10621.35
475.66	11077.76
475.84	11014.56
476.02	11117.54
476.20	11033.29
476.38	11531.82
476.56	11597.35
476.74	11531.82
476.92	11403.09
477.10	11644.17
477.28	11793.96
477.46	11925.03
477.64	11929.71
477.82	11906.31
478.00	12056.10
478.18	12367.39
478.36	12294.83
478.54	12439.95
478.72	12369.73
478.90	12610.81
479.08	12748.90
479.26	12641.23
479.44	12645.91
479.62	13027.42
479.80	13029.76
479.98	13163.17
480.16	13310.63
480.34	13224.03
480.52	13429.99
480.70	13437.02
480.88	13554.04
481.06	13600.85
481.24	13650.00
481.41	13991.72
481.59	14043.21
481.77	14015.13
481.95	14183.65
482.13	14487.92
482.31	14073.64
482.49	14429.40
482.67	14565.15
482.85	14623.67
483.03	14597.92
483.21	15026.24
483.39	15030.92
483.57	15241.57
483.74	15215.82
483.92	15129.22
484.10	15140.93
484.28	15377.32
484.46	15843.09
484.64	15889.90
484.82	15836.06
485.00	15822.02
485.18	16049.05
485.35	16365.03
485.53	15997.56
485.71	16072.46
485.89	16318.22
486.07	16145.02
486.25	16512.48
486.43	16683.34
486.61	16692.70
486.78	16903.35
486.96	16968.88
487.14	17315.28
487.32	17404.22
487.50	17673.39
487.68	17860.63
487.85	18003.40
488.03	18314.69
488.21	18338.10
488.39	18291.29
488.57	18317.03
488.75	18403.63
488.92	18609.60
489.10	18930.25
489.28	18960.68
489.46	19154.94
489.64	19194.73
489.81	19655.82
489.99	19639.44
490.17	19770.51
490.35	19768.16
490.53	20039.67
490.70	20119.24
490.88	19981.15
491.06	20376.70
491.24	20180.10
491.41	20177.76
491.59	20210.53
491.77	20271.38
491.95	20882.26
492.13	20732.47
492.30	20938.43
492.48	21413.56
492.66	21387.82
492.84	21933.16
493.01	21757.62
493.19	21387.82
493.37	21928.48
493.54	22089.98
493.72	22169.55
493.90	22150.83
494.08	22492.55
494.25	22541.70
494.43	22944.27
494.61	22792.14
494.79	22895.12
494.96	23016.83
495.14	23143.22
495.32	22970.02
495.49	23257.90
495.67	23487.28
495.85	23590.26
496.02	23824.31
496.20	23934.32
496.38	23613.66
496.55	24144.97
496.73	24746.48
496.91	24215.18
497.09	24577.97
497.26	24393.06
497.44	24439.87
497.62	24680.95
497.79	24938.41
497.97	24587.33
498.14	24863.51
498.32	25113.95
498.50	25345.66
498.67	25575.03
498.85	25738.87
499.03	26171.87
499.20	25635.89
499.38	25434.60
499.56	25956.54
499.73	25902.71
499.91	25855.90
500.08	26176.55
500.26	26401.24
500.44	26377.84
500.61	26228.04
500.79	26249.11
500.97	26670.40
501.14	26822.54
501.32	26518.27
501.49	26551.04
501.67	26689.13
501.84	27152.55
502.02	27222.77
502.20	27220.43
502.37	27480.23
502.55	27363.20
502.72	27613.64
502.90	27435.76
503.07	27482.57
503.25	27936.63
503.43	27564.49
503.60	27623.00
503.78	27763.43
503.95	27931.95
504.13	28332.18
504.30	28247.93
504.48	28194.09
504.65	28268.99
504.83	28851.78
505.01	28409.42
505.18	28912.64
505.36	29069.45
505.53	29062.43
505.71	29202.86
505.88	29355.00
506.06	28996.90
506.23	29074.13
506.41	29219.25
506.58	29582.03
506.76	28830.72
506.93	29816.08
507.11	29551.60
507.28	29701.40
507.46	29287.12
507.63	29425.22
507.81	29699.06
507.98	29635.86
508.16	30019.71
508.33	30134.40
508.50	30548.67
508.68	30307.60
508.85	30513.56
509.03	30263.13
509.20	30199.93
509.38	30888.05
509.55	30710.17
509.73	30742.94
509.90	31365.52
510.08	30609.53
510.25	31037.84
510.42	31246.15
510.60	31349.14
510.77	31283.60
510.95	31646.38
511.12	31812.56
511.30	31744.69
511.47	31772.77
511.64	32381.31
511.82	32016.19
511.99	31557.44
512.17	31821.92
512.34	32074.70
512.51	32105.13
512.69	32203.43
512.86	32273.65
513.04	32528.77
513.21	32318.12
513.38	32105.13
513.56	32510.04
513.73	32512.38
513.90	32610.68
514.08	32636.43
514.25	32617.71
514.43	32603.66
514.60	32837.72
514.77	32804.95
514.95	33223.90
515.12	33076.45
515.29	33209.86
515.47	33537.54
515.64	33834.78
515.81	33539.88
515.99	33392.42
516.16	33350.29
516.33	33542.22
516.51	33200.50
516.68	32910.27
516.85	33095.18
517.03	33378.38
517.20	33427.53
517.37	33570.30
517.54	34005.64
517.72	34082.88
517.89	34066.50
518.06	33347.95
518.24	33635.84
518.41	34092.24
518.58	33862.87
518.75	34115.65
518.93	34429.28
519.10	34735.89
519.27	34792.06
519.45	34597.80
519.62	35026.12
519.79	34955.90
519.96	35196.98
520.14	34827.17
520.31	35058.88
520.48	35154.85
520.65	34979.31
520.83	35526.99
521.00	35356.13
521.17	35704.87
521.34	35718.92
521.52	35576.14
521.69	36182.34
521.86	35967.01
522.03	36100.42
522.20	35861.69
522.38	35842.96
522.55	36055.95
522.72	36009.14
522.89	35952.97
523.07	36325.11
523.24	36023.19
523.41	36552.15
523.58	35936.59
523.75	36957.06
523.92	36762.79
524.10	36528.74
524.27	37165.37
524.44	37010.89
524.61	37163.03
524.78	36994.51
524.96	36940.68
525.13	37495.38
525.30	37673.26
525.47	37195.79
525.64	37329.20
525.81	37186.43
525.98	37294.10
526.16	37247.29
526.33	36732.37
526.50	37294.10
526.67	37123.24
526.84	37202.82
527.01	37488.36
527.18	37486.02
527.36	38162.43
527.53	38052.43
527.70	38401.17
527.87	38080.52
528.04	37958.81
528.21	38003.28
528.38	38099.24
528.55	38234.99
528.72	38256.06
528.89	38504.15
529.07	38209.25
529.24	38246.69
529.41	38286.48
529.58	38380.10
529.75	38345.00
529.92	38869.28
530.09	38864.60
530.26	38869.28
530.43	38866.94
530.60	38555.64
530.77	39033.11
530.94	39267.17
531.11	39037.80
531.28	38902.04
531.46	39124.40
531.63	39239.08
531.80	39290.57
531.97	39100.99
532.14	38911.41
532.31	39023.75
532.48	38990.98
532.65	39299.94
532.82	39028.43
532.99	39922.52
533.16	39374.83
533.33	39894.43
533.50	39885.07
533.67	40198.70
533.84	39683.78
534.01	39964.65
534.18	39442.71
534.35	40048.91
534.52	39875.71
534.69	39871.03
534.86	39861.66
535.03	40397.65
535.20	40477.22
535.37	40016.14
535.54	40411.69
535.71	40322.75
535.88	40048.91
536.05	40526.38
536.22	40673.83
536.38	40477.22
536.55	40500.63
536.72	40318.07
536.89	40013.80
537.06	40367.22
537.23	40753.41
537.40	40432.75
537.57	40521.69
537.74	40463.18
537.91	40893.84
538.08	41174.70
538.25	40718.30
538.42	40945.33
538.59	41113.85
538.75	40538.08
538.92	40966.40
539.09	40788.52
539.26	41067.04
539.43	41336.20
539.60	41315.14
539.77	41315.14
539.94	41731.75
540.11	40968.74
540.28	41268.33
540.44	41202.79
540.61	41020.23
540.78	41130.23
540.95	41130.23
541.12	41282.37
541.29	41457.91
541.46	41464.93
541.62	41022.57
541.79	41642.81
541.96	41504.72
542.13	41933.04
542.30	41708.35
542.47	41546.85
542.63	41855.80
542.80	41509.40
542.97	42178.79
543.14	42274.76
543.31	42284.12
543.48	42344.97
543.64	43178.20
543.81	42574.34
543.98	42635.20
544.15	42033.68
544.32	42845.85
544.48	42990.96
544.65	42824.78
544.82	42852.87
544.99	42380.08
545.16	42852.87
545.32	42232.63
545.49	42986.28
545.66	43138.41
545.83	42993.30
546.00	42782.65
546.16	42693.71
546.33	42691.37
546.50	42321.57
546.67	42983.94
546.83	43180.54
547.00	43098.62
547.17	42792.01
547.34	43086.92
547.50	42946.49
547.67	43220.33
547.84	43655.67
548.00	43552.69
548.17	43124.37
548.34	43456.73
548.51	42997.98
548.67	43442.68
548.84	43756.32
549.01	43639.29
549.18	43756.32
549.34	43477.79
549.51	43683.76
549.68	43744.61
549.84	43470.77
550.01	43571.41
550.18	43583.12
550.34	43810.15
550.51	43290.55
550.68	43466.09
550.84	43503.54
551.01	43863.98
551.18	43672.06
551.34	43948.24
551.51	43938.88
551.68	44268.89
551.84	43878.02
552.01	43601.84
552.18	43758.66
552.34	43768.02
552.51	44222.08
552.68	44287.62
552.84	44032.50
553.01	44432.73
553.18	44409.32
553.34	44039.52
553.51	44264.21
553.67	44233.78
553.84	44748.70
554.01	44397.62
554.17	44526.35
554.34	44811.90
554.51	44669.12
554.67	44760.40
554.84	44336.77
555.00	44240.81
555.17	44329.75
555.33	44271.23
555.50	44516.99
555.67	44727.64
555.83	44383.58
556.00	44430.39
556.16	45256.60
556.33	44872.75
556.50	44893.82
556.66	45038.93
556.83	44828.28
556.99	44938.29
557.16	45184.04
557.32	44676.15
557.49	45008.50
557.65	44830.62
557.82	44879.77
557.98	44999.14
558.15	45137.23
558.32	44917.22
558.48	44713.59
558.65	45036.59
558.81	44903.18
558.98	45050.63
559.14	44690.19
559.31	45020.20
559.47	45177.02
559.64	45401.71
559.80	45305.75
559.97	44954.67
560.13	44849.35
560.30	45186.38
560.46	45270.64
560.63	45254.26
560.79	45167.66
560.96	45514.06
561.12	45308.09
561.29	45434.48
561.45	45315.11
561.61	45715.34
561.78	45471.93
561.94	45097.44
562.11	45284.68
562.27	45275.32
562.44	45078.72
562.60	45284.68
562.77	45560.87
562.93	45546.82
563.10	45790.24
563.26	45057.65
563.42	45581.93
563.59	45406.39
563.75	45284.68
563.92	45404.05
564.08	45509.38
564.24	45659.17
564.41	45441.50
564.57	45378.31
564.74	45701.30
564.90	45727.05
565.07	45851.09
565.23	45736.41
565.39	45467.25
565.56	46082.81
565.72	45413.41
565.88	45333.84
566.05	45525.76
566.21	45544.48
566.38	45413.41
566.54	45397.03
566.70	46085.15
566.87	46141.32
567.03	45717.68
567.19	46272.39
567.36	45982.16
567.52	45659.17
567.68	46138.98
567.85	45862.80
568.01	45600.66
568.17	45399.37
568.34	45872.16
568.50	45467.25
568.66	45897.91
568.83	45834.71
568.99	45570.23
569.15	45738.75
569.32	45832.37
569.48	45654.49
569.64	45949.40
569.81	45703.64
569.97	46000.89
570.13	45991.53
570.30	45977.48
570.46	45588.95
570.62	45385.33
570.78	45471.93
570.95	45614.70
571.11	46258.35
571.27	45731.73
571.43	45841.73
571.60	45823.01
571.76	46099.19
571.92	45965.78
572.09	45539.80
572.25	46277.07
572.41	46036.00
572.57	46267.71
572.74	46579.00
572.90	45780.88
573.06	45963.44
573.22	46052.38
573.38	46143.66
573.55	46082.81
573.71	46197.49
573.87	45909.61
574.03	45801.94
574.20	46047.70
574.36	46150.68
574.52	46258.35
574.68	45977.48
574.84	46543.89
575.01	45954.08
575.17	45862.80
575.33	45675.55
575.49	45996.21
575.65	46258.35
575.82	46335.59
575.98	45972.80
576.14	46129.62
576.30	46103.87
576.46	45986.85
576.62	45813.65
576.79	45787.90
576.95	45624.06
577.11	46298.14
577.27	46368.35
577.43	46260.69
577.59	45436.82
577.75	46101.53
577.92	45511.72
578.08	45668.53
578.24	45429.80
578.40	45663.85
578.56	45860.46
578.72	46270.05
578.88	46237.28
579.04	46216.22
579.21	45954.08
579.37	45595.98
579.53	45867.48
579.69	45743.43
579.85	46078.13
580.01	46085.15
580.17	46087.49
580.33	46260.69
580.49	46202.18
580.65	46490.06
580.82	45947.06
580.98	45853.44
581.14	46052.38
581.30	46028.98
581.46	46047.70
581.62	46616.45
581.78	45804.28
581.94	46518.15
582.10	46150.68
582.26	46258.35
582.42	46204.52
582.58	46389.42
582.74	45991.53
582.90	46110.89
583.06	46389.42
583.22	46230.26
583.38	46494.74
583.54	46625.81
583.70	46377.72
583.86	46358.99
584.02	45823.01
584.18	46019.61
584.34	46342.61
584.50	46113.23
584.66	46106.21
584.82	46052.38
584.98	46160.05
585.14	46307.50
585.30	46337.93
585.46	46520.49
585.62	45888.54
585.78	46040.68
585.94	46036.00
586.10	45710.66
586.26	46370.69
586.42	46394.10
586.58	46398.78
586.74	46527.51
586.90	46220.90
587.06	45818.33
587.22	46333.24
587.38	46057.06
587.54	46064.08
587.70	46534.53
587.86	46040.68
588.02	45968.12
588.18	46419.84
588.34	45815.99
588.49	45855.78
588.65	45624.06
588.81	45691.94
588.97	46003.23
589.13	45558.53
589.29	45965.78
589.45	45909.61
589.61	46167.07
589.77	46340.27
589.93	46340.27
