SpectraSuite Data File
++++++++++++++++++++++++++++++++++++
Date: Fri Oct 25 10:47:50 EDT 2013
User: price-jones
Dark Spectrum Present: No
Reference Spectrum Present: No
Number of Sampled Component Spectra: 1
Spectrometers: USB2+H05261
Integration Time (usec): 100000 (USB2+H05261)
Spectra Averaged: 1 (USB2+H05261)
Boxcar Smoothing: 0 (USB2+H05261)
Correct for Electrical Dark: No (USB2+H05261)
Strobe/Lamp Enabled: No (USB2+H05261)
Correct for Detector Non-linearity: No (USB2+H05261)
Correct for Stray Light: No (USB2+H05261)
Number of Pixels in Processed Spectrum: 2048
>>>>>Begin Processed Spectral Data<<<<<
365.73	110.01
365.92	110.01
366.12	110.01
366.32	44.47
366.52	21.06
366.72	25.75
366.91	49.15
367.11	18.72
367.31	9.36
367.51	63.19
367.70	124.05
367.90	25.75
368.10	67.88
368.30	0.00
368.49	49.15
368.69	49.15
368.89	44.47
369.09	84.26
369.28	70.22
369.48	102.98
369.68	98.30
369.87	74.90
370.07	117.03
370.27	191.92
370.47	131.07
370.66	348.74
370.86	411.93
371.06	486.83
371.25	433.00
371.45	418.96
371.65	444.70
371.84	414.27
372.04	475.13
372.24	482.15
372.44	435.34
372.63	561.73
372.83	519.60
373.03	540.66
373.22	533.64
373.42	592.16
373.62	470.45
373.81	512.58
374.01	608.54
374.21	521.94
374.40	557.05
374.60	521.94
374.79	526.62
374.99	545.34
375.19	547.69
375.38	533.64
375.58	592.16
375.78	552.37
375.97	585.13
376.17	678.76
376.37	521.94
376.56	585.13
376.76	479.81
376.95	645.99
377.15	645.99
377.35	627.26
377.54	629.60
377.74	592.16
377.93	620.24
378.13	613.22
378.33	552.37
378.52	622.58
378.72	596.84
378.91	603.86
379.11	540.66
379.31	587.47
379.50	615.56
379.70	608.54
379.89	648.33
380.09	631.94
380.28	608.54
380.48	634.29
380.68	641.31
380.87	692.80
381.07	702.16
381.26	718.54
381.46	692.80
381.65	627.26
381.85	648.33
382.04	685.78
382.24	662.37
382.43	718.54
382.63	664.71
382.83	753.65
383.02	786.42
383.22	739.61
383.41	718.54
383.61	638.97
383.80	802.80
384.00	706.84
384.19	821.53
384.39	758.33
384.58	704.50
384.78	748.97
384.97	774.72
385.17	767.70
385.36	821.53
385.56	809.83
385.75	805.14
385.95	788.76
386.14	777.06
386.34	842.59
386.53	737.27
386.72	727.91
386.92	842.59
387.11	812.17
387.31	840.25
387.50	826.21
387.70	823.87
387.89	791.10
388.09	840.25
388.28	830.89
388.48	814.51
388.67	894.08
388.86	873.02
389.06	826.21
389.25	863.66
389.45	840.25
389.64	898.77
389.84	908.13
390.03	903.45
390.22	891.74
390.42	938.55
390.61	987.71
390.81	842.59
391.00	926.85
391.19	1034.52
391.39	985.37
391.58	999.41
391.78	978.34
391.97	964.30
392.16	987.71
392.36	978.34
392.55	1022.81
392.75	1022.81
392.94	978.34
393.13	999.41
393.33	1015.79
393.52	957.28
393.71	1029.84
393.91	1018.13
394.10	1046.22
394.29	1055.58
394.49	1097.71
394.68	1121.12
394.88	1086.01
395.07	1104.73
395.26	1158.57
395.46	1153.88
395.65	1163.25
395.84	1184.31
396.04	1158.57
396.23	1198.35
396.42	1114.10
396.62	1179.63
396.81	1207.72
397.00	1153.88
397.19	1217.08
397.39	1245.16
397.58	1294.32
397.77	1315.38
397.97	1350.49
398.16	1233.46
398.35	1221.76
398.55	1327.08
398.74	1357.51
398.93	1392.62
399.12	1362.19
399.32	1369.21
399.51	1324.74
399.70	1439.43
399.90	1434.75
400.09	1383.26
400.28	1427.73
400.47	1437.09
400.67	1483.90
400.86	1418.36
401.05	1544.75
401.24	1535.39
401.44	1537.73
401.63	1483.90
401.82	1570.50
402.01	1441.77
402.21	1535.39
402.40	1547.09
402.59	1577.52
402.78	1607.95
402.97	1516.67
403.17	1540.07
403.36	1668.80
403.55	1666.46
403.74	1626.67
403.93	1727.32
404.13	1650.08
404.32	1607.95
404.51	1764.76
404.70	1762.42
404.89	1647.74
405.09	1746.04
405.28	1778.81
405.47	1760.08
405.66	1774.13
405.85	1729.66
406.05	1706.25
406.24	1818.60
406.43	1809.23
406.62	1771.79
406.81	1856.04
407.00	1839.66
407.20	1783.49
407.39	1867.75
407.58	1928.60
407.77	1991.80
407.96	1935.62
408.15	1994.14
408.34	2038.61
408.54	2078.40
408.73	1879.45
408.92	1996.48
409.11	1935.62
409.30	2003.50
409.49	2125.21
409.68	2038.61
409.87	2080.74
410.07	2019.88
410.26	2195.42
410.45	2099.46
410.64	2176.70
410.83	2188.40
411.02	2186.06
411.21	2305.43
411.40	2235.21
411.59	2321.81
411.78	2361.60
411.98	2167.34
412.17	2408.41
412.36	2406.07
412.55	2480.97
412.74	2523.10
412.93	2427.14
413.12	2401.39
413.31	2415.43
413.50	2541.82
413.69	2457.56
413.88	2597.99
414.07	2621.40
414.26	2569.91
414.45	2616.72
414.64	2518.42
414.83	2654.17
415.02	2689.28
415.22	2600.34
415.41	2803.96
415.60	2750.13
415.79	2853.11
415.98	2930.35
416.17	2818.00
416.36	2892.90
416.55	2890.56
416.74	3009.93
416.93	2892.90
417.12	3014.61
417.31	3033.33
417.50	2935.03
417.69	3082.49
417.88	3082.49
418.07	3166.74
418.26	3084.83
418.45	3073.12
418.64	3110.57
418.83	3311.86
419.02	3089.51
419.21	3236.96
419.39	3267.39
419.58	3108.23
419.77	3180.79
419.96	3283.77
420.15	3211.22
420.34	3272.07
420.53	3339.94
420.72	3405.48
420.91	3412.50
421.10	3447.61
421.29	3492.08
421.48	3365.69
421.67	3370.37
421.86	3372.71
422.05	3438.25
422.24	3440.59
422.43	3421.86
422.61	3513.14
422.80	3473.36
422.99	3454.63
423.18	3548.25
423.37	3609.11
423.56	3471.01
423.75	3473.36
423.94	3522.51
424.13	3445.27
424.32	3478.04
424.50	3541.23
424.69	3639.53
424.88	3588.04
425.07	3496.76
425.26	3440.59
425.45	3637.19
425.64	3585.70
425.83	3538.89
426.01	3723.79
426.20	3623.15
426.39	3590.38
426.58	3583.36
426.77	3473.36
426.96	3538.89
427.15	3630.17
427.33	3655.92
427.52	3698.05
427.71	3707.41
427.90	3744.86
428.09	3794.01
428.28	3758.90
428.46	3709.75
428.65	3801.03
428.84	4002.32
429.03	4074.87
429.22	3761.24
429.40	3779.97
429.59	3918.06
429.78	3667.62
429.97	3609.11
430.16	3950.82
430.34	3784.65
430.53	3857.20
430.72	3819.75
430.91	3911.04
431.10	4138.07
431.28	4060.83
431.47	4149.77
431.66	4227.01
431.85	4154.45
432.03	4234.03
432.22	4374.46
432.41	4241.05
432.60	4201.26
432.79	4222.33
432.97	4180.20
433.16	4355.74
433.35	4217.65
433.54	4308.93
433.72	4311.27
433.91	4402.55
434.10	4374.46
434.28	4313.61
434.47	4355.74
434.66	4451.70
434.85	4533.62
435.03	4692.77
435.22	4313.61
435.41	4631.92
435.59	4514.89
435.78	4505.53
435.97	4507.87
436.16	4578.09
436.34	4636.60
436.53	4741.93
436.72	4650.64
436.90	4559.36
437.09	4706.82
437.28	4683.41
437.46	4627.24
437.65	4727.88
437.84	4739.58
438.02	4662.35
438.21	4667.03
438.40	4538.30
438.58	4816.82
438.77	4755.97
438.96	4936.19
439.14	5123.43
439.33	4940.87
439.52	5081.30
439.70	5158.54
439.89	5193.65
440.08	5184.29
440.26	5179.61
440.45	5231.10
440.63	5263.86
440.82	5362.17
441.01	5313.02
441.19	5341.10
441.38	5504.94
441.57	5448.77
441.75	5551.75
441.94	5696.86
442.12	5708.57
442.31	5788.14
442.50	5790.49
442.68	5570.48
442.87	5664.10
443.05	5755.38
443.24	5893.47
443.43	5760.06
443.61	5785.80
443.80	6008.16
443.98	5640.69
444.17	5650.05
444.35	5959.00
444.54	5956.66
444.73	5760.06
444.91	5888.79
445.10	5912.19
445.28	6043.26
445.47	5760.06
445.65	5694.52
445.84	5893.47
446.02	5963.68
446.21	5937.94
446.39	5809.21
446.58	5851.34
446.77	5959.00
446.95	5977.73
447.14	5951.98
447.32	6036.24
447.51	6129.86
447.69	6052.63
447.88	6125.18
448.06	6003.47
448.25	5912.19
448.43	5984.75
448.62	6066.67
448.80	6003.47
448.99	6010.50
449.17	6207.10
449.36	6127.52
449.54	6216.46
449.73	6291.36
449.91	6429.45
450.10	6448.18
450.28	6403.71
450.46	6347.53
450.65	6384.98
450.83	6441.15
451.02	6321.79
451.20	6541.80
451.39	6539.46
451.57	6546.48
451.76	6417.75
451.94	6516.05
452.13	6480.94
452.31	6593.29
452.49	6286.68
452.68	6459.88
452.86	6518.39
453.05	6780.53
453.23	6597.97
453.42	6665.85
453.60	6642.44
453.78	6691.59
453.97	6616.69
454.15	6649.46
454.34	6619.04
454.52	6881.18
454.70	6792.23
454.89	6773.51
455.07	6970.12
455.26	6792.23
455.44	6899.90
455.62	6963.09
455.81	6953.73
455.99	6998.20
456.17	7183.10
456.36	6904.58
456.54	7260.34
456.73	7066.08
456.91	7372.69
457.09	7391.41
457.28	7339.92
457.46	7155.02
457.64	7330.56
457.83	7426.52
458.01	7150.34
458.19	7513.12
458.38	7311.83
458.56	7613.76
458.74	7330.56
458.93	7405.46
459.11	7698.02
459.29	7410.14
459.48	7510.78
459.66	7468.65
459.84	7557.59
460.03	7742.49
460.21	7721.43
460.39	7763.56
460.57	7721.43
460.76	7765.90
460.94	7913.35
461.12	7850.16
461.31	7791.64
461.49	7564.61
461.67	7681.64
461.85	8018.68
462.04	7948.46
462.22	8402.52
462.40	7868.88
462.59	7995.27
462.77	8009.31
462.95	8093.57
463.13	7819.73
463.32	7934.42
463.50	8252.73
463.68	8035.06
463.86	8135.70
464.05	7988.25
464.23	8191.88
464.41	8187.19
464.59	8088.89
464.78	8547.64
464.96	8388.48
465.14	8278.47
465.32	8486.78
465.50	8540.61
465.69	8432.95
465.87	8264.43
466.05	8255.07
466.23	8212.94
466.41	8229.32
466.60	8674.03
466.78	8360.39
466.96	8446.99
467.14	8320.60
467.32	8535.93
467.51	8671.68
467.69	8446.99
467.87	8685.73
468.05	8777.01
468.23	8664.66
468.41	8547.64
468.60	8564.02
468.78	8856.59
468.96	8624.87
469.14	8751.26
469.32	8828.50
469.50	8638.92
469.69	8683.39
469.87	8884.67
470.05	8982.98
470.23	8964.25
470.41	8964.25
470.59	8994.68
470.77	9025.11
470.95	9060.21
471.14	9270.86
471.32	8943.19
471.50	9397.25
471.68	9341.08
471.86	9338.74
472.04	9434.70
472.22	9727.27
472.40	9235.75
472.58	9437.04
472.77	9437.04
472.95	9650.03
473.13	10057.28
473.31	9652.37
473.49	9572.79
473.67	9675.77
473.85	9673.43
474.03	9783.44
474.21	9893.44
474.39	10038.56
474.57	9858.34
474.75	10085.37
474.93	10310.06
475.12	10031.54
475.30	10209.42
475.48	10239.84
475.66	10352.19
475.84	10349.85
476.02	10237.50
476.20	10277.29
476.38	10436.45
476.56	10710.29
476.74	10600.29
476.92	10902.22
477.10	10925.62
477.28	11112.86
477.46	10864.77
477.64	10972.43
477.82	11087.12
478.00	11232.23
478.18	11332.87
478.36	11363.30
478.54	11412.45
478.72	11442.88
478.90	11889.92
479.08	11976.52
479.26	12013.97
479.44	11880.56
479.62	12126.32
479.80	12053.76
479.98	12320.58
480.16	12414.20
480.34	12292.49
480.52	12428.24
480.70	12554.63
480.88	12362.71
481.06	12744.22
481.24	12814.43
481.41	12865.92
481.59	12957.21
481.77	13195.94
481.95	13142.11
482.13	13334.03
482.31	13284.88
482.49	13614.90
482.67	13294.24
482.85	13713.20
483.03	13820.86
483.21	13891.08
483.39	13923.85
483.57	14026.83
483.74	14270.25
483.92	14307.69
484.10	14190.67
484.28	14757.08
484.46	14771.12
484.64	15248.59
484.82	14757.08
485.00	14846.02
485.18	15316.47
485.35	15288.38
485.53	15124.54
485.71	14998.15
485.89	15211.14
486.07	15297.74
486.25	15618.39
486.43	15728.40
486.61	15543.50
486.78	16142.67
486.96	16177.78
487.14	16222.25
487.32	16133.31
487.50	16493.76
487.68	16751.21
487.85	16800.37
488.03	16793.34
488.21	17132.72
488.39	17186.55
488.57	17312.94
488.75	17350.39
488.92	17472.10
489.10	17869.99
489.28	17949.57
489.46	18169.58
489.64	17891.06
489.81	18558.11
489.99	18293.63
490.17	18548.75
490.35	18738.33
490.53	18815.57
490.70	18574.49
490.88	18785.14
491.06	19213.46
491.24	19075.37
491.41	18993.45
491.59	19197.07
491.77	19328.14
491.95	19552.84
492.13	19637.09
492.30	19690.93
492.48	19697.95
492.66	20376.70
492.84	20046.69
493.01	20407.13
493.19	20334.57
493.37	20741.83
493.54	20748.85
493.72	20650.55
493.90	21022.69
494.08	21022.69
494.25	21357.39
494.43	21570.38
494.61	21331.64
494.79	21359.73
494.96	21462.71
495.14	21699.11
495.32	21956.57
495.49	21975.29
495.67	21888.69
495.85	22251.47
496.02	22214.02
496.20	22434.03
496.38	22750.01
496.55	22597.87
496.73	22852.99
496.91	22876.40
497.09	22984.06
497.26	22808.52
497.44	23157.26
497.62	23094.07
497.79	23463.87
497.97	23421.74
498.14	23833.68
498.32	23859.42
498.50	23679.20
498.67	24184.76
498.85	23861.76
499.03	23992.83
499.20	24156.67
499.38	24379.02
499.56	24489.03
499.73	24290.08
499.91	24634.14
500.08	25055.43
500.26	24524.13
500.44	24823.72
500.61	24893.94
500.79	24840.11
500.97	25270.76
501.14	25357.36
501.32	24938.41
501.49	25186.50
501.67	25252.04
501.84	25177.14
502.02	25289.49
502.20	25813.77
502.37	26075.91
502.55	25972.92
502.72	26022.08
502.90	26054.84
503.07	25792.70
503.25	26146.12
503.43	26103.99
503.60	26403.58
503.78	26036.12
503.95	26457.42
504.13	26382.52
504.30	26778.07
504.48	26691.47
504.65	26728.92
504.83	26820.20
505.01	27290.65
505.18	27194.68
505.36	27337.46
505.53	27255.54
505.71	27798.54
505.88	27548.11
506.06	27424.06
506.23	27505.98
506.41	27463.85
506.58	27569.17
506.76	28011.53
506.93	28053.66
507.11	27529.38
507.28	28149.62
507.46	28203.46
507.63	27941.32
507.81	28128.56
507.98	28016.21
508.16	28348.57
508.33	28184.73
508.50	28648.16
508.68	28854.12
508.85	28870.51
509.03	29371.38
509.20	29057.75
509.38	29392.45
509.55	29205.20
509.73	29249.67
509.90	29221.59
510.08	29275.42
510.25	29326.91
510.42	29872.26
510.60	29741.19
510.77	29841.83
510.95	29652.25
511.12	29872.26
511.30	30150.78
511.47	30352.07
511.64	30192.91
511.82	30359.09
511.99	30108.65
512.17	30312.28
512.34	30246.74
512.51	30403.56
512.69	30913.80
512.86	30508.88
513.04	31054.23
513.21	30675.06
513.38	30845.92
513.56	30513.56
513.73	30672.72
513.90	30995.71
514.08	30576.76
514.25	31178.28
514.43	31185.30
514.60	31374.88
514.77	31105.72
514.95	31447.44
515.12	31487.23
515.29	31295.30
515.47	31976.40
515.64	31859.37
515.81	31299.98
515.99	31894.48
516.16	31901.50
516.33	31873.42
516.51	31800.86
516.68	31749.37
516.85	31491.91
517.03	32123.85
517.20	32086.40
517.37	31967.04
517.54	32446.85
517.72	32486.64
517.89	32414.08
518.06	32378.97
518.24	32023.21
518.41	32498.34
518.58	32439.82
518.75	32823.67
518.93	32828.35
519.10	32765.16
519.27	32905.59
519.45	33158.37
519.62	32673.88
519.79	32959.42
519.96	33362.00
520.14	33446.26
520.31	33228.59
520.48	33713.08
520.65	32957.08
520.83	33717.76
521.00	33619.46
521.17	33972.88
521.34	33961.17
521.52	33811.38
521.69	34026.71
521.86	34052.45
522.03	34356.72
522.20	34572.05
522.38	34754.61
522.55	34410.56
522.72	34288.85
522.89	34583.76
523.07	34469.07
523.24	34424.60
523.41	34691.42
523.58	34089.90
523.75	34768.66
523.92	35110.38
524.10	34916.11
524.27	35093.99
524.44	34986.33
524.61	35283.58
524.78	35112.72
524.96	35047.18
525.13	35505.93
525.30	35461.46
525.47	35402.94
525.64	35419.33
525.81	35711.89
525.98	35669.76
526.16	35421.67
526.33	34972.28
526.50	35962.33
526.67	35215.70
526.84	35625.29
527.01	35335.07
527.18	35908.50
527.36	35974.03
527.53	36292.35
527.70	36357.88
527.87	36442.14
528.04	36011.48
528.21	36636.41
528.38	36355.54
528.55	36889.18
528.72	36442.14
528.89	37104.51
529.07	36664.49
529.24	36898.55
529.41	36933.65
529.58	36320.43
529.75	36989.83
529.92	36687.90
530.09	37003.87
530.26	37305.80
530.43	36933.65
530.60	37029.62
530.77	37158.34
530.94	37434.53
531.11	37291.76
531.28	37139.62
531.46	37628.79
531.63	37471.98
531.80	37895.61
531.97	37413.46
532.14	37581.98
532.31	37469.64
532.48	37589.00
532.65	37727.10
532.82	38082.86
532.99	37757.52
533.16	37869.87
533.33	37851.14
533.50	37907.32
533.67	38012.64
533.84	38249.03
534.01	38103.92
534.18	38293.50
534.35	38279.46
534.52	38171.80
534.69	38206.90
534.86	38106.26
535.03	38183.50
535.20	38675.01
535.37	38932.47
535.54	38588.41
535.71	38600.12
535.88	38469.04
536.05	38202.22
536.22	38588.41
536.38	38824.81
536.55	38925.45
536.72	39115.03
536.89	38658.63
537.06	38508.83
537.23	39016.73
537.40	38906.73
537.57	39189.93
537.74	38937.15
537.91	39157.16
538.08	39021.41
538.25	38845.87
538.42	39423.98
538.59	39447.39
538.75	39042.48
538.92	39510.58
539.09	39627.61
539.26	39243.76
539.43	39201.63
539.60	39786.77
539.77	39533.99
539.94	39438.03
540.11	39571.44
540.28	39580.80
540.44	39665.06
540.61	40025.50
540.78	39360.79
540.95	39454.41
541.12	39777.40
541.29	39945.92
541.46	40048.91
541.62	39981.03
541.79	40004.44
541.96	39845.28
542.13	39812.51
542.30	39739.96
542.47	40332.11
542.63	40332.11
542.80	40285.30
542.97	40900.86
543.14	40844.69
543.31	40212.74
543.48	40509.99
543.64	41223.86
543.81	40924.27
543.98	40673.83
544.15	40360.20
544.32	40666.81
544.48	41282.37
544.65	41043.63
544.82	41322.16
544.99	40547.44
545.16	41006.19
545.32	41118.53
545.49	41343.22
545.66	41177.04
545.83	41148.96
546.00	41375.99
546.16	41504.72
546.33	41219.17
546.50	41383.01
546.67	41497.70
546.83	41130.23
547.00	40900.86
547.17	40814.26
547.34	41401.74
547.50	41556.21
547.67	41806.65
547.84	41694.30
548.00	41874.52
548.17	41752.82
548.34	41518.76
548.51	41731.75
548.67	41879.21
548.84	42312.20
549.01	41654.51
549.18	41818.35
549.34	41488.34
549.51	41635.79
549.68	42312.20
549.84	42192.84
550.01	42319.23
550.18	41830.05
550.34	42103.90
550.51	41668.56
550.68	41951.76
550.84	41837.08
551.01	42071.13
551.18	42700.73
551.34	42162.41
551.51	42183.48
551.68	42092.19
551.84	42405.83
552.01	42211.56
552.18	42590.73
552.34	42185.82
552.51	42649.24
552.68	42546.26
552.84	42384.76
553.01	42763.93
553.18	42719.46
553.34	42663.28
553.51	42684.35
553.67	42375.40
553.84	43009.68
554.01	43136.07
554.17	43065.86
554.34	43063.52
554.51	42909.04
554.67	43306.93
554.84	43131.39
555.00	42677.33
555.17	42433.91
555.33	42773.29
555.50	42859.89
555.67	42930.11
555.83	42836.48
556.00	43157.14
556.16	43447.36
556.33	43372.47
556.50	43089.26
556.66	42983.94
556.83	43213.31
556.99	43302.25
557.16	43543.33
557.32	43435.66
557.49	43243.74
557.65	42944.15
557.82	42766.27
557.98	43250.76
558.15	43306.93
558.32	43330.34
558.48	43566.73
558.65	43519.92
558.81	43196.93
558.98	43402.89
559.14	43433.32
559.31	43290.55
559.47	43931.86
559.64	43559.71
559.80	43655.67
559.97	43798.44
560.13	43819.51
560.30	43765.68
560.46	43679.08
560.63	43665.03
560.79	43810.15
560.96	43927.17
561.12	43515.24
561.29	43632.27
561.45	43562.05
561.61	43667.37
561.78	43763.34
561.94	43438.00
562.11	43758.66
562.27	43742.27
562.44	43805.47
562.60	43896.75
562.77	44411.67
562.93	43643.97
563.10	43927.17
563.26	43814.83
563.42	44198.68
563.59	43868.66
563.75	43852.28
563.92	44093.35
564.08	43739.93
564.24	44428.05
564.41	43793.76
564.57	44208.04
564.74	43899.09
564.90	44470.18
565.07	44287.62
565.23	44313.36
565.39	44416.35
565.56	44442.09
565.72	44161.23
565.88	44081.65
566.05	44414.01
566.21	44388.26
566.38	44357.83
566.54	44392.94
566.70	44341.45
566.87	44879.77
567.03	44121.44
567.19	44626.99
567.36	44570.82
567.52	43950.58
567.68	44238.47
567.85	43873.34
568.01	44362.51
568.17	44236.12
568.34	44516.99
568.50	44516.99
568.66	44449.11
568.83	44350.81
568.99	43817.17
569.15	44409.32
569.32	44313.36
569.48	44289.96
569.64	44765.09
569.81	44456.14
569.97	44254.85
570.13	44601.25
570.30	44308.68
570.46	44243.15
570.62	44128.46
570.78	44076.97
570.95	44404.64
571.11	44397.62
571.27	44236.12
571.43	44783.81
571.60	44416.35
571.76	44472.52
571.92	44339.11
572.09	44772.11
572.25	44514.65
572.41	44601.25
572.57	44472.52
572.74	44863.39
572.90	44594.23
573.06	44626.99
573.22	44605.93
573.38	44556.78
573.55	43910.79
573.71	44683.17
573.87	44491.24
574.03	44451.45
574.20	44472.52
574.36	44732.32
574.52	45008.50
574.68	44896.16
574.84	44481.88
575.01	44617.63
575.17	44809.56
575.33	44364.85
575.49	44385.92
575.65	44964.03
575.82	44980.42
575.98	44842.32
576.14	45069.36
576.30	44971.05
576.46	44987.44
576.62	44877.43
576.79	44568.48
576.95	44156.55
577.11	44669.12
577.27	44903.18
577.43	44715.93
577.59	44692.53
577.75	44638.70
577.92	44243.15
578.08	44694.87
578.24	44673.81
578.40	44767.43
578.56	44886.79
578.72	44800.19
578.88	44657.42
579.04	44556.78
579.21	44737.00
579.37	44711.25
579.53	44978.07
579.69	44308.68
579.85	44772.11
580.01	44608.27
580.17	44549.76
580.33	44793.17
580.49	44612.95
580.65	44479.54
580.82	44952.33
580.98	44722.96
581.14	45059.99
581.30	45008.50
581.46	44966.37
581.62	45167.66
581.78	45148.93
581.94	44580.18
582.10	44505.29
582.26	45099.78
582.42	44865.73
582.58	44697.21
582.74	44622.31
582.90	44676.15
583.06	44720.62
583.22	45167.66
583.38	45038.93
583.54	45055.31
583.70	44741.68
583.86	44851.69
584.02	44538.05
584.18	44683.17
584.34	45008.50
584.50	44722.96
584.66	44858.71
584.82	44772.11
584.98	44893.82
585.14	45397.03
585.30	45130.21
585.46	44694.87
585.62	44746.36
585.78	44580.18
585.94	44617.63
586.10	45085.74
586.26	44533.37
586.42	44708.91
586.58	44996.80
586.74	44839.98
586.90	44947.65
587.06	44872.75
587.22	45043.61
587.38	44720.62
587.54	45137.23
587.70	45287.03
587.86	44940.63
588.02	45111.49
588.18	44985.10
588.34	44961.69
588.49	44612.95
588.65	44608.27
588.81	44477.20
588.97	44755.72
589.13	44657.42
589.29	44828.28
589.45	44856.37
589.61	44875.09
589.77	45097.44
589.93	45254.26
590.08	44830.62
590.24	44945.31
