SpectraSuite Data File
++++++++++++++++++++++++++++++++++++
Date: Fri Oct 25 10:43:31 EDT 2013
User: price-jones
Dark Spectrum Present: No
Reference Spectrum Present: No
Number of Sampled Component Spectra: 1
Spectrometers: USB2+H05261
Integration Time (usec): 100000 (USB2+H05261)
Spectra Averaged: 1 (USB2+H05261)
Boxcar Smoothing: 0 (USB2+H05261)
Correct for Electrical Dark: No (USB2+H05261)
Strobe/Lamp Enabled: No (USB2+H05261)
Correct for Detector Non-linearity: No (USB2+H05261)
Correct for Stray Light: No (USB2+H05261)
Number of Pixels in Processed Spectrum: 2048
>>>>>Begin Processed Spectral Data<<<<<
365.73	60.85
365.92	60.85
366.12	60.85
366.32	84.26
366.52	0.00
366.72	4.68
366.91	37.45
367.11	39.79
367.31	23.41
367.51	0.00
367.70	53.83
367.90	0.00
368.10	42.13
368.30	53.83
368.49	14.04
368.69	49.15
368.89	0.00
369.09	60.85
369.28	0.00
369.48	79.58
369.68	70.22
369.87	51.49
370.07	74.90
370.27	201.29
370.47	145.11
370.66	362.78
370.86	463.43
371.06	489.17
371.25	414.27
371.45	472.79
371.65	463.43
371.84	468.11
372.04	425.98
372.24	475.13
372.44	479.81
372.63	484.49
372.83	421.30
373.03	582.79
373.22	528.96
373.42	512.58
373.62	564.07
373.81	531.30
374.01	491.51
374.21	521.94
374.40	507.90
374.60	547.69
374.79	615.56
374.99	564.07
375.19	645.99
375.38	547.69
375.58	543.00
375.78	641.31
375.97	571.09
376.17	650.67
376.37	580.45
376.56	617.90
376.76	596.84
376.95	624.92
377.15	610.88
377.35	671.73
377.54	580.45
377.74	594.50
377.93	650.67
378.13	580.45
378.33	622.58
378.52	692.80
378.72	617.90
378.91	606.20
379.11	674.07
379.31	608.54
379.50	664.71
379.70	650.67
379.89	683.44
380.09	641.31
380.28	718.54
380.48	697.48
380.68	648.33
380.87	706.84
381.07	732.59
381.26	725.57
381.46	739.61
381.65	683.44
381.85	716.20
382.04	660.03
382.24	660.03
382.43	763.01
382.63	674.07
382.83	753.65
383.02	713.86
383.22	833.23
383.41	805.14
383.61	744.29
383.80	755.99
384.00	795.78
384.19	720.88
384.39	744.29
384.58	798.12
384.78	702.16
384.97	826.21
385.17	798.12
385.36	828.55
385.56	753.65
385.75	851.96
385.95	744.29
386.14	847.27
386.34	805.14
386.53	901.11
386.72	716.20
386.92	826.21
387.11	898.77
387.31	964.30
387.50	882.38
387.70	709.18
387.89	880.04
388.09	826.21
388.28	863.66
388.48	835.57
388.67	938.55
388.86	896.43
389.06	964.30
389.25	976.00
389.45	964.30
389.64	1013.45
389.84	1004.09
390.03	994.73
390.22	1062.60
390.42	966.64
390.61	1060.26
390.81	968.98
391.00	1050.90
391.19	1055.58
391.39	1018.13
391.58	1069.62
391.78	1029.84
391.97	1128.14
392.16	1043.88
392.36	1029.84
392.55	973.66
392.75	931.53
392.94	983.02
393.13	1067.28
393.33	987.71
393.52	1057.92
393.71	1036.86
393.91	1179.63
394.10	1107.07
394.29	1097.71
394.49	1069.62
394.68	1191.33
394.88	1275.59
395.07	1252.19
395.26	1270.91
395.46	1252.19
395.65	1212.40
395.84	1212.40
396.04	1231.12
396.23	1205.38
396.42	1093.03
396.62	1191.33
396.81	1224.10
397.00	1212.40
397.19	1256.87
397.39	1324.74
397.58	1259.21
397.77	1390.28
397.97	1416.02
398.16	1425.39
398.35	1519.01
398.55	1446.45
398.74	1483.90
398.93	1423.05
399.12	1511.99
399.32	1570.50
399.51	1554.12
399.70	1591.56
399.90	1542.41
400.09	1624.33
400.28	1650.08
400.47	1514.33
400.67	1605.61
400.86	1626.67
401.05	1584.54
401.24	1626.67
401.44	1685.19
401.63	1600.93
401.82	1640.72
402.01	1715.61
402.21	1638.38
402.40	1849.02
402.59	1839.66
402.78	1713.27
402.97	1746.04
403.17	1827.96
403.36	1781.15
403.55	1832.64
403.74	1830.30
403.93	1914.56
404.13	1818.60
404.32	1858.39
404.51	1923.92
404.70	1858.39
404.89	1853.70
405.09	1940.30
405.28	1886.47
405.47	1891.15
405.66	1867.75
405.85	1926.26
406.05	2017.54
406.24	2069.03
406.43	2015.20
406.62	2132.23
406.81	2106.48
407.00	2090.10
407.20	1991.80
407.39	2050.31
407.58	2139.25
407.77	2190.74
407.96	2183.72
408.15	2162.66
408.34	2157.97
408.54	2127.55
408.73	2235.21
408.92	2314.79
409.11	2321.81
409.30	2361.60
409.49	2221.17
409.68	2282.02
409.87	2249.25
410.07	2275.00
410.26	2356.92
410.45	2487.99
410.64	2523.10
410.83	2485.65
411.02	2492.67
411.21	2600.34
411.40	2600.34
411.59	2686.94
411.78	2569.91
411.98	2532.46
412.17	2586.29
412.36	2642.46
412.55	2619.06
412.74	2771.19
412.93	2726.72
413.12	2832.05
413.31	2796.94
413.50	2785.24
413.69	2782.90
413.88	2991.20
414.07	2942.05
414.26	2771.19
414.45	2928.01
414.64	2963.12
414.83	3063.76
415.02	3138.66
415.22	3000.57
415.41	3061.42
415.60	3164.40
415.79	3227.60
415.98	3101.21
416.17	3166.74
416.36	3304.84
416.55	3283.77
416.74	3229.94
416.93	3272.07
417.12	3272.07
417.31	3365.69
417.50	3393.78
417.69	3417.18
417.88	3344.63
418.07	3365.69
418.26	3440.59
418.45	3368.03
418.64	3712.09
418.83	3517.83
419.02	3520.17
419.21	3447.61
419.39	3487.40
419.58	3583.36
419.77	3595.06
419.96	3503.78
420.15	3702.73
420.34	3700.39
420.53	3733.15
420.72	3779.97
420.91	3801.03
421.10	3644.21
421.29	3859.54
421.48	3901.67
421.67	3852.52
421.86	3747.20
422.05	3674.64
422.24	3688.68
422.43	3749.54
422.61	3892.31
422.80	3728.47
422.99	3871.25
423.18	3906.35
423.37	3786.99
423.56	3878.27
423.75	3810.39
423.94	3740.18
424.13	3686.34
424.32	3761.24
424.50	3824.44
424.69	3911.04
424.88	4007.00
425.07	3941.46
425.26	3789.33
425.45	3812.73
425.64	3873.59
425.83	3976.57
426.01	3941.46
426.20	4018.70
426.39	3995.29
426.58	3798.69
426.77	3934.44
426.96	4058.49
427.15	3925.08
427.33	4091.26
427.52	4021.04
427.71	4203.60
427.90	4126.36
428.09	4098.28
428.28	4283.18
428.46	4072.53
428.65	4100.62
428.84	4131.05
429.03	4236.37
429.22	4035.08
429.40	4173.18
429.59	4072.53
429.78	3868.91
429.97	3943.80
430.16	3904.01
430.34	4072.53
430.53	4007.00
430.72	4290.20
430.91	4100.62
431.10	4372.12
431.28	4552.34
431.47	4643.62
431.66	4538.30
431.85	4491.49
432.03	4697.46
432.22	4645.96
432.41	4613.20
432.60	4594.47
432.79	4634.26
432.97	4685.75
433.16	4648.30
433.35	4641.28
433.54	4496.17
433.72	4699.80
433.91	4627.24
434.10	4690.43
434.28	4638.94
434.47	4741.93
434.66	4739.58
434.85	4940.87
435.03	4945.55
435.22	5036.83
435.41	5022.79
435.59	5032.15
435.78	5046.20
435.97	5130.45
436.16	5114.07
436.34	5025.13
436.53	5144.50
436.72	5193.65
436.90	5074.28
437.09	5163.22
437.28	5006.41
437.46	5184.29
437.65	5107.05
437.84	5104.71
438.02	5242.80
438.21	5289.61
438.40	5083.64
438.58	5336.42
438.77	5444.09
438.96	5423.02
439.14	5603.24
439.33	5488.56
439.52	5544.73
439.70	5689.84
439.89	5600.90
440.08	5584.52
440.26	5680.48
440.45	5685.16
440.63	5849.00
440.82	5804.53
441.01	5774.10
441.19	5944.96
441.38	5888.79
441.57	5951.98
441.75	6087.73
441.94	6258.59
442.12	6235.19
442.31	6282.00
442.50	6312.42
442.68	6225.82
442.87	6256.25
443.05	6396.68
443.24	6392.00
443.43	6368.60
443.61	6487.96
443.80	6677.55
443.98	6441.15
444.17	6256.25
444.35	6438.81
444.54	6647.12
444.73	6370.94
444.91	6476.26
445.10	6335.83
445.28	6356.90
445.47	6434.13
445.65	6544.14
445.84	6492.65
446.02	6527.75
446.21	6703.29
446.39	6359.24
446.58	6682.23
446.77	6541.80
446.95	6621.38
447.14	6719.68
447.32	6836.70
447.51	6633.08
447.69	6649.46
447.88	6726.70
448.06	6738.40
448.25	6621.38
448.43	6635.42
448.62	6703.29
448.80	6572.22
448.99	6698.61
449.17	6895.22
449.36	6731.38
449.54	6846.07
449.73	6991.18
449.91	6981.82
450.10	7328.22
450.28	6916.28
450.46	7023.95
450.65	7222.89
450.83	7054.37
451.02	7176.08
451.20	7164.38
451.39	7206.51
451.57	7131.61
451.76	7150.34
451.94	7325.88
452.13	7236.94
452.31	7248.64
452.49	7049.69
452.68	7241.62
452.86	7286.09
453.05	7281.41
453.23	7206.51
453.42	7258.00
453.60	7197.15
453.78	7396.09
453.97	7290.77
454.15	7375.03
454.34	7185.44
454.52	7328.22
454.70	7527.16
454.89	7403.11
455.07	7442.90
455.26	7623.12
455.44	7758.88
455.62	7761.22
455.81	7833.77
455.99	7644.19
456.17	7714.41
456.36	7784.62
456.54	7681.64
456.73	7974.21
456.91	8212.94
457.09	7939.10
457.28	8271.45
457.46	7960.16
457.64	8051.44
457.83	7999.95
458.01	7819.73
458.19	8063.15
458.38	8004.63
458.56	7939.10
458.74	8145.06
458.93	8175.49
459.11	8205.92
459.29	8095.91
459.48	8379.12
459.66	8212.94
459.84	8222.30
460.03	8435.29
460.21	8414.23
460.39	8606.15
460.57	8472.74
460.76	8458.70
460.94	8641.26
461.12	8519.55
461.31	8557.00
461.49	8622.53
461.67	8404.86
461.85	8816.80
462.04	8624.87
462.22	9448.74
462.40	9102.34
462.59	8926.80
462.77	8760.63
462.95	8915.10
463.13	9095.32
463.32	8753.60
463.50	8779.35
463.68	8751.26
463.86	8877.65
464.05	8765.31
464.23	8755.94
464.41	8982.98
464.59	8645.94
464.78	9067.24
464.96	8943.19
465.14	9116.39
465.32	9231.07
465.50	9083.62
465.69	9336.40
465.87	9142.13
466.05	9015.74
466.23	9135.11
466.41	9043.83
466.60	9207.67
466.78	9060.21
466.96	9249.80
467.14	9097.66
467.32	9329.38
467.51	9423.00
467.69	9062.55
467.87	9135.11
468.05	9542.36
468.23	9198.31
468.41	9376.19
468.60	9425.34
468.78	9600.88
468.96	9479.17
469.14	9579.81
469.32	9586.83
469.50	9577.47
469.69	9692.16
469.87	9783.44
470.05	9633.64
470.23	9776.42
470.41	9666.41
470.59	9958.98
470.77	9879.40
470.95	10001.11
471.14	10017.49
471.32	9870.04
471.50	10225.80
471.68	10242.18
471.86	10399.00
472.04	10186.01
472.22	10363.89
472.40	10106.43
472.58	10403.68
472.77	10387.30
472.95	10391.98
473.13	10778.17
473.31	10583.90
473.49	10525.39
473.67	10485.60
473.85	10707.95
474.03	10796.89
474.21	10703.27
474.39	10839.02
474.57	11019.24
474.75	11028.60
474.93	11152.65
475.12	11103.50
475.30	11169.04
475.48	11166.70
475.66	11122.23
475.84	11211.17
476.02	11442.88
476.20	11337.56
476.38	11527.14
476.56	11798.64
476.74	11683.95
476.92	11779.92
477.10	11800.98
477.28	12177.81
477.46	12088.87
477.64	12159.08
477.82	12236.32
478.00	12493.78
478.18	12435.27
478.36	12486.76
478.54	12617.83
478.72	12648.26
478.90	12510.16
479.08	13202.96
479.26	13205.30
479.44	13048.49
479.62	13242.75
479.80	13238.07
479.98	13303.60
480.16	13441.70
480.34	13465.10
480.52	13523.62
480.70	13521.27
480.88	13453.40
481.06	13706.18
481.24	13687.45
481.41	14043.21
481.59	14174.28
481.77	14202.37
481.95	14567.49
482.13	14293.65
482.31	14415.36
482.49	14738.35
482.67	14745.38
482.85	15239.23
483.03	15068.37
483.21	15014.54
483.39	15290.72
483.57	15150.29
483.74	15241.57
483.92	15442.85
484.10	15382.00
484.28	15836.06
484.46	15765.85
484.64	16240.98
484.82	15896.92
485.00	16100.55
485.18	16358.00
485.35	16177.78
485.53	16180.12
485.71	16074.80
485.89	16058.42
486.07	16327.58
486.25	16554.61
486.43	17057.82
486.61	17177.19
486.78	16945.48
486.96	17216.98
487.14	17165.49
487.32	17816.16
487.50	17605.51
487.68	17956.59
487.85	18291.29
488.03	18415.34
488.21	18506.62
488.39	18375.55
488.57	18277.24
488.75	18368.52
488.92	18888.12
489.10	19098.77
489.28	19276.65
489.46	19665.18
489.64	19494.32
489.81	20009.24
489.99	19943.70
490.17	20264.36
490.35	19939.02
490.53	20187.12
490.70	20367.34
490.88	20510.11
491.06	20786.30
491.24	20439.90
491.41	20631.82
491.59	20657.57
491.77	20734.81
491.95	21060.14
492.13	21364.41
492.30	21345.69
492.48	21600.80
492.66	21930.82
492.84	21818.47
493.01	22143.81
493.19	21858.26
493.37	21977.63
493.54	22092.32
493.72	22398.93
493.90	22228.07
494.08	22581.49
494.25	22647.02
494.43	23150.24
494.61	23056.62
494.79	23171.30
494.96	23309.40
495.14	23510.68
495.32	23033.21
495.49	23655.79
495.67	23772.82
495.85	23962.40
496.02	24278.38
496.20	24283.06
496.38	24175.39
496.55	24713.72
496.73	25135.01
496.91	24570.94
497.09	24900.96
497.26	24847.13
497.44	24676.27
497.62	25041.39
497.79	25352.68
497.97	24912.66
498.14	25120.97
498.32	25127.99
498.50	25671.00
498.67	25942.50
498.85	25790.36
499.03	26377.84
499.20	26059.52
499.38	25656.95
499.56	26139.10
499.73	26272.51
499.91	26316.98
500.08	26221.02
500.26	26263.15
500.44	26375.50
500.61	26656.36
500.79	26281.88
500.97	26841.26
501.14	26904.46
501.32	27084.68
501.49	26927.86
501.67	27222.77
501.84	27119.79
502.02	27496.61
502.20	27627.68
502.37	27807.90
502.55	27559.81
502.72	27606.62
502.90	27953.02
503.07	27852.38
503.25	27931.95
503.43	27580.87
503.60	28088.77
503.78	28161.33
503.95	27662.79
504.13	28261.97
504.30	28273.67
504.48	28247.93
504.65	28589.64
504.83	28912.64
505.01	29092.86
505.18	28685.61
505.36	29303.51
505.53	29263.72
505.71	29750.55
505.88	29345.64
506.06	29500.11
506.23	29661.61
506.41	29319.89
506.58	29984.60
506.76	29582.03
506.93	29965.88
507.11	29626.50
507.28	29825.45
507.46	29944.81
507.63	30539.31
507.81	30075.88
507.98	29839.49
508.16	29862.90
508.33	30309.94
508.50	30417.60
508.68	30373.13
508.85	31028.48
509.03	30401.22
509.20	30665.70
509.38	31133.81
509.55	31014.44
509.73	31129.12
509.90	31009.76
510.08	31365.52
510.25	31220.41
510.42	31433.39
510.60	31405.31
510.77	31634.68
510.95	32072.36
511.12	31625.32
511.30	32126.19
511.47	31796.18
511.64	32063.00
511.82	32343.86
511.99	32156.62
512.17	32315.78
512.34	32184.71
512.51	32496.00
512.69	32470.25
512.86	32694.94
513.04	32804.95
513.21	32617.71
513.38	32521.74
513.56	32856.44
513.73	32669.20
513.90	33139.65
514.08	32783.88
514.25	32851.76
514.43	32842.40
514.60	32723.03
514.77	33376.04
514.95	33130.28
515.12	33722.44
515.29	33441.57
515.47	33762.23
515.64	33687.33
515.81	33460.30
515.99	33780.95
516.16	33743.50
516.33	33488.38
516.51	33369.02
516.68	33067.09
516.85	33282.42
517.03	33764.57
517.20	33684.99
517.37	33762.23
517.54	34445.66
517.72	34153.10
517.89	33645.20
518.06	33755.21
518.24	33947.13
518.41	34265.44
518.58	34466.73
518.75	34288.85
518.93	34410.56
519.10	34445.66
519.27	34792.06
519.45	34497.16
519.62	34939.52
519.79	35232.08
519.96	35559.76
520.14	35400.60
520.31	35225.06
520.48	35264.85
520.65	35473.16
520.83	36023.19
521.00	35646.36
521.17	35599.55
521.34	35859.35
521.52	35807.86
521.69	35962.33
521.86	36065.31
522.03	36479.59
522.20	36446.82
522.38	36020.84
522.55	36009.14
522.72	36222.13
522.89	36582.57
523.07	36112.13
523.24	36385.97
523.41	36926.63
523.58	36762.79
523.75	37111.53
523.92	36821.31
524.10	36966.42
524.27	37287.07
524.44	36891.52
524.61	37214.52
524.78	37064.72
524.96	37427.51
525.13	37057.70
525.30	37773.91
525.47	37855.82
525.64	37298.78
525.81	37324.52
525.98	37315.16
526.16	37441.55
526.33	37390.06
526.50	36575.55
526.67	36975.78
526.84	37574.96
527.01	37013.23
527.18	37640.50
527.36	37694.33
527.53	37750.50
527.70	38218.61
527.87	38220.95
528.04	38014.98
528.21	38387.13
528.38	38225.63
528.55	38637.56
528.72	38829.49
528.89	38616.50
529.07	38848.21
529.24	38356.70
529.41	38450.32
529.58	38361.38
529.75	38646.93
529.92	38827.15
530.09	39117.37
530.26	39030.77
530.43	39070.56
530.60	38890.34
530.77	38972.26
530.94	39503.56
531.11	39295.25
531.28	39152.48
531.46	39124.40
531.63	39119.71
531.80	39459.09
531.97	39367.81
532.14	39353.77
532.31	38724.16
532.48	39412.28
532.65	39545.69
532.82	39084.61
532.99	39627.61
533.16	39751.66
533.33	39901.45
533.50	39917.84
533.67	39732.93
533.84	39716.55
534.01	39990.39
534.18	39576.12
534.35	40158.91
534.52	39957.63
534.69	40076.99
534.86	40547.44
535.03	40374.24
535.20	40421.05
535.37	40952.35
535.54	40622.34
535.71	40203.38
535.88	40650.42
536.05	40313.39
536.22	40627.02
536.38	40098.06
536.55	40336.79
536.72	40238.49
536.89	40425.73
537.06	40664.47
537.23	41027.25
537.40	41214.49
537.57	40973.42
537.74	40699.58
537.91	41277.69
538.08	41137.26
538.25	40800.22
538.42	40807.24
538.59	41036.61
538.75	40935.97
538.92	41273.01
539.09	41195.77
539.26	41233.22
539.43	41455.57
539.60	40865.75
539.77	40884.48
539.94	41486.00
540.11	41132.57
540.28	41324.50
540.44	41240.24
540.61	41392.37
540.78	41195.77
540.95	41607.70
541.12	41322.16
541.29	41471.95
541.46	41350.24
541.62	41483.66
541.79	41757.50
541.96	41228.54
542.13	41743.45
542.30	41785.58
542.47	41766.86
542.63	41649.83
542.80	41612.38
542.97	42490.09
543.14	41965.81
543.31	42087.51
543.48	42150.71
543.64	42724.14
543.81	42820.10
543.98	42548.60
544.15	42398.80
544.32	42579.03
544.48	42859.89
544.65	42630.52
544.82	42646.90
544.99	42366.04
545.16	42766.27
545.32	42899.68
545.49	43241.40
545.66	42913.72
545.83	42780.31
546.00	42850.53
546.16	43056.50
546.33	43030.75
546.50	42555.62
546.67	42784.99
546.83	42674.99
547.00	42909.04
547.17	42988.62
547.34	42679.67
547.50	42674.99
547.67	43210.97
547.84	43110.33
548.00	43295.23
548.17	43313.95
548.34	43571.41
548.51	43758.66
548.67	43658.01
548.84	43498.86
549.01	43150.12
549.18	43199.27
549.34	43496.52
549.51	43339.70
549.68	44002.07
549.84	43559.71
550.01	43931.86
550.18	43732.91
550.34	43826.53
550.51	43835.89
550.68	43707.16
550.84	43182.88
551.01	44067.61
551.18	43676.74
551.34	43936.54
551.51	43828.87
551.68	44133.14
551.84	43473.11
552.01	43707.16
552.18	44154.21
552.34	43845.26
552.51	43608.86
552.68	43871.00
552.84	44203.36
553.01	44280.60
553.18	44236.12
553.34	44582.52
553.51	44266.55
553.67	44423.37
553.84	44720.62
554.01	44828.28
554.17	44662.10
554.34	44428.05
554.51	44109.74
554.67	44383.58
554.84	44643.38
555.00	44301.66
555.17	44027.82
555.33	44734.66
555.50	44683.17
555.67	44587.21
555.83	44275.91
556.00	44692.53
556.16	44708.91
556.33	44996.80
556.50	44509.97
556.66	44807.22
556.83	44219.74
556.99	44882.11
557.16	44704.23
557.32	44404.64
557.49	44793.17
557.65	44657.42
557.82	45263.62
557.98	45357.24
558.15	44547.42
558.32	45406.39
558.48	44872.75
558.65	44933.60
558.81	44612.95
558.98	45027.23
559.14	44744.02
559.31	44631.68
559.47	45062.33
559.64	45057.65
559.80	45209.79
559.97	45052.97
560.13	44186.97
560.30	44713.59
560.46	45333.84
560.63	45368.94
560.79	45158.30
560.96	45191.06
561.12	45265.96
561.29	44985.10
561.45	45207.45
561.61	44818.92
561.78	45322.13
561.94	44828.28
562.11	44753.38
562.27	44905.52
562.44	44868.07
562.60	45460.23
562.77	45162.98
562.93	45141.91
563.10	45727.05
563.26	44877.43
563.42	45535.12
563.59	45471.93
563.75	45694.28
563.92	45413.41
564.08	45404.05
564.24	45998.55
564.41	45507.04
564.57	45354.90
564.74	45198.09
564.90	45560.87
565.07	45439.16
565.23	45446.18
565.39	45570.23
565.56	45209.79
565.72	44994.46
565.88	45375.97
566.05	45029.57
566.21	44884.45
566.38	45216.81
566.54	45413.41
566.70	46075.79
566.87	45500.01
567.03	45715.34
567.19	45741.09
567.36	45656.83
567.52	45528.10
567.68	45778.54
567.85	45490.65
568.01	45542.14
568.17	45701.30
568.34	45530.44
568.50	45485.97
568.66	45382.99
568.83	45514.06
568.99	45443.84
569.15	45666.19
569.32	45748.11
569.48	45635.77
569.64	45633.42
569.81	45808.96
569.97	45595.98
570.13	45766.84
570.30	45397.03
570.46	45319.79
570.62	45392.35
570.78	44964.03
570.95	45303.41
571.11	45682.58
571.27	45289.37
571.43	45397.03
571.60	45588.95
571.76	45228.51
571.92	45748.11
572.09	45502.35
572.25	45532.78
572.41	46113.23
572.57	46061.74
572.74	46094.51
572.90	45757.47
573.06	46096.85
573.22	45989.19
573.38	45617.04
573.55	45823.01
573.71	46342.61
573.87	45837.05
574.03	45701.30
574.20	45855.78
574.36	45467.25
574.52	45874.50
574.68	45734.07
574.84	45663.85
575.01	45567.89
575.17	45886.20
575.33	45745.77
575.49	45392.35
575.65	45769.18
575.82	46136.64
575.98	45930.67
576.14	46459.63
576.30	46014.93
576.46	45972.80
576.62	46101.53
576.79	46068.76
576.95	45514.06
577.11	45666.19
577.27	46040.68
577.43	45846.41
577.59	45478.95
577.75	45689.60
577.92	45308.09
578.08	45345.54
578.24	45420.44
578.40	45305.75
578.56	45933.01
578.72	46052.38
578.88	45841.73
579.04	45909.61
579.21	45476.61
579.37	45654.49
579.53	45347.88
579.69	45525.76
579.85	46010.25
580.01	45862.80
580.17	45694.28
580.33	45787.90
580.49	45783.22
580.65	45574.91
580.82	45703.64
580.98	45553.85
581.14	45956.42
581.30	46312.18
581.46	45837.05
581.62	45762.15
581.78	45462.57
581.94	45865.14
582.10	45979.82
582.26	45970.46
582.42	45804.28
582.58	45911.95
582.74	45867.48
582.90	45649.81
583.06	46199.83
583.22	46225.58
583.38	45874.50
583.54	46014.93
583.70	46120.26
583.86	46080.47
584.02	45439.16
584.18	46298.14
584.34	45773.86
584.50	46101.53
584.66	45951.74
584.82	45982.16
584.98	45958.76
585.14	46440.91
585.30	45762.15
585.46	45713.00
585.62	45701.30
585.78	46047.70
585.94	45209.79
586.10	46096.85
586.26	45844.07
586.42	46211.54
586.58	46124.94
586.74	46115.58
586.90	45509.38
587.06	45703.64
587.22	46185.79
587.38	46028.98
587.54	45708.32
587.70	46497.08
587.86	45537.46
588.02	45762.15
588.18	45921.31
588.34	45996.21
588.49	45457.88
588.65	45361.92
588.81	45574.91
588.97	45619.38
589.13	45287.03
589.29	45481.29
589.45	45933.01
589.61	45722.37
589.77	46115.58
589.93	46146.00
590.08	45998.55
