SpectraSuite Data File
++++++++++++++++++++++++++++++++++++
Date: Fri Oct 25 10:48:17 EDT 2013
User: price-jones
Dark Spectrum Present: No
Reference Spectrum Present: No
Number of Sampled Component Spectra: 1
Spectrometers: USB2+H05261
Integration Time (usec): 100000 (USB2+H05261)
Spectra Averaged: 1 (USB2+H05261)
Boxcar Smoothing: 0 (USB2+H05261)
Correct for Electrical Dark: No (USB2+H05261)
Strobe/Lamp Enabled: No (USB2+H05261)
Correct for Detector Non-linearity: No (USB2+H05261)
Correct for Stray Light: No (USB2+H05261)
Number of Pixels in Processed Spectrum: 2048
>>>>>Begin Processed Spectral Data<<<<<
365.73	147.45
365.92	147.45
366.12	147.45
366.32	88.94
366.52	56.17
366.72	121.71
366.91	32.77
367.11	110.01
367.31	21.06
367.51	77.24
367.70	32.77
367.90	16.38
368.10	98.30
368.30	53.83
368.49	70.22
368.69	14.04
368.89	49.15
369.09	2.34
369.28	23.41
369.48	51.49
369.68	100.64
369.87	110.01
370.07	117.03
370.27	124.05
370.47	208.31
370.66	404.91
370.86	454.06
371.06	507.90
371.25	550.03
371.45	447.04
371.65	468.11
371.84	489.17
372.04	475.13
372.24	531.30
372.44	470.45
372.63	543.00
372.83	486.83
373.03	472.79
373.22	510.24
373.42	545.34
373.62	566.41
373.81	608.54
374.01	603.86
374.21	564.07
374.40	575.77
374.60	599.18
374.79	514.92
374.99	587.47
375.19	627.26
375.38	627.26
375.58	615.56
375.78	655.35
375.97	514.92
376.17	582.79
376.37	671.73
376.56	667.05
376.76	650.67
376.95	585.13
377.15	650.67
377.35	671.73
377.54	692.80
377.74	641.31
377.93	718.54
378.13	744.29
378.33	685.78
378.52	667.05
378.72	706.84
378.91	681.10
379.11	650.67
379.31	704.50
379.50	697.48
379.70	779.40
379.89	683.44
380.09	638.97
380.28	791.10
380.48	643.65
380.68	688.12
380.87	786.42
381.07	802.80
381.26	723.23
381.46	734.93
381.65	777.06
381.85	690.46
382.04	662.37
382.24	812.17
382.43	800.46
382.63	697.48
382.83	746.63
383.02	791.10
383.22	748.97
383.41	704.50
383.61	720.88
383.80	800.46
384.00	767.70
384.19	781.74
384.39	786.42
384.58	861.32
384.78	980.68
384.97	819.19
385.17	905.79
385.36	866.00
385.56	919.83
385.75	744.29
385.95	880.04
386.14	863.66
386.34	908.13
386.53	990.05
386.72	861.32
386.92	901.11
387.11	866.00
387.31	863.66
387.50	847.27
387.70	870.68
387.89	868.34
388.09	957.28
388.28	973.66
388.48	851.96
388.67	926.85
388.86	978.34
389.06	889.40
389.25	985.37
389.45	992.39
389.64	1029.84
389.84	1064.94
390.03	1043.88
390.22	1046.22
390.42	1062.60
390.61	978.34
390.81	990.05
391.00	1067.28
391.19	1100.05
391.39	1074.31
391.58	1104.73
391.78	1165.59
391.97	1064.94
392.16	976.00
392.36	1107.07
392.55	1107.07
392.75	1025.15
392.94	1036.86
393.13	997.07
393.33	1004.09
393.52	1029.84
393.71	1210.06
393.91	1160.91
394.10	1125.80
394.29	1167.93
394.49	1277.93
394.68	1268.57
394.88	1277.93
395.07	1336.45
395.26	1303.68
395.46	1263.89
395.65	1238.14
395.84	1289.64
396.04	1320.06
396.23	1259.21
396.42	1149.20
396.62	1198.35
396.81	1247.51
397.00	1282.61
397.19	1334.11
397.39	1369.21
397.58	1394.96
397.77	1465.18
397.97	1380.92
398.16	1467.52
398.35	1504.96
398.55	1479.22
398.74	1502.62
398.93	1497.94
399.12	1542.41
399.32	1509.65
399.51	1577.52
399.70	1568.16
399.90	1607.95
400.09	1612.63
400.28	1605.61
400.47	1661.78
400.67	1652.42
400.86	1586.88
401.05	1722.63
401.24	1710.93
401.44	1720.29
401.63	1713.27
401.82	1717.95
402.01	1699.23
402.21	1783.49
402.40	1774.13
402.59	1834.98
402.78	1827.96
402.97	1778.81
403.17	1802.21
403.36	1872.43
403.55	1844.34
403.74	2031.58
403.93	1893.49
404.13	1942.64
404.32	1905.20
404.51	1879.45
404.70	1898.17
404.89	1893.49
405.09	1966.05
405.28	1879.45
405.47	1963.71
405.66	2033.93
405.85	2066.69
406.05	2059.67
406.24	2052.65
406.43	2047.97
406.62	1989.46
406.81	2141.59
407.00	2134.57
407.20	1954.35
407.39	2225.85
407.58	2204.78
407.77	2174.36
407.96	2157.97
408.15	2202.44
408.34	2230.53
408.54	2375.64
408.73	2305.43
408.92	2289.04
409.11	2356.92
409.30	2445.86
409.49	2282.02
409.68	2237.55
409.87	2296.07
410.07	2333.51
410.26	2422.45
410.45	2466.92
410.64	2583.95
410.83	2527.78
411.02	2499.69
411.21	2754.81
411.40	2630.76
411.59	2642.46
411.78	2633.10
411.98	2703.32
412.17	2722.04
412.36	2691.62
412.55	2738.43
412.74	2848.43
412.93	2789.92
413.12	2736.09
413.31	2937.37
413.50	2864.82
413.69	2726.72
413.88	2984.18
414.07	2937.37
414.26	2942.05
414.45	2967.80
414.64	3007.59
414.83	3035.67
415.02	2988.86
415.22	3112.91
415.41	3063.76
415.60	3218.24
415.79	3105.89
415.98	3211.22
416.17	3478.04
416.36	3201.85
416.55	3286.11
416.74	3311.86
416.93	3229.94
417.12	3382.07
417.31	3384.41
417.50	3417.18
417.69	3496.76
417.88	3564.64
418.07	3501.44
418.26	3438.25
418.45	3571.66
418.64	3728.47
418.83	3611.45
419.02	3660.60
419.21	3576.34
419.39	3632.51
419.58	3569.32
419.77	3709.75
419.96	3723.79
420.15	3831.46
420.34	3700.39
420.53	3784.65
420.72	3857.20
420.91	3833.80
421.10	4009.34
421.29	3899.33
421.48	3786.99
421.67	3988.27
421.86	3826.78
422.05	3805.71
422.24	3733.15
422.43	3861.88
422.61	3887.63
422.80	3875.93
422.99	3922.74
423.18	4060.83
423.37	4091.26
423.56	3962.53
423.75	4117.00
423.94	3978.91
424.13	3728.47
424.32	3786.99
424.50	4093.60
424.69	3999.98
424.88	3969.55
425.07	3953.16
425.26	3962.53
425.45	3829.12
425.64	4004.66
425.83	4126.36
426.01	4023.38
426.20	4065.51
426.39	4093.60
426.58	3990.61
426.77	3985.93
426.96	4039.76
427.15	4035.08
427.33	4138.07
427.52	4166.15
427.71	4294.88
427.90	3995.29
428.09	4252.75
428.28	4227.01
428.46	4135.73
428.65	4311.27
428.84	4454.04
429.03	4320.63
429.22	4156.79
429.40	4156.79
429.59	4149.77
429.78	4086.58
429.97	4121.68
430.16	3992.95
430.34	4180.20
430.53	4257.43
430.72	4269.14
430.91	4231.69
431.10	4386.16
431.28	4695.11
431.47	4557.02
431.66	4582.77
431.85	4578.09
432.03	4730.22
432.22	4702.14
432.41	4685.75
432.60	4725.54
432.79	4770.01
432.97	4847.25
433.16	4823.84
433.35	4690.43
433.54	4709.16
433.72	4798.10
433.91	4781.71
434.10	4840.23
434.28	4779.37
434.47	4947.89
434.66	4990.02
434.85	4964.28
435.03	4985.34
435.22	4997.04
435.41	5083.64
435.59	5109.39
435.78	5097.69
435.97	5188.97
436.16	5210.03
436.34	5121.09
436.53	5163.22
436.72	5320.04
436.90	5095.35
437.09	5188.97
437.28	5212.37
437.46	5305.99
437.65	5238.12
437.84	5170.24
438.02	5151.52
438.21	5350.46
438.40	5114.07
438.58	5383.23
438.77	5430.04
438.96	5479.19
439.14	5614.95
439.33	5537.71
439.52	5753.04
439.70	5778.78
439.89	5813.89
440.08	5753.04
440.26	5863.04
440.45	5825.59
440.63	5762.40
440.82	6099.44
441.01	5951.98
441.19	6038.58
441.38	6258.59
441.57	6012.84
441.75	6169.65
441.94	6335.83
442.12	6333.49
442.31	6424.77
442.50	6520.73
442.68	6349.87
442.87	6396.68
443.05	6352.21
443.24	6604.99
443.43	6392.00
443.61	6576.91
443.80	6464.56
443.98	6417.75
444.17	6274.98
444.35	6455.20
444.54	6574.56
444.73	6663.51
444.91	6586.27
445.10	6572.22
445.28	6516.05
445.47	6450.52
445.65	6492.65
445.84	6626.06
446.02	6785.21
446.21	6558.18
446.39	6581.59
446.58	6834.36
446.77	6747.76
446.95	6560.52
447.14	6799.26
447.32	7005.22
447.51	6668.19
447.69	6785.21
447.88	6745.42
448.06	6773.51
448.25	7021.61
448.43	6810.96
448.62	6796.92
448.80	6729.04
448.99	6949.05
449.17	6913.94
449.36	7084.80
449.54	7005.22
449.73	7061.40
449.91	7227.57
450.10	7295.45
450.28	7272.04
450.46	7180.76
450.65	7171.40
450.83	7265.02
451.02	7229.91
451.20	7414.82
451.39	7265.02
451.57	7363.33
451.76	7250.98
451.94	7190.13
452.13	7428.86
452.31	7428.86
452.49	7201.83
452.68	7349.28
452.86	7248.64
453.05	7494.40
453.23	7566.95
453.42	7454.61
453.60	7431.20
453.78	7536.52
453.97	7555.25
454.15	7485.03
454.34	7473.33
454.52	7616.10
454.70	7520.14
454.89	7499.08
455.07	7578.65
455.26	7681.64
455.44	7911.01
455.62	7651.21
455.81	7712.07
455.99	7995.27
456.17	7995.27
456.36	8030.38
456.54	8009.31
456.73	7992.93
456.91	8393.16
457.09	8360.39
457.28	8575.72
457.46	8128.68
457.64	8304.22
457.83	8367.42
458.01	8234.00
458.19	8257.41
458.38	8297.20
458.56	8484.44
458.74	8297.20
458.93	8482.10
459.11	8568.70
459.29	8346.35
459.48	8465.72
459.66	8376.78
459.84	8425.93
460.03	8535.93
460.21	8463.38
460.39	8489.12
460.57	8624.87
460.76	8645.94
460.94	8692.75
461.12	8905.74
461.31	8711.47
461.49	8695.09
461.67	8816.80
461.85	8978.30
462.04	9013.40
462.22	9259.16
462.40	8957.23
462.59	8863.61
462.77	8805.10
462.95	8952.55
463.13	8973.61
463.32	8959.57
463.50	9226.39
463.68	9188.94
463.86	9233.41
464.05	8929.14
464.23	9121.07
464.41	9123.41
464.59	8973.61
464.78	9240.44
464.96	9219.37
465.14	9144.47
465.32	9500.23
465.50	9273.20
465.69	9397.25
465.87	9298.95
466.05	9320.01
466.23	9249.80
466.41	9394.91
466.60	9455.76
466.78	9224.05
466.96	9390.23
467.14	9500.23
467.32	9383.21
467.51	9467.47
467.69	9280.22
467.87	9458.10
468.05	9848.97
468.23	9699.18
468.41	9626.62
468.60	9666.41
468.78	9671.09
468.96	9652.37
469.14	9603.22
469.32	9755.35
469.50	9635.99
469.69	9757.69
469.87	10157.92
470.05	9846.63
470.23	9877.06
470.41	9664.07
470.59	10022.17
470.77	9916.85
470.95	10115.80
471.14	10209.42
471.32	10204.74
471.50	10801.57
471.68	10375.59
471.86	10640.08
472.04	10567.52
472.22	10497.30
472.40	10415.38
472.58	10516.03
472.77	10579.22
472.95	10565.18
473.13	10953.71
473.31	10630.71
473.49	10714.97
473.67	10743.06
473.85	10815.62
474.03	11091.80
474.21	10986.47
474.39	10979.45
474.57	11192.44
474.75	11370.32
474.93	11164.36
475.12	11040.31
475.30	11536.50
475.48	11438.20
475.66	11501.39
475.84	11262.66
476.02	11653.53
476.20	11583.31
476.38	12032.69
476.56	11974.18
476.74	12219.94
476.92	11733.11
477.10	12091.21
477.28	12140.36
477.46	12273.77
477.64	12404.84
477.82	12479.74
478.00	12681.02
478.18	12510.16
478.36	12837.84
478.54	12816.77
478.72	12779.32
478.90	13291.90
479.08	13111.68
479.26	13256.79
479.44	13383.18
479.62	13724.90
479.80	13561.06
479.98	13713.20
480.16	14010.45
480.34	13570.43
480.52	13933.21
480.70	13848.95
480.88	13715.54
481.06	14115.77
481.24	13984.70
481.41	14450.47
481.59	14328.76
481.77	14663.46
481.95	14747.72
482.13	14738.35
482.31	14642.39
482.49	15007.52
482.67	15070.71
482.85	15154.97
483.03	15335.19
483.21	15321.15
483.39	15639.46
483.57	15604.35
483.74	15576.27
483.92	15822.02
484.10	15707.34
484.28	15934.37
484.46	16444.60
484.64	16762.92
484.82	16622.48
485.00	16322.90
485.18	16690.36
485.35	16666.95
485.53	16407.16
485.71	16140.33
485.89	16819.09
486.07	16498.44
486.25	16788.66
486.43	17018.04
486.61	17263.79
486.78	17479.12
486.96	17537.63
487.14	17944.89
487.32	17926.16
487.50	18223.41
487.68	18448.10
487.85	18572.15
488.03	18604.92
488.21	19016.85
488.39	18853.02
488.57	18932.59
488.75	18958.34
488.92	19489.64
489.10	19658.16
489.28	19744.76
489.46	19796.25
489.64	19903.92
489.81	20128.61
489.99	20339.26
490.17	20381.38
490.35	20772.25
490.53	20627.14
490.70	20748.85
490.88	20659.91
491.06	21277.81
491.24	20648.21
491.41	21156.10
491.59	21018.01
491.77	21254.40
491.95	21570.38
492.13	21511.86
492.30	21986.99
492.48	21879.33
492.66	21907.41
492.84	21998.70
493.01	22375.52
493.19	22204.66
493.37	22712.56
493.54	22560.42
493.72	22960.66
493.90	22916.19
494.08	23349.18
494.25	23494.30
494.43	23601.96
494.61	23587.92
494.79	23793.89
494.96	23667.50
495.14	23798.57
495.32	24308.80
495.49	23821.97
495.67	23885.17
495.85	24650.52
496.02	24233.91
496.20	24360.30
496.38	24954.79
496.55	24657.54
496.73	25120.97
496.91	24922.02
497.09	25329.28
497.26	25516.52
497.44	25671.00
497.62	25481.41
497.79	25827.81
497.97	25514.18
498.14	25799.73
498.32	26094.63
498.50	25692.06
498.67	26312.30
498.85	26515.93
499.03	26714.87
499.20	26913.82
499.38	26485.50
499.56	26820.20
499.73	26934.88
499.91	26618.91
500.08	26757.00
500.26	26469.12
500.44	26768.71
500.61	27328.10
500.79	26604.87
500.97	27072.98
501.14	27681.52
501.32	27487.25
501.49	27611.30
501.67	27562.15
501.84	27349.16
502.02	27754.07
502.20	28313.46
502.37	28093.45
502.55	27768.12
502.72	28449.21
502.90	28334.53
503.07	28308.78
503.25	28643.48
503.43	28315.80
503.60	28807.31
503.78	28563.90
503.95	28189.41
504.13	28683.27
504.30	28795.61
504.48	29116.26
504.65	29432.24
504.83	29481.39
505.01	29385.43
505.18	29675.65
505.36	29876.94
505.53	29582.03
505.71	30223.34
505.88	29986.94
506.06	29748.21
506.23	30251.42
506.41	29830.13
506.58	30132.06
506.76	30176.53
506.93	30424.62
507.11	30340.36
507.28	30686.76
507.46	30256.11
507.63	30328.66
507.81	30459.73
507.98	30771.02
508.16	30609.53
508.33	31005.08
508.50	31072.95
508.68	31248.49
508.85	31564.46
509.03	31424.03
509.20	31571.49
509.38	31700.22
509.55	31660.43
509.73	31653.40
509.90	31819.58
510.08	31857.03
510.25	31927.25
510.42	32301.73
510.60	32559.19
510.77	32044.27
510.95	32603.66
511.12	32421.10
511.30	32451.53
511.47	32596.64
511.64	32940.70
511.82	32971.13
511.99	32694.94
512.17	33041.34
512.34	32882.19
512.51	32921.98
512.69	33179.43
512.86	32802.61
513.04	33165.39
513.21	33116.24
513.38	33479.02
513.56	33371.36
513.73	33369.02
513.90	33830.10
514.08	33347.95
514.25	33450.94
514.43	33582.01
514.60	33804.36
514.77	33734.14
514.95	34260.76
515.12	33989.26
515.29	34139.05
515.47	34649.29
515.64	34361.40
515.81	34464.39
515.99	34235.02
516.16	33869.89
516.33	34155.44
516.51	33823.08
516.68	33745.84
516.85	33874.57
517.03	33961.17
517.20	34298.21
517.37	34494.82
517.54	34703.12
517.72	34452.69
517.89	34216.29
518.06	34522.90
518.24	34504.18
518.41	34962.92
518.58	34822.49
518.75	35012.07
518.93	35332.73
519.10	35353.79
519.27	35330.39
519.45	35030.80
519.62	35924.88
519.79	35805.52
519.96	35915.52
520.14	36027.87
520.31	36011.48
520.48	35999.78
520.65	36020.84
520.83	36180.00
521.00	36327.45
521.17	36201.07
521.34	36355.54
521.52	36641.09
521.69	36727.69
521.86	36687.90
522.03	36584.91
522.20	36407.03
522.38	36725.35
522.55	36833.01
522.72	37174.73
522.89	37294.10
523.07	37408.78
523.24	37193.45
523.41	37104.51
523.58	37390.06
523.75	37996.26
523.92	37558.58
524.10	37780.93
524.27	37954.13
524.44	37773.91
524.61	38096.90
524.78	37661.56
524.96	37727.10
525.13	38202.22
525.30	38029.02
525.47	38471.39
525.64	38536.92
525.81	38459.68
525.98	37975.19
526.16	37904.98
526.33	37668.58
526.50	38124.99
526.67	37750.50
526.84	37996.26
527.01	38000.94
527.18	38080.52
527.36	38232.65
527.53	38852.89
527.70	39203.97
527.87	38731.18
528.04	38941.83
528.21	39297.59
528.38	39236.74
528.55	39321.00
528.72	39084.61
528.89	40126.14
529.07	39482.50
529.24	39051.84
529.41	39311.64
529.58	39180.57
529.75	39168.87
529.92	39431.01
530.09	39742.30
530.26	39959.97
530.43	39934.22
530.60	39737.62
530.77	39386.54
530.94	39845.28
531.11	39704.85
531.28	40519.35
531.46	40044.23
531.63	39917.84
531.80	40013.80
531.97	39938.90
532.14	39931.88
532.31	39681.44
532.48	40161.25
532.65	40004.44
532.82	39768.04
532.99	40837.67
533.16	40081.67
533.33	40474.88
533.50	40821.28
533.67	40605.95
533.84	40821.28
534.01	40687.87
534.18	40577.87
534.35	41071.72
534.52	40725.32
534.69	41209.81
534.86	40861.07
535.03	40886.82
535.20	41074.06
535.37	41628.77
535.54	41518.76
535.71	40830.65
535.88	41247.26
536.05	41397.06
536.22	41717.71
536.38	41347.90
536.55	41474.29
536.72	41144.28
536.89	41305.77
537.06	41130.23
537.23	41509.40
537.40	41537.49
537.57	41743.45
537.74	41823.03
537.91	41879.21
538.08	41591.32
538.25	41546.85
538.42	41610.04
538.59	42251.35
538.75	41338.54
538.92	41776.22
539.09	42082.83
539.26	42167.09
539.43	41811.33
539.60	42211.56
539.77	42033.68
539.94	41624.09
540.11	41631.11
540.28	42340.29
540.44	41951.76
540.61	41839.42
540.78	41813.67
540.95	42340.29
541.12	42237.31
541.29	42342.63
541.46	42438.59
541.62	42653.92
541.79	42438.59
541.96	42223.26
542.13	42157.73
542.30	43028.41
542.47	42855.21
542.63	42560.30
542.80	42899.68
542.97	43070.54
543.14	43243.74
543.31	43026.07
543.48	43119.69
543.64	44006.75
543.81	43531.62
543.98	43557.37
544.15	43407.58
544.32	43700.14
544.48	43863.98
544.65	43826.53
544.82	43800.79
544.99	43196.93
545.16	43395.87
545.32	43395.87
545.49	43887.39
545.66	44009.09
545.83	43842.92
546.00	43805.47
546.16	43622.90
546.33	43250.76
546.50	43557.37
546.67	43725.89
546.83	43332.68
547.00	43751.63
547.17	43592.48
547.34	43840.57
547.50	44175.27
547.67	44460.82
547.84	43983.35
548.00	44573.16
548.17	44404.64
548.34	44112.08
548.51	44629.34
548.67	44549.76
548.84	44311.02
549.01	44411.67
549.18	44381.24
549.34	44533.37
549.51	44629.34
549.68	44514.65
549.84	44278.25
550.01	44722.96
550.18	44304.00
550.34	44486.56
550.51	44516.99
550.68	44519.33
550.84	44231.44
551.01	44657.42
551.18	44149.53
551.34	44428.05
551.51	44879.77
551.68	45116.17
551.84	45092.76
552.01	44502.95
552.18	45270.64
552.34	44847.00
552.51	44732.32
552.68	44566.14
552.84	45139.57
553.01	45235.53
553.18	44903.18
553.34	44971.05
553.51	45298.73
553.67	44942.97
553.84	45258.94
554.01	45886.20
554.17	45427.46
554.34	45352.56
554.51	45689.60
554.67	45670.87
554.84	45223.83
555.00	45495.33
555.17	45123.19
555.33	45425.12
555.50	45478.95
555.67	45546.82
555.83	45404.05
556.00	45619.38
556.16	46012.59
556.33	45280.00
556.50	45654.49
556.66	45408.73
556.83	45778.54
556.99	45282.34
557.16	45890.88
557.32	45839.39
557.49	45567.89
557.65	45551.51
557.82	45631.08
557.98	45757.47
558.15	45785.56
558.32	45560.87
558.48	45612.36
558.65	45851.09
558.81	45432.14
558.98	45907.27
559.14	46052.38
559.31	45832.37
559.47	46146.00
559.64	45968.12
559.80	46326.22
559.97	45907.27
560.13	45673.21
560.30	45694.28
560.46	46148.34
560.63	45565.55
560.79	46218.56
560.96	46157.70
561.12	45804.28
561.29	45991.53
561.45	46089.83
561.61	45940.04
561.78	46003.23
561.94	45930.67
562.11	46438.57
562.27	45914.29
562.44	46232.60
562.60	46670.28
562.77	46506.44
562.93	46525.17
563.10	46239.62
563.26	45876.84
563.42	46443.25
563.59	45940.04
563.75	46319.20
563.92	46422.19
564.08	46263.03
564.24	46674.96
564.41	46405.80
564.57	46300.48
564.74	46457.29
564.90	46436.23
565.07	46597.73
565.23	46363.67
565.39	46281.75
565.56	46426.87
565.72	46497.08
565.88	46429.21
566.05	46466.66
566.21	46555.60
566.38	46134.30
566.54	46288.77
566.70	46724.11
566.87	47051.79
567.03	46616.45
567.19	46775.61
567.36	46499.42
567.52	46293.46
567.68	46777.95
567.85	46597.73
568.01	46391.76
568.17	46185.79
568.34	46422.19
568.50	46476.02
568.66	46415.16
568.83	46410.48
568.99	46218.56
569.15	46789.65
569.32	46630.49
569.48	46728.80
569.64	46600.07
569.81	46417.50
569.97	46834.12
570.13	46490.06
570.30	46260.69
570.46	46398.78
570.62	46202.18
570.78	45977.48
570.95	46302.82
571.11	46600.07
571.27	46443.25
571.43	45970.46
571.60	46562.62
571.76	46595.38
571.92	46677.30
572.09	46300.48
572.25	46375.37
572.41	46614.11
572.57	47210.95
572.74	47236.69
572.90	46883.27
573.06	46866.89
573.22	47065.83
573.38	46693.69
573.55	46443.25
573.71	46806.03
573.87	46157.70
574.03	46492.40
574.20	47068.17
574.36	46937.10
574.52	46490.06
574.68	46904.34
574.84	46501.76
575.01	46855.18
575.17	47054.13
575.33	46321.54
575.49	46567.30
575.65	46855.18
575.82	47100.94
575.98	46621.13
576.14	47370.10
576.30	47002.64
576.46	46429.21
576.62	46550.91
576.79	46710.07
576.95	46213.88
577.11	47215.63
577.27	46955.83
577.43	46693.69
577.59	46431.55
577.75	46726.46
577.92	46253.67
578.08	46270.05
578.24	46237.28
578.40	46717.09
578.56	46644.54
578.72	46480.70
578.88	46677.30
579.04	46995.62
579.21	46553.26
579.37	46775.61
579.53	46747.52
579.69	46590.70
579.85	47196.90
580.01	46735.82
580.17	46864.55
580.33	47168.82
580.49	46941.78
580.65	46852.84
580.82	47192.22
580.98	46679.64
581.14	46628.15
581.30	47304.57
581.46	46721.77
581.62	46988.60
581.78	46923.06
581.94	47234.35
582.10	47168.82
582.26	47150.09
582.42	46738.16
582.58	46794.33
582.74	46581.34
582.90	47084.56
583.06	47159.45
583.22	47168.82
583.38	47096.26
583.54	46948.81
583.70	46972.21
583.86	47056.47
584.02	46314.52
584.18	47110.30
584.34	46635.17
584.50	46892.63
584.66	47040.09
584.82	46962.85
584.98	47133.71
585.14	46632.83
585.30	46703.05
585.46	47363.08
585.62	46651.56
585.78	46719.43
585.94	46712.41
586.10	47096.26
586.26	46857.52
586.42	47049.45
586.58	46904.34
586.74	47033.07
586.90	46691.35
587.06	46787.31
587.22	47353.72
587.38	46534.53
587.54	46909.02
587.70	46717.09
587.86	46742.84
588.02	46906.68
588.18	47173.50
588.34	46777.95
588.49	46403.46
588.65	46340.27
588.81	46171.75
588.97	46717.09
589.13	45963.44
589.29	46562.62
589.45	46731.14
589.61	46995.62
589.77	46892.63
589.93	46770.93
