SpectraSuite Data File
++++++++++++++++++++++++++++++++++++
Date: Fri Oct 25 11:26:02 EDT 2013
User: price-jones
Dark Spectrum Present: No
Reference Spectrum Present: No
Number of Sampled Component Spectra: 1
Spectrometers: USB2+H05261
Integration Time (usec): 100000 (USB2+H05261)
Spectra Averaged: 1 (USB2+H05261)
Boxcar Smoothing: 0 (USB2+H05261)
Correct for Electrical Dark: No (USB2+H05261)
Strobe/Lamp Enabled: No (USB2+H05261)
Correct for Detector Non-linearity: No (USB2+H05261)
Correct for Stray Light: No (USB2+H05261)
Number of Pixels in Processed Spectrum: 2048
>>>>>Begin Processed Spectral Data<<<<<
365.73	220.01
365.92	220.01
366.12	220.01
366.32	145.11
366.52	194.26
366.72	227.03
366.91	124.05
367.11	124.05
367.31	166.18
367.51	161.50
367.70	88.94
367.90	142.77
368.10	147.45
368.30	91.28
368.49	93.62
368.69	166.18
368.89	161.50
369.09	138.09
369.28	156.82
369.48	166.18
369.68	135.75
369.87	161.50
370.07	217.67
370.27	224.69
370.47	351.08
370.66	599.18
370.86	638.97
371.06	709.18
371.25	617.90
371.45	683.44
371.65	702.16
371.84	718.54
372.04	711.52
372.24	727.91
372.44	667.05
372.63	678.76
372.83	788.76
373.03	765.36
373.22	758.33
373.42	727.91
373.62	781.74
373.81	826.21
374.01	814.51
374.21	791.10
374.40	866.00
374.60	882.38
374.79	844.93
374.99	823.87
375.19	814.51
375.38	889.40
375.58	861.32
375.78	847.27
375.97	919.83
376.17	837.91
376.37	830.89
376.56	894.08
376.76	870.68
376.95	908.13
377.15	887.06
377.35	891.74
377.54	973.66
377.74	912.81
377.93	905.79
378.13	922.17
378.33	954.94
378.52	896.43
378.72	863.66
378.91	952.60
379.11	929.19
379.31	1020.47
379.50	905.79
379.70	992.39
379.89	940.90
380.09	1025.15
380.28	1032.18
380.48	997.07
380.68	999.41
380.87	1006.43
381.07	1011.11
381.26	1064.94
381.46	1025.15
381.65	997.07
381.85	1004.09
382.04	1025.15
382.24	1107.07
382.43	1041.54
382.63	1060.26
382.83	1081.33
383.02	1060.26
383.22	1174.95
383.41	1057.92
383.61	1081.33
383.80	1167.93
384.00	1111.75
384.19	1083.67
384.39	1111.75
384.58	1083.67
384.78	1074.31
384.97	1128.14
385.17	1163.25
385.36	1184.31
385.56	1137.50
385.75	1123.46
385.95	1158.57
386.14	1179.63
386.34	1247.51
386.53	1226.44
386.72	1245.16
386.92	1210.06
387.11	1221.76
387.31	1226.44
387.50	1177.29
387.70	1252.19
387.89	1200.69
388.09	1308.36
388.28	1270.91
388.48	1266.23
388.67	1306.02
388.86	1277.93
389.06	1390.28
389.25	1404.32
389.45	1366.87
389.64	1336.45
389.84	1399.64
390.03	1357.51
390.22	1411.34
390.42	1420.71
390.61	1334.11
390.81	1317.72
391.00	1385.60
391.19	1568.16
391.39	1392.62
391.58	1441.77
391.78	1495.60
391.97	1497.94
392.16	1537.73
392.36	1554.12
392.55	1584.54
392.75	1551.78
392.94	1462.83
393.13	1542.41
393.33	1565.82
393.52	1530.71
393.71	1589.22
393.91	1558.80
394.10	1584.54
394.29	1605.61
394.49	1605.61
394.68	1572.84
394.88	1586.88
395.07	1643.06
395.26	1694.55
395.46	1746.04
395.65	1699.23
395.84	1729.66
396.04	1685.19
396.23	1732.00
396.42	1708.59
396.62	1785.83
396.81	1638.38
397.00	1818.60
397.19	1886.47
397.39	1844.34
397.58	1923.92
397.77	1739.02
397.97	1867.75
398.16	1806.89
398.35	1863.07
398.55	1865.41
398.74	1877.11
398.93	1947.33
399.12	1881.79
399.32	1933.28
399.51	1998.82
399.70	1994.14
399.90	1998.82
400.09	1914.56
400.28	2090.10
400.47	2031.58
400.67	2073.71
400.86	2052.65
401.05	2073.71
401.24	2148.61
401.44	2202.44
401.63	2167.34
401.82	2207.13
402.01	2169.68
402.21	2129.89
402.40	2260.96
402.59	2071.37
402.78	2169.68
402.97	2312.45
403.17	2314.79
403.36	2160.31
403.55	2265.64
403.74	2331.17
403.93	2239.89
404.13	2392.03
404.32	2326.49
404.51	2333.51
404.70	2445.86
404.89	2392.03
405.09	2466.92
405.28	2441.18
405.47	2607.36
405.66	2537.14
405.85	2581.61
406.05	2565.23
406.24	2567.57
406.43	2560.55
406.62	2597.99
406.81	2579.27
407.00	2597.99
407.20	2537.14
407.39	2597.99
407.58	2792.26
407.77	2628.42
407.96	2726.72
408.15	2773.53
408.34	2829.71
408.54	2841.41
408.73	2663.53
408.92	2848.43
409.11	2881.20
409.30	2911.63
409.49	2892.90
409.68	2928.01
409.87	2972.48
410.07	2986.52
410.26	3068.44
410.45	3009.93
410.64	2965.46
410.83	2988.86
411.02	3133.98
411.21	3164.40
411.40	3201.85
411.59	3138.66
411.78	3141.00
411.98	3274.41
412.17	3309.52
412.36	3353.99
412.55	3379.73
412.74	3461.65
412.93	3405.48
413.12	3351.65
413.31	3515.48
413.50	3396.12
413.69	3449.95
413.88	3517.83
414.07	3674.64
414.26	3569.32
414.45	3658.26
414.64	3609.11
414.83	3754.22
415.02	3803.37
415.22	3894.65
415.41	3803.37
415.60	3826.78
415.79	3854.86
415.98	3880.61
416.17	4014.02
416.36	3960.19
416.55	4009.34
416.74	4140.41
416.93	4007.00
417.12	3995.29
417.31	4142.75
417.50	4299.56
417.69	4465.74
417.88	4315.95
418.07	4222.33
418.26	4339.35
418.45	4414.25
418.64	4526.60
418.83	4418.93
419.02	4582.77
419.21	4521.92
419.39	4493.83
419.58	4402.55
419.77	4379.14
419.96	4531.28
420.15	4482.13
420.34	4692.77
420.53	4660.01
420.72	4613.20
420.91	4732.56
421.10	4851.93
421.29	4887.04
421.48	4716.18
421.67	4718.52
421.86	4821.50
422.05	4821.50
422.24	4730.22
422.43	4830.87
422.61	4971.30
422.80	4882.36
422.99	5008.75
423.18	4943.21
423.37	4959.60
423.56	5125.77
423.75	4868.31
423.94	4760.65
424.13	4657.67
424.32	4704.48
424.50	4858.95
424.69	5029.81
424.88	5139.82
425.07	4901.08
425.26	4851.93
425.45	5170.24
425.64	5022.79
425.83	4884.70
426.01	5095.35
426.20	4968.96
426.39	5078.96
426.58	5048.54
426.77	5167.90
426.96	5121.09
427.15	5233.44
427.33	5231.10
427.52	5146.84
427.71	5144.50
427.90	5193.65
428.09	5174.92
428.28	5371.53
428.46	5313.02
428.65	5446.43
428.84	5516.64
429.03	5406.64
429.22	5373.87
429.40	5451.11
429.59	5584.52
429.78	5177.26
429.97	5338.76
430.16	5518.98
430.34	5579.84
430.53	5446.43
430.72	5504.94
430.91	5614.95
431.10	5603.24
431.28	5823.25
431.47	5706.23
431.66	5790.49
431.85	5682.82
432.03	5930.92
432.22	6045.60
432.41	5881.77
432.60	5884.11
432.79	5818.57
432.97	6164.97
433.16	6162.63
433.35	5966.03
433.54	6066.67
433.72	6186.04
433.91	6094.76
434.10	6223.48
434.28	6160.29
434.47	6204.76
434.66	6155.61
434.85	6392.00
435.03	6314.77
435.22	6211.78
435.41	6434.13
435.59	6464.56
435.78	6494.99
435.97	6527.75
436.16	6541.80
436.34	6349.87
436.53	6476.26
436.72	6579.25
436.90	6373.28
437.09	6590.95
437.28	6546.48
437.46	6504.35
437.65	6546.48
437.84	6780.53
438.02	6874.15
438.21	6712.66
438.40	6693.93
438.58	6974.80
438.77	6988.84
438.96	6895.22
439.14	7028.63
439.33	7180.76
439.52	7162.04
439.70	7171.40
439.89	7391.41
440.08	7255.66
440.26	7314.17
440.45	7368.01
440.63	7456.95
440.82	7487.37
441.01	7562.27
441.19	7494.40
441.38	7721.43
441.57	7852.50
441.75	7791.64
441.94	7903.99
442.12	7882.92
442.31	8119.32
442.50	8013.99
442.68	7964.84
442.87	7939.10
443.05	8081.87
443.24	8322.94
443.43	8325.29
443.61	8285.50
443.80	8416.57
443.98	8163.79
444.17	7749.51
444.35	8224.64
444.54	8334.65
444.73	8294.86
444.91	8313.58
445.10	8217.62
445.28	8390.82
445.47	8276.13
445.65	8351.03
445.84	8517.21
446.02	8376.78
446.21	8344.01
446.39	8442.31
446.58	8505.51
446.77	8505.51
446.95	8479.76
447.14	8411.89
447.32	8603.81
447.51	8449.33
447.69	8418.91
447.88	8411.89
448.06	8383.80
448.25	8723.18
448.43	8437.63
448.62	8758.28
448.80	8379.12
448.99	8730.20
449.17	8760.63
449.36	8638.92
449.54	8755.94
449.73	9008.72
449.91	8875.31
450.10	8798.07
450.28	9170.22
450.46	9090.64
450.65	9179.58
450.83	9165.54
451.02	9029.79
451.20	9224.05
451.39	9149.15
451.57	9146.81
451.76	9018.08
451.94	9132.77
452.13	9170.22
452.31	9275.54
452.49	9266.18
452.68	9446.40
452.86	9282.56
453.05	9343.42
453.23	9497.89
453.42	9481.51
453.60	9481.51
453.78	9547.05
453.97	9504.92
454.15	9591.52
454.34	9439.38
454.52	9652.37
454.70	9643.01
454.89	9710.88
455.07	9624.28
455.26	9701.52
455.44	9994.09
455.62	9966.00
455.81	9769.40
455.99	10169.63
456.17	9998.77
456.36	9928.55
456.54	10129.84
456.73	10363.89
456.91	10548.79
457.09	10427.09
457.28	10501.98
457.46	10356.87
457.64	10436.45
457.83	10361.55
458.01	10530.07
458.19	10520.71
458.38	10607.31
458.56	10747.74
458.74	10696.25
458.93	10736.04
459.11	10516.03
459.29	10487.94
459.48	10663.48
459.66	10848.38
459.84	10822.64
460.03	10958.39
460.21	10923.28
460.39	11164.36
460.57	10785.19
460.76	10998.18
460.94	11346.92
461.12	10991.16
461.31	10967.75
461.49	10897.53
461.67	11082.44
461.85	11669.91
462.04	11281.38
462.22	11854.81
462.40	11522.46
462.59	11398.41
462.77	11382.03
462.95	11695.66
463.13	11541.18
463.32	11646.51
463.50	11847.79
463.68	11805.66
463.86	11829.07
464.05	11492.03
464.23	11775.24
464.41	11625.44
464.59	11695.66
464.78	12196.53
464.96	12081.85
465.14	11665.23
465.32	11978.86
465.50	11927.37
465.69	12262.07
465.87	12086.53
466.05	11901.62
466.23	12114.61
466.41	12383.77
466.60	12449.31
466.78	12308.88
466.96	12327.60
467.14	12238.66
467.32	12255.04
467.51	12657.62
467.69	12079.50
467.87	12320.58
468.05	12690.38
468.23	12299.52
468.41	12493.78
468.60	12716.13
468.78	12835.50
468.96	12535.91
469.14	12702.09
469.32	13036.78
469.50	12650.60
469.69	13135.09
469.87	13011.04
470.05	12924.44
470.23	13149.13
470.41	13062.53
470.59	13317.65
470.77	12996.99
470.95	13186.58
471.14	13610.22
471.32	13268.50
471.50	13699.16
471.68	13778.73
471.86	13724.90
472.04	13645.32
472.22	13851.29
472.40	13820.86
472.58	13717.88
472.77	14001.08
472.95	13991.72
473.13	14590.90
473.31	13788.10
473.49	13989.38
473.67	14209.39
473.85	14370.89
474.03	14471.53
474.21	14600.26
474.39	14647.07
474.57	14682.18
474.75	14761.76
474.93	15049.64
475.12	14724.31
475.30	15044.96
475.48	14956.02
475.66	15339.87
475.84	15091.77
476.02	15272.00
476.20	15302.42
476.38	15597.33
476.56	15981.18
476.74	15906.28
476.92	15758.83
477.10	15590.31
477.28	16126.29
477.46	16198.85
477.64	16159.06
477.82	16521.84
478.00	17142.08
478.18	16821.43
478.36	16943.14
478.54	17525.93
478.72	17188.89
478.90	17488.48
479.08	17329.33
479.26	17692.11
479.44	17752.96
479.62	17898.08
479.80	18052.55
479.98	18291.29
480.16	18422.36
480.34	18415.34
480.52	18537.04
480.70	18422.36
480.88	18466.83
481.06	18637.69
481.24	18714.92
481.41	19227.50
481.59	19133.88
481.77	19594.96
481.95	19618.37
482.13	19854.76
482.31	19651.14
482.49	20226.91
482.67	20114.56
482.85	20486.71
483.03	20299.47
483.21	20870.56
483.39	20636.50
483.57	20638.84
483.74	21163.12
483.92	21249.72
484.10	21055.46
484.28	21607.83
484.46	21935.50
484.64	22333.39
484.82	21755.28
485.00	22295.94
485.18	22780.43
485.35	23063.64
485.53	23021.51
485.71	22895.12
485.89	23681.54
486.07	23168.96
486.25	23285.99
486.43	23447.49
486.61	23679.20
486.78	23934.32
486.96	24194.12
487.14	24570.94
487.32	24823.72
487.50	24713.72
487.68	24793.29
487.85	25158.42
488.03	25340.98
488.21	25776.32
488.39	25963.56
488.57	26192.94
488.75	25914.41
488.92	26293.58
489.10	26462.10
489.28	26436.35
489.46	27126.81
489.64	26981.70
489.81	27592.58
489.99	27431.08
490.17	27592.58
490.35	27950.68
490.53	28247.93
490.70	28346.23
490.88	28467.94
491.06	28966.47
491.24	28631.77
491.41	28603.69
491.59	29153.71
491.77	29436.92
491.95	29420.53
492.13	29823.11
492.30	30003.33
492.48	29851.19
492.66	29923.75
492.84	30373.13
493.01	30665.70
493.19	30618.89
493.37	31356.16
493.54	31063.59
493.72	31136.15
493.90	31730.64
494.08	32128.53
494.25	32168.32
494.43	32299.39
494.61	32327.48
494.79	32273.65
494.96	32205.77
495.14	32629.41
495.32	33312.84
495.49	33088.15
495.67	33523.49
495.85	33284.76
496.02	33795.00
496.20	34129.69
496.38	34190.55
496.55	33928.41
496.73	34731.21
496.91	34445.66
497.09	34663.33
497.26	34895.05
497.44	34911.43
497.62	35143.14
497.79	35805.52
497.97	35421.67
498.14	35861.69
498.32	36449.16
498.50	36112.13
498.67	36238.51
498.85	36222.13
499.03	36622.36
499.20	36865.78
499.38	36638.75
499.56	36982.80
499.73	37350.27
499.91	37532.83
500.08	37399.42
500.26	37083.45
500.44	37603.05
500.61	37825.40
500.79	37668.58
500.97	38562.67
501.14	38483.09
501.32	38499.47
501.49	38412.87
501.67	38312.23
501.84	38642.24
502.02	38955.88
502.20	39112.69
502.37	39353.77
502.55	39122.05
502.72	39454.41
502.90	39346.75
503.07	39754.00
503.25	39784.43
503.43	39803.15
503.60	39775.06
503.78	39924.86
503.95	39959.97
504.13	40334.45
504.30	40421.05
504.48	40350.84
504.65	40919.59
504.83	40971.08
505.01	41464.93
505.18	41130.23
505.36	41244.92
505.53	41195.77
505.71	41694.30
505.88	41390.03
506.06	41219.17
506.23	41673.24
506.41	41827.71
506.58	41977.51
506.76	42110.92
506.93	42684.35
507.11	42232.63
507.28	42532.22
507.46	42412.85
507.63	42658.60
507.81	42967.55
507.98	43089.26
508.16	43452.05
508.33	43283.53
508.50	43100.97
508.68	43693.12
508.85	43779.72
509.03	44002.07
509.20	44240.81
509.38	44238.47
509.55	44215.06
509.73	44549.76
509.90	44603.59
510.08	44378.90
510.25	44868.07
510.42	45113.83
510.60	44961.69
510.77	44968.71
510.95	45776.20
511.12	44959.35
511.30	45179.36
511.47	45500.01
511.64	45368.94
511.82	45528.10
511.99	45698.96
512.17	45713.00
512.34	45780.88
512.51	46188.13
512.69	46490.06
512.86	46417.50
513.04	46700.71
513.21	46286.43
513.38	46684.33
513.56	46749.86
513.73	47079.88
513.90	47026.04
514.08	46735.82
514.25	47229.67
514.43	47440.32
514.60	47332.65
514.77	47419.25
514.95	47878.00
515.12	47440.32
515.29	47351.38
515.47	48023.11
515.64	48257.17
515.81	47861.61
515.99	48044.18
516.16	48519.31
516.33	48238.44
516.51	48720.59
516.68	48421.00
516.85	48481.86
517.03	48868.05
517.20	48568.46
517.37	48856.34
517.54	48842.30
517.72	49167.63
517.89	48900.81
518.06	48898.47
518.24	49429.77
518.41	49230.83
518.58	49277.64
518.75	49237.85
518.93	49422.75
519.10	49357.22
519.27	49811.28
519.45	49811.28
519.62	49797.24
519.79	49851.07
519.96	49762.13
520.14	50005.55
520.31	50167.04
520.48	50562.59
520.65	50138.96
520.83	50691.32
521.00	50691.32
521.17	50532.17
521.34	50593.02
521.52	50740.47
521.69	50679.62
521.86	50899.63
522.03	51063.47
522.20	51393.48
522.38	51435.61
522.55	51353.69
522.72	51384.12
522.89	51320.93
523.07	51353.69
523.24	51583.07
523.41	51526.89
523.58	51297.52
523.75	51742.22
523.92	51744.56
524.10	51969.26
524.27	52140.11
524.44	52465.45
524.61	51920.10
524.78	51966.91
524.96	52161.18
525.13	52411.62
525.30	52289.91
525.47	52453.75
525.64	52030.11
525.81	52402.25
525.98	52573.11
526.16	52865.68
526.33	52732.27
526.50	52828.23
526.67	52741.63
526.84	53240.17
527.01	52722.91
527.18	52978.03
527.36	53052.92
527.53	53153.57
527.70	53172.29
527.87	53272.93
528.04	52959.30
528.21	53076.33
528.38	53303.36
528.55	53483.58
528.72	53352.51
528.89	53612.31
529.07	53385.28
529.24	53359.53
529.41	53514.01
529.58	53544.44
529.75	53586.57
529.92	53977.43
530.09	53556.14
530.26	53839.34
530.43	53993.82
530.60	53719.98
530.77	53993.82
530.94	53829.98
531.11	53872.11
531.28	54059.35
531.46	54068.72
531.63	54230.21
531.80	54316.81
531.97	54436.18
532.14	54522.78
532.31	54368.30
532.48	54354.26
532.65	54693.64
532.82	54347.24
532.99	54590.66
533.16	54534.48
533.33	54815.35
533.50	55098.55
533.67	54724.07
533.84	54688.96
534.01	55051.74
534.18	54878.54
534.35	55346.65
534.52	54930.03
534.69	55128.98
534.86	55213.24
535.03	54913.65
535.20	55089.19
535.37	55313.88
535.54	55241.32
535.71	55255.37
535.88	55351.33
536.05	55419.20
536.22	55679.00
536.38	55576.02
536.55	55693.05
536.72	55515.17
536.89	55386.44
537.06	55421.55
537.23	55711.77
537.40	55557.30
537.57	55559.64
537.74	55599.43
537.91	55948.17
538.08	55994.98
538.25	55922.42
538.42	55803.05
538.59	56191.58
538.75	55868.59
538.92	56009.02
539.09	56163.50
539.26	56095.62
539.43	56039.45
539.60	56154.13
539.77	56081.58
539.94	56378.82
540.11	56317.97
540.28	56530.96
540.44	56324.99
540.61	56250.09
540.78	56219.67
540.95	56488.83
541.12	56432.66
541.29	56442.02
541.46	56418.61
541.62	56397.55
541.79	56875.02
541.96	56570.75
542.13	56596.49
542.30	56753.31
542.47	56704.16
542.63	56704.16
542.80	57076.30
542.97	57153.54
543.14	57092.69
543.31	57167.58
543.48	57219.08
543.64	57418.02
543.81	57420.36
543.98	57106.73
544.15	57097.37
544.32	57261.21
544.48	57572.50
544.65	57371.21
544.82	57485.90
544.99	57375.89
545.16	57382.91
545.32	57223.76
545.49	57811.23
545.66	57759.74
545.83	57441.43
546.00	57738.68
546.16	57684.84
546.33	57654.42
546.50	57450.79
546.67	57558.45
546.83	57649.74
547.00	57628.67
547.17	57586.54
547.34	57647.39
547.50	57911.88
547.67	57958.69
547.84	58099.12
548.00	58188.06
548.17	58206.78
548.34	58035.92
548.51	58262.96
548.67	58014.86
548.84	58164.65
549.01	57841.66
549.18	58131.89
549.34	58319.13
549.51	58461.90
549.68	58508.71
549.84	58316.79
550.01	58295.72
550.18	58003.16
550.34	58363.60
550.51	58494.67
550.68	58384.66
550.84	58286.36
551.01	58438.50
551.18	58199.76
551.34	58497.01
551.51	58604.67
551.68	58585.95
551.84	58492.33
552.01	58567.23
552.18	58691.27
552.34	58532.12
552.51	58564.88
552.68	58592.97
552.84	58520.41
553.01	58855.11
553.18	58695.95
553.34	58857.45
553.51	58499.35
553.67	58937.03
553.84	58965.12
554.01	59021.29
554.17	58951.07
554.34	59105.55
554.51	58908.94
554.67	59140.66
554.84	58934.69
555.00	59000.22
555.17	58951.07
555.33	59079.80
555.50	58798.94
555.67	58958.09
555.83	59100.87
556.00	58955.75
556.16	59332.58
556.33	59276.41
556.50	59040.01
556.66	59475.35
556.83	59096.19
556.99	59468.33
557.16	59320.88
557.32	59494.08
557.49	59639.19
557.65	59323.22
557.82	59377.05
557.98	59365.35
558.15	59405.14
558.32	59576.00
558.48	59405.14
558.65	59606.42
558.81	59351.30
558.98	59519.82
559.14	59611.10
559.31	59564.29
559.47	59587.70
559.64	59554.93
559.80	59517.48
559.97	59812.39
560.13	59632.17
560.30	59674.30
560.46	59765.58
560.63	59835.80
560.79	59683.66
560.96	59910.69
561.12	59861.54
561.29	59924.74
561.45	59732.81
561.61	59758.56
561.78	59800.69
561.94	59997.29
562.11	59833.46
562.27	59826.43
562.44	59812.39
562.60	60023.04
562.77	59842.82
562.93	59835.80
563.10	59966.87
563.26	59859.20
563.42	60097.94
563.59	59955.16
563.75	59913.03
563.92	59969.21
564.08	59833.46
564.24	60039.42
564.41	59948.14
564.57	59990.27
564.74	60217.30
564.90	60039.42
565.07	60027.72
565.23	60252.41
565.39	60121.34
565.56	60266.45
565.72	60137.72
565.88	60268.79
566.05	60039.42
566.21	60313.26
566.38	60238.37
566.54	60343.69
566.70	60236.03
566.87	60320.29
567.03	60135.38
567.19	60507.53
567.36	60149.43
567.52	60317.95
567.68	60484.12
567.85	60430.29
568.01	60233.69
568.17	60161.13
568.34	60341.35
568.50	60243.05
568.66	60245.39
568.83	60449.02
568.99	60275.82
569.15	60451.36
569.32	60495.83
569.48	60383.48
569.64	60619.88
569.81	60507.53
569.97	60434.97
570.13	60336.67
570.30	60509.87
570.46	60149.43
570.62	60479.44
570.78	60477.10
570.95	60505.19
571.11	60523.91
571.27	60561.36
571.43	60434.97
571.60	60514.55
571.76	60552.00
571.92	60685.41
572.09	60456.04
572.25	60652.64
572.41	60474.76
572.57	60411.57
572.74	60629.24
572.90	60465.40
573.06	60779.03
573.22	60568.38
573.38	60673.71
573.55	60446.68
573.71	60790.73
573.87	60795.42
574.03	60547.32
574.20	60591.79
574.36	60596.47
574.52	60954.57
574.68	60629.24
574.84	60769.67
575.01	60750.94
575.17	60800.10
575.33	60779.03
575.49	60783.71
575.65	60769.67
575.82	60652.64
575.98	60853.93
576.14	60736.90
576.30	60926.49
576.46	60697.11
576.62	60790.73
576.79	60697.11
576.95	60800.10
577.11	60713.50
577.27	60980.32
577.43	60764.99
577.59	60669.03
577.75	60743.92
577.92	60678.39
578.08	60835.20
578.24	60774.35
578.40	60900.74
578.56	61097.34
578.72	60757.97
578.88	61036.49
579.04	61085.64
579.21	61029.47
579.37	60952.23
579.53	60783.71
579.69	60643.28
579.85	60509.87
580.01	60814.14
580.17	60807.12
580.33	60825.84
580.49	60750.94
580.65	60814.14
580.82	60769.67
580.98	60804.78
581.14	60809.46
581.30	61029.47
581.46	60999.04
581.62	61022.45
581.78	60807.12
581.94	60814.14
582.10	61010.74
582.26	60837.54
582.42	60711.16
582.58	61006.06
582.74	60947.55
582.90	60858.61
583.06	60935.85
583.22	60722.86
583.38	61020.11
583.54	60839.89
583.70	60949.89
583.86	60956.91
584.02	60872.65
584.18	60940.53
584.34	60931.17
584.50	60769.67
584.66	60884.36
584.82	60776.69
584.98	61090.32
585.14	61148.84
585.30	60856.27
585.46	60900.74
585.62	60823.50
585.78	61066.92
585.94	60867.97
586.10	60830.52
586.26	61071.60
586.42	60924.14
586.58	61144.16
586.74	61090.32
586.90	61031.81
587.06	60926.49
587.22	61331.40
587.38	61034.15
587.54	61158.20
587.70	61127.77
587.86	60961.59
588.02	60959.25
588.18	61125.43
588.34	61113.73
588.49	61069.26
