SpectraSuite Data File
++++++++++++++++++++++++++++++++++++
Date: Fri Oct 25 11:23:26 EDT 2013
User: price-jones
Dark Spectrum Present: No
Reference Spectrum Present: No
Number of Sampled Component Spectra: 1
Spectrometers: USB2+H05261
Integration Time (usec): 100000 (USB2+H05261)
Spectra Averaged: 1 (USB2+H05261)
Boxcar Smoothing: 0 (USB2+H05261)
Correct for Electrical Dark: No (USB2+H05261)
Strobe/Lamp Enabled: No (USB2+H05261)
Correct for Detector Non-linearity: No (USB2+H05261)
Correct for Stray Light: No (USB2+H05261)
Number of Pixels in Processed Spectrum: 2048
>>>>>Begin Processed Spectral Data<<<<<
365.73	182.56
365.92	182.56
366.12	182.56
366.32	170.86
366.52	98.30
366.72	124.05
366.91	93.62
367.11	166.18
367.31	124.05
367.51	163.84
367.70	107.66
367.90	138.09
368.10	63.19
368.30	147.45
368.49	140.43
368.69	168.52
368.89	65.54
369.09	166.18
369.28	182.56
369.48	231.71
369.68	201.29
369.87	220.01
370.07	133.41
370.27	250.44
370.47	299.59
370.66	613.22
370.86	613.22
371.06	690.46
371.25	720.88
371.45	608.54
371.65	669.39
371.84	681.10
372.04	744.29
372.24	627.26
372.44	699.82
372.63	753.65
372.83	844.93
373.03	758.33
373.22	758.33
373.42	753.65
373.62	678.76
373.81	788.76
374.01	751.31
374.21	837.91
374.40	664.71
374.60	777.06
374.79	777.06
374.99	812.17
375.19	847.27
375.38	805.14
375.58	812.17
375.78	833.23
375.97	821.53
376.17	884.72
376.37	777.06
376.56	840.25
376.76	905.79
376.95	809.83
377.15	945.58
377.35	978.34
377.54	1001.75
377.74	924.51
377.93	908.13
378.13	854.30
378.33	919.83
378.52	887.06
378.72	917.49
378.91	903.45
379.11	933.87
379.31	868.34
379.50	922.17
379.70	992.39
379.89	964.30
380.09	880.04
380.28	997.07
380.48	1013.45
380.68	1018.13
380.87	1013.45
381.07	1111.75
381.26	961.96
381.46	992.39
381.65	1039.20
381.85	1004.09
382.04	987.71
382.24	1050.90
382.43	1011.11
382.63	983.02
382.83	1102.39
383.02	1121.12
383.22	1156.22
383.41	1174.95
383.61	1137.50
383.80	1146.86
384.00	1153.88
384.19	1121.12
384.39	1181.97
384.58	1111.75
384.78	1123.46
384.97	1196.01
385.17	1146.86
385.36	1172.61
385.56	1076.65
385.75	1177.29
385.95	1174.95
386.14	1135.16
386.34	1193.67
386.53	1224.10
386.72	1224.10
386.92	1277.93
387.11	1301.34
387.31	1268.57
387.50	1231.12
387.70	1261.55
387.89	1249.85
388.09	1231.12
388.28	1259.21
388.48	1327.08
388.67	1294.32
388.86	1282.61
389.06	1294.32
389.25	1235.80
389.45	1371.55
389.64	1240.48
389.84	1371.55
390.03	1366.87
390.22	1294.32
390.42	1427.73
390.61	1446.45
390.81	1383.26
391.00	1322.40
391.19	1479.22
391.39	1481.56
391.58	1387.94
391.78	1453.47
391.97	1469.86
392.16	1493.26
392.36	1390.28
392.55	1511.99
392.75	1533.05
392.94	1486.24
393.13	1600.93
393.33	1514.33
393.52	1556.46
393.71	1603.27
393.91	1561.14
394.10	1542.41
394.29	1579.86
394.49	1537.73
394.68	1526.03
394.88	1643.06
395.07	1769.44
395.26	1732.00
395.46	1694.55
395.65	1682.85
395.84	1762.42
396.04	1797.53
396.23	1736.68
396.42	1703.91
396.62	1757.74
396.81	1771.79
397.00	1799.87
397.19	1696.89
397.39	1764.76
397.58	1741.36
397.77	1799.87
397.97	1872.43
398.16	1837.32
398.35	1856.04
398.55	1748.38
398.74	1902.86
398.93	2003.50
399.12	1949.67
399.32	1963.71
399.51	1909.88
399.70	1959.03
399.90	1881.79
400.09	1968.39
400.28	2005.84
400.47	1966.05
400.67	2057.33
400.86	2080.74
401.05	1996.48
401.24	2085.42
401.44	2162.66
401.63	2235.21
401.82	2167.34
402.01	2076.06
402.21	2221.17
402.40	2258.62
402.59	2270.32
402.78	2207.13
402.97	2237.55
403.17	2223.51
403.36	2310.11
403.55	2242.23
403.74	2375.64
403.93	2279.68
404.13	2326.49
404.32	2333.51
404.51	2408.41
404.70	2490.33
404.89	2361.60
405.09	2429.48
405.28	2392.03
405.47	2534.80
405.66	2471.61
405.85	2410.75
406.05	2595.65
406.24	2628.42
406.43	2670.55
406.62	2605.02
406.81	2609.70
407.00	2614.38
407.20	2602.68
407.39	2565.23
407.58	2684.59
407.77	2810.98
407.96	2677.57
408.15	2731.41
408.34	2722.04
408.54	2633.10
408.73	2715.02
408.92	2839.07
409.11	2991.20
409.30	3016.95
409.49	2808.64
409.68	2906.95
409.87	2829.71
410.07	3042.70
410.26	2937.37
410.45	3059.08
410.64	3014.61
410.83	3131.64
411.02	3157.38
411.21	3190.15
411.40	3038.02
411.59	3208.87
411.78	3159.72
411.98	3232.28
412.17	3204.19
412.36	3428.88
412.55	3279.09
412.74	3386.76
412.93	3342.28
413.12	3318.88
413.31	3459.31
413.50	3550.59
413.69	3475.70
413.88	3534.21
414.07	3679.32
414.26	3691.02
414.45	3620.81
414.64	3648.90
414.83	3672.30
415.02	3761.24
415.22	3812.73
415.41	3929.76
415.60	3934.44
415.79	3953.16
415.98	3985.93
416.17	4021.04
416.36	3927.42
416.55	3983.59
416.74	4037.42
416.93	3995.29
417.12	4250.41
417.31	4128.70
417.50	4215.30
417.69	4238.71
417.88	4276.16
418.07	4227.01
418.26	4241.05
418.45	4397.87
418.64	4493.83
418.83	4475.10
419.02	4358.08
419.21	4512.55
419.39	4575.75
419.58	4454.04
419.77	4519.57
419.96	4641.28
420.15	4833.21
420.34	4695.11
420.53	4557.02
420.72	4671.71
420.91	4830.87
421.10	4854.27
421.29	4786.40
421.48	4770.01
421.67	4809.80
421.86	4746.61
422.05	4924.49
422.24	4753.63
422.43	4725.54
422.61	4842.57
422.80	4938.53
422.99	4854.27
423.18	4987.68
423.37	4856.61
423.56	4770.01
423.75	4854.27
423.94	4999.38
424.13	4636.60
424.32	4901.08
424.50	5022.79
424.69	4994.70
424.88	5125.77
425.07	4880.02
425.26	4933.85
425.45	4802.78
425.64	4865.97
425.83	5001.72
426.01	5060.24
426.20	5074.28
426.39	4997.04
426.58	5046.20
426.77	4973.64
426.96	5158.54
427.15	5186.63
427.33	5261.52
427.52	5114.07
427.71	5224.08
427.90	5259.18
428.09	5217.05
428.28	5474.51
428.46	5378.55
428.65	5493.24
428.84	5481.53
429.03	5614.95
429.22	5385.57
429.40	5390.25
429.59	5502.60
429.78	5303.65
429.97	5334.08
430.16	5584.52
430.34	5675.80
430.53	5685.16
430.72	5673.46
430.91	5526.00
431.10	5654.73
431.28	5650.05
431.47	5912.19
431.66	5851.34
431.85	5895.81
432.03	5959.00
432.22	6024.54
432.41	6071.35
432.60	5973.05
432.79	5928.58
432.97	5933.26
433.16	5937.94
433.35	5900.49
433.54	6040.92
433.72	6150.93
433.91	6122.84
434.10	6179.01
434.28	6253.91
434.47	6235.19
434.66	6427.11
434.85	6396.68
435.03	6380.30
435.22	6200.08
435.41	6434.13
435.59	6504.35
435.78	6487.96
435.97	6553.50
436.16	6612.01
436.34	6588.61
436.53	6691.59
436.72	6544.14
436.90	6527.75
437.09	6569.88
437.28	6649.46
437.46	6485.62
437.65	6675.21
437.84	6759.47
438.02	6876.49
438.21	6576.91
438.40	6691.59
438.58	7070.76
438.77	7148.00
438.96	6869.47
439.14	7035.65
439.33	7159.70
439.52	7152.68
439.70	7274.38
439.89	7485.03
440.08	7293.11
440.26	7403.11
440.45	7169.06
440.63	7475.67
440.82	7749.51
441.01	7602.06
441.19	7623.12
441.38	7651.21
441.57	7737.81
441.75	7808.03
441.94	7878.24
442.12	7955.48
442.31	8016.33
442.50	8060.80
442.68	8168.47
442.87	7955.48
443.05	8004.63
443.24	8142.72
443.43	8313.58
443.61	8269.11
443.80	8224.64
443.98	8105.28
444.17	7871.22
444.35	8170.81
444.54	8292.52
444.73	8198.90
444.91	8339.33
445.10	8264.43
445.28	8294.86
445.47	8336.99
445.65	8236.35
445.84	8414.23
446.02	8301.88
446.21	8554.66
446.39	8482.10
446.58	8329.97
446.77	8491.46
446.95	8475.08
447.14	8503.17
447.32	8439.97
447.51	8435.29
447.69	8404.86
447.88	8676.37
448.06	8519.55
448.25	8493.80
448.43	8760.63
448.62	8662.32
448.80	8589.77
448.99	8727.86
449.17	8667.00
449.36	8594.45
449.54	9060.21
449.73	8849.57
449.91	9071.92
450.10	9018.08
450.28	9219.37
450.46	8961.91
450.65	9020.42
450.83	8982.98
451.02	9256.82
451.20	9284.91
451.39	9401.93
451.57	9092.98
451.76	9076.60
451.94	9088.30
452.13	9605.56
452.31	9362.14
452.49	9317.67
452.68	9172.56
452.86	9432.36
453.05	9472.15
453.23	9451.08
453.42	9521.30
453.60	9273.20
453.78	9792.80
453.97	9638.33
454.15	9530.66
454.34	9460.45
454.52	9729.61
454.70	9771.74
454.89	10115.80
455.07	9863.02
455.26	9973.02
455.44	9968.34
455.62	9968.34
455.81	10099.41
455.99	10078.35
456.17	10256.23
456.36	10104.09
456.54	10331.12
456.73	10265.59
456.91	10422.41
457.09	10527.73
457.28	10794.55
457.46	10354.53
457.64	10665.82
457.83	10815.62
458.01	10415.38
458.19	10824.98
458.38	10480.92
458.56	10693.91
458.74	10759.44
458.93	10712.63
459.11	10729.02
459.29	10806.25
459.48	10817.96
459.66	10869.45
459.84	10953.71
460.03	11403.09
460.21	11073.07
460.39	10937.32
460.57	10864.77
460.76	11131.59
460.94	11426.50
461.12	11009.88
461.31	10972.43
461.49	11239.25
461.67	11192.44
461.85	11487.35
462.04	11414.79
462.22	11655.87
462.40	11534.16
462.59	11618.42
462.77	11620.76
462.95	11517.78
463.13	11786.94
463.32	11660.55
463.50	11880.56
463.68	11712.04
463.86	11847.79
464.05	11623.10
464.23	11578.63
464.41	12170.79
464.59	11604.38
464.78	12231.64
464.96	11934.39
465.14	11983.54
465.32	12016.31
465.50	12140.36
465.69	12351.01
465.87	11948.43
466.05	12329.94
466.23	12119.29
466.41	12280.79
466.60	12599.10
466.78	12049.08
466.96	12147.38
467.14	12269.09
467.32	12442.29
467.51	12784.01
467.69	12175.47
467.87	12685.70
468.05	12566.34
468.23	12528.89
468.41	12727.83
468.60	12760.60
468.78	12493.78
468.96	12636.55
469.14	12924.44
469.32	13078.91
469.50	12720.81
469.69	12924.44
469.87	13085.94
470.05	13092.96
470.23	13107.00
470.41	13076.57
470.59	13486.17
470.77	13224.03
470.95	13563.40
471.14	13439.36
471.32	13071.89
471.50	13682.77
471.68	13523.62
471.86	13790.44
472.04	13699.16
472.22	14047.90
472.40	13860.65
472.58	13750.65
472.77	14221.10
472.95	14139.18
473.13	14846.02
473.31	14113.43
473.49	14113.43
473.67	14279.61
473.85	14445.79
474.03	14633.03
474.21	14785.16
474.39	14551.11
474.57	14597.92
474.75	14682.18
474.93	14775.80
475.12	14874.10
475.30	15257.95
475.48	15091.77
475.66	15304.76
475.84	15382.00
476.02	15129.22
476.20	15454.56
476.38	15597.33
476.56	16018.63
476.74	16006.92
476.92	16023.31
477.10	15761.17
477.28	16168.42
477.46	16229.27
477.64	16313.53
477.82	16858.88
478.00	16989.95
478.18	16954.84
478.36	17036.76
478.54	17348.05
478.72	17408.90
478.90	17624.23
479.08	17879.35
479.26	17689.77
479.44	17762.33
479.62	17811.48
479.80	18038.51
479.98	18457.46
480.16	18586.19
480.34	18267.88
480.52	18782.80
480.70	18625.98
480.88	18544.06
481.06	18923.23
481.24	18864.72
481.41	19166.65
481.59	19611.35
481.77	19594.96
481.95	19812.63
482.13	19681.56
482.31	19983.49
482.49	20290.10
482.67	20205.84
482.85	20821.41
483.03	20746.51
483.21	20624.80
483.39	20989.92
483.57	21048.44
483.74	21336.32
483.92	21329.30
484.10	21273.13
484.28	21696.77
484.46	22195.30
484.64	22097.00
484.82	22118.06
485.00	22668.09
485.18	22923.21
485.35	23138.54
485.53	22801.50
485.71	23138.54
485.89	23421.74
486.07	23421.74
486.25	23398.34
486.43	23618.35
486.61	24044.32
486.78	24088.79
486.96	24465.62
487.14	24563.92
487.32	24912.66
487.50	24744.14
487.68	25415.88
487.85	25411.20
488.03	25879.30
488.21	25881.64
488.39	25883.98
488.57	26045.48
488.75	26103.99
488.92	26658.70
489.10	26705.51
489.28	26892.76
489.46	27159.58
489.64	26747.64
489.81	27702.58
489.99	27744.71
490.17	27410.01
490.35	28233.88
490.53	28577.94
490.70	28439.85
490.88	28343.89
491.06	28886.89
491.24	28933.70
491.41	29284.78
491.59	29303.51
491.77	29191.16
491.95	29823.11
492.13	29603.10
492.30	29792.68
492.48	29963.54
492.66	29881.62
492.84	30560.37
493.01	30553.35
493.19	30817.83
493.37	31143.17
493.54	31431.05
493.72	31831.29
493.90	31676.81
494.08	31892.14
494.25	31978.74
494.43	31690.85
494.61	32402.38
494.79	32566.21
494.96	32556.85
495.14	33069.43
495.32	33055.39
495.49	33090.49
495.67	33303.48
495.85	33670.95
496.02	33963.51
496.20	34227.99
496.38	34005.64
496.55	34403.53
496.73	34974.63
496.91	34637.59
497.09	34899.73
497.26	34946.54
497.44	35267.19
497.62	35381.88
497.79	35796.15
497.97	35744.66
498.14	35721.26
498.32	36156.60
498.50	36409.37
498.67	36608.32
498.85	36809.61
499.03	37008.55
499.20	36758.11
499.38	37099.83
499.56	37179.41
499.73	37181.75
499.91	37242.60
500.08	37972.85
500.26	37755.18
500.44	37738.80
500.61	37998.60
500.79	37883.91
500.97	37949.45
501.14	38710.12
501.32	38855.23
501.49	38525.22
501.67	38899.70
501.84	38944.17
502.02	39292.91
502.20	39065.88
502.37	39274.19
502.55	39313.98
502.72	40074.65
502.90	39754.00
503.07	39189.93
503.25	40187.00
503.43	39838.26
503.60	40037.20
503.78	40238.49
503.95	40526.38
504.13	41060.02
504.30	40594.25
504.48	40577.87
504.65	41200.45
504.83	40842.35
505.01	41453.23
505.18	41198.11
505.36	41771.54
505.53	41495.36
505.71	41659.20
505.88	41727.07
506.06	41874.52
506.23	42117.94
506.41	42099.22
506.58	42216.24
506.76	41982.19
506.93	42630.52
507.11	42476.04
507.28	42871.59
507.46	43440.34
507.63	43054.15
507.81	43267.14
507.98	43012.02
508.16	43325.66
508.33	43524.60
508.50	43548.01
508.68	43660.35
508.85	44100.37
509.03	44081.65
509.20	44645.72
509.38	44601.25
509.55	44285.28
509.73	44325.07
509.90	44694.87
510.08	44741.68
510.25	44725.30
510.42	45003.82
510.60	44655.08
510.77	45741.09
510.95	45453.20
511.12	45375.97
511.30	45544.48
511.47	45324.47
511.64	45640.45
511.82	46038.34
511.99	45612.36
512.17	46335.59
512.34	45511.72
512.51	46267.71
512.69	46476.02
512.86	46213.88
513.04	46951.15
513.21	46590.70
513.38	47028.38
513.56	47292.86
513.73	46850.50
513.90	47150.09
514.08	46878.59
514.25	46948.81
514.43	47313.93
514.60	47339.68
514.77	47770.33
514.95	48072.26
515.12	48285.25
515.29	47718.84
515.47	48219.72
515.64	48708.89
515.81	48149.50
515.99	47941.19
516.16	48701.87
516.33	48526.33
516.51	48783.79
516.68	48751.02
516.85	48832.94
517.03	48954.64
517.20	49181.68
517.37	48713.57
517.54	48851.66
517.72	49389.98
517.89	49408.71
518.06	49261.26
518.24	49434.45
518.41	49308.07
518.58	49968.10
518.75	49492.97
518.93	49628.72
519.10	50024.27
519.27	49925.97
519.45	49748.09
519.62	50057.04
519.79	50195.13
519.96	50391.73
520.14	50375.35
520.31	50206.83
520.48	50443.23
520.65	50284.07
520.83	50412.80
521.00	50691.32
521.17	50773.24
521.34	50810.69
521.52	50925.38
521.69	50815.37
521.86	51243.69
522.03	51587.75
522.20	51435.61
522.38	51636.90
522.55	51047.08
522.72	51679.03
522.89	51306.88
523.07	51983.30
523.24	51662.64
523.41	51863.93
523.58	51578.39
523.75	52168.20
523.92	51889.68
524.10	51927.13
524.27	51985.64
524.44	52357.78
524.61	52287.57
524.78	52392.89
524.96	52226.71
525.13	52301.61
525.30	52507.58
525.47	52580.13
525.64	52655.03
525.81	52694.82
525.98	52769.72
526.16	52713.55
526.33	52741.63
526.50	53263.57
526.67	52776.74
526.84	52652.69
527.01	52879.72
527.18	53066.97
527.36	53029.52
527.53	53118.46
527.70	53396.98
527.87	53317.40
528.04	53167.61
528.21	53425.07
528.38	53481.24
528.55	53801.89
528.72	53453.15
528.89	53738.70
529.07	53675.51
529.24	53511.67
529.41	53846.36
529.58	53628.69
529.75	53579.54
529.92	53661.46
530.09	53925.94
530.26	54064.03
530.43	53865.09
530.60	53783.17
530.77	54024.25
530.94	54197.44
531.11	54192.76
531.28	54255.96
531.46	54241.92
531.63	54291.07
531.80	54246.60
531.97	54749.81
532.14	54405.75
532.31	54815.35
532.48	54787.26
532.65	54745.13
532.82	54466.61
532.99	54686.62
533.16	54934.71
533.33	55077.49
533.50	54930.03
533.67	55166.43
533.84	54932.37
534.01	54918.33
534.18	55161.75
534.35	55400.48
534.52	55002.59
534.69	55220.26
534.86	55395.80
535.03	55077.49
535.20	55337.29
535.37	55426.23
535.54	55543.25
535.71	55320.90
535.88	55505.80
536.05	55739.86
536.22	55641.56
536.38	55669.64
536.55	55826.46
536.72	55597.09
536.89	55629.85
537.06	55760.92
537.23	55749.22
537.40	55978.59
537.57	55770.28
537.74	55835.82
537.91	55994.98
538.08	56130.73
538.25	55744.54
538.42	55936.46
538.59	56172.86
538.75	56158.81
538.92	55992.64
539.09	56348.40
539.26	56144.77
539.43	56275.84
539.60	56388.19
539.77	56259.46
539.94	56633.94
540.11	56512.23
540.28	56605.86
540.44	56329.67
540.61	56603.52
540.78	56442.02
540.95	56451.38
541.12	56619.90
541.29	56690.12
541.46	56657.35
541.62	56598.83
541.79	56952.26
541.96	56591.81
542.13	56591.81
542.30	56664.37
542.47	56767.35
542.63	57038.86
542.80	57195.67
542.97	57102.05
543.14	57120.77
543.31	57347.81
543.48	56992.04
543.64	57537.39
543.81	57436.75
543.98	57265.89
544.15	57293.97
544.32	57733.99
544.48	57595.90
544.65	57490.58
544.82	57338.44
544.99	57247.16
545.16	57399.30
545.32	57347.81
545.49	57659.10
545.66	57602.92
545.83	57677.82
546.00	57874.43
546.16	57705.91
546.33	57684.84
546.50	57661.44
546.67	57860.38
546.83	57708.25
547.00	57558.45
547.17	57907.19
547.34	57895.49
547.50	57977.41
547.67	58284.02
547.84	57979.75
548.00	58190.40
548.17	58148.27
548.34	58199.76
548.51	58288.70
548.67	58592.97
548.84	58291.04
549.01	58033.58
549.18	58312.11
549.34	58326.15
549.51	58564.88
549.68	58639.78
549.84	58532.12
550.01	58667.87
550.18	58532.12
550.34	58321.47
550.51	58302.74
550.68	58372.96
550.84	58178.70
551.01	58724.04
551.18	58592.97
551.34	58614.04
551.51	58590.63
551.68	58625.74
551.84	58754.47
552.01	58639.78
552.18	58829.37
552.34	58801.28
552.51	58857.45
552.68	58628.08
552.84	58904.26
553.01	59199.17
553.18	59037.67
553.34	58890.22
553.51	58838.73
553.67	58796.60
553.84	59007.25
554.01	58890.22
554.17	59096.19
554.34	59000.22
554.51	59023.63
554.67	59353.65
554.84	59231.94
555.00	59320.88
555.17	58873.84
555.33	58969.80
555.50	59131.29
555.67	58925.33
555.83	59056.40
556.00	59234.28
556.16	59437.90
556.33	59339.60
556.50	59388.75
556.66	59334.92
556.83	59316.20
556.99	59440.24
557.16	59529.19
557.32	59622.81
557.49	59690.68
557.65	59458.97
557.82	59332.58
557.98	59351.30
558.15	59463.65
558.32	59608.76
558.48	59505.78
558.65	59395.77
558.81	59774.94
558.98	59704.73
559.14	59803.03
559.31	59650.89
559.47	59641.53
559.64	59901.33
559.80	59723.45
559.97	59714.09
560.13	59632.17
560.30	59704.73
560.46	59826.43
560.63	59929.42
560.79	59910.69
560.96	59854.52
561.12	59849.84
561.29	59898.99
561.45	59753.88
561.61	59891.97
561.78	60018.36
561.94	59969.21
562.11	59917.71
562.27	59927.08
562.44	60137.72
562.60	60114.32
562.77	59973.89
562.93	59678.98
563.10	60416.25
563.26	59903.67
563.42	60217.30
563.59	59971.55
563.75	60231.35
563.92	60097.94
564.08	59950.48
564.24	60238.37
564.41	60123.68
564.57	60065.17
564.74	60079.21
564.90	60093.25
565.07	60055.81
565.23	60425.61
565.39	60121.34
565.56	60172.83
565.72	60411.57
565.88	60364.76
566.05	60233.69
566.21	60336.67
566.38	60271.14
566.54	60294.54
566.70	60327.31
566.87	60343.69
567.03	60097.94
567.19	60559.02
567.36	60294.54
567.52	60303.90
567.68	60734.56
567.85	60425.61
568.01	60720.52
568.17	60357.74
568.34	60596.47
568.50	60395.18
568.66	60357.74
568.83	60589.45
568.99	60456.04
569.15	60367.10
569.32	60584.77
569.48	60533.28
569.64	60671.37
569.81	60458.38
569.97	60367.10
570.13	60767.33
570.30	60383.48
570.46	60680.73
570.62	60631.58
570.78	60547.32
570.95	60521.57
571.11	60629.24
571.27	60615.19
571.43	60727.54
571.60	60729.88
571.76	60615.19
571.92	60694.77
572.09	60722.86
572.25	60795.42
572.41	60566.04
572.57	60743.92
572.74	60762.65
572.90	60732.22
573.06	60931.17
573.22	60624.56
573.38	60713.50
573.55	60601.15
573.71	61029.47
573.87	60903.08
574.03	60589.45
574.20	60804.78
574.36	60659.66
574.52	60788.39
574.68	60514.55
574.84	60774.35
575.01	60931.17
575.17	60764.99
575.33	60624.56
575.49	60563.70
575.65	60870.31
575.82	60816.48
575.98	61083.30
576.14	61050.53
576.30	60989.68
576.46	60846.91
576.62	60823.50
576.79	61052.87
576.95	60746.26
577.11	60800.10
577.27	60893.72
577.43	60985.00
577.59	60559.02
577.75	60999.04
577.92	60666.69
578.08	60872.65
578.24	60814.14
578.40	61162.88
578.56	60961.59
578.72	60788.39
578.88	61111.39
579.04	61062.24
579.21	60961.59
579.37	61071.60
579.53	61010.74
579.69	60697.11
579.85	61069.26
580.01	60837.54
580.17	60917.12
580.33	60954.57
580.49	61097.34
580.65	61006.06
580.82	60968.61
580.98	61001.38
581.14	61038.83
581.30	61027.13
581.46	60947.55
581.62	61109.05
581.78	61006.06
581.94	61172.24
582.10	60961.59
582.26	60926.49
582.42	60926.49
582.58	61015.43
582.74	61045.85
582.90	61083.30
583.06	61134.79
583.22	60884.36
583.38	60926.49
583.54	61036.49
583.70	60940.53
583.86	61099.68
584.02	61111.39
584.18	61315.01
584.34	61141.81
584.50	61303.31
584.66	61013.08
584.82	60886.70
584.98	61202.67
585.14	61305.65
585.30	60907.76
585.46	61085.64
585.62	60999.04
585.78	61233.10
585.94	60858.61
586.10	61078.62
586.26	61179.26
586.42	61073.94
586.58	61237.78
586.74	61193.31
586.90	61048.19
587.06	61062.24
587.22	61305.65
587.38	61333.74
587.54	61275.22
587.70	61263.52
587.86	61127.77
588.02	61347.78
588.18	61268.20
588.34	61038.83
588.49	61076.28
