SpectraSuite Data File
++++++++++++++++++++++++++++++++++++
Date: Fri Oct 25 10:46:53 EDT 2013
User: price-jones
Dark Spectrum Present: No
Reference Spectrum Present: No
Number of Sampled Component Spectra: 1
Spectrometers: USB2+H05261
Integration Time (usec): 100000 (USB2+H05261)
Spectra Averaged: 1 (USB2+H05261)
Boxcar Smoothing: 0 (USB2+H05261)
Correct for Electrical Dark: No (USB2+H05261)
Strobe/Lamp Enabled: No (USB2+H05261)
Correct for Detector Non-linearity: No (USB2+H05261)
Correct for Stray Light: No (USB2+H05261)
Number of Pixels in Processed Spectrum: 2048
>>>>>Begin Processed Spectral Data<<<<<
365.73	133.41
365.92	133.41
366.12	133.41
366.32	16.38
366.52	32.77
366.72	23.41
366.91	25.75
367.11	81.92
367.31	0.00
367.51	56.17
367.70	58.51
367.90	53.83
368.10	32.77
368.30	2.34
368.49	14.04
368.69	77.24
368.89	77.24
369.09	72.56
369.28	25.75
369.48	86.60
369.68	0.00
369.87	124.05
370.07	159.16
370.27	140.43
370.47	121.71
370.66	411.93
370.86	418.96
371.06	472.79
371.25	444.70
371.45	414.27
371.65	456.40
371.84	414.27
372.04	531.30
372.24	472.79
372.44	437.68
372.63	568.75
372.83	491.51
373.03	486.83
373.22	498.53
373.42	486.83
373.62	517.26
373.81	594.50
374.01	554.71
374.21	594.50
374.40	620.24
374.60	554.71
374.79	582.79
374.99	566.41
375.19	568.75
375.38	638.97
375.58	547.69
375.78	613.22
375.97	617.90
376.17	699.82
376.37	578.11
376.56	543.00
376.76	578.11
376.95	610.88
377.15	676.41
377.35	692.80
377.54	629.60
377.74	662.37
377.93	585.13
378.13	657.69
378.33	634.29
378.52	676.41
378.72	683.44
378.91	709.18
379.11	650.67
379.31	594.50
379.50	699.82
379.70	664.71
379.89	711.52
380.09	676.41
380.28	683.44
380.48	669.39
380.68	669.39
380.87	723.23
381.07	744.29
381.26	709.18
381.46	676.41
381.65	720.88
381.85	748.97
382.04	730.25
382.24	730.25
382.43	753.65
382.63	746.63
382.83	758.33
383.02	748.97
383.22	751.31
383.41	720.88
383.61	767.70
383.80	793.44
384.00	711.52
384.19	753.65
384.39	737.27
384.58	753.65
384.78	849.61
384.97	791.10
385.17	788.76
385.36	823.87
385.56	765.36
385.75	800.46
385.95	793.44
386.14	863.66
386.34	814.51
386.53	826.21
386.72	877.70
386.92	915.15
387.11	809.83
387.31	877.70
387.50	915.15
387.70	767.70
387.89	922.17
388.09	924.51
388.28	826.21
388.48	887.06
388.67	917.49
388.86	943.24
389.06	924.51
389.25	987.71
389.45	994.73
389.64	987.71
389.84	1004.09
390.03	1032.18
390.22	992.39
390.42	990.05
390.61	938.55
390.81	1032.18
391.00	1027.50
391.19	1074.31
391.39	1015.79
391.58	954.94
391.78	1048.56
391.97	950.26
392.16	1022.81
392.36	1210.06
392.55	1043.88
392.75	1008.77
392.94	990.05
393.13	1004.09
393.33	1008.77
393.52	1097.71
393.71	1053.24
393.91	1041.54
394.10	1076.65
394.29	1041.54
394.49	1137.50
394.68	1104.73
394.88	1228.78
395.07	1289.64
395.26	1226.44
395.46	1177.29
395.65	1219.42
395.84	1196.01
396.04	1345.81
396.23	1174.95
396.42	1149.20
396.62	1242.82
396.81	1177.29
397.00	1224.10
397.19	1193.67
397.39	1259.21
397.58	1352.83
397.77	1359.85
397.97	1460.49
398.16	1434.75
398.35	1371.55
398.55	1364.53
398.74	1409.00
398.93	1432.41
399.12	1418.36
399.32	1509.65
399.51	1537.73
399.70	1561.14
399.90	1593.90
400.09	1544.75
400.28	1598.59
400.47	1647.74
400.67	1568.16
400.86	1617.31
401.05	1612.63
401.24	1671.14
401.44	1760.08
401.63	1657.10
401.82	1685.19
402.01	1694.55
402.21	1736.68
402.40	1619.65
402.59	1778.81
402.78	1701.57
402.97	1584.54
403.17	1603.27
403.36	1753.06
403.55	1645.40
403.74	1839.66
403.93	1830.30
404.13	1874.77
404.32	1827.96
404.51	1799.87
404.70	1795.19
404.89	1888.81
405.09	1884.13
405.28	1849.02
405.47	1825.62
405.66	1994.14
405.85	2019.88
406.05	1900.52
406.24	2036.27
406.43	1834.98
406.62	2024.56
406.81	2001.16
407.00	1923.92
407.20	1963.71
407.39	1968.39
407.58	2054.99
407.77	2115.84
407.96	2225.85
408.15	2099.46
408.34	2165.00
408.54	2228.19
408.73	2258.62
408.92	2232.87
409.11	2335.85
409.30	2375.64
409.49	2317.13
409.68	2162.66
409.87	2202.44
410.07	2335.85
410.26	2305.43
410.45	2307.77
410.64	2352.24
410.83	2345.22
411.02	2427.14
411.21	2586.29
411.40	2523.10
411.59	2448.20
411.78	2640.12
411.98	2602.68
412.17	2656.51
412.36	2569.91
412.55	2628.42
412.74	2640.12
412.93	2693.96
413.12	2623.74
413.31	2766.51
413.50	2813.32
413.69	2738.43
413.88	2848.43
414.07	2773.53
414.26	2944.39
414.45	2846.09
414.64	2857.79
414.83	2979.50
415.02	2909.29
415.22	2918.65
415.41	3141.00
415.60	3066.10
415.79	3112.91
415.98	3138.66
416.17	3094.19
416.36	3185.47
416.55	3148.02
416.74	3241.64
416.93	3162.06
417.12	3290.79
417.31	3218.24
417.50	3243.98
417.69	3389.10
417.88	3339.94
418.07	3398.46
418.26	3396.12
418.45	3414.84
418.64	3412.50
418.83	3365.69
419.02	3419.52
419.21	3482.72
419.39	3571.66
419.58	3513.14
419.77	3496.76
419.96	3564.64
420.15	3611.45
420.34	3585.70
420.53	3566.98
420.72	3801.03
420.91	3754.22
421.10	3749.54
421.29	3873.59
421.48	3737.84
421.67	3712.09
421.86	3817.41
422.05	3632.51
422.24	3709.75
422.43	3695.71
422.61	3728.47
422.80	3932.10
422.99	3868.91
423.18	3765.92
423.37	3861.88
423.56	3854.86
423.75	3819.75
423.94	3796.35
424.13	3681.66
424.32	3730.81
424.50	3885.29
424.69	4009.34
424.88	3861.88
425.07	3812.73
425.26	3882.95
425.45	3749.54
425.64	3871.25
425.83	3934.44
426.01	3997.64
426.20	3981.25
426.39	4056.15
426.58	3838.48
426.77	3850.18
426.96	3948.48
427.15	3836.14
427.33	3922.74
427.52	3964.87
427.71	4009.34
427.90	4025.72
428.09	4072.53
428.28	4051.47
428.46	4077.21
428.65	4131.05
428.84	4198.92
429.03	4311.27
429.22	4077.21
429.40	4231.69
429.59	3971.89
429.78	3927.42
429.97	3779.97
430.16	3889.97
430.34	3997.64
430.53	4208.28
430.72	4142.75
430.91	4266.80
431.10	4219.99
431.28	4411.91
431.47	4601.49
431.66	4564.04
431.85	4418.93
432.03	4444.68
432.22	4606.17
432.41	4568.73
432.60	4610.86
432.79	4482.13
432.97	4454.04
433.16	4587.45
433.35	4517.23
433.54	4535.96
433.72	4615.54
433.91	4624.90
434.10	4690.43
434.28	4896.40
434.47	4798.10
434.66	4798.10
434.85	4870.65
435.03	4739.58
435.22	4898.74
435.41	4947.89
435.59	5025.13
435.78	4891.72
435.97	5053.22
436.16	5057.90
436.34	4915.12
436.53	4999.38
436.72	5195.99
436.90	4964.28
437.09	5036.83
437.28	5041.51
437.46	5008.75
437.65	4983.00
437.84	5081.30
438.02	5060.24
438.21	5100.03
438.40	4950.23
438.58	5123.43
438.77	5210.03
438.96	5226.42
439.14	5397.28
439.33	5465.15
439.52	5521.32
439.70	5549.41
439.89	5579.84
440.08	5591.54
440.26	5657.07
440.45	5825.59
440.63	5722.61
440.82	5820.91
441.01	5832.62
441.19	5893.47
441.38	5867.72
441.57	5898.15
441.75	5898.15
441.94	6164.97
442.12	6061.99
442.31	6111.14
442.50	6246.89
442.68	6333.49
442.87	6237.53
443.05	6061.99
443.24	6352.21
443.43	6296.04
443.61	6305.40
443.80	6677.55
443.98	6218.80
444.17	5891.13
444.35	6317.11
444.54	6345.19
444.73	6457.54
444.91	6314.77
445.10	6260.93
445.28	6382.64
445.47	6328.81
445.65	6197.74
445.84	6312.42
446.02	6485.62
446.21	6466.90
446.39	6338.17
446.58	6471.58
446.77	6527.75
446.95	6410.73
447.14	6413.07
447.32	6665.85
447.51	6492.65
447.69	6544.14
447.88	6480.94
448.06	6560.52
448.25	6502.01
448.43	6544.14
448.62	6469.24
448.80	6420.09
448.99	6731.38
449.17	6693.93
449.36	6586.27
449.54	6654.14
449.73	6801.60
449.91	7052.03
450.10	7016.93
450.28	7002.88
450.46	7005.22
450.65	6953.73
450.83	7012.24
451.02	6848.41
451.20	7122.25
451.39	7178.42
451.57	6942.03
451.76	6932.67
451.94	7269.70
452.13	7166.72
452.31	6995.86
452.49	6967.77
452.68	7157.36
452.86	7098.84
453.05	7255.66
453.23	7124.59
453.42	7124.59
453.60	7077.78
453.78	7236.94
453.97	7152.68
454.15	7148.00
454.34	7272.04
454.52	7262.68
454.70	7398.43
454.89	7288.43
455.07	7515.46
455.26	7527.16
455.44	7606.74
455.62	7573.97
455.81	7459.29
455.99	7602.06
456.17	7588.02
456.36	7707.38
456.54	7815.05
456.73	7889.95
456.91	7880.58
457.09	7873.56
457.28	8044.42
457.46	7801.01
457.64	7971.86
457.83	7957.82
458.01	7903.99
458.19	7934.42
458.38	7974.21
458.56	8004.63
458.74	8102.93
458.93	8074.85
459.11	8280.82
459.29	8149.75
459.48	8163.79
459.66	8252.73
459.84	8091.23
460.03	8250.39
460.21	8210.60
460.39	8208.26
460.57	8280.82
460.76	8372.10
460.94	8627.21
461.12	8374.44
461.31	8517.21
461.49	8477.42
461.67	8491.46
461.85	8702.11
462.04	8435.29
462.22	9151.49
462.40	8739.56
462.59	8652.96
462.77	8725.52
462.95	8772.33
463.13	8641.26
463.32	8720.84
463.50	8671.68
463.68	8699.77
463.86	8936.17
464.05	8657.64
464.23	8620.19
464.41	8833.18
464.59	8709.13
464.78	9001.70
464.96	9027.45
465.14	8938.51
465.32	9212.35
465.50	9041.49
465.69	9050.85
465.87	8786.37
466.05	8887.01
466.23	8961.91
466.41	9067.24
466.60	9146.81
466.78	8964.25
466.96	9027.45
467.14	9029.79
467.32	9102.34
467.51	9252.14
467.69	8933.82
467.87	9322.35
468.05	9254.48
468.23	9191.28
468.41	9327.03
468.60	9275.54
468.78	9554.07
468.96	9312.99
469.14	9504.92
469.32	9523.64
469.50	9362.14
469.69	9666.41
469.87	9533.00
470.05	9497.89
470.23	9385.55
470.41	9521.30
470.59	9753.01
470.77	9767.06
470.95	9996.43
471.14	9940.26
471.32	9757.69
471.50	10012.81
471.68	9823.23
471.86	10127.50
472.04	10242.18
472.22	10244.52
472.40	10195.37
472.58	10080.69
472.77	10333.47
472.95	10537.09
473.13	10565.18
473.31	10520.71
473.49	10527.73
473.67	10345.17
473.85	10558.16
474.03	10597.95
474.21	10686.89
474.39	10792.21
474.57	10822.64
474.75	10869.45
474.93	10946.69
475.12	11033.29
475.30	10927.96
475.48	10885.83
475.66	11187.76
475.84	10998.18
476.02	11180.74
476.20	11253.30
476.38	11543.52
476.56	11637.14
476.74	11501.39
476.92	11695.66
477.10	11623.10
477.28	11892.26
477.46	11934.39
477.64	11976.52
477.82	12060.78
478.00	12372.07
478.18	12353.35
478.36	12215.26
478.54	12409.52
478.72	12442.29
478.90	12613.15
479.08	12805.07
479.26	12945.50
479.44	13046.15
479.62	12987.63
479.80	13125.72
479.98	13275.52
480.16	13439.36
480.34	13263.82
480.52	13348.08
480.70	13654.69
480.88	13500.21
481.06	13509.57
481.24	13760.01
481.41	13724.90
481.59	14083.00
481.77	14080.66
481.95	14303.01
482.13	14017.47
482.31	14188.33
482.49	14640.05
482.67	14516.00
482.85	14822.61
483.03	14932.62
483.21	15000.49
483.39	15094.11
483.57	14843.68
483.74	15002.83
483.92	15257.95
484.10	15239.23
484.28	15454.56
484.46	15644.14
484.64	16292.47
484.82	15791.59
485.00	15941.39
485.18	16187.14
485.35	16116.93
485.53	16009.26
485.71	15941.39
485.89	16156.72
486.07	16095.86
486.25	16566.31
486.43	16652.91
486.61	16915.05
486.78	17071.87
486.96	16833.13
487.14	17413.59
487.32	17518.91
487.50	17556.36
487.68	17823.18
487.85	18071.28
488.03	18106.38
488.21	18017.44
488.39	18178.94
488.57	18221.07
488.75	18501.93
488.92	18850.67
489.10	19061.32
489.28	19073.03
489.46	19246.23
489.64	19012.17
489.81	19906.26
489.99	19824.34
490.17	19634.75
490.35	19946.05
490.53	19922.64
490.70	20184.78
490.88	20173.08
491.06	20645.87
491.24	20290.10
491.41	20582.67
491.59	20449.26
491.77	20568.63
491.95	20849.49
492.13	20987.58
492.30	21284.83
492.48	21357.39
492.66	21451.01
492.84	21474.42
493.01	21692.08
493.19	21310.58
493.37	22263.18
493.54	21687.40
493.72	22071.25
493.90	22394.25
494.08	22389.56
494.25	22782.77
494.43	22754.69
494.61	23208.75
494.79	23087.04
494.96	22759.37
495.14	22836.61
495.32	23573.88
495.49	23510.68
495.67	23714.31
495.85	23498.98
496.02	23875.80
496.20	23854.74
496.38	23789.20
496.55	23934.32
496.73	24620.10
496.91	24287.74
497.09	24648.18
497.26	24765.21
497.44	24657.54
497.62	24896.28
497.79	24779.25
497.97	24807.34
498.14	25184.16
498.32	24940.75
498.50	25418.22
498.67	25654.61
498.85	25432.26
499.03	25951.86
499.20	25879.30
499.38	26075.91
499.56	26001.01
499.73	26059.52
499.91	26141.44
500.08	26279.54
500.26	26230.38
500.44	26293.58
500.61	26426.99
500.79	26298.26
500.97	26544.02
501.14	26937.23
501.32	26848.29
501.49	26544.02
501.67	26904.46
501.84	27000.42
502.02	26944.25
502.20	26979.36
502.37	27325.75
502.55	27407.67
502.72	27819.61
502.90	27473.21
503.07	27711.94
503.25	27545.76
503.43	27522.36
503.60	27714.28
503.78	27615.98
503.95	27992.81
504.13	28002.17
504.30	28250.27
504.48	28219.84
504.65	28556.88
504.83	28706.67
505.01	28943.06
505.18	28737.10
505.36	29090.52
505.53	29099.88
505.71	29247.33
505.88	29277.76
506.06	29053.07
506.23	29158.39
506.41	29064.77
506.58	29308.19
506.76	29502.45
506.93	29780.98
507.11	29390.11
507.28	29668.63
507.46	29729.48
507.63	29750.55
507.81	29685.01
507.98	29825.45
508.16	30204.61
508.33	30307.60
508.50	30595.48
508.68	30532.29
508.85	30665.70
509.03	30525.27
509.20	30749.96
509.38	30824.86
509.55	30925.50
509.73	31197.00
509.90	31019.12
510.08	30993.37
510.25	31180.62
510.42	30845.92
510.60	31428.71
510.77	31512.97
510.95	31342.11
511.12	31346.79
511.30	31775.11
511.47	31948.31
511.64	31981.08
511.82	32004.49
511.99	31775.11
512.17	32173.00
512.34	32264.28
512.51	32266.63
512.69	32275.99
512.86	32496.00
513.04	32755.80
513.21	32292.37
513.38	32481.95
513.56	32477.27
513.73	32620.05
513.90	32776.86
514.08	32856.44
514.25	32966.45
514.43	33109.22
514.60	33027.30
514.77	32748.78
514.95	33179.43
515.12	32978.15
515.29	33174.75
515.47	33598.39
515.64	33642.86
515.81	33230.93
515.99	33174.75
516.16	33661.58
516.33	33741.16
516.51	33305.82
516.68	32732.39
516.85	33057.73
517.03	33268.37
517.20	33785.63
517.37	33701.37
517.54	33944.79
517.72	34003.30
517.89	33766.91
518.06	34066.50
518.24	33961.17
518.41	34003.30
518.58	34291.19
518.75	34267.78
518.93	34562.69
519.10	34319.28
519.27	35033.14
519.45	34871.64
519.62	35220.38
519.79	35236.77
519.96	34855.26
520.14	35393.58
520.31	35035.48
520.48	35264.85
520.65	34974.63
520.83	35632.32
521.00	35606.57
521.17	35889.77
521.34	35681.47
521.52	35562.10
521.69	35934.24
521.86	36297.03
522.03	35962.33
522.20	36081.70
522.38	35756.36
522.55	35899.14
522.72	36062.97
522.89	35903.82
523.07	35999.78
523.24	36013.82
523.41	36636.41
523.58	36011.48
523.75	37371.33
523.92	36727.69
524.10	37141.96
524.27	36849.39
524.44	37106.85
524.61	37165.37
524.78	37296.44
524.96	37422.83
525.13	37654.54
525.30	37411.12
525.47	37326.86
525.64	37235.58
525.81	37261.33
525.98	37387.72
526.16	37223.88
526.33	37350.27
526.50	37460.27
526.67	37404.10
526.84	37074.09
527.01	36959.40
527.18	37284.73
527.36	37886.25
527.53	37710.71
527.70	38328.61
527.87	38094.56
528.04	38122.65
528.21	38033.71
528.38	38543.94
528.55	38660.97
528.72	38962.90
528.89	38471.39
529.07	38394.15
529.24	38017.32
529.41	38436.28
529.58	38684.37
529.75	38857.57
529.92	38946.51
530.09	38852.89
530.26	39082.27
530.43	38948.85
530.60	38417.55
530.77	39110.35
530.94	39220.36
531.11	38958.22
531.28	39124.40
531.46	38902.04
531.63	39124.40
531.80	39374.83
531.97	39278.87
532.14	39374.83
532.31	39164.18
532.48	39276.53
532.65	39276.53
532.82	39203.97
532.99	39503.56
533.16	39152.48
533.33	39494.20
533.50	39730.59
533.67	39854.64
533.84	39431.01
534.01	39772.72
534.18	39842.94
534.35	40172.96
534.52	40158.91
534.69	40402.33
534.86	40313.39
535.03	39754.00
535.20	40158.91
535.37	40460.84
535.54	40622.34
535.71	40325.09
535.88	40631.70
536.05	40079.33
536.22	40718.30
536.38	40280.62
536.55	40121.46
536.72	40407.01
536.89	40524.04
537.06	40339.13
537.23	40524.04
537.40	41088.10
537.57	41144.28
537.74	40868.09
537.91	41041.29
538.08	40884.48
538.25	41008.53
538.42	40722.98
538.59	41387.69
538.75	41090.44
538.92	41130.23
539.09	40870.43
539.26	41003.85
539.43	40722.98
539.60	41284.71
539.77	41329.18
539.94	41244.92
540.11	41090.44
540.28	41031.93
540.44	41284.71
540.61	41530.47
540.78	41209.81
540.95	41422.80
541.12	41600.68
541.29	41333.86
541.46	41839.42
541.62	41581.96
541.79	41928.36
541.96	41443.87
542.13	41731.75
542.30	41626.43
542.47	41689.62
542.63	41860.48
542.80	42026.66
542.97	42239.65
543.14	42340.29
543.31	42302.84
543.48	42213.90
543.64	42777.97
543.81	42550.94
543.98	42108.58
544.15	42614.13
544.32	42663.28
544.48	42944.15
544.65	42773.29
544.82	42394.12
544.99	42316.89
545.16	42843.51
545.32	42845.85
545.49	43285.87
545.66	42887.98
545.83	42916.06
546.00	43374.81
546.16	43180.54
546.33	42857.55
546.50	42562.64
546.67	43026.07
546.83	42965.21
547.00	42834.14
547.17	43051.81
547.34	43054.15
547.50	43058.84
547.67	43482.47
547.84	43423.96
548.00	43672.06
548.17	43629.93
548.34	43374.81
548.51	43849.94
548.67	43948.24
548.84	43571.41
549.01	43749.29
549.18	43098.62
549.34	43438.00
549.51	43938.88
549.68	43978.67
549.84	43438.00
550.01	43952.92
550.18	44079.31
550.34	43751.63
550.51	43847.60
550.68	43519.92
550.84	43414.60
551.01	43580.78
551.18	43903.77
551.34	43957.60
551.51	43983.35
551.68	43931.86
551.84	43871.00
552.01	43807.81
552.18	44060.58
552.34	43641.63
552.51	43962.28
552.68	44383.58
552.84	44072.29
553.01	44676.15
553.18	44133.14
553.34	44102.71
553.51	44301.66
553.67	44598.91
553.84	45137.23
554.01	44275.91
554.17	44631.68
554.34	44947.65
554.51	44680.83
554.67	44865.73
554.84	44629.34
555.00	44535.71
555.17	44584.86
555.33	44744.02
555.50	44584.86
555.67	44685.51
555.83	45013.18
556.00	44346.13
556.16	44832.96
556.33	45045.95
556.50	44596.57
556.66	45162.98
556.83	44512.31
556.99	45207.45
557.16	44783.81
557.32	45076.38
557.49	45029.57
557.65	44659.76
557.82	44697.21
557.98	44664.44
558.15	44711.25
558.32	45160.64
558.48	45556.19
558.65	45343.20
558.81	45010.84
558.98	44739.34
559.14	44947.65
559.31	45137.23
559.47	44844.66
559.64	45371.28
559.80	45221.49
559.97	45495.33
560.13	45020.20
560.30	45272.98
560.46	45427.46
560.63	45013.18
560.79	45656.83
560.96	45471.93
561.12	45027.23
561.29	45359.58
561.45	45305.75
561.61	45151.27
561.78	45146.59
561.94	45453.20
562.11	45467.25
562.27	45364.26
562.44	45310.43
562.60	45228.51
562.77	46000.89
562.93	45710.66
563.10	45741.09
563.26	45092.76
563.42	45537.46
563.59	45614.70
563.75	45322.13
563.92	45595.98
564.08	45324.47
564.24	45741.09
564.41	45490.65
564.57	45214.47
564.74	45801.94
564.90	45617.04
565.07	45902.59
565.23	45359.58
565.39	45535.12
565.56	45635.77
565.72	45495.33
565.88	45170.00
566.05	45595.98
566.21	45659.17
566.38	46012.59
566.54	45535.12
566.70	46183.45
566.87	46199.83
567.03	45855.78
567.19	46237.28
567.36	45708.32
567.52	45610.02
567.68	46075.79
567.85	45663.85
568.01	45666.19
568.17	45242.56
568.34	46038.34
568.50	45677.90
568.66	45968.12
568.83	46068.76
568.99	46024.29
569.15	45776.20
569.32	45792.58
569.48	45495.33
569.64	45581.93
569.81	46047.70
569.97	46148.34
570.13	46181.11
570.30	45684.92
570.46	45752.79
570.62	45441.50
570.78	45595.98
570.95	45516.40
571.11	45610.02
571.27	45432.14
571.43	45645.13
571.60	45982.16
571.76	45563.21
571.92	45940.04
572.09	46157.70
572.25	45972.80
572.41	45528.10
572.57	45993.87
572.74	46394.10
572.90	45991.53
573.06	46256.01
573.22	46220.90
573.38	46075.79
573.55	45722.37
573.71	46351.97
573.87	46237.28
574.03	46085.15
574.20	46124.94
574.36	45663.85
574.52	45785.56
574.68	46117.92
574.84	45745.77
575.01	45968.12
575.17	46305.16
575.33	45745.77
575.49	45977.48
575.65	46405.80
575.82	46188.13
575.98	45858.12
576.14	46703.05
576.30	46260.69
576.46	45858.12
576.62	45965.78
576.79	46188.13
576.95	45933.01
577.11	46288.77
577.27	46281.75
577.43	46050.04
577.59	45441.50
577.75	45947.06
577.92	45830.03
578.08	46028.98
578.24	46024.29
578.40	46094.51
578.56	46160.05
578.72	45900.25
578.88	46335.59
579.04	46176.43
579.21	46167.07
579.37	46291.12
579.53	45771.52
579.69	45860.46
579.85	46263.03
580.01	46265.37
580.17	46461.97
580.33	46281.75
580.49	46373.03
580.65	45914.29
580.82	46129.62
580.98	46220.90
581.14	46164.73
581.30	46426.87
581.46	46085.15
581.62	46108.55
581.78	46319.20
581.94	46684.33
582.10	46162.39
582.26	46546.23
582.42	45762.15
582.58	46066.42
582.74	45717.68
582.90	46230.26
583.06	46717.09
583.22	46426.87
583.38	46307.50
583.54	46127.28
583.70	46054.72
583.86	46401.12
584.02	45951.74
584.18	46436.23
584.34	46457.29
584.50	46129.62
584.66	46075.79
584.82	45965.78
584.98	46426.87
585.14	46499.42
585.30	45879.18
585.46	46237.28
585.62	45839.39
585.78	45989.19
585.94	46000.89
586.10	46005.57
586.26	46057.06
586.42	46691.35
586.58	46571.98
586.74	46260.69
586.90	46117.92
587.06	45790.24
587.22	46370.69
587.38	46101.53
587.54	46328.56
587.70	46824.76
587.86	46260.69
588.02	46398.78
588.18	46403.46
588.34	46211.54
588.49	46071.10
588.65	46382.40
588.81	46270.05
588.97	45968.12
589.13	46134.30
589.29	46230.26
589.45	46363.67
589.61	46375.37
589.77	46270.05
589.93	46499.42
