SpectraSuite Data File
++++++++++++++++++++++++++++++++++++
Date: Fri Oct 25 10:43:45 EDT 2013
User: price-jones
Dark Spectrum Present: No
Reference Spectrum Present: No
Number of Sampled Component Spectra: 1
Spectrometers: USB2+H05261
Integration Time (usec): 100000 (USB2+H05261)
Spectra Averaged: 1 (USB2+H05261)
Boxcar Smoothing: 0 (USB2+H05261)
Correct for Electrical Dark: No (USB2+H05261)
Strobe/Lamp Enabled: No (USB2+H05261)
Correct for Detector Non-linearity: No (USB2+H05261)
Correct for Stray Light: No (USB2+H05261)
Number of Pixels in Processed Spectrum: 2048
>>>>>Begin Processed Spectral Data<<<<<
365.73	121.71
365.92	121.71
366.12	121.71
366.32	30.43
366.52	0.00
366.72	7.02
366.91	0.00
367.11	0.00
367.31	0.00
367.51	14.04
367.70	28.09
367.90	9.36
368.10	51.49
368.30	35.11
368.49	0.00
368.69	11.70
368.89	65.54
369.09	56.17
369.28	28.09
369.48	21.06
369.68	70.22
369.87	79.58
370.07	51.49
370.27	121.71
370.47	194.26
370.66	411.93
370.86	435.34
371.06	475.13
371.25	547.69
371.45	425.98
371.65	540.66
371.84	414.27
372.04	472.79
372.24	493.85
372.44	498.53
372.63	468.11
372.83	491.51
373.03	545.34
373.22	500.87
373.42	484.49
373.62	519.60
373.81	648.33
374.01	498.53
374.21	566.41
374.40	477.47
374.60	580.45
374.79	587.47
374.99	505.56
375.19	608.54
375.38	568.75
375.58	580.45
375.78	594.50
375.97	575.77
376.17	685.78
376.37	624.92
376.56	517.26
376.76	629.60
376.95	592.16
377.15	624.92
377.35	622.58
377.54	631.94
377.74	629.60
377.93	662.37
378.13	575.77
378.33	678.76
378.52	603.86
378.72	674.07
378.91	748.97
379.11	547.69
379.31	660.03
379.50	617.90
379.70	678.76
379.89	617.90
380.09	739.61
380.28	730.25
380.48	688.12
380.68	706.84
380.87	688.12
381.07	664.71
381.26	720.88
381.46	732.59
381.65	702.16
381.85	681.10
382.04	763.01
382.24	786.42
382.43	645.99
382.63	697.48
382.83	695.14
383.02	697.48
383.22	777.06
383.41	662.37
383.61	807.48
383.80	854.30
384.00	744.29
384.19	779.40
384.39	746.63
384.58	791.10
384.78	732.59
384.97	781.74
385.17	758.33
385.36	772.38
385.56	823.87
385.75	772.38
385.95	800.46
386.14	880.04
386.34	889.40
386.53	723.23
386.72	791.10
386.92	884.72
387.11	898.77
387.31	842.59
387.50	809.83
387.70	821.53
387.89	919.83
388.09	849.61
388.28	819.19
388.48	912.81
388.67	983.02
388.86	924.51
389.06	863.66
389.25	961.96
389.45	947.92
389.64	940.90
389.84	968.98
390.03	999.41
390.22	971.32
390.42	959.62
390.61	1011.11
390.81	966.64
391.00	1034.52
391.19	1062.60
391.39	1121.12
391.58	1046.22
391.78	997.07
391.97	1025.15
392.16	992.39
392.36	1064.94
392.55	1027.50
392.75	1086.01
392.94	1062.60
393.13	1132.82
393.33	1029.84
393.52	1053.24
393.71	1076.65
393.91	1071.97
394.10	1137.50
394.29	1067.28
394.49	1142.18
394.68	1205.38
394.88	1226.44
395.07	1186.65
395.26	1291.98
395.46	1205.38
395.65	1207.72
395.84	1137.50
396.04	1181.97
396.23	1153.88
396.42	1135.16
396.62	1181.97
396.81	1181.97
397.00	1165.59
397.19	1249.85
397.39	1291.98
397.58	1245.16
397.77	1423.05
397.97	1467.52
398.16	1378.58
398.35	1448.79
398.55	1348.15
398.74	1467.52
398.93	1612.63
399.12	1526.03
399.32	1446.45
399.51	1462.83
399.70	1547.09
399.90	1575.18
400.09	1521.35
400.28	1556.46
400.47	1584.54
400.67	1668.80
400.86	1612.63
401.05	1682.85
401.24	1689.87
401.44	1636.03
401.63	1668.80
401.82	1614.97
402.01	1612.63
402.21	1713.27
402.40	1708.59
402.59	1774.13
402.78	1806.89
402.97	1666.46
403.17	1739.02
403.36	1837.32
403.55	1839.66
403.74	1846.68
403.93	1919.24
404.13	1788.17
404.32	1853.70
404.51	1776.47
404.70	1977.75
404.89	1867.75
405.09	1930.94
405.28	1877.11
405.47	1905.20
405.66	1921.58
405.85	1940.30
406.05	1975.41
406.24	1867.75
406.43	2045.63
406.62	2066.69
406.81	2101.80
407.00	1966.05
407.20	2047.97
407.39	2040.95
407.58	2139.25
407.77	2036.27
407.96	2172.02
408.15	2218.83
408.34	2157.97
408.54	2225.85
408.73	2214.15
408.92	2195.42
409.11	2296.07
409.30	2293.72
409.49	2296.07
409.68	2228.19
409.87	2279.68
410.07	2317.13
410.26	2356.92
410.45	2347.56
410.64	2438.84
410.83	2406.07
411.02	2464.58
411.21	2471.61
411.40	2389.69
411.59	2520.76
411.78	2483.31
411.98	2670.55
412.17	2626.08
412.36	2677.57
412.55	2686.94
412.74	2785.24
412.93	2717.36
413.12	2792.26
413.31	2775.88
413.50	2705.66
413.69	2726.72
413.88	2920.99
414.07	2825.03
414.26	2853.11
414.45	2991.20
414.64	2946.73
414.83	3005.25
415.02	2988.86
415.22	3110.57
415.41	3075.46
415.60	3091.85
415.79	3059.08
415.98	3246.32
416.17	3180.79
416.36	3131.64
416.55	3262.71
416.74	3199.51
416.93	3197.17
417.12	3211.22
417.31	3213.56
417.50	3435.91
417.69	3330.58
417.88	3386.76
418.07	3480.38
418.26	3335.26
418.45	3449.95
418.64	3590.38
418.83	3648.90
419.02	3613.79
419.21	3648.90
419.39	3510.80
419.58	3405.48
419.77	3456.97
419.96	3604.42
420.15	3623.15
420.34	3632.51
420.53	3695.71
420.72	3742.52
420.91	3777.62
421.10	3866.56
421.29	3634.85
421.48	3716.77
421.67	3803.37
421.86	3595.06
422.05	3920.40
422.24	3735.50
422.43	3796.35
422.61	3679.32
422.80	3843.16
422.99	3777.62
423.18	3871.25
423.37	3911.04
423.56	3864.22
423.75	3894.65
423.94	3765.92
424.13	3700.39
424.32	3716.77
424.50	3805.71
424.69	3960.19
424.88	4007.00
425.07	3878.27
425.26	3925.08
425.45	3892.31
425.64	3765.92
425.83	3929.76
426.01	4065.51
426.20	3915.72
426.39	3915.72
426.58	3819.75
426.77	3892.31
426.96	3852.52
427.15	3967.21
427.33	4049.13
427.52	3960.19
427.71	4009.34
427.90	4077.21
428.09	4147.43
428.28	4002.32
428.46	4051.47
428.65	4205.94
428.84	4276.16
429.03	4353.40
429.22	4109.98
429.40	4014.02
429.59	4037.42
429.78	3901.67
429.97	3906.35
430.16	3962.53
430.34	3997.64
430.53	4170.83
430.72	4166.15
430.91	4269.14
431.10	4238.71
431.28	4482.13
431.47	4571.07
431.66	4716.18
431.85	4503.19
432.03	4482.13
432.22	4552.34
432.41	4547.66
432.60	4636.60
432.79	4540.64
432.97	4606.17
433.16	4748.95
433.35	4606.17
433.54	4526.60
433.72	4557.02
433.91	4564.04
434.10	4746.61
434.28	4842.57
434.47	4622.56
434.66	4856.61
434.85	4741.93
435.03	4877.68
435.22	4891.72
435.41	5046.20
435.59	4917.47
435.78	5036.83
435.97	5071.94
436.16	4990.02
436.34	4933.85
436.53	5186.63
436.72	5191.31
436.90	5013.43
437.09	5144.50
437.28	5116.41
437.46	5156.20
437.65	5139.82
437.84	5128.11
438.02	5139.82
438.21	5114.07
438.40	4975.98
438.58	5462.81
438.77	5320.04
438.96	5369.19
439.14	5366.85
439.33	5514.30
439.52	5497.92
439.70	5570.48
439.89	5589.20
440.08	5645.37
440.26	5661.76
440.45	5465.15
440.63	5841.98
440.82	5891.13
441.01	5928.58
441.19	6003.47
441.38	5923.90
441.57	6029.22
441.75	6057.31
441.94	6174.33
442.12	6272.64
442.31	6249.23
442.50	6207.10
442.68	6197.74
442.87	6342.85
443.05	6282.00
443.24	6251.57
443.43	6230.51
443.61	6434.13
443.80	6394.34
443.98	6282.00
444.17	6153.27
444.35	6476.26
444.54	6356.90
444.73	6478.60
444.91	6270.30
445.10	6450.52
445.28	6249.23
445.47	6279.66
445.65	6305.40
445.84	6382.64
446.02	6497.33
446.21	6593.29
446.39	6359.24
446.58	6644.78
446.77	6665.85
446.95	6590.95
447.14	6576.91
447.32	6473.92
447.51	6654.14
447.69	6401.37
447.88	6616.69
448.06	6511.37
448.25	6567.54
448.43	6626.06
448.62	6583.93
448.80	6663.51
448.99	6801.60
449.17	6860.11
449.36	6862.45
449.54	6787.55
449.73	6862.45
449.91	7267.36
450.10	7138.63
450.28	7232.26
450.46	7105.87
450.65	6883.52
450.83	7309.49
451.02	7059.06
451.20	7082.46
451.39	7150.34
451.57	7066.08
451.76	6995.86
451.94	7166.72
452.13	7250.98
452.31	7115.23
452.49	7201.83
452.68	6942.03
452.86	7103.53
453.05	7028.63
453.23	7101.19
453.42	7089.48
453.60	7281.41
453.78	7447.58
453.97	7281.41
454.15	7389.07
454.34	7140.97
454.52	7513.12
454.70	7253.32
454.89	7503.76
455.07	7337.58
455.26	7503.76
455.44	7700.36
455.62	7798.66
455.81	7616.10
455.99	7789.30
456.17	7662.91
456.36	7758.88
456.54	7735.47
456.73	7786.96
456.91	8147.40
457.09	8044.42
457.28	8313.58
457.46	7885.26
457.64	7995.27
457.83	8009.31
458.01	7936.76
458.19	8283.16
458.38	8135.70
458.56	8219.96
458.74	8119.32
458.93	8109.96
459.11	8163.79
459.29	8374.44
459.48	8184.85
459.66	8311.24
459.84	8205.92
460.03	8444.65
460.21	8283.16
460.39	8578.06
460.57	8311.24
460.76	8596.79
460.94	8652.96
461.12	8388.48
461.31	8641.26
461.49	8348.69
461.67	8496.14
461.85	8762.97
462.04	8659.98
462.22	9125.75
462.40	8753.60
462.59	8620.19
462.77	8879.99
462.95	8910.42
463.13	8854.25
463.32	8849.57
463.50	8936.17
463.68	8966.59
463.86	8716.16
464.05	8758.28
464.23	8816.80
464.41	9020.42
464.59	8879.99
464.78	9085.96
464.96	8868.29
465.14	8741.90
465.32	9107.02
465.50	9263.84
465.69	9102.34
465.87	9238.09
466.05	9111.71
466.23	9156.18
466.41	9158.52
466.60	9231.07
466.78	9013.40
466.96	9188.94
467.14	9156.18
467.32	9177.24
467.51	9350.44
467.69	9001.70
467.87	9411.29
468.05	9441.72
468.23	9387.89
468.41	9380.87
468.60	9500.23
468.78	9425.34
468.96	9291.93
469.14	9518.96
469.32	9825.57
469.50	9338.74
469.69	9455.76
469.87	9643.01
470.05	9621.94
470.23	9776.42
470.41	9635.99
470.59	9870.04
470.77	9619.60
470.95	9734.29
471.14	9949.62
471.32	9834.93
471.50	9977.70
471.68	10024.51
471.86	10237.50
472.04	10214.10
472.22	10504.32
472.40	10078.35
472.58	10340.49
472.77	10415.38
472.95	10588.58
473.13	10649.44
473.31	10410.70
473.49	10272.61
473.67	10391.98
473.85	10555.82
474.03	10803.91
474.21	10846.04
474.39	10991.16
474.57	10834.34
474.75	11073.07
474.93	11021.58
475.12	11091.80
475.30	11019.24
475.48	11332.87
475.66	11335.21
475.84	11052.01
476.02	11229.89
476.20	11447.56
476.38	11412.45
476.56	11693.32
476.74	11679.27
476.92	11611.40
477.10	11723.74
477.28	11829.07
477.46	11906.31
477.64	12086.53
477.82	12098.23
478.00	12362.71
478.18	12278.45
478.36	12472.71
478.54	12521.87
478.72	12655.28
478.90	12856.56
479.08	12982.95
479.26	13043.81
479.44	13036.78
479.62	12999.34
479.80	13092.96
479.98	13291.90
480.16	13387.86
480.34	13076.57
480.52	13591.49
480.70	13411.27
480.88	13724.90
481.06	13727.24
481.24	13874.70
481.41	14118.11
481.59	14499.62
481.77	14202.37
481.95	14307.69
482.13	14422.38
482.31	14305.35
482.49	14588.56
482.67	14401.32
482.85	14705.59
483.03	14895.17
483.21	15014.54
483.39	15332.85
483.57	15353.91
483.74	15112.84
483.92	15611.37
484.10	15620.74
484.28	15632.44
484.46	15854.79
484.64	16030.33
484.82	15829.04
485.00	15939.05
485.18	16451.63
485.35	16388.43
485.53	16196.51
485.71	16084.16
485.89	16217.57
486.07	16184.80
486.25	16362.69
486.43	16435.24
486.61	16922.07
486.78	17315.28
486.96	17319.96
487.14	17736.58
487.32	17500.19
487.50	17912.12
487.68	18061.91
487.85	17984.68
488.03	18412.99
488.21	18302.99
488.39	18164.90
488.57	18204.69
488.75	18614.28
488.92	18934.93
489.10	19269.63
489.28	19023.87
489.46	19496.66
489.64	19690.93
489.81	19864.13
489.99	19927.32
490.17	20091.16
490.35	20133.29
490.53	20236.27
490.70	20135.63
490.88	20236.27
491.06	20762.89
491.24	20376.70
491.41	20372.02
491.59	20287.76
491.77	20477.35
491.95	20570.97
492.13	20896.30
492.30	21132.70
492.48	21223.98
492.66	21486.12
492.84	22043.17
493.01	21586.76
493.19	21865.28
493.37	21977.63
493.54	21680.38
493.72	22197.64
493.90	22335.73
494.08	22637.66
494.25	23159.60
494.43	23009.81
494.61	23091.73
494.79	23091.73
494.96	23470.89
495.14	23047.26
495.32	23538.77
495.49	23283.65
495.67	23611.32
495.85	23889.85
496.02	23552.81
496.20	24168.37
496.38	24020.92
496.55	24189.44
496.73	24807.34
496.91	24257.31
497.09	24671.59
497.26	25001.60
497.44	24702.01
497.62	25053.09
497.79	25305.87
497.97	24865.85
498.14	24957.13
498.32	25310.55
498.50	25228.63
498.67	25685.04
498.85	25640.57
499.03	25998.67
499.20	25996.33
499.38	26150.81
499.56	26064.21
499.73	26033.78
499.91	26279.54
500.08	26501.89
500.26	26036.12
500.44	26661.04
500.61	26412.95
500.79	26244.43
500.97	26630.62
501.14	26630.62
501.32	26738.28
501.49	26850.63
501.67	26874.03
501.84	27278.94
502.02	27047.23
502.20	27236.81
502.37	27597.26
502.55	27311.71
502.72	27447.46
502.90	27899.19
503.07	27791.52
503.25	28023.23
503.43	27990.47
503.60	28063.02
503.78	28170.69
503.95	27690.88
504.13	28224.52
504.30	28353.25
504.48	28877.53
504.65	28711.35
504.83	28496.02
505.01	28755.82
505.18	28922.00
505.36	29134.99
505.53	28912.64
505.71	29500.11
505.88	29380.74
506.06	29191.16
506.23	29493.09
506.41	28987.53
506.58	29399.47
506.76	29699.06
506.93	29757.57
507.11	29565.65
507.28	29907.37
507.46	29525.86
507.63	29614.80
507.81	29785.66
507.98	29951.84
508.16	30408.24
508.33	30019.71
508.50	30354.41
508.68	30913.80
508.85	30698.47
509.03	30820.17
509.20	31108.06
509.38	31065.93
509.55	30888.05
509.73	30789.75
509.90	30934.86
510.08	30829.54
510.25	30866.98
510.42	31126.78
510.60	31248.49
510.77	31454.46
510.95	31571.49
511.12	31630.00
511.30	31885.12
511.47	31859.37
511.64	31957.67
511.82	32168.32
511.99	31852.35
512.17	31948.31
512.34	32254.92
512.51	31927.25
512.69	32088.74
512.86	32528.77
513.04	32566.21
513.21	32327.48
513.38	32418.76
513.56	32467.91
513.73	32573.24
513.90	32772.18
514.08	32470.25
514.25	33118.58
514.43	32863.46
514.60	32849.42
514.77	32877.51
514.95	33228.59
515.12	33041.34
515.29	33532.86
515.47	33855.85
515.64	33872.23
515.81	33394.76
515.99	33563.28
516.16	33544.56
516.33	33308.16
516.51	33177.09
516.68	33319.87
516.85	33326.89
517.03	33397.10
517.20	33701.37
517.37	33977.56
517.54	34237.36
517.72	33743.50
517.89	33673.29
518.06	33710.74
518.24	34206.93
518.41	33977.56
518.58	34326.30
518.75	34218.63
518.93	34490.13
519.10	34785.04
519.27	34955.90
519.45	35016.75
519.62	35185.27
519.79	34859.94
519.96	35086.97
520.14	35349.11
520.31	34768.66
520.48	34916.11
520.65	34841.21
520.83	35501.25
521.00	36002.12
521.17	35653.38
521.34	35688.49
521.52	35821.90
521.69	35957.65
521.86	36051.27
522.03	35857.01
522.20	36107.44
522.38	35992.76
522.55	36311.07
522.72	35676.79
522.89	36121.49
523.07	36294.69
523.24	36355.54
523.41	36662.15
523.58	36425.76
523.75	37074.09
523.92	36797.90
524.10	37006.21
524.27	37221.54
524.44	36613.00
524.61	37144.30
524.78	37216.86
524.96	37036.64
525.13	37347.93
525.30	37443.89
525.47	37649.86
525.64	37076.43
525.81	37280.05
525.98	37207.50
526.16	37305.80
526.33	36636.41
526.50	37553.90
526.67	36872.80
526.84	36891.52
527.01	36931.31
527.18	37104.51
527.36	37895.61
527.53	38185.84
527.70	38188.18
527.87	38099.24
528.04	38000.94
528.21	38103.92
528.38	38115.62
528.55	38398.83
528.72	38644.59
528.89	38824.81
529.07	38726.50
529.24	38366.06
529.41	38873.96
529.58	38618.84
529.75	38649.27
529.92	38990.98
530.09	38635.22
530.26	38906.73
530.43	39079.92
530.60	38667.99
530.77	38988.64
530.94	39220.36
531.11	38742.89
531.28	39269.51
531.46	38888.00
531.63	39360.79
531.80	39154.82
531.97	39318.66
532.14	39330.36
532.31	38763.95
532.48	38998.01
532.65	39267.17
532.82	39016.73
532.99	39690.80
533.16	39683.78
533.33	39695.49
533.50	39665.06
533.67	39690.80
533.84	39693.15
534.01	39646.33
534.18	39746.98
534.35	40388.28
534.52	39817.19
534.69	40236.15
534.86	40631.70
535.03	40355.52
535.20	40402.33
535.37	40753.41
535.54	40783.83
535.71	40416.37
535.88	40289.98
536.05	40201.04
536.22	40596.59
536.38	40648.08
536.55	40116.78
536.72	40184.66
536.89	40027.84
537.06	40879.80
537.23	40849.37
537.40	40531.06
537.57	40772.13
537.74	40793.20
537.91	41228.54
538.08	41151.30
538.25	40730.00
538.42	40517.01
538.59	41170.02
538.75	40418.71
538.92	40636.38
539.09	41221.52
539.26	40608.29
539.43	41102.15
539.60	41111.51
539.77	40814.26
539.94	40863.41
540.11	40987.46
540.28	41048.32
540.44	41137.26
540.61	41153.64
540.78	41305.77
540.95	41067.04
541.12	41446.21
541.29	41406.42
541.46	41743.45
541.62	41991.55
541.79	41640.47
541.96	41291.73
542.13	41621.75
542.30	41670.90
542.47	41706.01
542.63	41549.19
542.80	42293.48
542.97	41890.91
543.14	42459.66
543.31	42323.91
543.48	42075.81
543.64	42646.90
543.81	42518.17
543.98	42431.57
544.15	42412.85
544.32	42897.34
544.48	43077.56
544.65	42520.51
544.82	42838.83
544.99	42396.46
545.16	42569.66
545.32	42445.62
545.49	43000.32
545.66	42817.76
545.83	42930.11
546.00	42904.36
546.16	43028.41
546.33	42721.80
546.50	42773.29
546.67	43171.18
546.83	42403.49
547.00	42787.33
547.17	43105.65
547.34	43154.80
547.50	43150.12
547.67	42841.17
547.84	43173.52
548.00	43512.90
548.17	43119.69
548.34	43377.15
548.51	43686.10
548.67	43646.31
548.84	43798.44
549.01	43260.12
549.18	43414.60
549.34	43379.49
549.51	43332.68
549.68	43976.33
549.84	43938.88
550.01	43681.42
550.18	43042.45
550.34	43796.10
550.51	43615.88
550.68	43849.94
550.84	43136.07
551.01	43819.51
551.18	43585.46
551.34	43945.90
551.51	43995.05
551.68	44121.44
551.84	44133.14
552.01	43821.85
552.18	44205.70
552.34	43365.45
552.51	44013.77
552.68	44252.51
552.84	43779.72
553.01	44273.57
553.18	44360.17
553.34	44369.54
553.51	44144.84
553.67	44444.43
553.84	44519.33
554.01	44570.82
554.17	44802.53
554.34	44587.21
554.51	44465.50
554.67	44598.91
554.84	44837.64
555.00	44083.99
555.17	44107.40
555.33	44463.16
555.50	44655.08
555.67	44383.58
555.83	44708.91
556.00	44065.27
556.16	44870.41
556.33	44566.14
556.50	44421.03
556.66	44556.78
556.83	44252.51
556.99	44957.01
557.16	44760.40
557.32	44685.51
557.49	45174.68
557.65	44491.24
557.82	44945.31
557.98	44811.90
558.15	44732.32
558.32	45249.58
558.48	44713.59
558.65	44701.89
558.81	44809.56
558.98	44727.64
559.14	44954.67
559.31	44847.00
559.47	44828.28
559.64	45347.88
559.80	44755.72
559.97	45151.27
560.13	44715.93
560.30	45064.67
560.46	45247.24
560.63	44907.86
560.79	45270.64
560.96	45535.12
561.12	45354.90
561.29	45326.81
561.45	45162.98
561.61	44921.90
561.78	45368.94
561.94	45048.29
562.11	45120.85
562.27	44570.82
562.44	45415.76
562.60	45715.34
562.77	44954.67
562.93	45595.98
563.10	45652.15
563.26	44879.77
563.42	45404.05
563.59	45041.27
563.75	45504.70
563.92	46017.27
564.08	45130.21
564.24	45581.93
564.41	45024.89
564.57	45361.92
564.74	45366.60
564.90	45860.46
565.07	45230.85
565.23	45675.55
565.39	45855.78
565.56	45195.74
565.72	45034.25
565.88	45106.80
566.05	45200.43
566.21	45474.27
566.38	45574.91
566.54	45270.64
566.70	45528.10
566.87	45724.71
567.03	45567.89
567.19	46157.70
567.36	45713.00
567.52	45184.04
567.68	45450.86
567.85	45371.28
568.01	45713.00
568.17	45490.65
568.34	45635.77
568.50	45713.00
568.66	45762.15
568.83	45666.19
568.99	45104.46
569.15	45315.11
569.32	45399.37
569.48	45394.69
569.64	46005.57
569.81	45586.61
569.97	45649.81
570.13	45752.79
570.30	45570.23
570.46	45357.24
570.62	45315.11
570.78	45085.74
570.95	45511.72
571.11	45656.83
571.27	45558.53
571.43	45425.12
571.60	45647.47
571.76	45825.35
571.92	45345.54
572.09	45855.78
572.25	45701.30
572.41	45904.93
572.57	45631.08
572.74	45804.28
572.90	45532.78
573.06	45925.99
573.22	45848.75
573.38	45698.96
573.55	45319.79
573.71	45792.58
573.87	46040.68
574.03	45991.53
574.20	46241.96
574.36	45832.37
574.52	45818.33
574.68	45904.93
574.84	45930.67
575.01	46057.06
575.17	45862.80
575.33	45460.23
575.49	45521.08
575.65	45825.35
575.82	45876.84
575.98	45420.44
576.14	45993.87
576.30	46005.57
576.46	45764.49
576.62	45509.38
576.79	45722.37
576.95	45811.31
577.11	45825.35
577.27	46052.38
577.43	45577.25
577.59	45867.48
577.75	45694.28
577.92	45661.51
578.08	45453.20
578.24	45647.47
578.40	45404.05
578.56	45757.47
578.72	45780.88
578.88	46225.58
579.04	46073.45
579.21	45633.42
579.37	45514.06
579.53	45708.32
579.69	45631.08
579.85	45720.02
580.01	46000.89
580.17	45689.60
580.33	45778.54
580.49	45825.35
580.65	46120.26
580.82	46068.76
580.98	45715.34
581.14	45729.39
581.30	45949.40
581.46	45713.00
581.62	46164.73
581.78	45951.74
581.94	46286.43
582.10	45813.65
582.26	45741.09
582.42	46059.40
582.58	45752.79
582.74	45902.59
582.90	45933.01
583.06	46550.91
583.22	45881.52
583.38	46120.26
583.54	46342.61
583.70	46057.06
583.86	46155.36
584.02	45841.73
584.18	46143.66
584.34	45586.61
584.50	46131.96
584.66	45532.78
584.82	45853.44
584.98	45745.77
585.14	46061.74
585.30	46171.75
585.46	45544.48
585.62	45485.97
585.78	45979.82
585.94	45434.48
586.10	45764.49
586.26	45511.72
586.42	46270.05
586.58	46312.18
586.74	46307.50
586.90	46094.51
587.06	45794.92
587.22	45904.93
587.38	46096.85
587.54	46017.27
587.70	46541.55
587.86	45717.68
588.02	45921.31
588.18	46174.09
588.34	45677.90
588.49	45663.85
588.65	45191.06
588.81	45647.47
588.97	45769.18
589.13	45645.13
589.29	46075.79
589.45	46256.01
589.61	46417.50
589.77	46010.25
589.93	46073.45
590.08	46080.47
