SpectraSuite Data File
++++++++++++++++++++++++++++++++++++
Date: Fri Oct 25 11:25:44 EDT 2013
User: price-jones
Dark Spectrum Present: No
Reference Spectrum Present: No
Number of Sampled Component Spectra: 1
Spectrometers: USB2+H05261
Integration Time (usec): 100000 (USB2+H05261)
Spectra Averaged: 1 (USB2+H05261)
Boxcar Smoothing: 0 (USB2+H05261)
Correct for Electrical Dark: No (USB2+H05261)
Strobe/Lamp Enabled: No (USB2+H05261)
Correct for Detector Non-linearity: No (USB2+H05261)
Correct for Stray Light: No (USB2+H05261)
Number of Pixels in Processed Spectrum: 2048
>>>>>Begin Processed Spectral Data<<<<<
365.73	255.12
365.92	255.12
366.12	255.12
366.32	142.77
366.52	100.64
366.72	121.71
366.91	60.85
367.11	112.35
367.31	201.29
367.51	156.82
367.70	121.71
367.90	98.30
368.10	152.13
368.30	119.37
368.49	159.16
368.69	220.01
368.89	114.69
369.09	145.11
369.28	152.13
369.48	220.01
369.68	264.48
369.87	166.18
370.07	187.24
370.27	191.92
370.47	294.91
370.66	554.71
370.86	676.41
371.06	681.10
371.25	741.95
371.45	690.46
371.65	657.69
371.84	678.76
372.04	681.10
372.24	636.63
372.44	734.93
372.63	741.95
372.83	814.51
373.03	807.48
373.22	727.91
373.42	777.06
373.62	814.51
373.81	744.29
374.01	760.67
374.21	744.29
374.40	753.65
374.60	812.17
374.79	741.95
374.99	807.48
375.19	849.61
375.38	802.80
375.58	854.30
375.78	912.81
375.97	910.47
376.17	945.58
376.37	828.55
376.56	968.98
376.76	889.40
376.95	926.85
377.15	842.59
377.35	896.43
377.54	889.40
377.74	950.26
377.93	856.64
378.13	919.83
378.33	908.13
378.52	931.53
378.72	856.64
378.91	945.58
379.11	926.85
379.31	870.68
379.50	957.28
379.70	976.00
379.89	1008.77
380.09	961.96
380.28	987.71
380.48	908.13
380.68	1006.43
380.87	952.60
381.07	1022.81
381.26	1036.86
381.46	1032.18
381.65	1071.97
381.85	1027.50
382.04	1090.69
382.24	1053.24
382.43	1074.31
382.63	1046.22
382.83	1083.67
383.02	1043.88
383.22	1095.37
383.41	1104.73
383.61	1076.65
383.80	1160.91
384.00	1172.61
384.19	1132.82
384.39	1184.31
384.58	1135.16
384.78	1116.44
384.97	1149.20
385.17	1174.95
385.36	1158.57
385.56	1118.78
385.75	1254.53
385.95	1261.55
386.14	1242.82
386.34	1282.61
386.53	1217.08
386.72	1210.06
386.92	1329.42
387.11	1188.99
387.31	1123.46
387.50	1336.45
387.70	1193.67
387.89	1362.19
388.09	1261.55
388.28	1313.04
388.48	1226.44
388.67	1320.06
388.86	1380.92
389.06	1348.15
389.25	1355.17
389.45	1287.29
389.64	1313.04
389.84	1345.81
390.03	1394.96
390.22	1507.30
390.42	1401.98
390.61	1310.70
390.81	1404.32
391.00	1364.53
391.19	1427.73
391.39	1479.22
391.58	1364.53
391.78	1467.52
391.97	1413.68
392.16	1441.77
392.36	1521.35
392.55	1507.30
392.75	1521.35
392.94	1528.37
393.13	1586.88
393.33	1563.48
393.52	1507.30
393.71	1507.30
393.91	1652.42
394.10	1579.86
394.29	1526.03
394.49	1631.35
394.68	1586.88
394.88	1549.43
395.07	1631.35
395.26	1617.31
395.46	1729.66
395.65	1717.95
395.84	1668.80
396.04	1842.00
396.23	1774.13
396.42	1629.01
396.62	1858.39
396.81	1753.06
397.00	1732.00
397.19	1774.13
397.39	1743.70
397.58	1853.70
397.77	1792.85
397.97	1888.81
398.16	1767.10
398.35	1877.11
398.55	1912.22
398.74	1849.02
398.93	1996.48
399.12	1994.14
399.32	1944.99
399.51	1865.41
399.70	1989.46
399.90	1989.46
400.09	2012.86
400.28	2090.10
400.47	1987.11
400.67	2012.86
400.86	2031.58
401.05	2073.71
401.24	2062.01
401.44	2129.89
401.63	2141.59
401.82	2127.55
402.01	2244.57
402.21	2129.89
402.40	2235.21
402.59	2193.08
402.78	2214.15
402.97	2249.25
403.17	2242.23
403.36	2265.64
403.55	2270.32
403.74	2218.83
403.93	2298.41
404.13	2321.81
404.32	2385.01
404.51	2361.60
404.70	2473.95
404.89	2450.54
405.09	2448.20
405.28	2406.07
405.47	2452.88
405.66	2574.59
405.85	2581.61
406.05	2469.27
406.24	2525.44
406.43	2518.42
406.62	2647.15
406.81	2661.19
407.00	2621.40
407.20	2576.93
407.39	2605.02
407.58	2654.17
407.77	2614.38
407.96	2764.17
408.15	2731.41
408.34	2698.64
408.54	2878.86
408.73	2736.09
408.92	2782.90
409.11	2897.58
409.30	2794.60
409.49	2890.56
409.68	2930.35
409.87	2878.86
410.07	2864.82
410.26	2899.92
410.45	3016.95
410.64	3117.59
410.83	3145.68
411.02	3075.46
411.21	3199.51
411.40	3194.83
411.59	3234.62
411.78	3108.23
411.98	3211.22
412.17	3311.86
412.36	3283.77
412.55	3412.50
412.74	3351.65
412.93	3414.84
413.12	3445.27
413.31	3417.18
413.50	3417.18
413.69	3463.99
413.88	3613.79
414.07	3536.55
414.26	3550.59
414.45	3698.05
414.64	3721.45
414.83	3644.21
415.02	3672.30
415.22	3695.71
415.41	3904.01
415.60	3904.01
415.79	3969.55
415.98	3997.64
416.17	3901.67
416.36	3981.25
416.55	3990.61
416.74	4119.34
416.93	3920.40
417.12	4140.41
417.31	4152.11
417.50	4278.50
417.69	4259.78
417.88	4325.31
418.07	4276.16
418.26	4229.35
418.45	4259.78
418.64	4395.53
418.83	4358.08
419.02	4402.55
419.21	4390.84
419.39	4493.83
419.58	4517.23
419.77	4337.01
419.96	4608.51
420.15	4620.22
420.34	4465.74
420.53	4655.33
420.72	4655.33
420.91	4681.07
421.10	4905.76
421.29	4774.69
421.48	4631.92
421.67	4676.39
421.86	4774.69
422.05	4795.76
422.24	4692.77
422.43	4781.71
422.61	4873.00
422.80	4961.94
422.99	4840.23
423.18	4971.30
423.37	5076.62
423.56	4823.84
423.75	4842.57
423.94	4891.72
424.13	4741.93
424.32	4894.06
424.50	4940.87
424.69	5043.85
424.88	5048.54
425.07	5071.94
425.26	4999.38
425.45	4933.85
425.64	4924.49
425.83	4940.87
426.01	5116.41
426.20	5001.72
426.39	5022.79
426.58	5090.67
426.77	5088.32
426.96	5048.54
427.15	5018.11
427.33	5289.61
427.52	5111.73
427.71	5259.18
427.90	5139.82
428.09	5214.71
428.28	5348.12
428.46	5320.04
428.65	5242.80
428.84	5521.32
429.03	5603.24
429.22	5336.42
429.40	5416.00
429.59	5385.57
429.78	5247.48
429.97	5200.67
430.16	5692.18
430.34	5671.12
430.53	5731.97
430.72	5589.20
430.91	5638.35
431.10	5579.84
431.28	5781.12
431.47	5809.21
431.66	5738.99
431.85	5736.65
432.03	6050.28
432.22	5954.32
432.41	5888.79
432.60	5942.62
432.79	5818.57
432.97	5909.85
433.16	6061.99
433.35	5926.24
433.54	6092.41
433.72	6059.65
433.91	6099.44
434.10	6197.74
434.28	6071.35
434.47	5973.05
434.66	6204.76
434.85	6211.78
435.03	6171.99
435.22	6417.75
435.41	6466.90
435.59	6356.90
435.78	6373.28
435.97	6450.52
436.16	6462.22
436.34	6555.84
436.53	6476.26
436.72	6614.35
436.90	6544.14
437.09	6600.31
437.28	6420.09
437.46	6509.03
437.65	6520.73
437.84	6768.83
438.02	6815.64
438.21	6712.66
438.40	6616.69
438.58	6951.39
438.77	6890.54
438.96	6925.65
439.14	6960.75
439.33	7293.11
439.52	7232.26
439.70	7140.97
439.89	7506.10
440.08	7372.69
440.26	7372.69
440.45	7389.07
440.63	7473.33
440.82	7674.62
441.01	7517.80
441.19	7552.91
441.38	7655.89
441.57	7782.28
441.75	7742.49
441.94	7929.74
442.12	7871.22
442.31	7906.33
442.50	7887.61
442.68	7880.58
442.87	8147.40
443.05	8180.17
443.24	8107.62
443.43	8074.85
443.61	8109.96
443.80	8365.07
443.98	8044.42
444.17	7903.99
444.35	8131.02
444.54	8264.43
444.73	8287.84
444.91	8271.45
445.10	8287.84
445.28	8215.28
445.47	8442.31
445.65	8360.39
445.84	8409.54
446.02	8554.66
446.21	8252.73
446.39	8489.12
446.58	8568.70
446.77	8423.59
446.95	8219.96
447.14	8355.71
447.32	8498.49
447.51	8437.63
447.69	8411.89
447.88	8575.72
448.06	8564.02
448.25	8688.07
448.43	8395.50
448.62	8416.57
448.80	8564.02
448.99	8603.81
449.17	8608.49
449.36	8402.52
449.54	8828.50
449.73	8894.04
449.91	8975.95
450.10	8952.55
450.28	8940.85
450.46	9036.81
450.65	9008.72
450.83	9043.83
451.02	8999.36
451.20	9039.15
451.39	9142.13
451.57	9022.77
451.76	9015.74
451.94	9048.51
452.13	9167.88
452.31	9371.50
452.49	9125.75
452.68	9322.35
452.86	9359.80
453.05	9427.68
453.23	9289.59
453.42	9261.50
453.60	9273.20
453.78	9380.87
453.97	9455.76
454.15	9516.62
454.34	9376.19
454.52	9781.10
454.70	9582.15
454.89	9722.59
455.07	9898.13
455.26	9795.14
455.44	9961.32
455.62	9717.90
455.81	9884.08
455.99	9907.49
456.17	10136.86
456.36	10249.21
456.54	10073.67
456.73	10370.91
456.91	10183.67
457.09	10389.64
457.28	10635.39
457.46	10384.96
457.64	10579.22
457.83	10361.55
458.01	10333.47
458.19	10602.63
458.38	10497.30
458.56	10588.58
458.74	10579.22
458.93	10604.97
459.11	10832.00
459.29	10747.74
459.48	10780.51
459.66	10656.46
459.84	10909.24
460.03	11002.86
460.21	11019.24
460.39	10925.62
460.57	10871.79
460.76	11187.76
460.94	11080.10
461.12	11131.59
461.31	11101.16
461.49	10965.41
461.67	11126.91
461.85	11695.66
462.04	11157.33
462.22	11873.54
462.40	11538.84
462.59	11339.90
462.77	11243.93
462.95	11604.38
463.13	11452.24
463.32	11641.82
463.50	11695.66
463.68	11662.89
463.86	11817.36
464.05	11508.41
464.23	11651.19
464.41	11632.46
464.59	11669.91
464.78	11971.84
464.96	12053.76
465.14	11648.85
465.32	11939.07
465.50	12018.65
465.69	12028.01
465.87	12030.35
466.05	12063.12
466.23	12224.62
466.41	12311.22
466.60	12587.40
466.78	12086.53
466.96	12287.81
467.14	12046.74
467.32	12381.43
467.51	12627.19
467.69	12004.61
467.87	12554.63
468.05	12482.08
468.23	12437.61
468.41	12507.82
468.60	12643.57
468.78	12695.07
468.96	12561.66
469.14	12837.84
469.32	12994.65
469.50	12664.64
469.69	12592.08
469.87	12931.46
470.05	13011.04
470.23	13053.17
470.41	13090.62
470.59	13205.30
470.77	13032.10
470.95	13013.38
471.14	13514.25
471.32	13174.88
471.50	13685.11
471.68	13422.97
471.86	13514.25
472.04	13474.46
472.22	13736.60
472.40	13664.05
472.58	13841.93
472.77	13949.59
472.95	14160.24
473.13	14555.79
473.31	13912.14
473.49	14059.60
473.67	14057.26
473.85	14057.26
474.03	14616.65
474.21	14464.51
474.39	14740.69
474.57	14810.91
474.75	14806.23
474.93	14841.34
475.12	14927.94
475.30	15005.17
475.48	15082.41
475.66	15133.90
475.84	15239.23
476.02	15318.81
476.20	15272.00
476.38	15470.94
476.56	15857.13
476.74	16027.99
476.92	15805.64
477.10	15798.62
477.28	16285.45
477.46	16229.27
477.64	16262.04
477.82	16327.58
478.00	16774.62
478.18	16730.15
478.36	17008.67
478.54	16992.29
478.72	17326.99
478.90	17256.77
479.08	17415.93
479.26	17680.41
479.44	17839.56
479.62	17923.82
479.80	17991.70
479.98	18293.63
480.16	18345.12
480.34	18338.10
480.52	18663.43
480.70	18768.76
480.88	18249.16
481.06	18705.56
481.24	18623.64
481.41	18878.76
481.59	19391.34
481.77	19506.02
481.95	19372.61
482.13	19810.29
482.31	19754.12
482.49	20517.14
482.67	19906.26
482.85	20601.40
483.03	20428.20
483.21	20758.21
483.39	20774.60
483.57	20779.28
483.74	21008.65
483.92	21549.31
484.10	21158.44
484.28	21582.08
484.46	21680.38
484.64	22153.17
484.82	21776.34
485.00	22239.77
485.18	22773.41
485.35	23229.82
485.53	22796.82
485.71	23075.34
485.89	23365.57
486.07	23239.18
486.25	23239.18
486.43	23335.14
486.61	23723.67
486.78	23758.78
486.96	24339.23
487.14	24332.21
487.32	24601.37
487.50	25200.55
487.68	24826.06
487.85	25036.71
488.03	25617.16
488.21	25862.92
488.39	25626.53
488.57	26094.63
488.75	25862.92
488.92	26490.18
489.10	26630.62
489.28	26747.64
489.46	27374.91
489.64	27021.48
489.81	27936.63
489.99	27442.78
490.17	27529.38
490.35	27821.95
490.53	27828.97
490.70	28182.39
490.88	28093.45
491.06	29083.50
491.24	29041.37
491.41	29053.07
491.59	28994.56
491.77	29118.60
491.95	29603.10
492.13	29708.42
492.30	30106.31
492.48	29879.28
492.66	29600.76
492.84	29902.68
493.01	30483.14
493.19	30567.40
493.37	30937.20
493.54	30904.43
493.72	31084.65
493.90	31374.88
494.08	31580.85
494.25	31880.44
494.43	31709.58
494.61	32261.94
494.79	32187.05
494.96	32252.58
495.14	32453.87
495.32	32940.70
495.49	33179.43
495.67	32828.35
495.85	33322.21
496.02	33968.19
496.20	34148.42
496.38	33734.14
496.55	33965.85
496.73	34412.90
496.91	34389.49
497.09	34848.24
497.26	34873.98
497.44	34651.63
497.62	35213.36
497.79	35756.36
497.97	35498.91
498.14	35555.08
498.32	35906.16
498.50	36079.36
498.67	36371.92
498.85	36079.36
499.03	36493.63
499.20	36980.46
499.38	36521.72
499.56	37373.67
499.73	36776.84
499.91	37083.45
500.08	37607.73
500.26	37053.02
500.44	37275.37
500.61	37778.59
500.79	37727.10
500.97	37563.26
501.14	38389.47
501.32	38265.42
501.49	38398.83
501.67	38543.94
501.84	38731.18
502.02	38848.21
502.20	38583.73
502.37	38855.23
502.55	39126.74
502.72	39302.28
502.90	39253.12
503.07	39463.77
503.25	39503.56
503.43	39786.77
503.60	40261.90
503.78	39772.72
503.95	40250.19
504.13	40322.75
504.30	40446.80
504.48	40540.42
504.65	40500.63
504.83	40896.18
505.01	40818.94
505.18	41350.24
505.36	41282.37
505.53	41256.62
505.71	41329.18
505.88	41661.54
506.06	41750.48
506.23	41937.72
506.41	41500.04
506.58	41893.25
506.76	42057.09
506.93	42260.71
507.11	42101.56
507.28	42330.93
507.46	42981.60
507.63	42719.46
507.81	42955.85
507.98	43105.65
508.16	42904.36
508.33	43587.80
508.50	43536.30
508.68	43697.80
508.85	43786.74
509.03	43662.69
509.20	44243.15
509.38	44182.29
509.55	44432.73
509.73	44399.96
509.90	44552.10
510.08	44538.05
510.25	44680.83
510.42	44446.77
510.60	44989.78
510.77	45195.74
510.95	45240.21
511.12	44978.07
511.30	44765.09
511.47	45425.12
511.64	45340.86
511.82	45324.47
511.99	45518.74
512.17	45921.31
512.34	45579.59
512.51	46171.75
512.69	46160.05
512.86	46382.40
513.04	46417.50
513.21	46382.40
513.38	47232.01
513.56	47051.79
513.73	46494.74
513.90	46639.86
514.08	46841.14
514.25	47402.87
514.43	47391.17
514.60	47042.43
514.77	47220.31
514.95	47732.89
515.12	47262.44
515.29	47339.68
515.47	47615.86
515.64	48224.40
515.81	47470.75
515.99	47814.80
516.16	48456.11
516.33	47955.24
516.51	48456.11
516.68	48306.32
516.85	48261.85
517.03	48914.86
517.20	49226.15
517.37	48631.65
517.54	48865.70
517.72	48629.31
517.89	49228.49
518.06	49127.84
518.24	49029.54
518.41	49305.73
518.58	48973.37
518.75	49389.98
518.93	49200.40
519.10	49675.53
519.27	49446.16
519.45	49371.26
519.62	49986.82
519.79	49954.05
519.96	49844.05
520.14	50223.22
520.31	49799.58
520.48	50342.58
520.65	50071.08
520.83	50307.47
521.00	50487.70
521.17	50541.53
521.34	50581.32
521.52	50806.01
521.69	50813.03
521.86	50749.84
522.03	51182.84
522.20	51143.05
522.38	51292.84
522.55	51194.54
522.72	51215.60
522.89	51203.90
523.07	51620.52
523.24	51634.56
523.41	51363.06
523.58	51421.57
523.75	51868.61
523.92	51615.83
524.10	51980.96
524.27	51880.31
524.44	52016.07
524.61	51973.94
524.78	51821.80
524.96	51978.62
525.13	52121.39
525.30	52350.76
525.47	52245.44
525.64	52444.38
525.81	52538.01
525.98	52598.86
526.16	52470.13
526.33	52254.80
526.50	52968.66
526.67	52612.90
526.84	52608.22
527.01	52767.38
527.18	52697.16
527.36	52938.24
527.53	52938.24
527.70	53392.30
527.87	53088.03
528.04	53169.95
528.21	53130.16
528.38	52985.05
528.55	53453.15
528.72	53139.52
528.89	53411.02
529.07	53396.98
529.24	53350.17
529.41	53738.70
529.58	53673.16
529.75	53778.49
529.92	53631.04
530.09	53996.16
530.26	53928.28
530.43	54066.38
530.60	53827.64
530.77	53790.19
530.94	54028.93
531.11	53813.60
531.28	53921.26
531.46	54019.56
531.63	53979.78
531.80	54284.04
531.97	54068.72
532.14	54295.75
532.31	54202.13
532.48	54288.73
532.65	54616.40
532.82	54328.52
532.99	54857.48
533.16	54497.03
533.33	54548.53
533.50	54817.69
533.67	54880.88
533.84	54560.23
534.01	54763.85
534.18	54834.07
534.35	55206.22
534.52	54848.11
534.69	55037.70
534.86	55246.00
535.03	55117.28
535.20	55257.71
535.37	55196.85
535.54	55072.81
535.71	55255.37
535.88	55395.80
536.05	55262.39
536.22	55664.96
536.38	55487.08
536.55	55615.81
536.72	55669.64
536.89	55103.23
537.06	55681.34
537.23	55679.00
537.40	55477.72
537.57	55636.87
537.74	55814.76
537.91	55938.80
538.08	55950.51
538.25	55744.54
538.42	55826.46
538.59	55875.61
538.75	55671.98
538.92	56133.07
539.09	56097.96
539.26	56032.42
539.43	56095.62
539.60	56069.87
539.77	56154.13
539.94	56439.68
540.11	56243.07
540.28	56399.89
540.44	56552.02
540.61	56329.67
540.78	56528.62
540.95	56341.38
541.12	56217.33
541.29	56332.01
541.46	56650.33
541.62	56423.29
541.79	56608.20
541.96	56261.80
542.13	56598.83
542.30	56603.52
542.47	56872.68
542.63	56727.56
542.80	56863.32
542.97	57183.97
543.14	57095.03
543.31	57027.15
543.48	57221.42
543.64	57261.21
543.81	57254.18
543.98	57329.08
544.15	57389.94
544.32	57380.57
544.48	57549.09
544.65	57212.06
544.82	57364.19
544.99	57373.55
545.16	57277.59
545.32	57310.36
545.49	57682.50
545.66	57743.36
545.83	57631.01
546.00	57422.70
546.16	57462.49
546.33	57242.48
546.50	57277.59
546.67	57684.84
546.83	57268.23
547.00	57836.98
547.17	57631.01
547.34	57600.58
547.50	57872.09
547.67	57832.30
547.84	57907.19
548.00	58038.26
548.17	58124.86
548.34	57989.11
548.51	58064.01
548.67	57986.77
548.84	58103.80
549.01	58122.52
549.18	57989.11
549.34	58202.10
549.51	58342.53
549.68	58480.63
549.84	58382.32
550.01	58068.69
550.18	58115.50
550.34	58372.96
550.51	58396.37
550.68	58415.09
550.84	57874.43
551.01	58541.48
551.18	58401.05
551.34	58223.17
551.51	58450.20
551.68	58574.25
551.84	58693.61
552.01	58520.41
552.18	58614.04
552.34	58333.17
552.51	58717.02
552.68	58550.84
552.84	58508.71
553.01	58747.45
553.18	58560.20
553.34	58862.13
553.51	58864.47
553.67	58766.17
553.84	58784.90
554.01	58796.60
554.17	59032.99
554.34	58876.18
554.51	59058.74
554.67	59014.27
554.84	58946.39
555.00	58941.71
555.17	58972.14
555.33	58852.77
555.50	58759.15
555.67	58939.37
555.83	58997.88
556.00	58897.24
556.16	59236.62
556.33	59367.69
556.50	59105.55
556.66	59297.47
556.83	59114.91
556.99	59245.98
557.16	59526.84
557.32	59491.74
557.49	59377.05
557.65	59419.18
557.82	59215.55
557.98	59091.51
558.15	59377.05
558.32	59494.08
558.48	59196.83
558.65	59550.25
558.81	59323.22
558.98	59531.53
559.14	59351.30
559.31	59510.46
559.47	59648.55
559.64	59433.22
559.80	59730.47
559.97	59756.22
560.13	59650.89
560.30	59540.89
560.46	59576.00
560.63	59690.68
560.79	59819.41
560.96	59800.69
561.12	59583.02
561.29	59756.22
561.45	59828.77
561.61	59735.15
561.78	59800.69
561.94	59749.20
562.11	59751.54
562.27	59763.24
562.44	59845.16
562.60	59964.52
562.77	59934.10
562.93	59854.52
563.10	59994.95
563.26	59943.46
563.42	60069.85
563.59	59798.35
563.75	59966.87
563.92	60020.70
564.08	60261.77
564.24	60044.10
564.41	59983.25
564.57	60182.19
564.74	60081.55
564.90	60065.17
565.07	59800.69
565.23	59957.50
565.39	60114.32
565.56	60020.70
565.72	60163.47
565.88	60137.72
566.05	59866.22
566.21	60076.87
566.38	60243.05
566.54	60044.10
566.70	60348.37
566.87	60210.28
567.03	60137.72
567.19	60310.92
567.36	60313.26
567.52	60100.28
567.68	60259.43
567.85	60381.14
568.01	60214.96
568.17	60268.79
568.34	60500.51
568.50	60402.21
568.66	60402.21
568.83	60336.67
568.99	60175.17
569.15	60147.09
569.32	60477.10
569.48	60317.95
569.64	60416.25
569.81	60427.95
569.97	60430.29
570.13	60570.72
570.30	60315.61
570.46	60392.84
570.62	60423.27
570.78	60470.08
570.95	60505.19
571.11	60474.76
571.27	60385.82
571.43	60589.45
571.60	60563.70
571.76	60390.50
571.92	60626.90
572.09	60477.10
572.25	60179.85
572.41	60327.31
572.57	60460.72
572.74	60540.30
572.90	60542.64
573.06	60430.29
573.22	60453.70
573.38	60629.24
573.55	60530.93
573.71	60802.44
573.87	60692.43
574.03	60774.35
574.20	60580.09
574.36	60449.02
574.52	60561.36
574.68	60463.06
574.84	60725.20
575.01	60786.05
575.17	60610.51
575.33	60654.98
575.49	60530.93
575.65	60666.69
575.82	60671.37
575.98	60764.99
576.14	60734.56
576.30	60591.79
576.46	60676.05
576.62	60570.72
576.79	60502.85
576.95	60509.87
577.11	60818.82
577.27	60786.05
577.43	60802.44
577.59	60636.26
577.75	60755.63
577.92	60790.73
578.08	60619.88
578.24	60596.47
578.40	60992.02
578.56	60701.79
578.72	60853.93
578.88	60896.06
579.04	60917.12
579.21	60896.06
579.37	60807.12
579.53	61043.51
579.69	60643.28
579.85	60631.58
580.01	60619.88
580.17	60636.26
580.33	60809.46
580.49	60893.72
580.65	60867.97
580.82	60596.47
580.98	60519.23
581.14	60598.81
581.30	60790.73
581.46	60896.06
581.62	60697.11
581.78	60774.35
581.94	60842.23
582.10	60961.59
582.26	60961.59
582.42	60755.63
582.58	61015.43
582.74	60851.59
582.90	60886.70
583.06	60807.12
583.22	60774.35
583.38	60860.95
583.54	60980.32
583.70	60757.97
583.86	60900.74
584.02	60776.69
584.18	60886.70
584.34	60996.70
584.50	60781.37
584.66	60926.49
584.82	60874.99
584.98	60980.32
585.14	61003.72
585.30	60973.30
585.46	60839.89
585.62	60795.42
585.78	60996.70
585.94	60676.05
586.10	60905.42
586.26	60942.87
586.42	60889.04
586.58	61172.24
586.74	60924.14
586.90	60903.08
587.06	60853.93
587.22	60914.78
587.38	60952.23
587.54	61174.58
587.70	61181.60
587.86	61118.41
588.02	60968.61
588.18	61006.06
588.34	60947.55
588.49	60952.23
