SpectraSuite Data File
++++++++++++++++++++++++++++++++++++
Date: Fri Oct 25 11:22:34 EDT 2013
User: price-jones
Dark Spectrum Present: No
Reference Spectrum Present: No
Number of Sampled Component Spectra: 1
Spectrometers: USB2+H05261
Integration Time (usec): 100000 (USB2+H05261)
Spectra Averaged: 1 (USB2+H05261)
Boxcar Smoothing: 0 (USB2+H05261)
Correct for Electrical Dark: No (USB2+H05261)
Strobe/Lamp Enabled: No (USB2+H05261)
Correct for Detector Non-linearity: No (USB2+H05261)
Correct for Stray Light: No (USB2+H05261)
Number of Pixels in Processed Spectrum: 2048
>>>>>Begin Processed Spectral Data<<<<<
365.73	203.63
365.92	203.63
366.12	203.63
366.32	112.35
366.52	145.11
366.72	154.48
366.91	77.24
367.11	56.17
367.31	81.92
367.51	53.83
367.70	79.58
367.90	147.45
368.10	100.64
368.30	159.16
368.49	124.05
368.69	128.73
368.89	105.32
369.09	119.37
369.28	161.50
369.48	170.86
369.68	215.33
369.87	201.29
370.07	140.43
370.27	210.65
370.47	264.48
370.66	561.73
370.86	624.92
371.06	737.27
371.25	671.73
371.45	692.80
371.65	723.23
371.84	688.12
372.04	683.44
372.24	727.91
372.44	676.41
372.63	774.72
372.83	777.06
373.03	819.19
373.22	795.78
373.42	725.57
373.62	709.18
373.81	793.44
374.01	828.55
374.21	793.44
374.40	713.86
374.60	828.55
374.79	840.25
374.99	837.91
375.19	821.53
375.38	844.93
375.58	788.76
375.78	849.61
375.97	821.53
376.17	877.70
376.37	915.15
376.56	823.87
376.76	868.34
376.95	880.04
377.15	861.32
377.35	863.66
377.54	875.36
377.74	877.70
377.93	966.64
378.13	891.74
378.33	844.93
378.52	919.83
378.72	983.02
378.91	966.64
379.11	971.32
379.31	952.60
379.50	926.85
379.70	957.28
379.89	903.45
380.09	1020.47
380.28	1032.18
380.48	961.96
380.68	1057.92
380.87	990.05
381.07	1048.56
381.26	1107.07
381.46	997.07
381.65	954.94
381.85	1029.84
382.04	1013.45
382.24	1046.22
382.43	1144.52
382.63	1109.41
382.83	992.39
383.02	1046.22
383.22	1093.03
383.41	1041.54
383.61	1104.73
383.80	1203.04
384.00	1088.35
384.19	1074.31
384.39	1177.29
384.58	1074.31
384.78	1235.80
384.97	1221.76
385.17	1193.67
385.36	1095.37
385.56	1083.67
385.75	1104.73
385.95	1125.80
386.14	1188.99
386.34	1186.65
386.53	1240.48
386.72	1245.16
386.92	1252.19
387.11	1315.38
387.31	1256.87
387.50	1207.72
387.70	1320.06
387.89	1259.21
388.09	1343.47
388.28	1369.21
388.48	1245.16
388.67	1317.72
388.86	1401.98
389.06	1252.19
389.25	1409.00
389.45	1362.19
389.64	1376.24
389.84	1434.75
390.03	1357.51
390.22	1306.02
390.42	1397.30
390.61	1320.06
390.81	1378.58
391.00	1380.92
391.19	1497.94
391.39	1362.19
391.58	1401.98
391.78	1446.45
391.97	1472.20
392.16	1458.15
392.36	1502.62
392.55	1488.58
392.75	1493.26
392.94	1589.22
393.13	1593.90
393.33	1526.03
393.52	1600.93
393.71	1589.22
393.91	1526.03
394.10	1652.42
394.29	1607.95
394.49	1621.99
394.68	1671.14
394.88	1666.46
395.07	1640.72
395.26	1727.32
395.46	1636.03
395.65	1694.55
395.84	1689.87
396.04	1736.68
396.23	1682.85
396.42	1701.57
396.62	1790.51
396.81	1823.28
397.00	1790.51
397.19	1792.85
397.39	1783.49
397.58	1734.34
397.77	1797.53
397.97	1895.83
398.16	1851.36
398.35	1884.13
398.55	1877.11
398.74	1930.94
398.93	1937.96
399.12	1982.43
399.32	1968.39
399.51	1870.09
399.70	1984.77
399.90	1942.64
400.09	2059.67
400.28	2099.46
400.47	2059.67
400.67	2148.61
400.86	2040.95
401.05	2062.01
401.24	2141.59
401.44	2200.10
401.63	2188.40
401.82	2211.81
402.01	2157.97
402.21	2239.89
402.40	2165.00
402.59	2174.36
402.78	2289.04
402.97	2251.60
403.17	2289.04
403.36	2251.60
403.55	2305.43
403.74	2415.43
403.93	2431.82
404.13	2370.96
404.32	2396.71
404.51	2422.45
404.70	2476.29
404.89	2307.77
405.09	2443.52
405.28	2438.84
405.47	2506.71
405.66	2562.89
405.85	2513.74
406.05	2530.12
406.24	2576.93
406.43	2649.49
406.62	2583.95
406.81	2539.48
407.00	2553.52
407.20	2530.12
407.39	2684.59
407.58	2881.20
407.77	2813.32
407.96	2733.75
408.15	2827.37
408.34	2675.23
408.54	2808.64
408.73	2899.92
408.92	2932.69
409.11	2888.22
409.30	2850.77
409.49	2972.48
409.68	2972.48
409.87	2878.86
410.07	2993.55
410.26	3054.40
410.45	3000.57
410.64	3021.63
410.83	3126.96
411.02	3087.17
411.21	3208.87
411.40	3173.77
411.59	3234.62
411.78	3300.16
411.98	3220.58
412.17	3346.97
412.36	3293.13
412.55	3510.80
412.74	3370.37
412.93	3492.08
413.12	3344.63
413.31	3777.62
413.50	3424.20
413.69	3487.40
413.88	3765.92
414.07	3541.23
414.26	3719.11
414.45	3726.13
414.64	3646.55
414.83	3782.31
415.02	3716.77
415.22	3934.44
415.41	3936.78
415.60	3805.71
415.79	3843.16
415.98	4086.58
416.17	3932.10
416.36	3999.98
416.55	3997.64
416.74	3992.95
416.93	4107.64
417.12	4053.81
417.31	4182.54
417.50	4276.16
417.69	4241.05
417.88	4257.43
418.07	4236.37
418.26	4421.27
418.45	4442.34
418.64	4550.00
418.83	4559.36
419.02	4500.85
419.21	4606.17
419.39	4559.36
419.58	4557.02
419.77	4465.74
419.96	4610.86
420.15	4557.02
420.34	4585.11
420.53	4610.86
420.72	4678.73
420.91	4751.29
421.10	4725.54
421.29	4875.34
421.48	4734.90
421.67	4898.74
421.86	4786.40
422.05	4903.42
422.24	4877.68
422.43	4833.21
422.61	4926.83
422.80	4945.55
422.99	5095.35
423.18	5013.43
423.37	4985.34
423.56	4980.66
423.75	4922.15
423.94	4746.61
424.13	4561.70
424.32	4833.21
424.50	4933.85
424.69	5317.70
424.88	5039.17
425.07	5041.51
425.26	4971.30
425.45	4940.87
425.64	4924.49
425.83	5034.49
426.01	5165.56
426.20	5046.20
426.39	5125.77
426.58	5064.92
426.77	4990.02
426.96	5317.70
427.15	5151.52
427.33	5167.90
427.52	5212.37
427.71	5383.23
427.90	5432.38
428.09	5289.61
428.28	5383.23
428.46	5434.72
428.65	5441.75
428.84	5713.25
429.03	5659.42
429.22	5493.24
429.40	5528.35
429.59	5425.36
429.78	5563.45
429.97	5221.74
430.16	5401.96
430.34	5636.01
430.53	5626.65
430.72	5746.02
430.91	5626.65
431.10	5755.38
431.28	5926.24
431.47	6008.16
431.66	5991.77
431.85	5818.57
432.03	5930.92
432.22	6059.65
432.41	6024.54
432.60	5982.41
432.79	5867.72
432.97	5959.00
433.16	6118.16
433.35	6012.84
433.54	6272.64
433.72	6223.48
433.91	6298.38
434.10	6359.24
434.28	6359.24
434.47	6277.32
434.66	6258.59
434.85	6394.34
435.03	6380.30
435.22	6324.13
435.41	6544.14
435.59	6478.60
435.78	6382.64
435.97	6436.47
436.16	6544.14
436.34	6469.24
436.53	6513.71
436.72	6780.53
436.90	6487.96
437.09	6722.02
437.28	6527.75
437.46	6612.01
437.65	6759.47
437.84	6913.94
438.02	7021.61
438.21	6768.83
438.40	6733.72
438.58	6946.71
438.77	7199.49
438.96	6920.96
439.14	7108.21
439.33	7185.44
439.52	7466.31
439.70	7225.23
439.89	7480.35
440.08	7426.52
440.26	7382.05
440.45	7288.43
440.63	7454.61
440.82	7620.78
441.01	7506.10
441.19	7803.35
441.38	7751.85
441.57	7667.60
441.75	7763.56
441.94	8039.74
442.12	8013.99
442.31	8119.32
442.50	8308.90
442.68	8285.50
442.87	8234.00
443.05	8173.15
443.24	8372.10
443.43	8201.24
443.61	8322.94
443.80	8348.69
443.98	8201.24
444.17	7899.31
444.35	8248.05
444.54	8493.80
444.73	8318.26
444.91	8477.42
445.10	8334.65
445.28	8475.08
445.47	8250.39
445.65	8304.22
445.84	8615.51
446.02	8809.78
446.21	8444.65
446.39	8606.15
446.58	8641.26
446.77	8517.21
446.95	8388.48
447.14	8454.02
447.32	8678.71
447.51	8650.62
447.69	8489.12
447.88	8491.46
448.06	8489.12
448.25	8620.19
448.43	8769.99
448.62	8739.56
448.80	8542.96
448.99	8854.25
449.17	8819.14
449.36	8702.11
449.54	8982.98
449.73	9071.92
449.91	9256.82
450.10	9041.49
450.28	9219.37
450.46	9240.44
450.65	9207.67
450.83	9202.99
451.02	8997.02
451.20	9448.74
451.39	9259.16
451.57	9184.26
451.76	9167.88
451.94	9322.35
452.13	9432.36
452.31	9373.85
452.49	9399.59
452.68	9359.80
452.86	9434.70
453.05	9659.39
453.23	9572.79
453.42	9380.87
453.60	9537.68
453.78	9776.42
453.97	9469.81
454.15	9682.80
454.34	9554.07
454.52	9860.68
454.70	9771.74
454.89	9870.04
455.07	9848.97
455.26	9900.47
455.44	9778.76
455.62	10068.98
455.81	9975.36
455.99	9792.80
456.17	10298.36
456.36	10235.16
456.54	10333.47
456.73	10565.18
456.91	10635.39
457.09	10490.28
457.28	10569.86
457.46	10427.09
457.64	10637.73
457.83	10738.38
458.01	10691.57
458.19	10740.72
458.38	10555.82
458.56	10824.98
458.74	10956.05
458.93	10813.28
459.11	11040.31
459.29	10846.04
459.48	10923.28
459.66	10984.13
459.84	11145.63
460.03	11021.58
460.21	11054.35
460.39	11014.56
460.57	11194.78
460.76	11286.06
460.94	11262.66
461.12	11393.73
461.31	11213.51
461.49	11332.87
461.67	11445.22
461.85	11700.34
462.04	11456.92
462.22	11714.38
462.40	11520.12
462.59	11786.94
462.77	11665.23
462.95	11782.26
463.13	11723.74
463.32	11709.70
463.50	11728.42
463.68	11910.99
463.86	12006.95
464.05	11740.13
464.23	11932.05
464.41	12004.61
464.59	11789.28
464.78	12259.73
464.96	11962.48
465.14	12018.65
465.32	12138.02
465.50	12098.23
465.69	12222.28
465.87	12203.55
466.05	12233.98
466.23	12266.75
466.41	12425.90
466.60	12524.21
466.78	12346.33
466.96	12266.75
467.14	12383.77
467.32	12608.47
467.51	12648.26
467.69	12311.22
467.87	12571.02
468.05	12833.16
468.23	12615.49
468.41	12645.91
468.60	12720.81
468.78	12851.88
468.96	12718.47
469.14	12844.86
469.32	13111.68
469.50	12772.30
469.69	13174.88
469.87	13172.54
470.05	13247.43
470.23	13380.84
470.41	13209.98
470.59	13549.36
470.77	13350.42
470.95	13280.20
471.14	13760.01
471.32	13397.23
471.50	14038.53
471.68	13818.52
471.86	13792.78
472.04	13940.23
472.22	14258.54
472.40	13633.62
472.58	14132.15
472.77	14026.83
472.95	14267.91
473.13	14607.28
473.31	14209.39
473.49	14499.62
473.67	14211.73
473.85	14600.26
474.03	14946.66
474.21	14640.05
474.39	14904.53
474.57	15028.58
474.75	15000.49
474.93	15096.46
475.12	15115.18
475.30	15033.26
475.48	15262.63
475.66	15279.02
475.84	15103.48
476.02	15536.48
476.20	15585.63
476.38	15782.23
476.56	16355.66
476.74	16128.63
476.92	16212.89
477.10	15791.59
477.28	16152.04
477.46	16348.64
477.64	16617.80
477.82	16791.00
478.00	17338.69
478.18	17219.32
478.36	17324.65
478.54	17181.87
478.72	17432.31
478.90	17298.90
479.08	17614.87
479.26	17565.72
479.44	18036.17
479.62	18235.11
479.80	18061.91
479.98	18375.55
480.16	18590.88
480.34	18506.62
480.52	19070.68
480.70	18836.63
480.88	18691.52
481.06	18792.16
481.24	19405.38
481.41	19396.02
481.59	19599.65
481.77	19777.53
481.95	19915.62
482.13	19812.63
482.31	19747.10
482.49	20475.01
482.67	20175.42
482.85	20683.31
483.03	21118.65
483.21	20837.79
483.39	20926.73
483.57	21085.89
483.74	21350.37
483.92	21659.32
484.10	21422.92
484.28	21994.01
484.46	22078.27
484.64	22541.70
484.82	22569.79
485.00	22515.95
485.18	22913.84
485.35	22836.61
485.53	23044.91
485.71	23316.42
485.89	23681.54
486.07	23777.50
486.25	23826.65
486.43	23847.72
486.61	24407.11
486.78	24451.58
486.96	24451.58
487.14	24926.71
487.32	24856.49
487.50	25207.57
487.68	24980.54
487.85	25408.86
488.03	26073.57
488.21	26249.11
488.39	25834.83
488.57	26848.29
488.75	26686.79
488.92	26867.01
489.10	26878.71
489.28	27140.85
489.46	27803.22
489.64	27402.99
489.81	27850.03
489.99	28180.05
490.17	28198.77
490.35	28645.82
490.53	28622.41
490.70	28566.24
490.88	28671.56
491.06	29275.42
491.24	29240.31
491.41	29502.45
491.59	29280.10
491.77	29347.98
491.95	29998.65
492.13	30162.48
492.30	30363.77
492.48	30380.15
492.66	30562.72
492.84	30810.81
493.01	31054.23
493.19	30597.82
493.37	30944.22
493.54	31426.37
493.72	31740.00
493.90	31920.23
494.08	32278.33
494.25	32598.98
494.43	31974.06
494.61	32617.71
494.79	32938.36
494.96	32746.44
495.14	33130.28
495.32	33649.88
495.49	33425.19
495.67	33553.92
495.85	33867.55
496.02	34300.55
496.20	34422.26
496.38	34099.26
496.55	34115.65
496.73	35283.58
496.91	35110.38
497.09	35409.96
497.26	36114.47
497.44	35508.27
497.62	35498.91
497.79	36046.59
497.97	36149.57
498.14	36095.74
498.32	36556.83
498.50	36187.02
498.67	36847.05
498.85	36910.25
499.03	37357.29
499.20	37043.66
499.38	37188.77
499.56	37605.39
499.73	37219.20
499.91	38321.59
500.08	37947.11
500.26	37837.10
500.44	38220.95
500.61	38129.67
500.79	38239.67
500.97	38284.14
501.14	38972.26
501.32	38955.88
501.49	38836.51
501.67	39089.29
501.84	39438.03
502.02	39559.73
502.20	39019.07
502.37	39756.34
502.55	39438.03
502.72	39810.17
502.90	40048.91
503.07	39725.91
503.25	40088.70
503.43	40432.75
503.60	40650.42
503.78	41015.55
503.95	40589.57
504.13	41130.23
504.30	41235.56
504.48	41263.64
504.65	41329.18
504.83	41797.29
505.01	41792.61
505.18	41549.19
505.36	42052.41
505.53	41467.27
505.71	41743.45
505.88	42319.23
506.06	41638.13
506.23	42443.27
506.41	42087.51
506.58	42747.54
506.76	42857.55
506.93	43065.86
507.11	42775.63
507.28	42672.65
507.46	43117.35
507.63	43356.08
507.81	43564.39
507.98	43320.98
508.16	43433.32
508.33	43889.73
508.50	43650.99
508.68	43863.98
508.85	44694.87
509.03	44268.89
509.20	44549.76
509.38	45038.93
509.55	44856.37
509.73	45055.31
509.90	44938.29
510.08	45031.91
510.25	45020.20
510.42	45448.52
510.60	45734.07
510.77	45720.02
510.95	45748.11
511.12	45380.65
511.30	45441.50
511.47	45792.58
511.64	46082.81
511.82	46380.06
511.99	46532.19
512.17	46621.13
512.34	46036.00
512.51	46637.51
512.69	46335.59
512.86	46740.50
513.04	47201.58
513.21	47126.69
513.38	47353.72
513.56	47409.89
513.73	47107.96
513.90	47421.59
514.08	47384.15
514.25	48023.11
514.43	47854.59
514.60	47950.56
514.77	47775.02
514.95	48032.47
515.12	47915.45
515.29	47842.89
515.47	48636.33
515.64	48769.74
515.81	48549.73
515.99	48589.52
516.16	49008.48
516.33	48736.98
516.51	49272.96
516.68	49090.40
516.85	49141.89
517.03	49378.28
517.20	49291.68
517.37	49432.11
517.54	49301.04
517.72	49514.03
517.89	49450.84
518.06	49579.57
518.24	49593.61
518.41	49324.45
518.58	49841.71
518.75	49741.06
518.93	49860.43
519.10	50071.08
519.27	49883.84
519.45	50199.81
519.62	50131.93
519.79	50646.85
519.96	50377.69
520.14	50688.98
520.31	50375.35
520.48	50756.86
520.65	51070.49
520.83	51269.43
521.00	51124.32
521.17	51037.72
521.34	51049.42
521.52	51107.94
521.69	51285.82
521.86	51611.15
522.03	51545.62
522.20	51583.07
522.38	51760.95
522.55	51866.27
522.72	51789.03
522.89	51732.86
523.07	52128.41
523.24	51772.65
523.41	52210.33
523.58	52018.41
523.75	52198.63
523.92	52369.49
524.10	52376.51
524.27	52418.64
524.44	52280.55
524.61	52161.18
524.78	52545.03
524.96	52472.47
525.13	52699.50
525.30	52849.30
525.47	52861.00
525.64	53071.65
525.81	52853.98
525.98	53137.18
526.16	53104.41
526.33	52956.96
526.50	53256.55
526.67	53256.55
526.84	53450.81
527.01	53237.83
527.18	53174.63
527.36	53286.98
527.53	53429.75
527.70	53464.86
527.87	53745.72
528.04	53258.89
528.21	53727.00
528.38	53439.11
528.55	53743.38
528.72	53851.05
528.89	53820.62
529.07	53804.24
529.24	53717.64
529.41	53993.82
529.58	54019.56
529.75	53757.42
529.92	54061.69
530.09	54143.61
530.26	54246.60
530.43	54419.80
530.60	54106.16
530.77	54291.07
530.94	54742.79
531.11	54679.60
531.28	54546.18
531.46	54618.74
531.63	54504.06
531.80	54625.76
531.97	54824.71
532.14	54658.53
532.31	54901.95
532.48	54953.44
532.65	55002.59
532.82	54717.04
532.99	55025.99
533.16	55004.93
533.33	55243.66
533.50	54944.08
533.67	55147.70
533.84	55028.34
534.01	55229.62
534.18	55569.00
534.35	55433.25
534.52	55419.20
534.69	55454.31
534.86	55833.48
535.03	55540.91
535.20	55323.24
535.37	55765.60
535.54	55774.97
535.71	55473.04
535.88	55763.26
536.05	56100.30
536.22	55772.63
536.38	56002.00
536.55	56163.50
536.72	56039.45
536.89	55884.97
537.06	56037.11
537.23	56109.66
537.40	56296.91
537.57	56058.17
537.74	56179.88
537.91	56090.94
538.08	56259.46
538.25	56006.68
538.42	56135.41
538.59	56430.32
538.75	56222.01
538.92	56353.08
539.09	56591.81
539.26	56381.16
539.43	56580.11
539.60	56559.05
539.77	56563.73
539.94	56685.43
540.11	56549.68
540.28	56631.60
540.44	56619.90
540.61	56678.41
540.78	56690.12
540.95	56626.92
541.12	56662.03
541.29	56835.23
541.46	56683.09
541.62	56921.83
541.79	56790.76
541.96	56849.27
542.13	57013.11
542.30	57071.62
542.47	57062.26
542.63	57090.35
542.80	57144.18
542.97	57403.98
543.14	57598.24
543.31	57310.36
543.48	57584.20
543.64	57925.92
543.81	57614.63
543.98	57656.76
544.15	57801.87
544.32	57946.98
544.48	57970.39
544.65	57654.42
544.82	57659.10
544.99	57411.00
545.16	57654.42
545.32	57623.99
545.49	58059.33
545.66	58061.67
545.83	57975.07
546.00	58075.71
546.16	57970.39
546.33	57858.04
546.50	57733.99
546.67	58127.20
546.83	57717.61
547.00	58061.67
547.17	58157.63
547.34	57813.57
547.50	58351.90
547.67	58321.47
547.84	58031.24
548.00	58255.93
548.17	58768.51
548.34	58447.86
548.51	58515.73
548.67	58473.60
548.84	58370.62
549.01	58534.46
549.18	58391.68
549.34	58314.45
549.51	58578.93
549.68	58497.01
549.84	58569.57
550.01	58489.99
550.18	58539.14
550.34	58712.34
550.51	58754.47
550.68	58798.94
550.84	58705.32
551.01	58927.67
551.18	58684.25
551.34	58848.09
551.51	58855.11
551.68	58745.11
551.84	58965.12
552.01	58693.61
552.18	58974.48
552.34	58770.85
552.51	59023.63
552.68	58857.45
552.84	59002.56
553.01	59084.48
553.18	58979.16
553.34	59194.49
553.51	59056.40
553.67	59047.04
553.84	59196.83
554.01	59138.32
554.17	59166.40
554.34	59192.15
554.51	59250.66
554.67	59271.73
554.84	59248.32
555.00	59372.37
555.17	59292.79
555.33	59386.41
555.50	59370.03
555.67	59337.26
555.83	59370.03
556.00	59355.99
556.16	59770.26
556.33	59498.76
556.50	59597.06
556.66	59573.66
556.83	59475.35
556.99	59770.26
557.16	59856.86
557.32	59784.30
557.49	60142.41
557.65	59758.56
557.82	59845.16
557.98	59671.96
558.15	59730.47
558.32	59845.16
558.48	59676.64
558.65	59744.51
558.81	59674.30
558.98	59793.67
559.14	59856.86
559.31	59793.67
559.47	59990.27
559.64	60025.38
559.80	60032.40
559.97	60025.38
560.13	59859.20
560.30	60004.31
560.46	60163.47
560.63	59945.80
560.79	60058.15
560.96	60207.94
561.12	60119.00
561.29	60303.90
561.45	60214.96
561.61	60104.96
561.78	60102.62
561.94	60060.49
562.11	60144.75
562.27	60301.56
562.44	60282.84
562.60	60420.93
562.77	60350.71
562.93	60081.55
563.10	60214.96
563.26	60296.88
563.42	60404.55
563.59	60271.14
563.75	60231.35
563.92	60165.81
564.08	59999.63
564.24	60411.57
564.41	60294.54
564.57	60432.63
564.74	60282.84
564.90	60622.22
565.07	60495.83
565.23	60301.56
565.39	60226.66
565.56	60470.08
565.72	60404.55
565.88	60519.23
566.05	60523.91
566.21	60418.59
566.38	60507.53
566.54	60669.03
566.70	60587.11
566.87	60811.80
567.03	60409.23
567.19	60683.07
567.36	60718.18
567.52	60652.64
567.68	60830.52
567.85	60540.30
568.01	60889.04
568.17	60554.34
568.34	60676.05
568.50	60552.00
568.66	60617.53
568.83	60907.76
568.99	60664.35
569.15	60669.03
569.32	60612.85
569.48	60638.60
569.64	60760.31
569.81	60757.97
569.97	60563.70
570.13	60697.11
570.30	60697.11
570.46	60779.03
570.62	60842.23
570.78	60839.89
570.95	60788.39
571.11	60900.74
571.27	60720.52
571.43	60940.53
571.60	60985.00
571.76	60772.01
571.92	60860.95
572.09	60804.78
572.25	60762.65
572.41	60697.11
572.57	61036.49
572.74	61022.45
572.90	61059.90
573.06	60788.39
573.22	60736.90
573.38	61027.13
573.55	60701.79
573.71	61197.99
573.87	60956.91
574.03	60772.01
574.20	61045.85
574.36	60779.03
574.52	61006.06
574.68	60959.25
574.84	61116.07
575.01	60933.51
575.17	60973.30
575.33	61038.83
575.49	60954.57
575.65	61073.94
575.82	61303.31
575.98	61022.45
576.14	61312.67
576.30	61219.05
576.46	60816.48
576.62	60938.19
576.79	60956.91
576.95	60858.61
577.11	60961.59
577.27	61139.47
577.43	61179.26
577.59	60977.98
577.75	61071.60
577.92	60889.04
578.08	61247.14
578.24	61113.73
578.40	61230.75
578.56	61055.21
578.72	60999.04
578.88	61106.71
579.04	61221.39
579.21	60942.87
579.37	61352.46
579.53	61333.74
579.69	60837.54
579.85	61059.90
580.01	61242.46
580.17	61176.92
580.33	61282.25
580.49	61298.63
580.65	61326.72
580.82	61179.26
580.98	61123.09
581.14	61162.88
581.30	61345.44
581.46	61064.58
581.62	61324.38
581.78	60872.65
581.94	61155.86
582.10	61160.54
582.26	61181.60
582.42	61132.45
582.58	61076.28
582.74	60975.64
582.90	61090.32
583.06	61080.96
583.22	61087.98
583.38	61382.89
583.54	61212.03
583.70	61322.04
583.86	61148.84
584.02	61111.39
584.18	61387.57
584.34	61375.87
584.50	61310.33
584.66	61310.33
584.82	61015.43
584.98	61153.52
585.14	61052.87
585.30	61125.43
585.46	61268.20
585.62	61324.38
585.78	61467.15
585.94	61097.34
586.10	61413.32
586.26	61291.61
586.42	61286.93
586.58	61310.33
586.74	61286.93
586.90	61282.25
587.06	61216.71
587.22	61357.14
587.38	61237.78
587.54	61495.24
587.70	61504.60
587.86	61415.66
588.02	61282.25
588.18	61380.55
588.34	61415.66
588.49	61291.61
