SpectraSuite Data File
++++++++++++++++++++++++++++++++++++
Date: Fri Oct 25 11:25:08 EDT 2013
User: price-jones
Dark Spectrum Present: No
Reference Spectrum Present: No
Number of Sampled Component Spectra: 1
Spectrometers: USB2+H05261
Integration Time (usec): 100000 (USB2+H05261)
Spectra Averaged: 1 (USB2+H05261)
Boxcar Smoothing: 0 (USB2+H05261)
Correct for Electrical Dark: No (USB2+H05261)
Strobe/Lamp Enabled: No (USB2+H05261)
Correct for Detector Non-linearity: No (USB2+H05261)
Correct for Stray Light: No (USB2+H05261)
Number of Pixels in Processed Spectrum: 2048
>>>>>Begin Processed Spectral Data<<<<<
365.73	222.35
365.92	222.35
366.12	222.35
366.32	140.43
366.52	182.56
366.72	135.75
366.91	177.88
367.11	138.09
367.31	95.96
367.51	175.54
367.70	163.84
367.90	166.18
368.10	142.77
368.30	119.37
368.49	135.75
368.69	189.58
368.89	227.03
369.09	175.54
369.28	156.82
369.48	184.90
369.68	180.22
369.87	227.03
370.07	177.88
370.27	212.99
370.47	339.38
370.66	610.88
370.86	533.64
371.06	669.39
371.25	720.88
371.45	606.20
371.65	678.76
371.84	685.78
372.04	681.10
372.24	730.25
372.44	720.88
372.63	751.31
372.83	770.04
373.03	695.14
373.22	760.67
373.42	685.78
373.62	793.44
373.81	774.72
374.01	777.06
374.21	823.87
374.40	870.68
374.60	849.61
374.79	844.93
374.99	837.91
375.19	690.46
375.38	814.51
375.58	767.70
375.78	788.76
375.97	887.06
376.17	968.98
376.37	903.45
376.56	835.57
376.76	866.00
376.95	908.13
377.15	873.02
377.35	922.17
377.54	833.23
377.74	868.34
377.93	954.94
378.13	954.94
378.33	966.64
378.52	926.85
378.72	875.36
378.91	898.77
379.11	910.47
379.31	868.34
379.50	957.28
379.70	908.13
379.89	1050.90
380.09	1006.43
380.28	987.71
380.48	997.07
380.68	1004.09
380.87	950.26
381.07	1020.47
381.26	1020.47
381.46	983.02
381.65	1057.92
381.85	978.34
382.04	1050.90
382.24	1034.52
382.43	1004.09
382.63	1048.56
382.83	1107.07
383.02	1137.50
383.22	1090.69
383.41	999.41
383.61	1076.65
383.80	1114.10
384.00	1067.28
384.19	1172.61
384.39	1118.78
384.58	1217.08
384.78	1146.86
384.97	1071.97
385.17	1121.12
385.36	1156.22
385.56	1181.97
385.75	1074.31
385.95	1102.39
386.14	1221.76
386.34	1158.57
386.53	1203.04
386.72	1266.23
386.92	1299.00
387.11	1193.67
387.31	1172.61
387.50	1249.85
387.70	1226.44
387.89	1308.36
388.09	1303.68
388.28	1256.87
388.48	1261.55
388.67	1289.64
388.86	1306.02
389.06	1273.25
389.25	1256.87
389.45	1329.42
389.64	1341.13
389.84	1373.89
390.03	1373.89
390.22	1334.11
390.42	1303.68
390.61	1331.76
390.81	1394.96
391.00	1427.73
391.19	1488.58
391.39	1343.47
391.58	1537.73
391.78	1458.15
391.97	1418.36
392.16	1430.07
392.36	1387.94
392.55	1537.73
392.75	1547.09
392.94	1530.71
393.13	1500.28
393.33	1460.49
393.52	1638.38
393.71	1659.44
393.91	1603.27
394.10	1533.05
394.29	1542.41
394.49	1685.19
394.68	1603.27
394.88	1537.73
395.07	1629.01
395.26	1678.16
395.46	1624.33
395.65	1734.34
395.84	1610.29
396.04	1769.44
396.23	1717.95
396.42	1776.47
396.62	1795.19
396.81	1750.72
397.00	1724.97
397.19	1799.87
397.39	1785.83
397.58	1764.76
397.77	1781.15
397.97	1923.92
398.16	1724.97
398.35	1933.28
398.55	1792.85
398.74	1893.49
398.93	1982.43
399.12	1898.17
399.32	1895.83
399.51	1966.05
399.70	1912.22
399.90	1952.01
400.09	1987.11
400.28	2033.93
400.47	2047.97
400.67	2010.52
400.86	1984.77
401.05	2146.27
401.24	2066.69
401.44	2256.28
401.63	2047.97
401.82	2122.87
402.01	2111.16
402.21	2153.29
402.40	2167.34
402.59	2106.48
402.78	2099.46
402.97	2333.51
403.17	2253.94
403.36	2270.32
403.55	2165.00
403.74	2361.60
403.93	2335.85
404.13	2370.96
404.32	2375.64
404.51	2377.98
404.70	2445.86
404.89	2389.69
405.09	2417.77
405.28	2413.09
405.47	2513.74
405.66	2431.82
405.85	2459.90
406.05	2562.89
406.24	2593.31
406.43	2473.95
406.62	2677.57
406.81	2782.90
407.00	2513.74
407.20	2614.38
407.39	2509.05
407.58	2612.04
407.77	2757.15
407.96	2738.43
408.15	2684.59
408.34	2778.22
408.54	2785.24
408.73	2686.94
408.92	2810.98
409.11	2834.39
409.30	2813.32
409.49	2726.72
409.68	2878.86
409.87	2949.08
410.07	2930.35
410.26	3056.74
410.45	2932.69
410.64	3066.10
410.83	3091.85
411.02	3098.87
411.21	3211.22
411.40	3166.74
411.59	3215.90
411.78	3073.12
411.98	3286.11
412.17	3342.28
412.36	3176.11
412.55	3255.69
412.74	3487.40
412.93	3382.07
413.12	3349.31
413.31	3482.72
413.50	3428.88
413.69	3543.57
413.88	3585.70
414.07	3538.89
414.26	3482.72
414.45	3723.79
414.64	3611.45
414.83	3693.37
415.02	3669.96
415.22	3920.40
415.41	3854.86
415.60	3782.31
415.79	3913.38
415.98	3885.29
416.17	3878.27
416.36	3997.64
416.55	4007.00
416.74	4084.23
416.93	3929.76
417.12	4046.79
417.31	4011.68
417.50	3999.98
417.69	4292.54
417.88	4252.75
418.07	4184.88
418.26	4212.96
418.45	4227.01
418.64	4517.23
418.83	4465.74
419.02	4339.35
419.21	4498.51
419.39	4498.51
419.58	4379.14
419.77	4484.47
419.96	4521.92
420.15	4596.81
420.34	4753.63
420.53	4465.74
420.72	4606.17
420.91	4585.11
421.10	4718.52
421.29	4587.45
421.48	4594.47
421.67	4739.58
421.86	4744.27
422.05	4861.29
422.24	4648.30
422.43	4912.78
422.61	4856.61
422.80	4940.87
422.99	4844.91
423.18	4865.97
423.37	4978.32
423.56	4985.34
423.75	4901.08
423.94	4819.16
424.13	4629.58
424.32	4702.14
424.50	4936.19
424.69	5036.83
424.88	4966.62
425.07	4720.86
425.26	4999.38
425.45	4992.36
425.64	4924.49
425.83	4875.34
426.01	5006.41
426.20	4828.53
426.39	5006.41
426.58	5062.58
426.77	4880.02
426.96	5160.88
427.15	5125.77
427.33	5020.45
427.52	5109.39
427.71	5160.88
427.90	5294.29
428.09	5301.31
428.28	5497.92
428.46	5233.44
428.65	5268.55
428.84	5364.51
429.03	5516.64
429.22	5298.97
429.40	5509.62
429.59	5507.28
429.78	5205.35
429.97	5261.52
430.16	5399.62
430.34	5509.62
430.53	5603.24
430.72	5596.22
430.91	5617.29
431.10	5509.62
431.28	5666.44
431.47	5659.42
431.66	5774.10
431.85	5591.54
432.03	5778.78
432.22	5926.24
432.41	5935.60
432.60	5771.76
432.79	5811.55
432.97	6139.23
433.16	5940.28
433.35	5781.12
433.54	5940.28
433.72	6239.87
433.91	6097.10
434.10	5991.77
434.28	6134.54
434.47	6176.67
434.66	6223.48
434.85	6174.33
435.03	6408.39
435.22	6279.66
435.41	6565.20
435.59	6338.17
435.78	6455.20
435.97	6263.27
436.16	6520.73
436.34	6527.75
436.53	6590.95
436.72	6661.16
436.90	6370.94
437.09	6569.88
437.28	6258.59
437.46	6359.24
437.65	6581.59
437.84	6782.87
438.02	6703.29
438.21	6689.25
438.40	6761.81
438.58	6986.50
438.77	7131.61
438.96	6813.30
439.14	7159.70
439.33	7056.72
439.52	7187.79
439.70	7220.55
439.89	7400.77
440.08	7332.90
440.26	7246.30
440.45	7187.79
440.63	7314.17
440.82	7485.03
441.01	7431.20
441.19	7737.81
441.38	7595.04
441.57	7712.07
441.75	7623.12
441.94	7866.54
442.12	7875.90
442.31	7826.75
442.50	7819.73
442.68	7903.99
442.87	8091.23
443.05	8039.74
443.24	8011.65
443.43	8058.46
443.61	8313.58
443.80	8276.13
443.98	7953.14
444.17	7903.99
444.35	8189.53
444.54	8180.17
444.73	8266.77
444.91	8351.03
445.10	8196.56
445.28	8212.94
445.47	8198.90
445.65	8322.94
445.84	8315.92
446.02	8470.40
446.21	8496.14
446.39	8369.76
446.58	8545.30
446.77	8423.59
446.95	8294.86
447.14	8365.07
447.32	8627.21
447.51	8346.35
447.69	8610.83
447.88	8311.24
448.06	8435.29
448.25	8575.72
448.43	8386.14
448.62	8547.64
448.80	8503.17
448.99	8793.39
449.17	8613.17
449.36	8468.06
449.54	8795.73
449.73	8884.67
449.91	9022.77
450.10	8910.42
450.28	8903.40
450.46	9060.21
450.65	9109.36
450.83	8997.02
451.02	8936.17
451.20	9132.77
451.39	8966.59
451.57	9135.11
451.76	8891.70
451.94	9165.54
452.13	9095.32
452.31	9238.09
452.49	9046.17
452.68	9418.32
452.86	9212.35
453.05	9394.91
453.23	9235.75
453.42	9188.94
453.60	9287.25
453.78	9364.48
453.97	9380.87
454.15	9296.61
454.34	9453.42
454.52	9678.12
454.70	9652.37
454.89	9647.69
455.07	9781.10
455.26	9731.95
455.44	9804.50
455.62	9975.36
455.81	9834.93
455.99	9717.90
456.17	9935.57
456.36	10073.67
456.54	9961.32
456.73	10090.05
456.91	10305.38
457.09	10338.15
457.28	10394.32
457.46	10214.10
457.64	10555.82
457.83	10509.01
458.01	10342.83
458.19	10743.06
458.38	10483.26
458.56	10588.58
458.74	10644.76
458.93	10476.24
459.11	10813.28
459.29	10619.01
459.48	10588.58
459.66	10640.08
459.84	10581.56
460.03	11054.35
460.21	10963.07
460.39	10855.40
460.57	10775.83
460.76	10888.17
460.94	11068.39
461.12	11227.55
461.31	11145.63
461.49	10979.45
461.67	11028.60
461.85	11363.30
462.04	11269.68
462.22	11768.21
462.40	11627.78
462.59	11246.27
462.77	11405.43
462.95	11679.27
463.13	11522.46
463.32	11597.35
463.50	11550.54
463.68	11817.36
463.86	11789.28
464.05	11506.07
464.23	11728.42
464.41	12009.29
464.59	11602.04
464.78	11967.16
464.96	11950.78
465.14	11749.49
465.32	11901.62
465.50	12107.59
465.69	12056.10
465.87	11815.02
466.05	12102.91
466.23	12259.73
466.41	12149.72
466.60	12353.35
466.78	12009.29
466.96	12262.07
467.14	12327.60
467.32	12248.02
467.51	12524.21
467.69	12383.77
467.87	12362.71
468.05	12446.97
468.23	12194.19
468.41	12318.24
468.60	12423.56
468.78	12559.31
468.96	12442.29
469.14	12549.95
469.32	12697.41
469.50	12259.73
469.69	12940.82
469.87	13118.70
470.05	12858.90
470.23	13200.62
470.41	12875.29
470.59	13069.55
470.77	13132.75
470.95	13071.89
471.14	13429.99
471.32	13067.21
471.50	13429.99
471.68	13598.51
471.86	13720.22
472.04	13708.52
472.22	13799.80
472.40	13429.99
472.58	13877.04
472.77	14008.11
472.95	13762.35
473.13	14441.11
473.31	14043.21
473.49	13944.91
473.67	13944.91
473.85	14024.49
474.03	14738.35
474.21	14314.72
474.39	14455.15
474.57	14455.15
474.75	14956.02
474.93	14885.81
475.12	14792.19
475.30	15103.48
475.48	15082.41
475.66	15145.61
475.84	15152.63
476.02	15147.95
476.20	15197.10
476.38	15475.62
476.56	16011.60
476.74	16093.52
476.92	16065.44
477.10	15709.68
477.28	16259.70
477.46	16133.31
477.64	16269.06
477.82	16224.59
478.00	16833.13
478.18	16505.46
478.36	16739.51
478.54	17303.58
478.72	16905.69
478.90	17165.49
479.08	17673.39
479.26	17483.80
479.44	17378.48
479.62	17905.10
479.80	17998.72
479.98	18221.07
480.16	18497.25
480.34	17867.65
480.52	18560.45
480.70	18441.08
480.88	18450.44
481.06	18731.31
481.24	18520.66
481.41	19080.05
481.59	19190.05
481.77	19386.66
481.95	19339.85
482.13	19566.88
482.31	19534.11
482.49	20074.77
482.67	20105.20
482.85	20449.26
483.03	20486.71
483.21	20343.94
483.39	20723.10
483.57	20826.09
483.74	21106.95
483.92	21333.98
484.10	20847.15
484.28	21411.22
484.46	21848.90
484.64	22185.94
484.82	21830.18
485.00	22106.36
485.18	22490.21
485.35	22843.63
485.53	22621.28
485.71	22834.27
485.89	23323.44
486.07	22998.10
486.25	23206.41
486.43	23438.12
486.61	23957.72
486.78	24044.32
486.96	23805.59
487.14	24271.36
487.32	24261.99
487.50	24800.32
487.68	24463.28
487.85	25088.20
488.03	25385.45
488.21	25757.60
488.39	25769.30
488.57	26260.81
488.75	26195.28
488.92	26333.37
489.10	26539.33
489.28	26239.75
489.46	26806.16
489.64	26724.24
489.81	27271.92
489.99	27534.06
490.17	27501.29
490.35	27880.46
490.53	28065.36
490.70	28081.75
490.88	28133.24
491.06	28716.03
491.24	28601.35
491.41	28662.20
491.59	29083.50
491.77	29216.91
491.95	29549.26
492.13	29247.33
492.30	29647.57
492.48	30019.71
492.66	30363.77
492.84	30057.16
493.01	30405.90
493.19	30724.21
493.37	31089.34
493.54	30766.34
493.72	31278.92
493.90	31426.37
494.08	31531.70
494.25	31725.96
494.43	31945.97
494.61	32037.25
494.79	31924.91
494.96	32189.39
495.14	32746.44
495.32	32861.12
495.49	32706.65
495.67	33085.81
495.85	33296.46
496.02	33565.62
496.20	33432.21
496.38	33659.24
496.55	33806.70
496.73	34307.57
496.91	34312.25
497.09	34256.08
497.26	34302.89
497.44	34873.98
497.62	35077.61
497.79	35702.53
497.97	35157.19
498.14	35756.36
498.32	35941.27
498.50	36100.42
498.67	36086.38
498.85	36231.49
499.03	36685.56
499.20	36613.00
499.38	36652.79
499.56	36837.69
499.73	36825.99
499.91	36823.65
500.08	36975.78
500.26	36849.39
500.44	37532.83
500.61	37406.44
500.79	37596.03
500.97	38050.09
501.14	37949.45
501.32	38361.38
501.49	37916.68
501.67	38581.39
501.84	38600.12
502.02	38532.24
502.20	38890.34
502.37	38960.56
502.55	39068.22
502.72	39042.48
502.90	38866.94
503.07	38834.17
503.25	39400.58
503.43	39426.32
503.60	39849.96
503.78	40182.32
503.95	40088.70
504.13	40371.90
504.30	40381.26
504.48	40271.26
504.65	40706.60
504.83	40442.12
505.01	40942.99
505.18	40559.14
505.36	41317.48
505.53	40634.04
505.71	41287.05
505.88	41366.63
506.06	41069.38
506.23	41766.86
506.41	41624.09
506.58	41921.34
506.76	42012.62
506.93	41951.76
507.11	41797.29
507.28	42476.04
507.46	42057.09
507.63	42593.07
507.81	42745.20
507.98	42719.46
508.16	42855.21
508.33	42869.25
508.50	43161.82
508.68	43735.25
508.85	43761.00
509.03	42993.30
509.20	43412.26
509.38	44233.78
509.55	43959.94
509.73	43910.79
509.90	44231.44
510.08	44112.08
510.25	44233.78
510.42	44428.05
510.60	44484.22
510.77	44879.77
510.95	45177.02
511.12	44851.69
511.30	44797.85
511.47	45118.51
511.64	44760.40
511.82	45703.64
511.99	45785.56
512.17	45703.64
512.34	45617.04
512.51	46143.66
512.69	46066.42
512.86	45818.33
513.04	46480.70
513.21	46267.71
513.38	46274.73
513.56	46934.76
513.73	46824.76
513.90	46913.70
514.08	46857.52
514.25	46691.35
514.43	47168.82
514.60	47489.47
514.77	47075.19
514.95	47583.09
515.12	47632.24
515.29	46799.01
515.47	47559.69
515.64	47756.29
515.81	47264.78
515.99	48011.41
516.16	48163.54
516.33	47887.36
516.51	48161.20
516.68	48083.97
516.85	48032.47
517.03	48638.67
517.20	49015.50
517.37	48559.09
517.54	48706.55
517.72	48545.05
517.89	48802.51
518.06	48781.45
518.24	49097.42
518.41	48931.24
518.58	49202.74
518.75	49184.02
518.93	49308.07
519.10	49102.10
519.27	49586.59
519.45	49148.91
519.62	49804.26
519.79	49502.33
519.96	49612.34
520.14	50148.32
520.31	49720.00
520.48	50064.06
520.65	50174.06
520.83	50148.32
521.00	50696.00
521.17	50234.92
521.34	50436.20
521.52	50656.21
521.69	50550.89
521.86	50522.80
522.03	50789.62
522.20	51086.87
522.38	51241.35
522.55	51049.42
522.72	51496.47
522.89	50766.22
523.07	51306.88
523.24	51297.52
523.41	51452.00
523.58	50955.80
523.75	51196.88
523.92	51564.34
524.10	51847.55
524.27	51676.69
524.44	51810.10
524.61	51896.70
524.78	52170.54
524.96	51969.26
525.13	51819.46
525.30	51906.06
525.47	52261.82
525.64	52205.65
525.81	52200.97
525.98	52467.79
526.16	52432.68
526.33	52339.06
526.50	52718.23
526.67	52624.60
526.84	52671.42
527.01	52493.54
527.18	52835.25
527.36	52739.29
527.53	52729.93
527.70	53111.44
527.87	53036.54
528.04	52933.56
528.21	53294.00
528.38	53158.25
528.55	53422.73
528.72	53361.87
528.89	52982.71
529.07	53359.53
529.24	53240.17
529.41	53530.39
529.58	53535.07
529.75	53272.93
529.92	53654.44
530.09	53591.25
530.26	53771.47
530.43	53570.18
530.60	53251.87
530.77	53712.95
530.94	53881.47
531.11	53741.04
531.28	53947.01
531.46	53846.36
531.63	54309.79
531.80	54136.59
531.97	54316.81
532.14	54389.37
532.31	54068.72
532.48	54408.09
532.65	54363.62
532.82	54234.89
532.99	54454.90
533.16	54403.41
533.33	54733.43
533.50	54901.95
533.67	54934.71
533.84	54564.91
534.01	54808.32
534.18	54731.09
534.35	54815.35
534.52	54681.94
534.69	55065.78
534.86	54953.44
535.03	54782.58
535.20	55054.08
535.37	55058.76
535.54	55136.00
535.71	54958.12
535.88	55100.89
536.05	55201.53
536.22	55901.36
536.38	55419.20
536.55	55587.72
536.72	55288.13
536.89	55229.62
537.06	55210.90
537.23	55569.00
537.40	55519.85
537.57	55435.59
537.74	55840.50
537.91	55519.85
538.08	55838.16
538.25	55653.26
538.42	55657.94
538.59	55770.28
538.75	55767.94
538.92	55913.06
539.09	55938.80
539.26	55793.69
539.43	55737.52
539.60	55852.20
539.77	55936.46
539.94	56170.52
540.11	56104.98
540.28	56179.88
540.44	56158.81
540.61	56320.31
540.78	56240.73
540.95	56154.13
541.12	56027.74
541.29	56303.93
541.46	56245.41
541.62	56470.11
541.79	56507.55
541.96	56102.64
542.13	56329.67
542.30	56341.38
542.47	56795.44
542.63	56776.72
542.80	56643.30
542.97	56704.16
543.14	56980.34
543.31	57088.01
543.48	57088.01
543.64	57340.78
543.81	57256.53
543.98	57130.14
544.15	57207.37
544.32	57073.96
544.48	57303.34
544.65	57078.64
544.82	57305.68
544.99	57153.54
545.16	57291.63
545.32	57127.80
545.49	57504.62
545.66	57453.13
545.83	57296.31
546.00	57600.58
546.16	57209.71
546.33	57347.81
546.50	57209.71
546.67	57497.60
546.83	57160.56
547.00	57509.30
547.17	57478.88
547.34	57425.04
547.50	57939.96
547.67	57834.64
547.84	57879.11
548.00	57797.19
548.17	57977.41
548.34	57939.96
548.51	57963.37
548.67	58071.03
548.84	58138.91
549.01	57928.26
549.18	58185.72
549.34	58131.89
549.51	57965.71
549.68	58260.62
549.84	58174.02
550.01	58230.19
550.18	58103.80
550.34	58272.32
550.51	58347.21
550.68	58457.22
550.84	58073.37
551.01	58316.79
551.18	58410.41
551.34	58482.97
551.51	58459.56
551.68	58227.85
551.84	58459.56
552.01	58401.05
552.18	58398.71
552.34	58335.51
552.51	58450.20
552.68	58326.15
552.84	58660.85
553.01	58731.06
553.18	58581.27
553.34	58553.18
553.51	58581.27
553.67	58770.85
553.84	58864.47
554.01	58707.66
554.17	58901.92
554.34	58766.17
554.51	58796.60
554.67	58805.96
554.84	58644.46
555.00	58518.07
555.17	58892.56
555.33	58993.20
555.50	58883.20
555.67	58951.07
555.83	58815.32
556.00	58972.14
556.16	59175.76
556.33	58897.24
556.50	59068.10
556.66	59297.47
556.83	58829.37
556.99	59203.85
557.16	59213.21
557.32	59468.33
557.49	59561.95
557.65	59000.22
557.82	59166.40
557.98	59370.03
558.15	59363.01
558.32	59367.69
558.48	59040.01
558.65	59222.58
558.81	59295.13
558.98	59391.09
559.14	59309.18
559.31	59482.37
559.47	59547.91
559.64	59494.08
559.80	59568.97
559.97	59620.47
560.13	59309.18
560.30	59444.93
560.46	59484.72
560.63	59550.25
560.79	59671.96
560.96	59758.56
561.12	59678.98
561.29	59561.95
561.45	59629.83
561.61	59678.98
561.78	59519.82
561.94	59573.66
562.11	59721.11
562.27	59870.90
562.44	59861.54
562.60	59938.78
562.77	59793.67
562.93	59779.62
563.10	59826.43
563.26	59597.06
563.42	60135.38
563.59	59770.26
563.75	59730.47
563.92	59812.39
564.08	59880.27
564.24	60069.85
564.41	60009.00
564.57	59948.14
564.74	59957.50
564.90	60076.87
565.07	59859.20
565.23	59931.76
565.39	59758.56
565.56	60111.98
565.72	60168.15
565.88	60037.08
566.05	60093.25
566.21	60011.34
566.38	60032.40
566.54	60184.54
566.70	60025.38
566.87	60116.66
567.03	59997.29
567.19	60303.90
567.36	60123.68
567.52	60280.50
567.68	60247.73
567.85	60226.66
568.01	60320.29
568.17	60126.02
568.34	60238.37
568.50	60250.07
568.66	60130.70
568.83	60456.04
568.99	60310.92
569.15	60247.73
569.32	60264.11
569.48	60090.91
569.64	60329.65
569.81	60420.93
569.97	60179.85
570.13	60306.24
570.30	60175.17
570.46	60151.77
570.62	60416.25
570.78	60449.02
570.95	60423.27
571.11	60392.84
571.27	60250.07
571.43	60411.57
571.60	60350.71
571.76	60397.52
571.92	60369.44
572.09	60392.84
572.25	60301.56
572.41	60470.08
572.57	60495.83
572.74	60523.91
572.90	60329.65
573.06	60341.35
573.22	60367.10
573.38	60540.30
573.55	60662.00
573.71	60549.66
573.87	60566.04
574.03	60285.18
574.20	60505.19
574.36	60413.91
574.52	60526.25
574.68	60610.51
574.84	60626.90
575.01	60456.04
575.17	60397.52
575.33	60568.38
575.49	60540.30
575.65	60650.30
575.82	60697.11
575.98	60554.34
576.14	60795.42
576.30	60715.84
576.46	60568.38
576.62	60640.94
576.79	60336.67
576.95	60392.84
577.11	60727.54
577.27	60683.07
577.43	60603.49
577.59	60645.62
577.75	60577.75
577.92	60470.08
578.08	60687.75
578.24	60500.51
578.40	60800.10
578.56	60849.25
578.72	60617.53
578.88	60942.87
579.04	60926.49
579.21	60619.88
579.37	60809.46
579.53	60893.72
579.69	60512.21
579.85	60563.70
580.01	60615.19
580.17	60374.12
580.33	60856.27
580.49	60767.33
580.65	60764.99
580.82	60732.22
580.98	60559.02
581.14	60779.03
581.30	60816.48
581.46	60844.57
581.62	60603.49
581.78	60603.49
581.94	60816.48
582.10	60790.73
582.26	60514.55
582.42	60624.56
582.58	60865.63
582.74	60734.56
582.90	60853.93
583.06	60683.07
583.22	60582.43
583.38	60779.03
583.54	60898.40
583.70	60996.70
583.86	60835.20
584.02	60786.05
584.18	60797.76
584.34	60884.36
584.50	60853.93
584.66	60718.18
584.82	60669.03
584.98	60779.03
585.14	60985.00
585.30	60732.22
585.46	60970.96
585.62	60774.35
585.78	61127.77
585.94	60800.10
586.10	60783.71
586.26	60807.12
586.42	60800.10
586.58	60912.44
586.74	61095.00
586.90	60914.78
587.06	60886.70
587.22	61038.83
587.38	60905.42
587.54	61083.30
587.70	61006.06
587.86	60811.80
588.02	61001.38
588.18	61036.49
588.34	60975.64
588.49	60856.27
