SpectraSuite Data File
++++++++++++++++++++++++++++++++++++
Date: Fri Oct 25 11:25:41 EDT 2013
User: price-jones
Dark Spectrum Present: No
Reference Spectrum Present: No
Number of Sampled Component Spectra: 1
Spectrometers: USB2+H05261
Integration Time (usec): 100000 (USB2+H05261)
Spectra Averaged: 1 (USB2+H05261)
Boxcar Smoothing: 0 (USB2+H05261)
Correct for Electrical Dark: No (USB2+H05261)
Strobe/Lamp Enabled: No (USB2+H05261)
Correct for Detector Non-linearity: No (USB2+H05261)
Correct for Stray Light: No (USB2+H05261)
Number of Pixels in Processed Spectrum: 2048
>>>>>Begin Processed Spectral Data<<<<<
365.73	313.63
365.92	313.63
366.12	313.63
366.32	220.01
366.52	65.54
366.72	182.56
366.91	107.66
367.11	140.43
367.31	112.35
367.51	81.92
367.70	110.01
367.90	131.07
368.10	147.45
368.30	119.37
368.49	91.28
368.69	191.92
368.89	177.88
369.09	119.37
369.28	182.56
369.48	201.29
369.68	177.88
369.87	175.54
370.07	203.63
370.27	273.84
370.47	287.89
370.66	559.39
370.86	585.13
371.06	662.37
371.25	713.86
371.45	702.16
371.65	671.73
371.84	699.82
372.04	669.39
372.24	706.84
372.44	676.41
372.63	727.91
372.83	699.82
373.03	774.72
373.22	748.97
373.42	819.19
373.62	723.23
373.81	777.06
374.01	828.55
374.21	802.80
374.40	772.38
374.60	901.11
374.79	844.93
374.99	926.85
375.19	866.00
375.38	894.08
375.58	882.38
375.78	816.85
375.97	884.72
376.17	929.19
376.37	873.02
376.56	870.68
376.76	786.42
376.95	870.68
377.15	823.87
377.35	926.85
377.54	940.90
377.74	873.02
377.93	912.81
378.13	910.47
378.33	903.45
378.52	903.45
378.72	884.72
378.91	887.06
379.11	964.30
379.31	896.43
379.50	889.40
379.70	978.34
379.89	1053.24
380.09	980.68
380.28	1004.09
380.48	1015.79
380.68	1020.47
380.87	954.94
381.07	997.07
381.26	931.53
381.46	1006.43
381.65	1050.90
381.85	1128.14
382.04	1057.92
382.24	992.39
382.43	1074.31
382.63	1102.39
382.83	1046.22
383.02	1090.69
383.22	1132.82
383.41	1095.37
383.61	1128.14
383.80	1100.05
384.00	1046.22
384.19	1149.20
384.39	1144.52
384.58	1118.78
384.78	1121.12
384.97	1125.80
385.17	1179.63
385.36	1170.27
385.56	1203.04
385.75	1153.88
385.95	1224.10
386.14	1231.12
386.34	1191.33
386.53	1235.80
386.72	1231.12
386.92	1228.78
387.11	1203.04
387.31	1200.69
387.50	1235.80
387.70	1238.14
387.89	1287.29
388.09	1315.38
388.28	1212.40
388.48	1296.66
388.67	1299.00
388.86	1287.29
389.06	1373.89
389.25	1404.32
389.45	1331.76
389.64	1418.36
389.84	1404.32
390.03	1366.87
390.22	1446.45
390.42	1380.92
390.61	1383.26
390.81	1401.98
391.00	1385.60
391.19	1488.58
391.39	1469.86
391.58	1500.28
391.78	1369.21
391.97	1434.75
392.16	1476.88
392.36	1455.81
392.55	1397.30
392.75	1638.38
392.94	1514.33
393.13	1526.03
393.33	1486.24
393.52	1586.88
393.71	1652.42
393.91	1575.18
394.10	1598.59
394.29	1591.56
394.49	1572.84
394.68	1610.29
394.88	1610.29
395.07	1638.38
395.26	1647.74
395.46	1680.50
395.65	1713.27
395.84	1717.95
396.04	1757.74
396.23	1727.32
396.42	1668.80
396.62	1811.57
396.81	1860.73
397.00	1778.81
397.19	1743.70
397.39	1764.76
397.58	1799.87
397.77	1795.19
397.97	1713.27
398.16	1837.32
398.35	1905.20
398.55	1799.87
398.74	1818.60
398.93	1977.75
399.12	1902.86
399.32	1935.62
399.51	1902.86
399.70	1930.94
399.90	1867.75
400.09	2029.24
400.28	2087.76
400.47	1987.11
400.67	2069.03
400.86	2076.06
401.05	2094.78
401.24	2106.48
401.44	2078.40
401.63	2120.53
401.82	2150.95
402.01	2097.12
402.21	2115.84
402.40	2073.71
402.59	2172.02
402.78	2197.76
402.97	2188.40
403.17	2277.34
403.36	2347.56
403.55	2289.04
403.74	2375.64
403.93	2345.22
404.13	2483.31
404.32	2401.39
404.51	2424.80
404.70	2422.45
404.89	2399.05
405.09	2420.11
405.28	2448.20
405.47	2303.09
405.66	2558.21
405.85	2530.12
406.05	2490.33
406.24	2513.74
406.43	2530.12
406.62	2532.46
406.81	2745.45
407.00	2600.34
407.20	2513.74
407.39	2644.81
407.58	2818.00
407.77	2658.85
407.96	2754.81
408.15	2759.49
408.34	2700.98
408.54	2729.06
408.73	2745.45
408.92	2766.51
409.11	2820.35
409.30	2815.66
409.49	2925.67
409.68	3005.25
409.87	2857.79
410.07	2974.82
410.26	3035.67
410.45	2972.48
410.64	3098.87
410.83	2963.12
411.02	3005.25
411.21	3087.17
411.40	3173.77
411.59	3220.58
411.78	3122.27
411.98	3169.09
412.17	3227.60
412.36	3283.77
412.55	3391.44
412.74	3536.55
412.93	3435.91
413.12	3375.05
413.31	3513.14
413.50	3480.38
413.69	3358.67
413.88	3576.34
414.07	3648.90
414.26	3445.27
414.45	3571.66
414.64	3609.11
414.83	3583.36
415.02	3625.49
415.22	3875.93
415.41	3925.08
415.60	3955.51
415.79	4049.13
415.98	4002.32
416.17	3920.40
416.36	3892.31
416.55	3805.71
416.74	3983.59
416.93	3960.19
417.12	4058.49
417.31	4170.83
417.50	4184.88
417.69	4245.73
417.88	4194.24
418.07	4224.67
418.26	4222.33
418.45	4435.32
418.64	4395.53
418.83	4477.44
419.02	4531.28
419.21	4388.50
419.39	4437.66
419.58	4479.79
419.77	4416.59
419.96	4425.95
420.15	4449.36
420.34	4557.02
420.53	4540.64
420.72	4535.96
420.91	4657.67
421.10	4702.14
421.29	4947.89
421.48	4648.30
421.67	4657.67
421.86	4777.03
422.05	4709.16
422.24	4882.36
422.43	4936.19
422.61	4835.55
422.80	4990.02
422.99	4931.51
423.18	5020.45
423.37	5069.60
423.56	4730.22
423.75	4999.38
423.94	4765.33
424.13	4566.39
424.32	4681.07
424.50	4868.31
424.69	5095.35
424.88	5081.30
425.07	4844.91
425.26	4894.06
425.45	4884.70
425.64	5027.47
425.83	4961.94
426.01	5055.56
426.20	4973.64
426.39	5116.41
426.58	5076.62
426.77	5004.07
426.96	5172.58
427.15	5114.07
427.33	5116.41
427.52	5167.90
427.71	5233.44
427.90	5228.76
428.09	5245.14
428.28	5423.02
428.46	5322.38
428.65	5460.47
428.84	5479.19
429.03	5502.60
429.22	5317.70
429.40	5394.93
429.59	5259.18
429.78	5408.98
429.97	5266.21
430.16	5390.25
430.34	5715.59
430.53	5734.31
430.72	5561.11
430.91	5542.39
431.10	5568.13
431.28	5731.97
431.47	5841.98
431.66	5806.87
431.85	5727.29
432.03	5682.82
432.22	5891.13
432.41	5888.79
432.60	5813.89
432.79	5937.94
432.97	5994.11
433.16	5956.66
433.35	5994.11
433.54	6022.20
433.72	6113.48
433.91	6052.63
434.10	6150.93
434.28	6157.95
434.47	6064.33
434.66	6127.52
434.85	6258.59
435.03	6326.47
435.22	6256.25
435.41	6429.45
435.59	6338.17
435.78	6319.45
435.97	6373.28
436.16	6420.09
436.34	6424.77
436.53	6413.07
436.72	6766.49
436.90	6511.37
437.09	6600.31
437.28	6539.46
437.46	6733.72
437.65	6637.76
437.84	6815.64
438.02	6771.17
438.21	6619.04
438.40	6614.35
438.58	6780.53
438.77	6883.52
438.96	7023.95
439.14	7075.44
439.33	7016.93
439.52	7290.77
439.70	7199.49
439.89	7272.04
440.08	7311.83
440.26	7344.60
440.45	7162.04
440.63	7473.33
440.82	7555.25
441.01	7405.46
441.19	7267.36
441.38	7625.47
441.57	7688.66
441.75	7826.75
441.94	7885.26
442.12	7833.77
442.31	7822.07
442.50	7985.91
442.68	8065.49
442.87	7967.18
443.05	7955.48
443.24	7995.27
443.43	8182.51
443.61	8222.30
443.80	8266.77
443.98	8060.80
444.17	7925.05
444.35	8205.92
444.54	8327.63
444.73	8187.19
444.91	8322.94
445.10	8226.98
445.28	8236.35
445.47	8138.04
445.65	8505.51
445.84	8271.45
446.02	8402.52
446.21	8358.05
446.39	8196.56
446.58	8336.99
446.77	8500.83
446.95	8271.45
447.14	8479.76
447.32	8442.31
447.51	8386.14
447.69	8489.12
447.88	8435.29
448.06	8458.70
448.25	8629.56
448.43	8603.81
448.62	8528.91
448.80	8608.49
448.99	8716.16
449.17	8601.47
449.36	8641.26
449.54	8891.70
449.73	8922.12
449.91	8879.99
450.10	8762.97
450.28	9055.53
450.46	8929.14
450.65	8777.01
450.83	9034.47
451.02	8767.65
451.20	9114.05
451.39	9013.40
451.57	8894.04
451.76	9135.11
451.94	9188.94
452.13	9247.46
452.31	9455.76
452.49	9107.02
452.68	9343.42
452.86	9308.31
453.05	9682.80
453.23	9497.89
453.42	9287.25
453.60	9109.36
453.78	9472.15
453.97	9329.38
454.15	9322.35
454.34	9289.59
454.52	9469.81
454.70	9593.86
454.89	9502.58
455.07	9848.97
455.26	9867.70
455.44	9853.66
455.62	9914.51
455.81	9813.87
455.99	9778.76
456.17	10162.61
456.36	10136.86
456.54	10054.94
456.73	10033.88
456.91	10267.93
457.09	10422.41
457.28	10644.76
457.46	10387.30
457.64	10373.25
457.83	10574.54
458.01	10249.21
458.19	10820.30
458.38	10340.49
458.56	10761.78
458.74	10616.67
458.93	10745.40
459.11	10665.82
459.29	10714.97
459.48	10794.55
459.66	10647.10
459.84	10890.51
460.03	10937.32
460.21	11037.97
460.39	11007.54
460.57	11012.22
460.76	11094.14
460.94	11253.30
461.12	11351.60
461.31	11037.97
461.49	11119.89
461.67	11281.38
461.85	11637.14
462.04	11382.03
462.22	11740.13
462.40	11440.54
462.59	11337.56
462.77	11234.57
462.95	11517.78
463.13	11262.66
463.32	11449.90
463.50	11688.64
463.68	11662.89
463.86	11894.60
464.05	11365.64
464.23	11803.32
464.41	11857.15
464.59	11613.74
464.78	12219.94
464.96	12006.95
465.14	11735.45
465.32	11967.16
465.50	12070.14
465.69	12095.89
465.87	12011.63
466.05	12093.55
466.23	12133.34
466.41	12013.97
466.60	12432.93
466.78	12100.57
466.96	12107.59
467.14	12329.94
467.32	12343.99
467.51	12725.49
467.69	12142.70
467.87	12219.94
468.05	12418.88
468.23	12512.50
468.41	12348.67
468.60	12650.60
468.78	12823.80
468.96	12760.60
469.14	12734.85
469.32	12872.95
469.50	12486.76
469.69	12931.46
469.87	13291.90
470.05	12868.27
470.23	13181.90
470.41	13268.50
470.59	13371.48
470.77	12741.88
470.95	13048.49
471.14	13303.60
471.32	13177.22
471.50	13518.93
471.68	13500.21
471.86	13605.53
472.04	13432.33
472.22	13940.23
472.40	13720.22
472.58	13619.58
472.77	13830.23
472.95	14153.22
473.13	14534.73
473.31	13797.46
473.49	14260.88
473.67	13996.40
473.85	14267.91
474.03	14506.64
474.21	14595.58
474.39	14682.18
474.57	14668.14
474.75	14799.21
474.93	14815.59
475.12	14813.25
475.30	14836.66
475.48	14977.09
475.66	15154.97
475.84	15042.62
476.02	15218.16
476.20	15330.51
476.38	15695.63
476.56	16063.10
476.74	15499.03
476.92	15915.64
477.10	15709.68
477.28	16290.13
477.46	16098.20
477.64	16067.78
477.82	16723.13
478.00	16805.05
478.18	16861.22
478.36	16769.94
478.54	17144.42
478.72	17071.87
478.90	17565.72
479.08	17556.36
479.26	17664.02
479.44	17764.67
479.62	17949.57
479.80	18026.81
479.98	17963.61
480.16	18567.47
480.34	18181.28
480.52	18490.23
480.70	18551.09
480.88	18253.84
481.06	18513.64
481.24	18611.94
481.41	18710.24
481.59	19190.05
481.77	19417.08
481.95	19225.16
482.13	19775.19
482.31	19709.65
482.49	20119.24
482.67	19997.54
482.85	20355.64
483.03	20444.58
483.21	20552.24
483.39	20723.10
483.57	20702.04
483.74	21228.66
483.92	21280.15
484.10	21034.39
484.28	21553.99
484.46	21958.91
484.64	22309.99
484.82	21722.51
485.00	22340.41
485.18	22604.89
485.35	22684.47
485.53	22555.74
485.71	22944.27
485.89	23599.62
486.07	23227.48
486.25	23201.73
486.43	23660.48
486.61	23494.30
486.78	24044.32
486.96	24313.48
487.14	24617.75
487.32	24498.39
487.50	24755.85
487.68	25111.61
487.85	25149.06
488.03	25270.76
488.21	25472.05
488.39	25584.40
488.57	25652.27
488.75	26040.80
488.92	26190.59
489.10	26864.67
489.28	26590.83
489.46	27157.24
489.64	26639.98
489.81	27807.90
489.99	27262.56
490.17	27613.64
490.35	27934.29
490.53	27922.59
490.70	28306.44
490.88	27927.27
491.06	28613.05
491.24	28985.19
491.41	29041.37
491.59	28940.72
491.77	29076.48
491.95	29378.40
492.13	29542.24
492.30	29544.58
492.48	29841.83
492.66	30139.08
492.84	30471.43
493.01	30616.55
493.19	30476.12
493.37	30565.06
493.54	31103.38
493.72	31049.55
493.90	31241.47
494.08	31777.45
494.25	31634.68
494.43	32151.94
494.61	32105.13
494.79	32170.66
494.96	32332.16
495.14	32905.59
495.32	32788.56
495.49	32994.53
495.67	33048.36
495.85	33570.30
496.02	33666.27
496.20	33736.48
496.38	33993.94
496.55	33795.00
496.73	34976.97
496.91	34440.98
497.09	34394.17
497.26	34937.18
497.44	34328.64
497.62	35234.42
497.79	35260.17
497.97	35414.65
498.14	35646.36
498.32	36201.07
498.50	36102.76
498.67	35768.07
498.85	36477.25
499.03	36517.04
499.20	36746.41
499.38	36608.32
499.56	36900.89
499.73	36833.01
499.91	37141.96
500.08	37605.39
500.26	37258.99
500.44	37212.18
500.61	37837.10
500.79	37869.87
500.97	37689.65
501.14	38314.57
501.32	38272.44
501.49	38237.33
501.67	38621.18
501.84	38817.78
502.02	38356.70
502.20	39161.84
502.37	39550.37
502.55	38707.78
502.72	38930.13
502.90	39395.90
503.07	39447.39
503.25	39679.10
503.43	39505.90
503.60	39901.45
503.78	39847.62
503.95	40367.22
504.13	40240.83
504.30	40060.61
504.48	40233.81
504.65	40666.81
504.83	40964.06
505.01	40942.99
505.18	40914.90
505.36	41441.53
505.53	40933.63
505.71	41200.45
505.88	41549.19
506.06	41251.94
506.23	41715.37
506.41	42007.94
506.58	42218.58
506.76	41780.90
506.93	42234.97
507.11	42232.63
507.28	42031.34
507.46	42447.96
507.63	42567.32
507.81	42796.70
507.98	42466.68
508.16	42906.70
508.33	43658.01
508.50	43040.11
508.68	43545.67
508.85	43538.65
509.03	43718.87
509.20	43758.66
509.38	44184.63
509.55	44336.77
509.73	44144.84
509.90	44638.70
510.08	44196.34
510.25	44381.24
510.42	44598.91
510.60	44924.24
510.77	45249.58
510.95	45574.91
511.12	45036.59
511.30	44870.41
511.47	45027.23
511.64	45233.19
511.82	45415.76
511.99	45640.45
512.17	45359.58
512.34	45897.91
512.51	46122.60
512.69	46127.28
512.86	46204.52
513.04	46583.68
513.21	46630.49
513.38	46604.75
513.56	46513.47
513.73	46527.51
513.90	46791.99
514.08	46328.56
514.25	47309.25
514.43	47082.22
514.60	47306.91
514.77	47192.22
514.95	47594.79
515.12	47229.67
515.29	47199.24
515.47	47452.02
515.64	48027.79
515.81	47540.96
515.99	48311.00
516.16	48224.40
516.33	47819.49
516.51	48528.67
516.68	48554.41
516.85	48112.05
517.03	48308.66
517.20	48559.09
517.37	48444.41
517.54	48673.78
517.72	48694.85
517.89	48816.55
518.06	48942.94
518.24	49006.14
518.41	49319.77
518.58	49427.43
518.75	49139.55
518.93	49544.46
519.10	49095.08
519.27	49544.46
519.45	49574.89
519.62	49752.77
519.79	49619.36
519.96	49820.64
520.14	50099.17
520.31	50141.30
520.48	49977.46
520.65	49876.82
520.83	50342.58
521.00	50726.43
521.17	50354.29
521.34	50740.47
521.52	50595.36
521.69	50658.56
521.86	50740.47
522.03	51028.36
522.20	50958.14
522.38	51236.67
522.55	51393.48
522.72	51140.71
522.89	51241.35
523.07	51583.07
523.24	51470.72
523.41	51688.39
523.58	51657.96
523.75	51721.16
523.92	51494.13
524.10	51643.92
524.27	51526.89
524.44	51903.72
524.61	51985.64
524.78	52093.30
524.96	51889.68
525.13	52032.45
525.30	52334.38
525.47	52299.27
525.64	52327.36
525.81	52289.91
525.98	52547.37
526.16	52619.92
526.33	52552.05
526.50	52542.69
526.67	52718.23
526.84	52687.80
527.01	52594.18
527.18	52652.69
527.36	52538.01
527.53	53017.82
527.70	53279.96
527.87	53352.51
528.04	53036.54
528.21	53141.86
528.38	53207.40
528.55	53338.47
528.72	53165.27
528.89	53301.02
529.07	53169.95
529.24	53160.59
529.41	53464.86
529.58	53549.12
529.75	53474.22
529.92	53558.48
530.09	53963.39
530.26	53584.22
530.43	53682.53
530.60	53708.27
530.77	53727.00
530.94	53879.13
531.11	54031.27
531.28	53939.99
531.46	54281.70
531.63	54138.93
531.80	53879.13
531.97	54251.28
532.14	54181.06
532.31	54429.16
532.48	54361.28
532.65	54445.54
532.82	54326.17
532.99	54658.53
533.16	54408.09
533.33	54583.63
533.50	54602.36
533.67	54574.27
533.84	54639.81
534.01	54677.25
534.18	54656.19
534.35	55313.88
534.52	55042.38
534.69	55124.30
534.86	55107.91
535.03	54794.28
535.20	55112.59
535.37	55260.05
535.54	55388.78
535.71	55068.12
535.88	55395.80
536.05	55161.75
536.22	55203.88
536.38	55444.95
536.55	55510.49
536.72	55620.49
536.89	55470.70
537.06	55405.16
537.23	55386.44
537.40	55398.14
537.57	55583.04
537.74	55594.74
537.91	55760.92
538.08	55615.81
538.25	55646.24
538.42	55758.58
538.59	56203.28
538.75	55440.27
538.92	55945.83
539.09	56053.49
539.26	55992.64
539.43	55824.12
539.60	56170.52
539.77	56104.98
539.94	56477.13
540.11	56264.14
540.28	56371.80
540.44	56315.63
540.61	56191.58
540.78	56233.71
540.95	56287.54
541.12	56374.14
541.29	56121.37
541.46	56299.25
541.62	56240.73
541.79	56669.05
541.96	56114.34
542.13	56388.19
542.30	56608.20
542.47	56699.48
542.63	56856.29
542.80	56587.13
542.97	57062.26
543.14	56999.07
543.31	57125.46
543.48	57195.67
543.64	57099.71
543.81	57261.21
543.98	57179.29
544.15	57209.71
544.32	57286.95
544.48	57401.64
544.65	57073.96
544.82	57146.52
544.99	56959.28
545.16	57207.37
545.32	57495.26
545.49	57649.74
545.66	57448.45
545.83	57378.23
546.00	57535.05
546.16	57645.05
546.33	57474.20
546.50	57261.21
546.67	57600.58
546.83	57240.14
547.00	57645.05
547.17	57450.79
547.34	57638.03
547.50	57776.12
547.67	57916.56
547.84	58120.18
548.00	57851.02
548.17	58035.92
548.34	57909.53
548.51	58181.04
548.67	58024.22
548.84	58038.26
549.01	57846.34
549.18	58225.51
549.34	58174.02
549.51	58038.26
549.68	58183.38
549.84	58047.63
550.01	58295.72
550.18	58143.59
550.34	58251.25
550.51	58340.19
550.68	58237.21
550.84	58087.42
551.01	58277.00
551.18	58152.95
551.34	58120.18
551.51	58567.23
551.68	58522.76
551.84	58585.95
552.01	58286.36
552.18	58520.41
552.34	58424.45
552.51	58522.76
552.68	58525.10
552.84	58553.18
553.01	58981.50
553.18	58614.04
553.34	58880.86
553.51	58651.48
553.67	58686.59
553.84	59037.67
554.01	58635.10
554.17	58775.53
554.34	59117.25
554.51	58862.13
554.67	58941.71
554.84	59037.67
555.00	58981.50
555.17	58892.56
555.33	59028.31
555.50	58831.71
555.67	59016.61
555.83	58962.78
556.00	59021.29
556.16	59215.55
556.33	59068.10
556.50	59178.10
556.66	59208.53
556.83	59072.78
556.99	59316.20
557.16	59283.43
557.32	59346.62
557.49	59283.43
557.65	59098.53
557.82	59274.07
557.98	59220.23
558.15	59344.28
558.32	59267.05
558.48	59262.36
558.65	59414.50
558.81	59433.22
558.98	59381.73
559.14	59313.86
559.31	59559.61
559.47	59547.91
559.64	59491.74
559.80	59334.92
559.97	59501.10
560.13	59620.47
560.30	59482.37
560.46	59473.01
560.63	59501.10
560.79	59742.17
560.96	59608.76
561.12	59620.47
561.29	59648.55
561.45	59756.22
561.61	59732.81
561.78	59669.62
561.94	59845.16
562.11	59554.93
562.27	59543.23
562.44	59901.33
562.60	60069.85
562.77	59693.02
562.93	59568.97
563.10	59985.59
563.26	59824.09
563.42	60081.55
563.59	59559.61
563.75	59910.69
563.92	59845.16
564.08	59873.24
564.24	59852.18
564.41	60051.12
564.57	59978.57
564.74	59831.11
564.90	59948.14
565.07	60030.06
565.23	60009.00
565.39	59913.03
565.56	60266.45
565.72	59887.29
565.88	59999.63
566.05	60128.36
566.21	60065.17
566.38	59952.82
566.54	60102.62
566.70	60339.01
566.87	60219.64
567.03	60074.53
567.19	60413.91
567.36	60142.41
567.52	60069.85
567.68	60278.16
567.85	60313.26
568.01	60179.85
568.17	60058.15
568.34	60320.29
568.50	59938.78
568.66	60243.05
568.83	60360.08
568.99	60133.04
569.15	60420.93
569.32	60109.64
569.48	60226.66
569.64	60441.99
569.81	60481.78
569.97	60303.90
570.13	60301.56
570.30	60271.14
570.46	60266.45
570.62	60334.33
570.78	60385.82
570.95	60287.52
571.11	60402.21
571.27	60331.99
571.43	60484.12
571.60	60460.72
571.76	60353.05
571.92	60563.70
572.09	60388.16
572.25	60477.10
572.41	60463.06
572.57	60397.52
572.74	60645.62
572.90	60406.89
573.06	60631.58
573.22	60252.41
573.38	60647.96
573.55	60299.22
573.71	60783.71
573.87	60615.19
574.03	60381.14
574.20	60626.90
574.36	60369.44
574.52	60530.93
574.68	60313.26
574.84	60743.92
575.01	60797.76
575.17	60505.19
575.33	60575.40
575.49	60350.71
575.65	60615.19
575.82	60509.87
575.98	60601.15
576.14	60802.44
576.30	60671.37
576.46	60713.50
576.62	60729.88
576.79	60739.24
576.95	60420.93
577.11	60767.33
577.27	60743.92
577.43	60701.79
577.59	60767.33
577.75	60725.20
577.92	60392.84
578.08	60608.17
578.24	60797.76
578.40	60800.10
578.56	60779.03
578.72	60786.05
578.88	60912.44
579.04	60912.44
579.21	60750.94
579.37	60800.10
579.53	60874.99
579.69	60397.52
579.85	60797.76
580.01	60547.32
580.17	60624.56
580.33	60711.16
580.49	60828.18
580.65	60725.20
580.82	60741.58
580.98	60891.38
581.14	60652.64
581.30	60844.57
581.46	60734.56
581.62	60779.03
581.78	60645.62
581.94	60774.35
582.10	60793.07
582.26	60746.26
582.42	60839.89
582.58	61008.40
582.74	60846.91
582.90	60970.96
583.06	60940.53
583.22	60669.03
583.38	60823.50
583.54	60982.66
583.70	60835.20
583.86	60924.14
584.02	60755.63
584.18	61052.87
584.34	60779.03
584.50	60851.59
584.66	60636.26
584.82	60697.11
584.98	60982.66
585.14	60837.54
585.30	60739.24
585.46	60935.85
585.62	60800.10
585.78	61015.43
585.94	60694.77
586.10	60980.32
586.26	61066.92
586.42	60809.46
586.58	60959.25
586.74	60823.50
586.90	60907.76
587.06	61022.45
587.22	61113.73
587.38	60802.44
587.54	61132.45
587.70	61076.28
587.86	61050.53
588.02	61001.38
588.18	61155.86
588.34	60835.20
588.49	60973.30
