SpectraSuite Data File
++++++++++++++++++++++++++++++++++++
Date: Fri Oct 25 11:25:22 EDT 2013
User: price-jones
Dark Spectrum Present: No
Reference Spectrum Present: No
Number of Sampled Component Spectra: 1
Spectrometers: USB2+H05261
Integration Time (usec): 100000 (USB2+H05261)
Spectra Averaged: 1 (USB2+H05261)
Boxcar Smoothing: 0 (USB2+H05261)
Correct for Electrical Dark: No (USB2+H05261)
Strobe/Lamp Enabled: No (USB2+H05261)
Correct for Detector Non-linearity: No (USB2+H05261)
Correct for Stray Light: No (USB2+H05261)
Number of Pixels in Processed Spectrum: 2048
>>>>>Begin Processed Spectral Data<<<<<
365.73	238.73
365.92	238.73
366.12	238.73
366.32	121.71
366.52	138.09
366.72	105.32
366.91	189.58
367.11	105.32
367.31	145.11
367.51	177.88
367.70	138.09
367.90	175.54
368.10	142.77
368.30	98.30
368.49	91.28
368.69	145.11
368.89	149.79
369.09	163.84
369.28	194.26
369.48	198.95
369.68	177.88
369.87	245.76
370.07	205.97
370.27	241.08
370.47	283.20
370.66	528.96
370.86	617.90
371.06	638.97
371.25	671.73
371.45	655.35
371.65	681.10
371.84	784.08
372.04	767.70
372.24	709.18
372.44	695.14
372.63	849.61
372.83	685.78
373.03	699.82
373.22	741.95
373.42	809.83
373.62	830.89
373.81	755.99
374.01	882.38
374.21	812.17
374.40	823.87
374.60	851.96
374.79	734.93
374.99	854.30
375.19	774.72
375.38	866.00
375.58	837.91
375.78	802.80
375.97	816.85
376.17	940.90
376.37	835.57
376.56	933.87
376.76	866.00
376.95	823.87
377.15	880.04
377.35	877.70
377.54	894.08
377.74	936.21
377.93	938.55
378.13	828.55
378.33	875.36
378.52	891.74
378.72	866.00
378.91	943.24
379.11	990.05
379.31	940.90
379.50	929.19
379.70	1004.09
379.89	938.55
380.09	978.34
380.28	929.19
380.48	929.19
380.68	968.98
380.87	905.79
381.07	1018.13
381.26	1011.11
381.46	1015.79
381.65	987.71
381.85	1125.80
382.04	1107.07
382.24	1095.37
382.43	1125.80
382.63	997.07
382.83	1074.31
383.02	999.41
383.22	1132.82
383.41	1132.82
383.61	1144.52
383.80	1153.88
384.00	1144.52
384.19	1053.24
384.39	1100.05
384.58	1064.94
384.78	1224.10
384.97	1231.12
385.17	1144.52
385.36	1128.14
385.56	1130.48
385.75	1137.50
385.95	1245.16
386.14	1181.97
386.34	1247.51
386.53	1188.99
386.72	1252.19
386.92	1228.78
387.11	1219.42
387.31	1153.88
387.50	1226.44
387.70	1198.35
387.89	1303.68
388.09	1233.46
388.28	1231.12
388.48	1296.66
388.67	1256.87
388.86	1336.45
389.06	1348.15
389.25	1308.36
389.45	1392.62
389.64	1313.04
389.84	1390.28
390.03	1462.83
390.22	1437.09
390.42	1366.87
390.61	1369.21
390.81	1404.32
391.00	1385.60
391.19	1383.26
391.39	1493.26
391.58	1416.02
391.78	1399.64
391.97	1486.24
392.16	1448.79
392.36	1401.98
392.55	1467.52
392.75	1551.78
392.94	1572.84
393.13	1533.05
393.33	1511.99
393.52	1462.83
393.71	1558.80
393.91	1596.25
394.10	1530.71
394.29	1561.14
394.49	1488.58
394.68	1657.10
394.88	1661.78
395.07	1703.91
395.26	1633.69
395.46	1572.84
395.65	1673.48
395.84	1596.25
396.04	1743.70
396.23	1722.63
396.42	1764.76
396.62	1722.63
396.81	1703.91
397.00	1764.76
397.19	1816.26
397.39	1802.21
397.58	1839.66
397.77	1961.37
397.97	1984.77
398.16	1827.96
398.35	1921.58
398.55	1842.00
398.74	1907.54
398.93	1963.71
399.12	1942.64
399.32	1916.90
399.51	2040.95
399.70	2052.65
399.90	2015.20
400.09	1975.41
400.28	2033.93
400.47	2069.03
400.67	2010.52
400.86	2122.87
401.05	2003.50
401.24	2104.14
401.44	2162.66
401.63	2228.19
401.82	2083.08
402.01	2186.06
402.21	2141.59
402.40	2120.53
402.59	2066.69
402.78	2139.25
402.97	2253.94
403.17	2277.34
403.36	2286.70
403.55	2279.68
403.74	2338.20
403.93	2321.81
404.13	2331.17
404.32	2361.60
404.51	2277.34
404.70	2363.94
404.89	2385.01
405.09	2497.35
405.28	2485.65
405.47	2410.75
405.66	2408.41
405.85	2614.38
406.05	2497.35
406.24	2649.49
406.43	2635.44
406.62	2658.85
406.81	2675.23
407.00	2590.97
407.20	2633.10
407.39	2656.51
407.58	2525.44
407.77	2633.10
407.96	2796.94
408.15	2684.59
408.34	2560.55
408.54	2939.71
408.73	2846.09
408.92	2731.41
409.11	2874.18
409.30	2848.43
409.49	2832.05
409.68	2867.16
409.87	2972.48
410.07	2899.92
410.26	2942.05
410.45	3012.27
410.64	2974.82
410.83	3019.29
411.02	3073.12
411.21	3248.66
411.40	3112.91
411.59	3290.79
411.78	3136.32
411.98	3236.96
412.17	3293.13
412.36	3372.71
412.55	3302.50
412.74	3410.16
412.93	3328.24
413.12	3414.84
413.31	3571.66
413.50	3492.08
413.69	3571.66
413.88	3520.17
414.07	3442.93
414.26	3660.60
414.45	3588.04
414.64	3538.89
414.83	3751.88
415.02	3815.07
415.22	3801.03
415.41	3831.46
415.60	3831.46
415.79	3892.31
415.98	3892.31
416.17	3964.87
416.36	4002.32
416.55	3964.87
416.74	4131.05
416.93	4060.83
417.12	4121.68
417.31	4280.84
417.50	4035.08
417.69	4411.91
417.88	4280.84
418.07	4170.83
418.26	4208.28
418.45	4390.84
418.64	4538.30
418.83	4353.40
419.02	4414.25
419.21	4430.63
419.39	4578.09
419.58	4280.84
419.77	4404.89
419.96	4561.70
420.15	4486.81
420.34	4594.47
420.53	4713.84
420.72	4589.79
420.91	4620.22
421.10	4695.11
421.29	4880.02
421.48	4608.51
421.67	4594.47
421.86	4746.61
422.05	4856.61
422.24	4847.25
422.43	4737.24
422.61	4772.35
422.80	4887.04
422.99	4961.94
423.18	4667.03
423.37	4889.38
423.56	4779.37
423.75	4830.87
423.94	4788.74
424.13	4615.54
424.32	4695.11
424.50	5008.75
424.69	4947.89
424.88	5088.32
425.07	5001.72
425.26	4854.27
425.45	4908.10
425.64	4922.15
425.83	4887.04
426.01	5123.43
426.20	5013.43
426.39	4980.66
426.58	5053.22
426.77	4931.51
426.96	4999.38
427.15	5083.64
427.33	5130.45
427.52	5125.77
427.71	5270.89
427.90	5252.16
428.09	5275.57
428.28	5334.08
428.46	5392.59
428.65	5233.44
428.84	5371.53
429.03	5425.36
429.22	5324.72
429.40	5317.70
429.59	5334.08
429.78	5259.18
429.97	5088.32
430.16	5446.43
430.34	5535.37
430.53	5680.48
430.72	5600.90
430.91	5575.16
431.10	5467.49
431.28	5792.83
431.47	5797.51
431.66	5743.67
431.85	5734.31
432.03	5891.13
432.22	6001.13
432.41	5898.15
432.60	5830.27
432.79	5767.08
432.97	5902.83
433.16	5968.37
433.35	5872.40
433.54	5982.41
433.72	6080.71
433.91	5998.79
434.10	5905.17
434.28	6183.70
434.47	6197.74
434.66	6314.77
434.85	6274.98
435.03	6146.25
435.22	6214.12
435.41	6363.92
435.59	6345.19
435.78	6300.72
435.97	6476.26
436.16	6246.89
436.34	6370.94
436.53	6530.09
436.72	6689.25
436.90	6565.20
437.09	6686.91
437.28	6443.49
437.46	6693.93
437.65	6691.59
437.84	6757.13
438.02	6853.09
438.21	6897.56
438.40	6583.93
438.58	6817.98
438.77	7019.27
438.96	7049.69
439.14	7054.37
439.33	7162.04
439.52	7136.29
439.70	7241.62
439.89	7152.68
440.08	7309.49
440.26	7185.44
440.45	7194.81
440.63	7332.90
440.82	7648.87
441.01	7531.84
441.19	7754.19
441.38	7398.43
441.57	7702.70
441.75	7922.71
441.94	8011.65
442.12	7705.04
442.31	7950.80
442.50	7957.82
442.68	7934.42
442.87	8032.72
443.05	7845.48
443.24	8067.83
443.43	8004.63
443.61	8152.09
443.80	8372.10
443.98	7960.16
444.17	7941.44
444.35	8109.96
444.54	8313.58
444.73	8196.56
444.91	8231.66
445.10	8241.03
445.28	8264.43
445.47	8140.38
445.65	8287.84
445.84	8365.07
446.02	8477.42
446.21	8393.16
446.39	8318.26
446.58	8372.10
446.77	8395.50
446.95	8311.24
447.14	8217.62
447.32	8573.38
447.51	8491.46
447.69	8297.20
447.88	8489.12
448.06	8294.86
448.25	8514.87
448.43	8624.87
448.62	8571.04
448.80	8667.00
448.99	8557.00
449.17	8795.73
449.36	8730.20
449.54	8879.99
449.73	8830.84
449.91	8842.54
450.10	8959.57
450.28	9046.17
450.46	8961.91
450.65	8835.52
450.83	9032.13
451.02	9097.66
451.20	9188.94
451.39	9116.39
451.57	9231.07
451.76	8961.91
451.94	9121.07
452.13	9401.93
452.31	9186.60
452.49	9100.00
452.68	9301.29
452.86	9383.21
453.05	9376.19
453.23	9420.66
453.42	9427.68
453.60	9186.60
453.78	9542.36
453.97	9362.14
454.15	9336.40
454.34	9483.85
454.52	9804.50
454.70	9476.83
454.89	9577.47
455.07	9631.30
455.26	9774.08
455.44	9799.82
455.62	9898.13
455.81	9671.09
455.99	9886.42
456.17	9961.32
456.36	9942.60
456.54	9928.55
456.73	10171.97
456.91	10270.27
457.09	10429.43
457.28	10349.85
457.46	10200.05
457.64	10537.09
457.83	10459.85
458.01	10214.10
458.19	10663.48
458.38	10401.34
458.56	10698.59
458.74	10810.93
458.93	10539.43
459.11	10871.79
459.29	10848.38
459.48	10714.97
459.66	10644.76
459.84	10789.87
460.03	11028.60
460.21	11129.25
460.39	10904.56
460.57	11028.60
460.76	11227.55
460.94	11077.76
461.12	11115.20
461.31	11091.80
461.49	11218.19
461.67	11190.10
461.85	11070.73
462.04	11082.44
462.22	11887.58
462.40	11548.20
462.59	11410.11
462.77	11510.75
462.95	11552.88
463.13	11480.33
463.32	11695.66
463.50	11637.14
463.68	11805.66
463.86	11915.67
464.05	11662.89
464.23	11728.42
464.41	11988.22
464.59	11527.14
464.78	11871.20
464.96	12126.32
465.14	11782.26
465.32	12009.29
465.50	12191.85
465.69	12131.00
465.87	12388.46
466.05	12004.61
466.23	12081.85
466.41	12217.60
466.60	12568.68
466.78	11981.20
466.96	12060.78
467.14	12276.11
467.32	12102.91
467.51	12444.63
467.69	12327.60
467.87	12449.31
468.05	12650.60
468.23	12156.74
468.41	12444.63
468.60	12545.27
468.78	12828.48
468.96	12526.55
469.14	12535.91
469.32	12816.77
469.50	12769.96
469.69	12980.61
469.87	13043.81
470.05	12936.14
470.23	13174.88
470.41	13090.62
470.59	13135.09
470.77	13270.84
470.95	12994.65
471.14	13322.33
471.32	13345.73
471.50	13554.04
471.68	13338.71
471.86	13642.98
472.04	13591.49
472.22	14090.02
472.40	13486.17
472.58	13729.58
472.77	13916.83
472.95	14066.62
473.13	14675.16
473.31	14090.02
473.49	14127.47
473.67	14120.45
473.85	14438.76
474.03	14555.79
474.21	14518.34
474.39	14808.57
474.57	14558.13
474.75	14588.56
474.93	14717.29
475.12	14916.23
475.30	15005.17
475.48	15073.05
475.66	15267.31
475.84	15070.71
476.02	15201.78
476.20	15520.09
476.38	15466.26
476.56	15690.95
476.74	15798.62
476.92	15573.92
477.10	15833.72
477.28	15896.92
477.46	15915.64
477.64	16081.82
477.82	16393.11
478.00	16940.80
478.18	16830.79
478.36	16893.99
478.54	17221.66
478.72	17167.83
478.90	17142.08
479.08	17277.83
479.26	17717.86
479.44	17617.21
479.62	17668.70
479.80	18001.06
479.98	17951.91
480.16	18499.59
480.34	18274.90
480.52	18380.23
480.70	18558.11
480.88	18106.38
481.06	18647.05
481.24	18300.65
481.41	19012.17
481.59	19075.37
481.77	19253.25
481.95	19468.58
482.13	19491.98
482.31	19398.36
482.49	20177.76
482.67	20020.94
482.85	20114.56
483.03	20496.07
483.21	20821.41
483.39	20889.28
483.57	20636.50
483.74	21088.23
483.92	21153.76
484.10	21060.14
484.28	21654.64
484.46	21949.54
484.64	22359.14
484.82	21766.98
485.00	22305.31
485.18	22614.26
485.35	22885.76
485.53	22647.02
485.71	22799.16
485.89	23442.81
486.07	23358.55
486.25	23112.79
486.43	23501.32
486.61	23889.85
486.78	23871.12
486.96	23805.59
487.14	24489.03
487.32	24596.69
487.50	24877.55
487.68	24737.12
487.85	25200.55
488.03	25209.91
488.21	25687.38
488.39	25411.20
488.57	25647.59
488.75	26113.36
488.92	26214.00
489.10	26553.38
489.28	26520.61
489.46	26946.59
489.64	26867.01
489.81	27367.88
489.99	27314.05
490.17	27864.08
490.35	28154.30
490.53	27695.56
490.70	28243.24
490.88	28037.28
491.06	28636.45
491.24	28833.06
491.41	29146.69
491.59	29481.39
491.77	29057.75
491.95	29425.22
492.13	29799.70
492.30	29783.32
492.48	30188.23
492.66	30485.48
492.84	30382.49
493.01	30579.10
493.19	30403.56
493.37	30518.25
493.54	30775.70
493.72	31285.94
493.90	31428.71
494.08	31644.04
494.25	31908.52
494.43	31749.37
494.61	32102.79
494.79	32275.99
494.96	32575.58
495.14	32725.37
495.32	32849.42
495.49	32807.29
495.67	33373.70
495.85	33434.55
496.02	33874.57
496.20	34089.90
496.38	33373.70
496.55	33596.05
496.73	34660.99
496.91	34480.77
497.09	34415.24
497.26	34607.16
497.44	34700.78
497.62	34792.06
497.79	35548.06
497.97	35477.84
498.14	35765.73
498.32	36004.46
498.50	35831.26
498.67	36346.18
498.85	36081.70
499.03	36430.44
499.20	36769.82
499.38	36847.05
499.56	37383.04
499.73	37350.27
499.91	36795.56
500.08	37350.27
500.26	36971.10
500.44	37600.71
500.61	37853.48
500.79	37268.35
500.97	38120.31
501.14	38288.82
501.32	38333.29
501.49	38298.19
501.67	38234.99
501.84	38698.42
502.02	38515.86
502.20	38988.64
502.37	39290.57
502.55	38822.47
502.72	39037.80
502.90	39119.71
503.07	38960.56
503.25	39571.44
503.43	39838.26
503.60	39842.94
503.78	39929.54
503.95	40069.97
504.13	39927.20
504.30	40030.18
504.48	40390.62
504.65	40704.26
504.83	40545.10
505.01	40938.31
505.18	40701.92
505.36	41282.37
505.53	41273.01
505.71	41319.82
505.88	41598.34
506.06	40971.08
506.23	41689.62
506.41	41881.55
506.58	41549.19
506.76	41926.02
506.93	41872.18
507.11	42087.51
507.28	42576.69
507.46	42541.58
507.63	42761.59
507.81	43168.84
507.98	42827.12
508.16	42817.76
508.33	43206.29
508.50	43533.96
508.68	43203.95
508.85	43643.97
509.03	43449.70
509.20	44016.11
509.38	43686.10
509.55	44203.36
509.73	44332.09
509.90	44112.08
510.08	43957.60
510.25	44259.53
510.42	44456.14
510.60	44973.39
510.77	44678.49
510.95	45478.95
511.12	44734.66
511.30	45373.63
511.47	45633.42
511.64	45511.72
511.82	45303.41
511.99	45272.98
512.17	45626.40
512.34	45858.12
512.51	46103.87
512.69	46110.89
512.86	45827.69
513.04	46368.35
513.21	46611.77
513.38	46600.07
513.56	46391.76
513.73	46323.88
513.90	46843.48
514.08	46625.81
514.25	46944.12
514.43	47152.43
514.60	47430.96
514.77	47063.49
514.95	47945.87
515.12	47433.30
515.29	47445.00
515.47	47711.82
515.64	48072.26
515.81	47665.01
515.99	47681.39
516.16	48268.87
516.33	48392.92
516.51	48402.28
516.68	48144.82
516.85	48282.91
517.03	48804.85
517.20	48851.66
517.37	48886.77
517.54	48641.01
517.72	48676.12
517.89	49155.93
518.06	49160.61
518.24	49106.78
518.41	48919.54
518.58	49399.35
518.75	49223.81
518.93	49691.91
519.10	49357.22
519.27	49481.27
519.45	49549.14
519.62	49172.31
519.79	49972.78
519.96	49652.12
520.14	49853.41
520.31	50405.78
520.48	50246.62
520.65	49935.33
520.83	50127.25
521.00	50721.75
521.17	50513.44
521.34	50438.54
521.52	50658.56
521.69	50415.14
521.86	50962.82
522.03	51058.79
522.20	51402.85
522.38	51063.47
522.55	51456.68
522.72	51157.09
522.89	50951.12
523.07	51257.73
523.24	51466.04
523.41	51531.57
523.58	50887.93
523.75	51798.40
523.92	51540.94
524.10	51875.63
524.27	51922.44
524.44	51973.94
524.61	52184.58
524.78	51803.08
524.96	51758.61
525.13	51945.85
525.30	52198.63
525.47	52463.11
525.64	52456.09
525.81	52755.68
525.98	52669.08
526.16	52566.09
526.33	52308.63
526.50	52666.73
526.67	52622.26
526.84	52596.52
527.01	53186.33
527.18	52781.42
527.36	52776.74
527.53	52938.24
527.70	53127.82
527.87	53270.59
528.04	53146.54
528.21	53401.66
528.38	53162.93
528.55	53429.75
528.72	53059.94
528.89	53429.75
529.07	53174.63
529.24	53394.64
529.41	53666.14
529.58	53624.01
529.75	53305.70
529.92	53645.08
530.09	53773.81
530.26	53837.00
530.43	53712.95
530.60	53858.07
530.77	53577.20
530.94	53872.11
531.11	53797.21
531.28	53954.03
531.46	54108.50
531.63	54089.78
531.80	54267.66
531.97	54148.29
532.14	54178.72
532.31	54103.82
532.48	54323.83
532.65	54621.08
532.82	54309.79
532.99	54635.13
533.16	54478.31
533.33	54759.17
533.50	54756.83
533.67	54672.57
533.84	54670.23
534.01	54859.82
534.18	54890.24
534.35	54983.86
534.52	55030.68
534.69	55000.25
534.86	54958.12
535.03	54927.69
535.20	54890.24
535.37	55236.64
535.54	55402.82
535.71	55229.62
535.88	55440.27
536.05	55086.85
536.22	55348.99
536.38	55554.96
536.55	55414.52
536.72	55426.23
536.89	55517.51
537.06	55229.62
537.23	55608.79
537.40	55047.06
537.57	55522.19
537.74	55611.13
537.91	55868.59
538.08	55906.04
538.25	55639.22
538.42	55639.22
538.59	55744.54
538.75	55793.69
538.92	55992.64
539.09	55985.61
539.26	55906.04
539.43	56158.81
539.60	56224.35
539.77	56016.04
539.94	56027.74
540.11	56086.26
540.28	56439.68
540.44	56182.22
540.61	56388.19
540.78	56119.02
540.95	56229.03
541.12	56224.35
541.29	55950.51
541.46	56453.72
541.62	56556.70
541.79	56367.12
541.96	56264.14
542.13	56498.19
542.30	56671.39
542.47	56722.88
542.63	56736.93
542.80	56776.72
542.97	56889.06
543.14	57080.98
543.31	57073.96
543.48	56973.32
543.64	57251.84
543.81	57230.78
543.98	57230.78
544.15	57317.38
544.32	57401.64
544.48	57420.36
544.65	57401.64
544.82	57432.07
544.99	57207.37
545.16	57329.08
545.32	57272.91
545.49	57574.84
545.66	57668.46
545.83	57277.59
546.00	57551.43
546.16	57396.96
546.33	57244.82
546.50	57305.68
546.67	57710.59
546.83	57258.87
547.00	57616.97
547.17	57731.65
547.34	57696.55
547.50	57907.19
547.67	57818.25
547.84	57862.72
548.00	57832.30
548.17	58195.08
548.34	57970.39
548.51	58220.83
548.67	58199.76
548.84	57963.37
549.01	57942.30
549.18	58021.88
549.34	58033.58
549.51	58113.16
549.68	58052.31
549.84	58148.27
550.01	58351.90
550.18	58206.78
550.34	58274.66
550.51	58323.81
550.68	58064.01
550.84	58209.12
551.01	58370.62
551.18	58372.96
551.34	58213.80
551.51	58452.54
551.68	58387.00
551.84	58417.43
552.01	58468.92
552.18	58466.58
552.34	58230.19
552.51	58670.21
552.68	58398.71
552.84	58508.71
553.01	58731.06
553.18	58656.17
553.34	58944.05
553.51	58827.02
553.67	58667.87
553.84	58939.37
554.01	58724.04
554.17	58763.83
554.34	58955.75
554.51	58990.86
554.67	58845.75
554.84	58885.54
555.00	58789.58
555.17	59061.08
555.33	59018.95
555.50	58784.90
555.67	58937.03
555.83	58934.69
556.00	58843.41
556.16	59264.70
556.33	58948.73
556.50	59021.29
556.66	59203.85
556.83	59000.22
556.99	59262.36
557.16	59421.52
557.32	59524.50
557.49	59444.93
557.65	59306.83
557.82	59358.33
557.98	59421.52
558.15	59199.17
558.32	59231.94
558.48	59126.61
558.65	59353.65
558.81	59292.79
558.98	59353.65
559.14	59351.30
559.31	59470.67
559.47	59601.74
559.64	59648.55
559.80	59559.61
559.97	59760.90
560.13	59458.97
560.30	59531.53
560.46	59639.19
560.63	59760.90
560.79	59765.58
560.96	59735.15
561.12	59554.93
561.29	59702.38
561.45	59817.07
561.61	59580.68
561.78	59739.83
561.94	59664.94
562.11	59770.26
562.27	59863.88
562.44	59898.99
562.60	60020.70
562.77	60062.83
562.93	59980.91
563.10	59913.03
563.26	59667.28
563.42	60083.89
563.59	59983.25
563.75	59627.49
563.92	59693.02
564.08	59828.77
564.24	60079.21
564.41	60079.21
564.57	60009.00
564.74	59976.23
564.90	60001.97
565.07	59959.84
565.23	60030.06
565.39	60114.32
565.56	60053.47
565.72	59959.84
565.88	60158.79
566.05	59985.59
566.21	60044.10
566.38	60109.64
566.54	59950.48
566.70	60317.95
566.87	60186.88
567.03	60158.79
567.19	60441.99
567.36	60207.94
567.52	60044.10
567.68	60472.42
567.85	60289.86
568.01	60266.45
568.17	60154.11
568.34	60381.14
568.50	60102.62
568.66	60432.63
568.83	60257.09
568.99	60406.89
569.15	60289.86
569.32	60453.70
569.48	60156.45
569.64	60521.57
569.81	60411.57
569.97	60392.84
570.13	60378.80
570.30	60348.37
570.46	60381.14
570.62	60460.72
570.78	60231.35
570.95	60308.58
571.11	60392.84
571.27	60339.01
571.43	60308.58
571.60	60441.99
571.76	60603.49
571.92	60339.01
572.09	60523.91
572.25	60640.94
572.41	60203.26
572.57	60350.71
572.74	60701.79
572.90	60273.48
573.06	60399.86
573.22	60554.34
573.38	60629.24
573.55	60486.46
573.71	60692.43
573.87	60699.45
574.03	60561.36
574.20	60580.09
574.36	60456.04
574.52	60650.30
574.68	60556.68
574.84	60711.16
575.01	60601.15
575.17	60601.15
575.33	60493.49
575.49	60629.24
575.65	60767.33
575.82	60666.69
575.98	60662.00
576.14	61038.83
576.30	60619.88
576.46	60512.21
576.62	60596.47
576.79	60495.83
576.95	60491.15
577.11	60767.33
577.27	60657.32
577.43	60732.22
577.59	60488.80
577.75	60514.55
577.92	60559.02
578.08	60603.49
578.24	60842.23
578.40	60809.46
578.56	60896.06
578.72	60860.95
578.88	60825.84
579.04	60685.41
579.21	60666.69
579.37	61024.79
579.53	60949.89
579.69	60647.96
579.85	60797.76
580.01	60617.53
580.17	60720.52
580.33	60767.33
580.49	60739.24
580.65	60783.71
580.82	60755.63
580.98	60535.62
581.14	60755.63
581.30	60903.08
581.46	60851.59
581.62	60856.27
581.78	60615.19
581.94	60734.56
582.10	60699.45
582.26	60603.49
582.42	60917.12
582.58	60884.36
582.74	60762.65
582.90	60823.50
583.06	60779.03
583.22	60804.78
583.38	60828.18
583.54	60900.74
583.70	60832.86
583.86	60774.35
584.02	60718.18
584.18	60931.17
584.34	60858.61
584.50	60914.78
584.66	60697.11
584.82	60615.19
584.98	60985.00
585.14	60917.12
585.30	60835.20
585.46	60882.02
585.62	60917.12
585.78	61146.50
585.94	60732.22
586.10	60945.21
586.26	60917.12
586.42	60985.00
586.58	60961.59
586.74	60949.89
586.90	60821.16
587.06	60610.51
587.22	61092.66
587.38	61064.58
587.54	61031.81
587.70	61202.67
587.86	61141.81
588.02	60968.61
588.18	61057.56
588.34	60963.93
588.49	61024.79
