SpectraSuite Data File
++++++++++++++++++++++++++++++++++++
Date: Fri Oct 25 11:23:43 EDT 2013
User: price-jones
Dark Spectrum Present: No
Reference Spectrum Present: No
Number of Sampled Component Spectra: 1
Spectrometers: USB2+H05261
Integration Time (usec): 100000 (USB2+H05261)
Spectra Averaged: 1 (USB2+H05261)
Boxcar Smoothing: 0 (USB2+H05261)
Correct for Electrical Dark: No (USB2+H05261)
Strobe/Lamp Enabled: No (USB2+H05261)
Correct for Detector Non-linearity: No (USB2+H05261)
Correct for Stray Light: No (USB2+H05261)
Number of Pixels in Processed Spectrum: 2048
>>>>>Begin Processed Spectral Data<<<<<
365.73	264.48
365.92	264.48
366.12	264.48
366.32	208.31
366.52	100.64
366.72	135.75
366.91	88.94
367.11	91.28
367.31	147.45
367.51	142.77
367.70	119.37
367.90	131.07
368.10	156.82
368.30	168.52
368.49	128.73
368.69	156.82
368.89	243.42
369.09	105.32
369.28	182.56
369.48	100.64
369.68	135.75
369.87	152.13
370.07	154.48
370.27	166.18
370.47	322.99
370.66	580.45
370.86	622.58
371.06	706.84
371.25	699.82
371.45	627.26
371.65	732.59
371.84	723.23
372.04	657.69
372.24	685.78
372.44	667.05
372.63	706.84
372.83	767.70
373.03	770.04
373.22	802.80
373.42	781.74
373.62	760.67
373.81	777.06
374.01	734.93
374.21	826.21
374.40	793.44
374.60	788.76
374.79	870.68
374.99	861.32
375.19	758.33
375.38	772.38
375.58	870.68
375.78	842.59
375.97	870.68
376.17	875.36
376.37	894.08
376.56	929.19
376.76	819.19
376.95	887.06
377.15	908.13
377.35	875.36
377.54	828.55
377.74	884.72
377.93	870.68
378.13	882.38
378.33	950.26
378.52	924.51
378.72	990.05
378.91	945.58
379.11	1032.18
379.31	947.92
379.50	926.85
379.70	987.71
379.89	976.00
380.09	1004.09
380.28	987.71
380.48	917.49
380.68	1048.56
380.87	999.41
381.07	1011.11
381.26	1032.18
381.46	997.07
381.65	1067.28
381.85	1076.65
382.04	968.98
382.24	1013.45
382.43	1132.82
382.63	1128.14
382.83	1114.10
383.02	1172.61
383.22	1153.88
383.41	1090.69
383.61	1104.73
383.80	1196.01
384.00	1128.14
384.19	1135.16
384.39	1181.97
384.58	1116.44
384.78	1111.75
384.97	1240.48
385.17	1144.52
385.36	1086.01
385.56	1261.55
385.75	1160.91
385.95	1177.29
386.14	1151.54
386.34	1151.54
386.53	1165.59
386.72	1177.29
386.92	1203.04
387.11	1214.74
387.31	1212.40
387.50	1210.06
387.70	1301.34
387.89	1303.68
388.09	1245.16
388.28	1219.42
388.48	1238.14
388.67	1299.00
388.86	1277.93
389.06	1357.51
389.25	1277.93
389.45	1327.08
389.64	1378.58
389.84	1315.38
390.03	1373.89
390.22	1397.30
390.42	1320.06
390.61	1399.64
390.81	1380.92
391.00	1504.96
391.19	1479.22
391.39	1476.88
391.58	1453.47
391.78	1387.94
391.97	1486.24
392.16	1458.15
392.36	1462.83
392.55	1563.48
392.75	1528.37
392.94	1511.99
393.13	1614.97
393.33	1462.83
393.52	1600.93
393.71	1533.05
393.91	1586.88
394.10	1572.84
394.29	1636.03
394.49	1465.18
394.68	1629.01
394.88	1549.43
395.07	1610.29
395.26	1685.19
395.46	1748.38
395.65	1696.89
395.84	1673.48
396.04	1774.13
396.23	1818.60
396.42	1741.36
396.62	1888.81
396.81	1783.49
397.00	1767.10
397.19	1713.27
397.39	1736.68
397.58	1813.92
397.77	1872.43
397.97	1863.07
398.16	1834.98
398.35	1991.80
398.55	1865.41
398.74	1963.71
398.93	2024.56
399.12	1872.43
399.32	1846.68
399.51	1914.56
399.70	1994.14
399.90	2047.97
400.09	2113.50
400.28	2106.48
400.47	1930.94
400.67	2040.95
400.86	2054.99
401.05	2071.37
401.24	2113.50
401.44	2054.99
401.63	2235.21
401.82	2113.50
402.01	2132.23
402.21	2143.93
402.40	2223.51
402.59	2195.42
402.78	2279.68
402.97	2244.57
403.17	2338.20
403.36	2258.62
403.55	2307.77
403.74	2377.98
403.93	2466.92
404.13	2317.13
404.32	2363.94
404.51	2485.65
404.70	2356.92
404.89	2377.98
405.09	2441.18
405.28	2506.71
405.47	2518.42
405.66	2513.74
405.85	2544.16
406.05	2579.27
406.24	2504.37
406.43	2487.99
406.62	2588.63
406.81	2628.42
407.00	2612.04
407.20	2693.96
407.39	2605.02
407.58	2647.15
407.77	2626.08
407.96	2691.62
408.15	2759.49
408.34	2810.98
408.54	2860.13
408.73	2731.41
408.92	2876.52
409.11	2897.58
409.30	2930.35
409.49	2951.42
409.68	2754.81
409.87	2890.56
410.07	3070.78
410.26	2963.12
410.45	3042.70
410.64	2977.16
410.83	3075.46
411.02	3054.40
411.21	3236.96
411.40	3101.21
411.59	3243.98
411.78	3227.60
411.98	3136.32
412.17	3288.45
412.36	3290.79
412.55	3471.01
412.74	3578.68
412.93	3426.54
413.12	3337.60
413.31	3545.91
413.50	3487.40
413.69	3508.46
413.88	3585.70
414.07	3571.66
414.26	3559.95
414.45	3763.58
414.64	3513.14
414.83	3812.73
415.02	3899.33
415.22	3721.45
415.41	3829.12
415.60	3838.48
415.79	3904.01
415.98	3983.59
416.17	3960.19
416.36	3941.46
416.55	4042.11
416.74	4102.96
416.93	4046.79
417.12	4142.75
417.31	4236.37
417.50	4301.90
417.69	4390.84
417.88	4243.39
418.07	4306.59
418.26	4299.56
418.45	4252.75
418.64	4489.15
418.83	4493.83
419.02	4535.96
419.21	4723.20
419.39	4578.09
419.58	4489.15
419.77	4524.26
419.96	4678.73
420.15	4603.83
420.34	4629.58
420.53	4599.15
420.72	4702.14
420.91	4594.47
421.10	4716.18
421.29	4854.27
421.48	4777.03
421.67	4760.65
421.86	4940.87
422.05	4835.55
422.24	4765.33
422.43	4924.49
422.61	4938.53
422.80	4983.00
422.99	4947.89
423.18	4901.08
423.37	4973.64
423.56	4861.29
423.75	4805.12
423.94	4802.78
424.13	4692.77
424.32	4685.75
424.50	5025.13
424.69	5022.79
424.88	5156.20
425.07	4908.10
425.26	4856.61
425.45	4924.49
425.64	4873.00
425.83	4987.68
426.01	5074.28
426.20	5128.11
426.39	5165.56
426.58	5064.92
426.77	5097.69
426.96	5128.11
427.15	5167.90
427.33	5149.18
427.52	5174.92
427.71	5416.00
427.90	5266.21
428.09	5411.32
428.28	5416.00
428.46	5350.46
428.65	5483.88
428.84	5490.90
429.03	5439.40
429.22	5238.12
429.40	5483.88
429.59	5624.31
429.78	5352.81
429.97	5427.70
430.16	5430.04
430.34	5598.56
430.53	5687.50
430.72	5818.57
430.91	5640.69
431.10	5533.03
431.28	5797.51
431.47	5909.85
431.66	5914.53
431.85	5769.42
432.03	5797.51
432.22	6050.28
432.41	5856.02
432.60	5907.51
432.79	6001.13
432.97	6057.31
433.16	6134.54
433.35	5944.96
433.54	6045.60
433.72	6186.04
433.91	6106.46
434.10	6164.97
434.28	6129.86
434.47	6253.91
434.66	6296.04
434.85	6282.00
435.03	6387.32
435.22	6359.24
435.41	6499.67
435.59	6497.33
435.78	6363.92
435.97	6464.56
436.16	6431.79
436.34	6366.26
436.53	6612.01
436.72	6623.72
436.90	6420.09
437.09	6628.40
437.28	6602.65
437.46	6726.70
437.65	6733.72
437.84	6876.49
438.02	6820.32
438.21	6862.45
438.40	6562.86
438.58	6930.33
438.77	7089.48
438.96	6977.14
439.14	7080.12
439.33	7204.17
439.52	7159.70
439.70	7239.28
439.89	7368.01
440.08	7407.80
440.26	7316.51
440.45	7234.60
440.63	7552.91
440.82	7573.97
441.01	7620.78
441.19	7894.63
441.38	7709.72
441.57	7754.19
441.75	7808.03
441.94	8086.55
442.12	8126.34
442.31	8135.70
442.50	8138.04
442.68	7906.33
442.87	7911.01
443.05	8133.36
443.24	8222.30
443.43	8152.09
443.61	8266.77
443.80	8475.08
443.98	8030.38
444.17	7871.22
444.35	8070.17
444.54	8229.32
444.73	8287.84
444.91	8208.26
445.10	8355.71
445.28	8304.22
445.47	8278.47
445.65	8255.07
445.84	8468.06
446.02	8486.78
446.21	8606.15
446.39	8374.44
446.58	8554.66
446.77	8601.47
446.95	8351.03
447.14	8564.02
447.32	8542.96
447.51	8561.68
447.69	8468.06
447.88	8643.60
448.06	8507.85
448.25	8379.12
448.43	8514.87
448.62	8788.71
448.80	8514.87
448.99	8603.81
449.17	8828.50
449.36	8709.13
449.54	8936.17
449.73	9116.39
449.91	8980.64
450.10	8978.30
450.28	9046.17
450.46	8980.64
450.65	9064.89
450.83	9088.30
451.02	9146.81
451.20	9268.52
451.39	9397.25
451.57	9352.78
451.76	9097.66
451.94	9259.16
452.13	9418.32
452.31	9245.12
452.49	9186.60
452.68	9509.60
452.86	9451.08
453.05	9427.68
453.23	9708.54
453.42	9523.64
453.60	9322.35
453.78	9736.63
453.97	9465.13
454.15	9486.19
454.34	9593.86
454.52	9537.68
454.70	9804.50
454.89	9874.72
455.07	9767.06
455.26	9865.36
455.44	10012.81
455.62	9851.31
455.81	9937.91
455.99	9994.09
456.17	10024.51
456.36	10150.90
456.54	10064.30
456.73	10265.59
456.91	10420.06
457.09	10569.86
457.28	10530.07
457.46	10333.47
457.64	10523.05
457.83	10595.61
458.01	10391.98
458.19	10665.82
458.38	10504.32
458.56	10761.78
458.74	10710.29
458.93	10590.92
459.11	10785.19
459.29	10616.67
459.48	10656.46
459.66	10904.56
459.84	10817.96
460.03	11201.80
460.21	11122.23
460.39	11049.67
460.57	11154.99
460.76	11185.42
460.94	11089.46
461.12	11101.16
461.31	11398.41
461.49	11061.37
461.67	11185.42
461.85	11442.88
462.04	11307.13
462.22	11609.06
462.40	11609.06
462.59	11562.25
462.77	11550.54
462.95	11857.15
463.13	11719.06
463.32	11719.06
463.50	12131.00
463.68	11866.52
463.86	11819.71
464.05	11800.98
464.23	11784.60
464.41	12016.31
464.59	11791.62
464.78	12100.57
464.96	12161.42
465.14	12025.67
465.32	11995.25
465.50	12271.43
465.69	12051.42
465.87	12084.19
466.05	12121.63
466.23	12067.80
466.41	12301.86
466.60	12278.45
466.78	12173.13
466.96	12336.96
467.14	12365.05
467.32	12505.48
467.51	12704.43
467.69	12395.48
467.87	12650.60
468.05	12678.68
468.23	12266.75
468.41	12409.52
468.60	12666.98
468.78	12898.69
468.96	12666.98
469.14	13022.74
469.32	13022.74
469.50	12819.11
469.69	12975.93
469.87	13057.85
470.05	13343.39
470.23	13238.07
470.41	13102.32
470.59	13458.08
470.77	13001.68
470.95	13338.71
471.14	13813.84
471.32	13345.73
471.50	13731.92
471.68	13652.34
471.86	13722.56
472.04	13823.20
472.22	14052.58
472.40	13645.32
472.58	13886.40
472.77	14122.79
472.95	14019.81
473.13	14558.13
473.31	14185.99
473.49	14235.14
473.67	13888.74
473.85	14665.80
474.03	14670.48
474.21	14555.79
474.39	14438.76
474.57	14693.88
474.75	14977.09
474.93	15136.24
475.12	14967.73
475.30	15463.92
475.48	15211.14
475.66	15314.13
475.84	15082.41
476.02	15180.71
476.20	15417.11
476.38	15400.72
476.56	16217.57
476.74	15908.62
476.92	15925.00
477.10	15812.66
477.28	16145.02
477.46	16325.24
477.64	16250.34
477.82	16690.36
478.00	16760.58
478.18	16865.90
478.36	16835.47
478.54	16924.41
478.72	17287.20
478.90	17242.73
479.08	17668.70
479.26	17778.71
479.44	17617.21
479.62	17855.95
479.80	18050.21
479.98	18181.28
480.16	18913.87
480.34	18567.47
480.52	18782.80
480.70	18494.91
480.88	18551.09
481.06	18944.30
481.24	18904.51
481.41	19035.58
481.59	19761.14
481.77	19690.93
481.95	19625.39
482.13	19964.77
482.31	20065.41
482.49	20175.42
482.67	20444.58
482.85	20786.30
483.03	20872.90
483.21	20769.91
483.39	20884.60
483.57	20854.17
483.74	21240.36
483.92	21364.41
484.10	21076.52
484.28	21724.85
484.46	22136.79
484.64	22431.69
484.82	22085.30
485.00	22389.56
485.18	22874.06
485.35	23044.91
485.53	23115.13
485.71	23077.68
485.89	23683.88
486.07	23328.12
486.25	23421.74
486.43	23854.74
486.61	23683.88
486.78	23922.62
486.96	24416.47
487.14	24917.34
487.32	24783.93
487.50	25120.97
487.68	25003.94
487.85	25301.19
488.03	25827.81
488.21	26045.48
488.39	25858.24
488.57	26249.11
488.75	26377.84
488.92	26778.07
489.10	26778.07
489.28	26785.09
489.46	27302.35
489.64	27351.50
489.81	27531.72
489.99	27878.12
490.17	27695.56
490.35	28449.21
490.53	27997.49
490.70	28655.18
490.88	28411.76
491.06	28800.29
491.24	28964.13
491.41	29322.23
491.59	29347.98
491.77	29399.47
491.95	30026.73
492.13	30043.12
492.30	30143.76
492.48	30272.49
492.66	30368.45
492.84	30588.46
493.01	30646.97
493.19	31094.02
493.37	31143.17
493.54	31314.03
493.72	31716.60
493.90	31779.79
494.08	32009.17
494.25	32018.53
494.43	32474.93
494.61	32477.27
494.79	32388.33
494.96	32598.98
495.14	32699.62
495.32	33289.44
495.49	33359.66
495.67	33254.33
495.85	33820.74
496.02	34204.59
496.20	33979.90
496.38	34492.47
496.55	34445.66
496.73	35115.06
496.91	34892.71
497.09	35374.86
497.26	35402.94
497.44	35012.07
497.62	35690.83
497.79	36194.04
497.97	35653.38
498.14	36390.65
498.32	36678.54
498.50	36065.31
498.67	36643.43
498.85	37090.47
499.03	36725.35
499.20	36849.39
499.38	36772.16
499.56	37254.31
499.73	37251.97
499.91	37549.21
500.08	37598.37
500.26	37415.80
500.44	37809.01
500.61	38209.25
500.79	37780.93
500.97	38478.41
501.14	38754.59
501.32	38740.55
501.49	38822.47
501.67	39133.76
501.84	39215.68
502.02	38925.45
502.20	39037.80
502.37	39449.73
502.55	39400.58
502.72	39323.34
502.90	39833.58
503.07	39772.72
503.25	40121.46
503.43	39800.81
503.60	40821.28
503.78	40758.09
503.95	40247.85
504.13	40582.55
504.30	40786.18
504.48	40622.34
504.65	41067.04
504.83	41205.13
505.01	41553.87
505.18	41174.70
505.36	42155.39
505.53	41097.47
505.71	41596.00
505.88	41823.03
506.06	42019.64
506.23	42454.98
506.41	42075.81
506.58	42326.25
506.76	42141.35
506.93	43210.97
507.11	42684.35
507.28	42696.05
507.46	43042.45
507.63	43044.79
507.81	43435.66
507.98	43103.31
508.16	43480.13
508.33	43665.03
508.50	44039.52
508.68	43594.82
508.85	44610.61
509.03	43849.94
509.20	44479.54
509.38	44353.15
509.55	44622.31
509.73	44416.35
509.90	44788.49
510.08	44456.14
510.25	44807.22
510.42	44893.82
510.60	45146.59
510.77	45144.25
510.95	45741.09
511.12	45291.71
511.30	45181.70
511.47	45837.05
511.64	45874.50
511.82	46248.99
511.99	45717.68
512.17	46506.44
512.34	45951.74
512.51	47058.81
512.69	46380.06
512.86	46443.25
513.04	47065.83
513.21	46731.14
513.38	46670.28
513.56	46965.19
513.73	46768.58
513.90	47103.28
514.08	46976.89
514.25	47524.58
514.43	47793.74
514.60	47688.42
514.77	47466.06
514.95	47943.53
515.12	47812.46
515.29	47999.71
515.47	48116.73
515.64	48332.06
515.81	48116.73
515.99	48121.41
516.16	48493.56
516.33	48486.54
516.51	48854.00
516.68	48736.98
516.85	48673.78
517.03	49216.78
517.20	49261.26
517.37	49354.88
517.54	48968.69
517.72	49322.11
517.89	49207.42
518.06	49696.59
518.24	49261.26
518.41	49453.18
518.58	49546.80
518.75	49581.91
518.93	49656.81
519.10	49691.91
519.27	49970.44
519.45	49783.19
519.62	50059.38
519.79	50171.72
519.96	49947.03
520.14	50312.16
520.31	50124.91
520.48	50387.05
520.65	50471.31
520.83	50848.14
521.00	50960.48
521.17	50798.99
521.34	50740.47
521.52	50892.61
521.69	51044.74
521.86	51381.78
522.03	51318.59
522.20	51632.22
522.38	51524.55
522.55	51845.21
522.72	51569.02
522.89	51554.98
523.07	52011.38
523.24	51522.21
523.41	51810.10
523.58	51349.01
523.75	51929.47
523.92	51915.42
524.10	52477.15
524.27	52048.83
524.44	52189.27
524.61	52294.59
524.78	52329.70
524.96	52329.70
525.13	52371.83
525.30	52879.72
525.47	53036.54
525.64	52743.97
525.81	52961.64
525.98	52659.71
526.16	52776.74
526.33	52760.36
526.50	53052.92
526.67	52945.26
526.84	53139.52
527.01	53069.31
527.18	53102.07
527.36	52999.09
527.53	53144.20
527.70	53453.15
527.87	53443.79
528.04	53324.43
528.21	53401.66
528.38	53607.63
528.55	54010.20
528.72	53071.65
528.89	53612.31
529.07	53743.38
529.24	53666.14
529.41	53705.93
529.58	53682.53
529.75	53876.79
529.92	53865.09
530.09	54216.17
530.26	53834.66
530.43	54340.22
530.60	53928.28
530.77	54028.93
530.94	54260.64
531.11	54134.25
531.28	54148.29
531.46	54394.05
531.63	54267.66
531.80	54426.82
531.97	54578.95
532.14	54672.57
532.31	54677.25
532.48	54763.85
532.65	55079.83
532.82	54578.95
532.99	54803.64
533.16	54581.29
533.33	55040.04
533.50	55000.25
533.67	54817.69
533.84	54761.51
534.01	54932.37
534.18	55182.81
534.35	55377.08
534.52	55442.61
534.69	55412.18
534.86	55529.21
535.03	55304.52
535.20	55433.25
535.37	55466.02
535.54	55716.45
535.71	55201.53
535.88	55695.39
536.05	55356.01
536.22	55679.00
536.38	55718.79
536.55	55793.69
536.72	55765.60
536.89	55636.87
537.06	55798.37
537.23	55950.51
537.40	55723.47
537.57	55842.84
537.74	55976.25
537.91	55966.89
538.08	55983.27
538.25	55840.50
538.42	56002.00
538.59	56278.18
538.75	55955.19
538.92	55948.17
539.09	56397.55
539.26	56112.00
539.43	56353.08
539.60	56460.74
539.77	56416.27
539.94	56474.79
540.11	56582.45
540.28	56610.54
540.44	56449.04
540.61	56687.78
540.78	56638.62
540.95	56535.64
541.12	56481.81
541.29	56563.73
541.46	56790.76
541.62	56828.21
541.79	56685.43
541.96	56535.64
542.13	56577.77
542.30	56769.69
542.47	56938.21
542.63	57031.83
542.80	57233.12
542.97	57141.84
543.14	57389.94
543.31	57270.57
543.48	57401.64
543.64	57631.01
543.81	57378.23
543.98	57411.00
544.15	57251.84
544.32	57521.01
544.48	57729.31
544.65	57511.64
544.82	57621.65
544.99	57441.43
545.16	57567.82
545.32	57516.32
545.49	57649.74
545.66	57745.70
545.83	57680.16
546.00	57726.97
546.16	57818.25
546.33	57677.82
546.50	57755.06
546.67	57939.96
546.83	57652.08
547.00	57996.13
547.17	57851.02
547.34	57972.73
547.50	58103.80
547.67	58117.84
547.84	58239.55
548.00	58148.27
548.17	58468.92
548.34	58181.04
548.51	58330.83
548.67	58298.06
548.84	58197.42
549.01	58248.91
549.18	58337.85
549.34	58375.30
549.51	58511.05
549.68	58541.48
549.84	58482.97
550.01	58557.86
550.18	58335.51
550.34	58440.84
550.51	58614.04
550.68	58595.31
550.84	58333.17
551.01	58541.48
551.18	58592.97
551.34	58562.54
551.51	58688.93
551.68	58698.30
551.84	58827.02
552.01	58417.43
552.18	58817.66
552.34	58768.51
552.51	58677.23
552.68	58632.76
552.84	58717.02
553.01	58944.05
553.18	58841.07
553.34	58848.09
553.51	58759.15
553.67	58885.54
553.84	58885.54
554.01	59098.53
554.17	59047.04
554.34	59093.85
554.51	59182.79
554.67	59330.24
554.84	59105.55
555.00	59135.98
555.17	59096.19
555.33	59168.74
555.50	59236.62
555.67	58908.94
555.83	59030.65
556.00	59302.15
556.16	59426.20
556.33	59566.63
556.50	59189.81
556.66	59545.57
556.83	59269.39
556.99	59519.82
557.16	59580.68
557.32	59597.06
557.49	59856.86
557.65	59531.53
557.82	59646.21
557.98	59564.29
558.15	59568.97
558.32	59496.42
558.48	59374.71
558.65	59501.10
558.81	59482.37
558.98	59739.83
559.14	59601.74
559.31	59849.84
559.47	59938.78
559.64	59767.92
559.80	59828.77
559.97	59840.48
560.13	59819.41
560.30	59774.94
560.46	59718.77
560.63	60149.43
560.79	60109.64
560.96	59927.08
561.12	60102.62
561.29	60058.15
561.45	59859.20
561.61	60041.76
561.78	60027.72
561.94	59906.01
562.11	59817.07
562.27	60095.60
562.44	59896.65
562.60	60097.94
562.77	60252.41
562.93	59880.27
563.10	60081.55
563.26	59870.90
563.42	60322.63
563.59	60023.04
563.75	60032.40
563.92	60210.28
564.08	60121.34
564.24	60142.41
564.41	60252.41
564.57	60254.75
564.74	60350.71
564.90	60367.10
565.07	60062.83
565.23	60271.14
565.39	60212.62
565.56	60552.00
565.72	60203.26
565.88	60245.39
566.05	60067.51
566.21	60301.56
566.38	60149.43
566.54	60348.37
566.70	60477.10
566.87	60552.00
567.03	60177.51
567.19	60566.04
567.36	60467.74
567.52	60306.24
567.68	60685.41
567.85	60584.77
568.01	60472.42
568.17	60303.90
568.34	60299.22
568.50	60542.64
568.66	60399.86
568.83	60851.59
568.99	60416.25
569.15	60399.86
569.32	60416.25
569.48	60467.74
569.64	60720.52
569.81	60505.19
569.97	60374.12
570.13	60647.96
570.30	60465.40
570.46	60662.00
570.62	60594.13
570.78	60594.13
570.95	60624.56
571.11	60685.41
571.27	60706.47
571.43	60580.09
571.60	60844.57
571.76	60711.16
571.92	60720.52
572.09	60746.26
572.25	60701.79
572.41	60828.18
572.57	60657.32
572.74	60832.86
572.90	60697.11
573.06	60757.97
573.22	60823.50
573.38	60676.05
573.55	60844.57
573.71	60877.33
573.87	60874.99
574.03	60734.56
574.20	60874.99
574.36	60769.67
574.52	61013.08
574.68	60692.43
574.84	60736.90
575.01	60844.57
575.17	60804.78
575.33	60629.24
575.49	60746.26
575.65	61008.40
575.82	61041.17
575.98	61024.79
576.14	61146.50
576.30	60926.49
576.46	60996.70
576.62	61022.45
576.79	60760.31
576.95	60587.11
577.11	61003.72
577.27	60996.70
577.43	60947.55
577.59	60739.24
577.75	60865.63
577.92	60594.13
578.08	60924.14
578.24	60938.19
578.40	61006.06
578.56	61125.43
578.72	60917.12
578.88	60877.33
579.04	61221.39
579.21	60994.36
579.37	60961.59
579.53	61043.51
579.69	61013.08
579.85	60949.89
580.01	60914.78
580.17	60921.80
580.33	61073.94
580.49	61116.07
580.65	61132.45
580.82	60931.17
580.98	60961.59
581.14	60926.49
581.30	61062.24
581.46	60889.04
581.62	60956.91
581.78	60781.37
581.94	61050.53
582.10	60919.46
582.26	60980.32
582.42	60882.02
582.58	60982.66
582.74	61052.87
582.90	60999.04
583.06	61169.90
583.22	60788.39
583.38	61071.60
583.54	61102.03
583.70	60996.70
583.86	61078.62
584.02	60999.04
584.18	61181.60
584.34	61209.69
584.50	61043.51
584.66	61066.92
584.82	60945.21
584.98	61111.39
585.14	61059.90
585.30	60849.25
585.46	61212.03
585.62	61024.79
585.78	61347.78
585.94	61010.74
586.10	61162.88
586.26	61085.64
586.42	61197.99
586.58	61357.14
586.74	61118.41
586.90	61137.13
587.06	61102.03
587.22	61162.88
587.38	61279.91
587.54	61368.85
587.70	61298.63
587.86	61247.14
588.02	61092.66
588.18	61296.29
588.34	61111.39
588.49	61202.67
