SpectraSuite Data File
++++++++++++++++++++++++++++++++++++
Date: Fri Oct 25 11:23:00 EDT 2013
User: price-jones
Dark Spectrum Present: No
Reference Spectrum Present: No
Number of Sampled Component Spectra: 1
Spectrometers: USB2+H05261
Integration Time (usec): 100000 (USB2+H05261)
Spectra Averaged: 1 (USB2+H05261)
Boxcar Smoothing: 0 (USB2+H05261)
Correct for Electrical Dark: No (USB2+H05261)
Strobe/Lamp Enabled: No (USB2+H05261)
Correct for Detector Non-linearity: No (USB2+H05261)
Correct for Stray Light: No (USB2+H05261)
Number of Pixels in Processed Spectrum: 2048
>>>>>Begin Processed Spectral Data<<<<<
365.73	196.60
365.92	196.60
366.12	196.60
366.32	189.58
366.52	119.37
366.72	147.45
366.91	105.32
367.11	56.17
367.31	163.84
367.51	86.60
367.70	98.30
367.90	124.05
368.10	126.39
368.30	114.69
368.49	107.66
368.69	72.56
368.89	217.67
369.09	180.22
369.28	161.50
369.48	140.43
369.68	121.71
369.87	257.46
370.07	149.79
370.27	227.03
370.47	248.10
370.66	550.03
370.86	606.20
371.06	695.14
371.25	690.46
371.45	603.86
371.65	664.71
371.84	683.44
372.04	683.44
372.24	704.50
372.44	723.23
372.63	706.84
372.83	739.61
373.03	716.20
373.22	774.72
373.42	828.55
373.62	748.97
373.81	739.61
374.01	823.87
374.21	819.19
374.40	718.54
374.60	713.86
374.79	777.06
374.99	884.72
375.19	798.12
375.38	823.87
375.58	814.51
375.78	898.77
375.97	877.70
376.17	971.32
376.37	800.46
376.56	903.45
376.76	903.45
376.95	866.00
377.15	947.92
377.35	753.65
377.54	940.90
377.74	866.00
377.93	922.17
378.13	866.00
378.33	999.41
378.52	936.21
378.72	898.77
378.91	898.77
379.11	959.62
379.31	952.60
379.50	978.34
379.70	987.71
379.89	1027.50
380.09	922.17
380.28	1041.54
380.48	976.00
380.68	903.45
380.87	936.21
381.07	1027.50
381.26	1086.01
381.46	1050.90
381.65	1001.75
381.85	997.07
382.04	1011.11
382.24	1123.46
382.43	1081.33
382.63	983.02
382.83	1090.69
383.02	1060.26
383.22	1114.10
383.41	1121.12
383.61	1083.67
383.80	1186.65
384.00	1071.97
384.19	1095.37
384.39	1081.33
384.58	1137.50
384.78	1160.91
384.97	1139.84
385.17	1151.54
385.36	1142.18
385.56	1160.91
385.75	1088.35
385.95	1196.01
386.14	1238.14
386.34	1158.57
386.53	1174.95
386.72	1109.41
386.92	1231.12
387.11	1324.74
387.31	1254.53
387.50	1235.80
387.70	1336.45
387.89	1188.99
388.09	1273.25
388.28	1242.82
388.48	1228.78
388.67	1364.53
388.86	1352.83
389.06	1320.06
389.25	1418.36
389.45	1310.70
389.64	1331.76
389.84	1413.68
390.03	1387.94
390.22	1315.38
390.42	1306.02
390.61	1294.32
390.81	1399.64
391.00	1366.87
391.19	1465.18
391.39	1465.18
391.58	1465.18
391.78	1467.52
391.97	1441.77
392.16	1397.30
392.36	1507.30
392.55	1500.28
392.75	1474.54
392.94	1600.93
393.13	1451.13
393.33	1570.50
393.52	1575.18
393.71	1645.40
393.91	1514.33
394.10	1530.71
394.29	1605.61
394.49	1659.44
394.68	1612.63
394.88	1507.30
395.07	1673.48
395.26	1710.93
395.46	1696.89
395.65	1739.02
395.84	1717.95
396.04	1736.68
396.23	1689.87
396.42	1717.95
396.62	1753.06
396.81	1820.94
397.00	1753.06
397.19	1748.38
397.39	1834.98
397.58	1844.34
397.77	1827.96
397.97	1872.43
398.16	1898.17
398.35	1977.75
398.55	1968.39
398.74	1809.23
398.93	2026.90
399.12	1895.83
399.32	1877.11
399.51	1874.77
399.70	2026.90
399.90	1947.33
400.09	1942.64
400.28	2125.21
400.47	2064.35
400.67	2101.80
400.86	2106.48
401.05	2094.78
401.24	2239.89
401.44	2045.63
401.63	2319.47
401.82	2085.42
402.01	2122.87
402.21	2237.55
402.40	2270.32
402.59	2193.08
402.78	2186.06
402.97	2197.76
403.17	2335.85
403.36	2242.23
403.55	2300.75
403.74	2239.89
403.93	2305.43
404.13	2434.16
404.32	2354.58
404.51	2380.32
404.70	2359.26
404.89	2413.09
405.09	2546.50
405.28	2518.42
405.47	2422.45
405.66	2450.54
405.85	2551.18
406.05	2490.33
406.24	2555.86
406.43	2490.33
406.62	2633.10
406.81	2691.62
407.00	2607.36
407.20	2600.34
407.39	2490.33
407.58	2644.81
407.77	2689.28
407.96	2682.25
408.15	2731.41
408.34	2883.54
408.54	2729.06
408.73	2722.04
408.92	2932.69
409.11	2904.60
409.30	2822.69
409.49	2792.26
409.68	2956.10
409.87	2853.11
410.07	2960.78
410.26	3042.70
410.45	3019.29
410.64	3028.65
410.83	3112.91
411.02	3192.49
411.21	3241.64
411.40	3162.06
411.59	3239.30
411.78	3213.56
411.98	3143.34
412.17	3279.09
412.36	3269.73
412.55	3258.03
412.74	3370.37
412.93	3435.91
413.12	3316.54
413.31	3538.89
413.50	3524.85
413.69	3475.70
413.88	3492.08
414.07	3637.19
414.26	3632.51
414.45	3742.52
414.64	3606.77
414.83	3763.58
415.02	3791.67
415.22	3880.61
415.41	3971.89
415.60	3911.04
415.79	3857.20
415.98	3962.53
416.17	3894.65
416.36	3988.27
416.55	3985.93
416.74	4072.53
416.93	4018.70
417.12	4049.13
417.31	4222.33
417.50	4126.36
417.69	4313.61
417.88	4334.67
418.07	4386.16
418.26	4294.88
418.45	4264.46
418.64	4477.44
418.83	4535.96
419.02	4432.97
419.21	4404.89
419.39	4526.60
419.58	4538.30
419.77	4517.23
419.96	4594.47
420.15	4709.16
420.34	4568.73
420.53	4657.67
420.72	4870.65
420.91	4667.03
421.10	4667.03
421.29	4774.69
421.48	4788.74
421.67	4821.50
421.86	4739.58
422.05	4828.53
422.24	4896.40
422.43	4814.48
422.61	4891.72
422.80	4961.94
422.99	5149.18
423.18	4858.95
423.37	4961.94
423.56	4957.25
423.75	4943.21
423.94	4884.70
424.13	4786.40
424.32	4957.25
424.50	5102.37
424.69	5064.92
424.88	5057.90
425.07	5027.47
425.26	4891.72
425.45	5067.26
425.64	4903.42
425.83	5015.77
426.01	5022.79
426.20	5107.05
426.39	5142.16
426.58	4926.83
426.77	5095.35
426.96	5184.29
427.15	5144.50
427.33	5114.07
427.52	5088.32
427.71	5320.04
427.90	5294.29
428.09	5308.34
428.28	5460.47
428.46	5289.61
428.65	5397.28
428.84	5570.48
429.03	5650.05
429.22	5369.19
429.40	5334.08
429.59	5526.00
429.78	5303.65
429.97	5177.26
430.16	5535.37
430.34	5561.11
430.53	5664.10
430.72	5682.82
430.91	5722.61
431.10	5530.69
431.28	5776.44
431.47	5827.93
431.66	5774.10
431.85	5898.15
432.03	5811.55
432.22	6015.18
432.41	5806.87
432.60	5987.09
432.79	6052.63
432.97	6078.37
433.16	6127.52
433.35	6092.41
433.54	6200.08
433.72	6197.74
433.91	5980.07
434.10	6197.74
434.28	6202.42
434.47	6197.74
434.66	6296.04
434.85	6211.78
435.03	6307.74
435.22	6317.11
435.41	6548.82
435.59	6490.31
435.78	6544.14
435.97	6427.11
436.16	6555.84
436.34	6525.41
436.53	6511.37
436.72	6684.57
436.90	6464.56
437.09	6541.80
437.28	6509.03
437.46	6750.10
437.65	6754.79
437.84	6731.38
438.02	6956.07
438.21	6799.26
438.40	6813.30
438.58	7054.37
438.77	7197.15
438.96	7059.06
439.14	7021.61
439.33	7253.32
439.52	7236.94
439.70	7337.58
439.89	7253.32
440.08	7332.90
440.26	7307.15
440.45	7321.20
440.63	7407.80
440.82	7705.04
441.01	7651.21
441.19	7606.74
441.38	7747.17
441.57	7735.47
441.75	7948.46
441.94	8121.66
442.12	7735.47
442.31	8135.70
442.50	8046.76
442.68	8079.53
442.87	8039.74
443.05	8044.42
443.24	8332.31
443.43	8140.38
443.61	8135.70
443.80	8512.53
443.98	8292.52
444.17	7868.88
444.35	8393.16
444.54	8388.48
444.73	8355.71
444.91	8346.35
445.10	8299.54
445.28	8423.59
445.47	8229.32
445.65	8311.24
445.84	8451.67
446.02	8528.91
446.21	8725.52
446.39	8369.76
446.58	8407.20
446.77	8620.19
446.95	8358.05
447.14	8444.65
447.32	8582.74
447.51	8500.83
447.69	8411.89
447.88	8360.39
448.06	8418.91
448.25	8554.66
448.43	8557.00
448.62	8573.38
448.80	8617.85
448.99	8812.12
449.17	8652.96
449.36	8800.41
449.54	8842.54
449.73	8919.78
449.91	9095.32
450.10	8858.93
450.28	9165.54
450.46	9078.94
450.65	8985.32
450.83	9195.96
451.02	9174.90
451.20	9191.28
451.39	9291.93
451.57	9104.68
451.76	9273.20
451.94	9338.74
452.13	9317.67
452.31	9418.32
452.49	9060.21
452.68	9448.74
452.86	9493.21
453.05	9554.07
453.23	9493.21
453.42	9298.95
453.60	9495.55
453.78	9561.09
453.97	9523.64
454.15	9729.61
454.34	9617.26
454.52	9919.19
454.70	9856.00
454.89	10012.81
455.07	9827.91
455.26	10043.24
455.44	10127.50
455.62	10038.56
455.81	9839.61
455.99	10078.35
456.17	10141.54
456.36	10059.62
456.54	10076.01
456.73	10228.14
456.91	10375.59
457.09	10438.79
457.28	10483.26
457.46	10303.04
457.64	10569.86
457.83	10677.52
458.01	10485.60
458.19	10712.63
458.38	10541.77
458.56	10846.04
458.74	10874.13
458.93	10923.28
459.11	10621.35
459.29	10658.80
459.48	10736.04
459.66	10799.23
459.84	11077.76
460.03	11124.57
460.21	11187.76
460.39	10930.30
460.57	10988.82
460.76	11033.29
460.94	10995.84
461.12	11199.46
461.31	11166.70
461.49	11367.98
461.67	11236.91
461.85	11695.66
462.04	11618.42
462.22	11468.62
462.40	11641.82
462.59	11482.67
462.77	11541.18
462.95	11747.15
463.13	11873.54
463.32	11655.87
463.50	11723.74
463.68	11936.73
463.86	11978.86
464.05	11838.43
464.23	11730.76
464.41	11934.39
464.59	11770.55
464.78	12135.68
464.96	12105.25
465.14	11894.60
465.32	12023.33
465.50	12222.28
465.69	12163.76
465.87	12173.13
466.05	12376.75
466.23	12248.02
466.41	12348.67
466.60	12376.75
466.78	12262.07
466.96	12241.00
467.14	12231.64
467.32	12463.35
467.51	12779.32
467.69	12339.30
467.87	12617.83
468.05	12453.99
468.23	12439.95
468.41	12606.13
468.60	12730.17
468.78	12716.13
468.96	12690.38
469.14	13160.83
469.32	13139.77
469.50	12912.74
469.69	13025.08
469.87	13259.13
470.05	13394.89
470.23	13352.76
470.41	13303.60
470.59	13397.23
470.77	13284.88
470.95	13289.56
471.14	13530.64
471.32	13460.42
471.50	13818.52
471.68	13804.48
471.86	13970.66
472.04	13830.23
472.22	14019.81
472.40	13797.46
472.58	14024.49
472.77	14120.45
472.95	14420.04
473.13	14693.88
473.31	14120.45
473.49	14448.13
473.67	14251.52
473.85	14274.93
474.03	14614.30
474.21	14675.16
474.39	14888.15
474.57	15101.14
474.75	15351.57
474.93	15365.62
475.12	15026.24
475.30	15297.74
475.48	15066.03
475.66	15604.35
475.84	15166.67
476.02	15662.86
476.20	15248.59
476.38	15896.92
476.56	16107.57
476.74	16032.67
476.92	15983.52
477.10	15889.90
477.28	16245.66
477.46	16477.37
477.64	16585.04
477.82	16798.02
478.00	17411.25
478.18	16954.84
478.36	17263.79
478.54	17200.60
478.72	17254.43
478.90	17376.14
479.08	17661.68
479.26	17830.20
479.44	17879.35
479.62	17900.42
479.80	18253.84
479.98	18300.65
480.16	18658.75
480.34	18705.56
480.52	18672.79
480.70	18604.92
480.88	18595.56
481.06	18897.49
481.24	19061.32
481.41	19264.95
481.59	19449.85
481.77	19400.70
481.95	20081.80
482.13	20215.21
482.31	19623.05
482.49	20798.00
482.67	20229.25
482.85	20446.92
483.03	20826.09
483.21	21050.78
483.39	21378.45
483.57	21041.42
483.74	21341.00
483.92	21809.11
484.10	21486.12
484.28	21792.73
484.46	22115.72
484.64	22532.34
484.82	22178.92
485.00	22494.89
485.18	22705.54
485.35	23005.13
485.53	23283.65
485.71	23213.43
485.89	23424.08
486.07	23768.14
486.25	23594.94
486.43	23718.99
486.61	24030.28
486.78	24269.01
486.96	24353.27
487.14	24741.80
487.32	24552.22
487.50	24835.42
487.68	25167.78
487.85	25635.89
488.03	25706.10
488.21	25982.29
488.39	25937.82
488.57	26031.44
488.75	26651.68
488.92	26803.82
489.10	26885.73
489.28	27304.69
489.46	27133.83
489.64	27421.72
489.81	27648.75
489.99	28170.69
490.17	28173.03
490.35	28006.85
490.53	28627.09
490.70	28877.53
490.88	28325.16
491.06	28821.36
491.24	28936.04
491.41	29359.68
491.59	29785.66
491.77	29755.23
491.95	29818.42
492.13	29963.54
492.30	30190.57
492.48	30174.19
492.66	30417.60
492.84	30380.15
493.01	30993.37
493.19	30817.83
493.37	31049.55
493.54	31761.07
493.72	31716.60
493.90	32016.19
494.08	31700.22
494.25	32123.85
494.43	32449.19
494.61	32547.49
494.79	32727.71
494.96	32816.65
495.14	33214.54
495.32	33153.69
495.49	33193.48
495.67	33668.61
495.85	34251.40
496.02	33809.04
496.20	34043.09
496.38	34607.16
496.55	34314.59
496.73	35381.88
496.91	34920.79
497.09	35152.51
497.26	35274.21
497.44	35494.22
497.62	35747.00
497.79	35936.59
497.97	35756.36
498.14	36133.19
498.32	36278.30
498.50	36088.72
498.67	36371.92
498.85	37088.13
499.03	37165.37
499.20	37141.96
499.38	36870.46
499.56	37343.25
499.73	37610.07
499.91	37556.24
500.08	38148.39
500.26	37818.38
500.44	37904.98
500.61	38291.16
500.79	37944.76
500.97	38312.23
501.14	38665.65
501.32	38792.04
501.49	38815.44
501.67	38927.79
501.84	39035.45
502.02	39117.37
502.20	39435.69
502.37	39257.81
502.55	39419.30
502.72	39732.93
502.90	40044.23
503.07	40044.23
503.25	40577.87
503.43	39917.84
503.60	40060.61
503.78	40751.07
503.95	40575.53
504.13	40868.09
504.30	40900.86
504.48	40598.93
504.65	40875.12
504.83	41134.92
505.01	41717.71
505.18	41219.17
505.36	41710.69
505.53	41839.42
505.71	41858.14
505.88	41949.42
506.06	41914.31
506.23	42286.46
506.41	42314.55
506.58	42497.11
506.76	42534.56
506.93	42293.48
507.11	42424.55
507.28	42705.41
507.46	43065.86
507.63	42965.21
507.81	43578.43
507.98	43192.25
508.16	43129.05
508.33	43770.36
508.50	43697.80
508.68	44025.48
508.85	43976.33
509.03	44168.25
509.20	44060.58
509.38	44498.26
509.55	44570.82
509.73	44847.00
509.90	44919.56
510.08	44713.59
510.25	45092.76
510.42	44973.39
510.60	45605.34
510.77	45338.52
510.95	45481.29
511.12	45656.83
511.30	45654.49
511.47	45675.55
511.64	45930.67
511.82	45806.62
511.99	45954.08
512.17	46508.79
512.34	46211.54
512.51	46829.44
512.69	46614.11
512.86	46738.16
513.04	47154.77
513.21	47054.13
513.38	47187.54
513.56	47505.85
513.73	46946.47
513.90	47070.51
514.08	47042.43
514.25	47763.31
514.43	47758.63
514.60	47770.33
514.77	47393.51
514.95	48147.16
515.12	47653.31
515.29	47880.34
515.47	48193.97
515.64	48404.62
515.81	48193.97
515.99	48435.05
516.16	49120.82
516.33	48641.01
516.51	49148.91
516.68	48671.44
516.85	49195.72
517.03	49090.40
517.20	49066.99
517.37	48985.07
517.54	49516.37
517.72	49375.94
517.89	49249.55
518.06	49507.01
518.24	49514.03
518.41	49553.82
518.58	49481.27
518.75	49581.91
518.93	49855.75
519.10	49720.00
519.27	50143.64
519.45	50054.70
519.62	50618.77
519.79	49928.31
519.96	50616.43
520.14	50375.35
520.31	50281.73
520.48	50808.35
520.65	50150.66
520.83	51105.60
521.00	51019.00
521.17	50724.09
521.34	50712.39
521.52	51117.30
521.69	51175.81
521.86	51426.25
522.03	51379.44
522.20	51742.22
522.38	51882.66
522.55	51814.78
522.72	51550.30
522.89	51704.77
523.07	51913.08
523.24	51856.91
523.41	52016.07
523.58	51531.57
523.75	52051.17
523.92	52065.22
524.10	52285.23
524.27	52245.44
524.44	52507.58
524.61	52233.74
524.78	52404.59
524.96	52704.18
525.13	52629.29
525.30	52711.20
525.47	53024.84
525.64	52528.64
525.81	52699.50
525.98	53010.79
526.16	52816.53
526.33	52849.30
526.50	53453.15
526.67	53038.88
526.84	53425.07
527.01	53214.42
527.18	53148.88
527.36	53310.38
527.53	53198.04
527.70	53762.11
527.87	53539.75
528.04	53179.31
528.21	53453.15
528.38	53429.75
528.55	53586.57
528.72	53645.08
528.89	53567.84
529.07	53652.10
529.24	53677.85
529.41	53855.73
529.58	54085.10
529.75	54148.29
529.92	54094.46
530.09	54295.75
530.26	54000.84
530.43	54279.36
530.60	53984.46
530.77	54267.66
530.94	54560.23
531.11	54436.18
531.28	54293.41
531.46	54417.46
531.63	54314.47
531.80	54578.95
531.97	54660.87
532.14	54740.45
532.31	54459.58
532.48	54981.52
532.65	54962.80
532.82	54834.07
532.99	54958.12
533.16	54787.26
533.33	55035.36
533.50	55093.87
533.67	54969.82
533.84	55030.68
534.01	55182.81
534.18	55210.90
534.35	55164.09
534.52	55112.59
534.69	55374.73
534.86	55370.05
535.03	55379.42
535.20	55360.69
535.37	55398.14
535.54	55412.18
535.71	55393.46
535.88	55564.32
536.05	55924.76
536.22	55700.07
536.38	55667.30
536.55	55880.29
536.72	55934.12
536.89	55863.91
537.06	56041.79
537.23	56074.55
537.40	55866.25
537.57	55849.86
537.74	55990.30
537.91	56287.54
538.08	56226.69
538.25	55847.52
538.42	56236.05
538.59	56179.88
538.75	56090.94
538.92	56041.79
539.09	56439.68
539.26	56207.97
539.43	56268.82
539.60	56343.72
539.77	56266.48
539.94	56706.50
540.11	56392.87
540.28	56624.58
540.44	56645.65
540.61	56638.62
540.78	56603.52
540.95	56683.09
541.12	56580.11
541.29	56568.41
541.46	56736.93
541.62	56566.07
541.79	57001.41
541.96	56605.86
542.13	56919.49
542.30	56910.13
542.47	57097.37
542.63	56938.21
542.80	57338.44
542.97	57265.89
543.14	57371.21
543.31	57350.15
543.48	57741.02
543.64	57659.10
543.81	57502.28
543.98	57553.77
544.15	57602.92
544.32	57537.39
544.48	57652.08
544.65	57652.08
544.82	57729.31
544.99	57439.09
545.16	57846.34
545.32	57609.95
545.49	57759.74
545.66	57771.44
545.83	57886.13
546.00	57958.69
546.16	57804.21
546.33	57865.06
546.50	57785.49
546.67	58000.82
546.83	57684.84
547.00	57853.36
547.17	57869.75
547.34	58007.84
547.50	58024.22
547.67	58237.21
547.84	58277.00
548.00	58426.79
548.17	58665.53
548.34	58351.90
548.51	58599.99
548.67	58454.88
548.84	58408.07
549.01	58253.59
549.18	58284.02
549.34	58431.47
549.51	58564.88
549.68	58607.01
549.84	58499.35
550.01	58787.24
550.18	58527.44
550.34	58646.80
550.51	58653.82
550.68	58887.88
550.84	58356.58
551.01	58906.60
551.18	58845.75
551.34	58827.02
551.51	58960.44
551.68	58707.66
551.84	58635.10
552.01	58747.45
552.18	59192.15
552.34	58674.89
552.51	58951.07
552.68	58705.32
552.84	58859.79
553.01	59257.68
553.18	59208.53
553.34	59014.27
553.51	58974.48
553.67	58855.11
553.84	59292.79
554.01	59030.65
554.17	59089.16
554.34	59042.35
554.51	59161.72
554.67	59274.07
554.84	59110.23
555.00	59238.96
555.17	59143.00
555.33	59320.88
555.50	59061.08
555.67	59032.99
555.83	59023.63
556.00	59325.56
556.16	59571.32
556.33	59566.63
556.50	59543.23
556.66	59503.44
556.83	59330.24
556.99	59657.91
557.16	59688.34
557.32	59742.17
557.49	59966.87
557.65	59526.84
557.82	59613.44
557.98	59494.08
558.15	59765.58
558.32	59538.55
558.48	59456.63
558.65	59643.87
558.81	59669.62
558.98	59856.86
559.14	60044.10
559.31	59927.08
559.47	59831.11
559.64	59833.46
559.80	60161.13
559.97	59854.52
560.13	59938.78
560.30	59931.76
560.46	60130.70
560.63	59831.11
560.79	59788.98
560.96	60130.70
561.12	60137.72
561.29	60032.40
561.45	60226.66
561.61	59992.61
561.78	60097.94
561.94	60060.49
562.11	59943.46
562.27	60086.23
562.44	60140.07
562.60	60191.56
562.77	60191.56
562.93	60100.28
563.10	60156.45
563.26	60151.77
563.42	60322.63
563.59	60158.79
563.75	60317.95
563.92	60254.75
564.08	60161.13
564.24	60334.33
564.41	60285.18
564.57	60339.01
564.74	60381.14
564.90	60273.48
565.07	60273.48
565.23	60346.03
565.39	60463.06
565.56	60488.80
565.72	60184.54
565.88	60390.50
566.05	60217.30
566.21	60488.80
566.38	60327.31
566.54	60388.16
566.70	60423.27
566.87	60713.50
567.03	60392.84
567.19	60540.30
567.36	60367.10
567.52	60434.97
567.68	60720.52
567.85	60479.44
568.01	60451.36
568.17	60371.78
568.34	60706.47
568.50	60449.02
568.66	60376.46
568.83	60617.53
568.99	60488.80
569.15	60608.17
569.32	60554.34
569.48	60591.79
569.64	60874.99
569.81	60547.32
569.97	60446.68
570.13	60554.34
570.30	60619.88
570.46	60739.24
570.62	60858.61
570.78	60753.29
570.95	60573.06
571.11	60973.30
571.27	60830.52
571.43	60874.99
571.60	60788.39
571.76	60835.20
571.92	60697.11
572.09	60439.65
572.25	60814.14
572.41	60678.39
572.57	60755.63
572.74	61020.11
572.90	60907.76
573.06	60846.91
573.22	60687.75
573.38	60743.92
573.55	60874.99
573.71	60963.93
573.87	60821.16
574.03	60652.64
574.20	60757.97
574.36	60706.47
574.52	60877.33
574.68	60912.44
574.84	61097.34
575.01	60891.38
575.17	61160.54
575.33	61003.72
575.49	60912.44
575.65	60858.61
575.82	60889.04
575.98	61146.50
576.14	61282.25
576.30	61158.20
576.46	60903.08
576.62	61013.08
576.79	60816.48
576.95	60769.67
577.11	60977.98
577.27	61095.00
577.43	61057.56
577.59	60825.84
577.75	60870.31
577.92	60786.05
578.08	61148.84
578.24	61024.79
578.40	61111.39
578.56	61099.68
578.72	61071.60
578.88	61272.88
579.04	61270.54
579.21	61251.82
579.37	61200.33
579.53	61298.63
579.69	60980.32
579.85	60905.42
580.01	61200.33
580.17	60898.40
580.33	61146.50
580.49	61190.97
580.65	61179.26
580.82	61015.43
580.98	61050.53
581.14	61083.30
581.30	61359.48
581.46	61050.53
581.62	61382.89
581.78	61123.09
581.94	61289.27
582.10	61095.00
582.26	61104.37
582.42	61125.43
582.58	61071.60
582.74	61073.94
582.90	61057.56
583.06	61083.30
583.22	61095.00
583.38	61118.41
583.54	61235.44
583.70	61127.77
583.86	61263.52
584.02	60872.65
584.18	61254.16
584.34	61354.80
584.50	61338.42
584.66	60954.57
584.82	60931.17
584.98	61221.39
585.14	61167.56
585.30	61153.52
585.46	61146.50
585.62	61195.65
585.78	61186.28
585.94	60963.93
586.10	61036.49
586.26	61080.96
586.42	61118.41
586.58	61209.69
586.74	61406.30
586.90	61174.58
587.06	61216.71
587.22	61361.82
587.38	61284.59
587.54	61378.21
587.70	61532.68
587.86	61123.09
588.02	61261.18
588.18	61497.58
588.34	61261.18
588.49	61134.79
