SpectraSuite Data File
++++++++++++++++++++++++++++++++++++
Date: Fri Oct 25 11:25:32 EDT 2013
User: price-jones
Dark Spectrum Present: No
Reference Spectrum Present: No
Number of Sampled Component Spectra: 1
Spectrometers: USB2+H05261
Integration Time (usec): 100000 (USB2+H05261)
Spectra Averaged: 1 (USB2+H05261)
Boxcar Smoothing: 0 (USB2+H05261)
Correct for Electrical Dark: No (USB2+H05261)
Strobe/Lamp Enabled: No (USB2+H05261)
Correct for Detector Non-linearity: No (USB2+H05261)
Correct for Stray Light: No (USB2+H05261)
Number of Pixels in Processed Spectrum: 2048
>>>>>Begin Processed Spectral Data<<<<<
365.73	278.52
365.92	278.52
366.12	278.52
366.32	238.73
366.52	196.60
366.72	149.79
366.91	189.58
367.11	166.18
367.31	128.73
367.51	124.05
367.70	170.86
367.90	168.52
368.10	112.35
368.30	149.79
368.49	88.94
368.69	152.13
368.89	203.63
369.09	114.69
369.28	177.88
369.48	163.84
369.68	220.01
369.87	234.05
370.07	203.63
370.27	220.01
370.47	306.61
370.66	643.65
370.86	657.69
371.06	697.48
371.25	784.08
371.45	681.10
371.65	718.54
371.84	669.39
372.04	713.86
372.24	781.74
372.44	641.31
372.63	671.73
372.83	718.54
373.03	746.63
373.22	763.01
373.42	777.06
373.62	755.99
373.81	805.14
374.01	816.85
374.21	802.80
374.40	807.48
374.60	868.34
374.79	744.29
374.99	788.76
375.19	772.38
375.38	875.36
375.58	844.93
375.78	870.68
375.97	877.70
376.17	999.41
376.37	828.55
376.56	880.04
376.76	870.68
376.95	863.66
377.15	929.19
377.35	894.08
377.54	966.64
377.74	990.05
377.93	877.70
378.13	898.77
378.33	880.04
378.52	947.92
378.72	973.66
378.91	924.51
379.11	966.64
379.31	945.58
379.50	870.68
379.70	994.73
379.89	985.37
380.09	997.07
380.28	1001.75
380.48	987.71
380.68	903.45
380.87	1011.11
381.07	1008.77
381.26	1048.56
381.46	1062.60
381.65	1076.65
381.85	1128.14
382.04	1006.43
382.24	1104.73
382.43	1050.90
382.63	1114.10
382.83	1039.20
383.02	1130.48
383.22	1153.88
383.41	1123.46
383.61	1144.52
383.80	1142.18
384.00	1179.63
384.19	1214.74
384.39	1193.67
384.58	1193.67
384.78	1123.46
384.97	1184.31
385.17	1184.31
385.36	1118.78
385.56	1188.99
385.75	1172.61
385.95	1165.59
386.14	1177.29
386.34	1205.38
386.53	1177.29
386.72	1078.99
386.92	1299.00
387.11	1317.72
387.31	1200.69
387.50	1254.53
387.70	1266.23
387.89	1226.44
388.09	1196.01
388.28	1198.35
388.48	1296.66
388.67	1282.61
388.86	1336.45
389.06	1355.17
389.25	1268.57
389.45	1303.68
389.64	1308.36
389.84	1366.87
390.03	1310.70
390.22	1357.51
390.42	1301.34
390.61	1430.07
390.81	1357.51
391.00	1483.90
391.19	1446.45
391.39	1369.21
391.58	1392.62
391.78	1490.92
391.97	1474.54
392.16	1401.98
392.36	1636.03
392.55	1614.97
392.75	1629.01
392.94	1612.63
393.13	1448.79
393.33	1521.35
393.52	1591.56
393.71	1610.29
393.91	1572.84
394.10	1556.46
394.29	1579.86
394.49	1643.06
394.68	1629.01
394.88	1561.14
395.07	1650.08
395.26	1598.59
395.46	1631.35
395.65	1664.12
395.84	1734.34
396.04	1715.61
396.23	1741.36
396.42	1732.00
396.62	1720.29
396.81	1804.55
397.00	1715.61
397.19	1867.75
397.39	1809.23
397.58	1830.30
397.77	1809.23
397.97	1851.36
398.16	1872.43
398.35	1923.92
398.55	1914.56
398.74	1834.98
398.93	1921.58
399.12	1921.58
399.32	1907.54
399.51	1926.26
399.70	2029.24
399.90	2003.50
400.09	1893.49
400.28	1956.69
400.47	2054.99
400.67	2069.03
400.86	2052.65
401.05	2150.95
401.24	2106.48
401.44	2146.27
401.63	2160.31
401.82	2193.08
402.01	2165.00
402.21	2174.36
402.40	2127.55
402.59	2186.06
402.78	2097.12
402.97	2235.21
403.17	2188.40
403.36	2298.41
403.55	2291.38
403.74	2473.95
403.93	2385.01
404.13	2394.37
404.32	2373.30
404.51	2326.49
404.70	2377.98
404.89	2394.37
405.09	2431.82
405.28	2406.07
405.47	2438.84
405.66	2382.67
405.85	2469.27
406.05	2450.54
406.24	2548.84
406.43	2623.74
406.62	2789.92
406.81	2789.92
407.00	2567.57
407.20	2642.46
407.39	2509.05
407.58	2600.34
407.77	2738.43
407.96	2799.28
408.15	2738.43
408.34	2785.24
408.54	2792.26
408.73	2841.41
408.92	2766.51
409.11	2958.44
409.30	2864.82
409.49	3014.61
409.68	2918.65
409.87	2928.01
410.07	2902.26
410.26	3028.65
410.45	3038.02
410.64	3098.87
410.83	3040.36
411.02	3009.93
411.21	3253.34
411.40	3190.15
411.59	3283.77
411.78	3070.78
411.98	3215.90
412.17	3279.09
412.36	3126.96
412.55	3368.03
412.74	3386.76
412.93	3421.86
413.12	3272.07
413.31	3524.85
413.50	3393.78
413.69	3372.71
413.88	3487.40
414.07	3557.61
414.26	3695.71
414.45	3599.74
414.64	3669.96
414.83	3723.79
415.02	3550.59
415.22	3754.22
415.41	3777.62
415.60	3698.05
415.79	3939.12
415.98	3950.82
416.17	3854.86
416.36	4035.08
416.55	4056.15
416.74	4154.45
416.93	4072.53
417.12	4042.11
417.31	4065.51
417.50	4170.83
417.69	4175.52
417.88	4304.25
418.07	4121.68
418.26	4325.31
418.45	4170.83
418.64	4475.10
418.83	4442.34
419.02	4372.12
419.21	4388.50
419.39	4437.66
419.58	4531.28
419.77	4416.59
419.96	4491.49
420.15	4599.15
420.34	4662.35
420.53	4514.89
420.72	4641.28
420.91	4596.81
421.10	4650.64
421.29	4741.93
421.48	4620.22
421.67	4706.82
421.86	4746.61
422.05	4704.48
422.24	4798.10
422.43	4760.65
422.61	4896.40
422.80	4997.04
422.99	4772.35
423.18	5011.09
423.37	4901.08
423.56	4856.61
423.75	4954.91
423.94	5034.49
424.13	4606.17
424.32	4657.67
424.50	4954.91
424.69	5100.03
424.88	5095.35
425.07	4901.08
425.26	4926.83
425.45	5074.28
425.64	4844.91
425.83	4917.47
426.01	5055.56
426.20	5062.58
426.39	4947.89
426.58	5069.60
426.77	5090.67
426.96	5195.99
427.15	5043.85
427.33	5118.75
427.52	5228.76
427.71	5172.58
427.90	5116.41
428.09	5191.31
428.28	5460.47
428.46	5378.55
428.65	5486.22
428.84	5528.35
429.03	5343.44
429.22	5355.15
429.40	5320.04
429.59	5493.24
429.78	5364.51
429.97	5242.80
430.16	5561.11
430.34	5432.38
430.53	5509.62
430.72	5582.18
430.91	5675.80
431.10	5610.26
431.28	5738.99
431.47	5774.10
431.66	5738.99
431.85	5694.52
432.03	5928.58
432.22	6080.71
432.41	5982.41
432.60	5867.72
432.79	5645.37
432.97	5853.68
433.16	6076.03
433.35	6026.88
433.54	6026.88
433.72	5954.32
433.91	6106.46
434.10	6094.76
434.28	6054.97
434.47	6097.10
434.66	6059.65
434.85	6167.31
435.03	6466.90
435.22	6303.06
435.41	6448.18
435.59	6396.68
435.78	6450.52
435.97	6487.96
436.16	6352.21
436.34	6417.75
436.53	6457.54
436.72	6651.80
436.90	6384.98
437.09	6612.01
437.28	6441.15
437.46	6670.53
437.65	6579.25
437.84	6609.67
438.02	6766.49
438.21	6806.28
438.40	6630.74
438.58	6888.20
438.77	7162.04
438.96	6876.49
439.14	7019.27
439.33	7042.67
439.52	7052.03
439.70	7140.97
439.89	7290.77
440.08	7262.68
440.26	7412.48
440.45	7248.64
440.63	7330.56
440.82	7777.60
441.01	7569.29
441.19	7775.26
441.38	7487.37
441.57	7691.00
441.75	7957.82
441.94	7990.59
442.12	7920.37
442.31	8100.59
442.50	7976.55
442.68	7836.11
442.87	7999.95
443.05	8154.43
443.24	8121.66
443.43	8063.15
443.61	8063.15
443.80	8423.59
443.98	7950.80
444.17	7829.09
444.35	8149.75
444.54	8297.20
444.73	8306.56
444.91	8255.07
445.10	8386.14
445.28	8121.66
445.47	8128.68
445.65	8393.16
445.84	8348.69
446.02	8386.14
446.21	8411.89
446.39	8379.12
446.58	8390.82
446.77	8575.72
446.95	8241.03
447.14	8344.01
447.32	8636.58
447.51	8468.06
447.69	8414.23
447.88	8393.16
448.06	8566.36
448.25	8500.83
448.43	8493.80
448.62	8557.00
448.80	8362.73
448.99	8573.38
449.17	8498.49
449.36	8786.37
449.54	8781.69
449.73	8730.20
449.91	8992.34
450.10	8908.08
450.28	9004.04
450.46	8779.35
450.65	8889.35
450.83	8973.61
451.02	8947.87
451.20	9238.09
451.39	9282.56
451.57	9062.55
451.76	9015.74
451.94	9118.73
452.13	9242.78
452.31	9034.47
452.49	9071.92
452.68	9315.33
452.86	9425.34
453.05	9479.17
453.23	9591.52
453.42	9259.16
453.60	9195.96
453.78	9404.27
453.97	9523.64
454.15	9565.77
454.34	9357.46
454.52	9570.45
454.70	9432.36
454.89	9528.32
455.07	9689.82
455.26	9802.16
455.44	9832.59
455.62	9928.55
455.81	9790.46
455.99	9774.08
456.17	10066.64
456.36	10090.05
456.54	10155.58
456.73	10125.16
456.91	10443.47
457.09	10324.10
457.28	10560.50
457.46	10253.89
457.64	10478.58
457.83	10473.90
458.01	10434.11
458.19	10672.84
458.38	10576.88
458.56	10792.21
458.74	10604.97
458.93	10714.97
459.11	10434.11
459.29	10824.98
459.48	10459.85
459.66	10485.60
459.84	10878.81
460.03	11037.97
460.21	10731.36
460.39	10918.60
460.57	10869.45
460.76	11077.76
460.94	11122.23
461.12	11314.15
461.31	11087.12
461.49	10953.71
461.67	10998.18
461.85	11449.90
462.04	11234.57
462.22	11812.68
462.40	11564.59
462.59	11307.13
462.77	11382.03
462.95	11571.61
463.13	11616.08
463.32	11606.72
463.50	11702.68
463.68	11644.17
463.86	11866.52
464.05	11442.88
464.23	11604.38
464.41	11960.14
464.59	11595.01
464.78	12152.06
464.96	12123.98
465.14	11812.68
465.32	12116.95
465.50	11740.13
465.69	12093.55
465.87	12070.14
466.05	12112.27
466.23	12198.87
466.41	12205.89
466.60	12512.50
466.78	12098.23
466.96	12414.20
467.14	12320.58
467.32	12210.57
467.51	12575.70
467.69	12126.32
467.87	12479.74
468.05	12435.27
468.23	12418.88
468.41	12585.06
468.60	12629.53
468.78	12571.02
468.96	12547.61
469.14	12788.69
469.32	13221.69
469.50	12507.82
469.69	12865.92
469.87	13233.39
470.05	12915.08
470.23	13104.66
470.41	13008.70
470.59	13275.52
470.77	12940.82
470.95	12994.65
471.14	13465.10
471.32	13036.78
471.50	13561.06
471.68	13523.62
471.86	13422.97
472.04	13771.71
472.22	14036.19
472.40	13460.42
472.58	13827.88
472.77	13844.27
472.95	14228.12
473.13	14527.71
473.31	13961.30
473.49	13855.97
473.67	14104.07
473.85	14340.46
474.03	14504.30
474.21	14523.02
474.39	14637.71
474.57	14621.33
474.75	14658.78
474.93	14916.23
475.12	14757.08
475.30	15187.74
475.48	14937.30
475.66	15059.01
475.84	14930.28
476.02	15487.32
476.20	15171.35
476.38	15506.05
476.56	16166.08
476.74	15833.72
476.92	15990.54
477.10	15805.64
477.28	15782.23
477.46	16154.38
477.64	16215.23
477.82	16475.03
478.00	16812.07
478.18	16606.10
478.36	16786.32
478.54	17151.45
478.72	17177.19
478.90	17116.34
479.08	17247.41
479.26	17465.08
479.44	17713.17
479.62	17799.77
479.80	18139.15
479.98	18178.94
480.16	18567.47
480.34	18260.86
480.52	18448.10
480.70	18579.17
480.88	18281.92
481.06	18696.20
481.24	18506.62
481.41	19098.77
481.59	19105.79
481.77	19520.07
481.95	19316.44
482.13	19531.77
482.31	19632.41
482.49	20163.72
482.67	20137.97
482.85	20467.98
483.03	20659.91
483.21	20798.00
483.39	20931.41
483.57	21001.63
483.74	20954.82
483.92	21455.69
484.10	20971.20
484.28	21514.20
484.46	21979.97
484.64	22228.07
484.82	21919.12
485.00	22188.28
485.18	22995.76
485.35	22693.83
485.53	22974.70
485.71	22988.74
485.89	23173.64
486.07	23108.11
486.25	23161.94
486.43	23583.24
486.61	24013.90
486.78	23838.36
486.96	23854.74
487.14	24526.47
487.32	24322.85
487.50	24893.94
487.68	24580.31
487.85	24870.53
488.03	25329.28
488.21	25607.80
488.39	25729.51
488.57	25956.54
488.75	26057.18
488.92	26174.21
489.10	26412.95
489.28	26579.12
489.46	26775.73
489.64	26939.57
489.81	27367.88
489.99	27686.20
490.17	27779.82
490.35	28095.79
490.53	28156.64
490.70	28189.41
490.88	27882.80
491.06	28510.07
491.24	28622.41
491.41	28833.06
491.59	29027.32
491.77	29064.77
491.95	29376.06
492.13	29560.97
492.30	29626.50
492.48	29446.28
492.66	29935.45
492.84	30363.77
493.01	30380.15
493.19	30560.37
493.37	30941.88
493.54	30902.09
493.72	31461.48
493.90	31260.20
494.08	31711.92
494.25	31786.82
494.43	31426.37
494.61	31908.52
494.79	32327.48
494.96	32004.49
495.14	32456.21
495.32	32570.90
495.49	32505.36
495.67	33029.64
495.85	33436.89
496.02	33532.86
496.20	33869.89
496.38	33862.87
496.55	34143.74
496.73	34616.52
496.91	34761.64
497.09	34623.54
497.26	34771.00
497.44	34993.35
497.62	35019.10
497.79	35999.78
497.97	35393.58
498.14	35810.20
498.32	36002.12
498.50	35941.27
498.67	36561.51
498.85	36121.49
499.03	36332.14
499.20	36013.82
499.38	36641.09
499.56	37038.98
499.73	37109.19
499.91	37156.00
500.08	37113.87
500.26	36842.37
500.44	37383.04
500.61	37778.59
500.79	37617.09
500.97	37876.89
501.14	38061.79
501.32	38515.86
501.49	38321.59
501.67	38667.99
501.84	38436.28
502.02	38595.43
502.20	38670.33
502.37	38911.41
502.55	39321.00
502.72	38946.51
502.90	39379.51
503.07	39349.09
503.25	39524.63
503.43	39475.48
503.60	39929.54
503.78	40011.46
503.95	39739.96
504.13	40144.87
504.30	40275.94
504.48	40109.76
504.65	40446.80
504.83	40720.64
505.01	41195.77
505.18	41123.21
505.36	41537.49
505.53	40879.80
505.71	40900.86
505.88	41441.53
506.06	41532.81
506.23	41949.42
506.41	41310.46
506.58	42029.00
506.76	41846.44
506.93	42024.32
507.11	42197.52
507.28	42117.94
507.46	41944.74
507.63	43035.43
507.81	43077.56
507.98	42747.54
508.16	43075.22
508.33	43466.09
508.50	43281.19
508.68	43110.33
508.85	43243.74
509.03	43749.29
509.20	43648.65
509.38	44044.20
509.55	43995.05
509.73	44184.63
509.90	44025.48
510.08	44435.07
510.25	44240.81
510.42	44673.81
510.60	44907.86
510.77	45338.52
510.95	45062.33
511.12	44809.56
511.30	45130.21
511.47	45282.34
511.64	45090.42
511.82	45675.55
511.99	45265.96
512.17	45542.14
512.34	45801.94
512.51	46059.40
512.69	46550.91
512.86	46143.66
513.04	46520.49
513.21	46506.44
513.38	46546.23
513.56	46735.82
513.73	46497.08
513.90	46674.96
514.08	46735.82
514.25	46815.40
514.43	47405.21
514.60	47353.72
514.77	47004.98
514.95	47433.30
515.12	47393.51
515.29	47224.99
515.47	47519.90
515.64	47660.33
515.81	47882.68
515.99	47995.03
516.16	48320.36
516.33	47997.37
516.51	48250.14
516.68	48222.06
516.85	48257.17
517.03	48720.59
517.20	48446.75
517.37	48671.44
517.54	48507.60
517.72	48971.03
517.89	48987.41
518.06	49261.26
518.24	49010.82
518.41	48973.37
518.58	49507.01
518.75	48882.09
518.93	49588.93
519.10	49595.95
519.27	49635.74
519.45	49523.40
519.62	49968.10
519.79	49507.01
519.96	49710.64
520.14	49670.85
520.31	49827.66
520.48	50440.89
520.65	50108.53
520.83	50117.89
521.00	50375.35
521.17	50211.51
521.34	50337.90
521.52	50658.56
521.69	51000.27
521.86	50838.78
522.03	51026.02
522.20	51103.26
522.38	51157.09
522.55	51444.98
522.72	51231.99
522.89	51253.05
523.07	51295.18
523.24	51341.99
523.41	51655.62
523.58	51601.79
523.75	51777.33
523.92	51636.90
524.10	51496.47
524.27	51592.43
524.44	51854.57
524.61	51817.12
524.78	51863.93
524.96	52198.63
525.13	51908.40
525.30	52282.89
525.47	52023.09
525.64	52303.95
525.81	52442.04
525.98	52467.79
526.16	52332.04
526.33	52509.92
526.50	52818.87
526.67	52530.98
526.84	52765.04
527.01	52800.15
527.18	52472.47
527.36	52673.76
527.53	52699.50
527.70	53169.95
527.87	52846.96
528.04	53095.05
528.21	53361.87
528.38	53272.93
528.55	53565.50
528.72	53050.58
528.89	53181.65
529.07	53104.41
529.24	53310.38
529.41	53413.37
529.58	53614.65
529.75	53418.05
529.92	53586.57
530.09	53609.97
530.26	53717.64
530.43	53867.43
530.60	53511.67
530.77	53897.86
530.94	53750.40
531.11	53741.04
531.28	53982.12
531.46	53956.37
531.63	53848.71
531.80	54094.46
531.97	54260.64
532.14	54370.64
532.31	54272.34
532.48	54279.36
532.65	54415.11
532.82	54181.06
532.99	54333.20
533.16	54651.51
533.33	54946.42
533.50	54855.14
533.67	54642.15
533.84	54447.88
534.01	54625.76
534.18	55072.81
534.35	55021.31
534.52	55023.65
534.69	55194.51
534.86	54939.39
535.03	54932.37
535.20	54976.84
535.37	55374.73
535.54	55269.41
535.71	55051.74
535.88	55241.32
536.05	55332.60
536.22	55477.72
536.38	55543.25
536.55	55400.48
536.72	55306.86
536.89	55477.72
537.06	55576.02
537.23	55760.92
537.40	55419.20
537.57	55576.02
537.74	55906.04
537.91	55655.60
538.08	55730.50
538.25	55632.19
538.42	55800.71
538.59	56004.34
538.75	55674.32
538.92	55632.19
539.09	55917.74
539.26	55903.70
539.43	55856.88
539.60	56310.95
539.77	56341.38
539.94	56259.46
540.11	56287.54
540.28	56353.08
540.44	56449.04
540.61	56369.46
540.78	56109.66
540.95	56427.98
541.12	56172.86
541.29	56034.77
541.46	56631.60
541.62	56495.85
541.79	56608.20
541.96	56006.68
542.13	56479.47
542.30	56669.05
542.47	56910.13
542.63	56741.61
542.80	56886.72
542.97	56844.59
543.14	57106.73
543.31	57331.42
543.48	57120.77
543.64	57357.17
543.81	57162.90
543.98	57247.16
544.15	57265.89
544.32	57233.12
544.48	57418.02
544.65	57104.39
544.82	57158.22
544.99	57080.98
545.16	57413.34
545.32	57563.14
545.49	57556.11
545.66	57818.25
545.83	57413.34
546.00	57504.62
546.16	57366.53
546.33	57366.53
546.50	57233.12
546.67	57609.95
546.83	57286.95
547.00	57626.33
547.17	57649.74
547.34	57652.08
547.50	57645.05
547.67	58145.93
547.84	57846.34
548.00	57968.05
548.17	57874.43
548.34	58059.33
548.51	58007.84
548.67	58082.73
548.84	57909.53
549.01	57970.39
549.18	58216.14
549.34	58148.27
549.51	58195.08
549.68	58417.43
549.84	58328.49
550.01	58246.57
550.18	58342.53
550.34	58335.51
550.51	58401.05
550.68	58225.51
550.84	57902.51
551.01	58323.81
551.18	58351.90
551.34	58190.40
551.51	58405.73
551.68	58504.03
551.84	58230.19
552.01	58129.54
552.18	58344.87
552.34	58246.57
552.51	58581.27
552.68	58419.77
552.84	58478.28
553.01	58749.79
553.18	58787.24
553.34	58803.62
553.51	58688.93
553.67	58815.32
553.84	58632.76
554.01	58897.24
554.17	58862.13
554.34	58922.99
554.51	59063.42
554.67	58915.96
554.84	58993.20
555.00	58897.24
555.17	58937.03
555.33	59018.95
555.50	58782.55
555.67	59030.65
555.83	58667.87
556.00	58845.75
556.16	59313.86
556.33	59061.08
556.50	59161.72
556.66	59227.26
556.83	58911.28
556.99	59360.67
557.16	59405.14
557.32	59304.49
557.49	59571.32
557.65	59255.34
557.82	59208.53
557.98	59367.69
558.15	59234.28
558.32	59423.86
558.48	59274.07
558.65	59414.50
558.81	59456.63
558.98	59412.16
559.14	59430.88
559.31	59498.76
559.47	59590.04
559.64	59519.82
559.80	59803.03
559.97	59646.21
560.13	59501.10
560.30	59433.22
560.46	59664.94
560.63	59863.88
560.79	59646.21
560.96	59704.73
561.12	59852.18
561.29	59629.83
561.45	59716.43
561.61	59655.57
561.78	59704.73
561.94	59742.17
562.11	59583.02
562.27	59709.41
562.44	59903.67
562.60	60046.44
562.77	59973.89
562.93	59718.77
563.10	59880.27
563.26	59875.58
563.42	59980.91
563.59	59779.62
563.75	59992.61
563.92	59992.61
564.08	59723.45
564.24	60039.42
564.41	59894.31
564.57	60102.62
564.74	59950.48
564.90	60053.47
565.07	59976.23
565.23	59877.93
565.39	59957.50
565.56	60135.38
565.72	59964.52
565.88	59985.59
566.05	60053.47
566.21	60090.91
566.38	59971.55
566.54	60090.91
566.70	60137.72
566.87	60257.09
567.03	59959.84
567.19	60367.10
567.36	60226.66
567.52	60247.73
567.68	60549.66
567.85	60163.47
568.01	60275.82
568.17	60065.17
568.34	60231.35
568.50	60238.37
568.66	60327.31
568.83	60172.83
568.99	60240.71
569.15	60479.44
569.32	60285.18
569.48	60434.97
569.64	60367.10
569.81	60154.11
569.97	60320.29
570.13	60324.97
570.30	60072.19
570.46	60254.75
570.62	60292.20
570.78	60294.54
570.95	60317.95
571.11	60509.87
571.27	60432.63
571.43	60554.34
571.60	60526.25
571.76	60296.88
571.92	60608.17
572.09	60411.57
572.25	60306.24
572.41	60465.40
572.57	60547.32
572.74	60622.22
572.90	60371.78
573.06	60320.29
573.22	60416.25
573.38	60360.08
573.55	60268.79
573.71	60594.13
573.87	60542.64
574.03	60430.29
574.20	60509.87
574.36	60456.04
574.52	60633.92
574.68	60608.17
574.84	60694.77
575.01	60762.65
575.17	60535.62
575.33	60566.04
575.49	60477.10
575.65	60640.94
575.82	60722.86
575.98	60783.71
576.14	60807.12
576.30	60589.45
576.46	60776.69
576.62	60617.53
576.79	60460.72
576.95	60411.57
577.11	60491.15
577.27	60554.34
577.43	60774.35
577.59	60537.96
577.75	60615.19
577.92	60605.83
578.08	60580.09
578.24	60669.03
578.40	60963.93
578.56	60753.29
578.72	60818.82
578.88	60867.97
579.04	60816.48
579.21	60849.25
579.37	60750.94
579.53	61003.72
579.69	60552.00
579.85	60790.73
580.01	60687.75
580.17	60727.54
580.33	60919.46
580.49	60832.86
580.65	60706.47
580.82	60617.53
580.98	60722.86
581.14	60603.49
581.30	60713.50
581.46	60704.13
581.62	60767.33
581.78	60739.24
581.94	60877.33
582.10	60811.80
582.26	60870.31
582.42	60795.42
582.58	60900.74
582.74	60652.64
582.90	60764.99
583.06	60860.95
583.22	60610.51
583.38	60753.29
583.54	60839.89
583.70	60919.46
583.86	60891.38
584.02	60832.86
584.18	60954.57
584.34	60795.42
584.50	60889.04
584.66	60903.08
584.82	60776.69
584.98	60928.83
585.14	60928.83
585.30	60931.17
585.46	60870.31
585.62	61001.38
585.78	61024.79
585.94	60640.94
586.10	60942.87
586.26	60975.64
586.42	60884.36
586.58	60954.57
586.74	60872.65
586.90	60828.18
587.06	60449.02
587.22	60994.36
587.38	60942.87
587.54	60994.36
587.70	61034.15
587.86	61092.66
588.02	60860.95
588.18	61071.60
588.34	60987.34
588.49	61071.60
