SpectraSuite Data File
++++++++++++++++++++++++++++++++++++
Date: Fri Oct 25 11:26:08 EDT 2013
User: price-jones
Dark Spectrum Present: No
Reference Spectrum Present: No
Number of Sampled Component Spectra: 1
Spectrometers: USB2+H05261
Integration Time (usec): 100000 (USB2+H05261)
Spectra Averaged: 1 (USB2+H05261)
Boxcar Smoothing: 0 (USB2+H05261)
Correct for Electrical Dark: No (USB2+H05261)
Strobe/Lamp Enabled: No (USB2+H05261)
Correct for Detector Non-linearity: No (USB2+H05261)
Correct for Stray Light: No (USB2+H05261)
Number of Pixels in Processed Spectrum: 2048
>>>>>Begin Processed Spectral Data<<<<<
365.73	320.65
365.92	320.65
366.12	320.65
366.32	189.58
366.52	163.84
366.72	131.07
366.91	152.13
367.11	161.50
367.31	154.48
367.51	166.18
367.70	126.39
367.90	124.05
368.10	166.18
368.30	81.92
368.49	152.13
368.69	140.43
368.89	161.50
369.09	156.82
369.28	182.56
369.48	194.26
369.68	149.79
369.87	203.63
370.07	215.33
370.27	276.18
370.47	332.36
370.66	641.31
370.86	535.98
371.06	641.31
371.25	676.41
371.45	697.48
371.65	678.76
371.84	739.61
372.04	688.12
372.24	777.06
372.44	760.67
372.63	671.73
372.83	699.82
373.03	770.04
373.22	802.80
373.42	758.33
373.62	809.83
373.81	772.38
374.01	917.49
374.21	821.53
374.40	748.97
374.60	884.72
374.79	868.34
374.99	882.38
375.19	887.06
375.38	833.23
375.58	887.06
375.78	861.32
375.97	880.04
376.17	901.11
376.37	856.64
376.56	816.85
376.76	929.19
376.95	894.08
377.15	947.92
377.35	929.19
377.54	908.13
377.74	842.59
377.93	919.83
378.13	861.32
378.33	966.64
378.52	851.96
378.72	999.41
378.91	985.37
379.11	1008.77
379.31	917.49
379.50	964.30
379.70	884.72
379.89	959.62
380.09	1046.22
380.28	973.66
380.48	1032.18
380.68	973.66
380.87	830.89
381.07	1001.75
381.26	1086.01
381.46	994.73
381.65	1100.05
381.85	990.05
382.04	1111.75
382.24	1048.56
382.43	1057.92
382.63	1043.88
382.83	1123.46
383.02	1064.94
383.22	1146.86
383.41	1137.50
383.61	1130.48
383.80	1095.37
384.00	1071.97
384.19	1132.82
384.39	1069.62
384.58	1203.04
384.78	1144.52
384.97	1188.99
385.17	1090.69
385.36	1149.20
385.56	1149.20
385.75	1226.44
385.95	1242.82
386.14	1263.89
386.34	1146.86
386.53	1210.06
386.72	1198.35
386.92	1214.74
387.11	1315.38
387.31	1160.91
387.50	1355.17
387.70	1233.46
387.89	1387.94
388.09	1299.00
388.28	1280.27
388.48	1296.66
388.67	1331.76
388.86	1345.81
389.06	1369.21
389.25	1334.11
389.45	1273.25
389.64	1226.44
389.84	1383.26
390.03	1425.39
390.22	1343.47
390.42	1413.68
390.61	1359.85
390.81	1453.47
391.00	1465.18
391.19	1488.58
391.39	1437.09
391.58	1409.00
391.78	1444.11
391.97	1448.79
392.16	1469.86
392.36	1577.52
392.55	1535.39
392.75	1476.88
392.94	1509.65
393.13	1561.14
393.33	1451.13
393.52	1434.75
393.71	1570.50
393.91	1633.69
394.10	1591.56
394.29	1600.93
394.49	1614.97
394.68	1629.01
394.88	1650.08
395.07	1750.72
395.26	1638.38
395.46	1682.85
395.65	1720.29
395.84	1736.68
396.04	1713.27
396.23	1668.80
396.42	1842.00
396.62	1813.92
396.81	1802.21
397.00	1736.68
397.19	1727.32
397.39	1717.95
397.58	1795.19
397.77	1849.02
397.97	1874.77
398.16	1865.41
398.35	1856.04
398.55	1860.73
398.74	1804.55
398.93	1926.26
399.12	1961.37
399.32	1940.30
399.51	1921.58
399.70	1980.09
399.90	1874.77
400.09	2003.50
400.28	2134.57
400.47	1963.71
400.67	2073.71
400.86	2069.03
401.05	2118.18
401.24	2108.82
401.44	2214.15
401.63	2090.10
401.82	2085.42
402.01	1961.37
402.21	2169.68
402.40	2062.01
402.59	2193.08
402.78	2289.04
402.97	2160.31
403.17	2249.25
403.36	2204.78
403.55	2260.96
403.74	2361.60
403.93	2345.22
404.13	2431.82
404.32	2345.22
404.51	2298.41
404.70	2373.30
404.89	2338.20
405.09	2377.98
405.28	2534.80
405.47	2403.73
405.66	2462.24
405.85	2541.82
406.05	2541.82
406.24	2534.80
406.43	2502.03
406.62	2644.81
406.81	2712.68
407.00	2513.74
407.20	2605.02
407.39	2595.65
407.58	2661.19
407.77	2696.30
407.96	2768.85
408.15	2803.96
408.34	2724.38
408.54	2759.49
408.73	2738.43
408.92	2878.86
409.11	2923.33
409.30	2825.03
409.49	2855.45
409.68	2918.65
409.87	2846.09
410.07	3042.70
410.26	2972.48
410.45	2963.12
410.64	2911.63
410.83	3047.38
411.02	3042.70
411.21	3176.11
411.40	3180.79
411.59	3215.90
411.78	3169.09
411.98	3192.49
412.17	3201.85
412.36	3300.16
412.55	3398.46
412.74	3351.65
412.93	3496.76
413.12	3391.44
413.31	3548.25
413.50	3503.78
413.69	3475.70
413.88	3646.55
414.07	3485.06
414.26	3660.60
414.45	3592.72
414.64	3669.96
414.83	3747.20
415.02	3684.00
415.22	3744.86
415.41	3822.09
415.60	3831.46
415.79	3831.46
415.98	3941.46
416.17	3878.27
416.36	3889.97
416.55	4107.64
416.74	4035.08
416.93	3976.57
417.12	4032.74
417.31	4344.03
417.50	4212.96
417.69	4212.96
417.88	4482.13
418.07	4306.59
418.26	4266.80
418.45	4334.67
418.64	4442.34
418.83	4458.72
419.02	4580.43
419.21	4550.00
419.39	4493.83
419.58	4325.31
419.77	4461.06
419.96	4683.41
420.15	4423.61
420.34	4568.73
420.53	4610.86
420.72	4755.97
420.91	4667.03
421.10	4770.01
421.29	4678.73
421.48	4704.48
421.67	4608.51
421.86	4887.04
422.05	4828.53
422.24	4849.59
422.43	4847.25
422.61	4858.95
422.80	4877.68
422.99	4851.93
423.18	4922.15
423.37	4968.96
423.56	4938.53
423.75	5027.47
423.94	4910.44
424.13	4468.08
424.32	4821.50
424.50	4975.98
424.69	4924.49
424.88	4961.94
425.07	4821.50
425.26	4856.61
425.45	4882.36
425.64	4968.96
425.83	4952.57
426.01	5125.77
426.20	5107.05
426.39	4947.89
426.58	4994.70
426.77	5001.72
426.96	5025.13
427.15	5226.42
427.33	5217.05
427.52	5139.82
427.71	5205.35
427.90	5139.82
428.09	5320.04
428.28	5357.49
428.46	5228.76
428.65	5287.27
428.84	5472.17
429.03	5427.70
429.22	5186.63
429.40	5467.49
429.59	5556.43
429.78	5235.78
429.97	5380.89
430.16	5453.45
430.34	5533.03
430.53	5788.14
430.72	5645.37
430.91	5731.97
431.10	5568.13
431.28	5673.46
431.47	5841.98
431.66	5818.57
431.85	5858.36
432.03	6031.56
432.22	5825.59
432.41	5827.93
432.60	5956.66
432.79	5872.40
432.97	5968.37
433.16	5975.39
433.35	5949.64
433.54	6094.76
433.72	6188.38
433.91	6148.59
434.10	5966.03
434.28	6181.35
434.47	6242.21
434.66	6230.51
434.85	6399.02
435.03	6282.00
435.22	6113.48
435.41	6478.60
435.59	6345.19
435.78	6520.73
435.97	6366.26
436.16	6296.04
436.34	6471.58
436.53	6560.52
436.72	6621.38
436.90	6345.19
437.09	6586.27
437.28	6469.24
437.46	6359.24
437.65	6630.74
437.84	6733.72
438.02	6684.57
438.21	6817.98
438.40	6682.23
438.58	7002.88
438.77	6890.54
438.96	6881.18
439.14	7173.74
439.33	7253.32
439.52	7148.00
439.70	7220.55
439.89	7426.52
440.08	7262.68
440.26	7220.55
440.45	7386.73
440.63	7456.95
440.82	7655.89
441.01	7517.80
441.19	7665.25
441.38	7852.50
441.57	7775.26
441.75	7742.49
441.94	7784.62
442.12	7985.91
442.31	8180.17
442.50	7936.76
442.68	7810.37
442.87	7941.44
443.05	8105.28
443.24	8255.07
443.43	8084.21
443.61	8074.85
443.80	8449.33
443.98	8053.78
444.17	7812.71
444.35	8205.92
444.54	8416.57
444.73	8308.90
444.91	8280.82
445.10	8351.03
445.28	8203.58
445.47	8292.52
445.65	8327.63
445.84	8336.99
446.02	8491.46
446.21	8322.94
446.39	8360.39
446.58	8475.08
446.77	8304.22
446.95	8264.43
447.14	8461.04
447.32	8566.36
447.51	8505.51
447.69	8461.04
447.88	8643.60
448.06	8655.30
448.25	8491.46
448.43	8566.36
448.62	8517.21
448.80	8634.24
448.99	8690.41
449.17	8800.41
449.36	8571.04
449.54	8917.44
449.73	8800.41
449.91	8959.57
450.10	8812.12
450.28	9142.13
450.46	8980.64
450.65	9186.60
450.83	8926.80
451.02	8947.87
451.20	9263.84
451.39	9231.07
451.57	9025.11
451.76	9006.38
451.94	9132.77
452.13	9144.47
452.31	9324.69
452.49	9184.26
452.68	9149.15
452.86	9184.26
453.05	9479.17
453.23	9408.95
453.42	9310.65
453.60	9483.85
453.78	9432.36
453.97	9441.72
454.15	9420.66
454.34	9359.80
454.52	9722.59
454.70	9488.53
454.89	9769.40
455.07	9614.92
455.26	9617.26
455.44	9750.67
455.62	9966.00
455.81	9755.35
455.99	9961.32
456.17	10059.62
456.36	10040.90
456.54	10174.31
456.73	10361.55
456.91	10380.28
457.09	10237.50
457.28	10490.28
457.46	10237.50
457.64	10640.08
457.83	10345.17
458.01	10291.34
458.19	10644.76
458.38	10361.55
458.56	10583.90
458.74	10363.89
458.93	10455.17
459.11	10832.00
459.29	10707.95
459.48	10827.32
459.66	10895.19
459.84	10927.96
460.03	11014.56
460.21	10890.51
460.39	10916.26
460.57	10925.62
460.76	11178.40
460.94	11321.17
461.12	11171.38
461.31	11220.53
461.49	11000.52
461.67	10958.39
461.85	11332.87
462.04	11440.54
462.22	11707.36
462.40	11410.11
462.59	11590.33
462.77	11517.78
462.95	11576.29
463.13	11529.48
463.32	11536.50
463.50	11620.76
463.68	11676.93
463.86	11744.81
464.05	11538.84
464.23	11772.89
464.41	12004.61
464.59	11616.08
464.78	12004.61
464.96	11885.24
465.14	11793.96
465.32	11997.59
465.50	11892.26
465.69	12362.71
465.87	12109.93
466.05	12077.16
466.23	12142.70
466.41	12170.79
466.60	12372.07
466.78	11999.93
466.96	12236.32
467.14	12386.12
467.32	12379.09
467.51	12568.68
467.69	12140.36
467.87	12159.08
468.05	12547.61
468.23	12351.01
468.41	12365.05
468.60	12596.76
468.78	12582.72
468.96	12545.27
469.14	12594.42
469.32	12856.56
469.50	12491.44
469.69	12718.47
469.87	13041.46
470.05	13046.15
470.23	12959.55
470.41	13170.19
470.59	13305.95
470.77	13163.17
470.95	13046.15
471.14	13619.58
471.32	13261.48
471.50	13502.55
471.68	13350.42
471.86	13563.40
472.04	13504.89
472.22	13844.27
472.40	13720.22
472.58	13748.31
472.77	13776.39
472.95	13954.27
473.13	14555.79
473.31	14183.65
473.49	14139.18
473.67	14045.55
473.85	14410.68
474.03	14473.87
474.21	14656.43
474.39	14686.86
474.57	14408.34
474.75	15005.17
474.93	14740.69
475.12	14967.73
475.30	15157.31
475.48	14906.87
475.66	14974.75
475.84	15030.92
476.02	15274.34
476.20	15304.76
476.38	15667.55
476.56	16271.40
476.74	15672.23
476.92	15695.63
477.10	15847.77
477.28	16404.81
477.46	16252.68
477.64	16292.47
477.82	16451.63
478.00	16926.75
478.18	16517.16
478.36	16830.79
478.54	16826.11
478.72	17200.60
478.90	17240.39
479.08	17572.74
479.26	17900.42
479.44	17586.79
479.62	17816.16
479.80	18122.77
479.98	18118.09
480.16	18728.97
480.34	18508.96
480.52	18523.00
480.70	18663.43
480.88	18277.24
481.06	18382.57
481.24	18686.84
481.41	18972.38
481.59	19002.81
481.77	19176.01
481.95	19513.05
482.13	19693.27
482.31	19735.40
482.49	19950.73
482.67	20023.28
482.85	20311.17
483.03	20451.60
483.21	20741.83
483.39	20900.98
483.57	20933.75
483.74	21256.75
483.92	21390.16
484.10	21242.70
484.28	21434.63
484.46	22061.89
484.64	22462.12
484.82	21788.05
485.00	22068.91
485.18	22656.39
485.35	22965.34
485.53	22726.60
485.71	22867.03
485.89	23613.66
486.07	22937.25
486.25	23304.71
486.43	23372.59
486.61	23756.44
486.78	23857.08
486.96	24166.03
487.14	24414.13
487.32	24748.82
487.50	24702.01
487.68	24758.19
487.85	25085.86
488.03	25532.90
488.21	25743.55
488.39	25673.34
488.57	26075.91
488.75	26085.27
488.92	26602.53
489.10	26401.24
489.28	26810.84
489.46	27414.69
489.64	26820.20
489.81	27620.66
489.99	27564.49
490.17	27723.65
490.35	28081.75
490.53	27894.50
490.70	28404.74
490.88	28304.10
491.06	28563.90
491.24	28828.38
491.41	29102.22
491.59	29144.35
491.77	29170.10
491.95	29380.74
492.13	29525.86
492.30	29851.19
492.48	29991.62
492.66	29720.12
492.84	30412.92
493.01	30632.93
493.19	30824.86
493.37	30965.29
493.54	31267.22
493.72	31480.21
493.90	31405.31
494.08	31519.99
494.25	31583.19
494.43	32123.85
494.61	32156.62
494.79	31854.69
494.96	32531.11
495.14	32538.13
495.32	32746.44
495.49	33125.60
495.67	33055.39
495.85	33504.77
496.02	33158.37
496.20	33970.54
496.38	34017.35
496.55	34291.19
496.73	34841.21
496.91	34700.78
497.09	34698.44
497.26	34948.88
497.44	34778.02
497.62	35253.15
497.79	35222.72
497.97	35166.55
498.14	35695.51
498.32	36013.82
498.50	36381.29
498.67	36055.95
498.85	36657.47
499.03	36926.63
499.20	36568.53
499.38	36655.13
499.56	36573.21
499.73	36931.31
499.91	37581.98
500.08	37411.12
500.26	36996.85
500.44	37493.04
500.61	37490.70
500.79	37897.95
500.97	38164.78
501.14	38064.13
501.32	38281.80
501.49	38253.72
501.67	38305.21
501.84	38574.37
502.02	38710.12
502.20	38965.24
502.37	39405.26
502.55	38909.07
502.72	39304.62
502.90	39353.77
503.07	39278.87
503.25	39695.49
503.43	39625.27
503.60	39526.97
503.78	40392.97
503.95	39910.82
504.13	40069.97
504.30	40699.58
504.48	40172.96
504.65	40999.16
504.83	40868.09
505.01	40964.06
505.18	41125.55
505.36	41390.03
505.53	41097.47
505.71	41134.92
505.88	41467.27
506.06	41235.56
506.23	41820.69
506.41	41546.85
506.58	42089.85
506.76	41816.01
506.93	41937.72
507.11	42525.19
507.28	42473.70
507.46	42101.56
507.63	42607.11
507.81	42981.60
507.98	42752.23
508.16	43426.30
508.33	43761.00
508.50	43349.06
508.68	43419.28
508.85	43763.34
509.03	43339.70
509.20	43374.81
509.38	44610.61
509.55	44175.27
509.73	44142.50
509.90	44488.90
510.08	44257.19
510.25	44692.53
510.42	44935.95
510.60	44938.29
510.77	45088.08
510.95	45160.64
511.12	45059.99
511.30	45001.48
511.47	44800.19
511.64	44905.52
511.82	45820.67
511.99	45387.67
512.17	45553.85
512.34	45324.47
512.51	46106.21
512.69	46263.03
512.86	46415.16
513.04	46445.59
513.21	46344.95
513.38	46415.16
513.56	46700.71
513.73	46443.25
513.90	46731.14
514.08	46637.51
514.25	46955.83
514.43	47206.26
514.60	47536.28
514.77	47281.16
514.95	47669.69
515.12	47454.36
515.29	47421.59
515.47	47526.92
515.64	48051.20
515.81	47770.33
515.99	48332.06
516.16	48074.60
516.33	48322.70
516.51	48423.34
516.68	48264.19
516.85	48421.00
517.03	48470.15
517.20	48516.96
517.37	48872.73
517.54	48809.53
517.72	48582.50
517.89	49059.97
518.06	49174.66
518.24	49083.37
518.41	48978.05
518.58	49387.64
518.75	49572.55
518.93	49471.90
519.10	49298.70
519.27	49521.05
519.45	49450.84
519.62	49469.56
519.79	49382.96
519.96	50108.53
520.14	49911.92
520.31	50183.43
520.48	50497.06
520.65	50169.38
520.83	50607.06
521.00	50705.37
521.17	50541.53
521.34	50445.57
521.52	50768.56
521.69	50473.65
521.86	50892.61
522.03	50625.79
522.20	51161.77
522.38	51168.79
522.55	51246.03
522.72	51143.05
522.89	51196.88
523.07	51482.42
523.24	51480.08
523.41	51648.60
523.58	51746.90
523.75	51824.14
523.92	51805.42
524.10	51657.96
524.27	51798.40
524.44	52020.75
524.61	52121.39
524.78	52137.77
524.96	52233.74
525.13	52105.01
525.30	52348.42
525.47	52294.59
525.64	52163.52
525.81	52435.02
525.98	52545.03
526.16	52521.62
526.33	52406.94
526.50	52940.58
526.67	52858.66
526.84	52769.72
527.01	52673.76
527.18	52664.39
527.36	52870.36
527.53	53055.26
527.70	53462.52
527.87	53205.06
528.04	53411.02
528.21	53333.79
528.38	53312.72
528.55	53488.26
528.72	53420.39
528.89	53350.17
529.07	53317.40
529.24	53282.30
529.41	53727.00
529.58	53514.01
529.75	53455.50
529.92	53591.25
530.09	53862.75
530.26	53750.40
530.43	53832.32
530.60	53715.29
530.77	53558.48
530.94	54174.04
531.11	53890.83
531.28	54035.95
531.46	53925.94
531.63	54028.93
531.80	54068.72
531.97	54092.12
532.14	54370.64
532.31	54384.69
532.48	54396.39
532.65	54454.90
532.82	54330.86
532.99	54284.04
533.16	54396.39
533.33	54796.62
533.50	54871.52
533.67	54616.40
533.84	54663.21
534.01	54698.32
534.18	55119.62
534.35	55131.32
534.52	55107.91
534.69	55000.25
534.86	55091.53
535.03	54871.52
535.20	55103.23
535.37	55344.31
535.54	55222.60
535.71	55058.76
535.88	55274.09
536.05	55458.99
536.22	55243.66
536.38	55442.61
536.55	55281.11
536.72	55421.55
536.89	55363.03
537.06	55351.33
537.23	55735.18
537.40	55484.74
537.57	55662.62
537.74	55725.81
537.91	55887.31
538.08	56100.30
538.25	55718.79
538.42	55718.79
538.59	55997.32
538.75	55760.92
538.92	55994.98
539.09	56357.76
539.26	56100.30
539.43	55971.57
539.60	56051.15
539.77	56147.11
539.94	56341.38
540.11	56058.17
540.28	56523.94
540.44	56310.95
540.61	56250.09
540.78	56250.09
540.95	56154.13
541.12	56334.35
541.29	56390.53
541.46	56488.83
541.62	56460.74
541.79	56413.93
541.96	56605.86
542.13	56320.31
542.30	56512.23
542.47	56835.23
542.63	56561.39
542.80	56587.13
542.97	56975.66
543.14	57097.37
543.31	57228.44
543.48	57312.70
543.64	57286.95
543.81	57109.07
543.98	57354.83
544.15	57244.82
544.32	57291.63
544.48	57298.65
544.65	57174.61
544.82	57221.42
544.99	57198.01
545.16	57240.14
545.32	57394.62
545.49	57443.77
545.66	57605.26
545.83	57448.45
546.00	57696.55
546.16	57380.57
546.33	57462.49
546.50	57389.94
546.67	57586.54
546.83	57361.85
547.00	57591.22
547.17	57764.42
547.34	57804.21
547.50	57832.30
547.67	58028.90
547.84	57991.45
548.00	58071.03
548.17	58045.29
548.34	57954.00
548.51	58129.54
548.67	58117.84
548.84	57907.19
549.01	57904.85
549.18	58122.52
549.34	58176.36
549.51	57986.77
549.68	58234.87
549.84	58351.90
550.01	58267.64
550.18	58108.48
550.34	58323.81
550.51	58485.31
550.68	58234.87
550.84	57989.11
551.01	58464.24
551.18	58157.63
551.34	58288.70
551.51	58525.10
551.68	58667.87
551.84	58564.88
552.01	58298.06
552.18	58635.10
552.34	58389.34
552.51	58646.80
552.68	58398.71
552.84	58387.00
553.01	58698.30
553.18	58576.59
553.34	58836.39
553.51	58663.19
553.67	58681.91
553.84	58822.34
554.01	58794.26
554.17	58562.54
554.34	58866.81
554.51	59068.10
554.67	58684.25
554.84	58937.03
555.00	58815.32
555.17	58960.44
555.33	58913.62
555.50	59051.72
555.67	58845.75
555.83	58901.92
556.00	59000.22
556.16	59496.42
556.33	59278.75
556.50	59208.53
556.66	59283.43
556.83	59070.44
556.99	59353.65
557.16	59365.35
557.32	59508.12
557.49	59437.90
557.65	59229.60
557.82	59147.68
557.98	59119.59
558.15	59332.58
558.32	59419.18
558.48	59327.90
558.65	59398.12
558.81	59297.47
558.98	59456.63
559.14	59377.05
559.31	59484.72
559.47	59442.59
559.64	59716.43
559.80	59564.29
559.97	59648.55
560.13	59695.36
560.30	59377.05
560.46	59690.68
560.63	59475.35
560.79	59632.17
560.96	59686.00
561.12	59774.94
561.29	59824.09
561.45	59681.32
561.61	59774.94
561.78	59498.76
561.94	59484.72
562.11	59632.17
562.27	59599.40
562.44	59814.73
562.60	60069.85
562.77	59831.11
562.93	59786.64
563.10	59838.14
563.26	59798.35
563.42	60254.75
563.59	60011.34
563.75	59791.33
563.92	60069.85
564.08	60018.36
564.24	60009.00
564.41	59962.18
564.57	59973.89
564.74	60023.04
564.90	60205.60
565.07	59917.71
565.23	59784.30
565.39	60034.74
565.56	60247.73
565.72	60142.41
565.88	60048.78
566.05	60123.68
566.21	60135.38
566.38	60168.15
566.54	60090.91
566.70	60264.11
566.87	60294.54
567.03	60025.38
567.19	60369.44
567.36	60186.88
567.52	60250.07
567.68	60406.89
567.85	60226.66
568.01	60516.89
568.17	60308.58
568.34	60362.42
568.50	60301.56
568.66	60149.43
568.83	60423.27
568.99	60163.47
569.15	60449.02
569.32	60247.73
569.48	60367.10
569.64	60479.44
569.81	60437.31
569.97	60210.28
570.13	60245.39
570.30	60441.99
570.46	60353.05
570.62	60348.37
570.78	60156.45
570.95	60254.75
571.11	60460.72
571.27	60498.17
571.43	60388.16
571.60	60619.88
571.76	60559.02
571.92	60320.29
572.09	60481.78
572.25	60535.62
572.41	60353.05
572.57	60591.79
572.74	60631.58
572.90	60322.63
573.06	60493.49
573.22	60587.11
573.38	60580.09
573.55	60589.45
573.71	60676.05
573.87	60601.15
574.03	60285.18
574.20	60598.81
574.36	60416.25
574.52	60743.92
574.68	60640.94
574.84	60893.72
575.01	60645.62
575.17	60720.52
575.33	60748.60
575.49	60481.78
575.65	60727.54
575.82	60706.47
575.98	60697.11
576.14	60683.07
576.30	60795.42
576.46	60654.98
576.62	60603.49
576.79	60481.78
576.95	60598.81
577.11	60680.73
577.27	60687.75
577.43	60624.56
577.59	60760.31
577.75	60631.58
577.92	60743.92
578.08	60631.58
578.24	60753.29
578.40	60928.83
578.56	61010.74
578.72	60699.45
578.88	60690.09
579.04	60877.33
579.21	60914.78
579.37	60917.12
579.53	60975.64
579.69	60619.88
579.85	60774.35
580.01	60456.04
580.17	60629.24
580.33	60734.56
580.49	60807.12
580.65	60816.48
580.82	60666.69
580.98	60767.33
581.14	60645.62
581.30	60917.12
581.46	60699.45
581.62	60722.86
581.78	60767.33
581.94	60631.58
582.10	60603.49
582.26	60704.13
582.42	60533.28
582.58	60970.96
582.74	60722.86
582.90	60664.35
583.06	60804.78
583.22	60659.66
583.38	60816.48
583.54	60945.21
583.70	60858.61
583.86	60968.61
584.02	61022.45
584.18	60839.89
584.34	60865.63
584.50	60940.53
584.66	60741.58
584.82	60851.59
584.98	60938.19
585.14	61003.72
585.30	60905.42
585.46	61153.52
585.62	60697.11
585.78	61139.47
585.94	60896.06
586.10	60694.77
586.26	60947.55
586.42	60874.99
586.58	61057.56
586.74	60891.38
586.90	60928.83
587.06	60769.67
587.22	60977.98
587.38	60835.20
587.54	60886.70
587.70	61003.72
587.86	61045.85
588.02	60907.76
588.18	60961.59
588.34	60914.78
588.49	60945.21
