SpectraSuite Data File
++++++++++++++++++++++++++++++++++++
Date: Fri Oct 25 11:33:08 EDT 2013
User: price-jones
Dark Spectrum Present: No
Reference Spectrum Present: No
Number of Sampled Component Spectra: 1
Spectrometers: USB2+H05261
Integration Time (usec): 100000 (USB2+H05261)
Spectra Averaged: 1 (USB2+H05261)
Boxcar Smoothing: 0 (USB2+H05261)
Correct for Electrical Dark: No (USB2+H05261)
Strobe/Lamp Enabled: No (USB2+H05261)
Correct for Detector Non-linearity: No (USB2+H05261)
Correct for Stray Light: No (USB2+H05261)
Number of Pixels in Processed Spectrum: 2048
>>>>>Begin Processed Spectral Data<<<<<
365.73	278.52
365.92	278.52
366.12	278.52
366.32	168.52
366.52	140.43
366.72	152.13
366.91	117.03
367.11	189.58
367.31	191.92
367.51	126.39
367.70	177.88
367.90	212.99
368.10	124.05
368.30	236.39
368.49	161.50
368.69	140.43
368.89	147.45
369.09	212.99
369.28	191.92
369.48	255.12
369.68	227.03
369.87	177.88
370.07	212.99
370.27	210.65
370.47	301.93
370.66	358.10
370.86	463.43
371.06	526.62
371.25	561.73
371.45	500.87
371.65	547.69
371.84	533.64
372.04	533.64
372.24	500.87
372.44	592.16
372.63	615.56
372.83	603.86
373.03	582.79
373.22	606.20
373.42	620.24
373.62	587.47
373.81	582.79
374.01	585.13
374.21	667.05
374.40	690.46
374.60	685.78
374.79	622.58
374.99	688.12
375.19	610.88
375.38	688.12
375.58	660.03
375.78	664.71
375.97	685.78
376.17	727.91
376.37	629.60
376.56	751.31
376.76	699.82
376.95	760.67
377.15	608.54
377.35	709.18
377.54	669.39
377.74	706.84
377.93	720.88
378.13	770.04
378.33	667.05
378.52	711.52
378.72	692.80
378.91	781.74
379.11	760.67
379.31	793.44
379.50	688.12
379.70	760.67
379.89	706.84
380.09	704.50
380.28	746.63
380.48	763.01
380.68	716.20
380.87	744.29
381.07	788.76
381.26	807.48
381.46	746.63
381.65	683.44
381.85	739.61
382.04	786.42
382.24	781.74
382.43	774.72
382.63	858.98
382.83	779.40
383.02	847.27
383.22	795.78
383.41	826.21
383.61	753.65
383.80	770.04
384.00	826.21
384.19	835.57
384.39	833.23
384.58	837.91
384.78	849.61
384.97	858.98
385.17	809.83
385.36	833.23
385.56	807.48
385.75	809.83
385.95	828.55
386.14	826.21
386.34	915.15
386.53	880.04
386.72	823.87
386.92	812.17
387.11	917.49
387.31	933.87
387.50	873.02
387.70	870.68
387.89	966.64
388.09	847.27
388.28	903.45
388.48	973.66
388.67	866.00
388.86	821.53
389.06	908.13
389.25	866.00
389.45	919.83
389.64	961.96
389.84	1006.43
390.03	905.79
390.22	964.30
390.42	954.94
390.61	950.26
390.81	1015.79
391.00	964.30
391.19	1050.90
391.39	1116.44
391.58	1008.77
391.78	1039.20
391.97	1100.05
392.16	976.00
392.36	1011.11
392.55	1060.26
392.75	1074.31
392.94	1029.84
393.13	1041.54
393.33	968.98
393.52	1069.62
393.71	1076.65
393.91	1062.60
394.10	1081.33
394.29	1118.78
394.49	1081.33
394.68	1125.80
394.88	1137.50
395.07	1186.65
395.26	1128.14
395.46	1090.69
395.65	1177.29
395.84	1179.63
396.04	1210.06
396.23	1177.29
396.42	1142.18
396.62	1170.27
396.81	1158.57
397.00	1203.04
397.19	1301.34
397.39	1160.91
397.58	1275.59
397.77	1196.01
397.97	1270.91
398.16	1348.15
398.35	1313.04
398.55	1249.85
398.74	1240.48
398.93	1336.45
399.12	1357.51
399.32	1376.24
399.51	1350.49
399.70	1331.76
399.90	1327.08
400.09	1334.11
400.28	1399.64
400.47	1320.06
400.67	1430.07
400.86	1493.26
401.05	1458.15
401.24	1387.94
401.44	1369.21
401.63	1535.39
401.82	1446.45
402.01	1451.13
402.21	1502.62
402.40	1509.65
402.59	1462.83
402.78	1570.50
402.97	1483.90
403.17	1540.07
403.36	1577.52
403.55	1439.43
403.74	1556.46
403.93	1603.27
404.13	1591.56
404.32	1556.46
404.51	1631.35
404.70	1696.89
404.89	1671.14
405.09	1617.31
405.28	1636.03
405.47	1764.76
405.66	1741.36
405.85	1783.49
406.05	1736.68
406.24	1764.76
406.43	1715.61
406.62	1858.39
406.81	1834.98
407.00	1727.32
407.20	1823.28
407.39	1753.06
407.58	1921.58
407.77	1818.60
407.96	1968.39
408.15	2026.90
408.34	1867.75
408.54	1865.41
408.73	1916.90
408.92	1961.37
409.11	1834.98
409.30	2054.99
409.49	2090.10
409.68	2024.56
409.87	1959.03
410.07	2005.84
410.26	2104.14
410.45	1944.99
410.64	2078.40
410.83	2043.29
411.02	2197.76
411.21	2146.27
411.40	2193.08
411.59	2284.36
411.78	2258.62
411.98	2303.09
412.17	2249.25
412.36	2282.02
412.55	2370.96
412.74	2377.98
412.93	2422.45
413.12	2326.49
413.31	2436.50
413.50	2235.21
413.69	2361.60
413.88	2532.46
414.07	2445.86
414.26	2523.10
414.45	2621.40
414.64	2504.37
414.83	2565.23
415.02	2567.57
415.22	2668.21
415.41	2700.98
415.60	2572.25
415.79	2789.92
415.98	2761.83
416.17	2766.51
416.36	2691.62
416.55	2759.49
416.74	2862.48
416.93	2874.18
417.12	2839.07
417.31	2825.03
417.50	2878.86
417.69	2867.16
417.88	2988.86
418.07	2911.63
418.26	2878.86
418.45	2984.18
418.64	3061.42
418.83	3124.62
419.02	3108.23
419.21	3087.17
419.39	3178.45
419.58	3019.29
419.77	3059.08
419.96	3236.96
420.15	3194.83
420.34	3187.81
420.53	3045.04
420.72	3201.85
420.91	3241.64
421.10	3356.33
421.29	3332.92
421.48	3201.85
421.67	3262.71
421.86	3293.13
422.05	3342.28
422.24	3290.79
422.43	3325.90
422.61	3353.99
422.80	3321.22
422.99	3478.04
423.18	3398.46
423.37	3396.12
423.56	3442.93
423.75	3421.86
423.94	3412.50
424.13	3178.45
424.32	3276.75
424.50	3482.72
424.69	3674.64
424.88	3445.27
425.07	3377.39
425.26	3379.73
425.45	3527.19
425.64	3513.14
425.83	3510.80
426.01	3396.12
426.20	3513.14
426.39	3449.95
426.58	3620.81
426.77	3480.38
426.96	3634.85
427.15	3669.96
427.33	3618.47
427.52	3602.08
427.71	3634.85
427.90	3669.96
428.09	3641.87
428.28	3700.39
428.46	3751.88
428.65	3786.99
428.84	3803.37
429.03	3880.61
429.22	3765.92
429.40	3719.11
429.59	3801.03
429.78	3653.58
429.97	3679.32
430.16	3840.82
430.34	3810.39
430.53	3906.35
430.72	3896.99
430.91	3915.72
431.10	3805.71
431.28	3866.56
431.47	3997.64
431.66	3985.93
431.85	3831.46
432.03	4095.94
432.22	4224.67
432.41	4049.13
432.60	4037.42
432.79	3950.82
432.97	4142.75
433.16	4046.79
433.35	3962.53
433.54	4086.58
433.72	4290.20
433.91	4262.12
434.10	4131.05
434.28	4128.70
434.47	4217.65
434.66	4304.25
434.85	4259.78
435.03	4355.74
435.22	4215.30
435.41	4369.78
435.59	4475.10
435.78	4517.23
435.97	4458.72
436.16	4332.33
436.34	4447.02
436.53	4425.95
436.72	4582.77
436.90	4318.29
437.09	4372.12
437.28	4428.29
437.46	4601.49
437.65	4512.55
437.84	4727.88
438.02	4599.15
438.21	4606.17
438.40	4791.08
438.58	4753.63
438.77	4685.75
438.96	4727.88
439.14	4809.80
439.33	5034.49
439.52	4931.51
439.70	4931.51
439.89	4896.40
440.08	5116.41
440.26	5118.75
440.45	5032.15
440.63	5132.79
440.82	5114.07
441.01	5132.79
441.19	5268.55
441.38	5245.14
441.57	5284.93
441.75	5195.99
441.94	5493.24
442.12	5460.47
442.31	5600.90
442.50	5483.88
442.68	5493.24
442.87	5556.43
443.05	5500.26
443.24	5687.50
443.43	5493.24
443.61	5558.77
443.80	5701.54
443.98	5521.32
444.17	5298.97
444.35	5584.52
444.54	5865.38
444.73	5617.29
444.91	5717.93
445.10	5748.36
445.28	5650.05
445.47	5605.58
445.65	5755.38
445.84	5717.93
446.02	5736.65
446.21	5598.56
446.39	5650.05
446.58	5923.90
446.77	5738.99
446.95	5502.60
447.14	5760.06
447.32	5813.89
447.51	5900.49
447.69	5839.64
447.88	5724.95
448.06	5724.95
448.25	5888.79
448.43	5902.83
448.62	5799.85
448.80	5720.27
448.99	5802.19
449.17	5884.11
449.36	5865.38
449.54	5912.19
449.73	6019.86
449.91	6031.56
450.10	6284.34
450.28	6090.07
450.46	6087.73
450.65	6085.39
450.83	6094.76
451.02	6204.76
451.20	6167.31
451.39	6106.46
451.57	6122.84
451.76	6223.48
451.94	6349.87
452.13	6300.72
452.31	6352.21
452.49	6204.76
452.68	6169.65
452.86	6328.81
453.05	6380.30
453.23	6541.80
453.42	6284.34
453.60	6228.17
453.78	6478.60
453.97	6368.60
454.15	6567.54
454.34	6448.18
454.52	6602.65
454.70	6525.41
454.89	6658.82
455.07	6607.33
455.26	6722.02
455.44	6794.58
455.62	6604.99
455.81	6754.79
455.99	6717.34
456.17	6920.96
456.36	6953.73
456.54	6665.85
456.73	6909.26
456.91	7037.99
457.09	7028.63
457.28	7140.97
457.46	6843.73
457.64	7070.76
457.83	7229.91
458.01	7105.87
458.19	7143.32
458.38	7236.94
458.56	7232.26
458.74	7236.94
458.93	7272.04
459.11	7239.28
459.29	7309.49
459.48	7321.20
459.66	7220.55
459.84	7370.35
460.03	7581.00
460.21	7529.50
460.39	7206.51
460.57	7403.11
460.76	7620.78
460.94	7674.62
461.12	7513.12
461.31	7562.27
461.49	7468.65
461.67	7527.16
461.85	7618.44
462.04	7602.06
462.22	8201.24
462.40	7768.24
462.59	7777.60
462.77	7791.64
462.95	7747.17
463.13	7786.96
463.32	7941.44
463.50	7906.33
463.68	7988.25
463.86	8109.96
464.05	7695.68
464.23	7768.24
464.41	8042.08
464.59	7817.39
464.78	8135.70
464.96	7988.25
465.14	7892.29
465.32	7997.61
465.50	8060.80
465.69	8463.38
465.87	8297.20
466.05	8107.62
466.23	8098.25
466.41	8329.97
466.60	8430.61
466.78	8355.71
466.96	8339.33
467.14	8161.45
467.32	8374.44
467.51	8470.40
467.69	8182.51
467.87	8348.69
468.05	8617.85
468.23	8259.75
468.41	8348.69
468.60	8397.84
468.78	8503.17
468.96	8367.42
469.14	8730.20
469.32	8589.77
469.50	8681.05
469.69	8938.51
469.87	8812.12
470.05	8943.19
470.23	8978.30
470.41	8889.35
470.59	8943.19
470.77	8835.52
470.95	8739.56
471.14	9025.11
471.32	8856.59
471.50	9179.58
471.68	9242.78
471.86	9188.94
472.04	9167.88
472.22	9273.20
472.40	9263.84
472.58	9406.61
472.77	9224.05
472.95	9600.88
473.13	9745.99
473.31	9441.72
473.49	9446.40
473.67	9462.79
473.85	9554.07
474.03	9781.10
474.21	9774.08
474.39	9916.85
474.57	9877.06
474.75	9935.57
474.93	9912.17
475.12	9987.07
475.30	10265.59
475.48	9961.32
475.66	10178.99
475.84	10057.28
476.02	10251.55
476.20	10260.91
476.38	10619.01
476.56	10459.85
476.74	10658.80
476.92	10441.13
477.10	10537.09
477.28	10820.30
477.46	10824.98
477.64	10832.00
477.82	11042.65
478.00	11269.68
478.18	11201.80
478.36	11232.23
478.54	11335.21
478.72	11480.33
478.90	11541.18
479.08	11833.75
479.26	11735.45
479.44	11777.58
479.62	11854.81
479.80	11850.13
479.98	12208.23
480.16	12468.03
480.34	12074.82
480.52	12465.69
480.70	12507.82
480.88	12236.32
481.06	12446.97
481.24	12723.15
481.41	12755.92
481.59	12669.32
481.77	12912.74
481.95	13032.10
482.13	13036.78
482.31	13329.35
482.49	13366.80
482.67	13523.62
482.85	13671.07
483.03	13603.19
483.21	13839.59
483.39	13743.63
483.57	13965.98
483.74	14115.77
483.92	14225.78
484.10	14038.53
484.28	14562.81
484.46	14438.76
484.64	14775.80
484.82	14775.80
485.00	14827.29
485.18	15014.54
485.35	15393.70
485.53	14934.96
485.71	15377.32
485.89	15613.71
486.07	15695.63
486.25	15438.17
486.43	15623.08
486.61	15772.87
486.78	15819.68
486.96	15819.68
487.14	16315.87
487.32	16376.73
487.50	16524.18
487.68	16755.90
487.85	16737.17
488.03	16732.49
488.21	17034.42
488.39	17144.42
488.57	17390.18
488.75	17259.11
488.92	17511.89
489.10	17830.20
489.28	17680.41
489.46	18214.05
489.64	17776.37
489.81	18181.28
489.99	18251.50
490.17	18597.90
490.35	18422.36
490.53	18810.89
490.70	18843.65
490.88	18815.57
491.06	19108.13
491.24	19351.55
491.41	19316.44
491.59	19541.13
491.77	19393.68
491.95	19800.93
492.13	19803.27
492.30	19852.42
492.48	19850.08
492.66	19859.45
492.84	19791.57
493.01	20187.12
493.19	20514.80
493.37	20678.63
493.54	20379.04
493.72	20856.51
493.90	20800.34
494.08	21036.74
494.25	21118.65
494.43	21167.80
494.61	21429.94
494.79	21600.80
494.96	21500.16
495.14	21502.50
495.32	22017.42
495.49	22026.78
495.67	22277.22
495.85	21921.46
496.02	22134.45
496.20	22522.98
496.38	22656.39
496.55	22448.08
496.73	23232.16
496.91	23000.44
497.09	22675.11
497.26	23157.26
497.44	23201.73
497.62	23274.29
497.79	23637.07
497.97	23288.33
498.14	23763.46
498.32	23908.57
498.50	24175.39
498.67	24105.18
498.85	24259.65
499.03	24133.26
499.20	24430.51
499.38	24376.68
499.56	24596.69
499.73	24650.52
499.91	24482.00
500.08	25010.96
500.26	24800.32
500.44	25139.69
500.61	25076.50
500.79	25085.86
500.97	25378.43
501.14	25216.93
501.32	25504.82
501.49	25575.03
501.67	25301.19
501.84	25895.69
502.02	25886.32
502.20	26052.50
502.37	25928.45
502.55	25624.18
502.72	26359.11
502.90	26038.46
503.07	26143.78
503.25	26174.21
503.43	26473.80
503.60	26742.96
503.78	26981.70
503.95	26515.93
504.13	26775.73
504.30	26874.03
504.48	27012.12
504.65	26899.78
504.83	27147.87
505.01	27150.21
505.18	27702.58
505.36	27400.65
505.53	27545.76
505.71	27576.19
505.88	27761.09
506.06	27285.97
506.23	27725.99
506.41	27559.81
506.58	27936.63
506.76	27967.06
506.93	28353.25
507.11	28395.38
507.28	28526.45
507.46	28119.20
507.63	28308.78
507.81	28704.33
507.98	28631.77
508.16	28786.25
508.33	29008.60
508.50	29029.66
508.68	29034.35
508.85	28872.85
509.03	29048.39
509.20	29479.05
509.38	29249.67
509.55	29783.32
509.73	29392.45
509.90	29802.04
510.08	29537.56
510.25	29621.82
510.42	29900.34
510.60	30267.81
510.77	29940.13
510.95	30319.30
511.12	30087.59
511.30	30377.81
511.47	30347.39
511.64	30286.53
511.82	30340.36
511.99	30478.46
512.17	30593.14
512.34	30682.08
512.51	30951.24
512.69	30984.01
512.86	31110.40
513.04	31246.15
513.21	31187.64
513.38	31384.24
513.56	31718.94
513.73	31339.77
513.90	31260.20
514.08	31360.84
514.25	32081.72
514.43	31910.86
514.60	31850.01
514.77	31978.74
514.95	31931.93
515.12	32212.79
515.29	32467.91
515.47	32231.52
515.64	32528.77
515.81	32521.74
515.99	32334.50
516.16	32914.95
516.33	32538.13
516.51	32996.87
516.68	32622.39
516.85	32786.22
517.03	33125.60
517.20	32893.89
517.37	33095.18
517.54	32671.54
517.72	33378.38
517.89	33392.42
518.06	33448.60
518.24	33619.46
518.41	33095.18
518.58	33432.21
518.75	33071.77
518.93	33661.58
519.10	33682.65
519.27	33839.47
519.45	33972.88
519.62	33750.52
519.79	34047.77
519.96	34052.45
520.14	34188.21
520.31	33970.54
520.48	34560.35
520.65	34712.49
520.83	34586.10
521.00	34581.42
521.17	34415.24
521.34	34883.34
521.52	35171.23
521.69	34632.91
521.86	34843.56
522.03	35105.70
522.20	34983.99
522.38	35285.92
522.55	35391.24
522.72	35559.76
522.89	35192.30
523.07	35908.50
523.24	35501.25
523.41	35803.17
523.58	35524.65
523.75	35735.30
523.92	35917.86
524.10	35875.73
524.27	36238.51
524.44	36144.89
524.61	36107.44
524.78	36168.30
524.96	36400.01
525.13	36428.10
525.30	36680.88
525.47	36428.10
525.64	36355.54
525.81	36847.05
525.98	36645.77
526.16	36694.92
526.33	37125.58
526.50	36650.45
526.67	36692.58
526.84	37230.90
527.01	36940.68
527.18	36776.84
527.36	36971.10
527.53	37031.96
527.70	37565.60
527.87	37383.04
528.04	37102.17
528.21	37209.84
528.38	37666.24
528.55	37823.06
528.72	37528.15
528.89	37720.07
529.07	37610.07
529.24	37551.56
529.41	37673.26
529.58	37872.21
529.75	37612.41
529.92	37890.93
530.09	38150.73
530.26	37998.60
530.43	38263.08
530.60	38148.39
530.77	37762.20
530.94	38007.96
531.11	38424.57
531.28	38359.04
531.46	38623.52
531.63	38857.57
531.80	38438.62
531.97	38504.15
532.14	38171.80
532.31	38639.90
532.48	38572.03
532.65	39171.21
532.82	38682.03
532.99	39009.71
533.16	38838.85
533.33	38850.55
533.50	39297.59
533.67	39065.88
533.84	38712.46
534.01	39505.90
534.18	39337.38
534.35	39693.15
534.52	39594.84
534.69	39723.57
534.86	39402.92
535.03	39796.13
535.20	39917.84
535.37	39709.53
535.54	40287.64
535.71	39716.55
535.88	39746.98
536.05	39971.67
536.22	40355.52
536.38	40172.96
536.55	40074.65
536.72	40158.91
536.89	40336.79
537.06	39798.47
537.23	40643.40
537.40	40086.36
537.57	40486.59
537.74	39894.43
537.91	40603.61
538.08	40545.10
538.25	40095.72
538.42	40491.27
538.59	40605.95
538.75	40355.52
538.92	41017.89
539.09	40772.13
539.26	41153.64
539.43	40449.14
539.60	41017.89
539.77	40959.38
539.94	41432.16
540.11	41104.49
540.28	41303.43
540.44	41567.91
540.61	40994.48
540.78	40928.95
540.95	41261.30
541.12	41476.63
541.29	41268.33
541.46	41457.91
541.62	41619.41
541.79	41577.28
541.96	40992.14
542.13	41338.54
542.30	41635.79
542.47	41474.29
542.63	41471.95
542.80	42052.41
542.97	42080.49
543.14	42199.86
543.31	42092.19
543.48	41951.76
543.64	42394.12
543.81	42181.13
543.98	42480.72
544.15	42684.35
544.32	42939.47
544.48	42909.04
544.65	42703.07
544.82	42567.32
544.99	42579.03
545.16	42237.31
545.32	42471.36
545.49	42773.29
545.66	42504.13
545.83	42698.39
546.00	43009.68
546.16	43309.27
546.33	42768.61
546.50	42918.40
546.67	43316.29
546.83	42623.50
547.00	42656.26
547.17	42759.25
547.34	42714.78
547.50	43243.74
547.67	43751.63
547.84	43189.91
548.00	43320.98
548.17	43772.70
548.34	43360.76
548.51	43728.23
548.67	43990.37
548.84	43316.29
549.01	44020.80
549.18	43639.29
549.34	43777.38
549.51	43992.71
549.68	43655.67
549.84	43789.08
550.01	43995.05
550.18	43604.18
550.34	44432.73
550.51	44137.82
550.68	43966.96
550.84	43681.42
551.01	44472.52
551.18	43885.04
551.34	44203.36
551.51	44198.68
551.68	44362.51
551.84	44449.11
552.01	44116.76
552.18	44849.35
552.34	43821.85
552.51	44252.51
552.68	44404.64
552.84	44472.52
553.01	44516.99
553.18	44690.19
553.34	44678.49
553.51	44706.57
553.67	44563.80
553.84	44856.37
554.01	44795.51
554.17	44779.13
554.34	45272.98
554.51	44804.88
554.67	45062.33
554.84	44980.42
555.00	45226.17
555.17	44671.46
555.33	44952.33
555.50	45127.87
555.67	45015.52
555.83	44631.68
556.00	45165.32
556.16	45825.35
556.33	45434.48
556.50	45228.51
556.66	45130.21
556.83	44657.42
556.99	45675.55
557.16	45815.99
557.32	45900.25
557.49	45329.16
557.65	45329.16
557.82	45434.48
557.98	45656.83
558.15	45495.33
558.32	45736.41
558.48	45668.53
558.65	45441.50
558.81	45516.40
558.98	45296.39
559.14	45425.12
559.31	45743.43
559.47	46157.70
559.64	45893.22
559.80	45703.64
559.97	46052.38
560.13	44945.31
560.30	45741.09
560.46	46085.15
560.63	45710.66
560.79	46220.90
560.96	45808.96
561.12	46071.10
561.29	45996.21
561.45	46288.77
561.61	45893.22
561.78	46160.05
561.94	46373.03
562.11	45827.69
562.27	45996.21
562.44	45911.95
562.60	46382.40
562.77	46291.12
562.93	45876.84
563.10	46478.36
563.26	45925.99
563.42	46651.56
563.59	46274.73
563.75	46375.37
563.92	46738.16
564.08	46122.60
564.24	46726.46
564.41	46637.51
564.57	46138.98
564.74	46712.41
564.90	46300.48
565.07	45851.09
565.23	46529.85
565.39	46078.13
565.56	46412.82
565.72	46770.93
565.88	46672.62
566.05	46335.59
566.21	46656.24
566.38	46616.45
566.54	46703.05
566.70	46951.15
566.87	46206.86
567.03	46834.12
567.19	46358.99
567.36	46681.98
567.52	46651.56
567.68	47126.69
567.85	46904.34
568.01	46983.91
568.17	46225.58
568.34	46902.00
568.50	46817.74
568.66	47145.41
568.83	46777.95
568.99	46822.42
569.15	46333.24
569.32	46485.38
569.48	46644.54
569.64	47320.95
569.81	47028.38
569.97	47274.14
570.13	47217.97
570.30	46576.66
570.46	46902.00
570.62	47126.69
570.78	47208.61
570.95	47042.43
571.11	47075.19
571.27	46869.23
571.43	47105.62
571.60	47435.64
571.76	46770.93
571.92	46906.68
572.09	47365.42
572.25	47082.22
572.41	47210.95
572.57	47000.30
572.74	47398.19
572.90	47393.51
573.06	47414.57
573.22	47232.01
573.38	47346.70
573.55	47405.21
573.71	47622.88
573.87	47447.34
574.03	47143.07
574.20	47463.72
574.36	47316.27
574.52	47749.27
574.68	47318.61
574.84	47515.22
575.01	47590.11
575.17	47840.55
575.33	47372.44
575.49	47229.67
575.65	47938.85
575.82	47789.06
575.98	47426.28
576.14	47627.56
576.30	47980.98
576.46	47035.41
576.62	47445.00
576.79	47398.19
576.95	46894.97
577.11	47480.11
577.27	47292.86
577.43	47634.58
577.59	47522.24
577.75	47342.02
577.92	46934.76
578.08	47255.42
578.24	47374.78
578.40	47585.43
578.56	47533.94
578.72	47166.48
578.88	47995.03
579.04	47473.09
579.21	47430.96
579.37	47798.42
579.53	47784.38
579.69	47332.65
579.85	47480.11
580.01	47901.40
580.17	47627.56
580.33	47264.78
580.49	47585.43
580.65	47833.53
580.82	47248.39
580.98	47278.82
581.14	47173.50
581.30	47784.38
581.46	47248.39
581.62	47285.84
581.78	47454.36
581.94	47908.43
582.10	47669.69
582.26	48142.48
582.42	47683.73
582.58	47686.07
582.74	47770.33
582.90	47693.10
583.06	47753.95
583.22	47854.59
583.38	47426.28
583.54	47899.06
583.70	47503.51
583.86	47742.25
584.02	47400.53
584.18	47784.38
584.34	47716.50
584.50	48179.93
584.66	47807.78
584.82	48252.48
584.98	48301.64
585.14	48025.45
585.30	47545.64
585.46	47693.10
585.62	47870.98
585.78	48023.11
585.94	47760.97
586.10	47814.80
586.26	47447.34
586.42	47587.77
586.58	47313.93
586.74	47625.22
586.90	47665.01
587.06	47482.45
587.22	48282.91
587.38	47648.63
587.54	47718.84
587.70	48100.35
587.86	47824.17
588.02	47693.10
588.18	47686.07
588.34	47826.51
588.49	48088.65
588.65	47922.47
588.81	47758.63
588.97	47995.03
589.13	47767.99
589.29	47868.64
589.45	48423.34
589.61	48116.73
589.77	48259.51
589.93	47852.25
590.08	47870.98
