SpectraSuite Data File
++++++++++++++++++++++++++++++++++++
Date: Fri Oct 25 11:25:50 EDT 2013
User: price-jones
Dark Spectrum Present: No
Reference Spectrum Present: No
Number of Sampled Component Spectra: 1
Spectrometers: USB2+H05261
Integration Time (usec): 100000 (USB2+H05261)
Spectra Averaged: 1 (USB2+H05261)
Boxcar Smoothing: 0 (USB2+H05261)
Correct for Electrical Dark: No (USB2+H05261)
Strobe/Lamp Enabled: No (USB2+H05261)
Correct for Detector Non-linearity: No (USB2+H05261)
Correct for Stray Light: No (USB2+H05261)
Number of Pixels in Processed Spectrum: 2048
>>>>>Begin Processed Spectral Data<<<<<
365.73	208.31
365.92	208.31
366.12	208.31
366.32	147.45
366.52	126.39
366.72	114.69
366.91	147.45
367.11	67.88
367.31	140.43
367.51	161.50
367.70	138.09
367.90	170.86
368.10	93.62
368.30	149.79
368.49	102.98
368.69	100.64
368.89	131.07
369.09	133.41
369.28	212.99
369.48	124.05
369.68	224.69
369.87	191.92
370.07	227.03
370.27	245.76
370.47	381.51
370.66	535.98
370.86	648.33
371.06	627.26
371.25	681.10
371.45	643.65
371.65	763.01
371.84	636.63
372.04	695.14
372.24	697.48
372.44	744.29
372.63	840.25
372.83	667.05
373.03	727.91
373.22	737.27
373.42	671.73
373.62	748.97
373.81	788.76
374.01	933.87
374.21	793.44
374.40	800.46
374.60	861.32
374.79	842.59
374.99	840.25
375.19	854.30
375.38	891.74
375.58	870.68
375.78	929.19
375.97	793.44
376.17	912.81
376.37	891.74
376.56	882.38
376.76	957.28
376.95	950.26
377.15	814.51
377.35	868.34
377.54	957.28
377.74	964.30
377.93	931.53
378.13	854.30
378.33	908.13
378.52	819.19
378.72	983.02
378.91	915.15
379.11	940.90
379.31	1011.11
379.50	976.00
379.70	959.62
379.89	1011.11
380.09	1046.22
380.28	985.37
380.48	943.24
380.68	994.73
380.87	922.17
381.07	1046.22
381.26	1034.52
381.46	990.05
381.65	1018.13
381.85	978.34
382.04	1004.09
382.24	1032.18
382.43	1011.11
382.63	978.34
382.83	1107.07
383.02	1086.01
383.22	1020.47
383.41	1064.94
383.61	1144.52
383.80	1125.80
384.00	1160.91
384.19	1151.54
384.39	1146.86
384.58	1165.59
384.78	1142.18
384.97	1238.14
385.17	1149.20
385.36	1097.71
385.56	1228.78
385.75	1095.37
385.95	1153.88
386.14	1256.87
386.34	1137.50
386.53	1254.53
386.72	1224.10
386.92	1158.57
387.11	1291.98
387.31	1203.04
387.50	1245.16
387.70	1245.16
387.89	1308.36
388.09	1235.80
388.28	1270.91
388.48	1338.79
388.67	1233.46
388.86	1294.32
389.06	1207.72
389.25	1282.61
389.45	1284.95
389.64	1289.64
389.84	1406.66
390.03	1406.66
390.22	1338.79
390.42	1306.02
390.61	1383.26
390.81	1376.24
391.00	1469.86
391.19	1446.45
391.39	1502.62
391.58	1519.01
391.78	1362.19
391.97	1507.30
392.16	1416.02
392.36	1441.77
392.55	1497.94
392.75	1509.65
392.94	1542.41
393.13	1575.18
393.33	1610.29
393.52	1558.80
393.71	1600.93
393.91	1614.97
394.10	1619.65
394.29	1624.33
394.49	1579.86
394.68	1561.14
394.88	1647.74
395.07	1643.06
395.26	1694.55
395.46	1682.85
395.65	1755.40
395.84	1640.72
396.04	1788.17
396.23	1816.26
396.42	1776.47
396.62	1748.38
396.81	1839.66
397.00	1755.40
397.19	1715.61
397.39	1734.34
397.58	1809.23
397.77	1809.23
397.97	1865.41
398.16	1914.56
398.35	1947.33
398.55	1907.54
398.74	1888.81
398.93	2050.31
399.12	1849.02
399.32	1916.90
399.51	1893.49
399.70	2036.27
399.90	1933.28
400.09	2017.54
400.28	2099.46
400.47	1984.77
400.67	2052.65
400.86	2090.10
401.05	2008.18
401.24	2090.10
401.44	2125.21
401.63	2211.81
401.82	2172.02
402.01	2146.27
402.21	2134.57
402.40	2115.84
402.59	2230.53
402.78	2221.17
402.97	2211.81
403.17	2356.92
403.36	2242.23
403.55	2282.02
403.74	2291.38
403.93	2450.54
404.13	2377.98
404.32	2359.26
404.51	2354.58
404.70	2410.75
404.89	2321.81
405.09	2415.43
405.28	2525.44
405.47	2436.50
405.66	2569.91
405.85	2640.12
406.05	2539.48
406.24	2520.76
406.43	2579.27
406.62	2623.74
406.81	2623.74
407.00	2569.91
407.20	2558.21
407.39	2626.08
407.58	2672.89
407.77	2668.21
407.96	2700.98
408.15	2771.19
408.34	2658.85
408.54	2780.56
408.73	2724.38
408.92	2860.13
409.11	2832.05
409.30	2876.52
409.49	2810.98
409.68	3066.10
409.87	3007.59
410.07	3075.46
410.26	3049.72
410.45	3089.51
410.64	3094.19
410.83	3014.61
411.02	3101.21
411.21	3126.96
411.40	3075.46
411.59	3157.38
411.78	3192.49
411.98	3112.91
412.17	3246.32
412.36	3316.54
412.55	3337.60
412.74	3372.71
412.93	3417.18
413.12	3473.36
413.31	3496.76
413.50	3578.68
413.69	3559.95
413.88	3623.15
414.07	3552.93
414.26	3721.45
414.45	3707.41
414.64	3576.34
414.83	3684.00
415.02	3695.71
415.22	3735.50
415.41	3864.22
415.60	3922.74
415.79	3817.41
415.98	4004.66
416.17	3838.48
416.36	3817.41
416.55	4037.42
416.74	4004.66
416.93	4030.40
417.12	4039.76
417.31	4255.09
417.50	4184.88
417.69	4339.35
417.88	4339.35
418.07	4109.98
418.26	4266.80
418.45	4236.37
418.64	4461.06
418.83	4430.63
419.02	4461.06
419.21	4400.21
419.39	4615.54
419.58	4566.39
419.77	4409.57
419.96	4554.68
420.15	4486.81
420.34	4479.79
420.53	4629.58
420.72	4629.58
420.91	4596.81
421.10	4711.50
421.29	4821.50
421.48	4631.92
421.67	4730.22
421.86	4774.69
422.05	4805.12
422.24	4858.95
422.43	4844.91
422.61	4770.01
422.80	4975.98
422.99	4924.49
423.18	4959.60
423.37	4931.51
423.56	4884.70
423.75	4758.31
423.94	4730.22
424.13	4589.79
424.32	4856.61
424.50	4842.57
424.69	5093.01
424.88	5011.09
425.07	4950.23
425.26	4922.15
425.45	5132.79
425.64	4865.97
425.83	4873.00
426.01	5020.45
426.20	5064.92
426.39	4910.44
426.58	5008.75
426.77	4978.32
426.96	5064.92
427.15	5158.54
427.33	5327.06
427.52	5100.03
427.71	5397.28
427.90	5210.03
428.09	5219.39
428.28	5273.23
428.46	5291.95
428.65	5263.86
428.84	5465.15
429.03	5591.54
429.22	5291.95
429.40	5331.74
429.59	5561.11
429.78	5373.87
429.97	5135.14
430.16	5392.59
430.34	5628.99
430.53	5746.02
430.72	5593.88
430.91	5598.56
431.10	5650.05
431.28	5673.46
431.47	5764.74
431.66	5849.00
431.85	5678.14
432.03	5757.72
432.22	5839.64
432.41	5893.47
432.60	5827.93
432.79	6036.24
432.97	6085.39
433.16	6092.41
433.35	6033.90
433.54	5954.32
433.72	6277.32
433.91	6047.94
434.10	6179.01
434.28	6078.37
434.47	6157.95
434.66	6120.50
434.85	6204.76
435.03	6200.08
435.22	6401.37
435.41	6525.41
435.59	6286.68
435.78	6340.51
435.97	6494.99
436.16	6349.87
436.34	6394.34
436.53	6389.66
436.72	6705.63
436.90	6644.78
437.09	6595.63
437.28	6527.75
437.46	6480.94
437.65	6612.01
437.84	6752.45
438.02	6640.10
438.21	6740.74
438.40	6722.02
438.58	6860.11
438.77	7108.21
438.96	6829.68
439.14	7007.56
439.33	7126.93
439.52	7157.36
439.70	7117.57
439.89	7435.88
440.08	7286.09
440.26	7398.43
440.45	7372.69
440.63	7463.97
440.82	7468.65
441.01	7545.89
441.19	7466.31
441.38	7658.23
441.57	7868.88
441.75	7772.92
441.94	7815.05
442.12	7868.88
442.31	7936.76
442.50	8051.44
442.68	8018.68
442.87	8135.70
443.05	8004.63
443.24	8070.17
443.43	8100.59
443.61	8145.06
443.80	8442.31
443.98	7920.37
444.17	7894.63
444.35	8283.16
444.54	8322.94
444.73	8215.28
444.91	8428.27
445.10	8318.26
445.28	8428.27
445.47	8147.40
445.65	8226.98
445.84	8381.46
446.02	8468.06
446.21	8329.97
446.39	8280.82
446.58	8617.85
446.77	8507.85
446.95	8329.97
447.14	8458.70
447.32	8421.25
447.51	8411.89
447.69	8379.12
447.88	8306.56
448.06	8311.24
448.25	8510.19
448.43	8652.96
448.62	8573.38
448.80	8524.23
448.99	8657.64
449.17	8566.36
449.36	8582.74
449.54	8868.29
449.73	8847.22
449.91	8987.66
450.10	8720.84
450.28	9004.04
450.46	9123.41
450.65	9123.41
450.83	8997.02
451.02	9048.51
451.20	9284.91
451.39	9050.85
451.57	8945.53
451.76	9212.35
451.94	9116.39
452.13	9357.46
452.31	9341.08
452.49	9254.48
452.68	9200.65
452.86	9479.17
453.05	9289.59
453.23	9453.42
453.42	9488.53
453.60	9483.85
453.78	9628.96
453.97	9397.25
454.15	9514.28
454.34	9523.64
454.52	9600.88
454.70	9813.87
454.89	9497.89
455.07	9848.97
455.26	9830.25
455.44	10139.20
455.62	9870.04
455.81	9785.78
455.99	9841.95
456.17	10008.13
456.36	10160.27
456.54	10157.92
456.73	10190.69
456.91	10352.19
457.09	10429.43
457.28	10487.94
457.46	10466.88
457.64	10656.46
457.83	10401.34
458.01	10530.07
458.19	10752.42
458.38	10466.88
458.56	10649.44
458.74	10743.06
458.93	10644.76
459.11	10761.78
459.29	10663.48
459.48	10724.33
459.66	10810.93
459.84	10843.70
460.03	11023.92
460.21	10860.09
460.39	11014.56
460.57	11075.42
460.76	11318.83
460.94	11129.25
461.12	11192.44
461.31	11213.51
461.49	11061.37
461.67	10986.47
461.85	11461.60
462.04	11302.45
462.22	11693.32
462.40	11599.70
462.59	11293.08
462.77	11260.32
462.95	11424.15
463.13	11412.45
463.32	11412.45
463.50	11604.38
463.68	11712.04
463.86	11831.41
464.05	11609.06
464.23	11735.45
464.41	11997.59
464.59	11700.34
464.78	11908.65
464.96	11887.58
465.14	11957.80
465.32	12114.61
465.50	12070.14
465.69	12173.13
465.87	12131.00
466.05	12030.35
466.23	12081.85
466.41	12198.87
466.60	12446.97
466.78	12107.59
466.96	12116.95
467.14	12224.62
467.32	12442.29
467.51	12517.18
467.69	12393.14
467.87	12610.81
468.05	12491.44
468.23	12510.16
468.41	12645.91
468.60	12748.90
468.78	12753.58
468.96	12484.42
469.14	12737.20
469.32	12929.12
469.50	12613.15
469.69	12987.63
469.87	13118.70
470.05	13083.59
470.23	12978.27
470.41	13099.98
470.59	13631.28
470.77	12936.14
470.95	13076.57
471.14	13399.57
471.32	13263.82
471.50	13500.21
471.68	13490.85
471.86	13593.83
472.04	13923.85
472.22	13898.10
472.40	13549.36
472.58	13823.20
472.77	13830.23
472.95	14104.07
473.13	14375.57
473.31	13912.14
473.49	14022.15
473.67	14129.81
473.85	14326.42
474.03	14618.99
474.21	14436.42
474.39	14604.94
474.57	14546.43
474.75	14759.42
474.93	14963.04
475.12	14881.13
475.30	15129.22
475.48	15161.99
475.66	15325.83
475.84	15068.37
476.02	15201.78
476.20	15400.72
476.38	15573.92
476.56	15978.84
476.74	16056.08
476.92	15789.25
477.10	15707.34
477.28	15922.66
477.46	15974.16
477.64	16297.15
477.82	16311.19
478.00	16924.41
478.18	16814.41
478.36	16795.68
478.54	17142.08
478.72	17020.38
478.90	17111.66
479.08	17537.63
479.26	17645.30
479.44	17696.79
479.62	17652.32
479.80	17989.36
479.98	18153.20
480.16	18515.98
480.34	18293.63
480.52	18471.51
480.70	18867.06
480.88	18324.05
481.06	18583.85
481.24	18544.06
481.41	18750.03
481.59	19150.26
481.77	19356.23
481.95	19522.41
482.13	19606.67
482.31	19637.09
482.49	20056.05
482.67	20222.23
482.85	20467.98
483.03	20540.54
483.21	20477.35
483.39	20943.11
483.57	20790.98
483.74	21074.18
483.92	21406.54
484.10	21289.51
484.28	21420.58
484.46	21736.56
484.64	22604.89
484.82	21656.98
485.00	22412.97
485.18	22522.98
485.35	22750.01
485.53	22572.13
485.71	23044.91
485.89	23393.65
486.07	23318.76
486.25	23337.48
486.43	23604.30
486.61	23791.55
486.78	23976.45
486.96	24112.20
487.14	24346.25
487.32	24343.91
487.50	24840.11
487.68	24891.60
487.85	25167.78
488.03	25413.54
488.21	25769.30
488.39	25685.04
488.57	26087.61
488.75	26012.71
488.92	26555.72
489.10	26654.02
489.28	26576.78
489.46	27166.60
489.64	26630.62
489.81	27325.75
489.99	27545.76
490.17	27730.67
490.35	27978.76
490.53	28114.52
490.70	28638.80
490.88	28184.73
491.06	28514.75
491.24	28849.44
491.41	28811.99
491.59	29294.14
491.77	29256.70
491.95	29745.87
492.13	29823.11
492.30	30054.82
492.48	29970.56
492.66	30075.88
492.84	30333.34
493.01	30738.26
493.19	30735.92
493.37	30724.21
493.54	30885.71
493.72	31274.24
493.90	31360.84
494.08	31988.10
494.25	32025.55
494.43	31807.88
494.61	32037.25
494.79	33116.24
494.96	32240.88
495.14	32587.28
495.32	32692.60
495.49	33020.28
495.67	33078.79
495.85	33336.25
496.02	33610.09
496.20	34052.45
496.38	34230.33
496.55	34038.41
496.73	34855.26
496.91	34749.93
497.09	34597.80
497.26	34991.01
497.44	35278.89
497.62	34918.45
497.79	35515.29
497.97	35306.98
498.14	35711.89
498.32	35660.40
498.50	36233.83
498.67	36048.93
498.85	36039.57
499.03	36643.43
499.20	36898.55
499.38	36442.14
499.56	37001.53
499.73	37378.36
499.91	36978.12
500.08	37490.70
500.26	36966.42
500.44	37631.13
500.61	37771.57
500.79	37556.24
500.97	37783.27
501.14	38649.27
501.32	38728.84
501.49	38436.28
501.67	38637.56
501.84	39040.14
502.02	38817.78
502.20	38899.70
502.37	38909.07
502.55	39105.67
502.72	39285.89
502.90	39379.51
503.07	39470.79
503.25	39966.99
503.43	39522.29
503.60	39555.05
503.78	40233.81
503.95	40126.14
504.13	40346.15
504.30	40484.25
504.48	40472.54
504.65	40767.45
504.83	40725.32
505.01	41294.07
505.18	41235.56
505.36	41614.72
505.53	41230.88
505.71	41839.42
505.88	41633.45
506.06	41401.74
506.23	42113.26
506.41	41799.63
506.58	42192.84
506.76	42408.17
506.93	42277.10
507.11	42492.43
507.28	42579.03
507.46	42660.94
507.63	42754.57
507.81	42887.98
507.98	42696.05
508.16	43157.14
508.33	42997.98
508.50	43636.95
508.68	43168.84
508.85	43470.77
509.03	43924.83
509.20	44135.48
509.38	44041.86
509.55	43959.94
509.73	44112.08
509.90	44500.61
510.08	44634.02
510.25	44449.11
510.42	44533.37
510.60	44786.15
510.77	45205.11
510.95	44952.33
511.12	44912.54
511.30	45162.98
511.47	45153.62
511.64	45446.18
511.82	45588.95
511.99	45315.11
512.17	45755.13
512.34	45808.96
512.51	46122.60
512.69	46202.18
512.86	46164.73
513.04	46300.48
513.21	46508.79
513.38	46281.75
513.56	46698.37
513.73	46997.96
513.90	46979.23
514.08	46958.17
514.25	47000.30
514.43	47569.05
514.60	47210.95
514.77	47026.04
514.95	47573.73
515.12	47517.56
515.29	47749.27
515.47	47746.93
515.64	47817.14
515.81	48032.47
515.99	47533.94
516.16	48451.43
516.33	48500.58
516.51	48523.99
516.68	48418.66
516.85	48062.90
517.03	49132.53
517.20	48657.40
517.37	48971.03
517.54	48844.64
517.72	48917.20
517.89	48945.28
518.06	49397.01
518.24	49104.44
518.41	48865.70
518.58	49006.14
518.75	49184.02
518.93	49640.42
519.10	49237.85
519.27	49645.10
519.45	49483.61
519.62	50113.21
519.79	49916.61
519.96	49975.12
520.14	50248.96
520.31	49961.08
520.48	50003.20
520.65	50148.32
520.83	50440.89
521.00	50688.98
521.17	50340.24
521.34	50710.05
521.52	50426.84
521.69	50745.15
521.86	50904.31
522.03	50688.98
522.20	51374.76
522.38	51136.02
522.55	51330.29
522.72	51143.05
522.89	51398.16
523.07	51442.63
523.24	51278.80
523.41	51852.23
523.58	51749.24
523.75	51468.38
523.92	51723.50
524.10	51835.84
524.27	52069.90
524.44	52217.35
524.61	52018.41
524.78	52172.88
524.96	52254.80
525.13	52200.97
525.30	52341.40
525.47	52313.31
525.64	52236.08
525.81	52500.56
525.98	52561.41
526.16	52306.29
526.33	52247.78
526.50	52891.43
526.67	52453.75
526.84	52853.98
527.01	52839.93
527.18	52875.04
527.36	52772.06
527.53	52788.44
527.70	53207.40
527.87	53294.00
528.04	53167.61
528.21	53406.34
528.38	53254.21
528.55	53481.24
528.72	53492.94
528.89	53134.84
529.07	53228.46
529.24	53560.82
529.41	53677.85
529.58	53673.16
529.75	53570.18
529.92	53752.74
530.09	54145.95
530.26	53841.68
530.43	53947.01
530.60	53853.39
530.77	53780.83
530.94	54031.27
531.11	54092.12
531.28	54141.27
531.46	54047.65
531.63	54085.10
531.80	54042.97
531.97	54328.52
532.14	54291.07
532.31	54356.60
532.48	54429.16
532.65	54293.41
532.82	54246.60
532.99	54457.24
533.16	54602.36
533.33	54695.98
533.50	54871.52
533.67	54749.81
533.84	54611.72
534.01	54894.92
534.18	54899.61
534.35	55157.06
534.52	54939.39
534.69	55285.79
534.86	55241.32
535.03	55238.98
535.20	55028.34
535.37	55320.90
535.54	55337.29
535.71	55117.28
535.88	55515.17
536.05	55271.75
536.22	55702.41
536.38	55657.94
536.55	55739.86
536.72	55419.20
536.89	55489.42
537.06	55669.64
537.23	55861.57
537.40	55538.57
537.57	55700.07
537.74	55512.83
537.91	55667.30
538.08	55985.61
538.25	55714.11
538.42	56011.36
538.59	55990.30
538.75	55770.28
538.92	56102.64
539.09	55941.14
539.26	56210.31
539.43	56013.70
539.60	56280.52
539.77	56285.20
539.94	56573.09
540.11	56280.52
540.28	56264.14
540.44	56346.06
540.61	56240.73
540.78	56416.27
540.95	56493.51
541.12	56348.40
541.29	56343.72
541.46	56425.64
541.62	56739.27
541.79	56647.99
541.96	56341.38
542.13	56418.61
542.30	56821.19
542.47	57116.09
542.63	56680.75
542.80	56516.92
542.97	57125.46
543.14	57090.35
543.31	57055.24
543.48	57083.33
543.64	57488.24
543.81	57228.44
543.98	57319.72
544.15	57399.30
544.32	57151.20
544.48	57485.90
544.65	57251.84
544.82	57319.72
544.99	57219.08
545.16	57427.38
545.32	57240.14
545.49	57719.95
545.66	57537.39
545.83	57523.35
546.00	57628.67
546.16	57382.91
546.33	57371.21
546.50	57357.17
546.67	57525.69
546.83	57317.38
547.00	57558.45
547.17	57687.18
547.34	57703.57
547.50	57647.39
547.67	57794.85
547.84	57977.41
548.00	57879.11
548.17	58059.33
548.34	57853.36
548.51	58000.82
548.67	58220.83
548.84	58185.72
549.01	57932.94
549.18	57977.41
549.34	57951.66
549.51	58152.95
549.68	58286.36
549.84	58262.96
550.01	58445.52
550.18	58183.38
550.34	58251.25
550.51	58454.88
550.68	58412.75
550.84	58157.63
551.01	58501.69
551.18	58616.38
551.34	58319.13
551.51	58548.50
551.68	58485.31
551.84	58564.88
552.01	58571.91
552.18	58431.47
552.34	58532.12
552.51	58585.95
552.68	58394.03
552.84	58330.83
553.01	58899.58
553.18	58461.90
553.34	58850.43
553.51	58632.76
553.67	58698.30
553.84	58843.41
554.01	58894.90
554.17	59051.72
554.34	58955.75
554.51	58993.20
554.67	58911.28
554.84	58911.28
555.00	58960.44
555.17	58808.30
555.33	58894.90
555.50	58820.00
555.67	58993.20
555.83	58983.84
556.00	59040.01
556.16	59372.37
556.33	59119.59
556.50	59093.85
556.66	59238.96
556.83	59068.10
556.99	59355.99
557.16	59458.97
557.32	59482.37
557.49	59482.37
557.65	59269.39
557.82	59220.23
557.98	59208.53
558.15	59290.45
558.32	59423.86
558.48	59360.67
558.65	59297.47
558.81	59433.22
558.98	59529.19
559.14	59405.14
559.31	59763.24
559.47	59564.29
559.64	59842.82
559.80	59568.97
559.97	59508.12
560.13	59395.77
560.30	59568.97
560.46	59842.82
560.63	59545.57
560.79	59669.62
560.96	59786.64
561.12	59749.20
561.29	59812.39
561.45	59803.03
561.61	59770.26
561.78	59796.01
561.94	59753.88
562.11	59781.96
562.27	59676.64
562.44	59894.31
562.60	60119.00
562.77	59859.20
562.93	59641.53
563.10	59714.09
563.26	59852.18
563.42	60072.19
563.59	59990.27
563.75	60051.12
563.92	59901.33
564.08	59959.84
564.24	60163.47
564.41	60179.85
564.57	60130.70
564.74	60072.19
564.90	60030.06
565.07	60119.00
565.23	60065.17
565.39	59976.23
565.56	59999.63
565.72	60104.96
565.88	60037.08
566.05	60060.49
566.21	60254.75
566.38	60275.82
566.54	60207.94
566.70	60172.83
566.87	60331.99
567.03	60030.06
567.19	60292.20
567.36	60406.89
567.52	60221.98
567.68	60463.06
567.85	60439.65
568.01	60362.42
568.17	60327.31
568.34	60313.26
568.50	60296.88
568.66	60182.19
568.83	60430.29
568.99	60303.90
569.15	60374.12
569.32	60547.32
569.48	60264.11
569.64	60404.55
569.81	60383.48
569.97	60261.77
570.13	60369.44
570.30	60252.41
570.46	60315.61
570.62	60402.21
570.78	60257.09
570.95	60336.67
571.11	60516.89
571.27	60453.70
571.43	60413.91
571.60	60315.61
571.76	60467.74
571.92	60591.79
572.09	60465.40
572.25	60324.97
572.41	60413.91
572.57	60346.03
572.74	60680.73
572.90	60425.61
573.06	60725.20
573.22	60547.32
573.38	60605.83
573.55	60437.31
573.71	60748.60
573.87	60589.45
574.03	60430.29
574.20	60516.89
574.36	60530.93
574.52	60849.25
574.68	60699.45
574.84	60814.14
575.01	60748.60
575.17	60776.69
575.33	60512.21
575.49	60582.43
575.65	60573.06
575.82	60671.37
575.98	60818.82
576.14	60907.76
576.30	60786.05
576.46	60582.43
576.62	60767.33
576.79	60652.64
576.95	60704.13
577.11	60612.85
577.27	60725.20
577.43	60802.44
577.59	60591.79
577.75	60793.07
577.92	60739.24
578.08	60587.11
578.24	60867.97
578.40	60893.72
578.56	60772.01
578.72	60678.39
578.88	60980.32
579.04	60961.59
579.21	60746.26
579.37	61001.38
579.53	60973.30
579.69	60622.22
579.85	60699.45
580.01	60764.99
580.17	60800.10
580.33	60713.50
580.49	60947.55
580.65	60846.91
580.82	60769.67
580.98	60577.75
581.14	60750.94
581.30	60975.64
581.46	60839.89
581.62	60830.52
581.78	60781.37
581.94	60797.76
582.10	60743.92
582.26	60664.35
582.42	60825.84
582.58	60814.14
582.74	60720.52
582.90	60811.80
583.06	60917.12
583.22	60697.11
583.38	60767.33
583.54	60945.21
583.70	60849.25
583.86	60814.14
584.02	60690.09
584.18	60987.34
584.34	60860.95
584.50	60835.20
584.66	60809.46
584.82	60802.44
584.98	61048.19
585.14	61020.11
585.30	60938.19
585.46	60931.17
585.62	60989.68
585.78	61183.94
585.94	60575.40
586.10	60912.44
586.26	60851.59
586.42	60968.61
586.58	60970.96
586.74	61069.26
586.90	60863.29
587.06	60905.42
587.22	61137.13
587.38	60975.64
587.54	60900.74
587.70	61151.18
587.86	60926.49
588.02	61076.28
588.18	61048.19
588.34	60933.51
588.49	60956.91
