SpectraSuite Data File
++++++++++++++++++++++++++++++++++++
Date: Fri Oct 25 10:47:25 EDT 2013
User: price-jones
Dark Spectrum Present: No
Reference Spectrum Present: No
Number of Sampled Component Spectra: 1
Spectrometers: USB2+H05261
Integration Time (usec): 100000 (USB2+H05261)
Spectra Averaged: 1 (USB2+H05261)
Boxcar Smoothing: 0 (USB2+H05261)
Correct for Electrical Dark: No (USB2+H05261)
Strobe/Lamp Enabled: No (USB2+H05261)
Correct for Detector Non-linearity: No (USB2+H05261)
Correct for Stray Light: No (USB2+H05261)
Number of Pixels in Processed Spectrum: 2048
>>>>>Begin Processed Spectral Data<<<<<
365.73	79.58
365.92	79.58
366.12	79.58
366.32	93.62
366.52	39.79
366.72	0.00
366.91	100.64
367.11	2.34
367.31	140.43
367.51	65.54
367.70	0.00
367.90	79.58
368.10	74.90
368.30	84.26
368.49	44.47
368.69	84.26
368.89	77.24
369.09	56.17
369.28	98.30
369.48	56.17
369.68	86.60
369.87	131.07
370.07	49.15
370.27	81.92
370.47	203.63
370.66	367.46
370.86	379.17
371.06	465.77
371.25	514.92
371.45	400.23
371.65	517.26
371.84	482.15
372.04	458.74
372.24	407.25
372.44	409.59
372.63	468.11
372.83	477.47
373.03	524.28
373.22	435.34
373.42	519.60
373.62	486.83
373.81	566.41
374.01	482.15
374.21	533.64
374.40	468.11
374.60	587.47
374.79	500.87
374.99	519.60
375.19	545.34
375.38	535.98
375.58	479.81
375.78	627.26
375.97	610.88
376.17	702.16
376.37	636.63
376.56	571.09
376.76	521.94
376.95	587.47
377.15	603.86
377.35	596.84
377.54	575.77
377.74	657.69
377.93	627.26
378.13	554.71
378.33	683.44
378.52	603.86
378.72	627.26
378.91	641.31
379.11	622.58
379.31	683.44
379.50	571.09
379.70	587.47
379.89	575.77
380.09	636.63
380.28	662.37
380.48	657.69
380.68	681.10
380.87	650.67
381.07	699.82
381.26	678.76
381.46	638.97
381.65	692.80
381.85	678.76
382.04	681.10
382.24	671.73
382.43	678.76
382.63	641.31
382.83	559.39
383.02	711.52
383.22	812.17
383.41	695.14
383.61	683.44
383.80	767.70
384.00	688.12
384.19	695.14
384.39	767.70
384.58	760.67
384.78	748.97
384.97	781.74
385.17	741.95
385.36	746.63
385.56	662.37
385.75	779.40
385.95	795.78
386.14	814.51
386.34	866.00
386.53	739.61
386.72	809.83
386.92	753.65
387.11	805.14
387.31	837.91
387.50	814.51
387.70	826.21
387.89	779.40
388.09	849.61
388.28	828.55
388.48	952.60
388.67	851.96
388.86	882.38
389.06	861.32
389.25	905.79
389.45	952.60
389.64	887.06
389.84	1032.18
390.03	905.79
390.22	933.87
390.42	880.04
390.61	891.74
390.81	903.45
391.00	849.61
391.19	912.81
391.39	994.73
391.58	959.62
391.78	912.81
391.97	954.94
392.16	926.85
392.36	1015.79
392.55	840.25
392.75	891.74
392.94	870.68
393.13	985.37
393.33	938.55
393.52	966.64
393.71	992.39
393.91	990.05
394.10	1008.77
394.29	1074.31
394.49	1116.44
394.68	1025.15
394.88	1123.46
395.07	1111.75
395.26	1118.78
395.46	1013.45
395.65	1160.91
395.84	1158.57
396.04	1086.01
396.23	1076.65
396.42	1102.39
396.62	1074.31
396.81	1116.44
397.00	1100.05
397.19	1217.08
397.39	1221.76
397.58	1282.61
397.77	1240.48
397.97	1221.76
398.16	1296.66
398.35	1287.29
398.55	1329.42
398.74	1334.11
398.93	1315.38
399.12	1245.16
399.32	1355.17
399.51	1390.28
399.70	1481.56
399.90	1394.96
400.09	1413.68
400.28	1409.00
400.47	1481.56
400.67	1453.47
400.86	1418.36
401.05	1294.32
401.24	1500.28
401.44	1537.73
401.63	1465.18
401.82	1600.93
402.01	1486.24
402.21	1497.94
402.40	1465.18
402.59	1547.09
402.78	1523.69
402.97	1481.56
403.17	1540.07
403.36	1598.59
403.55	1577.52
403.74	1687.53
403.93	1633.69
404.13	1603.27
404.32	1652.42
404.51	1689.87
404.70	1771.79
404.89	1647.74
405.09	1790.51
405.28	1795.19
405.47	1689.87
405.66	1717.95
405.85	1717.95
406.05	1739.02
406.24	1724.97
406.43	1724.97
406.62	1825.62
406.81	1898.17
407.00	1776.47
407.20	1760.08
407.39	1820.94
407.58	1935.62
407.77	1860.73
407.96	1834.98
408.15	1900.52
408.34	1984.77
408.54	1963.71
408.73	1977.75
408.92	2019.88
409.11	2015.20
409.30	1944.99
409.49	2054.99
409.68	2033.93
409.87	2062.01
410.07	2092.44
410.26	2052.65
410.45	2083.08
410.64	2141.59
410.83	2115.84
411.02	2225.85
411.21	2359.26
411.40	2258.62
411.59	2328.83
411.78	2347.56
411.98	2251.60
412.17	2387.35
412.36	2263.30
412.55	2352.24
412.74	2408.41
412.93	2511.39
413.12	2420.11
413.31	2551.18
413.50	2490.33
413.69	2513.74
413.88	2672.89
414.07	2576.93
414.26	2628.42
414.45	2719.70
414.64	2633.10
414.83	2705.66
415.02	2717.36
415.22	2736.09
415.41	2785.24
415.60	2644.81
415.79	2686.94
415.98	2820.35
416.17	2890.56
416.36	2925.67
416.55	2843.75
416.74	2937.37
416.93	2855.45
417.12	2904.60
417.31	2909.29
417.50	2953.76
417.69	3087.17
417.88	2967.80
418.07	3138.66
418.26	3101.21
418.45	3206.53
418.64	3215.90
418.83	3136.32
419.02	3227.60
419.21	3363.35
419.39	3213.56
419.58	3218.24
419.77	3143.34
419.96	3236.96
420.15	3307.18
420.34	3222.92
420.53	3311.86
420.72	3454.63
420.91	3410.16
421.10	3438.25
421.29	3365.69
421.48	3391.44
421.67	3447.61
421.86	3435.91
422.05	3307.18
422.24	3379.73
422.43	3480.38
422.61	3435.91
422.80	3524.85
422.99	3471.01
423.18	3581.02
423.37	3674.64
423.56	3714.43
423.75	3637.19
423.94	3419.52
424.13	3272.07
424.32	3492.08
424.50	3555.27
424.69	3583.36
424.88	3585.70
425.07	3552.93
425.26	3461.65
425.45	3466.33
425.64	3559.95
425.83	3655.92
426.01	3660.60
426.20	3527.19
426.39	3510.80
426.58	3620.81
426.77	3482.72
426.96	3691.02
427.15	3583.36
427.33	3843.16
427.52	3669.96
427.71	3770.60
427.90	3728.47
428.09	3676.98
428.28	3651.24
428.46	3578.68
428.65	3707.41
428.84	3852.52
429.03	3803.37
429.22	3742.52
429.40	3803.37
429.59	3730.81
429.78	3691.02
429.97	3604.42
430.16	3847.84
430.34	3840.82
430.53	3978.91
430.72	3920.40
430.91	3929.76
431.10	4016.36
431.28	4032.74
431.47	4086.58
431.66	4255.09
431.85	4142.75
432.03	4273.82
432.22	4238.71
432.41	4264.46
432.60	4341.69
432.79	4372.12
432.97	4252.75
433.16	4229.35
433.35	4138.07
433.54	4241.05
433.72	4170.83
433.91	4231.69
434.10	4320.63
434.28	4311.27
434.47	4470.42
434.66	4334.67
434.85	4409.57
435.03	4404.89
435.22	4315.95
435.41	4573.41
435.59	4629.58
435.78	4498.51
435.97	4526.60
436.16	4610.86
436.34	4772.35
436.53	4603.83
436.72	4657.67
436.90	4540.64
437.09	4702.14
437.28	4645.96
437.46	4807.46
437.65	4760.65
437.84	4814.48
438.02	4725.54
438.21	4798.10
438.40	4734.90
438.58	4746.61
438.77	4830.87
438.96	4770.01
439.14	4903.42
439.33	5064.92
439.52	4964.28
439.70	5074.28
439.89	5135.14
440.08	5153.86
440.26	5109.39
440.45	5116.41
440.63	5369.19
440.82	5397.28
441.01	5296.63
441.19	5446.43
441.38	5481.53
441.57	5455.79
441.75	5455.79
441.94	5617.29
442.12	5614.95
442.31	5664.10
442.50	5729.63
442.68	5633.67
442.87	5664.10
443.05	5710.91
443.24	5743.67
443.43	5818.57
443.61	5731.97
443.80	5771.76
443.98	5687.50
444.17	5542.39
444.35	5717.93
444.54	5809.21
444.73	6022.20
444.91	5799.85
445.10	5872.40
445.28	5811.55
445.47	5689.84
445.65	5886.45
445.84	5919.21
446.02	6038.58
446.21	5933.26
446.39	5841.98
446.58	5865.38
446.77	6012.84
446.95	5788.14
447.14	5884.11
447.32	6047.94
447.51	5797.51
447.69	6003.47
447.88	6001.13
448.06	6162.63
448.25	5973.05
448.43	6132.20
448.62	6190.72
448.80	5977.73
448.99	6214.12
449.17	6197.74
449.36	6132.20
449.54	6221.14
449.73	6282.00
449.91	6377.96
450.10	6443.49
450.28	6399.02
450.46	6298.38
450.65	6368.60
450.83	6352.21
451.02	6483.28
451.20	6459.88
451.39	6544.14
451.57	6424.77
451.76	6480.94
451.94	6511.37
452.13	6544.14
452.31	6506.69
452.49	6462.22
452.68	6310.08
452.86	6546.48
453.05	6415.41
453.23	6623.72
453.42	6544.14
453.60	6562.86
453.78	6792.23
453.97	6562.86
454.15	6626.06
454.34	6679.89
454.52	6530.09
454.70	6607.33
454.89	6715.00
455.07	6927.99
455.26	6960.75
455.44	6876.49
455.62	6979.48
455.81	7009.90
455.99	7026.29
456.17	7052.03
456.36	6935.01
456.54	7014.59
456.73	7056.72
456.91	7353.96
457.09	7260.34
457.28	7506.10
457.46	7016.93
457.64	7211.19
457.83	7391.41
458.01	7122.25
458.19	7368.01
458.38	7382.05
458.56	7485.03
458.74	7541.21
458.93	7478.01
459.11	7489.71
459.29	7569.29
459.48	7463.97
459.66	7625.47
459.84	7602.06
460.03	7637.17
460.21	7440.56
460.39	7550.57
460.57	7655.89
460.76	7707.38
460.94	7943.78
461.12	7786.96
461.31	7901.65
461.49	7646.53
461.67	7838.45
461.85	7957.82
462.04	7854.84
462.22	8294.86
462.40	8044.42
462.59	7948.46
462.77	8030.38
462.95	8079.53
463.13	8088.89
463.32	8126.34
463.50	8259.75
463.68	8198.90
463.86	8030.38
464.05	7981.23
464.23	8166.13
464.41	8269.11
464.59	8023.36
464.78	8404.86
464.96	8297.20
465.14	8229.32
465.32	8454.02
465.50	8280.82
465.69	8287.84
465.87	8297.20
466.05	8505.51
466.23	8271.45
466.41	8409.54
466.60	8430.61
466.78	8540.61
466.96	8421.25
467.14	8538.27
467.32	8336.99
467.51	8463.38
467.69	8423.59
467.87	8645.94
468.05	8662.32
468.23	8507.85
468.41	8587.43
468.60	8561.68
468.78	8681.05
468.96	8720.84
469.14	8875.31
469.32	8987.66
469.50	8472.74
469.69	8940.85
469.87	9020.42
470.05	8901.06
470.23	8910.42
470.41	8870.63
470.59	9027.45
470.77	8978.30
470.95	9053.19
471.14	9238.09
471.32	8922.12
471.50	9521.30
471.68	9404.27
471.86	9467.47
472.04	9329.38
472.22	9432.36
472.40	9387.89
472.58	9336.40
472.77	9544.70
472.95	9650.03
473.13	9799.82
473.31	9582.15
473.49	9500.23
473.67	9572.79
473.85	9734.29
474.03	9935.57
474.21	9951.96
474.39	10047.92
474.57	10015.15
474.75	10038.56
474.93	10181.33
475.12	9958.98
475.30	10300.70
475.48	10143.88
475.66	10431.77
475.84	10174.31
476.02	10391.98
476.20	10539.43
476.38	10780.51
476.56	10860.09
476.74	10850.72
476.92	10782.85
477.10	10686.89
477.28	11054.35
477.46	11066.05
477.64	11229.89
477.82	11173.72
478.00	11440.54
478.18	11473.31
478.36	11365.64
478.54	11683.95
478.72	11590.33
478.90	11712.04
479.08	11782.26
479.26	11925.03
479.44	12051.42
479.62	12379.09
479.80	12095.89
479.98	12250.36
480.16	12353.35
480.34	12510.16
480.52	12578.04
480.70	12676.34
480.88	12559.31
481.06	12578.04
481.24	12807.41
481.41	12833.16
481.59	12938.48
481.77	13139.77
481.95	13331.69
482.13	13132.75
482.31	13455.74
482.49	13724.90
482.67	13331.69
482.85	13397.23
483.03	13724.90
483.21	14040.87
483.39	13987.04
483.57	14001.08
483.74	14197.69
483.92	14312.38
484.10	14560.47
484.28	14541.75
484.46	14806.23
484.64	15171.35
484.82	14675.16
485.00	14750.06
485.18	15351.57
485.35	15019.22
485.53	15229.87
485.71	15246.25
485.89	15295.40
486.07	15082.41
486.25	15548.18
486.43	15550.52
486.61	15772.87
486.78	15861.81
486.96	15985.86
487.14	16355.66
487.32	16149.70
487.50	16313.53
487.68	16652.91
487.85	16760.58
488.03	16856.54
488.21	16968.88
488.39	17076.55
488.57	17252.09
488.75	17280.18
488.92	17535.29
489.10	17664.02
489.28	17664.02
489.46	17935.53
489.64	17944.89
489.81	18408.31
489.99	18621.30
490.17	18792.16
490.35	19061.32
490.53	18787.48
490.70	18888.12
490.88	18899.83
491.06	19040.26
491.24	19105.79
491.41	18925.57
491.59	19527.09
491.77	19178.35
491.95	19470.92
492.13	19829.02
492.30	20039.67
492.48	19707.31
492.66	20006.90
492.84	20046.69
493.01	20706.72
493.19	20159.03
493.37	20418.83
493.54	20662.25
493.72	20800.34
493.90	21043.76
494.08	20905.66
494.25	21399.52
494.43	21359.73
494.61	21556.33
494.79	21729.53
494.96	21308.24
495.14	21774.00
495.32	21462.71
495.49	21965.93
495.67	21963.59
495.85	22359.14
496.02	22202.32
496.20	22340.41
496.38	22618.94
496.55	22544.04
496.73	23459.19
496.91	22988.74
497.09	22995.76
497.26	22946.61
497.44	22979.38
497.62	23300.03
497.79	23278.97
497.97	23192.37
498.14	23498.98
498.32	23618.35
498.50	23836.02
498.67	24002.19
498.85	24173.05
499.03	23796.23
499.20	23985.81
499.38	24341.57
499.56	24472.64
499.73	24395.40
499.91	24835.42
500.08	24673.93
500.26	24463.28
500.44	24641.16
500.61	24971.18
500.79	24690.31
500.97	25305.87
501.14	25369.07
501.32	24964.15
501.49	25649.93
501.67	25589.08
501.84	25460.35
502.02	25364.39
502.20	25624.18
502.37	25703.76
502.55	25996.33
502.72	25968.24
502.90	25839.51
503.07	26267.83
503.25	26190.59
503.43	25965.90
503.60	26366.13
503.78	26904.46
503.95	26019.74
504.13	26714.87
504.30	26401.24
504.48	26412.95
504.65	27110.43
504.83	27002.76
505.01	26923.18
505.18	27103.40
505.36	27236.81
505.53	27241.50
505.71	27178.30
505.88	27548.11
506.06	27171.28
506.23	27590.24
506.41	27660.45
506.58	27480.23
506.76	27641.73
506.93	27910.89
507.11	28002.17
507.28	28093.45
507.46	28400.06
507.63	27768.12
507.81	28058.34
507.98	28238.56
508.16	28608.37
508.33	28481.98
508.50	28467.94
508.68	28489.00
508.85	28929.02
509.03	29090.52
509.20	28652.84
509.38	28797.95
509.55	28821.36
509.73	29116.26
509.90	29085.84
510.08	29027.32
510.25	28985.19
510.42	29347.98
510.60	29495.43
510.77	29858.21
510.95	29493.09
511.12	29813.74
511.30	29778.64
511.47	30181.21
511.64	30492.50
511.82	30115.67
511.99	30005.67
512.17	30054.82
512.34	30408.24
512.51	30478.46
512.69	30459.73
512.86	30295.89
513.04	30726.55
513.21	30532.29
513.38	30632.93
513.56	30485.48
513.73	30677.40
513.90	31180.62
514.08	31124.44
514.25	31264.88
514.43	30642.29
514.60	31459.14
514.77	31199.34
514.95	31665.11
515.12	31445.10
515.29	31379.56
515.47	31487.23
515.64	31936.61
515.81	31508.29
515.99	31625.32
516.16	31988.10
516.33	31681.49
516.51	31901.50
516.68	31601.91
516.85	31772.77
517.03	31620.64
517.20	31941.29
517.37	32503.02
517.54	32474.93
517.72	31960.02
517.89	32245.56
518.06	32189.39
518.24	32545.15
518.41	32477.27
518.58	32011.51
518.75	32493.66
518.93	33027.30
519.10	33125.60
519.27	33116.24
519.45	33247.31
519.62	32936.02
519.79	33106.88
519.96	33401.79
520.14	33429.87
520.31	33308.16
520.48	33490.73
520.65	33336.25
520.83	33652.22
521.00	33979.90
521.17	33729.46
521.34	33511.79
521.52	33816.06
521.69	34019.69
521.86	33865.21
522.03	34235.02
522.20	34073.52
522.38	34316.93
522.55	34253.74
522.72	34450.35
522.89	33912.02
523.07	34593.12
523.24	34415.24
523.41	34539.29
523.58	34649.29
523.75	35180.59
523.92	34642.27
524.10	35351.45
524.27	35061.22
524.44	35009.73
524.61	35288.26
524.78	35627.63
524.96	35112.72
525.13	35309.32
525.30	35627.63
525.47	35805.52
525.64	35758.70
525.81	35784.45
525.98	35377.20
526.16	35779.77
526.33	35220.38
526.50	35800.83
526.67	35391.24
526.84	35758.70
527.01	35545.72
527.18	35674.45
527.36	36051.27
527.53	35683.81
527.70	36552.15
527.87	35964.67
528.04	36142.55
528.21	36563.85
528.38	36463.21
528.55	36816.63
528.72	36268.94
528.89	36912.59
529.07	36828.33
529.24	35964.67
529.41	36739.39
529.58	36072.34
529.75	36713.64
529.92	36753.43
530.09	36907.91
530.26	36690.24
530.43	37031.96
530.60	36992.17
530.77	36577.89
530.94	37205.16
531.11	37024.93
531.28	37113.87
531.46	37322.18
531.63	37368.99
531.80	37429.85
531.97	37216.86
532.14	37546.87
532.31	37607.73
532.48	37972.85
532.65	37949.45
532.82	37682.62
532.99	37860.51
533.16	37380.70
533.33	37755.18
533.50	38061.79
533.67	37855.82
533.84	37752.84
534.01	38052.43
534.18	37841.78
534.35	38408.19
534.52	38033.71
534.69	37961.15
534.86	38265.42
535.03	38342.66
535.20	38506.49
535.37	38581.39
535.54	38946.51
535.71	38403.51
535.88	38761.61
536.05	38363.72
536.22	38880.98
536.38	38270.10
536.55	38576.71
536.72	38667.99
536.89	38450.32
537.06	38707.78
537.23	38979.28
537.40	38541.60
537.57	38768.63
537.74	38581.39
537.91	39330.36
538.08	39154.82
538.25	38637.56
538.42	39152.48
538.59	39508.24
538.75	39005.03
538.92	39531.65
539.09	39501.22
539.26	39494.20
539.43	39566.76
539.60	39791.45
539.77	38829.49
539.94	39620.59
540.11	39054.18
540.28	39442.71
540.44	39674.42
540.61	39321.00
540.78	39253.12
540.95	39718.89
541.12	39335.04
541.29	39704.85
541.46	40086.36
541.62	39667.40
541.79	39962.31
541.96	39859.32
542.13	40044.23
542.30	39707.19
542.47	40194.02
542.63	40266.58
542.80	40308.71
542.97	40655.11
543.14	41083.42
543.31	40563.82
543.48	40086.36
543.64	41125.55
543.81	40875.12
543.98	40832.99
544.15	40397.65
544.32	41097.47
544.48	41015.55
544.65	40999.16
544.82	40877.46
544.99	40320.41
545.16	40861.07
545.32	40992.14
545.49	41251.94
545.66	41226.20
545.83	41155.98
546.00	41415.78
546.16	41390.03
546.33	41045.97
546.50	41045.97
546.67	41296.41
546.83	40802.56
547.00	41027.25
547.17	41165.34
547.34	41177.04
547.50	41326.84
547.67	41942.40
547.84	41483.66
548.00	41375.99
548.17	42003.25
548.34	41617.07
548.51	41738.77
548.67	41944.74
548.84	41804.31
549.01	41886.23
549.18	42007.94
549.34	42052.41
549.51	42024.32
549.68	41865.16
549.84	42110.92
550.01	42293.48
550.18	42033.68
550.34	41741.11
550.51	42239.65
550.68	41776.22
550.84	41640.47
551.01	42532.22
551.18	41935.38
551.34	42267.73
551.51	42190.50
551.68	42443.27
551.84	42487.74
552.01	42061.77
552.18	41811.33
552.34	42080.49
552.51	42469.02
552.68	42464.34
552.84	42073.47
553.01	42705.41
553.18	42422.21
553.34	42916.06
553.51	42314.55
553.67	42604.77
553.84	42780.31
554.01	42419.87
554.17	42550.94
554.34	43110.33
554.51	43161.82
554.67	43077.56
554.84	42499.45
555.00	42782.65
555.17	42546.26
555.33	43346.72
555.50	43147.78
555.67	42815.42
555.83	43012.02
556.00	42644.56
556.16	43627.59
556.33	43065.86
556.50	43213.31
556.66	43103.31
556.83	42721.80
556.99	43297.57
557.16	43636.95
557.32	43948.24
557.49	43147.78
557.65	43180.54
557.82	42878.61
557.98	43089.26
558.15	43107.99
558.32	43887.39
558.48	43367.79
558.65	43412.26
558.81	43037.77
558.98	43557.37
559.14	43721.21
559.31	43430.98
559.47	42721.80
559.64	43863.98
559.80	43613.54
559.97	43784.40
560.13	43384.17
560.30	43409.92
560.46	43318.64
560.63	43812.49
560.79	43854.62
560.96	44208.04
561.12	43665.03
561.29	44392.94
561.45	43845.26
561.61	43985.69
561.78	43730.57
561.94	43634.61
562.11	43924.83
562.27	43440.34
562.44	44067.61
562.60	44105.06
562.77	44048.88
562.93	43810.15
563.10	43817.17
563.26	43423.96
563.42	44055.90
563.59	44053.56
563.75	43999.73
563.92	44371.88
564.08	44165.91
564.24	44067.61
564.41	44505.29
564.57	43927.17
564.74	44282.94
564.90	44652.74
565.07	43889.73
565.23	43992.71
565.39	44149.53
565.56	44076.97
565.72	44105.06
565.88	44304.00
566.05	44032.50
566.21	44177.61
566.38	43782.06
566.54	44149.53
566.70	45001.48
566.87	44402.30
567.03	44217.40
567.19	44421.03
567.36	44236.12
567.52	43854.62
567.68	44732.32
567.85	44329.75
568.01	44268.89
568.17	44296.98
568.34	44236.12
568.50	43992.71
568.66	44502.95
568.83	44250.17
568.99	44119.10
569.15	44156.55
569.32	44126.12
569.48	44259.53
569.64	44570.82
569.81	44561.46
569.97	44112.08
570.13	44561.46
570.30	44137.82
570.46	44343.79
570.62	44013.77
570.78	44320.38
570.95	43842.92
571.11	44683.17
571.27	44484.22
571.43	44156.55
571.60	44603.59
571.76	44786.15
571.92	44526.35
572.09	44608.27
572.25	44432.73
572.41	44648.06
572.57	44479.54
572.74	45102.12
572.90	44734.66
573.06	44231.44
573.22	44147.18
573.38	44683.17
573.55	43772.70
573.71	44477.20
573.87	44453.79
574.03	44512.31
574.20	44479.54
574.36	44615.29
574.52	44406.98
574.68	44781.47
574.84	44470.18
575.01	44552.10
575.17	44449.11
575.33	44156.55
575.49	44587.21
575.65	44645.72
575.82	45120.85
575.98	44804.88
576.14	45144.25
576.30	44706.57
576.46	44495.92
576.62	44603.59
576.79	44645.72
576.95	44470.18
577.11	44566.14
577.27	44924.24
577.43	44514.65
577.59	44711.25
577.75	44772.11
577.92	44575.50
578.08	44739.34
578.24	44556.78
578.40	44495.92
578.56	44839.98
578.72	44465.50
578.88	44964.03
579.04	44767.43
579.21	44612.95
579.37	44512.31
579.53	44704.23
579.69	44828.28
579.85	44493.58
580.01	44875.09
580.17	44734.66
580.33	45214.47
580.49	44935.95
580.65	44470.18
580.82	44706.57
580.98	44605.93
581.14	44339.11
581.30	44519.33
581.46	44612.95
581.62	44678.49
581.78	44900.84
581.94	45193.40
582.10	44872.75
582.26	45120.85
582.42	44949.99
582.58	44818.92
582.74	44854.03
582.90	44385.92
583.06	44875.09
583.22	44631.68
583.38	45319.79
583.54	44636.36
583.70	44566.14
583.86	44762.75
584.02	44540.39
584.18	44570.82
584.34	44725.30
584.50	45282.34
584.66	44870.41
584.82	44652.74
584.98	44996.80
585.14	44774.45
585.30	44865.73
585.46	44645.72
585.62	44931.26
585.78	44748.70
585.94	44580.18
586.10	44835.30
586.26	44715.93
586.42	45263.62
586.58	44861.05
586.74	44832.96
586.90	44502.95
587.06	44664.44
587.22	45202.77
587.38	44758.06
587.54	44772.11
587.70	45160.64
587.86	45198.09
588.02	44741.68
588.18	44905.52
588.34	45043.61
588.49	44584.86
588.65	44212.72
588.81	44509.97
588.97	44755.72
589.13	44781.47
589.29	44954.67
589.45	45109.14
589.61	45010.84
589.77	44905.52
589.93	45024.89
590.08	45015.52
590.24	45265.96
590.40	45120.85
