SpectraSuite Data File
++++++++++++++++++++++++++++++++++++
Date: Fri Oct 25 10:44:53 EDT 2013
User: price-jones
Dark Spectrum Present: No
Reference Spectrum Present: No
Number of Sampled Component Spectra: 1
Spectrometers: USB2+H05261
Integration Time (usec): 100000 (USB2+H05261)
Spectra Averaged: 1 (USB2+H05261)
Boxcar Smoothing: 0 (USB2+H05261)
Correct for Electrical Dark: No (USB2+H05261)
Strobe/Lamp Enabled: No (USB2+H05261)
Correct for Detector Non-linearity: No (USB2+H05261)
Correct for Stray Light: No (USB2+H05261)
Number of Pixels in Processed Spectrum: 2048
>>>>>Begin Processed Spectral Data<<<<<
365.73	95.96
365.92	95.96
366.12	95.96
366.32	28.09
366.52	107.66
366.72	138.09
366.91	0.00
367.11	0.00
367.31	70.22
367.51	0.00
367.70	0.00
367.90	11.70
368.10	74.90
368.30	0.00
368.49	18.72
368.69	39.79
368.89	46.81
369.09	23.41
369.28	114.69
369.48	0.00
369.68	21.06
369.87	102.98
370.07	77.24
370.27	175.54
370.47	227.03
370.66	381.51
370.86	411.93
371.06	376.83
371.25	442.36
371.45	454.06
371.65	484.49
371.84	397.89
372.04	451.72
372.24	507.90
372.44	482.15
372.63	512.58
372.83	519.60
373.03	503.22
373.22	477.47
373.42	444.70
373.62	564.07
373.81	500.87
374.01	575.77
374.21	559.39
374.40	484.49
374.60	526.62
374.79	559.39
374.99	592.16
375.19	592.16
375.38	580.45
375.58	510.24
375.78	557.05
375.97	575.77
376.17	538.32
376.37	531.30
376.56	540.66
376.76	517.26
376.95	517.26
377.15	559.39
377.35	627.26
377.54	559.39
377.74	580.45
377.93	575.77
378.13	575.77
378.33	641.31
378.52	704.50
378.72	669.39
378.91	624.92
379.11	627.26
379.31	629.60
379.50	624.92
379.70	617.90
379.89	695.14
380.09	648.33
380.28	620.24
380.48	678.76
380.68	617.90
380.87	627.26
381.07	587.47
381.26	650.67
381.46	657.69
381.65	634.29
381.85	641.31
382.04	641.31
382.24	615.56
382.43	645.99
382.63	650.67
382.83	725.57
383.02	713.86
383.22	690.46
383.41	653.01
383.61	676.41
383.80	774.72
384.00	779.40
384.19	631.94
384.39	795.78
384.58	774.72
384.78	718.54
384.97	772.38
385.17	692.80
385.36	800.46
385.56	746.63
385.75	753.65
385.95	746.63
386.14	767.70
386.34	692.80
386.53	868.34
386.72	755.99
386.92	784.08
387.11	727.91
387.31	844.93
387.50	835.57
387.70	809.83
387.89	851.96
388.09	758.33
388.28	903.45
388.48	809.83
388.67	781.74
388.86	866.00
389.06	851.96
389.25	903.45
389.45	964.30
389.64	884.72
389.84	887.06
390.03	933.87
390.22	873.02
390.42	915.15
390.61	887.06
390.81	952.60
391.00	910.47
391.19	987.71
391.39	947.92
391.58	1013.45
391.78	901.11
391.97	943.24
392.16	908.13
392.36	980.68
392.55	968.98
392.75	1008.77
392.94	980.68
393.13	940.90
393.33	1067.28
393.52	968.98
393.71	1001.75
393.91	1093.03
394.10	1011.11
394.29	1018.13
394.49	1074.31
394.68	1200.69
394.88	1053.24
395.07	1163.25
395.26	1067.28
395.46	1142.18
395.65	1121.12
395.84	1104.73
396.04	1160.91
396.23	1074.31
396.42	1071.97
396.62	1174.95
396.81	1221.76
397.00	1100.05
397.19	1109.41
397.39	1100.05
397.58	1277.93
397.77	1179.63
397.97	1249.85
398.16	1352.83
398.35	1261.55
398.55	1322.40
398.74	1345.81
398.93	1390.28
399.12	1413.68
399.32	1331.76
399.51	1282.61
399.70	1385.60
399.90	1376.24
400.09	1413.68
400.28	1425.39
400.47	1444.11
400.67	1568.16
400.86	1409.00
401.05	1425.39
401.24	1493.26
401.44	1500.28
401.63	1551.78
401.82	1540.07
402.01	1575.18
402.21	1540.07
402.40	1427.73
402.59	1516.67
402.78	1490.92
402.97	1577.52
403.17	1589.22
403.36	1614.97
403.55	1668.80
403.74	1666.46
403.93	1589.22
404.13	1591.56
404.32	1645.40
404.51	1607.95
404.70	1825.62
404.89	1710.93
405.09	1825.62
405.28	1650.08
405.47	1685.19
405.66	1757.74
405.85	1755.40
406.05	1678.16
406.24	1750.72
406.43	1748.38
406.62	1846.68
406.81	1886.47
407.00	1797.53
407.20	1842.00
407.39	1881.79
407.58	1881.79
407.77	1949.67
407.96	1968.39
408.15	2064.35
408.34	1926.26
408.54	1919.24
408.73	2040.95
408.92	2069.03
409.11	2036.27
409.30	2108.82
409.49	2062.01
409.68	2069.03
409.87	2059.67
410.07	2134.57
410.26	2169.68
410.45	2080.74
410.64	2132.23
410.83	2097.12
411.02	2310.11
411.21	2298.41
411.40	2267.98
411.59	2342.88
411.78	2300.75
411.98	2246.91
412.17	2289.04
412.36	2429.48
412.55	2452.88
412.74	2464.58
412.93	2520.76
413.12	2438.84
413.31	2504.37
413.50	2495.01
413.69	2539.48
413.88	2602.68
414.07	2511.39
414.26	2628.42
414.45	2677.57
414.64	2750.13
414.83	2736.09
415.02	2654.17
415.22	2738.43
415.41	2759.49
415.60	2736.09
415.79	2911.63
415.98	2874.18
416.17	2820.35
416.36	2862.48
416.55	2937.37
416.74	2913.97
416.93	2885.88
417.12	2920.99
417.31	3009.93
417.50	3042.70
417.69	3155.04
417.88	3063.76
418.07	2953.76
418.26	3077.80
418.45	3145.68
418.64	3262.71
418.83	3361.01
419.02	3276.75
419.21	3126.96
419.39	3276.75
419.58	3258.03
419.77	3089.51
419.96	3309.52
420.15	3199.51
420.34	3304.84
420.53	3300.16
420.72	3382.07
420.91	3410.16
421.10	3304.84
421.29	3463.99
421.48	3279.09
421.67	3496.76
421.86	3361.01
422.05	3351.65
422.24	3489.74
422.43	3604.42
422.61	3389.10
422.80	3581.02
422.99	3517.83
423.18	3346.97
423.37	3529.53
423.56	3522.51
423.75	3517.83
423.94	3386.76
424.13	3213.56
424.32	3454.63
424.50	3442.93
424.69	3597.40
424.88	3625.49
425.07	3531.87
425.26	3499.10
425.45	3552.93
425.64	3438.25
425.83	3527.19
426.01	3702.73
426.20	3627.83
426.39	3641.87
426.58	3723.79
426.77	3585.70
426.96	3705.07
427.15	3531.87
427.33	3674.64
427.52	3707.41
427.71	3669.96
427.90	3740.18
428.09	3763.58
428.28	3826.78
428.46	3918.06
428.65	4023.38
428.84	3911.04
429.03	3819.75
429.22	3756.56
429.40	3845.50
429.59	3810.39
429.78	3674.64
429.97	3805.71
430.16	3723.79
430.34	3749.54
430.53	3868.91
430.72	3737.84
430.91	3873.59
431.10	3861.88
431.28	3990.61
431.47	4070.19
431.66	4170.83
431.85	4044.45
432.03	4156.79
432.22	4135.73
432.41	4065.51
432.60	4208.28
432.79	4154.45
432.97	4287.86
433.16	4320.63
433.35	4313.61
433.54	4257.43
433.72	4152.11
433.91	4292.54
434.10	4280.84
434.28	4217.65
434.47	4351.06
434.66	4430.63
434.85	4519.57
435.03	4510.21
435.22	4447.02
435.41	4741.93
435.59	4535.96
435.78	4582.77
435.97	4603.83
436.16	4660.01
436.34	4631.92
436.53	4739.58
436.72	4784.06
436.90	4601.49
437.09	4741.93
437.28	4594.47
437.46	4674.05
437.65	4547.66
437.84	4795.76
438.02	4781.71
438.21	4730.22
438.40	4638.94
438.58	4844.91
438.77	5039.17
438.96	4854.27
439.14	4945.55
439.33	5097.69
439.52	5132.79
439.70	5078.96
439.89	5207.69
440.08	5186.63
440.26	5179.61
440.45	5083.64
440.63	5139.82
440.82	5378.55
441.01	5369.19
441.19	5366.85
441.38	5451.11
441.57	5535.37
441.75	5460.47
441.94	5678.14
442.12	5645.37
442.31	5755.38
442.50	5827.93
442.68	5650.05
442.87	5781.12
443.05	5753.04
443.24	5860.70
443.43	5703.89
443.61	5823.25
443.80	6059.65
443.98	5673.46
444.17	5769.42
444.35	5788.14
444.54	5947.30
444.73	5909.85
444.91	5785.80
445.10	5891.13
445.28	5720.27
445.47	5774.10
445.65	5607.92
445.84	5841.98
446.02	5825.59
446.21	5905.17
446.39	5998.79
446.58	5907.51
446.77	5956.66
446.95	5818.57
447.14	5919.21
447.32	5916.87
447.51	6160.29
447.69	6045.60
447.88	6003.47
448.06	5832.62
448.25	6045.60
448.43	6169.65
448.62	6186.04
448.80	6076.03
448.99	5884.11
449.17	6197.74
449.36	6148.59
449.54	6270.30
449.73	6246.89
449.91	6560.52
450.10	6326.47
450.28	6394.34
450.46	6417.75
450.65	6305.40
450.83	6558.18
451.02	6359.24
451.20	6553.50
451.39	6485.62
451.57	6300.72
451.76	6546.48
451.94	6438.81
452.13	6396.68
452.31	6464.56
452.49	6499.67
452.68	6642.44
452.86	6588.61
453.05	6635.42
453.23	6361.58
453.42	6532.44
453.60	6740.74
453.78	6747.76
453.97	6600.31
454.15	6658.82
454.34	6427.11
454.52	6927.99
454.70	6815.64
454.89	6731.38
455.07	6752.45
455.26	6991.18
455.44	7070.76
455.62	6984.16
455.81	6904.58
455.99	7035.65
456.17	6911.60
456.36	7052.03
456.54	7037.99
456.73	7089.48
456.91	7274.38
457.09	7229.91
457.28	7316.51
457.46	7248.64
457.64	7164.38
457.83	7194.81
458.01	7227.57
458.19	7424.18
458.38	7473.33
458.56	7290.77
458.74	7405.46
458.93	7541.21
459.11	7435.88
459.29	7501.42
459.48	7534.18
459.66	7492.05
459.84	7595.04
460.03	7700.36
460.21	7749.51
460.39	7653.55
460.57	7721.43
460.76	7892.29
460.94	7803.35
461.12	7623.12
461.31	7779.94
461.49	7784.62
461.67	7735.47
461.85	8070.17
462.04	7681.64
462.22	8009.31
462.40	8091.23
462.59	8018.68
462.77	8091.23
462.95	8203.58
463.13	7943.78
463.32	8149.75
463.50	8196.56
463.68	8114.64
463.86	8149.75
464.05	8194.22
464.23	8086.55
464.41	8105.28
464.59	8168.47
464.78	8533.59
464.96	8276.13
465.14	8175.49
465.32	8383.80
465.50	8219.96
465.69	8519.55
465.87	8362.73
466.05	8325.29
466.23	8355.71
466.41	8491.46
466.60	8428.27
466.78	8315.92
466.96	8468.06
467.14	8400.18
467.32	8329.97
467.51	8596.79
467.69	8444.65
467.87	8559.34
468.05	8580.40
468.23	8528.91
468.41	8671.68
468.60	8777.01
468.78	8671.68
468.96	8807.44
469.14	8812.12
469.32	8809.78
469.50	8751.26
469.69	8847.22
469.87	8861.27
470.05	9018.08
470.23	8926.80
470.41	8699.77
470.59	9111.71
470.77	9179.58
470.95	8999.36
471.14	9205.33
471.32	9020.42
471.50	9387.89
471.68	9284.91
471.86	9261.50
472.04	9462.79
472.22	9521.30
472.40	9284.91
472.58	9320.01
472.77	9591.52
472.95	9511.94
473.13	9989.41
473.31	9586.83
473.49	9685.14
473.67	9734.29
473.85	9771.74
474.03	9963.66
474.21	10104.09
474.39	10211.76
474.57	10031.54
474.75	10001.11
474.93	10153.24
475.12	10113.45
475.30	10368.57
475.48	10239.84
475.66	10370.91
475.84	10211.76
476.02	10408.36
476.20	10485.60
476.38	10813.28
476.56	11054.35
476.74	10649.44
476.92	10607.31
477.10	10939.66
477.28	10998.18
477.46	11037.97
477.64	11187.76
477.82	11112.86
478.00	11557.57
478.18	11473.31
478.36	11370.32
478.54	11449.90
478.72	11524.80
478.90	11784.60
479.08	11749.49
479.26	11999.93
479.44	12013.97
479.62	12002.27
479.80	12238.66
479.98	12196.53
480.16	12622.51
480.34	12470.37
480.52	12472.71
480.70	12561.66
480.88	12393.14
481.06	12891.67
481.24	12847.20
481.41	12985.29
481.59	13053.17
481.77	13179.56
481.95	13167.85
482.13	13277.86
482.31	13242.75
482.49	13928.53
482.67	13635.96
482.85	13844.27
483.03	13820.86
483.21	13893.42
483.39	13898.10
483.57	14071.30
483.74	14113.43
483.92	14588.56
484.10	14078.32
484.28	14305.35
484.46	14541.75
484.64	15014.54
484.82	14822.61
485.00	14890.49
485.18	14998.15
485.35	15328.17
485.53	14913.89
485.71	14815.59
485.89	15573.92
486.07	15337.53
486.25	15428.81
486.43	15494.35
486.61	15843.09
486.78	16004.58
486.96	15829.04
487.14	16393.11
487.32	16329.92
487.50	16362.69
487.68	16744.19
487.85	16573.33
488.03	16931.44
488.21	17020.38
488.39	17041.44
488.57	17589.13
488.75	17294.22
488.92	17776.37
489.10	17994.04
489.28	17818.50
489.46	17951.91
489.64	17823.18
489.81	18387.25
489.99	18412.99
490.17	18228.09
490.35	18499.59
490.53	18520.66
490.70	18932.59
490.88	19026.21
491.06	18998.13
491.24	19281.33
491.41	19393.68
491.59	19297.72
491.77	19276.65
491.95	19211.12
492.13	19393.68
492.30	19782.21
492.48	20112.22
492.66	20123.93
492.84	19908.60
493.01	19967.11
493.19	20418.83
493.37	20346.28
493.54	20577.99
493.72	20589.69
493.90	20592.03
494.08	20875.24
494.25	21287.17
494.43	21390.16
494.61	21481.44
494.79	21280.15
494.96	21689.74
495.14	21647.61
495.32	22022.10
495.49	21771.66
495.67	21923.80
495.85	22363.82
496.02	21963.59
496.20	22431.69
496.38	22492.55
496.55	22745.33
496.73	22888.10
496.91	22824.90
497.09	23222.80
497.26	22977.04
497.44	23082.36
497.62	23037.89
497.79	23330.46
497.97	23311.74
498.14	23417.06
498.32	23711.97
498.50	23751.76
498.67	23716.65
498.85	24060.71
499.03	24081.77
499.20	24044.32
499.38	24112.20
499.56	24404.77
499.73	24421.15
499.91	24816.70
500.08	24699.67
500.26	24301.78
500.44	24608.39
500.61	24751.17
500.79	24912.66
500.97	24828.40
501.14	25214.59
501.32	25266.08
501.49	25294.17
501.67	25174.80
501.84	25610.14
502.02	25401.83
502.20	25549.29
502.37	26033.78
502.55	25930.80
502.72	25876.96
502.90	26160.17
503.07	25876.96
503.25	26232.72
503.43	26324.01
503.60	26017.40
503.78	26441.03
503.95	26190.59
504.13	26457.42
504.30	26614.23
504.48	26827.22
504.65	26836.58
504.83	27220.43
505.01	26874.03
505.18	26719.56
505.36	27557.47
505.53	27199.37
505.71	27356.18
505.88	27517.68
506.06	27580.87
506.23	27758.75
506.41	27501.29
506.58	27590.24
506.76	27761.09
506.93	27840.67
507.11	27630.02
507.28	27999.83
507.46	28208.14
507.63	27992.81
507.81	28072.39
507.98	27950.68
508.16	28194.09
508.33	28477.30
508.50	28519.43
508.68	28755.82
508.85	28737.10
509.03	28531.13
509.20	28856.46
509.38	29017.96
509.55	28957.11
509.73	28989.88
509.90	29308.19
510.08	29240.31
510.25	29291.80
510.42	29621.82
510.60	29385.43
510.77	29745.87
510.95	29663.95
511.12	29465.00
511.30	29685.01
511.47	30033.75
511.64	29923.75
511.82	30328.66
511.99	29706.08
512.17	30328.66
512.34	30073.54
512.51	30668.04
512.69	30574.42
512.86	30469.09
513.04	30602.50
513.21	30742.94
513.38	30775.70
513.56	30543.99
513.73	30394.20
513.90	31187.64
514.08	30780.39
514.25	31009.76
514.43	31005.08
514.60	31049.55
514.77	31152.53
514.95	31314.03
515.12	31447.44
515.29	31379.56
515.47	31828.95
515.64	31983.42
515.81	31756.39
515.99	31627.66
516.16	31641.70
516.33	31344.45
516.51	31894.48
516.68	31255.51
516.85	31634.68
517.03	31864.05
517.20	32116.83
517.37	32198.75
517.54	32268.97
517.72	32285.35
517.89	32163.64
518.06	31864.05
518.24	32060.66
518.41	32369.61
518.58	32201.09
518.75	32470.25
518.93	33057.73
519.10	32699.62
519.27	32823.67
519.45	32758.14
519.62	33144.33
519.79	33422.85
519.96	33144.33
520.14	33109.22
520.31	33081.13
520.48	33511.79
520.65	33256.67
520.83	33736.48
521.00	33645.20
521.17	33638.18
521.34	33738.82
521.52	33647.54
521.69	34164.80
521.86	34300.55
522.03	34073.52
522.20	34092.24
522.38	34469.07
522.55	34419.92
522.72	34045.43
522.89	34370.77
523.07	34579.07
523.24	34532.26
523.41	34455.03
523.58	34394.17
523.75	35047.18
523.92	34785.04
524.10	35070.59
524.27	35433.37
524.44	35311.66
524.61	35089.31
524.78	35082.29
524.96	35288.26
525.13	35449.75
525.30	35285.92
525.47	35536.35
525.64	35857.01
525.81	35658.06
525.98	35622.95
526.16	35353.79
526.33	35606.57
526.50	35887.43
526.67	35288.26
526.84	35541.03
527.01	35414.65
527.18	35857.01
527.36	35927.22
527.53	36030.21
527.70	36666.83
527.87	36610.66
528.04	36339.16
528.21	36147.23
528.38	36587.25
528.55	36926.63
528.72	36484.27
528.89	36561.51
529.07	36914.93
529.24	36086.38
529.41	36264.26
529.58	36374.27
529.75	36369.58
529.92	37092.81
530.09	36718.32
530.26	36671.51
530.43	37036.64
530.60	36797.90
530.77	36945.36
530.94	37027.28
531.11	36620.02
531.28	37029.62
531.46	37310.48
531.63	37249.63
531.80	37385.38
531.97	36945.36
532.14	37191.11
532.31	37034.30
532.48	37727.10
532.65	37427.51
532.82	37654.54
532.99	37127.92
533.16	37457.93
533.33	37497.72
533.50	38312.23
533.67	37816.04
533.84	37432.19
534.01	37567.94
534.18	37869.87
534.35	38110.94
534.52	37659.22
534.69	38511.17
534.86	37813.70
535.03	38190.52
535.20	38288.82
535.37	38733.53
535.54	38939.49
535.71	38122.65
535.88	38295.85
536.05	38188.18
536.22	38731.18
536.38	38394.15
536.55	38471.39
536.72	38785.02
536.89	38663.31
537.06	38637.56
537.23	38485.43
537.40	38398.83
537.57	38534.58
537.74	38939.49
537.91	39047.16
538.08	39061.20
538.25	38480.75
538.42	38632.88
538.59	39559.73
538.75	39070.56
538.92	39328.02
539.09	39173.55
539.26	39232.06
539.43	39459.09
539.60	38988.64
539.77	39117.37
539.94	39512.92
540.11	39264.83
540.28	39613.57
540.44	39356.11
540.61	39381.85
540.78	39454.41
540.95	39445.05
541.12	39297.59
541.29	39487.18
541.46	39871.03
541.62	39966.99
541.79	40233.81
541.96	39599.52
542.13	39412.28
542.30	39445.05
542.47	39512.92
542.63	40149.55
542.80	40196.36
542.97	40580.21
543.14	40781.49
543.31	40617.66
543.48	40322.75
543.64	40737.02
543.81	40933.63
543.98	40917.25
544.15	40533.40
544.32	41055.34
544.48	40758.09
544.65	40959.38
544.82	40631.70
544.99	40608.29
545.16	40517.01
545.32	40620.00
545.49	41277.69
545.66	41205.13
545.83	41219.17
546.00	41371.31
546.16	41003.85
546.33	40828.30
546.50	40591.91
546.67	41034.27
546.83	40355.52
547.00	41085.76
547.17	41125.55
547.34	41165.34
547.50	41308.11
547.67	41209.81
547.84	41289.39
548.00	41820.69
548.17	42021.98
548.34	41612.38
548.51	41869.84
548.67	41654.51
548.84	41743.45
549.01	41621.75
549.18	41507.06
549.34	41553.87
549.51	41432.16
549.68	41708.35
549.84	41502.38
550.01	41706.01
550.18	42003.25
550.34	41949.42
550.51	41677.92
550.68	41851.12
550.84	41785.58
551.01	42239.65
551.18	41862.82
551.34	42211.56
551.51	41790.27
551.68	42153.05
551.84	42281.78
552.01	41942.40
552.18	42419.87
552.34	42122.62
552.51	42756.91
552.68	42328.59
552.84	42969.90
553.01	42953.51
553.18	42686.69
553.34	42572.00
553.51	42328.59
553.67	42550.94
553.84	42756.91
554.01	42820.10
554.17	42581.37
554.34	43110.33
554.51	42689.03
554.67	42677.33
554.84	42604.77
555.00	42700.73
555.17	42628.18
555.33	43140.75
555.50	42754.57
555.67	42590.73
555.83	42410.51
556.00	43044.79
556.16	43133.73
556.33	42916.06
556.50	42707.76
556.66	43320.98
556.83	42775.63
556.99	43620.56
557.16	43185.22
557.32	43044.79
557.49	43117.35
557.65	42794.36
557.82	43526.94
557.98	43498.86
558.15	43468.43
558.32	43232.04
558.48	43236.72
558.65	43042.45
558.81	42981.60
558.98	43604.18
559.14	43416.94
559.31	43292.89
559.47	43239.06
559.64	43550.35
559.80	43473.11
559.97	43393.53
560.13	42955.85
560.30	43058.84
560.46	43257.78
560.63	43203.95
560.79	43828.87
560.96	43927.17
561.12	43187.56
561.29	43824.19
561.45	43360.76
561.61	43456.73
561.78	43753.97
561.94	43707.16
562.11	43515.24
562.27	43606.52
562.44	43887.39
562.60	43613.54
562.77	43501.20
562.93	43587.80
563.10	43721.21
563.26	43503.54
563.42	43971.64
563.59	43704.82
563.75	43562.05
563.92	43749.29
564.08	43693.12
564.24	44034.84
564.41	44105.06
564.57	43784.40
564.74	43826.53
564.90	43730.57
565.07	43896.75
565.23	44289.96
565.39	43772.70
565.56	44069.95
565.72	43810.15
565.88	43709.50
566.05	43636.95
566.21	43924.83
566.38	43658.01
566.54	43962.28
566.70	44151.87
566.87	44383.58
567.03	44004.41
567.19	44341.45
567.36	44051.22
567.52	43384.17
567.68	44121.44
567.85	43737.59
568.01	44133.14
568.17	44062.93
568.34	44095.69
568.50	44364.85
568.66	44076.97
568.83	44198.68
568.99	43461.41
569.15	43693.12
569.32	43782.06
569.48	43627.59
569.64	44844.66
569.81	44568.48
569.97	44116.76
570.13	44287.62
570.30	43966.96
570.46	43875.68
570.62	44142.50
570.78	43838.23
570.95	43894.41
571.11	44418.69
571.27	43739.93
571.43	44465.50
571.60	43959.94
571.76	43983.35
571.92	44231.44
572.09	44100.37
572.25	44142.50
572.41	43938.88
572.57	44608.27
572.74	44765.09
572.90	44175.27
573.06	44472.52
573.22	44231.44
573.38	44533.37
573.55	44498.26
573.71	44507.63
573.87	44594.23
574.03	43831.21
574.20	43992.71
574.36	43943.56
574.52	44479.54
574.68	44533.37
574.84	44346.13
575.01	44189.31
575.17	44250.17
575.33	43828.87
575.49	44212.72
575.65	44390.60
575.82	44336.77
575.98	44222.08
576.14	45088.08
576.30	44671.46
576.46	44802.53
576.62	44486.56
576.79	44186.97
576.95	44360.17
577.11	44404.64
577.27	44259.53
577.43	44664.44
577.59	44273.57
577.75	44306.34
577.92	44264.21
578.08	44304.00
578.24	43978.67
578.40	44395.28
578.56	44402.30
578.72	44381.24
578.88	44130.80
579.04	44409.32
579.21	44521.67
579.37	44327.41
579.53	43917.81
579.69	44203.36
579.85	44449.11
580.01	44456.14
580.17	44449.11
580.33	44776.79
580.49	44809.56
580.65	44601.25
580.82	44692.53
580.98	44177.61
581.14	44184.63
581.30	44638.70
581.46	44725.30
581.62	44542.74
581.78	44865.73
581.94	44446.77
582.10	44343.79
582.26	44839.98
582.42	44299.32
582.58	44463.16
582.74	44811.90
582.90	44493.58
583.06	44729.98
583.22	44542.74
583.38	44968.71
583.54	44706.57
583.70	44779.13
583.86	44760.40
584.02	44304.00
584.18	44718.28
584.34	44783.81
584.50	44701.89
584.66	44641.04
584.82	44570.82
584.98	44753.38
585.14	44818.92
585.30	44570.82
585.46	44931.26
585.62	44315.70
585.78	44397.62
585.94	44006.75
586.10	44502.95
586.26	44449.11
586.42	44741.68
586.58	45296.39
586.74	45015.52
586.90	44535.71
587.06	44580.18
587.22	45013.18
587.38	44587.21
587.54	44556.78
587.70	44875.09
587.86	44678.49
588.02	45067.02
588.18	44837.64
588.34	44252.51
588.49	44158.89
588.65	44516.99
588.81	44371.88
588.97	44629.34
589.13	44554.44
589.29	44601.25
589.45	44825.94
589.61	44306.34
589.77	44687.85
589.93	44842.32
590.08	44856.37
590.24	44872.75
