SpectraSuite Data File
++++++++++++++++++++++++++++++++++++
Date: Fri Oct 25 11:22:46 EDT 2013
User: price-jones
Dark Spectrum Present: No
Reference Spectrum Present: No
Number of Sampled Component Spectra: 1
Spectrometers: USB2+H05261
Integration Time (usec): 100000 (USB2+H05261)
Spectra Averaged: 1 (USB2+H05261)
Boxcar Smoothing: 0 (USB2+H05261)
Correct for Electrical Dark: No (USB2+H05261)
Strobe/Lamp Enabled: No (USB2+H05261)
Correct for Detector Non-linearity: No (USB2+H05261)
Correct for Stray Light: No (USB2+H05261)
Number of Pixels in Processed Spectrum: 2048
>>>>>Begin Processed Spectral Data<<<<<
365.73	212.99
365.92	212.99
366.12	212.99
366.32	135.75
366.52	140.43
366.72	140.43
366.91	138.09
367.11	53.83
367.31	124.05
367.51	133.41
367.70	119.37
367.90	149.79
368.10	131.07
368.30	152.13
368.49	140.43
368.69	100.64
368.89	98.30
369.09	180.22
369.28	138.09
369.48	126.39
369.68	234.05
369.87	203.63
370.07	163.84
370.27	231.71
370.47	337.04
370.66	528.96
370.86	631.94
371.06	690.46
371.25	779.40
371.45	606.20
371.65	676.41
371.84	594.50
372.04	711.52
372.24	662.37
372.44	690.46
372.63	727.91
372.83	784.08
373.03	737.27
373.22	730.25
373.42	751.31
373.62	791.10
373.81	739.61
374.01	809.83
374.21	767.70
374.40	835.57
374.60	842.59
374.79	814.51
374.99	854.30
375.19	837.91
375.38	835.57
375.58	828.55
375.78	877.70
375.97	835.57
376.17	924.51
376.37	856.64
376.56	940.90
376.76	889.40
376.95	863.66
377.15	919.83
377.35	863.66
377.54	922.17
377.74	910.47
377.93	858.98
378.13	936.21
378.33	912.81
378.52	997.07
378.72	997.07
378.91	915.15
379.11	912.81
379.31	915.15
379.50	945.58
379.70	938.55
379.89	1029.84
380.09	1027.50
380.28	1029.84
380.48	1036.86
380.68	997.07
380.87	968.98
381.07	1018.13
381.26	1011.11
381.46	1086.01
381.65	1011.11
381.85	990.05
382.04	1025.15
382.24	1055.58
382.43	992.39
382.63	1093.03
382.83	1132.82
383.02	1050.90
383.22	1050.90
383.41	1060.26
383.61	1163.25
383.80	1160.91
384.00	1008.77
384.19	1167.93
384.39	1088.35
384.58	1078.99
384.78	1081.33
384.97	1114.10
385.17	1200.69
385.36	1071.97
385.56	1172.61
385.75	1118.78
385.95	1137.50
386.14	1125.80
386.34	1163.25
386.53	1203.04
386.72	1224.10
386.92	1252.19
387.11	1254.53
387.31	1231.12
387.50	1259.21
387.70	1224.10
387.89	1233.46
388.09	1198.35
388.28	1324.74
388.48	1350.49
388.67	1226.44
388.86	1310.70
389.06	1294.32
389.25	1273.25
389.45	1359.85
389.64	1327.08
389.84	1469.86
390.03	1460.49
390.22	1474.54
390.42	1315.38
390.61	1355.17
390.81	1418.36
391.00	1423.05
391.19	1380.92
391.39	1416.02
391.58	1474.54
391.78	1427.73
391.97	1476.88
392.16	1507.30
392.36	1394.96
392.55	1439.43
392.75	1507.30
392.94	1469.86
393.13	1486.24
393.33	1502.62
393.52	1544.75
393.71	1610.29
393.91	1636.03
394.10	1556.46
394.29	1535.39
394.49	1605.61
394.68	1638.38
394.88	1666.46
395.07	1788.17
395.26	1605.61
395.46	1675.82
395.65	1666.46
395.84	1659.44
396.04	1760.08
396.23	1734.34
396.42	1724.97
396.62	1764.76
396.81	1703.91
397.00	1750.72
397.19	1783.49
397.39	1802.21
397.58	1820.94
397.77	1886.47
397.97	1898.17
398.16	1900.52
398.35	1949.67
398.55	1912.22
398.74	1851.36
398.93	2001.16
399.12	2008.18
399.32	1865.41
399.51	1956.69
399.70	1987.11
399.90	1921.58
400.09	1966.05
400.28	2029.24
400.47	1937.96
400.67	2120.53
400.86	2054.99
401.05	2148.61
401.24	2143.93
401.44	2092.44
401.63	2099.46
401.82	2186.06
402.01	2193.08
402.21	2225.85
402.40	2181.38
402.59	2162.66
402.78	2267.98
402.97	2214.15
403.17	2338.20
403.36	2207.13
403.55	2340.54
403.74	2445.86
403.93	2363.94
404.13	2399.05
404.32	2366.28
404.51	2342.88
404.70	2401.39
404.89	2389.69
405.09	2490.33
405.28	2342.88
405.47	2502.03
405.66	2487.99
405.85	2511.39
406.05	2506.71
406.24	2616.72
406.43	2525.44
406.62	2614.38
406.81	2726.72
407.00	2679.91
407.20	2513.74
407.39	2572.25
407.58	2752.47
407.77	2729.06
407.96	2658.85
408.15	2733.75
408.34	2813.32
408.54	2752.47
408.73	2895.24
408.92	2808.64
409.11	2902.26
409.30	2850.77
409.49	3007.59
409.68	2874.18
409.87	2836.73
410.07	3033.33
410.26	3023.97
410.45	2892.90
410.64	3056.74
410.83	2981.84
411.02	3096.53
411.21	3162.06
411.40	3192.49
411.59	3164.40
411.78	3164.40
411.98	3279.09
412.17	3344.63
412.36	3185.47
412.55	3265.05
412.74	3375.05
412.93	3475.70
413.12	3269.73
413.31	3623.15
413.50	3517.83
413.69	3428.88
413.88	3660.60
414.07	3597.40
414.26	3655.92
414.45	3625.49
414.64	3597.40
414.83	3719.11
415.02	3765.92
415.22	3770.60
415.41	3801.03
415.60	3789.33
415.79	3775.28
415.98	4021.04
416.17	4074.87
416.36	3962.53
416.55	4044.45
416.74	4159.13
416.93	3999.98
417.12	4140.41
417.31	4159.13
417.50	4276.16
417.69	4428.29
417.88	4227.01
418.07	4414.25
418.26	4234.03
418.45	4440.00
418.64	4594.47
418.83	4402.55
419.02	4346.37
419.21	4484.47
419.39	4688.09
419.58	4533.62
419.77	4416.59
419.96	4655.33
420.15	4650.64
420.34	4470.42
420.53	4671.71
420.72	4730.22
420.91	4669.37
421.10	4748.95
421.29	4718.52
421.48	4805.12
421.67	4870.65
421.86	4873.00
422.05	4938.53
422.24	4837.89
422.43	4688.09
422.61	4854.27
422.80	4952.57
422.99	4917.47
423.18	4840.23
423.37	5039.17
423.56	4978.32
423.75	4999.38
423.94	4849.59
424.13	4660.01
424.32	4676.39
424.50	5074.28
424.69	5156.20
424.88	5160.88
425.07	4903.42
425.26	4821.50
425.45	5151.52
425.64	4896.40
425.83	5034.49
426.01	5240.46
426.20	5055.56
426.39	5097.69
426.58	5114.07
426.77	5144.50
426.96	5198.33
427.15	5235.78
427.33	5273.23
427.52	5245.14
427.71	5334.08
427.90	5275.57
428.09	5303.65
428.28	5355.15
428.46	5343.44
428.65	5235.78
428.84	5607.92
429.03	5544.73
429.22	5441.75
429.40	5561.11
429.59	5390.25
429.78	5287.27
429.97	5352.81
430.16	5509.62
430.34	5542.39
430.53	5743.67
430.72	5600.90
430.91	5703.89
431.10	5628.99
431.28	5738.99
431.47	5858.36
431.66	5891.13
431.85	5769.42
432.03	5832.62
432.22	5919.21
432.41	6031.56
432.60	5942.62
432.79	5872.40
432.97	6029.22
433.16	6080.71
433.35	6036.24
433.54	6239.87
433.72	6326.47
433.91	6162.63
434.10	6298.38
434.28	6101.78
434.47	6193.06
434.66	6310.08
434.85	6249.23
435.03	6392.00
435.22	6417.75
435.41	6511.37
435.59	6366.26
435.78	6572.22
435.97	6420.09
436.16	6282.00
436.34	6417.75
436.53	6457.54
436.72	6806.28
436.90	6499.67
437.09	6513.71
437.28	6373.28
437.46	6551.16
437.65	6703.29
437.84	6724.36
438.02	6878.83
438.21	6932.67
438.40	6832.02
438.58	7105.87
438.77	7222.89
438.96	7019.27
439.14	7218.21
439.33	7119.91
439.52	7211.19
439.70	7206.51
439.89	7239.28
440.08	7452.27
440.26	7382.05
440.45	7283.75
440.63	7573.97
440.82	7779.94
441.01	7606.74
441.19	7808.03
441.38	7733.13
441.57	7899.31
441.75	7810.37
441.94	7995.27
442.12	7964.84
442.31	7999.95
442.50	8334.65
442.68	7737.81
442.87	8079.53
443.05	8229.32
443.24	8219.96
443.43	8299.54
443.61	8409.54
443.80	8423.59
443.98	8079.53
444.17	7805.69
444.35	8285.50
444.54	8421.25
444.73	8351.03
444.91	8311.24
445.10	8372.10
445.28	8219.96
445.47	8154.43
445.65	8461.04
445.84	8439.97
446.02	8496.14
446.21	8449.33
446.39	8294.86
446.58	8521.89
446.77	8358.05
446.95	8390.82
447.14	8603.81
447.32	8552.32
447.51	8622.53
447.69	8404.86
447.88	8507.85
448.06	8533.59
448.25	8489.12
448.43	8582.74
448.62	8692.75
448.80	8620.19
448.99	8575.72
449.17	8837.86
449.36	8643.60
449.54	8982.98
449.73	8936.17
449.91	9043.83
450.10	8966.59
450.28	9025.11
450.46	9146.81
450.65	9128.09
450.83	8938.51
451.02	9032.13
451.20	9338.74
451.39	9249.80
451.57	9242.78
451.76	9167.88
451.94	9121.07
452.13	9352.78
452.31	9387.89
452.49	9191.28
452.68	9348.10
452.86	9413.63
453.05	9558.75
453.23	9729.61
453.42	9411.29
453.60	9312.99
453.78	9460.45
453.97	9242.78
454.15	9596.20
454.34	9430.02
454.52	9762.37
454.70	9682.80
454.89	9675.77
455.07	9893.44
455.26	9858.34
455.44	10029.20
455.62	9827.91
455.81	9823.23
455.99	10040.90
456.17	10099.41
456.36	10059.62
456.54	10174.31
456.73	10553.48
456.91	10420.06
457.09	10462.19
457.28	10572.20
457.46	10476.24
457.64	10590.92
457.83	10431.77
458.01	10558.16
458.19	10775.83
458.38	10637.73
458.56	10499.64
458.74	10714.97
458.93	10583.90
459.11	10602.63
459.29	10792.21
459.48	10773.49
459.66	10717.31
459.84	11014.56
460.03	11119.89
460.21	11070.73
460.39	10988.82
460.57	11028.60
460.76	11082.44
460.94	11215.85
461.12	11433.52
461.31	11257.98
461.49	11084.78
461.67	11494.37
461.85	11473.31
462.04	11463.94
462.22	11824.39
462.40	11751.83
462.59	11712.04
462.77	11744.81
462.95	11941.41
463.13	11665.23
463.32	11845.45
463.50	11744.81
463.68	11634.80
463.86	11908.65
464.05	11772.89
464.23	11569.27
464.41	11969.50
464.59	11737.79
464.78	12182.49
464.96	12177.81
465.14	12020.99
465.32	12163.76
465.50	12259.73
465.69	12077.16
465.87	12243.34
466.05	12273.77
466.23	12262.07
466.41	12285.47
466.60	12713.79
466.78	12086.53
466.96	12322.92
467.14	12189.51
467.32	12652.94
467.51	12582.72
467.69	12351.01
467.87	12580.38
468.05	12690.38
468.23	12531.23
468.41	12587.40
468.60	12594.42
468.78	12769.96
468.96	12636.55
469.14	12793.37
469.32	13027.42
469.50	12784.01
469.69	13095.30
469.87	13167.85
470.05	13256.79
470.23	13362.12
470.41	13418.29
470.59	13298.92
470.77	13312.97
470.95	13415.95
471.14	13589.15
471.32	13254.45
471.50	13455.74
471.68	13661.71
471.86	13589.15
472.04	13703.84
472.22	13968.32
472.40	13605.53
472.58	13895.76
472.77	14183.65
472.95	14235.14
473.13	14712.61
473.31	14061.94
473.49	14204.71
473.67	14286.63
473.85	14387.27
474.03	14633.03
474.21	14602.60
474.39	14867.08
474.57	15194.76
474.75	14963.04
474.93	15082.41
475.12	15019.22
475.30	15342.21
475.48	15220.50
475.66	15332.85
475.84	15042.62
476.02	15651.16
476.20	15641.80
476.38	15765.85
476.56	16093.52
476.74	16133.31
476.92	15913.30
477.10	15971.82
477.28	16273.74
477.46	16269.06
477.64	16407.16
477.82	16538.23
478.00	16989.95
478.18	16772.28
478.36	17018.04
478.54	17322.30
478.72	17486.14
478.90	17369.12
479.08	17759.98
479.26	17907.44
479.44	17851.27
479.62	18129.79
479.80	18345.12
479.98	18228.09
480.16	18693.86
480.34	18539.38
480.52	18597.90
480.70	18679.82
480.88	18317.03
481.06	18782.80
481.24	18838.97
481.41	19337.51
481.59	19559.86
481.77	19487.30
481.95	19599.65
482.13	19922.64
482.31	19868.81
482.49	20374.36
482.67	20577.99
482.85	20704.38
483.03	20477.35
483.21	21170.15
483.39	21301.22
483.57	21027.37
483.74	21214.62
483.92	21352.71
484.10	21664.00
484.28	21600.80
484.46	22127.42
484.64	22604.89
484.82	22003.38
485.00	22462.12
485.18	22897.46
485.35	22998.10
485.53	23094.07
485.71	23360.89
485.89	23800.91
486.07	23655.79
486.25	23358.55
486.43	23957.72
486.61	24018.58
486.78	24142.63
486.96	24500.73
487.14	24561.58
487.32	24797.98
487.50	24767.55
487.68	25116.29
487.85	25596.10
488.03	25961.22
488.21	26160.17
488.39	25703.76
488.57	26024.42
488.75	26529.97
488.92	26857.65
489.10	27070.64
489.28	26955.95
489.46	27316.39
489.64	27054.25
489.81	28048.98
489.99	27997.49
490.17	27988.13
490.35	28465.60
490.53	28404.74
490.70	28575.60
490.88	28507.72
491.06	28922.00
491.24	28835.40
491.41	29408.83
491.59	29535.22
491.77	29553.94
491.95	29759.91
492.13	29509.47
492.30	29921.41
492.48	30590.80
492.66	30412.92
492.84	30448.03
493.01	30581.44
493.19	30855.28
493.37	31042.53
493.54	31136.15
493.72	31648.72
493.90	31541.06
494.08	32346.20
494.25	32350.88
494.43	32292.37
494.61	32708.99
494.79	32301.73
494.96	32786.22
495.14	33001.55
495.32	33352.63
495.49	33425.19
495.67	33584.35
495.85	34132.03
496.02	33820.74
496.20	34494.82
496.38	34569.71
496.55	34223.31
496.73	35063.57
496.91	34946.54
497.09	35459.12
497.26	35538.69
497.44	35452.09
497.62	35260.17
497.79	35992.76
497.97	35913.18
498.14	36636.41
498.32	36435.12
498.50	36325.11
498.67	36704.28
498.85	36505.34
499.03	37062.38
499.20	37003.87
499.38	37500.06
499.56	37483.68
499.73	37184.09
499.91	37558.58
500.08	37750.50
500.26	37872.21
500.44	37874.55
500.61	38005.62
500.79	38192.86
500.97	38312.23
501.14	38445.64
501.32	38747.57
501.49	39089.29
501.67	39133.76
501.84	39115.03
502.02	38747.57
502.20	39264.83
502.37	39515.26
502.55	39917.84
502.72	39833.58
502.90	39988.05
503.07	39889.75
503.25	40158.91
503.43	40247.85
503.60	40409.35
503.78	40280.62
503.95	40514.67
504.13	40332.11
504.30	40961.72
504.48	40821.28
504.65	41097.47
504.83	41263.64
505.01	41418.12
505.18	41329.18
505.36	41832.39
505.53	41378.33
505.71	41567.91
505.88	42014.96
506.06	41928.36
506.23	42480.72
506.41	41832.39
506.58	42171.77
506.76	42691.37
506.93	42768.61
507.11	42740.52
507.28	42752.23
507.46	42759.25
507.63	42808.40
507.81	43611.20
507.98	43189.91
508.16	43632.27
508.33	43650.99
508.50	43381.83
508.68	43784.40
508.85	44086.33
509.03	44060.58
509.20	44294.64
509.38	44516.99
509.55	44699.55
509.73	44463.16
509.90	45013.18
510.08	45045.95
510.25	44783.81
510.42	45010.84
510.60	45560.87
510.77	45261.28
510.95	45738.75
511.12	45120.85
511.30	45713.00
511.47	46148.34
511.64	45544.48
511.82	46012.59
511.99	45904.93
512.17	46153.02
512.34	46155.36
512.51	46759.22
512.69	46665.60
512.86	46478.36
513.04	46925.40
513.21	46859.87
513.38	47150.09
513.56	47056.47
513.73	47028.38
513.90	47255.42
514.08	46990.94
514.25	47817.14
514.43	47461.38
514.60	47962.26
514.77	47688.42
514.95	47955.24
515.12	47859.27
515.29	47775.02
515.47	48179.93
515.64	48025.45
515.81	48062.90
515.99	48381.21
516.16	48673.78
516.33	48889.11
516.51	48758.04
516.68	48854.00
516.85	48411.64
517.03	48924.22
517.20	49010.82
517.37	49230.83
517.54	49172.31
517.72	49532.76
517.89	49226.15
518.06	49490.63
518.24	49705.96
518.41	49464.88
518.58	49844.05
518.75	49294.02
518.93	49638.08
519.10	49820.64
519.27	50197.47
519.45	49830.01
519.62	50403.44
519.79	50244.28
519.96	50199.81
520.14	50377.69
520.31	50272.37
520.48	50454.93
520.65	50796.65
520.83	50714.73
521.00	50820.05
521.17	51110.28
521.34	50852.82
521.52	50880.91
521.69	51262.41
521.86	51206.24
522.03	51323.27
522.20	51655.62
522.38	51536.26
522.55	51550.30
522.72	51793.71
522.89	51798.40
523.07	51807.76
523.24	51599.45
523.41	51896.70
523.58	51559.66
523.75	51803.08
523.92	52105.01
524.10	51784.35
524.27	52247.78
524.44	52406.94
524.61	52018.41
524.78	52383.53
524.96	52568.43
525.13	52315.65
525.30	52598.86
525.47	52584.82
525.64	52664.39
525.81	52739.29
525.98	52755.68
526.16	52811.85
526.33	52999.09
526.50	53240.17
526.67	52858.66
526.84	52989.73
527.01	53324.43
527.18	53195.70
527.36	53265.91
527.53	53125.48
527.70	53528.05
527.87	53441.45
528.04	53305.70
528.21	53668.48
528.38	53563.16
528.55	53684.87
528.72	53310.38
528.89	53588.91
529.07	53485.92
529.24	53822.96
529.41	53783.17
529.58	54014.88
529.75	53832.32
529.92	53928.28
530.09	53881.47
530.26	54525.12
530.43	54197.44
530.60	53982.12
530.77	54092.12
530.94	54251.28
531.11	54150.63
531.28	54248.94
531.46	54305.11
531.63	54277.02
531.80	54513.42
531.97	54719.38
532.14	54892.58
532.31	54609.38
532.48	54752.15
532.65	54695.98
532.82	54508.74
532.99	54782.58
533.16	54698.32
533.33	54967.48
533.50	55068.12
533.67	55096.21
533.84	54831.73
534.01	55110.25
534.18	54967.48
534.35	55384.10
534.52	55255.37
534.69	55327.92
534.86	55526.87
535.03	55393.46
535.20	55222.60
535.37	55622.83
535.54	55597.09
535.71	55278.77
535.88	55728.16
536.05	55662.62
536.22	55592.40
536.38	55992.64
536.55	56037.11
536.72	55777.31
536.89	55810.07
537.06	55863.91
537.23	55929.44
537.40	55693.05
537.57	55983.27
537.74	55955.19
537.91	56121.37
538.08	56037.11
538.25	55774.97
538.42	56123.71
538.59	56406.91
538.75	55938.80
538.92	56308.61
539.09	56196.26
539.26	56357.76
539.43	56224.35
539.60	56442.02
539.77	56521.60
539.94	56453.72
540.11	56479.47
540.28	56516.92
540.44	56781.40
540.61	56711.18
540.78	56704.16
540.95	56530.96
541.12	56556.70
541.29	56563.73
541.46	56814.16
541.62	56757.99
541.79	57008.43
541.96	56449.04
542.13	56853.95
542.30	56783.74
542.47	57066.94
542.63	56910.13
542.80	57247.16
542.97	57291.63
543.14	57279.93
543.31	57324.40
543.48	57382.91
543.64	57574.84
543.81	57619.31
543.98	57464.83
544.15	57497.60
544.32	57673.14
544.48	57780.81
544.65	57647.39
544.82	57523.35
544.99	57645.05
545.16	57687.18
545.32	57574.84
545.49	57759.74
545.66	57853.36
545.83	57733.99
546.00	57703.57
546.16	57841.66
546.33	57621.65
546.50	57689.52
546.67	57808.89
546.83	57715.27
547.00	57895.49
547.17	57930.60
547.34	57848.68
547.50	58028.90
547.67	58401.05
547.84	58143.59
548.00	58337.85
548.17	58251.25
548.34	58246.57
548.51	58314.45
548.67	58396.37
548.84	58269.98
549.01	58265.30
549.18	58361.26
549.34	58492.33
549.51	58225.51
549.68	58426.79
549.84	58550.84
550.01	58770.85
550.18	58412.75
550.34	58649.14
550.51	58494.67
550.68	58623.40
550.84	58176.36
551.01	58787.24
551.18	58684.25
551.34	58728.72
551.51	58670.21
551.68	58752.13
551.84	58581.27
552.01	58599.99
552.18	59152.36
552.34	58827.02
552.51	58937.03
552.68	58834.05
552.84	58990.86
553.01	59143.00
553.18	58969.80
553.34	59227.26
553.51	59000.22
553.67	58960.44
553.84	58948.73
554.01	59100.87
554.17	59318.54
554.34	59187.47
554.51	59140.66
554.67	59173.42
554.84	59147.68
555.00	59178.10
555.17	59035.33
555.33	59096.19
555.50	59166.40
555.67	58965.12
555.83	59208.53
556.00	59337.26
556.16	59662.60
556.33	59531.53
556.50	59573.66
556.66	59533.87
556.83	59367.69
556.99	59477.69
557.16	59639.19
557.32	59805.37
557.49	59564.29
557.65	59648.55
557.82	59697.70
557.98	59564.29
558.15	59377.05
558.32	59421.52
558.48	59613.44
558.65	59400.46
558.81	59671.96
558.98	59772.60
559.14	59732.81
559.31	59873.24
559.47	60034.74
559.64	59842.82
559.80	59824.09
559.97	59812.39
560.13	59653.23
560.30	59735.15
560.46	60004.31
560.63	59943.46
560.79	59847.50
560.96	60116.66
561.12	60144.75
561.29	60200.92
561.45	59870.90
561.61	59959.84
561.78	60048.78
561.94	60046.44
562.11	60051.12
562.27	60119.00
562.44	60151.77
562.60	60137.72
562.77	60264.11
562.93	59870.90
563.10	60331.99
563.26	59898.99
563.42	60306.24
563.59	60189.22
563.75	60076.87
563.92	60079.21
564.08	60004.31
564.24	60348.37
564.41	60076.87
564.57	60264.11
564.74	60355.39
564.90	60296.88
565.07	60259.43
565.23	60374.12
565.39	60395.18
565.56	60301.56
565.72	60315.61
565.88	60420.93
566.05	60498.17
566.21	60315.61
566.38	60498.17
566.54	60374.12
566.70	60519.23
566.87	60544.98
567.03	60399.86
567.19	60523.91
567.36	60406.89
567.52	60502.85
567.68	60664.35
567.85	60500.51
568.01	60523.91
568.17	60505.19
568.34	60575.40
568.50	60582.43
568.66	60317.95
568.83	60343.69
568.99	60509.87
569.15	60481.78
569.32	60622.22
569.48	60530.93
569.64	60736.90
569.81	60561.36
569.97	60544.98
570.13	60418.59
570.30	60437.31
570.46	60790.73
570.62	60683.07
570.78	60685.41
570.95	60640.94
571.11	60849.25
571.27	60720.52
571.43	60556.68
571.60	61052.87
571.76	60734.56
571.92	60776.69
572.09	60917.12
572.25	60797.76
572.41	60615.19
572.57	60743.92
572.74	60835.20
572.90	61008.40
573.06	60954.57
573.22	60818.82
573.38	60938.19
573.55	60645.62
573.71	60954.57
573.87	60687.75
574.03	60676.05
574.20	60940.53
574.36	60652.64
574.52	60907.76
574.68	60898.40
574.84	61167.56
575.01	60893.72
575.17	60830.52
575.33	60715.84
575.49	60767.33
575.65	60975.64
575.82	60949.89
575.98	61109.05
576.14	61062.24
576.30	60928.83
576.46	61158.20
576.62	60928.83
576.79	60956.91
576.95	60877.33
577.11	61015.43
577.27	60790.73
577.43	60807.12
577.59	61076.28
577.75	60713.50
577.92	60900.74
578.08	60942.87
578.24	61036.49
578.40	61013.08
578.56	61193.31
578.72	60879.67
578.88	61244.80
579.04	61286.93
579.21	61230.75
579.37	61087.98
579.53	61167.56
579.69	60966.27
579.85	61176.92
580.01	61001.38
580.17	60865.63
580.33	61090.32
580.49	61118.41
580.65	61057.56
580.82	60844.57
580.98	60985.00
581.14	60825.84
581.30	61043.51
581.46	61125.43
581.62	61024.79
581.78	61027.13
581.94	61162.88
582.10	60977.98
582.26	61015.43
582.42	60961.59
582.58	61137.13
582.74	60914.78
582.90	60989.68
583.06	61359.48
583.22	61137.13
583.38	61127.77
583.54	61087.98
583.70	60989.68
583.86	60989.68
584.02	60851.59
584.18	61062.24
584.34	61251.82
584.50	61132.45
584.66	61162.88
584.82	60905.42
584.98	61240.12
585.14	61212.03
585.30	61062.24
585.46	61221.39
585.62	61027.13
585.78	61300.97
585.94	61041.17
586.10	61125.43
586.26	61146.50
586.42	61174.58
586.58	61256.50
586.74	61244.80
586.90	61265.86
587.06	61221.39
587.22	61572.47
587.38	61137.13
587.54	61387.57
587.70	61448.42
587.86	61263.52
588.02	61146.50
588.18	61607.58
588.34	61303.31
588.49	61277.57
