SpectraSuite Data File
++++++++++++++++++++++++++++++++++++
Date: Fri Oct 25 11:23:31 EDT 2013
User: price-jones
Dark Spectrum Present: No
Reference Spectrum Present: No
Number of Sampled Component Spectra: 1
Spectrometers: USB2+H05261
Integration Time (usec): 100000 (USB2+H05261)
Spectra Averaged: 1 (USB2+H05261)
Boxcar Smoothing: 0 (USB2+H05261)
Correct for Electrical Dark: No (USB2+H05261)
Strobe/Lamp Enabled: No (USB2+H05261)
Correct for Detector Non-linearity: No (USB2+H05261)
Correct for Stray Light: No (USB2+H05261)
Number of Pixels in Processed Spectrum: 2048
>>>>>Begin Processed Spectral Data<<<<<
365.73	245.76
365.92	245.76
366.12	245.76
366.32	224.69
366.52	133.41
366.72	212.99
366.91	117.03
367.11	72.56
367.31	152.13
367.51	98.30
367.70	133.41
367.90	170.86
368.10	133.41
368.30	117.03
368.49	168.52
368.69	149.79
368.89	152.13
369.09	152.13
369.28	161.50
369.48	187.24
369.68	184.90
369.87	131.07
370.07	159.16
370.27	191.92
370.47	255.12
370.66	641.31
370.86	716.20
371.06	608.54
371.25	723.23
371.45	627.26
371.65	653.01
371.84	596.84
372.04	697.48
372.24	587.47
372.44	725.57
372.63	699.82
372.83	716.20
373.03	793.44
373.22	823.87
373.42	795.78
373.62	744.29
373.81	758.33
374.01	767.70
374.21	727.91
374.40	751.31
374.60	753.65
374.79	823.87
374.99	826.21
375.19	842.59
375.38	830.89
375.58	858.98
375.78	863.66
375.97	849.61
376.17	908.13
376.37	933.87
376.56	819.19
376.76	882.38
376.95	887.06
377.15	910.47
377.35	887.06
377.54	924.51
377.74	809.83
377.93	919.83
378.13	912.81
378.33	1011.11
378.52	908.13
378.72	971.32
378.91	931.53
379.11	933.87
379.31	889.40
379.50	954.94
379.70	940.90
379.89	957.28
380.09	987.71
380.28	997.07
380.48	950.26
380.68	973.66
380.87	952.60
381.07	1034.52
381.26	1036.86
381.46	957.28
381.65	1093.03
381.85	1057.92
382.04	1081.33
382.24	1050.90
382.43	1121.12
382.63	1062.60
382.83	1015.79
383.02	1078.99
383.22	1100.05
383.41	1097.71
383.61	1174.95
383.80	1139.84
384.00	1156.22
384.19	1090.69
384.39	1109.41
384.58	1125.80
384.78	1156.22
384.97	1114.10
385.17	1156.22
385.36	1210.06
385.56	1095.37
385.75	1224.10
385.95	1287.29
386.14	1179.63
386.34	1273.25
386.53	1252.19
386.72	1188.99
386.92	1231.12
387.11	1270.91
387.31	1205.38
387.50	1259.21
387.70	1104.73
387.89	1240.48
388.09	1336.45
388.28	1320.06
388.48	1383.26
388.67	1240.48
388.86	1315.38
389.06	1252.19
389.25	1334.11
389.45	1371.55
389.64	1294.32
389.84	1331.76
390.03	1420.71
390.22	1369.21
390.42	1376.24
390.61	1369.21
390.81	1334.11
391.00	1313.04
391.19	1458.15
391.39	1521.35
391.58	1535.39
391.78	1444.11
391.97	1413.68
392.16	1364.53
392.36	1537.73
392.55	1458.15
392.75	1558.80
392.94	1481.56
393.13	1511.99
393.33	1528.37
393.52	1497.94
393.71	1624.33
393.91	1666.46
394.10	1584.54
394.29	1483.90
394.49	1654.76
394.68	1584.54
394.88	1657.10
395.07	1640.72
395.26	1717.95
395.46	1668.80
395.65	1760.08
395.84	1757.74
396.04	1813.92
396.23	1706.25
396.42	1636.03
396.62	1851.36
396.81	1783.49
397.00	1753.06
397.19	1722.63
397.39	1802.21
397.58	1888.81
397.77	1851.36
397.97	2005.84
398.16	1846.68
398.35	1816.26
398.55	1813.92
398.74	1989.46
398.93	1884.13
399.12	1923.92
399.32	1858.39
399.51	1905.20
399.70	2076.06
399.90	1902.86
400.09	2045.63
400.28	2019.88
400.47	2040.95
400.67	2125.21
400.86	2078.40
401.05	2062.01
401.24	2157.97
401.44	2150.95
401.63	2190.74
401.82	2197.76
402.01	2225.85
402.21	2134.57
402.40	2134.57
402.59	2169.68
402.78	2115.84
402.97	2331.17
403.17	2263.30
403.36	2214.15
403.55	2244.57
403.74	2359.26
403.93	2471.61
404.13	2389.69
404.32	2436.50
404.51	2333.51
404.70	2476.29
404.89	2469.27
405.09	2466.92
405.28	2495.01
405.47	2443.52
405.66	2513.74
405.85	2434.16
406.05	2490.33
406.24	2459.90
406.43	2523.10
406.62	2607.36
406.81	2626.08
407.00	2679.91
407.20	2593.31
407.39	2621.40
407.58	2750.13
407.77	2850.77
407.96	2789.92
408.15	2679.91
408.34	2696.30
408.54	2843.75
408.73	2785.24
408.92	2864.82
409.11	2909.29
409.30	2857.79
409.49	2899.92
409.68	2935.03
409.87	2951.42
410.07	2960.78
410.26	3187.81
410.45	3007.59
410.64	3052.06
410.83	3042.70
411.02	3070.78
411.21	3220.58
411.40	3035.67
411.59	3131.64
411.78	3241.64
411.98	3314.20
412.17	3279.09
412.36	3276.75
412.55	3316.54
412.74	3377.39
412.93	3435.91
413.12	3304.84
413.31	3625.49
413.50	3440.59
413.69	3414.84
413.88	3611.45
414.07	3747.20
414.26	3644.21
414.45	3691.02
414.64	3672.30
414.83	3749.54
415.02	3723.79
415.22	3758.90
415.41	3950.82
415.60	3906.35
415.79	3812.73
415.98	3988.27
416.17	3850.18
416.36	3948.48
416.55	4149.77
416.74	4086.58
416.93	4124.02
417.12	4168.49
417.31	4077.21
417.50	4149.77
417.69	4266.80
417.88	4283.18
418.07	4404.89
418.26	4327.65
418.45	4327.65
418.64	4561.70
418.83	4470.42
419.02	4348.72
419.21	4458.72
419.39	4557.02
419.58	4395.53
419.77	4507.87
419.96	4559.36
420.15	4559.36
420.34	4585.11
420.53	4676.39
420.72	4620.22
420.91	4727.88
421.10	4758.31
421.29	4884.70
421.48	4631.92
421.67	4615.54
421.86	4770.01
422.05	4821.50
422.24	4791.08
422.43	4828.53
422.61	4788.74
422.80	5006.41
422.99	4912.78
423.18	4896.40
423.37	4940.87
423.56	4868.31
423.75	4994.70
423.94	4868.31
424.13	4566.39
424.32	4863.63
424.50	4959.60
424.69	5074.28
424.88	5097.69
425.07	4994.70
425.26	5008.75
425.45	4882.36
425.64	5013.43
425.83	5041.51
426.01	5074.28
426.20	5060.24
426.39	5069.60
426.58	5069.60
426.77	5114.07
426.96	4997.04
427.15	5102.37
427.33	5177.26
427.52	5153.86
427.71	5275.57
427.90	5284.93
428.09	5310.68
428.28	5378.55
428.46	5392.59
428.65	5224.08
428.84	5446.43
429.03	5460.47
429.22	5324.72
429.40	5554.09
429.59	5408.98
429.78	5308.34
429.97	5455.79
430.16	5394.93
430.34	5481.53
430.53	5643.03
430.72	5678.14
430.91	5589.20
431.10	5593.88
431.28	5839.64
431.47	5956.66
431.66	5715.59
431.85	5834.96
432.03	5881.77
432.22	6061.99
432.41	5902.83
432.60	5991.77
432.79	6024.54
432.97	5991.77
433.16	5956.66
433.35	6071.35
433.54	6200.08
433.72	6146.25
433.91	6127.52
434.10	6228.17
434.28	6094.76
434.47	6186.04
434.66	6413.07
434.85	6436.47
435.03	6342.85
435.22	6384.98
435.41	6544.14
435.59	6438.81
435.78	6700.95
435.97	6637.76
436.16	6518.39
436.34	6497.33
436.53	6513.71
436.72	6686.91
436.90	6396.68
437.09	6733.72
437.28	6497.33
437.46	6590.95
437.65	6731.38
437.84	6850.75
438.02	6829.68
438.21	6846.07
438.40	6691.59
438.58	6876.49
438.77	7021.61
438.96	7143.32
439.14	7318.86
439.33	7302.47
439.52	7253.32
439.70	7180.76
439.89	7501.42
440.08	7328.22
440.26	7309.49
440.45	7279.07
440.63	7588.02
440.82	7662.91
441.01	7667.60
441.19	7658.23
441.38	7658.23
441.57	7899.31
441.75	7939.10
441.94	7934.42
442.12	7918.03
442.31	8121.66
442.50	8250.39
442.68	8226.98
442.87	7976.55
443.05	8245.71
443.24	8304.22
443.43	8184.85
443.61	8168.47
443.80	8402.52
443.98	8042.08
444.17	7992.93
444.35	8243.37
444.54	8423.59
444.73	8290.18
444.91	8341.67
445.10	8374.44
445.28	8393.16
445.47	8315.92
445.65	8528.91
445.84	8730.20
446.02	8468.06
446.21	8482.10
446.39	8397.84
446.58	8372.10
446.77	8404.86
446.95	8297.20
447.14	8425.93
447.32	8547.64
447.51	8416.57
447.69	8547.64
447.88	8571.04
448.06	8517.21
448.25	8732.54
448.43	8622.53
448.62	8615.51
448.80	8634.24
448.99	8638.92
449.17	8879.99
449.36	8777.01
449.54	8645.94
449.73	8954.89
449.91	8933.82
450.10	9013.40
450.28	9210.01
450.46	9135.11
450.65	8987.66
450.83	9092.98
451.02	9006.38
451.20	9198.31
451.39	9163.20
451.57	9041.49
451.76	8999.36
451.94	9352.78
452.13	9385.55
452.31	9427.68
452.49	9345.76
452.68	9600.88
452.86	9275.54
453.05	9411.29
453.23	9748.33
453.42	9355.12
453.60	9439.38
453.78	9401.93
453.97	9277.88
454.15	9446.40
454.34	9572.79
454.52	9666.41
454.70	9626.62
454.89	9825.57
455.07	9827.91
455.26	9804.50
455.44	9998.77
455.62	10078.35
455.81	10052.60
455.99	10087.71
456.17	9998.77
456.36	9872.38
456.54	10260.91
456.73	10406.02
456.91	10729.02
457.09	10270.27
457.28	10626.03
457.46	10483.26
457.64	10633.05
457.83	10614.33
458.01	10448.15
458.19	10867.11
458.38	10494.96
458.56	10803.91
458.74	10750.08
458.93	10895.19
459.11	10827.32
459.29	10705.61
459.48	10930.30
459.66	10736.04
459.84	10932.64
460.03	11197.12
460.21	10883.49
460.39	10930.30
460.57	10960.73
460.76	11311.81
460.94	11290.74
461.12	11269.68
461.31	11140.95
461.49	11075.42
461.67	11276.70
461.85	11641.82
462.04	11344.58
462.22	12072.48
462.40	11616.08
462.59	11557.57
462.77	11587.99
462.95	11613.74
463.13	11864.18
463.32	11957.80
463.50	11852.47
463.68	11826.73
463.86	11922.69
464.05	11843.11
464.23	11815.02
464.41	11798.64
464.59	11829.07
464.78	12156.74
464.96	11854.81
465.14	11920.35
465.32	12138.02
465.50	12145.04
465.69	12163.76
465.87	12053.76
466.05	12123.98
466.23	12243.34
466.41	12341.64
466.60	12486.76
466.78	12297.17
466.96	12276.11
467.14	12058.44
467.32	12400.16
467.51	12514.84
467.69	12198.87
467.87	12505.48
468.05	12414.20
468.23	12531.23
468.41	12402.50
468.60	12779.32
468.78	12758.26
468.96	12936.14
469.14	12629.53
469.32	12982.95
469.50	12741.88
469.69	13228.71
469.87	13207.64
470.05	13036.78
470.23	13046.15
470.41	13177.22
470.59	13387.86
470.77	13378.50
470.95	13109.34
471.14	13366.80
471.32	13142.11
471.50	13483.83
471.68	13654.69
471.86	13799.80
472.04	13549.36
472.22	13994.06
472.40	13687.45
472.58	13853.63
472.77	14211.73
472.95	14185.99
473.13	14621.33
473.31	14153.22
473.49	14228.12
473.67	14108.75
473.85	14485.58
474.03	14871.76
474.21	14707.93
474.39	14874.10
474.57	14693.88
474.75	14941.98
474.93	15133.90
475.12	14768.78
475.30	15161.99
475.48	15059.01
475.66	15243.91
475.84	15267.31
476.02	15374.98
476.20	15499.03
476.38	15702.65
476.56	16306.51
476.74	16027.99
476.92	16217.57
477.10	15747.12
477.28	16259.70
477.46	16166.08
477.64	16748.87
477.82	16819.09
478.00	17181.87
478.18	16908.03
478.36	17153.79
478.54	17387.84
478.72	17205.28
478.90	17507.21
479.08	17607.85
479.26	17731.90
479.44	17633.60
479.62	18141.49
479.80	18171.92
479.98	18328.74
480.16	18960.68
480.34	18253.84
480.52	18670.45
480.70	18740.67
480.88	18670.45
481.06	18991.11
481.24	19012.17
481.41	18913.87
481.59	19248.57
481.77	19683.91
481.95	19510.71
482.13	20128.61
482.31	19620.71
482.49	20367.34
482.67	20402.45
482.85	20545.22
483.03	20575.65
483.21	20884.60
483.39	20954.82
483.57	20699.70
483.74	21294.19
483.92	21811.45
484.10	21504.84
484.28	21701.45
484.46	22026.78
484.64	22438.72
484.82	22026.78
485.00	22333.39
485.18	22565.10
485.35	23262.58
485.53	22974.70
485.71	23110.45
485.89	23747.08
486.07	23782.18
486.25	23342.16
486.43	23758.78
486.61	23955.38
486.78	24449.24
486.96	24332.21
487.14	24533.50
487.32	24753.51
487.50	25221.61
487.68	25301.19
487.85	25242.68
488.03	25472.05
488.21	25975.27
488.39	26078.25
488.57	26384.86
488.75	26335.71
488.92	26625.93
489.10	26682.11
489.28	26813.18
489.46	27112.77
489.64	26859.99
489.81	27592.58
489.99	27641.73
490.17	27936.63
490.35	28655.18
490.53	28341.55
490.70	28697.31
490.88	28191.75
491.06	28929.02
491.24	29013.28
491.41	29542.24
491.59	29345.64
491.77	29486.07
491.95	29802.04
492.13	29860.55
492.30	30134.40
492.48	30197.59
492.66	30403.56
492.84	30583.78
493.01	30621.23
493.19	30759.32
493.37	31391.26
493.54	30969.97
493.72	31887.46
493.90	31899.16
494.08	31880.44
494.25	32369.61
494.43	32067.68
494.61	32350.88
494.79	32767.50
494.96	32858.78
495.14	33090.49
495.32	33123.26
495.49	33237.95
495.67	33652.22
495.85	33427.53
496.02	34040.75
496.20	34628.23
496.38	34518.22
496.55	34239.70
496.73	35124.42
496.91	34740.57
497.09	35232.08
497.26	35189.95
497.44	35510.61
497.62	35393.58
497.79	35611.25
497.97	35566.78
498.14	35906.16
498.32	36498.31
498.50	36203.41
498.67	36828.33
498.85	36601.30
499.03	37116.22
499.20	36907.91
499.38	37132.60
499.56	37322.18
499.73	37368.99
499.91	37687.31
500.08	37874.55
500.26	37827.74
500.44	37794.97
500.61	37848.80
500.79	38209.25
500.97	38237.33
501.14	38298.19
501.32	38843.53
501.49	39086.95
501.67	38759.27
501.84	39063.54
502.02	39337.38
502.20	39592.50
502.37	39227.38
502.55	39763.36
502.72	39658.04
502.90	39995.07
503.07	39861.66
503.25	40208.06
503.43	39777.40
503.60	40149.55
503.78	40219.77
503.95	40215.08
504.13	40804.90
504.30	40561.48
504.48	40821.28
504.65	40823.62
504.83	40879.80
505.01	41383.01
505.18	41553.87
505.36	42052.41
505.53	41385.35
505.71	41926.02
505.88	42220.92
506.06	41399.40
506.23	42155.39
506.41	42150.71
506.58	42267.73
506.76	42305.18
506.93	42897.34
507.11	42560.30
507.28	43021.39
507.46	42883.30
507.63	43346.72
507.81	43629.93
507.98	42890.32
508.16	43533.96
508.33	43791.42
508.50	43966.96
508.68	43807.81
508.85	44013.77
509.03	44137.82
509.20	44399.96
509.38	44748.70
509.55	44830.62
509.73	44617.63
509.90	44514.65
510.08	44655.08
510.25	44907.86
510.42	44828.28
510.60	45177.02
510.77	45207.45
510.95	45184.04
511.12	44891.48
511.30	45268.30
511.47	45729.39
511.64	45567.89
511.82	46363.67
511.99	45773.86
512.17	46183.45
512.34	45865.14
512.51	46178.77
512.69	46616.45
512.86	46607.09
513.04	47079.88
513.21	46972.21
513.38	46780.29
513.56	47402.87
513.73	47112.64
513.90	47089.24
514.08	47480.11
514.25	47435.64
514.43	47496.49
514.60	47583.09
514.77	47608.84
514.95	47531.60
515.12	47697.78
515.29	47318.61
515.47	48013.75
515.64	48264.19
515.81	47887.36
515.99	48299.30
516.16	48690.16
516.33	48292.27
516.51	48676.12
516.68	48685.48
516.85	48683.14
517.03	48718.25
517.20	49064.65
517.37	49308.07
517.54	49230.83
517.72	49038.90
517.89	49111.46
518.06	49488.29
518.24	49013.16
518.41	49340.83
518.58	49584.25
518.75	49532.76
518.93	49539.78
519.10	49694.25
519.27	49858.09
519.45	49752.77
519.62	50003.20
519.79	49947.03
519.96	49916.61
520.14	50234.92
520.31	50286.41
520.48	50637.49
520.65	50401.10
520.83	50880.91
521.00	51000.27
521.17	50553.23
521.34	51133.68
521.52	50791.97
521.69	51269.43
521.86	50918.35
522.03	51255.39
522.20	51437.95
522.38	51449.66
522.55	51529.23
522.72	51489.45
522.89	51590.09
523.07	51409.87
523.24	51798.40
523.41	51735.20
523.58	51557.32
523.75	51966.91
523.92	51896.70
524.10	52198.63
524.27	52587.16
524.44	52067.56
524.61	52254.80
524.78	52275.87
524.96	52484.17
525.13	52484.17
525.30	52615.24
525.47	52556.73
525.64	52458.43
525.81	52839.93
525.98	53069.31
526.16	52956.96
526.33	52701.84
526.50	53127.82
526.67	53099.73
526.84	53036.54
527.01	52835.25
527.18	53064.63
527.36	53265.91
527.53	53172.29
527.70	53464.86
527.87	53677.85
528.04	53289.32
528.21	53689.55
528.38	53296.34
528.55	53677.85
528.72	53153.57
528.89	53570.18
529.07	53605.29
529.24	53860.41
529.41	53750.40
529.58	53869.77
529.75	53841.68
529.92	54026.59
530.09	54031.27
530.26	54185.74
530.43	53991.48
530.60	54003.18
530.77	54241.92
530.94	54380.01
531.11	54248.94
531.28	54169.36
531.46	54305.11
531.63	54527.46
531.80	54417.46
531.97	54497.03
532.14	54728.75
532.31	54536.82
532.48	54691.30
532.65	54719.38
532.82	54574.27
532.99	54700.66
533.16	54742.79
533.33	54794.28
533.50	55185.15
533.67	54993.23
533.84	54911.31
534.01	55337.29
534.18	55166.43
534.35	55370.05
534.52	55121.96
534.69	55473.04
534.86	55386.44
535.03	55154.72
535.20	55168.77
535.37	55557.30
535.54	55540.91
535.71	55604.11
535.88	55667.30
536.05	55847.52
536.22	55875.61
536.38	55810.07
536.55	55854.54
536.72	55756.24
536.89	55634.53
537.06	55917.74
537.23	55997.32
537.40	55725.81
537.57	55856.88
537.74	55833.48
537.91	56271.16
538.08	56032.42
538.25	56020.72
538.42	56144.77
538.59	56315.63
538.75	55875.61
538.92	56222.01
539.09	56306.27
539.26	56069.87
539.43	56247.75
539.60	56530.96
539.77	56460.74
539.94	56425.64
540.11	56320.31
540.28	56640.96
540.44	56530.96
540.61	56573.09
540.78	56491.17
540.95	56495.85
541.12	56369.46
541.29	56514.58
541.46	56533.30
541.62	56699.48
541.79	56790.76
541.96	56271.16
542.13	56755.65
542.30	56947.57
542.47	56975.66
542.63	57045.88
542.80	57003.75
542.97	57415.68
543.14	57422.70
543.31	57268.23
543.48	57408.66
543.64	57726.97
543.81	57577.18
543.98	57675.48
544.15	57301.00
544.32	57387.60
544.48	57670.80
544.65	57293.97
544.82	57546.75
544.99	57488.24
545.16	57530.37
545.32	57502.28
545.49	57731.65
545.66	58092.10
545.83	57741.02
546.00	57963.37
546.16	57965.71
546.33	57715.27
546.50	57467.17
546.67	57801.87
546.83	57499.94
547.00	57939.96
547.17	57851.02
547.34	57874.43
547.50	58064.01
547.67	58246.57
547.84	58181.04
548.00	58106.14
548.17	58340.19
548.34	58206.78
548.51	58262.96
548.67	58452.54
548.84	58213.80
549.01	58178.70
549.18	58445.52
549.34	58321.47
549.51	58370.62
549.68	58656.17
549.84	58508.71
550.01	58592.97
550.18	58471.26
550.34	58473.60
550.51	58777.87
550.68	58485.31
550.84	58302.74
551.01	58754.47
551.18	58782.55
551.34	58794.26
551.51	58693.61
551.68	58805.96
551.84	58557.86
552.01	58630.42
552.18	58815.32
552.34	58602.33
552.51	58979.16
552.68	58614.04
552.84	59093.85
553.01	58918.31
553.18	58848.09
553.34	58993.20
553.51	58803.62
553.67	58962.78
553.84	59079.80
554.01	59040.01
554.17	59107.89
554.34	59206.19
554.51	59086.82
554.67	59194.49
554.84	59100.87
555.00	58930.01
555.17	59100.87
555.33	59222.58
555.50	58939.37
555.67	59124.27
555.83	59297.47
556.00	59138.32
556.16	59723.45
556.33	59377.05
556.50	59344.28
556.66	59533.87
556.83	59159.38
556.99	59351.30
557.16	59501.10
557.32	59636.85
557.49	59646.21
557.65	59353.65
557.82	59351.30
557.98	59564.29
558.15	59561.95
558.32	59688.34
558.48	59606.42
558.65	59629.83
558.81	59625.15
558.98	59700.04
559.14	59987.93
559.31	59870.90
559.47	59707.07
559.64	59861.54
559.80	59756.22
559.97	59889.63
560.13	59657.91
560.30	59856.86
560.46	59936.44
560.63	59800.69
560.79	59945.80
560.96	59976.23
561.12	59992.61
561.29	60016.02
561.45	59924.74
561.61	60018.36
561.78	60072.19
561.94	59767.92
562.11	59898.99
562.27	60048.78
562.44	60027.72
562.60	60123.68
562.77	60051.12
562.93	59779.62
563.10	60250.07
563.26	59931.76
563.42	60395.18
563.59	60037.08
563.75	60289.86
563.92	60074.53
564.08	60018.36
564.24	60374.12
564.41	60261.77
564.57	60306.24
564.74	60350.71
564.90	60217.30
565.07	60116.66
565.23	60151.77
565.39	60168.15
565.56	60261.77
565.72	60313.26
565.88	60041.76
566.05	60289.86
566.21	60198.58
566.38	60477.10
566.54	60540.30
566.70	60486.46
566.87	60528.59
567.03	60163.47
567.19	60446.68
567.36	60622.22
567.52	60315.61
567.68	60512.21
567.85	60481.78
568.01	60453.70
568.17	60381.14
568.34	60704.13
568.50	60500.51
568.66	60275.82
568.83	60645.62
568.99	60353.05
569.15	60615.19
569.32	60566.04
569.48	60458.38
569.64	60587.11
569.81	60523.91
569.97	60322.63
570.13	60640.94
570.30	60456.04
570.46	60673.71
570.62	60750.94
570.78	60640.94
570.95	60687.75
571.11	60685.41
571.27	60498.17
571.43	60535.62
571.60	60739.24
571.76	60537.96
571.92	60924.14
572.09	60753.29
572.25	60589.45
572.41	60706.47
572.57	60856.27
572.74	61078.62
572.90	60800.10
573.06	60790.73
573.22	60750.94
573.38	60743.92
573.55	60811.80
573.71	60729.88
573.87	60886.70
574.03	60584.77
574.20	60851.59
574.36	60837.54
574.52	61064.58
574.68	60947.55
574.84	60970.96
575.01	60982.66
575.17	60952.23
575.33	60807.12
575.49	60933.51
575.65	60687.75
575.82	60776.69
575.98	60804.78
576.14	61027.13
576.30	60867.97
576.46	60774.35
576.62	60954.57
576.79	60678.39
576.95	60774.35
577.11	60935.85
577.27	60907.76
577.43	60835.20
577.59	60645.62
577.75	60938.19
577.92	60802.44
578.08	60898.40
578.24	61043.51
578.40	61085.64
578.56	60989.68
578.72	60753.29
578.88	61022.45
579.04	61144.16
579.21	60942.87
579.37	61165.22
579.53	61228.41
579.69	60825.84
579.85	60931.17
580.01	60783.71
580.17	60879.67
580.33	61123.09
580.49	61258.84
580.65	60961.59
580.82	60973.30
580.98	60907.76
581.14	60985.00
581.30	61230.75
581.46	60933.51
581.62	60874.99
581.78	61038.83
581.94	60893.72
582.10	61055.21
582.26	60788.39
582.42	60987.34
582.58	61197.99
582.74	60973.30
582.90	61036.49
583.06	61057.56
583.22	60870.31
583.38	61008.40
583.54	61205.01
583.70	61066.92
583.86	61034.15
584.02	60987.34
584.18	61303.31
584.34	61073.94
584.50	61251.82
584.66	60994.36
584.82	60921.80
584.98	61162.88
585.14	61202.67
585.30	61071.60
585.46	61272.88
585.62	61123.09
585.78	61102.03
585.94	60898.40
586.10	61165.22
586.26	61176.92
586.42	61219.05
586.58	61027.13
586.74	61132.45
586.90	61116.07
587.06	61015.43
587.22	61347.78
587.38	61298.63
587.54	61382.89
587.70	61338.42
587.86	61078.62
588.02	61099.68
588.18	61322.04
588.34	61226.07
588.49	61059.90
