SpectraSuite Data File
++++++++++++++++++++++++++++++++++++
Date: Fri Oct 25 11:22:34 EDT 2013
User: price-jones
Dark Spectrum Present: No
Reference Spectrum Present: No
Number of Sampled Component Spectra: 1
Spectrometers: USB2+H05261
Integration Time (usec): 100000 (USB2+H05261)
Spectra Averaged: 1 (USB2+H05261)
Boxcar Smoothing: 0 (USB2+H05261)
Correct for Electrical Dark: No (USB2+H05261)
Strobe/Lamp Enabled: No (USB2+H05261)
Correct for Detector Non-linearity: No (USB2+H05261)
Correct for Stray Light: No (USB2+H05261)
Number of Pixels in Processed Spectrum: 2048
>>>>>Begin Processed Spectral Data<<<<<
365.73	212.99
365.92	212.99
366.12	212.99
366.32	128.73
366.52	74.90
366.72	154.48
366.91	107.66
367.11	84.26
367.31	128.73
367.51	93.62
367.70	79.58
367.90	117.03
368.10	91.28
368.30	124.05
368.49	98.30
368.69	161.50
368.89	154.48
369.09	112.35
369.28	217.67
369.48	154.48
369.68	170.86
369.87	142.77
370.07	222.35
370.27	203.63
370.47	315.97
370.66	470.45
370.86	613.22
371.06	711.52
371.25	662.37
371.45	636.63
371.65	664.71
371.84	653.01
372.04	622.58
372.24	772.38
372.44	697.48
372.63	669.39
372.83	774.72
373.03	748.97
373.22	730.25
373.42	734.93
373.62	814.51
373.81	748.97
374.01	854.30
374.21	863.66
374.40	795.78
374.60	774.72
374.79	760.67
374.99	828.55
375.19	779.40
375.38	847.27
375.58	842.59
375.78	840.25
375.97	830.89
376.17	922.17
376.37	891.74
376.56	863.66
376.76	866.00
376.95	919.83
377.15	891.74
377.35	868.34
377.54	931.53
377.74	931.53
377.93	844.93
378.13	898.77
378.33	983.02
378.52	896.43
378.72	947.92
378.91	954.94
379.11	943.24
379.31	854.30
379.50	997.07
379.70	1004.09
379.89	971.32
380.09	973.66
380.28	968.98
380.48	1036.86
380.68	889.40
380.87	1067.28
381.07	976.00
381.26	1100.05
381.46	1053.24
381.65	1039.20
381.85	1004.09
382.04	1116.44
382.24	1114.10
382.43	1057.92
382.63	1018.13
382.83	1076.65
383.02	1090.69
383.22	1107.07
383.41	1041.54
383.61	1097.71
383.80	1170.27
384.00	1144.52
384.19	1135.16
384.39	1057.92
384.58	1256.87
384.78	1177.29
384.97	1245.16
385.17	1233.46
385.36	1170.27
385.56	1224.10
385.75	1188.99
385.95	1172.61
386.14	1139.84
386.34	1231.12
386.53	1179.63
386.72	1217.08
386.92	1226.44
387.11	1263.89
387.31	1196.01
387.50	1343.47
387.70	1254.53
387.89	1299.00
388.09	1235.80
388.28	1378.58
388.48	1210.06
388.67	1256.87
388.86	1273.25
389.06	1273.25
389.25	1387.94
389.45	1439.43
389.64	1401.98
389.84	1357.51
390.03	1380.92
390.22	1404.32
390.42	1404.32
390.61	1310.70
390.81	1467.52
391.00	1380.92
391.19	1397.30
391.39	1441.77
391.58	1570.50
391.78	1413.68
391.97	1462.83
392.16	1474.54
392.36	1631.35
392.55	1511.99
392.75	1511.99
392.94	1549.43
393.13	1493.26
393.33	1479.22
393.52	1547.09
393.71	1542.41
393.91	1666.46
394.10	1551.78
394.29	1657.10
394.49	1547.09
394.68	1645.40
394.88	1530.71
395.07	1675.82
395.26	1596.25
395.46	1607.95
395.65	1739.02
395.84	1671.14
396.04	1762.42
396.23	1881.79
396.42	1795.19
396.62	1813.92
396.81	1799.87
397.00	1776.47
397.19	1816.26
397.39	1778.81
397.58	1762.42
397.77	1912.22
397.97	1837.32
398.16	1921.58
398.35	1849.02
398.55	1863.07
398.74	1825.62
398.93	1944.99
399.12	1994.14
399.32	1961.37
399.51	1970.73
399.70	1994.14
399.90	1996.48
400.09	1879.45
400.28	2047.97
400.47	2036.27
400.67	2101.80
400.86	2019.88
401.05	2076.06
401.24	2050.31
401.44	2155.63
401.63	2153.29
401.82	2188.40
402.01	2167.34
402.21	2174.36
402.40	2160.31
402.59	2190.74
402.78	2253.94
402.97	2214.15
403.17	2333.51
403.36	2324.15
403.55	2307.77
403.74	2331.17
403.93	2319.47
404.13	2312.45
404.32	2305.43
404.51	2424.80
404.70	2417.77
404.89	2399.05
405.09	2483.31
405.28	2438.84
405.47	2406.07
405.66	2644.81
405.85	2626.08
406.05	2558.21
406.24	2642.46
406.43	2605.02
406.62	2661.19
406.81	2689.28
407.00	2679.91
407.20	2520.76
407.39	2623.74
407.58	2759.49
407.77	2743.11
407.96	2766.51
408.15	2778.22
408.34	2733.75
408.54	2932.69
408.73	2803.96
408.92	2925.67
409.11	2860.13
409.30	2892.90
409.49	2862.48
409.68	2780.56
409.87	2888.22
410.07	3012.27
410.26	3087.17
410.45	3082.49
410.64	3056.74
410.83	3110.57
411.02	3162.06
411.21	3180.79
411.40	3227.60
411.59	3251.00
411.78	3159.72
411.98	3105.89
412.17	3391.44
412.36	3412.50
412.55	3353.99
412.74	3442.93
412.93	3503.78
413.12	3368.03
413.31	3571.66
413.50	3578.68
413.69	3496.76
413.88	3646.55
414.07	3557.61
414.26	3669.96
414.45	3737.84
414.64	3658.26
414.83	3819.75
415.02	3777.62
415.22	3941.46
415.41	3955.51
415.60	3896.99
415.79	4032.74
415.98	3969.55
416.17	4007.00
416.36	3950.82
416.55	4107.64
416.74	4138.07
416.93	4124.02
417.12	4009.34
417.31	4322.97
417.50	4180.20
417.69	4337.01
417.88	4301.90
418.07	4322.97
418.26	4381.48
418.45	4383.82
418.64	4631.92
418.83	4531.28
419.02	4479.79
419.21	4575.75
419.39	4472.76
419.58	4624.90
419.77	4442.34
419.96	4692.77
420.15	4589.79
420.34	4683.41
420.53	4779.37
420.72	4706.82
420.91	4690.43
421.10	4704.48
421.29	4922.15
421.48	4704.48
421.67	4711.50
421.86	4730.22
422.05	4706.82
422.24	4943.21
422.43	4994.70
422.61	4957.25
422.80	5046.20
422.99	4964.28
423.18	4994.70
423.37	5198.33
423.56	5032.15
423.75	4947.89
423.94	4847.25
424.13	4634.26
424.32	4753.63
424.50	5095.35
424.69	5088.32
424.88	5095.35
425.07	4873.00
425.26	4983.00
425.45	5029.81
425.64	5046.20
425.83	5212.37
426.01	5022.79
426.20	5191.31
426.39	5116.41
426.58	5132.79
426.77	5008.75
426.96	5320.04
427.15	5221.74
427.33	5221.74
427.52	5177.26
427.71	5118.75
427.90	5399.62
428.09	5366.85
428.28	5385.57
428.46	5373.87
428.65	5303.65
428.84	5542.39
429.03	5570.48
429.22	5385.57
429.40	5322.38
429.59	5565.79
429.78	5378.55
429.97	5338.76
430.16	5537.71
430.34	5657.07
430.53	5706.23
430.72	5657.07
430.91	5617.29
431.10	5640.69
431.28	5776.44
431.47	5867.72
431.66	5930.92
431.85	5851.34
432.03	5963.68
432.22	6038.58
432.41	5987.09
432.60	6059.65
432.79	6094.76
432.97	5841.98
433.16	6043.26
433.35	5909.85
433.54	6087.73
433.72	6263.27
433.91	6127.52
434.10	6127.52
434.28	6232.85
434.47	6195.40
434.66	6303.06
434.85	6366.26
435.03	6375.62
435.22	6375.62
435.41	6576.91
435.59	6417.75
435.78	6562.86
435.97	6436.47
436.16	6502.01
436.34	6551.16
436.53	6492.65
436.72	6710.32
436.90	6588.61
437.09	6712.66
437.28	6768.83
437.46	6579.25
437.65	6609.67
437.84	6958.41
438.02	6951.39
438.21	6771.17
438.40	6902.24
438.58	7084.80
438.77	7082.46
438.96	7000.54
439.14	7150.34
439.33	7253.32
439.52	7262.68
439.70	7255.66
439.89	7529.50
440.08	7625.47
440.26	7433.54
440.45	7447.58
440.63	7506.10
440.82	7510.78
441.01	7639.51
441.19	7602.06
441.38	7688.66
441.57	7726.11
441.75	7861.86
441.94	7896.97
442.12	7829.09
442.31	8095.91
442.50	8079.53
442.68	8194.22
442.87	8131.02
443.05	8369.76
443.24	8283.16
443.43	8283.16
443.61	8348.69
443.80	8463.38
443.98	8133.36
444.17	7712.07
444.35	8299.54
444.54	8486.78
444.73	8430.61
444.91	8568.70
445.10	8596.79
445.28	8514.87
445.47	8402.52
445.65	8542.96
445.84	8683.39
446.02	8454.02
446.21	8484.44
446.39	8187.19
446.58	8416.57
446.77	8627.21
446.95	8315.92
447.14	8643.60
447.32	8571.04
447.51	8643.60
447.69	8613.17
447.88	8798.07
448.06	8655.30
448.25	8634.24
448.43	8755.94
448.62	8587.43
448.80	8786.37
448.99	8847.22
449.17	8683.39
449.36	8629.56
449.54	8842.54
449.73	9172.56
449.91	9083.62
450.10	8952.55
450.28	9198.31
450.46	9329.38
450.65	9198.31
450.83	9336.40
451.02	8973.61
451.20	9331.72
451.39	9177.24
451.57	9284.91
451.76	9118.73
451.94	9081.28
452.13	9415.98
452.31	9378.53
452.49	9401.93
452.68	9423.00
452.86	9434.70
453.05	9554.07
453.23	9785.78
453.42	9518.96
453.60	9523.64
453.78	9762.37
453.97	9547.05
454.15	9708.54
454.34	9675.77
454.52	9825.57
454.70	9635.99
454.89	9830.25
455.07	10134.52
455.26	9998.77
455.44	9923.87
455.62	10040.90
455.81	10036.22
455.99	10026.86
456.17	10162.61
456.36	10111.11
456.54	10209.42
456.73	10349.85
456.91	10607.31
457.09	10504.32
457.28	10752.42
457.46	10246.87
457.64	10806.25
457.83	10619.01
458.01	10319.42
458.19	10839.02
458.38	10595.61
458.56	10780.51
458.74	10846.04
458.93	10740.72
459.11	10855.40
459.29	10832.00
459.48	11178.40
459.66	10930.30
459.84	11035.63
460.03	11183.08
460.21	11218.19
460.39	11089.46
460.57	11052.01
460.76	11222.87
460.94	11178.40
461.12	11246.27
461.31	11332.87
461.49	11257.98
461.67	11346.92
461.85	11623.10
462.04	11468.62
462.22	11948.43
462.40	11833.75
462.59	11389.05
462.77	11679.27
462.95	11719.06
463.13	11632.46
463.32	11913.33
463.50	11889.92
463.68	11873.54
463.86	12102.91
464.05	11786.94
464.23	11754.17
464.41	12074.82
464.59	11833.75
464.78	12262.07
464.96	11999.93
465.14	12051.42
465.32	12383.77
465.50	12301.86
465.69	12358.03
465.87	12273.77
466.05	12224.62
466.23	12292.49
466.41	12304.20
466.60	12556.97
466.78	12182.49
466.96	12194.19
467.14	12346.33
467.32	12545.27
467.51	12751.24
467.69	12278.45
467.87	12613.15
468.05	12767.62
468.23	12746.56
468.41	12496.12
468.60	12671.66
468.78	13128.06
468.96	12924.44
469.14	12849.54
469.32	13104.66
469.50	12847.20
469.69	13266.16
469.87	13233.39
470.05	13102.32
470.23	13240.41
470.41	13324.67
470.59	13483.83
470.77	13357.44
470.95	13434.68
471.14	13647.66
471.32	12940.82
471.50	13633.62
471.68	13919.17
471.86	13804.48
472.04	13930.87
472.22	14078.32
472.40	13973.00
472.58	13921.51
472.77	14382.59
472.95	14403.66
473.13	14885.81
473.31	14436.42
473.49	14244.50
473.67	14113.43
473.85	14588.56
474.03	14761.76
474.21	14792.19
474.39	14977.09
474.57	14752.40
474.75	15115.18
474.93	15016.88
475.12	15030.92
475.30	15234.55
475.48	15295.40
475.66	15370.30
475.84	15396.04
476.02	15538.82
476.20	15726.06
476.38	15882.88
476.56	16102.89
476.74	16299.49
476.92	16130.97
477.10	16098.20
477.28	16383.75
477.46	16465.67
477.64	16762.92
477.82	16798.02
478.00	17013.35
478.18	16783.98
478.36	17104.64
478.54	17191.23
478.72	17500.19
478.90	17549.34
479.08	17673.39
479.26	17888.71
479.44	17872.33
479.62	18263.20
479.80	18164.90
479.98	18511.30
480.16	18813.23
480.34	18504.28
480.52	18806.20
480.70	18909.19
480.88	18595.56
481.06	19094.09
481.24	19026.21
481.41	19318.78
481.59	19793.91
481.77	19627.73
481.95	19864.13
482.13	20056.05
482.31	19822.00
482.49	20299.47
482.67	20224.57
482.85	20395.43
483.03	20872.90
483.21	21111.63
483.39	21139.72
483.57	20954.82
483.74	21387.82
483.92	21610.17
484.10	21315.26
484.28	21923.80
484.46	22113.38
484.64	22207.00
484.82	21977.63
485.00	22560.42
485.18	22686.81
485.35	23440.47
485.53	23178.33
485.71	23487.28
485.89	23480.25
486.07	23590.26
486.25	23859.42
486.43	23871.12
486.61	24177.73
486.78	23903.89
486.96	25010.96
487.14	24753.51
487.32	24587.33
487.50	25025.01
487.68	25273.10
487.85	25518.86
488.03	25926.11
488.21	26314.64
488.39	26047.82
488.57	26595.51
488.75	26466.78
488.92	26829.56
489.10	27012.12
489.28	27056.59
489.46	27449.80
489.64	27573.85
489.81	28362.61
489.99	27805.56
490.17	27896.85
490.35	28407.08
490.53	28264.31
490.70	28393.04
490.88	28683.27
491.06	29139.67
491.24	28975.83
491.41	29469.69
491.59	29687.36
491.77	29556.28
491.95	29560.97
492.13	30380.15
492.30	30553.35
492.48	30321.64
492.66	30206.95
492.84	30632.93
493.01	31524.68
493.19	31337.43
493.37	31496.59
493.54	31278.92
493.72	31922.57
493.90	31672.13
494.08	32006.83
494.25	32266.63
494.43	32507.70
494.61	32964.10
494.79	32863.46
494.96	32985.17
495.14	33415.83
495.32	33703.71
495.49	33408.81
495.67	33764.57
495.85	33876.91
496.02	34038.41
496.20	34216.29
496.38	34429.28
496.55	34525.24
496.73	35220.38
496.91	35070.59
497.09	35028.46
497.26	35477.84
497.44	35402.94
497.62	35463.80
497.79	36240.86
497.97	35814.88
498.14	36549.81
498.32	36678.54
498.50	37029.62
498.67	36919.61
498.85	37092.81
499.03	37099.83
499.20	37099.83
499.38	37261.33
499.56	37628.79
499.73	37518.79
499.91	38047.75
500.08	37874.55
500.26	37888.59
500.44	38136.69
500.61	38373.08
500.79	38272.44
500.97	38689.06
501.14	39225.04
501.32	39086.95
501.49	39290.57
501.67	39515.26
501.84	39337.38
502.02	39826.56
502.20	39639.31
502.37	40144.87
502.55	39934.22
502.72	40030.18
502.90	40011.46
503.07	40018.48
503.25	39866.34
503.43	40390.62
503.60	40479.57
503.78	40531.06
503.95	40385.94
504.13	40575.53
504.30	41095.13
504.48	40257.21
504.65	41284.71
504.83	41544.51
505.01	42040.70
505.18	41523.44
505.36	42096.88
505.53	41570.25
505.71	42232.63
505.88	41926.02
506.06	41902.61
506.23	41958.78
506.41	42293.48
506.58	42883.30
506.76	42674.99
506.93	42789.67
507.11	42803.72
507.28	43210.97
507.46	43236.72
507.63	43655.67
507.81	43505.88
507.98	43445.02
508.16	43859.30
508.33	43899.09
508.50	43641.63
508.68	44346.13
508.85	44343.79
509.03	43981.01
509.20	44378.90
509.38	45202.77
509.55	44786.15
509.73	45038.93
509.90	45193.40
510.08	44844.66
510.25	44664.44
510.42	45373.63
510.60	45464.91
510.77	45308.09
510.95	45689.60
511.12	45588.95
511.30	45624.06
511.47	45970.46
511.64	45677.90
511.82	46820.08
511.99	46012.59
512.17	46485.38
512.34	46323.88
512.51	46752.20
512.69	46768.58
512.86	46740.50
513.04	46763.90
513.21	46958.17
513.38	47250.74
513.56	47461.38
513.73	46974.55
513.90	47433.30
514.08	47437.98
514.25	47510.53
514.43	48170.57
514.60	47840.55
514.77	47782.04
514.95	48245.46
515.12	47910.77
515.29	48236.10
515.47	48280.57
515.64	48566.12
515.81	48245.46
515.99	48622.29
516.16	49200.40
516.33	48973.37
516.51	49359.56
516.68	48818.89
516.85	48854.00
517.03	49471.90
517.20	49270.62
517.37	49324.45
517.54	49291.68
517.72	49441.48
517.89	49392.33
518.06	49804.26
518.24	49588.93
518.41	49565.52
518.58	50059.38
518.75	49441.48
518.93	49904.90
519.10	49968.10
519.27	50335.56
519.45	49979.80
519.62	50216.19
519.79	50316.84
519.96	50162.36
520.14	50370.67
520.31	50347.26
520.48	50630.47
520.65	50993.25
520.83	51065.81
521.00	51143.05
521.17	50967.51
521.34	51409.87
521.52	51274.12
521.69	51004.95
521.86	51508.17
522.03	51681.37
522.20	51576.04
522.38	51938.83
522.55	51695.41
522.72	51716.48
522.89	51739.88
523.07	52189.27
523.24	51782.01
523.41	52105.01
523.58	52074.58
523.75	52280.55
523.92	51957.55
524.10	52271.18
524.27	52432.68
524.44	52865.68
524.61	52523.96
524.78	52301.61
524.96	52598.86
525.13	52865.68
525.30	52959.30
525.47	52868.02
525.64	53013.13
525.81	53109.10
525.98	53375.92
526.16	53181.65
526.33	53104.41
526.50	53176.97
526.67	53312.72
526.84	53525.71
527.01	53038.88
527.18	53350.17
527.36	53303.36
527.53	53261.23
527.70	53616.99
527.87	53579.54
528.04	53504.65
528.21	53736.36
528.38	53619.33
528.55	53879.13
528.72	53551.46
528.89	53921.26
529.07	53902.54
529.24	53748.06
529.41	54101.48
529.58	53869.77
529.75	54096.80
529.92	54220.85
530.09	54354.26
530.26	54129.57
530.43	54443.20
530.60	54218.51
530.77	54057.01
530.94	54302.77
531.11	54583.63
531.28	54466.61
531.46	54499.37
531.63	54490.01
531.80	54539.16
531.97	54906.63
532.14	54813.01
532.31	54827.05
532.48	55009.61
532.65	54536.82
532.82	54780.24
532.99	55112.59
533.16	54967.48
533.33	55210.90
533.50	55302.18
533.67	55014.29
533.84	55185.15
534.01	55458.99
534.18	55248.35
534.35	55639.22
534.52	55302.18
534.69	55859.23
534.86	55550.27
535.03	55248.35
535.20	55730.50
535.37	55559.64
535.54	55840.50
535.71	55789.01
535.88	55695.39
536.05	55894.33
536.22	55948.17
536.38	56158.81
536.55	55756.24
536.72	55789.01
536.89	55725.81
537.06	56037.11
537.23	56095.62
537.40	55817.10
537.57	56278.18
537.74	56203.28
537.91	56210.31
538.08	56189.24
538.25	55927.10
538.42	56158.81
538.59	56456.06
538.75	56264.14
538.92	56556.70
539.09	56413.93
539.26	56289.88
539.43	56537.98
539.60	56636.28
539.77	56474.79
539.94	56781.40
540.11	56523.94
540.28	56743.95
540.44	56575.43
540.61	56870.34
540.78	56865.66
540.95	56636.28
541.12	56722.88
541.29	56678.41
541.46	56781.40
541.62	56907.79
541.79	56935.87
541.96	56781.40
542.13	57097.37
542.30	56989.70
542.47	57172.27
542.63	57233.12
542.80	56996.73
542.97	57499.94
543.14	57453.13
543.31	57553.77
543.48	57450.79
543.64	57701.23
543.81	57565.48
543.98	57574.84
544.15	57794.85
544.32	57523.35
544.48	57799.53
544.65	57724.63
544.82	57794.85
544.99	57654.42
545.16	57743.36
545.32	57614.63
545.49	57968.05
545.66	57893.15
545.83	58068.69
546.00	57951.66
546.16	57989.11
546.33	57839.32
546.50	57902.51
546.67	57989.11
546.83	57858.04
547.00	58113.16
547.17	57822.93
547.34	58082.73
547.50	58305.09
547.67	58326.15
547.84	58281.68
548.00	58379.98
548.17	58466.58
548.34	58293.38
548.51	58564.88
548.67	58658.51
548.84	58403.39
549.01	58178.70
549.18	58651.48
549.34	58508.71
549.51	58525.10
549.68	58588.29
549.84	58534.46
550.01	58805.96
550.18	58651.48
550.34	58583.61
550.51	58845.75
550.68	58782.55
550.84	58398.71
551.01	59065.76
551.18	58944.05
551.34	58841.07
551.51	58913.62
551.68	58717.02
551.84	58761.49
552.01	58815.32
552.18	58995.54
552.34	58693.61
552.51	58965.12
552.68	58876.18
552.84	59105.55
553.01	59475.35
553.18	59157.04
553.34	59082.14
553.51	59178.10
553.67	59337.26
553.84	59297.47
554.01	59346.62
554.17	59337.26
554.34	59388.75
554.51	59098.53
554.67	59456.63
554.84	59161.72
555.00	59288.11
555.17	59440.24
555.33	59276.41
555.50	59290.45
555.67	59283.43
555.83	59180.45
556.00	59583.02
556.16	59756.22
556.33	59632.17
556.50	59583.02
556.66	59784.30
556.83	59370.03
556.99	59842.82
557.16	59709.41
557.32	59643.87
557.49	59929.42
557.65	59480.03
557.82	59552.59
557.98	59777.28
558.15	59627.49
558.32	59732.81
558.48	59629.83
558.65	59927.08
558.81	59882.61
558.98	59966.87
559.14	59840.48
559.31	59922.40
559.47	59807.71
559.64	60088.57
559.80	60128.36
559.97	60163.47
560.13	60037.08
560.30	59920.05
560.46	60044.10
560.63	60009.00
560.79	60016.02
560.96	60107.30
561.12	60198.58
561.29	60254.75
561.45	60231.35
561.61	60226.66
561.78	60142.41
561.94	60163.47
562.11	60165.81
562.27	60324.97
562.44	60310.92
562.60	60294.54
562.77	60308.58
562.93	60111.98
563.10	60280.50
563.26	60149.43
563.42	60402.21
563.59	60322.63
563.75	60444.33
563.92	60320.29
564.08	60261.77
564.24	60416.25
564.41	60175.17
564.57	60465.40
564.74	60481.78
564.90	60629.24
565.07	60310.92
565.23	60336.67
565.39	60207.94
565.56	60596.47
565.72	60488.80
565.88	60336.67
566.05	60404.55
566.21	60182.19
566.38	60451.36
566.54	60615.19
566.70	60708.82
566.87	60622.22
567.03	60458.38
567.19	60973.30
567.36	60474.76
567.52	60601.15
567.68	60669.03
567.85	60507.53
568.01	60650.30
568.17	60509.87
568.34	60612.85
568.50	60500.51
568.66	60678.39
568.83	60666.69
568.99	60662.00
569.15	60711.16
569.32	60741.58
569.48	60608.17
569.64	60807.12
569.81	60867.97
569.97	60392.84
570.13	60825.84
570.30	60729.88
570.46	60914.78
570.62	60776.69
570.78	60807.12
570.95	60720.52
571.11	60704.13
571.27	60718.18
571.43	60889.04
571.60	60917.12
571.76	60811.80
571.92	60884.36
572.09	60818.82
572.25	60713.50
572.41	60835.20
572.57	60746.26
572.74	61076.28
572.90	60779.03
573.06	60942.87
573.22	60907.76
573.38	60860.95
573.55	60907.76
573.71	61155.86
573.87	61020.11
574.03	60727.54
574.20	60956.91
574.36	60999.04
574.52	61006.06
574.68	60928.83
574.84	61151.18
575.01	61069.26
575.17	61235.44
575.33	60863.29
575.49	60804.78
575.65	61200.33
575.82	60975.64
575.98	60921.80
576.14	61162.88
576.30	61137.13
576.46	61118.41
576.62	61038.83
576.79	61127.77
576.95	60818.82
577.11	61113.73
577.27	61223.73
577.43	61151.18
577.59	60992.02
577.75	60900.74
577.92	60900.74
578.08	60879.67
578.24	61059.90
578.40	61176.92
578.56	61352.46
578.72	61045.85
578.88	61233.10
579.04	61202.67
579.21	61097.34
579.37	61361.82
579.53	61240.12
579.69	60942.87
579.85	60893.72
580.01	61319.70
580.17	61045.85
580.33	61010.74
580.49	61080.96
580.65	61286.93
580.82	61034.15
580.98	61106.71
581.14	61134.79
581.30	61193.31
581.46	61151.18
581.62	61181.60
581.78	61104.37
581.94	61347.78
582.10	61120.75
582.26	61048.19
582.42	61193.31
582.58	61247.14
582.74	61141.81
582.90	61200.33
583.06	61223.73
583.22	60924.14
583.38	61382.89
583.54	61331.40
583.70	61247.14
583.86	61212.03
584.02	61195.65
584.18	61394.59
584.34	61350.12
584.50	61361.82
584.66	60966.27
584.82	61078.62
584.98	61256.50
585.14	61336.08
585.30	61345.44
585.46	61298.63
585.62	61272.88
585.78	61453.11
585.94	61146.50
586.10	61347.78
586.26	61272.88
586.42	61167.56
586.58	61389.91
586.74	61240.12
586.90	61286.93
587.06	61123.09
587.22	61343.10
587.38	61429.70
587.54	61303.31
587.70	61556.09
587.86	61368.85
588.02	61265.86
588.18	61785.46
588.34	61228.41
588.49	61420.34
