SpectraSuite Data File
++++++++++++++++++++++++++++++++++++
Date: Fri Oct 25 10:43:19 EDT 2013
User: price-jones
Dark Spectrum Present: No
Reference Spectrum Present: No
Number of Sampled Component Spectra: 1
Spectrometers: USB2+H05261
Integration Time (usec): 100000 (USB2+H05261)
Spectra Averaged: 1 (USB2+H05261)
Boxcar Smoothing: 0 (USB2+H05261)
Correct for Electrical Dark: No (USB2+H05261)
Strobe/Lamp Enabled: No (USB2+H05261)
Correct for Detector Non-linearity: No (USB2+H05261)
Correct for Stray Light: No (USB2+H05261)
Number of Pixels in Processed Spectrum: 2048
>>>>>Begin Processed Spectral Data<<<<<
365.73	110.01
365.92	110.01
366.12	110.01
366.32	84.26
366.52	0.00
366.72	95.96
366.91	35.11
367.11	7.02
367.31	32.77
367.51	0.00
367.70	81.92
367.90	7.02
368.10	4.68
368.30	0.00
368.49	23.41
368.69	56.17
368.89	121.71
369.09	44.47
369.28	77.24
369.48	0.00
369.68	117.03
369.87	53.83
370.07	56.17
370.27	138.09
370.47	201.29
370.66	315.97
370.86	416.62
371.06	451.72
371.25	468.11
371.45	360.44
371.65	498.53
371.84	440.02
372.04	468.11
372.24	543.00
372.44	482.15
372.63	510.24
372.83	454.06
373.03	465.77
373.22	521.94
373.42	531.30
373.62	552.37
373.81	606.20
374.01	561.73
374.21	568.75
374.40	491.51
374.60	547.69
374.79	554.71
374.99	491.51
375.19	505.56
375.38	550.03
375.58	608.54
375.78	603.86
375.97	592.16
376.17	606.20
376.37	585.13
376.56	638.97
376.76	622.58
376.95	655.35
377.15	695.14
377.35	624.92
377.54	629.60
377.74	610.88
377.93	678.76
378.13	580.45
378.33	641.31
378.52	594.50
378.72	629.60
378.91	643.65
379.11	608.54
379.31	592.16
379.50	610.88
379.70	720.88
379.89	678.76
380.09	718.54
380.28	606.20
380.48	676.41
380.68	748.97
380.87	702.16
381.07	688.12
381.26	697.48
381.46	699.82
381.65	662.37
381.85	667.05
382.04	739.61
382.24	695.14
382.43	748.97
382.63	650.67
382.83	695.14
383.02	748.97
383.22	746.63
383.41	720.88
383.61	667.05
383.80	849.61
384.00	744.29
384.19	779.40
384.39	807.48
384.58	861.32
384.78	800.46
384.97	770.04
385.17	819.19
385.36	781.74
385.56	753.65
385.75	896.43
385.95	784.08
386.14	774.72
386.34	882.38
386.53	842.59
386.72	816.85
386.92	847.27
387.11	828.55
387.31	805.14
387.50	819.19
387.70	908.13
387.89	828.55
388.09	866.00
388.28	798.12
388.48	877.70
388.67	947.92
388.86	903.45
389.06	924.51
389.25	917.49
389.45	999.41
389.64	926.85
389.84	980.68
390.03	1008.77
390.22	1048.56
390.42	1064.94
390.61	994.73
390.81	1036.86
391.00	1095.37
391.19	1015.79
391.39	1064.94
391.58	1069.62
391.78	1036.86
391.97	997.07
392.16	1053.24
392.36	1013.45
392.55	976.00
392.75	980.68
392.94	936.21
393.13	994.73
393.33	973.66
393.52	1022.81
393.71	1139.84
393.91	1186.65
394.10	1149.20
394.29	1121.12
394.49	1174.95
394.68	1210.06
394.88	1135.16
395.07	1186.65
395.26	1226.44
395.46	1172.61
395.65	1214.74
395.84	1261.55
396.04	1261.55
396.23	1205.38
396.42	1165.59
396.62	1203.04
396.81	1165.59
397.00	1191.33
397.19	1277.93
397.39	1238.14
397.58	1394.96
397.77	1434.75
397.97	1385.60
398.16	1376.24
398.35	1465.18
398.55	1434.75
398.74	1488.58
398.93	1453.47
399.12	1488.58
399.32	1465.18
399.51	1586.88
399.70	1589.22
399.90	1568.16
400.09	1607.95
400.28	1596.25
400.47	1488.58
400.67	1710.93
400.86	1647.74
401.05	1626.67
401.24	1619.65
401.44	1736.68
401.63	1750.72
401.82	1757.74
402.01	1633.69
402.21	1713.27
402.40	1778.81
402.59	1753.06
402.78	1645.40
402.97	1802.21
403.17	1724.97
403.36	1701.57
403.55	1788.17
403.74	1825.62
403.93	1732.00
404.13	1795.19
404.32	1783.49
404.51	1851.36
404.70	1884.13
404.89	1898.17
405.09	1968.39
405.28	1966.05
405.47	1966.05
405.66	2036.27
405.85	2059.67
406.05	1909.88
406.24	1987.11
406.43	2146.27
406.62	2003.50
406.81	2087.76
407.00	1933.28
407.20	1994.14
407.39	2080.74
407.58	2087.76
407.77	2174.36
407.96	2235.21
408.15	2209.47
408.34	2267.98
408.54	2359.26
408.73	2253.94
408.92	2167.34
409.11	2223.51
409.30	2380.32
409.49	2197.76
409.68	2237.55
409.87	2279.68
410.07	2415.43
410.26	2410.75
410.45	2417.77
410.64	2380.32
410.83	2455.22
411.02	2558.21
411.21	2478.63
411.40	2619.06
411.59	2626.08
411.78	2616.72
411.98	2630.76
412.17	2635.44
412.36	2640.12
412.55	2651.83
412.74	2825.03
412.93	2686.94
413.12	2654.17
413.31	2918.65
413.50	2712.68
413.69	2806.30
413.88	2864.82
414.07	2916.31
414.26	2885.88
414.45	2848.43
414.64	2860.13
414.83	3021.63
415.02	3019.29
415.22	3066.10
415.41	3122.27
415.60	3059.08
415.79	3061.42
415.98	3201.85
416.17	3377.39
416.36	3105.89
416.55	3309.52
416.74	3173.77
416.93	3335.26
417.12	3232.28
417.31	3258.03
417.50	3220.58
417.69	3363.35
417.88	3431.23
418.07	3304.84
418.26	3361.01
418.45	3365.69
418.64	3515.48
418.83	3489.74
419.02	3452.29
419.21	3655.92
419.39	3660.60
419.58	3419.52
419.77	3522.51
419.96	3616.13
420.15	3662.94
420.34	3810.39
420.53	3810.39
420.72	3882.95
420.91	3808.05
421.10	3957.85
421.29	3913.38
421.48	3772.94
421.67	3852.52
421.86	3808.05
422.05	3831.46
422.24	3791.67
422.43	3676.98
422.61	3824.44
422.80	3875.93
422.99	3887.63
423.18	3885.29
423.37	4053.81
423.56	3873.59
423.75	3777.62
423.94	3801.03
424.13	3658.26
424.32	3765.92
424.50	3941.46
424.69	3964.87
424.88	4025.72
425.07	3719.11
425.26	3845.50
425.45	3761.24
425.64	3948.48
425.83	3953.16
426.01	3946.14
426.20	3892.31
426.39	4037.42
426.58	3892.31
426.77	3782.31
426.96	3953.16
427.15	3950.82
427.33	4002.32
427.52	3990.61
427.71	4177.86
427.90	4035.08
428.09	4215.30
428.28	4173.18
428.46	4121.68
428.65	4042.11
428.84	4266.80
429.03	4252.75
429.22	4124.02
429.40	4257.43
429.59	4058.49
429.78	3857.20
429.97	3955.51
430.16	3978.91
430.34	4100.62
430.53	4159.13
430.72	4177.86
430.91	4250.41
431.10	4360.42
431.28	4512.55
431.47	4615.54
431.66	4725.54
431.85	4421.27
432.03	4706.82
432.22	4671.71
432.41	4526.60
432.60	4657.67
432.79	4599.15
432.97	4770.01
433.16	4678.73
433.35	4573.41
433.54	4716.18
433.72	4606.17
433.91	4711.50
434.10	4755.97
434.28	4812.14
434.47	4720.86
434.66	4751.29
434.85	5011.09
435.03	5004.07
435.22	4919.81
435.41	5097.69
435.59	5039.17
435.78	5064.92
435.97	5219.39
436.16	5053.22
436.34	5104.71
436.53	5177.26
436.72	5259.18
436.90	5069.60
437.09	5160.88
437.28	5067.26
437.46	5015.77
437.65	5048.54
437.84	5221.74
438.02	5207.69
438.21	5256.84
438.40	5074.28
438.58	5294.29
438.77	5266.21
438.96	5320.04
439.14	5486.22
439.33	5647.71
439.52	5724.95
439.70	5741.33
439.89	5577.50
440.08	5607.92
440.26	5717.93
440.45	5703.89
440.63	5802.19
440.82	5914.53
441.01	5881.77
441.19	5881.77
441.38	6106.46
441.57	6080.71
441.75	6195.40
441.94	6195.40
442.12	6186.04
442.31	6211.78
442.50	6237.53
442.68	6253.91
442.87	6263.27
443.05	6296.04
443.24	6333.49
443.43	6277.32
443.61	6422.43
443.80	6693.93
443.98	6258.59
444.17	6136.88
444.35	6384.98
444.54	6597.97
444.73	6644.78
444.91	6483.28
445.10	6532.44
445.28	6356.90
445.47	6274.98
445.65	6155.61
445.84	6464.56
446.02	6530.09
446.21	6539.46
446.39	6448.18
446.58	6588.61
446.77	6586.27
446.95	6518.39
447.14	6766.49
447.32	6616.69
447.51	6476.26
447.69	6698.61
447.88	6703.29
448.06	6506.69
448.25	6691.59
448.43	6717.34
448.62	6689.25
448.80	6747.76
448.99	6644.78
449.17	6801.60
449.36	6693.93
449.54	7037.99
449.73	7094.16
449.91	7169.06
450.10	7108.21
450.28	7129.27
450.46	7185.44
450.65	7075.44
450.83	7080.12
451.02	7052.03
451.20	7094.16
451.39	7176.08
451.57	7133.95
451.76	7138.63
451.94	7166.72
452.13	7187.79
452.31	7096.50
452.49	7082.46
452.68	7372.69
452.86	7073.10
453.05	7255.66
453.23	7316.51
453.42	7255.66
453.60	7424.18
453.78	7421.84
453.97	7325.88
454.15	7550.57
454.34	7405.46
454.52	7417.16
454.70	7435.88
454.89	7550.57
455.07	7522.48
455.26	7681.64
455.44	7599.72
455.62	7611.42
455.81	7789.30
455.99	7700.36
456.17	7784.62
456.36	8053.78
456.54	7859.52
456.73	7805.69
456.91	8058.46
457.09	7948.46
457.28	8320.60
457.46	7971.86
457.64	8042.08
457.83	8035.06
458.01	7908.67
458.19	8201.24
458.38	8198.90
458.56	8257.41
458.74	7889.95
458.93	8098.25
459.11	8313.58
459.29	8084.21
459.48	7990.59
459.66	8250.39
459.84	8266.77
460.03	8484.44
460.21	8500.83
460.39	8395.50
460.57	8430.61
460.76	8430.61
460.94	8568.70
461.12	8454.02
461.31	8786.37
461.49	8594.45
461.67	8358.05
461.85	8755.94
462.04	8601.47
462.22	9172.56
462.40	8674.03
462.59	8664.66
462.77	8655.30
462.95	8936.17
463.13	8936.17
463.32	8840.20
463.50	9053.19
463.68	9018.08
463.86	8788.71
464.05	8772.33
464.23	8868.29
464.41	8833.18
464.59	8746.58
464.78	9144.47
464.96	9263.84
465.14	8959.57
465.32	9240.44
465.50	9130.43
465.69	9254.48
465.87	9163.20
466.05	9181.92
466.23	9109.36
466.41	9116.39
466.60	9092.98
466.78	9202.99
466.96	9146.81
467.14	9212.35
467.32	9266.18
467.51	9343.42
467.69	9081.28
467.87	9345.76
468.05	9497.89
468.23	9308.31
468.41	9305.97
468.60	9584.49
468.78	9469.81
468.96	9502.58
469.14	9760.03
469.32	9853.66
469.50	9521.30
469.69	9547.05
469.87	9689.82
470.05	9919.19
470.23	9551.73
470.41	9804.50
470.59	9951.96
470.77	9951.96
470.95	9781.10
471.14	9958.98
471.32	9907.49
471.50	10050.26
471.68	10389.64
471.86	10127.50
472.04	10384.96
472.22	10583.90
472.40	10106.43
472.58	10377.94
472.77	10480.92
472.95	10595.61
473.13	10729.02
473.31	10399.00
473.49	10382.62
473.67	10537.09
473.85	10459.85
474.03	10810.93
474.21	10839.02
474.39	10974.77
474.57	11066.05
474.75	11033.29
474.93	10937.32
475.12	11005.20
475.30	11190.10
475.48	10998.18
475.66	11253.30
475.84	11162.01
476.02	11382.03
476.20	11627.78
476.38	11433.52
476.56	11824.39
476.74	11810.34
476.92	11688.64
477.10	11712.04
477.28	11971.84
477.46	11995.25
477.64	12236.32
477.82	12163.76
478.00	12556.97
478.18	12503.14
478.36	12414.20
478.54	12451.65
478.72	12589.74
478.90	12842.52
479.08	13006.36
479.26	13043.81
479.44	13280.20
479.62	13144.45
479.80	13149.13
479.98	13275.52
480.16	13668.73
480.34	13500.21
480.52	13703.84
480.70	13633.62
480.88	13654.69
481.06	13909.80
481.24	13853.63
481.41	14085.34
481.59	14122.79
481.77	14209.39
481.95	14527.71
482.13	14658.78
482.31	14551.11
482.49	14867.08
482.67	14850.70
482.85	15147.95
483.03	15234.55
483.21	15084.75
483.39	15328.17
483.57	15279.02
483.74	15300.08
483.92	15630.10
484.10	15393.70
484.28	15824.36
484.46	15836.06
484.64	16035.01
484.82	15704.99
485.00	16163.74
485.18	16198.85
485.35	16269.06
485.53	16065.44
485.71	15962.45
485.89	16374.39
486.07	16325.24
486.25	16798.02
486.43	16795.68
486.61	16786.32
486.78	16994.63
486.96	17448.69
487.14	17474.44
487.32	17638.28
487.50	17593.81
487.68	17879.35
487.85	18478.53
488.03	18221.07
488.21	18532.36
488.39	18558.11
488.57	18310.01
488.75	18621.30
488.92	19236.86
489.10	19321.12
489.28	19255.59
489.46	19634.75
489.64	19253.25
489.81	19880.51
489.99	19999.88
490.17	19924.98
490.35	20208.19
490.53	20231.59
490.70	20357.98
490.88	20212.87
491.06	20765.23
491.24	20514.80
491.41	20531.18
491.59	20664.59
491.77	20524.16
491.95	20491.39
492.13	21284.83
492.30	21298.88
492.48	21511.86
492.66	21788.05
492.84	21752.94
493.01	21935.50
493.19	22059.55
493.37	21991.67
493.54	22162.53
493.72	22394.25
493.90	22113.38
494.08	22569.79
494.25	23014.49
494.43	23084.70
494.61	23218.11
494.79	23016.83
494.96	23164.28
495.14	23377.27
495.32	23555.15
495.49	23021.51
495.67	23585.58
495.85	23840.70
496.02	23953.04
496.20	24063.05
496.38	24233.91
496.55	24254.97
496.73	24905.64
496.91	24868.19
497.09	24870.53
497.26	24819.04
497.44	24938.41
497.62	25193.53
497.79	25144.38
497.97	25029.69
498.14	25158.42
498.32	25408.86
498.50	25408.86
498.67	25823.13
498.85	25755.26
499.03	26169.53
499.20	25837.17
499.38	26174.21
499.56	26267.83
499.73	26424.65
499.91	26085.27
500.08	26380.18
500.26	25902.71
500.44	26508.91
500.61	26380.18
500.79	26497.20
500.97	26452.73
501.14	26817.86
501.32	27028.51
501.49	26703.17
501.67	27180.64
501.84	27218.09
502.02	27028.51
502.20	27311.71
502.37	27552.79
502.55	27625.34
502.72	27833.65
502.90	27997.49
503.07	27714.28
503.25	27545.76
503.43	27850.03
503.60	27723.65
503.78	27761.09
503.95	28091.11
504.13	28072.39
504.30	28168.35
504.48	28573.26
504.65	28655.18
504.83	28294.74
505.01	29142.01
505.18	28563.90
505.36	29165.42
505.53	29055.41
505.71	29347.98
505.88	29673.31
506.06	28837.74
506.23	29371.38
506.41	29247.33
506.58	29493.09
506.76	29415.85
506.93	29919.07
507.11	29521.18
507.28	29659.27
507.46	29481.39
507.63	29773.95
507.81	29790.34
507.98	30246.74
508.16	30089.93
508.33	30237.38
508.50	30321.64
508.68	30436.33
508.85	30754.64
509.03	30855.28
509.20	31021.46
509.38	31260.20
509.55	30749.96
509.73	31185.30
509.90	31882.78
510.08	31299.98
510.25	31201.68
510.42	31241.47
510.60	31147.85
510.77	31473.18
510.95	31807.88
511.12	31606.59
511.30	31810.22
511.47	32034.91
511.64	31941.29
511.82	32222.16
511.99	31697.88
512.17	32325.14
512.34	31817.24
512.51	32460.89
512.69	32762.82
512.86	32528.77
513.04	32708.99
513.21	32723.03
513.38	32701.96
513.56	32542.81
513.73	32713.67
513.90	32531.11
514.08	32652.81
514.25	32858.78
514.43	33251.99
514.60	32863.46
514.77	33071.77
514.95	33645.20
515.12	33289.44
515.29	33504.77
515.47	33219.22
515.64	33305.82
515.81	33890.96
515.99	33441.57
516.16	33584.35
516.33	33090.49
516.51	33544.56
516.68	33078.79
516.85	32751.12
517.03	33340.93
517.20	33888.62
517.37	33858.19
517.54	34448.00
517.72	33710.74
517.89	33624.14
518.06	33610.09
518.24	33886.28
518.41	34043.09
518.58	34373.11
518.75	34330.98
518.93	34761.64
519.10	34391.83
519.27	34670.36
519.45	34843.56
519.62	35075.27
519.79	35007.39
519.96	34843.56
520.14	35194.64
520.31	34946.54
520.48	35201.66
520.65	35229.74
520.83	35690.83
521.00	35536.35
521.17	35215.70
521.34	35571.46
521.52	35590.19
521.69	36055.95
521.86	35959.99
522.03	35777.43
522.20	35826.58
522.38	35615.93
522.55	35803.17
522.72	36027.87
522.89	36240.86
523.07	36423.42
523.24	35810.20
523.41	36549.81
523.58	36400.01
523.75	37092.81
523.92	36928.97
524.10	36891.52
524.27	36959.40
524.44	36865.78
524.61	36964.08
524.78	37298.78
524.96	37273.03
525.13	37057.70
525.30	37347.93
525.47	37626.45
525.64	37275.37
525.81	37263.67
525.98	37305.80
526.16	37132.60
526.33	36935.99
526.50	37085.79
526.67	36636.41
526.84	36748.75
527.01	36872.80
527.18	37481.34
527.36	37933.06
527.53	38230.31
527.70	38305.21
527.87	37879.23
528.04	38146.05
528.21	38586.07
528.38	38122.65
528.55	38916.09
528.72	38302.87
528.89	39040.14
529.07	38103.92
529.24	38377.76
529.41	38412.87
529.58	38450.32
529.75	38363.72
529.92	38937.15
530.09	39068.22
530.26	39349.09
530.43	38850.55
530.60	38686.71
530.77	39058.86
530.94	39505.90
531.11	39072.90
531.28	38965.24
531.46	39194.61
531.63	38934.81
531.80	39208.65
531.97	38981.62
532.14	38960.56
532.31	38696.08
532.48	39248.44
532.65	39395.90
532.82	39405.26
532.99	39337.38
533.16	39400.58
533.33	39763.36
533.50	39550.37
533.67	39744.64
533.84	39384.19
534.01	39758.68
534.18	39384.19
534.35	40177.64
534.52	39948.26
534.69	40472.54
534.86	40175.30
535.03	40287.64
535.20	40357.86
535.37	40940.65
535.54	40840.01
535.71	40481.91
535.88	40470.20
536.05	40203.38
536.22	40179.98
536.38	41020.23
536.55	40559.14
536.72	40315.73
536.89	40404.67
537.06	40208.06
537.23	40498.29
537.40	40381.26
537.57	40987.46
537.74	41139.60
537.91	41177.04
538.08	41163.00
538.25	40446.80
538.42	40706.60
538.59	40823.62
538.75	40772.13
538.92	41308.11
539.09	41511.74
539.26	40744.05
539.43	41258.96
539.60	41188.75
539.77	40966.40
539.94	40896.18
540.11	41076.40
540.28	41158.32
540.44	41521.10
540.61	41462.59
540.78	41301.09
540.95	40879.80
541.12	40830.65
541.29	41366.63
541.46	41851.12
541.62	41731.75
541.79	41778.56
541.96	41593.66
542.13	41640.47
542.30	41633.45
542.47	41354.93
542.63	41771.54
542.80	41780.90
542.97	42082.83
543.14	42384.76
543.31	42082.83
543.48	42227.95
543.64	42050.06
543.81	42492.43
543.98	42368.38
544.15	42724.14
544.32	42487.74
544.48	43100.97
544.65	42150.71
544.82	42628.18
544.99	42471.36
545.16	42595.41
545.32	42646.90
545.49	43358.42
545.66	42822.44
545.83	42616.47
546.00	43161.82
546.16	42871.59
546.33	42249.01
546.50	42628.18
546.67	42951.17
546.83	42394.12
547.00	43000.32
547.17	42834.14
547.34	42967.55
547.50	43138.41
547.67	43473.11
547.84	43248.42
548.00	43470.77
548.17	43622.90
548.34	43248.42
548.51	43379.49
548.67	43398.21
548.84	43409.92
549.01	43510.56
549.18	43215.65
549.34	43526.94
549.51	43505.88
549.68	43679.08
549.84	43732.91
550.01	44315.70
550.18	43192.25
550.34	43945.90
550.51	43772.70
550.68	43569.07
550.84	43367.79
551.01	43491.83
551.18	44296.98
551.34	43922.49
551.51	43983.35
551.68	44032.50
551.84	44081.65
552.01	43761.00
552.18	43714.19
552.34	43803.13
552.51	44055.90
552.68	44102.71
552.84	44151.87
553.01	44238.47
553.18	44032.50
553.34	44273.57
553.51	44186.97
553.67	44252.51
553.84	44348.47
554.01	44697.21
554.17	44949.99
554.34	44612.95
554.51	44617.63
554.67	44425.71
554.84	44580.18
555.00	44285.28
555.17	44397.62
555.33	44528.69
555.50	44479.54
555.67	44428.05
555.83	44568.48
556.00	44655.08
556.16	44533.37
556.33	44596.57
556.50	44130.80
556.66	44371.88
556.83	44002.07
556.99	44636.36
557.16	44687.85
557.32	44533.37
557.49	44961.69
557.65	44847.00
557.82	44898.50
557.98	44685.51
558.15	45172.34
558.32	44563.80
558.48	44825.94
558.65	44760.40
558.81	44687.85
558.98	44786.15
559.14	44612.95
559.31	44594.23
559.47	44451.45
559.64	44772.11
559.80	44648.06
559.97	45172.34
560.13	44973.39
560.30	45237.87
560.46	44928.92
560.63	44744.02
560.79	45415.76
560.96	45638.11
561.12	45160.64
561.29	45085.74
561.45	44975.73
561.61	44924.24
561.78	44313.36
561.94	44828.28
562.11	44622.31
562.27	44598.91
562.44	45333.84
562.60	45226.17
562.77	45179.36
562.93	44727.64
563.10	45195.74
563.26	44973.39
563.42	45504.70
563.59	45287.03
563.75	44971.05
563.92	45588.95
564.08	45530.44
564.24	45317.45
564.41	45504.70
564.57	45085.74
564.74	45301.07
564.90	44896.16
565.07	44945.31
565.23	45598.32
565.39	45113.83
565.56	45221.49
565.72	44964.03
565.88	45242.56
566.05	45525.76
566.21	45298.73
566.38	45584.27
566.54	45291.71
566.70	45542.14
566.87	45823.01
567.03	45481.29
567.19	46239.62
567.36	45727.05
567.52	45572.57
567.68	45734.07
567.85	45394.69
568.01	45640.45
568.17	45631.08
568.34	45830.03
568.50	45345.54
568.66	45247.24
568.83	45663.85
568.99	45481.29
569.15	45333.84
569.32	45453.20
569.48	45581.93
569.64	45577.25
569.81	45511.72
569.97	45310.43
570.13	45305.75
570.30	44952.33
570.46	45198.09
570.62	44980.42
570.78	45137.23
570.95	45219.15
571.11	45387.67
571.27	45158.30
571.43	45242.56
571.60	45909.61
571.76	45338.52
571.92	45769.18
572.09	45666.19
572.25	45794.92
572.41	45834.71
572.57	45762.15
572.74	45851.09
572.90	45385.33
573.06	45818.33
573.22	45455.54
573.38	45619.38
573.55	45544.48
573.71	45855.78
573.87	45633.42
574.03	45556.19
574.20	45537.46
574.36	45696.62
574.52	45790.24
574.68	45675.55
574.84	45748.11
575.01	45647.47
575.17	45738.75
575.33	45525.76
575.49	45495.33
575.65	45937.69
575.82	45907.27
575.98	45404.05
576.14	45687.26
576.30	45635.77
576.46	45823.01
576.62	45633.42
576.79	45759.81
576.95	45188.72
577.11	46019.61
577.27	45771.52
577.43	45771.52
577.59	45031.91
577.75	45703.64
577.92	45404.05
578.08	45221.49
578.24	45090.42
578.40	45677.90
578.56	45181.70
578.72	45347.88
578.88	45750.45
579.04	45872.16
579.21	45574.91
579.37	45439.16
579.53	45670.87
579.69	46106.21
579.85	45808.96
580.01	45694.28
580.17	45446.18
580.33	45862.80
580.49	45947.06
580.65	46190.47
580.82	45598.32
580.98	45581.93
581.14	45647.47
581.30	45904.93
581.46	45607.68
581.62	45888.54
581.78	45881.52
581.94	46036.00
582.10	45799.60
582.26	45783.22
582.42	45865.14
582.58	45698.96
582.74	45834.71
582.90	46351.97
583.06	46068.76
583.22	45525.76
583.38	45904.93
583.54	45942.38
583.70	45921.31
583.86	45790.24
584.02	46036.00
584.18	45998.55
584.34	45961.10
584.50	45757.47
584.66	45862.80
584.82	45640.45
584.98	45722.37
585.14	46248.99
585.30	45446.18
585.46	45827.69
585.62	45502.35
585.78	45345.54
585.94	45495.33
586.10	45474.27
586.26	45556.19
586.42	46082.81
586.58	46288.77
586.74	45958.76
586.90	45598.32
587.06	45705.98
587.22	45827.69
587.38	45654.49
587.54	45801.94
587.70	45958.76
587.86	45619.38
588.02	45750.45
588.18	45628.74
588.34	45436.82
588.49	45368.94
588.65	44926.58
588.81	45223.83
588.97	45352.56
589.13	45095.10
589.29	45263.62
589.45	45492.99
589.61	45432.14
589.77	45883.86
589.93	45991.53
590.08	46291.12
