SpectraSuite Data File
++++++++++++++++++++++++++++++++++++
Date: Fri Oct 25 11:34:49 EDT 2013
User: price-jones
Dark Spectrum Present: No
Reference Spectrum Present: No
Number of Sampled Component Spectra: 1
Spectrometers: USB2+H05261
Integration Time (usec): 100000 (USB2+H05261)
Spectra Averaged: 1 (USB2+H05261)
Boxcar Smoothing: 0 (USB2+H05261)
Correct for Electrical Dark: No (USB2+H05261)
Strobe/Lamp Enabled: No (USB2+H05261)
Correct for Detector Non-linearity: No (USB2+H05261)
Correct for Stray Light: No (USB2+H05261)
Number of Pixels in Processed Spectrum: 2048
>>>>>Begin Processed Spectral Data<<<<<
365.73	271.50
365.92	271.50
366.12	271.50
366.32	208.31
366.52	175.54
366.72	124.05
366.91	189.58
367.11	210.65
367.31	105.32
367.51	201.29
367.70	198.95
367.90	208.31
368.10	112.35
368.30	182.56
368.49	173.20
368.69	170.86
368.89	224.69
369.09	182.56
369.28	170.86
369.48	238.73
369.68	222.35
369.87	175.54
370.07	299.59
370.27	297.25
370.47	346.40
370.66	507.90
370.86	496.19
371.06	528.96
371.25	507.90
371.45	559.39
371.65	507.90
371.84	535.98
372.04	552.37
372.24	554.71
372.44	594.50
372.63	634.29
372.83	566.41
373.03	631.94
373.22	578.11
373.42	573.43
373.62	608.54
373.81	685.78
374.01	681.10
374.21	585.13
374.40	631.94
374.60	638.97
374.79	645.99
374.99	620.24
375.19	641.31
375.38	650.67
375.58	657.69
375.78	650.67
375.97	650.67
376.17	704.50
376.37	688.12
376.56	725.57
376.76	643.65
376.95	606.20
377.15	723.23
377.35	730.25
377.54	727.91
377.74	713.86
377.93	737.27
378.13	704.50
378.33	683.44
378.52	770.04
378.72	723.23
378.91	655.35
379.11	683.44
379.31	688.12
379.50	711.52
379.70	723.23
379.89	730.25
380.09	643.65
380.28	727.91
380.48	704.50
380.68	669.39
380.87	636.63
381.07	662.37
381.26	720.88
381.46	774.72
381.65	767.70
381.85	744.29
382.04	760.67
382.24	711.52
382.43	739.61
382.63	688.12
382.83	690.46
383.02	718.54
383.22	802.80
383.41	741.95
383.61	779.40
383.80	786.42
384.00	748.97
384.19	856.64
384.39	751.31
384.58	802.80
384.78	861.32
384.97	793.44
385.17	891.74
385.36	795.78
385.56	849.61
385.75	842.59
385.95	837.91
386.14	807.48
386.34	819.19
386.53	873.02
386.72	858.98
386.92	805.14
387.11	842.59
387.31	851.96
387.50	835.57
387.70	826.21
387.89	830.89
388.09	835.57
388.28	830.89
388.48	842.59
388.67	919.83
388.86	856.64
389.06	891.74
389.25	898.77
389.45	863.66
389.64	891.74
389.84	938.55
390.03	903.45
390.22	978.34
390.42	978.34
390.61	929.19
390.81	910.47
391.00	903.45
391.19	971.32
391.39	976.00
391.58	1076.65
391.78	954.94
391.97	917.49
392.16	1025.15
392.36	1060.26
392.55	938.55
392.75	1041.54
392.94	924.51
393.13	992.39
393.33	1020.47
393.52	1020.47
393.71	1018.13
393.91	1050.90
394.10	999.41
394.29	1146.86
394.49	954.94
394.68	1100.05
394.88	1064.94
395.07	1102.39
395.26	1076.65
395.46	1118.78
395.65	1071.97
395.84	1114.10
396.04	1137.50
396.23	1165.59
396.42	1203.04
396.62	1137.50
396.81	1118.78
397.00	1245.16
397.19	1217.08
397.39	1165.59
397.58	1235.80
397.77	1158.57
397.97	1259.21
398.16	1093.03
398.35	1249.85
398.55	1214.74
398.74	1196.01
398.93	1404.32
399.12	1277.93
399.32	1289.64
399.51	1174.95
399.70	1338.79
399.90	1289.64
400.09	1401.98
400.28	1322.40
400.47	1310.70
400.67	1373.89
400.86	1371.55
401.05	1390.28
401.24	1406.66
401.44	1394.96
401.63	1357.51
401.82	1416.02
402.01	1411.34
402.21	1420.71
402.40	1357.51
402.59	1399.64
402.78	1523.69
402.97	1401.98
403.17	1495.60
403.36	1373.89
403.55	1514.33
403.74	1579.86
403.93	1657.10
404.13	1638.38
404.32	1509.65
404.51	1528.37
404.70	1619.65
404.89	1551.78
405.09	1589.22
405.28	1614.97
405.47	1528.37
405.66	1591.56
405.85	1795.19
406.05	1732.00
406.24	1675.82
406.43	1631.35
406.62	1673.48
406.81	1767.10
407.00	1664.12
407.20	1673.48
407.39	1668.80
407.58	1717.95
407.77	1771.79
407.96	1727.32
408.15	1764.76
408.34	1785.83
408.54	1813.92
408.73	1783.49
408.92	1832.64
409.11	1827.96
409.30	1907.54
409.49	1844.34
409.68	1870.09
409.87	1944.99
410.07	1886.47
410.26	1935.62
410.45	2064.35
410.64	1891.15
410.83	1902.86
411.02	2026.90
411.21	2129.89
411.40	2050.31
411.59	2043.29
411.78	2118.18
411.98	2080.74
412.17	2111.16
412.36	2148.61
412.55	2310.11
412.74	2094.78
412.93	2197.76
413.12	2256.28
413.31	2387.35
413.50	2284.36
413.69	2181.38
413.88	2298.41
414.07	2331.17
414.26	2345.22
414.45	2434.16
414.64	2356.92
414.83	2310.11
415.02	2516.08
415.22	2429.48
415.41	2408.41
415.60	2523.10
415.79	2473.95
415.98	2565.23
416.17	2633.10
416.36	2609.70
416.55	2548.84
416.74	2700.98
416.93	2626.08
417.12	2609.70
417.31	2640.12
417.50	2670.55
417.69	2850.77
417.88	2885.88
418.07	2766.51
418.26	2832.05
418.45	2750.13
418.64	2946.73
418.83	2871.84
419.02	2874.18
419.21	2986.52
419.39	2944.39
419.58	2911.63
419.77	2794.60
419.96	3000.57
420.15	3073.12
420.34	3089.51
420.53	2937.37
420.72	2965.46
420.91	3162.06
421.10	3098.87
421.29	3075.46
421.48	2995.89
421.67	3094.19
421.86	3110.57
422.05	3180.79
422.24	3126.96
422.43	3218.24
422.61	3208.87
422.80	3199.51
422.99	3269.73
423.18	3213.56
423.37	3213.56
423.56	3124.62
423.75	3178.45
423.94	3159.72
424.13	2974.82
424.32	3096.53
424.50	3258.03
424.69	3208.87
424.88	3265.05
425.07	3119.93
425.26	3169.09
425.45	3213.56
425.64	3187.81
425.83	3251.00
426.01	3318.88
426.20	3206.53
426.39	3281.43
426.58	3204.19
426.77	3407.82
426.96	3419.52
427.15	3342.28
427.33	3368.03
427.52	3396.12
427.71	3510.80
427.90	3323.56
428.09	3478.04
428.28	3349.31
428.46	3445.27
428.65	3421.86
428.84	3496.76
429.03	3578.68
429.22	3438.25
429.40	3478.04
429.59	3583.36
429.78	3513.14
429.97	3361.01
430.16	3541.23
430.34	3679.32
430.53	3784.65
430.72	3728.47
430.91	3707.41
431.10	3712.09
431.28	3639.53
431.47	3854.86
431.66	3733.15
431.85	3667.62
432.03	3866.56
432.22	3840.82
432.41	3763.58
432.60	3913.38
432.79	3843.16
432.97	3777.62
433.16	3864.22
433.35	3831.46
433.54	3845.50
433.72	3882.95
433.91	3960.19
434.10	4011.68
434.28	3920.40
434.47	4131.05
434.66	4030.40
434.85	4004.66
435.03	4044.45
435.22	4046.79
435.41	4215.30
435.59	4142.75
435.78	3969.55
435.97	4154.45
436.16	4287.86
436.34	4095.94
436.53	4241.05
436.72	4292.54
436.90	4198.92
437.09	4278.50
437.28	4231.69
437.46	4154.45
437.65	4264.46
437.84	4542.98
438.02	4318.29
438.21	4278.50
438.40	4306.59
438.58	4414.25
438.77	4589.79
438.96	4638.94
439.14	4664.69
439.33	4678.73
439.52	4603.83
439.70	4634.26
439.89	4765.33
440.08	4620.22
440.26	4779.37
440.45	4704.48
440.63	4800.44
440.82	4833.21
441.01	4779.37
441.19	4858.95
441.38	5006.41
441.57	5048.54
441.75	4945.55
441.94	5217.05
442.12	5020.45
442.31	5224.08
442.50	5071.94
442.68	5174.92
442.87	5156.20
443.05	5310.68
443.24	5261.52
443.43	5210.03
443.61	5116.41
443.80	5352.81
443.98	5245.14
444.17	4983.00
444.35	5336.42
444.54	5504.94
444.73	5408.98
444.91	5144.50
445.10	5434.72
445.28	5376.21
445.47	5336.42
445.65	5458.13
445.84	5437.06
446.02	5329.40
446.21	5313.02
446.39	5280.25
446.58	5446.43
446.77	5446.43
446.95	5270.89
447.14	5364.51
447.32	5448.77
447.51	5416.00
447.69	5446.43
447.88	5483.88
448.06	5593.88
448.25	5418.34
448.43	5542.39
448.62	5675.80
448.80	5556.43
448.99	5547.07
449.17	5603.24
449.36	5486.22
449.54	5701.54
449.73	5621.97
449.91	5603.24
450.10	5685.16
450.28	5715.59
450.46	5720.27
450.65	5703.89
450.83	5849.00
451.02	5724.95
451.20	5849.00
451.39	5874.74
451.57	5806.87
451.76	5799.85
451.94	5799.85
452.13	5860.70
452.31	5970.71
452.49	6059.65
452.68	5989.43
452.86	5902.83
453.05	6012.84
453.23	6071.35
453.42	5923.90
453.60	5844.32
453.78	6132.20
453.97	6087.73
454.15	6108.80
454.34	5895.81
454.52	6150.93
454.70	6193.06
454.89	6104.12
455.07	6228.17
455.26	6253.91
455.44	6368.60
455.62	6389.66
455.81	6333.49
455.99	6272.64
456.17	6317.11
456.36	6326.47
456.54	6541.80
456.73	6387.32
456.91	6607.33
457.09	6719.68
457.28	6644.78
457.46	6619.04
457.64	6651.80
457.83	6520.73
458.01	6427.11
458.19	6766.49
458.38	6754.79
458.56	6787.55
458.74	6857.77
458.93	6729.04
459.11	6752.45
459.29	6876.49
459.48	6876.49
459.66	6937.35
459.84	6881.18
460.03	7054.37
460.21	7000.54
460.39	7012.24
460.57	6993.52
460.76	6787.55
460.94	6937.35
461.12	7115.23
461.31	7260.34
461.49	6846.07
461.67	7089.48
461.85	7243.96
462.04	7019.27
462.22	7279.07
462.40	7286.09
462.59	7279.07
462.77	7356.30
462.95	7267.36
463.13	7377.37
463.32	7328.22
463.50	7609.08
463.68	7557.59
463.86	7384.39
464.05	7454.61
464.23	7480.35
464.41	7651.21
464.59	7344.60
464.78	7463.97
464.96	7658.23
465.14	7583.34
465.32	7576.31
465.50	7625.47
465.69	7637.17
465.87	7693.34
466.05	7482.69
466.23	7641.85
466.41	7861.86
466.60	7726.11
466.78	7641.85
466.96	7609.08
467.14	7859.52
467.32	7836.11
467.51	7878.24
467.69	7712.07
467.87	7845.48
468.05	7941.44
468.23	7751.85
468.41	7873.56
468.60	7815.05
468.78	7915.69
468.96	8161.45
469.14	8262.09
469.32	8210.60
469.50	8095.91
469.69	8088.89
469.87	8353.37
470.05	8306.56
470.23	8372.10
470.41	8341.67
470.59	8250.39
470.77	8297.20
470.95	8437.63
471.14	8383.80
471.32	8208.26
471.50	8554.66
471.68	8489.12
471.86	8505.51
472.04	8641.26
472.22	8718.50
472.40	8643.60
472.58	8830.84
472.77	8889.35
472.95	8755.94
473.13	9076.60
473.31	8830.84
473.49	8887.01
473.67	8826.16
473.85	9039.15
474.03	9022.77
474.21	9151.49
474.39	9198.31
474.57	9277.88
474.75	9369.16
474.93	9425.34
475.12	9423.00
475.30	9509.60
475.48	9399.59
475.66	9652.37
475.84	9551.73
476.02	9523.64
476.20	9652.37
476.38	9750.67
476.56	9991.75
476.74	10026.86
476.92	9832.59
477.10	9797.48
477.28	10146.22
477.46	10146.22
477.64	10097.07
477.82	10312.40
478.00	10492.62
478.18	10572.20
478.36	10546.45
478.54	10843.70
478.72	10714.97
478.90	10963.07
479.08	10740.72
479.26	10946.69
479.44	11040.31
479.62	11197.12
479.80	11311.81
479.98	11377.34
480.16	11452.24
480.34	11571.61
480.52	11503.73
480.70	11456.92
480.88	11410.11
481.06	11655.87
481.24	11735.45
481.41	11838.43
481.59	12067.80
481.77	12138.02
481.95	12166.10
482.13	12250.36
482.31	12166.10
482.49	12470.37
482.67	12659.96
482.85	12610.81
483.03	12575.70
483.21	12929.12
483.39	12917.42
483.57	12688.04
483.74	12879.97
483.92	12987.63
484.10	13177.22
484.28	13376.16
484.46	13685.11
484.64	13937.89
484.82	13701.50
485.00	13820.86
485.18	14101.73
485.35	14288.97
485.53	13970.66
485.71	14267.91
485.89	14382.59
486.07	14508.98
486.25	14546.43
486.43	14504.30
486.61	14892.83
486.78	14904.53
486.96	14736.01
487.14	15108.16
487.32	15049.64
487.50	15468.60
487.68	15433.49
487.85	15604.35
488.03	15527.11
488.21	15896.92
488.39	15889.90
488.57	16016.29
488.75	16486.73
488.92	16222.25
489.10	16350.98
489.28	16493.76
489.46	16875.26
489.64	16601.42
489.81	16884.62
489.99	17135.06
490.17	17142.08
490.35	17465.08
490.53	17294.22
490.70	17645.30
490.88	17542.32
491.06	17851.27
491.24	17645.30
491.41	17972.97
491.59	17745.94
491.77	18118.09
491.95	18288.95
492.13	18401.29
492.30	18396.61
492.48	18525.34
492.66	18740.67
492.84	18750.03
493.01	18824.93
493.19	19019.19
493.37	19307.08
493.54	19047.28
493.72	19363.25
493.90	19274.31
494.08	19332.82
494.25	19854.76
494.43	19875.83
494.61	19910.94
494.79	19796.25
494.96	20247.97
495.14	20060.73
495.32	20505.43
495.49	20514.80
495.67	20372.02
495.85	20718.42
496.02	20861.19
496.20	21123.33
496.38	21071.84
496.55	21352.71
496.73	21832.52
496.91	21315.26
497.09	21640.59
497.26	21612.51
497.44	21654.64
497.62	21823.16
497.79	21998.70
497.97	21912.10
498.14	22230.41
498.32	22150.83
498.50	22281.90
498.67	22368.50
498.85	22202.32
499.03	22328.71
499.20	22445.74
499.38	22651.70
499.56	22787.46
499.73	22803.84
499.91	22993.42
500.08	23295.35
500.26	23185.35
500.44	22937.25
500.61	23285.99
500.79	22974.70
500.97	23351.52
501.14	23377.27
501.32	23307.05
501.49	23859.42
501.67	24077.09
501.84	23910.91
502.02	24219.86
502.20	23903.89
502.37	24271.36
502.55	24442.21
502.72	24170.71
502.90	24161.35
503.07	24498.39
503.25	24566.26
503.43	24198.80
503.60	24875.21
503.78	24844.79
503.95	24706.70
504.13	25006.28
504.30	25153.74
504.48	25097.56
504.65	25111.61
504.83	25174.80
505.01	25483.75
505.18	25394.81
505.36	25572.69
505.53	25607.80
505.71	25621.84
505.88	26075.91
506.06	25905.05
506.23	26012.71
506.41	25858.24
506.58	26176.55
506.76	26057.18
506.93	26534.65
507.11	26153.15
507.28	26211.66
507.46	26263.15
507.63	26036.12
507.81	26799.13
507.98	26529.97
508.16	26405.92
508.33	26672.74
508.50	26916.16
508.68	26855.31
508.85	27068.30
509.03	27126.81
509.20	27552.79
509.38	27658.11
509.55	27606.62
509.73	27260.22
509.90	27576.19
510.08	27445.12
510.25	27648.75
510.42	27714.28
510.60	27922.59
510.77	27718.96
510.95	28573.26
511.12	28189.41
511.30	28264.31
511.47	27978.76
511.64	28273.67
511.82	28542.83
511.99	28603.69
512.17	28772.21
512.34	28755.82
512.51	28772.21
512.69	29048.39
512.86	28706.67
513.04	28959.45
513.21	28922.00
513.38	29212.23
513.56	29556.28
513.73	29406.49
513.90	29317.55
514.08	29340.96
514.25	29521.18
514.43	29565.65
514.60	29720.12
514.77	29420.53
514.95	30050.14
515.12	29582.03
515.29	29893.32
515.47	29923.75
515.64	30345.05
515.81	30129.72
515.99	30181.21
516.16	30487.82
516.33	30646.97
516.51	30389.52
516.68	30499.52
516.85	30375.47
517.03	30670.38
517.20	30637.61
517.37	30684.42
517.54	30731.23
517.72	30911.46
517.89	31166.57
518.06	30988.69
518.24	31449.78
518.41	31016.78
518.58	30829.54
518.75	30995.71
518.93	31185.30
519.10	31395.95
519.27	31164.23
519.45	31227.43
519.62	31908.52
519.79	31543.40
519.96	31585.53
520.14	31688.51
520.31	32095.77
520.48	31669.79
520.65	31892.14
520.83	32187.05
521.00	32051.30
521.17	32257.26
521.34	32601.32
521.52	32294.71
521.69	32830.69
521.86	32418.76
522.03	32732.39
522.20	32826.01
522.38	33090.49
522.55	32816.65
522.72	32917.29
522.89	32973.47
523.07	33083.47
523.24	33118.58
523.41	32833.04
523.58	33050.70
523.75	33422.85
523.92	33324.55
524.10	33577.33
524.27	33280.08
524.44	33244.97
524.61	33703.71
524.78	33804.36
524.96	33848.83
525.13	33677.97
525.30	34202.25
525.47	34019.69
525.64	33577.33
525.81	34136.71
525.98	34120.33
526.16	34204.59
526.33	34120.33
526.50	34415.24
526.67	34199.91
526.84	34817.81
527.01	34188.21
527.18	34352.04
527.36	34595.46
527.53	34693.76
527.70	34527.58
527.87	34876.32
528.04	34457.37
528.21	34838.87
528.38	34799.08
528.55	34993.35
528.72	34471.41
528.89	34859.94
529.07	34394.17
529.24	34759.30
529.41	35236.77
529.58	35613.59
529.75	35618.27
529.92	35529.33
530.09	35363.15
530.26	35562.10
530.43	35505.93
530.60	35398.26
530.77	35627.63
530.94	35395.92
531.11	35641.68
531.28	35625.29
531.46	35927.22
531.63	35772.75
531.80	35833.60
531.97	35990.42
532.14	35868.71
532.31	36025.53
532.48	36245.54
532.65	36278.30
532.82	36229.15
532.99	36163.62
533.16	35894.46
533.33	36706.62
533.50	36266.60
533.67	36072.34
533.84	36243.20
534.01	36507.68
534.18	36430.44
534.35	36851.73
534.52	36697.26
534.69	36907.91
534.86	36596.62
535.03	36823.65
535.20	36706.62
535.37	37008.55
535.54	37067.06
535.71	36662.15
535.88	36884.50
536.05	37249.63
536.22	37090.47
536.38	37598.37
536.55	37207.50
536.72	37125.58
536.89	37188.77
537.06	37085.79
537.23	37708.37
537.40	37221.54
537.57	37322.18
537.74	37202.82
537.91	37848.80
538.08	37656.88
538.25	37104.51
538.42	37881.57
538.59	38146.05
538.75	37902.64
538.92	37738.80
539.09	38029.02
539.26	38176.48
539.43	38122.65
539.60	38480.75
539.77	38082.86
539.94	38330.95
540.11	38216.27
540.28	38562.67
540.44	38546.28
540.61	38274.78
540.78	38195.20
540.95	38497.13
541.12	38792.04
541.29	38581.39
541.46	38426.92
541.62	38085.20
541.79	39014.39
541.96	38614.16
542.13	38529.90
542.30	38284.14
542.47	38843.53
542.63	38799.06
542.80	39592.50
542.97	39566.76
543.14	39463.77
543.31	38918.43
543.48	39419.30
543.64	39974.01
543.81	39751.66
543.98	39246.10
544.15	39524.63
544.32	39386.54
544.48	39906.13
544.65	39526.97
544.82	39622.93
544.99	39295.25
545.16	39927.20
545.32	39683.78
545.49	40126.14
545.66	39983.37
545.83	40306.37
546.00	40140.19
546.16	40142.53
546.33	39868.69
546.50	39915.50
546.67	40163.59
546.83	39548.03
547.00	40175.30
547.17	40037.20
547.34	39924.86
547.50	40165.93
547.67	40772.13
547.84	40748.73
548.00	40313.39
548.17	40842.35
548.34	40423.39
548.51	40690.21
548.67	40453.82
548.84	40538.08
549.01	40856.39
549.18	40622.34
549.34	41078.74
549.51	40612.98
549.68	40971.08
549.84	40947.67
550.01	40793.20
550.18	40680.85
550.34	41050.66
550.51	41062.36
550.68	40767.45
550.84	41170.02
551.01	41205.13
551.18	41284.71
551.34	41130.23
551.51	41235.56
551.68	41230.88
551.84	41177.04
552.01	41083.42
552.18	41600.68
552.34	40950.01
552.51	41457.91
552.68	40950.01
552.84	41277.69
553.01	41481.31
553.18	41532.81
553.34	41846.44
553.51	41338.54
553.67	41528.13
553.84	41591.32
554.01	41937.72
554.17	41895.59
554.34	42082.83
554.51	41631.11
554.67	42150.71
554.84	41748.14
555.00	41586.64
555.17	41560.89
555.33	41954.10
555.50	42129.64
555.67	41949.42
555.83	41970.49
556.00	42127.30
556.16	42380.08
556.33	42272.42
556.50	41904.95
556.66	42307.52
556.83	41993.89
556.99	42347.31
557.16	42373.06
557.32	42106.24
557.49	42593.07
557.65	42483.06
557.82	42501.79
557.98	42113.26
558.15	42344.97
558.32	42249.01
558.48	42768.61
558.65	42534.56
558.81	42698.39
558.98	42459.66
559.14	42539.24
559.31	42387.10
559.47	42773.29
559.64	42733.50
559.80	42822.44
559.97	43012.02
560.13	43028.41
560.30	42653.92
560.46	43023.73
560.63	42628.18
560.79	42899.68
560.96	43217.99
561.12	43257.78
561.29	42932.45
561.45	43112.67
561.61	42621.16
561.78	43187.56
561.94	43161.82
562.11	42909.04
562.27	43138.41
562.44	42717.12
562.60	43463.75
562.77	43049.47
562.93	42754.57
563.10	43346.72
563.26	42934.79
563.42	43863.98
563.59	42990.96
563.75	43056.50
563.92	43187.56
564.08	43091.60
564.24	43540.99
564.41	42918.40
564.57	42909.04
564.74	43746.95
564.90	43033.09
565.07	43438.00
565.23	43522.26
565.39	43332.68
565.56	43351.40
565.72	43208.63
565.88	43480.13
566.05	43555.03
566.21	43421.62
566.38	43562.05
566.54	43791.42
566.70	44023.14
566.87	43824.19
567.03	43641.63
567.19	43639.29
567.36	43166.50
567.52	43335.02
567.68	43901.43
567.85	43517.58
568.01	43910.79
568.17	43433.32
568.34	43660.35
568.50	43866.32
568.66	43648.65
568.83	43658.01
568.99	44156.55
569.15	43730.57
569.32	43878.02
569.48	43489.49
569.64	44179.95
569.81	43608.86
569.97	44006.75
570.13	44233.78
570.30	43924.83
570.46	44046.54
570.62	44177.61
570.78	44189.31
570.95	44137.82
571.11	44266.55
571.27	43653.33
571.43	43845.26
571.60	43746.95
571.76	43817.17
571.92	44076.97
572.09	43959.94
572.25	44027.82
572.41	43798.44
572.57	44217.40
572.74	44107.40
572.90	43962.28
573.06	44098.03
573.22	44547.42
573.38	44069.95
573.55	44046.54
573.71	44797.85
573.87	44437.41
574.03	44514.65
574.20	44381.24
574.36	44516.99
574.52	44116.76
574.68	44390.60
574.84	44149.53
575.01	44722.96
575.17	44231.44
575.33	44177.61
575.49	43875.68
575.65	44116.76
575.82	44201.02
575.98	44069.95
576.14	44804.88
576.30	44491.24
576.46	44282.94
576.62	44074.63
576.79	44055.90
576.95	44182.29
577.11	44119.10
577.27	44065.27
577.43	44369.54
577.59	44151.87
577.75	44371.88
577.92	44385.92
578.08	44573.16
578.24	44477.20
578.40	44250.17
578.56	44392.94
578.72	44512.31
578.88	44477.20
579.04	44184.63
579.21	44208.04
579.37	44739.34
579.53	44350.81
579.69	44481.88
579.85	44521.67
580.01	44545.08
580.17	44186.97
580.33	44788.49
580.49	44559.12
580.65	44622.31
580.82	44933.60
580.98	44296.98
581.14	44376.56
581.30	44446.77
581.46	44449.11
581.62	44009.09
581.78	44573.16
581.94	44533.37
582.10	44432.73
582.26	44369.54
582.42	44914.88
582.58	44432.73
582.74	44821.26
582.90	44732.32
583.06	44683.17
583.22	44430.39
583.38	44531.03
583.54	44463.16
583.70	44465.50
583.86	44818.92
584.02	44737.00
584.18	44755.72
584.34	44577.84
584.50	44931.26
584.66	44809.56
584.82	44711.25
584.98	45043.61
585.14	44538.05
585.30	44493.58
585.46	44498.26
585.62	44488.90
585.78	44807.22
585.94	44467.84
586.10	44673.81
586.26	44201.02
586.42	43950.58
586.58	44870.41
586.74	44687.85
586.90	44610.61
587.06	44516.99
587.22	45235.53
587.38	44245.49
587.54	44964.03
587.70	45151.27
587.86	44823.60
588.02	45132.55
588.18	44746.36
588.34	44612.95
588.49	44933.60
588.65	44659.76
588.81	44669.12
588.97	45078.72
589.13	44790.83
589.29	45017.86
589.45	45104.46
589.61	45247.24
589.77	44882.11
589.93	44879.77
590.08	45373.63
590.24	44816.58
