SpectraSuite Data File
++++++++++++++++++++++++++++++++++++
Date: Fri Oct 25 11:26:25 EDT 2013
User: price-jones
Dark Spectrum Present: No
Reference Spectrum Present: No
Number of Sampled Component Spectra: 1
Spectrometers: USB2+H05261
Integration Time (usec): 100000 (USB2+H05261)
Spectra Averaged: 1 (USB2+H05261)
Boxcar Smoothing: 0 (USB2+H05261)
Correct for Electrical Dark: No (USB2+H05261)
Strobe/Lamp Enabled: No (USB2+H05261)
Correct for Detector Non-linearity: No (USB2+H05261)
Correct for Stray Light: No (USB2+H05261)
Number of Pixels in Processed Spectrum: 2048
>>>>>Begin Processed Spectral Data<<<<<
365.73	245.76
365.92	245.76
366.12	245.76
366.32	91.28
366.52	98.30
366.72	222.35
366.91	133.41
367.11	191.92
367.31	147.45
367.51	84.26
367.70	187.24
367.90	149.79
368.10	140.43
368.30	119.37
368.49	140.43
368.69	180.22
368.89	131.07
369.09	65.54
369.28	189.58
369.48	224.69
369.68	212.99
369.87	191.92
370.07	194.26
370.27	210.65
370.47	388.53
370.66	669.39
370.86	643.65
371.06	622.58
371.25	730.25
371.45	657.69
371.65	655.35
371.84	662.37
372.04	732.59
372.24	638.97
372.44	725.57
372.63	723.23
372.83	753.65
373.03	774.72
373.22	805.14
373.42	763.01
373.62	753.65
373.81	755.99
374.01	823.87
374.21	770.04
374.40	889.40
374.60	763.01
374.79	840.25
374.99	788.76
375.19	828.55
375.38	755.99
375.58	770.04
375.78	854.30
375.97	903.45
376.17	873.02
376.37	919.83
376.56	943.24
376.76	943.24
376.95	786.42
377.15	887.06
377.35	882.38
377.54	891.74
377.74	781.74
377.93	912.81
378.13	971.32
378.33	858.98
378.52	931.53
378.72	877.70
378.91	947.92
379.11	924.51
379.31	924.51
379.50	950.26
379.70	1013.45
379.89	968.98
380.09	1043.88
380.28	987.71
380.48	1025.15
380.68	947.92
380.87	997.07
381.07	1048.56
381.26	1144.52
381.46	1022.81
381.65	1001.75
381.85	1053.24
382.04	966.64
382.24	1081.33
382.43	1057.92
382.63	1074.31
382.83	1039.20
383.02	1118.78
383.22	1036.86
383.41	1114.10
383.61	1107.07
383.80	1219.42
384.00	1125.80
384.19	1123.46
384.39	1125.80
384.58	1104.73
384.78	1158.57
384.97	1123.46
385.17	1235.80
385.36	1228.78
385.56	1114.10
385.75	1217.08
385.95	1254.53
386.14	1156.22
386.34	1238.14
386.53	1247.51
386.72	1146.86
386.92	1228.78
387.11	1177.29
387.31	1135.16
387.50	1263.89
387.70	1282.61
387.89	1188.99
388.09	1296.66
388.28	1296.66
388.48	1341.13
388.67	1352.83
388.86	1329.42
389.06	1350.49
389.25	1320.06
389.45	1413.68
389.64	1317.72
389.84	1390.28
390.03	1472.20
390.22	1444.11
390.42	1345.81
390.61	1313.04
390.81	1350.49
391.00	1430.07
391.19	1462.83
391.39	1416.02
391.58	1500.28
391.78	1554.12
391.97	1493.26
392.16	1467.52
392.36	1502.62
392.55	1533.05
392.75	1504.96
392.94	1556.46
393.13	1537.73
393.33	1507.30
393.52	1544.75
393.71	1575.18
393.91	1561.14
394.10	1476.88
394.29	1563.48
394.49	1589.22
394.68	1638.38
394.88	1556.46
395.07	1607.95
395.26	1729.66
395.46	1638.38
395.65	1678.16
395.84	1640.72
396.04	1696.89
396.23	1699.23
396.42	1820.94
396.62	1746.04
396.81	1853.70
397.00	1804.55
397.19	1888.81
397.39	1706.25
397.58	1863.07
397.77	1771.79
397.97	1830.30
398.16	1830.30
398.35	1994.14
398.55	1858.39
398.74	1888.81
398.93	2008.18
399.12	1886.47
399.32	1961.37
399.51	1919.24
399.70	1937.96
399.90	1921.58
400.09	2026.90
400.28	2003.50
400.47	2022.22
400.67	1935.62
400.86	2017.54
401.05	2022.22
401.24	2146.27
401.44	2129.89
401.63	2090.10
401.82	2162.66
402.01	2165.00
402.21	2162.66
402.40	2157.97
402.59	2150.95
402.78	2272.66
402.97	2204.78
403.17	2270.32
403.36	2258.62
403.55	2237.55
403.74	2342.88
403.93	2392.03
404.13	2340.54
404.32	2251.60
404.51	2361.60
404.70	2377.98
404.89	2354.58
405.09	2385.01
405.28	2431.82
405.47	2403.73
405.66	2392.03
405.85	2530.12
406.05	2452.88
406.24	2520.76
406.43	2544.16
406.62	2541.82
406.81	2670.55
407.00	2630.76
407.20	2602.68
407.39	2602.68
407.58	2619.06
407.77	2750.13
407.96	2729.06
408.15	2789.92
408.34	2686.94
408.54	2726.72
408.73	2806.30
408.92	2745.45
409.11	2832.05
409.30	2883.54
409.49	2897.58
409.68	2930.35
409.87	2818.00
410.07	2946.73
410.26	2928.01
410.45	3030.99
410.64	3014.61
410.83	2986.52
411.02	3042.70
411.21	3098.87
411.40	3136.32
411.59	3274.41
411.78	3255.69
411.98	3288.45
412.17	3225.26
412.36	3281.43
412.55	3309.52
412.74	3372.71
412.93	3365.69
413.12	3433.57
413.31	3480.38
413.50	3421.86
413.69	3405.48
413.88	3648.90
414.07	3555.27
414.26	3679.32
414.45	3625.49
414.64	3676.98
414.83	3850.18
415.02	3712.09
415.22	3831.46
415.41	3719.11
415.60	3698.05
415.79	3803.37
415.98	3985.93
416.17	3936.78
416.36	3934.44
416.55	4004.66
416.74	4109.98
416.93	3936.78
417.12	4105.30
417.31	4159.13
417.50	4114.66
417.69	4299.56
417.88	4332.33
418.07	4245.73
418.26	4318.29
418.45	4339.35
418.64	4568.73
418.83	4329.99
419.02	4390.84
419.21	4484.47
419.39	4472.76
419.58	4519.57
419.77	4447.02
419.96	4449.36
420.15	4484.47
420.34	4638.94
420.53	4608.51
420.72	4688.09
420.91	4578.09
421.10	4620.22
421.29	4873.00
421.48	4608.51
421.67	4648.30
421.86	4753.63
422.05	4578.09
422.24	4760.65
422.43	4844.91
422.61	4910.44
422.80	4905.76
422.99	4880.02
423.18	4926.83
423.37	5111.73
423.56	4898.74
423.75	4903.42
423.94	4882.36
424.13	4699.80
424.32	4819.16
424.50	4938.53
424.69	5132.79
424.88	5041.51
425.07	4828.53
425.26	4952.57
425.45	4940.87
425.64	4924.49
425.83	4924.49
426.01	4887.04
426.20	4954.91
426.39	4943.21
426.58	5118.75
426.77	4987.68
426.96	5050.88
427.15	5163.22
427.33	5093.01
427.52	4980.66
427.71	5195.99
427.90	5287.27
428.09	5359.83
428.28	5481.53
428.46	5341.10
428.65	5212.37
428.84	5526.00
429.03	5448.77
429.22	5420.68
429.40	5408.98
429.59	5427.70
429.78	5228.76
429.97	5338.76
430.16	5378.55
430.34	5657.07
430.53	5605.58
430.72	5689.84
430.91	5724.95
431.10	5610.26
431.28	5703.89
431.47	5811.55
431.66	5811.55
431.85	5783.46
432.03	5844.32
432.22	5888.79
432.41	5865.38
432.60	5944.96
432.79	6083.05
432.97	5923.90
433.16	5991.77
433.35	5923.90
433.54	6066.67
433.72	6024.54
433.91	6115.82
434.10	6036.24
434.28	6235.19
434.47	6160.29
434.66	6293.70
434.85	6251.57
435.03	6349.87
435.22	6246.89
435.41	6230.51
435.59	6326.47
435.78	6377.96
435.97	6401.37
436.16	6359.24
436.34	6544.14
436.53	6658.82
436.72	6597.97
436.90	6368.60
437.09	6499.67
437.28	6335.83
437.46	6623.72
437.65	6588.61
437.84	6691.59
438.02	6686.91
438.21	6693.93
438.40	6649.46
438.58	6960.75
438.77	6820.32
438.96	6911.60
439.14	7037.99
439.33	7206.51
439.52	7171.40
439.70	7311.83
439.89	7318.86
440.08	7461.63
440.26	7286.09
440.45	7311.83
440.63	7353.96
440.82	7651.21
441.01	7482.69
441.19	7461.63
441.38	7517.80
441.57	7740.15
441.75	7948.46
441.94	7932.08
442.12	7824.41
442.31	7906.33
442.50	7908.67
442.68	7941.44
442.87	7946.12
443.05	8042.08
443.24	8215.28
443.43	8093.57
443.61	8182.51
443.80	8163.79
443.98	8107.62
444.17	7726.11
444.35	8081.87
444.54	8259.75
444.73	8362.73
444.91	8283.16
445.10	8390.82
445.28	8339.33
445.47	8105.28
445.65	8140.38
445.84	8353.37
446.02	8325.29
446.21	8208.26
446.39	8280.82
446.58	8339.33
446.77	8451.67
446.95	8306.56
447.14	8571.04
447.32	8667.00
447.51	8669.34
447.69	8573.38
447.88	8428.27
448.06	8404.86
448.25	8594.45
448.43	8676.37
448.62	8549.98
448.80	8475.08
448.99	8627.21
449.17	8610.83
449.36	8725.52
449.54	8688.07
449.73	8968.93
449.91	8933.82
450.10	8788.71
450.28	9102.34
450.46	9085.96
450.65	8994.68
450.83	9165.54
451.02	9107.02
451.20	9100.00
451.39	9179.58
451.57	9027.45
451.76	9191.28
451.94	9263.84
452.13	9444.06
452.31	9479.17
452.49	8968.93
452.68	9535.34
452.86	9160.86
453.05	9444.06
453.23	9521.30
453.42	9329.38
453.60	9217.03
453.78	9406.61
453.97	9378.53
454.15	9345.76
454.34	9397.25
454.52	9479.17
454.70	9722.59
454.89	9720.24
455.07	9781.10
455.26	9844.29
455.44	9991.75
455.62	9916.85
455.81	9998.77
455.99	10108.77
456.17	9909.83
456.36	9935.57
456.54	10221.12
456.73	10181.33
456.91	10438.79
457.09	10506.66
457.28	10590.92
457.46	10186.01
457.64	10539.43
457.83	10293.68
458.01	10209.42
458.19	10668.16
458.38	10490.28
458.56	10710.29
458.74	10759.44
458.93	10829.66
459.11	10696.25
459.29	10626.03
459.48	10927.96
459.66	10843.70
459.84	10984.13
460.03	11091.80
460.21	10754.76
460.39	10881.15
460.57	11073.07
460.76	10911.58
460.94	11384.37
461.12	11077.76
461.31	11304.79
461.49	11108.18
461.67	11002.86
461.85	11475.65
462.04	11225.21
462.22	11779.92
462.40	11503.73
462.59	11360.96
462.77	11419.47
462.95	11485.01
463.13	11363.30
463.32	11522.46
463.50	11639.48
463.68	11602.04
463.86	11793.96
464.05	11506.07
464.23	11644.17
464.41	11901.62
464.59	11672.25
464.78	11976.52
464.96	11941.41
465.14	11784.60
465.32	11852.47
465.50	11943.75
465.69	12056.10
465.87	12053.76
466.05	12100.57
466.23	12044.40
466.41	12233.98
466.60	12554.63
466.78	12189.51
466.96	12126.32
467.14	12121.63
467.32	12308.88
467.51	12601.44
467.69	12212.92
467.87	12329.94
468.05	12475.06
468.23	12285.47
468.41	12332.28
468.60	12479.74
468.78	12681.02
468.96	12435.27
469.14	12564.00
469.32	12929.12
469.50	12603.78
469.69	12952.52
469.87	13076.57
470.05	12865.92
470.23	13282.54
470.41	13067.21
470.59	13341.05
470.77	12910.40
470.95	13123.38
471.14	13495.53
471.32	12814.43
471.50	13610.22
471.68	13336.37
471.86	13572.77
472.04	13870.01
472.22	13741.29
472.40	13820.86
472.58	13919.17
472.77	14045.55
472.95	13947.25
473.13	14324.08
473.31	14153.22
473.49	14225.78
473.67	13839.59
473.85	14342.80
474.03	14663.46
474.21	14340.46
474.39	14789.85
474.57	14588.56
474.75	14822.61
474.93	15272.00
475.12	15070.71
475.30	14846.02
475.48	14817.93
475.66	15124.54
475.84	15077.73
476.02	15126.88
476.20	15049.64
476.38	15433.49
476.56	15667.55
476.74	16004.58
476.92	15983.52
477.10	15665.21
477.28	15976.50
477.46	16114.59
477.64	16177.78
477.82	16142.67
478.00	16470.35
478.18	16835.47
478.36	16678.66
478.54	17214.64
478.72	16896.33
478.90	17345.71
479.08	17233.36
479.26	17839.56
479.44	17951.91
479.62	17666.36
479.80	17867.65
479.98	18045.53
480.16	18431.72
480.34	18291.29
480.52	18630.66
480.70	18382.57
480.88	18347.46
481.06	18429.38
481.24	18838.97
481.41	19377.30
481.59	19112.81
481.77	19403.04
481.95	19428.79
482.13	19903.92
482.31	19515.39
482.49	20018.60
482.67	19948.39
482.85	20023.28
483.03	20400.11
483.21	20521.82
483.39	20809.70
483.57	20837.79
483.74	21378.45
483.92	21394.84
484.10	21088.23
484.28	21685.06
484.46	21860.60
484.64	22223.39
484.82	21781.03
485.00	21998.70
485.18	22647.02
485.35	22740.64
485.53	22537.02
485.71	22689.15
485.89	23651.11
486.07	23384.29
486.25	23513.02
486.43	23674.52
486.61	23798.57
486.78	23913.25
486.96	23857.08
487.14	24582.65
487.32	24341.57
487.50	24886.92
487.68	25053.09
487.85	24936.07
488.03	25446.30
488.21	25680.36
488.39	25572.69
488.57	25722.49
488.75	26174.21
488.92	26010.37
489.10	26539.33
489.28	26431.67
489.46	27152.55
489.64	26862.33
489.81	27157.24
489.99	27461.51
490.17	27569.17
490.35	27840.67
490.53	28053.66
490.70	28367.29
490.88	28430.49
491.06	28971.15
491.24	28491.34
491.41	28744.12
491.59	29013.28
491.77	29139.67
491.95	29369.04
492.13	29460.32
492.30	29862.90
492.48	29846.51
492.66	30396.54
492.84	29996.31
493.01	30623.57
493.19	30536.97
493.37	30698.47
493.54	30852.94
493.72	31604.25
493.90	31484.89
494.08	31997.46
494.25	31658.09
494.43	31599.57
494.61	32442.17
494.79	32187.05
494.96	32385.99
495.14	32751.12
495.32	33137.30
495.49	33006.23
495.67	33333.91
495.85	33380.72
496.02	33434.55
496.20	33670.95
496.38	33593.71
496.55	33886.28
496.73	34471.41
496.91	34398.85
497.09	34462.05
497.26	34635.25
497.44	34752.27
497.62	35178.25
497.79	35386.56
497.97	35047.18
498.14	35934.24
498.32	36107.44
498.50	35976.37
498.67	36318.09
498.85	36290.01
499.03	36701.94
499.20	36364.90
499.38	36605.98
499.56	36814.29
499.73	37235.58
499.91	36966.42
500.08	37226.22
500.26	36952.38
500.44	37518.79
500.61	37624.11
500.79	37544.53
500.97	38075.84
501.14	38607.14
501.32	38543.94
501.49	38087.54
501.67	38328.61
501.84	38946.51
502.02	38611.82
502.20	38897.36
502.37	39077.58
502.55	39154.82
502.72	39407.60
502.90	39150.14
503.07	39412.28
503.25	39435.69
503.43	39728.25
503.60	39754.00
503.78	40013.80
503.95	40161.25
504.13	40053.59
504.30	40287.64
504.48	39974.01
504.65	40444.46
504.83	40596.59
505.01	41078.74
505.18	41420.46
505.36	41518.76
505.53	41083.42
505.71	41467.27
505.88	42230.29
506.06	41579.62
506.23	41769.20
506.41	41663.88
506.58	41996.23
506.76	42330.93
506.93	41883.89
507.11	41942.40
507.28	42316.89
507.46	42370.72
507.63	42792.01
507.81	43086.92
507.98	42733.50
508.16	42581.37
508.33	43435.66
508.50	43005.00
508.68	43257.78
508.85	43430.98
509.03	43405.23
509.20	43871.00
509.38	44215.06
509.55	44172.93
509.73	44350.81
509.90	44271.23
510.08	44566.14
510.25	44362.51
510.42	44849.35
510.60	44418.69
510.77	45078.72
510.95	45280.00
511.12	45233.19
511.30	44566.14
511.47	45352.56
511.64	45401.71
511.82	45825.35
511.99	45102.12
512.17	45771.52
512.34	45507.04
512.51	46387.08
512.69	46003.23
512.86	46333.24
513.04	46405.80
513.21	46281.75
513.38	46693.69
513.56	46902.00
513.73	46155.36
513.90	46913.70
514.08	46340.27
514.25	46880.93
514.43	46887.95
514.60	47255.42
514.77	47175.84
514.95	47470.75
515.12	47313.93
515.29	47089.24
515.47	47901.40
515.64	47971.62
515.81	47697.78
515.99	47878.00
516.16	48306.32
516.33	48381.21
516.51	48463.13
516.68	48236.10
516.85	48285.25
517.03	48189.29
517.20	48736.98
517.37	48442.07
517.54	48369.51
517.72	48701.87
517.89	48711.23
518.06	48802.51
518.24	48868.05
518.41	48945.28
518.58	49251.89
518.75	49326.79
518.93	49137.21
519.10	49186.36
519.27	49612.34
519.45	49191.04
519.62	49673.19
519.79	49900.22
519.96	49631.06
520.14	49911.92
520.31	49757.45
520.48	50387.05
520.65	50361.31
520.83	50333.22
521.00	50646.85
521.17	50300.45
521.34	50253.64
521.52	50590.68
521.69	50550.89
521.86	50796.65
522.03	51164.11
522.20	51105.60
522.38	51133.68
522.55	51180.49
522.72	51014.32
522.89	51297.52
523.07	51260.07
523.24	51428.59
523.41	51646.26
523.58	51405.19
523.75	51416.89
523.92	51278.80
524.10	51756.27
524.27	51786.69
524.44	51695.41
524.61	51913.08
524.78	52081.60
524.96	52275.87
525.13	51985.64
525.30	51976.28
525.47	52500.56
525.64	52619.92
525.81	52278.21
525.98	52435.02
526.16	52313.31
526.33	52521.62
526.50	52460.77
526.67	52692.48
526.84	52802.49
527.01	52767.38
527.18	52699.50
527.36	52807.17
527.53	53078.67
527.70	52945.26
527.87	52865.68
528.04	53020.16
528.21	53141.86
528.38	53277.61
528.55	53294.00
528.72	53296.34
528.89	53411.02
529.07	53326.77
529.24	53347.83
529.41	53738.70
529.58	53614.65
529.75	53574.86
529.92	53537.41
530.09	53858.07
530.26	53839.34
530.43	53909.56
530.60	53797.21
530.77	53413.37
530.94	54066.38
531.11	53523.37
531.28	54038.29
531.46	54080.42
531.63	54298.09
531.80	54155.32
531.97	53982.12
532.14	54354.26
532.31	54344.90
532.48	54464.27
532.65	54394.05
532.82	54569.59
532.99	54499.37
533.16	54323.83
533.33	54571.93
533.50	54838.75
533.67	54932.37
533.84	54710.02
534.01	54553.21
534.18	54550.87
534.35	55217.92
534.52	54756.83
534.69	55365.37
534.86	55199.19
535.03	54944.08
535.20	55070.46
535.37	55152.38
535.54	55145.36
535.71	54976.84
535.88	55203.88
536.05	55377.08
536.22	55379.42
536.38	55468.36
536.55	55395.80
536.72	55416.86
536.89	55217.92
537.06	55451.97
537.23	55683.69
537.40	55374.73
537.57	55707.09
537.74	55489.42
537.91	55854.54
538.08	55587.72
538.25	55578.36
538.42	55704.75
538.59	56058.17
538.75	55877.95
538.92	55903.70
539.09	56200.94
539.26	55522.19
539.43	55948.17
539.60	56030.08
539.77	56271.16
539.94	56353.08
540.11	56301.59
540.28	56107.32
540.44	56266.48
540.61	56231.37
540.78	56177.54
540.95	56289.88
541.12	56500.53
541.29	56219.67
541.46	56320.31
541.62	56549.68
541.79	56507.55
541.96	56339.04
542.13	56486.49
542.30	56563.73
542.47	56865.66
542.63	56671.39
542.80	56762.67
542.97	56804.80
543.14	57172.27
543.31	56996.73
543.48	56940.55
543.64	57251.84
543.81	57181.63
543.98	56914.81
544.15	57198.01
544.32	57223.76
544.48	57460.15
544.65	57167.58
544.82	57345.47
544.99	56996.73
545.16	57425.04
545.32	57221.42
545.49	57792.51
545.66	57570.16
545.83	57483.56
546.00	57509.30
546.16	57450.79
546.33	57387.60
546.50	57443.77
546.67	57595.90
546.83	57441.43
547.00	57439.09
547.17	57619.31
547.34	57820.59
547.50	57612.29
547.67	57939.96
547.84	57663.78
548.00	58157.63
548.17	58024.22
548.34	58113.16
548.51	58017.20
548.67	58103.80
548.84	57977.41
549.01	58040.60
549.18	58152.95
549.34	58197.42
549.51	58267.64
549.68	58115.50
549.84	58272.32
550.01	58342.53
550.18	58028.90
550.34	58190.40
550.51	58049.97
550.68	58305.09
550.84	58024.22
551.01	58300.40
551.18	58127.20
551.34	58244.23
551.51	58150.61
551.68	58536.80
551.84	58461.90
552.01	58216.14
552.18	58342.53
552.34	58429.13
552.51	58614.04
552.68	58368.28
552.84	58450.20
553.01	58869.15
553.18	58489.99
553.34	58717.02
553.51	58288.70
553.67	58710.00
553.84	58740.42
554.01	58941.71
554.17	58808.30
554.34	59065.76
554.51	58571.91
554.67	58955.75
554.84	58752.13
555.00	58642.12
555.17	58824.68
555.33	59065.76
555.50	58972.14
555.67	58855.11
555.83	59011.93
556.00	58878.52
556.16	59061.08
556.33	59082.14
556.50	59051.72
556.66	59159.38
556.83	58918.31
556.99	59306.83
557.16	59274.07
557.32	59344.28
557.49	59344.28
557.65	59011.93
557.82	59171.08
557.98	59217.89
558.15	59290.45
558.32	59320.88
558.48	59231.94
558.65	59465.99
558.81	59407.48
558.98	59358.33
559.14	59428.54
559.31	59536.21
559.47	59540.89
559.64	59564.29
559.80	59557.27
559.97	59426.20
560.13	59454.29
560.30	59718.77
560.46	59641.53
560.63	59587.70
560.79	59784.30
560.96	59545.57
561.12	59421.52
561.29	59671.96
561.45	59643.87
561.61	59688.34
561.78	59662.60
561.94	59627.49
562.11	59732.81
562.27	59760.90
562.44	59898.99
562.60	59903.67
562.77	59700.04
562.93	59604.08
563.10	60184.54
563.26	59896.65
563.42	60018.36
563.59	59906.01
563.75	59870.90
563.92	59842.82
564.08	59887.29
564.24	60116.66
564.41	59962.18
564.57	60018.36
564.74	59964.52
564.90	59978.57
565.07	60128.36
565.23	60090.91
565.39	59969.21
565.56	60123.68
565.72	60217.30
565.88	60111.98
566.05	60062.83
566.21	60058.15
566.38	60184.54
566.54	60130.70
566.70	60193.90
566.87	60427.95
567.03	60158.79
567.19	60252.41
567.36	60331.99
567.52	60200.92
567.68	60299.22
567.85	60161.13
568.01	60165.81
568.17	60198.58
568.34	60259.43
568.50	60172.83
568.66	59976.23
568.83	60310.92
568.99	60114.32
569.15	60413.91
569.32	60285.18
569.48	60381.14
569.64	60271.14
569.81	60198.58
569.97	60158.79
570.13	60437.31
570.30	60200.92
570.46	60376.46
570.62	60168.15
570.78	60266.45
570.95	60470.08
571.11	60491.15
571.27	60449.02
571.43	60299.22
571.60	60477.10
571.76	60404.55
571.92	60280.50
572.09	60416.25
572.25	60425.61
572.41	60458.38
572.57	60346.03
572.74	60666.69
572.90	60254.75
573.06	60336.67
573.22	60381.14
573.38	60537.96
573.55	60650.30
573.71	60671.37
573.87	60734.56
574.03	60575.40
574.20	60640.94
574.36	60404.55
574.52	60535.62
574.68	60568.38
574.84	60491.15
575.01	60650.30
575.17	60505.19
575.33	60650.30
575.49	60559.02
575.65	60640.94
575.82	60631.58
575.98	60687.75
576.14	60788.39
576.30	60802.44
576.46	60676.05
576.62	60559.02
576.79	60671.37
576.95	60568.38
577.11	60825.84
577.27	60673.71
577.43	60514.55
577.59	60456.04
577.75	60594.13
577.92	60355.39
578.08	60582.43
578.24	60790.73
578.40	60905.42
578.56	60837.54
578.72	60659.66
578.88	60786.05
579.04	60947.55
579.21	60463.06
579.37	60762.65
579.53	60940.53
579.69	60591.79
579.85	60573.06
580.01	60793.07
580.17	60626.90
580.33	60788.39
580.49	60896.06
580.65	60788.39
580.82	60598.81
580.98	60783.71
581.14	60657.32
581.30	60987.34
581.46	60757.97
581.62	60853.93
581.78	60664.35
581.94	60800.10
582.10	60769.67
582.26	60734.56
582.42	60779.03
582.58	60994.36
582.74	60720.52
582.90	60954.57
583.06	60549.66
583.22	60687.75
583.38	60732.22
583.54	60708.82
583.70	60786.05
583.86	60825.84
584.02	60807.12
584.18	60982.66
584.34	60781.37
584.50	60849.25
584.66	60774.35
584.82	60603.49
584.98	61106.71
585.14	60786.05
585.30	60870.31
585.46	60954.57
585.62	60879.67
585.78	61066.92
585.94	60629.24
586.10	60743.92
586.26	60816.48
586.42	61041.17
586.58	61024.79
586.74	61066.92
586.90	61003.72
587.06	60940.53
587.22	61113.73
587.38	60924.14
587.54	61083.30
587.70	61120.75
587.86	61097.34
588.02	60870.31
588.18	61062.24
588.34	60872.65
588.49	61132.45
