SpectraSuite Data File
++++++++++++++++++++++++++++++++++++
Date: Fri Oct 25 10:44:10 EDT 2013
User: price-jones
Dark Spectrum Present: No
Reference Spectrum Present: No
Number of Sampled Component Spectra: 1
Spectrometers: USB2+H05261
Integration Time (usec): 100000 (USB2+H05261)
Spectra Averaged: 1 (USB2+H05261)
Boxcar Smoothing: 0 (USB2+H05261)
Correct for Electrical Dark: No (USB2+H05261)
Strobe/Lamp Enabled: No (USB2+H05261)
Correct for Detector Non-linearity: No (USB2+H05261)
Correct for Stray Light: No (USB2+H05261)
Number of Pixels in Processed Spectrum: 2048
>>>>>Begin Processed Spectral Data<<<<<
365.73	72.56
365.92	72.56
366.12	72.56
366.32	79.58
366.52	7.02
366.72	156.82
366.91	21.06
367.11	30.43
367.31	84.26
367.51	0.00
367.70	37.45
367.90	39.79
368.10	0.00
368.30	0.00
368.49	0.00
368.69	0.00
368.89	32.77
369.09	0.00
369.28	72.56
369.48	105.32
369.68	58.51
369.87	126.39
370.07	107.66
370.27	98.30
370.47	208.31
370.66	339.38
370.86	402.57
371.06	461.09
371.25	507.90
371.45	503.22
371.65	526.62
371.84	358.10
372.04	449.38
372.24	510.24
372.44	519.60
372.63	407.25
372.83	526.62
373.03	631.94
373.22	521.94
373.42	524.28
373.62	568.75
373.81	568.75
374.01	564.07
374.21	461.09
374.40	540.66
374.60	608.54
374.79	599.18
374.99	608.54
375.19	608.54
375.38	617.90
375.58	566.41
375.78	578.11
375.97	528.96
376.17	664.71
376.37	596.84
376.56	543.00
376.76	561.73
376.95	571.09
377.15	599.18
377.35	620.24
377.54	662.37
377.74	657.69
377.93	608.54
378.13	716.20
378.33	695.14
378.52	744.29
378.72	634.29
378.91	601.52
379.11	636.63
379.31	734.93
379.50	589.82
379.70	716.20
379.89	678.76
380.09	685.78
380.28	653.01
380.48	589.82
380.68	688.12
380.87	622.58
381.07	711.52
381.26	753.65
381.46	751.31
381.65	791.10
381.85	681.10
382.04	711.52
382.24	699.82
382.43	795.78
382.63	636.63
382.83	653.01
383.02	765.36
383.22	681.10
383.41	741.95
383.61	713.86
383.80	798.12
384.00	814.51
384.19	690.46
384.39	765.36
384.58	723.23
384.78	854.30
384.97	788.76
385.17	823.87
385.36	748.97
385.56	814.51
385.75	821.53
385.95	821.53
386.14	842.59
386.34	894.08
386.53	779.40
386.72	741.95
386.92	957.28
387.11	828.55
387.31	870.68
387.50	901.11
387.70	856.64
387.89	837.91
388.09	770.04
388.28	877.70
388.48	828.55
388.67	917.49
388.86	929.19
389.06	961.96
389.25	931.53
389.45	887.06
389.64	922.17
389.84	1050.90
390.03	966.64
390.22	999.41
390.42	1013.45
390.61	1006.43
390.81	1067.28
391.00	1053.24
391.19	1118.78
391.39	1083.67
391.58	1081.33
391.78	1081.33
391.97	1008.77
392.16	1071.97
392.36	987.71
392.55	1006.43
392.75	978.34
392.94	1008.77
393.13	1011.11
393.33	1062.60
393.52	1034.52
393.71	1057.92
393.91	1153.88
394.10	1071.97
394.29	1137.50
394.49	1151.54
394.68	1128.14
394.88	1160.91
395.07	1165.59
395.26	1130.48
395.46	1247.51
395.65	1252.19
395.84	1224.10
396.04	1249.85
396.23	1238.14
396.42	1100.05
396.62	1104.73
396.81	1203.04
397.00	1151.54
397.19	1320.06
397.39	1284.95
397.58	1394.96
397.77	1329.42
397.97	1420.71
398.16	1451.13
398.35	1409.00
398.55	1352.83
398.74	1406.66
398.93	1521.35
399.12	1476.88
399.32	1500.28
399.51	1418.36
399.70	1605.61
399.90	1495.60
400.09	1671.14
400.28	1603.27
400.47	1568.16
400.67	1565.82
400.86	1657.10
401.05	1565.82
401.24	1689.87
401.44	1689.87
401.63	1743.70
401.82	1790.51
402.01	1729.66
402.21	1647.74
402.40	1706.25
402.59	1760.08
402.78	1717.95
402.97	1776.47
403.17	1783.49
403.36	1741.36
403.55	1891.15
403.74	1902.86
403.93	1884.13
404.13	1834.98
404.32	1823.28
404.51	1753.06
404.70	1853.70
404.89	1832.64
405.09	1898.17
405.28	1888.81
405.47	1912.22
405.66	2022.22
405.85	1886.47
406.05	1886.47
406.24	1919.24
406.43	2125.21
406.62	2012.86
406.81	2167.34
407.00	1982.43
407.20	2076.06
407.39	2031.58
407.58	2167.34
407.77	2129.89
407.96	2260.96
408.15	2207.13
408.34	2132.23
408.54	2136.91
408.73	2218.83
408.92	2279.68
409.11	2148.61
409.30	2279.68
409.49	2223.51
409.68	2270.32
409.87	2214.15
410.07	2377.98
410.26	2345.22
410.45	2420.11
410.64	2448.20
410.83	2420.11
411.02	2558.21
411.21	2635.44
411.40	2546.50
411.59	2576.93
411.78	2555.86
411.98	2623.74
412.17	2530.12
412.36	2698.64
412.55	2686.94
412.74	2747.79
412.93	2698.64
413.12	2621.40
413.31	2846.09
413.50	2813.32
413.69	2785.24
413.88	2885.88
414.07	2906.95
414.26	2956.10
414.45	2986.52
414.64	2935.03
414.83	3005.25
415.02	2981.84
415.22	3108.23
415.41	3014.61
415.60	3077.80
415.79	3105.89
415.98	3307.18
416.17	3255.69
416.36	3337.60
416.55	3220.58
416.74	3316.54
416.93	3206.53
417.12	3152.70
417.31	3398.46
417.50	3382.07
417.69	3370.37
417.88	3304.84
418.07	3566.98
418.26	3431.23
418.45	3510.80
418.64	3499.10
418.83	3517.83
419.02	3583.36
419.21	3545.91
419.39	3559.95
419.58	3485.06
419.77	3566.98
419.96	3648.90
420.15	3707.41
420.34	3719.11
420.53	3819.75
420.72	3852.52
420.91	3878.27
421.10	3812.73
421.29	3943.80
421.48	3751.88
421.67	3892.31
421.86	3679.32
422.05	3791.67
422.24	3784.65
422.43	3836.14
422.61	3789.33
422.80	3999.98
422.99	3904.01
423.18	3880.61
423.37	3974.23
423.56	3964.87
423.75	3913.38
423.94	3775.28
424.13	3632.51
424.32	3765.92
424.50	3796.35
424.69	3995.29
424.88	4035.08
425.07	3922.74
425.26	3779.97
425.45	3840.82
425.64	4093.60
425.83	4014.02
426.01	4004.66
426.20	3976.57
426.39	3955.51
426.58	3843.16
426.77	3953.16
426.96	4042.11
427.15	3929.76
427.33	4067.85
427.52	4095.94
427.71	4060.83
427.90	4109.98
428.09	4248.07
428.28	4184.88
428.46	4117.00
428.65	4170.83
428.84	4180.20
429.03	4173.18
429.22	4124.02
429.40	4098.28
429.59	4004.66
429.78	3934.44
429.97	3899.33
430.16	3983.59
430.34	4133.39
430.53	4102.96
430.72	4142.75
430.91	4198.92
431.10	4442.34
431.28	4496.17
431.47	4692.77
431.66	4809.80
431.85	4510.21
432.03	4486.81
432.22	4706.82
432.41	4606.17
432.60	4634.26
432.79	4748.95
432.97	4819.16
433.16	4566.39
433.35	4713.84
433.54	4578.09
433.72	4617.88
433.91	4578.09
434.10	4725.54
434.28	4692.77
434.47	4681.07
434.66	4919.81
434.85	5039.17
435.03	4961.94
435.22	4894.06
435.41	5001.72
435.59	5039.17
435.78	5132.79
435.97	5057.90
436.16	5214.71
436.34	5085.98
436.53	5280.25
436.72	5231.10
436.90	4961.94
437.09	5151.52
437.28	5029.81
437.46	5268.55
437.65	5093.01
437.84	5191.31
438.02	5170.24
438.21	5135.14
438.40	5221.74
438.58	5263.86
438.77	5446.43
438.96	5345.78
439.14	5523.66
439.33	5661.76
439.52	5544.73
439.70	5579.84
439.89	5741.33
440.08	5462.81
440.26	5741.33
440.45	5762.40
440.63	5963.68
440.82	6003.47
441.01	5891.13
441.19	5713.25
441.38	6080.71
441.57	6202.42
441.75	6071.35
441.94	6190.72
442.12	6265.61
442.31	6277.32
442.50	6258.59
442.68	6218.80
442.87	6256.25
443.05	6244.55
443.24	6349.87
443.43	6293.70
443.61	6197.74
443.80	6740.74
443.98	6359.24
444.17	6066.67
444.35	6443.49
444.54	6551.16
444.73	6546.48
444.91	6516.05
445.10	6492.65
445.28	6462.22
445.47	6321.79
445.65	6366.26
445.84	6560.52
446.02	6544.14
446.21	6637.76
446.39	6380.30
446.58	6614.35
446.77	6635.42
446.95	6593.29
447.14	6668.19
447.32	6799.26
447.51	6670.53
447.69	6602.65
447.88	6593.29
448.06	6679.89
448.25	6478.60
448.43	6745.42
448.62	6679.89
448.80	6820.32
448.99	6839.05
449.17	6932.67
449.36	6855.43
449.54	6916.28
449.73	6995.86
449.91	7056.72
450.10	7138.63
450.28	7206.51
450.46	7183.10
450.65	7353.96
450.83	7236.94
451.02	7204.17
451.20	7304.81
451.39	7377.37
451.57	7258.00
451.76	7119.91
451.94	7253.32
452.13	7232.26
452.31	7096.50
452.49	7082.46
452.68	7176.08
452.86	7026.29
453.05	7445.24
453.23	7386.73
453.42	7192.47
453.60	7349.28
453.78	7372.69
453.97	7375.03
454.15	7372.69
454.34	7405.46
454.52	7548.23
454.70	7590.36
454.89	7623.12
455.07	7545.89
455.26	7627.81
455.44	7674.62
455.62	7716.75
455.81	7679.30
455.99	7822.07
456.17	7737.81
456.36	8163.79
456.54	7936.76
456.73	7941.44
456.91	8269.11
457.09	7948.46
457.28	8152.09
457.46	8018.68
457.64	8203.58
457.83	8081.87
458.01	8065.49
458.19	7964.84
458.38	8109.96
458.56	8250.39
458.74	8285.50
458.93	8142.72
459.11	8299.54
459.29	8224.64
459.48	8388.48
459.66	8135.70
459.84	8372.10
460.03	8711.47
460.21	8482.10
460.39	8540.61
460.57	8306.56
460.76	8615.51
460.94	8533.59
461.12	8655.30
461.31	8617.85
461.49	8676.37
461.67	8578.06
461.85	8760.63
462.04	8746.58
462.22	8985.32
462.40	8950.21
462.59	8767.65
462.77	8690.41
462.95	8940.85
463.13	8779.35
463.32	8727.86
463.50	8990.00
463.68	9029.79
463.86	8917.44
464.05	8837.86
464.23	8894.04
464.41	9053.19
464.59	8997.02
464.78	9128.09
464.96	9238.09
465.14	9013.40
465.32	8992.34
465.50	9085.96
465.69	9212.35
465.87	9092.98
466.05	9142.13
466.23	8982.98
466.41	9186.60
466.60	9275.54
466.78	9249.80
466.96	9102.34
467.14	9287.25
467.32	9158.52
467.51	9495.55
467.69	9111.71
467.87	9378.53
468.05	9380.87
468.23	9397.25
468.41	9413.63
468.60	9399.59
468.78	9633.64
468.96	9476.83
469.14	9568.11
469.32	9650.03
469.50	9603.22
469.69	9699.18
469.87	9778.76
470.05	9774.08
470.23	9760.03
470.41	9865.36
470.59	9760.03
470.77	9804.50
470.95	9994.09
471.14	10335.81
471.32	10143.88
471.50	10003.45
471.68	10132.18
471.86	10300.70
472.04	10181.33
472.22	10384.96
472.40	9968.34
472.58	10434.11
472.77	10319.42
472.95	10588.58
473.13	10930.30
473.31	10363.89
473.49	10445.81
473.67	10602.63
473.85	10698.59
474.03	10815.62
474.21	10789.87
474.39	11136.27
474.57	10843.70
474.75	11056.69
474.93	10909.24
475.12	11122.23
475.30	10998.18
475.48	11253.30
475.66	11358.62
475.84	11089.46
476.02	11367.98
476.20	11279.04
476.38	11580.97
476.56	11955.46
476.74	11847.79
476.92	11550.54
477.10	11910.99
477.28	11981.20
477.46	11808.00
477.64	12016.31
477.82	12250.36
478.00	12716.13
478.18	12374.41
478.36	12524.21
478.54	12526.55
478.72	12538.25
478.90	13046.15
479.08	13036.78
479.26	13186.58
479.44	12758.26
479.62	13109.34
479.80	13319.99
479.98	13432.33
480.16	13657.03
480.34	13584.47
480.52	13750.65
480.70	13788.10
480.88	13373.82
481.06	13886.40
481.24	13715.54
481.41	14249.18
481.59	14427.06
481.77	14420.04
481.95	14476.21
482.13	14684.52
482.31	14665.80
482.49	14867.08
482.67	14707.93
482.85	15019.22
483.03	15150.29
483.21	15290.72
483.39	15339.87
483.57	15220.50
483.74	15499.03
483.92	15534.14
484.10	15534.14
484.28	15854.79
484.46	16203.53
484.64	16451.63
484.82	16086.50
485.00	16156.72
485.18	16266.72
485.35	16409.50
485.53	15960.11
485.71	16077.14
485.89	16163.74
486.07	16177.78
486.25	16774.62
486.43	16943.14
486.61	16968.88
486.78	16950.16
486.96	17123.36
487.14	17500.19
487.32	17734.24
487.50	17933.18
487.68	18162.56
487.85	18544.06
488.03	18258.52
488.21	18618.96
488.39	18464.49
488.57	18677.48
488.75	18595.56
488.92	18923.23
489.10	19215.80
489.28	19407.72
489.46	19566.88
489.64	19381.98
489.81	20173.08
489.99	20175.42
490.17	20098.18
490.35	20388.41
490.53	20042.01
490.70	20552.24
490.88	20280.74
491.06	20844.81
491.24	20585.01
491.41	20570.97
491.59	21001.63
491.77	20678.63
491.95	21006.31
492.13	21298.88
492.30	21607.83
492.48	21774.00
492.66	21600.80
492.84	21820.81
493.01	22232.75
493.19	21813.79
493.37	22235.09
493.54	21954.22
493.72	22759.37
493.90	22319.35
494.08	22944.27
494.25	23014.49
494.43	23096.41
494.61	23491.96
494.79	23290.67
494.96	23405.36
495.14	23527.06
495.32	23461.53
495.49	23487.28
495.67	23887.51
495.85	24156.67
496.02	24280.72
496.20	24208.16
496.38	24514.77
496.55	24423.49
496.73	25163.10
496.91	24996.92
497.09	24940.75
497.26	25055.43
497.44	25006.28
497.62	25259.06
497.79	25680.36
497.97	24903.30
498.14	25546.95
498.32	25678.02
498.50	25582.06
498.67	26171.87
498.85	25961.22
499.03	25998.67
499.20	25989.31
499.38	26029.10
499.56	26363.79
499.73	26293.58
499.91	26338.05
500.08	26527.63
500.26	26375.50
500.44	26256.13
500.61	26513.59
500.79	26630.62
500.97	26632.96
501.14	26761.69
501.32	26906.80
501.49	27028.51
501.67	27157.24
501.84	27592.58
502.02	27754.07
502.20	27456.82
502.37	27906.21
502.55	27936.63
502.72	28023.23
502.90	27997.49
503.07	27917.91
503.25	28297.08
503.43	27847.69
503.60	28184.73
503.78	28435.17
503.95	28229.20
504.13	28554.54
504.30	28606.03
504.48	28655.18
504.65	28905.62
504.83	29347.98
505.01	28999.24
505.18	29277.76
505.36	29277.76
505.53	29132.65
505.71	29546.92
505.88	29270.74
506.06	29298.83
506.23	29495.43
506.41	29593.73
506.58	30139.08
506.76	29425.22
506.93	30237.38
507.11	30125.04
507.28	29902.68
507.46	30038.44
507.63	29916.73
507.81	30188.23
507.98	30148.44
508.16	30146.10
508.33	30689.10
508.50	30792.09
508.68	30714.85
508.85	31292.96
509.03	30991.03
509.20	30918.48
509.38	31377.22
509.55	31328.07
509.73	31143.17
509.90	31285.94
510.08	31421.69
510.25	31079.97
510.42	31501.27
510.60	32048.96
510.77	31732.98
510.95	31857.03
511.12	31878.10
511.30	32360.25
511.47	31866.39
511.64	32364.93
511.82	32402.38
511.99	32058.32
512.17	32397.70
512.34	32346.20
512.51	32657.49
512.69	32472.59
512.86	33116.24
513.04	32945.38
513.21	32987.51
513.38	32512.38
513.56	33188.80
513.73	32744.09
513.90	32971.13
514.08	33071.77
514.25	33448.60
514.43	32978.15
514.60	33404.13
514.77	33277.74
514.95	33795.00
515.12	33413.49
515.29	33628.82
515.47	33965.85
515.64	33710.74
515.81	33607.75
515.99	33862.87
516.16	33528.17
516.33	33612.43
516.51	33855.85
516.68	33198.16
516.85	33261.35
517.03	33336.25
517.20	33984.58
517.37	34497.16
517.54	34558.01
517.72	33764.57
517.89	33998.62
518.06	33797.34
518.24	34141.39
518.41	34143.74
518.58	34497.16
518.75	34302.89
518.93	34637.59
519.10	34677.38
519.27	35009.73
519.45	35257.83
519.62	35388.90
519.79	35119.74
519.96	35505.93
520.14	35426.35
520.31	35056.54
520.48	35737.64
520.65	35309.32
520.83	35763.39
521.00	36161.28
521.17	35545.72
521.34	36093.40
521.52	36205.75
521.69	36285.33
521.86	36203.41
522.03	36573.21
522.20	36580.23
522.38	36699.60
522.55	36332.14
522.72	36201.07
522.89	36727.69
523.07	36858.76
523.24	36299.37
523.41	37102.17
523.58	36772.16
523.75	37315.16
523.92	37516.45
524.10	37420.48
524.27	36959.40
524.44	37310.48
524.61	37579.64
524.78	37670.92
524.96	37596.03
525.13	37614.75
525.30	37876.89
525.47	37970.51
525.64	37813.70
525.81	37670.92
525.98	37589.00
526.16	37291.76
526.33	37368.99
526.50	37839.44
526.67	37181.75
526.84	37165.37
527.01	37584.32
527.18	38162.43
527.36	37532.83
527.53	38199.88
527.70	38403.51
527.87	38356.70
528.04	38602.46
528.21	38148.39
528.38	38543.94
528.55	39140.78
528.72	38778.00
528.89	38953.54
529.07	38869.28
529.24	38728.84
529.41	38572.03
529.58	38871.62
529.75	38646.93
529.92	38939.49
530.09	38855.23
530.26	39304.62
530.43	39384.19
530.60	38951.20
530.77	39515.26
530.94	39297.59
531.11	39360.79
531.28	39611.23
531.46	39608.89
531.63	39861.66
531.80	39531.65
531.97	39620.59
532.14	39957.63
532.31	39332.70
532.48	39002.69
532.65	39805.49
532.82	39751.66
532.99	39552.71
533.16	39625.27
533.33	39882.73
533.50	40203.38
533.67	40154.23
533.84	39938.90
534.01	40004.44
534.18	40067.63
534.35	40119.12
534.52	40212.74
534.69	40636.38
534.86	40573.19
535.03	40610.64
535.20	41223.86
535.37	40975.76
535.54	41275.35
535.71	40669.15
535.88	40673.83
536.05	40437.44
536.22	41111.51
536.38	40547.44
536.55	40758.09
536.72	40851.71
536.89	41060.02
537.06	40919.59
537.23	40678.51
537.40	41544.51
537.57	41375.99
537.74	41357.27
537.91	41493.02
538.08	41130.23
538.25	40985.12
538.42	40987.46
538.59	41532.81
538.75	40966.40
538.92	40973.42
539.09	41624.09
539.26	41345.56
539.43	41549.19
539.60	40964.06
539.77	41193.43
539.94	41420.46
540.11	41256.62
540.28	41411.10
540.44	41570.25
540.61	41787.92
540.78	41088.10
540.95	40992.14
541.12	41537.49
541.29	41612.38
541.46	41841.76
541.62	42075.81
541.79	42218.58
541.96	41773.88
542.13	41954.10
542.30	41918.99
542.47	42103.90
542.63	42089.85
542.80	42213.90
542.97	42534.56
543.14	42396.46
543.31	42445.62
543.48	42443.27
543.64	42918.40
543.81	43023.73
543.98	43070.54
544.15	42700.73
544.32	43161.82
544.48	43115.01
544.65	42806.06
544.82	43220.33
544.99	42831.80
545.16	42918.40
545.32	42792.01
545.49	43440.34
545.66	43215.65
545.83	43129.05
546.00	43243.74
546.16	43210.97
546.33	43047.13
546.50	42920.74
546.67	43044.79
546.83	42925.42
547.00	43145.44
547.17	43199.27
547.34	43372.47
547.50	43091.60
547.67	43739.93
547.84	43683.76
548.00	44030.16
548.17	43810.15
548.34	43852.28
548.51	43981.01
548.67	44208.04
548.84	43945.90
549.01	43594.82
549.18	43756.32
549.34	43927.17
549.51	43999.73
549.68	43966.96
549.84	43803.13
550.01	44236.12
550.18	43985.69
550.34	43941.22
550.51	44179.95
550.68	43728.23
550.84	43264.80
551.01	44273.57
551.18	43889.73
551.34	44189.31
551.51	44395.28
551.68	44526.35
551.84	44526.35
552.01	44282.94
552.18	44416.35
552.34	43704.82
552.51	44414.01
552.68	44133.14
552.84	44268.89
553.01	44634.02
553.18	44416.35
553.34	44170.59
553.51	43948.24
553.67	44765.09
553.84	44886.79
554.01	45202.77
554.17	44645.72
554.34	44978.07
554.51	44699.55
554.67	45137.23
554.84	45207.45
555.00	44886.79
555.17	44264.21
555.33	44631.68
555.50	44713.59
555.67	44797.85
555.83	44479.54
556.00	44444.43
556.16	45132.55
556.33	44870.41
556.50	44718.28
556.66	44952.33
556.83	44524.01
556.99	45326.81
557.16	45284.68
557.32	45214.47
557.49	44947.65
557.65	44978.07
557.82	45081.06
557.98	44734.66
558.15	45085.74
558.32	45378.31
558.48	45059.99
558.65	45090.42
558.81	45078.72
558.98	45429.80
559.14	45361.92
559.31	44781.47
559.47	45450.86
559.64	45844.07
559.80	45588.95
559.97	45404.05
560.13	45017.86
560.30	45038.93
560.46	45439.16
560.63	45399.37
560.79	45787.90
560.96	45778.54
561.12	45474.27
561.29	45656.83
561.45	45455.54
561.61	45502.35
561.78	45333.84
561.94	45139.57
562.11	45518.74
562.27	45443.84
562.44	45619.38
562.60	45911.95
562.77	45954.08
562.93	45904.93
563.10	45551.51
563.26	45263.62
563.42	46131.96
563.59	45745.77
563.75	45720.02
563.92	45741.09
564.08	45490.65
564.24	45893.22
564.41	45745.77
564.57	45621.72
564.74	45785.56
564.90	45888.54
565.07	46066.42
565.23	45935.35
565.39	46014.93
565.56	45815.99
565.72	45404.05
565.88	45738.75
566.05	45478.95
566.21	45474.27
566.38	45588.95
566.54	45989.19
566.70	45991.53
566.87	46302.82
567.03	45698.96
567.19	46394.10
567.36	45818.33
567.52	45794.92
567.68	46115.58
567.85	46036.00
568.01	45918.97
568.17	46024.29
568.34	46057.06
568.50	46160.05
568.66	46019.61
568.83	45766.84
568.99	45521.08
569.15	45347.88
569.32	46033.66
569.48	45656.83
569.64	46438.57
569.81	45823.01
569.97	46068.76
570.13	45689.60
570.30	45647.47
570.46	45371.28
570.62	45675.55
570.78	46028.98
570.95	45696.62
571.11	46305.16
571.27	45818.33
571.43	45792.58
571.60	45991.53
571.76	45890.88
571.92	46047.70
572.09	45982.16
572.25	46220.90
572.41	46073.45
572.57	46188.13
572.74	46443.25
572.90	46169.41
573.06	46344.95
573.22	46450.27
573.38	46377.72
573.55	45757.47
573.71	46525.17
573.87	45963.44
574.03	46246.65
574.20	45815.99
574.36	45869.82
574.52	46244.30
574.68	46171.75
574.84	46047.70
575.01	46440.91
575.17	45907.27
575.33	45626.40
575.49	45633.42
575.65	46337.93
575.82	46188.13
575.98	46127.28
576.14	46557.94
576.30	46302.82
576.46	46113.23
576.62	45961.10
576.79	46241.96
576.95	45825.35
577.11	46246.65
577.27	46335.59
577.43	46756.88
577.59	46092.17
577.75	46230.26
577.92	45720.02
578.08	45907.27
578.24	46017.27
578.40	45998.55
578.56	46536.87
578.72	45853.44
578.88	46260.69
579.04	46328.56
579.21	45947.06
579.37	46122.60
579.53	45963.44
579.69	45940.04
579.85	45968.12
580.01	46319.20
580.17	46204.52
580.33	46094.51
580.49	46508.79
580.65	46358.99
580.82	46258.35
580.98	46349.63
581.14	46026.63
581.30	46887.95
581.46	46185.79
581.62	46279.41
581.78	46183.45
581.94	46714.75
582.10	46113.23
582.26	46117.92
582.42	46422.19
582.58	46192.81
582.74	46134.30
582.90	46600.07
583.06	46461.97
583.22	46202.18
583.38	46632.83
583.54	46632.83
583.70	46728.80
583.86	46845.82
584.02	46082.81
584.18	45965.78
584.34	46288.77
584.50	46466.66
584.66	46564.96
584.82	46155.36
584.98	46246.65
585.14	46415.16
585.30	46321.54
585.46	46356.65
585.62	45979.82
585.78	46199.83
585.94	46115.58
586.10	46054.72
586.26	45977.48
586.42	46443.25
586.58	46267.71
586.74	46134.30
586.90	46188.13
587.06	46260.69
587.22	46096.85
587.38	46192.81
587.54	46337.93
587.70	46621.13
587.86	46148.34
588.02	46265.37
588.18	46426.87
588.34	46057.06
588.49	46043.02
588.65	45652.15
588.81	45787.90
588.97	45528.10
589.13	45766.84
589.29	45825.35
589.45	45991.53
589.61	46195.15
589.77	46499.42
589.93	46279.41
590.08	46614.11
