SpectraSuite Data File
++++++++++++++++++++++++++++++++++++
Date: Fri Oct 25 11:34:14 EDT 2013
User: price-jones
Dark Spectrum Present: No
Reference Spectrum Present: No
Number of Sampled Component Spectra: 1
Spectrometers: USB2+H05261
Integration Time (usec): 100000 (USB2+H05261)
Spectra Averaged: 1 (USB2+H05261)
Boxcar Smoothing: 0 (USB2+H05261)
Correct for Electrical Dark: No (USB2+H05261)
Strobe/Lamp Enabled: No (USB2+H05261)
Correct for Detector Non-linearity: No (USB2+H05261)
Correct for Stray Light: No (USB2+H05261)
Number of Pixels in Processed Spectrum: 2048
>>>>>Begin Processed Spectral Data<<<<<
365.73	217.67
365.92	217.67
366.12	217.67
366.32	184.90
366.52	145.11
366.72	142.77
366.91	121.71
367.11	133.41
367.31	81.92
367.51	166.18
367.70	182.56
367.90	138.09
368.10	168.52
368.30	182.56
368.49	159.16
368.69	203.63
368.89	212.99
369.09	194.26
369.28	154.48
369.48	119.37
369.68	187.24
369.87	227.03
370.07	266.82
370.27	292.57
370.47	346.40
370.66	456.40
370.86	472.79
371.06	510.24
371.25	521.94
371.45	491.51
371.65	573.43
371.84	503.22
372.04	573.43
372.24	568.75
372.44	624.92
372.63	589.82
372.83	564.07
373.03	573.43
373.22	627.26
373.42	641.31
373.62	683.44
373.81	571.09
374.01	653.01
374.21	669.39
374.40	641.31
374.60	660.03
374.79	650.67
374.99	613.22
375.19	636.63
375.38	669.39
375.58	589.82
375.78	667.05
375.97	744.29
376.17	758.33
376.37	662.37
376.56	678.76
376.76	645.99
376.95	629.60
377.15	678.76
377.35	678.76
377.54	734.93
377.74	706.84
377.93	667.05
378.13	650.67
378.33	695.14
378.52	683.44
378.72	753.65
378.91	662.37
379.11	660.03
379.31	615.56
379.50	734.93
379.70	751.31
379.89	732.59
380.09	638.97
380.28	732.59
380.48	681.10
380.68	741.95
380.87	716.20
381.07	716.20
381.26	765.36
381.46	814.51
381.65	737.27
381.85	683.44
382.04	681.10
382.24	809.83
382.43	805.14
382.63	842.59
382.83	826.21
383.02	830.89
383.22	807.48
383.41	816.85
383.61	760.67
383.80	739.61
384.00	737.27
384.19	837.91
384.39	891.74
384.58	786.42
384.78	814.51
384.97	884.72
385.17	866.00
385.36	844.93
385.56	823.87
385.75	777.06
385.95	863.66
386.14	833.23
386.34	751.31
386.53	894.08
386.72	844.93
386.92	875.36
387.11	812.17
387.31	788.76
387.50	854.30
387.70	858.98
387.89	933.87
388.09	908.13
388.28	917.49
388.48	844.93
388.67	894.08
388.86	940.90
389.06	854.30
389.25	971.32
389.45	950.26
389.64	931.53
389.84	983.02
390.03	950.26
390.22	987.71
390.42	931.53
390.61	826.21
390.81	1041.54
391.00	973.66
391.19	983.02
391.39	978.34
391.58	966.64
391.78	1076.65
391.97	1060.26
392.16	1013.45
392.36	1097.71
392.55	1050.90
392.75	994.73
392.94	966.64
393.13	1109.41
393.33	987.71
393.52	1006.43
393.71	1128.14
393.91	1025.15
394.10	1090.69
394.29	1034.52
394.49	1151.54
394.68	1090.69
394.88	1048.56
395.07	1139.84
395.26	1226.44
395.46	1109.41
395.65	1118.78
395.84	1240.48
396.04	1224.10
396.23	1151.54
396.42	1165.59
396.62	1174.95
396.81	1240.48
397.00	1132.82
397.19	1259.21
397.39	1121.12
397.58	1254.53
397.77	1177.29
397.97	1247.51
398.16	1139.84
398.35	1266.23
398.55	1226.44
398.74	1306.02
398.93	1254.53
399.12	1338.79
399.32	1299.00
399.51	1364.53
399.70	1453.47
399.90	1406.66
400.09	1352.83
400.28	1380.92
400.47	1341.13
400.67	1320.06
400.86	1336.45
401.05	1387.94
401.24	1455.81
401.44	1359.85
401.63	1430.07
401.82	1387.94
402.01	1458.15
402.21	1425.39
402.40	1519.01
402.59	1444.11
402.78	1511.99
402.97	1500.28
403.17	1558.80
403.36	1624.33
403.55	1455.81
403.74	1556.46
403.93	1521.35
404.13	1530.71
404.32	1586.88
404.51	1708.59
404.70	1657.10
404.89	1591.56
405.09	1722.63
405.28	1694.55
405.47	1558.80
405.66	1650.08
405.85	1732.00
406.05	1631.35
406.24	1643.06
406.43	1591.56
406.62	1741.36
406.81	1734.34
407.00	1713.27
407.20	1675.82
407.39	1722.63
407.58	1790.51
407.77	1874.77
407.96	1811.57
408.15	1820.94
408.34	1764.76
408.54	1865.41
408.73	1935.62
408.92	1839.66
409.11	1898.17
409.30	1741.36
409.49	1952.01
409.68	1982.43
409.87	1912.22
410.07	1987.11
410.26	2057.33
410.45	1980.09
410.64	1991.80
410.83	2076.06
411.02	1954.35
411.21	2136.91
411.40	2179.04
411.59	2122.87
411.78	2143.93
411.98	2099.46
412.17	2120.53
412.36	2244.57
412.55	2282.02
412.74	2282.02
412.93	2340.54
413.12	2347.56
413.31	2282.02
413.50	2401.39
413.69	2296.07
413.88	2387.35
414.07	2443.52
414.26	2420.11
414.45	2438.84
414.64	2466.92
414.83	2466.92
415.02	2558.21
415.22	2558.21
415.41	2539.48
415.60	2663.53
415.79	2605.02
415.98	2654.17
416.17	2745.45
416.36	2600.34
416.55	2794.60
416.74	2745.45
416.93	2553.52
417.12	2750.13
417.31	2836.73
417.50	2761.83
417.69	2981.84
417.88	2813.32
418.07	2855.45
418.26	2883.54
418.45	2834.39
418.64	2911.63
418.83	2888.22
419.02	3094.19
419.21	3082.49
419.39	2892.90
419.58	2991.20
419.77	2984.18
419.96	3023.97
420.15	3101.21
420.34	2986.52
420.53	3108.23
420.72	3063.76
420.91	3187.81
421.10	3213.56
421.29	3440.59
421.48	3091.85
421.67	3265.05
421.86	3105.89
422.05	3229.94
422.24	3267.39
422.43	3323.56
422.61	3225.26
422.80	3274.41
422.99	3412.50
423.18	3304.84
423.37	3325.90
423.56	3178.45
423.75	3323.56
423.94	3180.79
424.13	3183.13
424.32	3239.30
424.50	3339.94
424.69	3454.63
424.88	3386.76
425.07	3358.67
425.26	3405.48
425.45	3478.04
425.64	3410.16
425.83	3384.41
426.01	3487.40
426.20	3358.67
426.39	3337.60
426.58	3447.61
426.77	3447.61
426.96	3370.37
427.15	3508.46
427.33	3449.95
427.52	3442.93
427.71	3499.10
427.90	3655.92
428.09	3634.85
428.28	3564.64
428.46	3574.00
428.65	3503.78
428.84	3641.87
429.03	3721.45
429.22	3646.55
429.40	3646.55
429.59	3719.11
429.78	3545.91
429.97	3592.72
430.16	3583.36
430.34	3723.79
430.53	3709.75
430.72	3726.13
430.91	3735.50
431.10	3765.92
431.28	3852.52
431.47	3913.38
431.66	3896.99
431.85	3983.59
432.03	3985.93
432.22	3901.67
432.41	3957.85
432.60	3943.80
432.79	3988.27
432.97	4030.40
433.16	4056.15
433.35	4063.17
433.54	4072.53
433.72	4070.19
433.91	3953.16
434.10	4184.88
434.28	4119.34
434.47	4119.34
434.66	4180.20
434.85	4189.56
435.03	4138.07
435.22	4191.90
435.41	4528.94
435.59	4086.58
435.78	4290.20
435.97	4257.43
436.16	4095.94
436.34	4351.06
436.53	4423.61
436.72	4550.00
436.90	4189.56
437.09	4334.67
437.28	4250.41
437.46	4435.32
437.65	4393.19
437.84	4461.06
438.02	4526.60
438.21	4674.05
438.40	4535.96
438.58	4559.36
438.77	4727.88
438.96	4755.97
439.14	4802.78
439.33	4702.14
439.52	4798.10
439.70	4908.10
439.89	4938.53
440.08	4961.94
440.26	4940.87
440.45	4891.72
440.63	4999.38
440.82	4994.70
441.01	4936.19
441.19	5043.85
441.38	5088.32
441.57	5144.50
441.75	5177.26
441.94	5240.46
442.12	5453.45
442.31	5282.59
442.50	5582.18
442.68	5210.03
442.87	5303.65
443.05	5359.83
443.24	5432.38
443.43	5205.35
443.61	5420.68
443.80	5460.47
443.98	5341.10
444.17	5102.37
444.35	5383.23
444.54	5551.75
444.73	5572.82
444.91	5516.64
445.10	5577.50
445.28	5544.73
445.47	5460.47
445.65	5558.77
445.84	5577.50
446.02	5551.75
446.21	5535.37
446.39	5504.94
446.58	5650.05
446.77	5558.77
446.95	5455.79
447.14	5516.64
447.32	5523.66
447.51	5727.29
447.69	5502.60
447.88	5643.03
448.06	5589.20
448.25	5631.33
448.43	5685.16
448.62	5556.43
448.80	5628.99
448.99	5731.97
449.17	5853.68
449.36	5586.86
449.54	5837.30
449.73	5956.66
449.91	5811.55
450.10	5802.19
450.28	5841.98
450.46	5963.68
450.65	5849.00
450.83	6087.73
451.02	6031.56
451.20	6031.56
451.39	5998.79
451.57	5987.09
451.76	5926.24
451.94	6216.46
452.13	6155.61
452.31	6111.14
452.49	5900.49
452.68	6202.42
452.86	6108.80
453.05	6256.25
453.23	6197.74
453.42	6061.99
453.60	6244.55
453.78	6235.19
453.97	6270.30
454.15	6286.68
454.34	6218.80
454.52	6354.55
454.70	6368.60
454.89	6436.47
455.07	6403.71
455.26	6443.49
455.44	6516.05
455.62	6644.78
455.81	6642.44
455.99	6583.93
456.17	6574.56
456.36	6537.12
456.54	6546.48
456.73	6590.95
456.91	6867.13
457.09	6810.96
457.28	6960.75
457.46	6979.48
457.64	6864.79
457.83	6782.87
458.01	6951.39
458.19	6986.50
458.38	6942.03
458.56	6965.43
458.74	6937.35
458.93	7052.03
459.11	6960.75
459.29	6946.71
459.48	6970.12
459.66	7133.95
459.84	7330.56
460.03	7267.36
460.21	7176.08
460.39	7152.68
460.57	7206.51
460.76	7368.01
460.94	7309.49
461.12	7211.19
461.31	7286.09
461.49	7288.43
461.67	7159.70
461.85	7531.84
462.04	7478.01
462.22	7990.59
462.40	7578.65
462.59	7595.04
462.77	7342.26
462.95	7667.60
463.13	7700.36
463.32	7503.76
463.50	7492.05
463.68	7932.08
463.86	7700.36
464.05	7733.13
464.23	7744.83
464.41	7808.03
464.59	7513.12
464.78	7843.14
464.96	7782.28
465.14	7740.15
465.32	7929.74
465.50	8011.65
465.69	8081.87
465.87	7983.57
466.05	7791.64
466.23	7887.61
466.41	8079.53
466.60	8191.88
466.78	7838.45
466.96	7878.24
467.14	7934.42
467.32	8023.36
467.51	8212.94
467.69	7981.23
467.87	7999.95
468.05	8152.09
468.23	8116.98
468.41	8133.36
468.60	8102.93
468.78	8308.90
468.96	8194.22
469.14	8229.32
469.32	8425.93
469.50	8177.83
469.69	8622.53
469.87	8334.65
470.05	8528.91
470.23	8631.90
470.41	8538.27
470.59	8702.11
470.77	8496.14
470.95	8688.07
471.14	8905.74
471.32	8681.05
471.50	8889.35
471.68	8753.60
471.86	8755.94
472.04	8809.78
472.22	8891.70
472.40	8863.61
472.58	8997.02
472.77	9008.72
472.95	9149.15
473.13	9460.45
473.31	9142.13
473.49	8973.61
473.67	9198.31
473.85	9153.84
474.03	9518.96
474.21	9423.00
474.39	9561.09
474.57	9467.47
474.75	9425.34
474.93	9544.70
475.12	9582.15
475.30	9762.37
475.48	9715.56
475.66	9748.33
475.84	9682.80
476.02	10099.41
476.20	9844.29
476.38	10195.37
476.56	10279.63
476.74	10237.50
476.92	10319.42
477.10	10296.02
477.28	10539.43
477.46	10403.68
477.64	10553.48
477.82	10703.27
478.00	10897.53
478.18	10731.36
478.36	10712.63
478.54	11115.20
478.72	10956.05
478.90	11213.51
479.08	11255.64
479.26	11239.25
479.44	11372.66
479.62	11412.45
479.80	11569.27
479.98	11676.93
480.16	11955.46
480.34	11375.00
480.52	12020.99
480.70	11943.75
480.88	11749.49
481.06	12079.50
481.24	12035.03
481.41	12301.86
481.59	12517.18
481.77	12477.40
481.95	12313.56
482.13	12681.02
482.31	12566.34
482.49	12868.27
482.67	12784.01
482.85	13081.25
483.03	13369.14
483.21	13179.56
483.39	13493.19
483.57	13589.15
483.74	13586.81
483.92	13748.31
484.10	13422.97
484.28	13991.72
484.46	14097.05
484.64	14380.25
484.82	14024.49
485.00	14417.70
485.18	14731.33
485.35	14569.83
485.53	14686.86
485.71	14633.03
485.89	15044.96
486.07	14963.04
486.25	14831.97
486.43	15192.42
486.61	15049.64
486.78	15208.80
486.96	15489.67
487.14	15669.89
487.32	15583.29
487.50	15662.86
487.68	15800.96
487.85	16240.98
488.03	16205.87
488.21	16133.31
488.39	16652.91
488.57	16905.69
488.75	16615.46
488.92	16802.71
489.10	17104.64
489.28	17088.25
489.46	17411.25
489.64	17139.74
489.81	17731.90
489.99	17811.48
490.17	17551.68
490.35	17893.40
490.53	18087.66
490.70	18160.22
490.88	18101.70
491.06	18183.62
491.24	18286.61
491.41	18298.31
491.59	18698.54
491.77	18862.38
491.95	18829.61
492.13	18850.67
492.30	19325.80
492.48	19283.67
492.66	19208.78
492.84	19681.56
493.01	19716.67
493.19	19372.61
493.37	19995.20
493.54	19726.04
493.72	20060.73
493.90	20121.59
494.08	20439.90
494.25	20643.52
494.43	20444.58
494.61	20510.11
494.79	20435.22
494.96	20503.09
495.14	20849.49
495.32	20903.32
495.49	21156.10
495.67	21158.44
495.85	21247.38
496.02	21434.63
496.20	21610.17
496.38	21635.91
496.55	21633.57
496.73	22251.47
496.91	22003.38
497.09	22010.40
497.26	22464.46
497.44	22291.26
497.62	22199.98
497.79	22874.06
497.97	22551.06
498.14	22862.35
498.32	22916.19
498.50	22726.60
498.67	23185.35
498.85	23360.89
499.03	23548.13
499.20	23239.18
499.38	23468.55
499.56	23651.11
499.73	23819.63
499.91	23613.66
500.08	24144.97
500.26	24102.84
500.44	23894.53
500.61	23889.85
500.79	23784.52
500.97	24194.12
501.14	24959.47
501.32	24594.35
501.49	24247.95
501.67	24486.68
501.84	24940.75
502.02	24861.17
502.20	24709.04
502.37	25095.22
502.55	25001.60
502.72	24879.89
502.90	25233.32
503.07	24989.90
503.25	25287.15
503.43	25193.53
503.60	25703.76
503.78	25584.40
503.95	25755.26
504.13	25954.20
504.30	26075.91
504.48	25891.01
504.65	25972.92
504.83	25963.56
505.01	26618.91
505.18	26167.19
505.36	26466.78
505.53	26466.78
505.71	26471.46
505.88	27049.57
506.06	26658.70
506.23	26927.86
506.41	26859.99
506.58	26525.29
506.76	26792.11
506.93	27374.91
507.11	27199.37
507.28	27281.28
507.46	27379.59
507.63	27513.00
507.81	27335.12
507.98	27716.62
508.16	27896.85
508.33	27810.25
508.50	27835.99
508.68	27899.19
508.85	28348.57
509.03	28056.00
509.20	28294.74
509.38	28568.58
509.55	28367.29
509.73	28313.46
509.90	28357.93
510.08	28669.22
510.25	28432.83
510.42	29102.22
510.60	28697.31
510.77	29022.64
510.95	29488.41
511.12	29127.97
511.30	29287.12
511.47	29228.61
511.64	29273.08
511.82	29076.48
511.99	29212.23
512.17	29654.59
512.34	29076.48
512.51	29900.34
512.69	29785.66
512.86	29708.42
513.04	29748.21
513.21	29799.70
513.38	29977.58
513.56	30424.62
513.73	30206.95
513.90	30534.63
514.08	30525.27
514.25	30529.95
514.43	30794.43
514.60	30548.67
514.77	30415.26
514.95	30651.66
515.12	30534.63
515.29	31014.44
515.47	31044.87
515.64	30951.24
515.81	30967.63
515.99	31225.09
516.16	31307.01
516.33	31686.17
516.51	31541.06
516.68	31299.98
516.85	31395.95
517.03	31779.79
517.20	32112.15
517.37	31725.96
517.54	32112.15
517.72	31941.29
517.89	32308.76
518.06	31842.99
518.24	31906.18
518.41	32051.30
518.58	32208.11
518.75	31594.89
518.93	32538.13
519.10	32346.20
519.27	32807.29
519.45	32407.06
519.62	33097.52
519.79	32655.15
519.96	32528.77
520.14	32818.99
520.31	32952.40
520.48	32835.38
520.65	32931.34
520.83	33631.16
521.00	33141.99
521.17	33429.87
521.34	33242.63
521.52	33399.44
521.69	33401.79
521.86	33565.62
522.03	33806.70
522.20	34103.95
522.38	34265.44
522.55	33804.36
522.72	34078.20
522.89	34103.95
523.07	34731.21
523.24	33993.94
523.41	34649.29
523.58	34349.70
523.75	33954.15
523.92	34464.39
524.10	34567.37
524.27	34698.44
524.44	34663.33
524.61	34550.99
524.78	34604.82
524.96	35431.03
525.13	34962.92
525.30	34979.31
525.47	35323.36
525.64	35178.25
525.81	35304.64
525.98	35082.29
526.16	35042.50
526.33	35166.55
526.50	35695.51
526.67	35271.87
526.84	35622.95
527.01	35442.73
527.18	35634.66
527.36	35543.38
527.53	35826.58
527.70	35800.83
527.87	35950.63
528.04	36077.02
528.21	35852.33
528.38	35739.98
528.55	36301.71
528.72	36144.89
528.89	36264.26
529.07	35559.76
529.24	36055.95
529.41	36788.54
529.58	36325.11
529.75	36222.13
529.92	36809.61
530.09	36622.36
530.26	36388.31
530.43	36444.48
530.60	36229.15
530.77	37076.43
530.94	36861.10
531.11	36964.08
531.28	37127.92
531.46	37008.55
531.63	36652.79
531.80	36570.87
531.97	37383.04
532.14	37081.11
532.31	37596.03
532.48	37380.70
532.65	37427.51
532.82	36992.17
532.99	37574.96
533.16	37549.21
533.33	37619.43
533.50	37926.04
533.67	37628.79
533.84	37263.67
534.01	37846.46
534.18	37626.45
534.35	38101.58
534.52	38176.48
534.69	38010.30
534.86	37935.40
535.03	38050.09
535.20	38223.29
535.37	38267.76
535.54	38333.29
535.71	38457.34
535.88	38670.33
536.05	38361.38
536.22	38703.10
536.38	38515.86
536.55	38270.10
536.72	38560.33
536.89	38572.03
537.06	39040.14
537.23	38869.28
537.40	38487.77
537.57	38660.97
537.74	38440.96
537.91	39330.36
538.08	38602.46
538.25	38476.07
538.42	39145.46
538.59	39405.26
538.75	39393.56
538.92	39442.71
539.09	39550.37
539.26	39442.71
539.43	39494.20
539.60	39419.30
539.77	39564.42
539.94	39786.77
540.11	39363.13
540.28	39629.95
540.44	39732.93
540.61	39218.02
540.78	39421.64
540.95	39662.72
541.12	39306.96
541.29	39632.29
541.46	39840.60
541.62	39782.09
541.79	40215.08
541.96	39950.60
542.13	39688.46
542.30	39920.18
542.47	40191.68
542.63	40467.86
542.80	39852.30
542.97	40432.75
543.14	41008.53
543.31	40137.85
543.48	40624.68
543.64	40985.12
543.81	40900.86
543.98	40760.43
544.15	40807.24
544.32	40678.51
544.48	40978.10
544.65	40973.42
544.82	41256.62
544.99	40793.20
545.16	41127.89
545.32	40818.94
545.49	41584.30
545.66	41680.26
545.83	41120.87
546.00	41584.30
546.16	41038.95
546.33	41130.23
546.50	41324.50
546.67	42155.39
546.83	41326.84
547.00	41532.81
547.17	41242.58
547.34	41280.03
547.50	41844.10
547.67	41954.10
547.84	41408.76
548.00	41738.77
548.17	41956.44
548.34	41778.56
548.51	42227.95
548.67	42197.52
548.84	42007.94
549.01	41600.68
549.18	42007.94
549.34	42010.28
549.51	42272.42
549.68	42539.24
549.84	42178.79
550.01	42642.22
550.18	41968.15
550.34	42178.79
550.51	42485.40
550.68	42679.67
550.84	42192.84
551.01	42548.60
551.18	42536.90
551.34	42026.66
551.51	42541.58
551.68	42525.19
551.84	42454.98
552.01	42223.26
552.18	42485.40
552.34	42574.34
552.51	43124.37
552.68	42469.02
552.84	42756.91
553.01	42724.14
553.18	42857.55
553.34	43054.15
553.51	43002.66
553.67	43098.62
553.84	43182.88
554.01	43140.75
554.17	43051.81
554.34	43262.46
554.51	43107.99
554.67	43143.09
554.84	43241.40
555.00	43014.37
555.17	43517.58
555.33	43777.38
555.50	43592.48
555.67	43035.43
555.83	43416.94
556.00	43655.67
556.16	43690.78
556.33	43800.79
556.50	43515.24
556.66	43695.46
556.83	43370.13
556.99	44140.16
557.16	44083.99
557.32	43936.54
557.49	43845.26
557.65	43852.28
557.82	43461.41
557.98	44449.11
558.15	43892.07
558.32	44418.69
558.48	43388.85
558.65	43540.99
558.81	44463.16
558.98	43793.76
559.14	43746.95
559.31	44133.14
559.47	44327.41
559.64	43414.60
559.80	44149.53
559.97	44364.85
560.13	43683.76
560.30	43753.97
560.46	44339.11
560.63	44706.57
560.79	44119.10
560.96	44175.27
561.12	44919.56
561.29	44617.63
561.45	44556.78
561.61	44636.36
561.78	44573.16
561.94	44289.96
562.11	44552.10
562.27	44655.08
562.44	44381.24
562.60	44514.65
562.77	44563.80
562.93	44673.81
563.10	44533.37
563.26	44549.76
563.42	45228.51
563.59	44493.58
563.75	44542.74
563.92	44367.20
564.08	44215.06
564.24	45078.72
564.41	44968.71
564.57	44648.06
564.74	45013.18
564.90	44437.41
565.07	45205.11
565.23	44645.72
565.39	44832.96
565.56	45003.82
565.72	44676.15
565.88	44999.14
566.05	45027.23
566.21	44889.13
566.38	44786.15
566.54	45059.99
566.70	44847.00
566.87	45013.18
567.03	45125.53
567.19	45078.72
567.36	44722.96
567.52	45219.15
567.68	45553.85
567.85	45177.02
568.01	45095.10
568.17	44992.12
568.34	45298.73
568.50	45003.82
568.66	44842.32
568.83	45184.04
568.99	45116.17
569.15	45277.66
569.32	45340.86
569.48	45319.79
569.64	45249.58
569.81	45315.11
569.97	45624.06
570.13	45268.30
570.30	45076.38
570.46	45265.96
570.62	45591.30
570.78	45539.80
570.95	45116.17
571.11	45902.59
571.27	45556.19
571.43	45492.99
571.60	45216.81
571.76	45617.04
571.92	45214.47
572.09	45280.00
572.25	45385.33
572.41	45530.44
572.57	45001.48
572.74	45537.46
572.90	45418.10
573.06	45673.21
573.22	45787.90
573.38	45876.84
573.55	45724.71
573.71	45743.43
573.87	45633.42
574.03	46141.32
574.20	45720.02
574.36	45640.45
574.52	45694.28
574.68	45523.42
574.84	46174.09
575.01	45478.95
575.17	45420.44
575.33	45797.26
575.49	45794.92
575.65	46164.73
575.82	45890.88
575.98	45553.85
576.14	45858.12
576.30	46150.68
576.46	45834.71
576.62	45804.28
576.79	45560.87
576.95	45642.79
577.11	45766.84
577.27	45624.06
577.43	45815.99
577.59	45677.90
577.75	45532.78
577.92	45577.25
578.08	45897.91
578.24	45635.77
578.40	45986.85
578.56	46181.11
578.72	45804.28
578.88	46307.50
579.04	45729.39
579.21	45792.58
579.37	46017.27
579.53	46246.65
579.69	45886.20
579.85	45532.78
580.01	45708.32
580.17	46092.17
580.33	45907.27
580.49	46024.29
580.65	46298.14
580.82	45867.48
580.98	45792.58
581.14	45909.61
581.30	46162.39
581.46	45546.82
581.62	45752.79
581.78	45631.08
581.94	46150.68
582.10	45928.33
582.26	46162.39
582.42	46050.04
582.58	46059.40
582.74	46110.89
582.90	46068.76
583.06	46265.37
583.22	45844.07
583.38	46279.41
583.54	46099.19
583.70	46059.40
583.86	45942.38
584.02	45855.78
584.18	46330.90
584.34	46094.51
584.50	46024.29
584.66	46314.52
584.82	46169.41
584.98	46220.90
585.14	46361.33
585.30	46096.85
585.46	46160.05
585.62	45860.46
585.78	46288.77
585.94	45764.49
586.10	45677.90
586.26	45705.98
586.42	46124.94
586.58	46298.14
586.74	45904.93
586.90	45619.38
587.06	46321.54
587.22	46445.59
587.38	46028.98
587.54	45867.48
587.70	46665.60
587.86	46464.32
588.02	45766.84
588.18	46050.04
588.34	46253.67
588.49	46380.06
588.65	46213.88
588.81	46087.49
588.97	46043.02
589.13	46195.15
589.29	46237.28
589.45	46424.53
589.61	46656.24
589.77	46445.59
589.93	46181.11
590.08	46181.11
