SpectraSuite Data File
++++++++++++++++++++++++++++++++++++
Date: Fri Oct 25 11:33:36 EDT 2013
User: price-jones
Dark Spectrum Present: No
Reference Spectrum Present: No
Number of Sampled Component Spectra: 1
Spectrometers: USB2+H05261
Integration Time (usec): 100000 (USB2+H05261)
Spectra Averaged: 1 (USB2+H05261)
Boxcar Smoothing: 0 (USB2+H05261)
Correct for Electrical Dark: No (USB2+H05261)
Strobe/Lamp Enabled: No (USB2+H05261)
Correct for Detector Non-linearity: No (USB2+H05261)
Correct for Stray Light: No (USB2+H05261)
Number of Pixels in Processed Spectrum: 2048
>>>>>Begin Processed Spectral Data<<<<<
365.73	278.52
365.92	278.52
366.12	278.52
366.32	252.78
366.52	191.92
366.72	198.95
366.91	184.90
367.11	191.92
367.31	203.63
367.51	163.84
367.70	198.95
367.90	184.90
368.10	191.92
368.30	184.90
368.49	196.60
368.69	212.99
368.89	215.33
369.09	224.69
369.28	243.42
369.48	182.56
369.68	217.67
369.87	269.16
370.07	259.80
370.27	276.18
370.47	280.86
370.66	512.58
370.86	507.90
371.06	557.05
371.25	564.07
371.45	545.34
371.65	503.22
371.84	547.69
372.04	592.16
372.24	613.22
372.44	580.45
372.63	603.86
372.83	594.50
373.03	645.99
373.22	538.32
373.42	613.22
373.62	650.67
373.81	615.56
374.01	643.65
374.21	638.97
374.40	594.50
374.60	641.31
374.79	606.20
374.99	720.88
375.19	596.84
375.38	643.65
375.58	716.20
375.78	676.41
375.97	638.97
376.17	709.18
376.37	671.73
376.56	667.05
376.76	706.84
376.95	697.48
377.15	695.14
377.35	601.52
377.54	671.73
377.74	636.63
377.93	702.16
378.13	634.29
378.33	720.88
378.52	678.76
378.72	660.03
378.91	727.91
379.11	620.24
379.31	748.97
379.50	667.05
379.70	664.71
379.89	765.36
380.09	718.54
380.28	690.46
380.48	751.31
380.68	716.20
380.87	713.86
381.07	685.78
381.26	730.25
381.46	695.14
381.65	842.59
381.85	706.84
382.04	868.34
382.24	734.93
382.43	863.66
382.63	779.40
382.83	777.06
383.02	786.42
383.22	741.95
383.41	716.20
383.61	772.38
383.80	814.51
384.00	840.25
384.19	725.57
384.39	786.42
384.58	877.70
384.78	821.53
384.97	847.27
385.17	777.06
385.36	884.72
385.56	866.00
385.75	884.72
385.95	926.85
386.14	868.34
386.34	863.66
386.53	912.81
386.72	924.51
386.92	931.53
387.11	903.45
387.31	858.98
387.50	896.43
387.70	863.66
387.89	882.38
388.09	854.30
388.28	978.34
388.48	929.19
388.67	964.30
388.86	938.55
389.06	968.98
389.25	950.26
389.45	840.25
389.64	840.25
389.84	945.58
390.03	966.64
390.22	1022.81
390.42	976.00
390.61	896.43
390.81	933.87
391.00	990.05
391.19	1062.60
391.39	990.05
391.58	936.21
391.78	1053.24
391.97	1074.31
392.16	968.98
392.36	1053.24
392.55	1015.79
392.75	964.30
392.94	1107.07
393.13	1060.26
393.33	1071.97
393.52	1146.86
393.71	1069.62
393.91	1041.54
394.10	1041.54
394.29	1034.52
394.49	1053.24
394.68	1130.48
394.88	1160.91
395.07	1184.31
395.26	1137.50
395.46	1240.48
395.65	1184.31
395.84	1186.65
396.04	1266.23
396.23	1235.80
396.42	1210.06
396.62	1177.29
396.81	1203.04
397.00	1282.61
397.19	1245.16
397.39	1151.54
397.58	1263.89
397.77	1226.44
397.97	1263.89
398.16	1287.29
398.35	1376.24
398.55	1242.82
398.74	1261.55
398.93	1287.29
399.12	1322.40
399.32	1289.64
399.51	1303.68
399.70	1338.79
399.90	1371.55
400.09	1310.70
400.28	1425.39
400.47	1287.29
400.67	1437.09
400.86	1366.87
401.05	1413.68
401.24	1406.66
401.44	1338.79
401.63	1453.47
401.82	1350.49
402.01	1483.90
402.21	1472.20
402.40	1504.96
402.59	1430.07
402.78	1441.77
402.97	1530.71
403.17	1509.65
403.36	1547.09
403.55	1584.54
403.74	1586.88
403.93	1654.76
404.13	1605.61
404.32	1582.20
404.51	1598.59
404.70	1657.10
404.89	1521.35
405.09	1675.82
405.28	1673.48
405.47	1617.31
405.66	1654.76
405.85	1643.06
406.05	1664.12
406.24	1727.32
406.43	1830.30
406.62	1776.47
406.81	1809.23
407.00	1781.15
407.20	1743.70
407.39	1699.23
407.58	1729.66
407.77	1790.51
407.96	1898.17
408.15	1856.04
408.34	1867.75
408.54	1886.47
408.73	1818.60
408.92	2019.88
409.11	1884.13
409.30	1872.43
409.49	1907.54
409.68	2019.88
409.87	2024.56
410.07	2066.69
410.26	2001.16
410.45	2062.01
410.64	2127.55
410.83	2172.02
411.02	2143.93
411.21	2150.95
411.40	2195.42
411.59	2165.00
411.78	2186.06
411.98	2160.31
412.17	2176.70
412.36	2214.15
412.55	2321.81
412.74	2342.88
412.93	2352.24
413.12	2319.47
413.31	2450.54
413.50	2427.14
413.69	2406.07
413.88	2478.63
414.07	2361.60
414.26	2551.18
414.45	2464.58
414.64	2471.61
414.83	2518.42
415.02	2532.46
415.22	2614.38
415.41	2616.72
415.60	2656.51
415.79	2621.40
415.98	2757.15
416.17	2719.70
416.36	2684.59
416.55	2757.15
416.74	2780.56
416.93	2792.26
417.12	2745.45
417.31	2869.50
417.50	2871.84
417.69	2991.20
417.88	2902.26
418.07	2899.92
418.26	2888.22
418.45	3089.51
418.64	3054.40
418.83	3061.42
419.02	3129.30
419.21	3000.57
419.39	3040.36
419.58	3105.89
419.77	3105.89
419.96	3068.44
420.15	3138.66
420.34	3276.75
420.53	3103.55
420.72	3288.45
420.91	3337.60
421.10	3208.87
421.29	3300.16
421.48	3197.17
421.67	3293.13
421.86	3155.04
422.05	3435.91
422.24	3323.56
422.43	3452.29
422.61	3410.16
422.80	3375.05
422.99	3454.63
423.18	3417.18
423.37	3595.06
423.56	3335.26
423.75	3400.80
423.94	3372.71
424.13	3152.70
424.32	3236.96
424.50	3463.99
424.69	3463.99
424.88	3606.77
425.07	3375.05
425.26	3419.52
425.45	3361.01
425.64	3379.73
425.83	3503.78
426.01	3496.76
426.20	3353.99
426.39	3487.40
426.58	3417.18
426.77	3529.53
426.96	3396.12
427.15	3545.91
427.33	3592.72
427.52	3592.72
427.71	3557.61
427.90	3576.34
428.09	3578.68
428.28	3667.62
428.46	3723.79
428.65	3655.92
428.84	3812.73
429.03	3805.71
429.22	3669.96
429.40	3791.67
429.59	3833.80
429.78	3712.09
429.97	3506.12
430.16	3838.48
430.34	3819.75
430.53	3889.97
430.72	3758.90
430.91	3894.65
431.10	3786.99
431.28	3915.72
431.47	3983.59
431.66	3946.14
431.85	3913.38
432.03	3967.21
432.22	4154.45
432.41	4028.06
432.60	4002.32
432.79	4119.34
432.97	4093.60
433.16	4135.73
433.35	4135.73
433.54	4156.79
433.72	4219.99
433.91	4109.98
434.10	4184.88
434.28	4161.47
434.47	4315.95
434.66	4276.16
434.85	4227.01
435.03	4238.71
435.22	4341.69
435.41	4430.63
435.59	4304.25
435.78	4503.19
435.97	4425.95
436.16	4386.16
436.34	4294.88
436.53	4449.36
436.72	4552.34
436.90	4550.00
437.09	4582.77
437.28	4489.15
437.46	4634.26
437.65	4594.47
437.84	4737.24
438.02	4615.54
438.21	4699.80
438.40	4582.77
438.58	4795.76
438.77	4870.65
438.96	4692.77
439.14	4844.91
439.33	4858.95
439.52	4861.29
439.70	4985.34
439.89	4997.04
440.08	4987.68
440.26	4973.64
440.45	5018.11
440.63	4903.42
440.82	5205.35
441.01	5109.39
441.19	5118.75
441.38	5401.96
441.57	5212.37
441.75	5235.78
441.94	5418.34
442.12	5343.44
442.31	5313.02
442.50	5518.98
442.68	5303.65
442.87	5437.06
443.05	5561.11
443.24	5640.69
443.43	5626.65
443.61	5516.64
443.80	5837.30
443.98	5404.30
444.17	5341.10
444.35	5507.28
444.54	5561.11
444.73	5722.61
444.91	5631.33
445.10	5706.23
445.28	5404.30
445.47	5652.39
445.65	5645.37
445.84	5551.75
446.02	5823.25
446.21	5811.55
446.39	5708.57
446.58	5776.44
446.77	5593.88
446.95	5504.94
447.14	5680.48
447.32	5687.50
447.51	5692.18
447.69	5750.70
447.88	5729.63
448.06	5851.34
448.25	5853.68
448.43	5687.50
448.62	5762.40
448.80	5795.17
448.99	5830.27
449.17	5905.17
449.36	5706.23
449.54	5900.49
449.73	6031.56
449.91	6087.73
450.10	6139.23
450.28	6183.70
450.46	6174.33
450.65	6153.27
450.83	6282.00
451.02	6193.06
451.20	6143.91
451.39	6031.56
451.57	6251.57
451.76	6094.76
451.94	6050.28
452.13	6352.21
452.31	6396.68
452.49	6169.65
452.68	6368.60
452.86	6134.54
453.05	6441.15
453.23	6427.11
453.42	6518.39
453.60	6286.68
453.78	6539.46
453.97	6527.75
454.15	6445.84
454.34	6354.55
454.52	6509.03
454.70	6525.41
454.89	6480.94
455.07	6534.78
455.26	6684.57
455.44	6771.17
455.62	6548.82
455.81	6794.58
455.99	6698.61
456.17	6740.74
456.36	6583.93
456.54	6729.04
456.73	6942.03
456.91	6949.05
457.09	6892.88
457.28	7166.72
457.46	7045.01
457.64	7035.65
457.83	7101.19
458.01	7012.24
458.19	7070.76
458.38	7023.95
458.56	6979.48
458.74	7101.19
458.93	7173.74
459.11	7112.89
459.29	7232.26
459.48	7288.43
459.66	7300.13
459.84	7304.81
460.03	7473.33
460.21	7559.93
460.39	7318.86
460.57	7492.05
460.76	7438.22
460.94	7337.58
461.12	7463.97
461.31	7557.59
461.49	7468.65
461.67	7524.82
461.85	7597.38
462.04	7349.28
462.22	7943.78
462.40	7754.19
462.59	7667.60
462.77	7873.56
462.95	7658.23
463.13	7686.32
463.32	7791.64
463.50	7960.16
463.68	8011.65
463.86	7761.22
464.05	7698.02
464.23	7847.82
464.41	8126.34
464.59	7665.25
464.78	8011.65
464.96	8037.40
465.14	7967.18
465.32	7978.89
465.50	8093.57
465.69	8194.22
465.87	8081.87
466.05	8079.53
466.23	8154.43
466.41	8196.56
466.60	8304.22
466.78	8142.72
466.96	8074.85
467.14	8170.81
467.32	8325.29
467.51	8198.90
467.69	8142.72
467.87	8248.05
468.05	8667.00
468.23	8301.88
468.41	8287.84
468.60	8355.71
468.78	8568.70
468.96	8580.40
469.14	8557.00
469.32	8393.16
469.50	8224.64
469.69	8615.51
469.87	8702.11
470.05	8758.28
470.23	8812.12
470.41	8613.17
470.59	8896.38
470.77	8718.50
470.95	8999.36
471.14	8940.85
471.32	8922.12
471.50	9013.40
471.68	8975.95
471.86	9179.58
472.04	9046.17
472.22	9282.56
472.40	8997.02
472.58	9350.44
472.77	9212.35
472.95	9357.46
473.13	9626.62
473.31	9357.46
473.49	9341.08
473.67	9481.51
473.85	9685.14
474.03	9556.41
474.21	9652.37
474.39	9781.10
474.57	9685.14
474.75	9767.06
474.93	10019.83
475.12	9966.00
475.30	9998.77
475.48	9994.09
475.66	10174.31
475.84	9902.81
476.02	10354.53
476.20	10211.76
476.38	10237.50
476.56	10501.98
476.74	10483.26
476.92	10504.32
477.10	10462.19
477.28	10546.45
477.46	10551.14
477.64	10714.97
477.82	11145.63
478.00	11328.19
478.18	10871.79
478.36	11157.33
478.54	11571.61
478.72	11503.73
478.90	11618.42
479.08	11768.21
479.26	11695.66
479.44	11756.51
479.62	11548.20
479.80	11793.96
479.98	11861.84
480.16	12229.30
480.34	12025.67
480.52	12226.96
480.70	12236.32
480.88	12322.92
481.06	12414.20
481.24	12383.77
481.41	12505.48
481.59	12650.60
481.77	12760.60
481.95	12915.08
482.13	13022.74
482.31	12903.37
482.49	13181.90
482.67	13193.60
482.85	13345.73
483.03	13315.31
483.21	13664.05
483.39	13818.52
483.57	13823.20
483.74	13937.89
483.92	13895.76
484.10	14204.71
484.28	14462.17
484.46	14459.83
484.64	14815.59
484.82	14523.02
485.00	14600.26
485.18	15063.69
485.35	15066.03
485.53	15077.73
485.71	15108.16
485.89	15229.87
486.07	15269.66
486.25	15358.60
486.43	15281.36
486.61	15695.63
486.78	15817.34
486.96	15899.26
487.14	16175.44
487.32	16238.64
487.50	16348.64
487.68	16449.28
487.85	16269.06
488.03	16617.80
488.21	16891.65
488.39	17064.85
488.57	17060.16
488.75	17186.55
488.92	17280.18
489.10	17518.91
489.28	17741.26
489.46	17820.84
489.64	17907.44
489.81	18281.92
489.99	17930.84
490.17	17991.70
490.35	18291.29
490.53	18541.72
490.70	18523.00
490.88	18422.36
491.06	18752.37
491.24	18773.44
491.41	19054.30
491.59	19140.90
491.77	19110.47
491.95	19496.66
492.13	19723.69
492.30	19470.92
492.48	19751.78
492.66	19583.26
492.84	19985.83
493.01	20009.24
493.19	20091.16
493.37	20226.91
493.54	20355.64
493.72	20814.38
493.90	20774.60
494.08	20685.65
494.25	20685.65
494.43	20950.14
494.61	20924.39
494.79	21118.65
494.96	21174.83
495.14	21245.04
495.32	21853.58
495.49	21572.72
495.67	22010.40
495.85	22169.55
496.02	22122.74
496.20	22314.67
496.38	22457.44
496.55	22312.33
496.73	22724.26
496.91	22768.73
497.09	22927.89
497.26	22757.03
497.44	22923.21
497.62	23131.51
497.79	23625.37
497.97	23044.91
498.14	23318.76
498.32	23683.88
498.50	23861.76
498.67	23857.08
498.85	23906.23
499.03	24105.18
499.20	24304.12
499.38	24264.33
499.56	24135.60
499.73	24285.40
499.91	24456.26
500.08	24203.48
500.26	24718.40
500.44	24957.13
500.61	24982.88
500.79	24744.14
500.97	25144.38
501.14	25380.77
501.32	25591.42
501.49	25158.42
501.67	25404.17
501.84	25640.57
502.02	25380.77
502.20	25916.75
502.37	25809.09
502.55	26078.25
502.72	25975.27
502.90	25900.37
503.07	25755.26
503.25	26127.40
503.43	25483.75
503.60	26579.12
503.78	26541.68
503.95	26532.31
504.13	26434.01
504.30	26728.92
504.48	26630.62
504.65	26658.70
504.83	26782.75
505.01	27405.33
505.18	26981.70
505.36	27321.07
505.53	27009.78
505.71	27388.95
505.88	27264.90
506.06	27410.01
506.23	27585.55
506.41	27557.47
506.58	27857.06
506.76	27606.62
506.93	27995.15
507.11	27847.69
507.28	28114.52
507.46	28226.86
507.63	28285.37
507.81	27953.02
507.98	28219.84
508.16	28587.30
508.33	28329.84
508.50	28627.09
508.68	28758.16
508.85	29160.73
509.03	28800.29
509.20	28769.86
509.38	29179.46
509.55	29146.69
509.73	29469.69
509.90	29284.78
510.08	29476.71
510.25	29661.61
510.42	29626.50
510.60	29785.66
510.77	29818.42
510.95	30284.19
511.12	29806.72
511.30	30171.85
511.47	29837.15
511.64	30087.59
511.82	30284.19
511.99	30195.25
512.17	30555.69
512.34	30190.57
512.51	30686.76
512.69	30946.56
512.86	30436.33
513.04	30916.14
513.21	31014.44
513.38	30892.73
513.56	31302.32
513.73	31136.15
513.90	31264.88
514.08	31328.07
514.25	31517.65
514.43	31477.86
514.60	31683.83
514.77	31564.46
514.95	31995.12
515.12	32023.21
515.29	31407.65
515.47	31969.38
515.64	32278.33
515.81	31889.80
515.99	31831.29
516.16	32493.66
516.33	32322.80
516.51	32168.32
516.68	32388.33
516.85	32350.88
517.03	32545.15
517.20	32723.03
517.37	32615.37
517.54	32910.27
517.72	32416.42
517.89	33069.43
518.06	32697.28
518.24	32844.74
518.41	32821.33
518.58	33251.99
518.75	33216.88
518.93	33357.32
519.10	33149.01
519.27	33600.73
519.45	33235.61
519.62	33434.55
519.79	33713.08
519.96	33460.30
520.14	33675.63
520.31	33600.73
520.48	34253.74
520.65	34015.01
520.83	34047.77
521.00	34675.04
521.17	34581.42
521.34	34267.78
521.52	34740.57
521.69	34396.51
521.86	34583.76
522.03	34583.76
522.20	34836.53
522.38	35241.45
522.55	34939.52
522.72	35180.59
522.89	34693.76
523.07	35379.54
523.24	35150.17
523.41	35337.41
523.58	35194.64
523.75	35693.17
523.92	35292.94
524.10	35754.02
524.27	35461.46
524.44	35908.50
524.61	35871.05
524.78	36112.13
524.96	35864.03
525.13	35945.95
525.30	36376.61
525.47	36112.13
525.64	36123.83
525.81	36119.15
525.98	36357.88
526.16	36170.64
526.33	36292.35
526.50	36603.64
526.67	36254.90
526.84	36699.60
527.01	36322.77
527.18	36575.55
527.36	36879.82
527.53	36657.47
527.70	37258.99
527.87	36985.15
528.04	36980.46
528.21	36858.76
528.38	36753.43
528.55	37312.82
528.72	36994.51
528.89	37226.22
529.07	36985.15
529.24	37741.14
529.41	37317.50
529.58	36790.88
529.75	37502.40
529.92	37757.52
530.09	37731.78
530.26	37673.26
530.43	38043.07
530.60	37457.93
530.77	37677.94
530.94	37691.99
531.11	37834.76
531.28	37544.53
531.46	38174.14
531.63	38024.34
531.80	38059.45
531.97	37794.97
532.14	38092.22
532.31	38127.33
532.48	38560.33
532.65	38873.96
532.82	38408.19
532.99	38314.57
533.16	38714.80
533.33	38852.89
533.50	38782.68
533.67	38703.10
533.84	38555.64
534.01	38602.46
534.18	38813.10
534.35	39234.40
534.52	39318.66
534.69	39360.79
534.86	39569.10
535.03	39278.87
535.20	39292.91
535.37	39569.10
535.54	39667.40
535.71	39777.40
535.88	39187.59
536.05	39697.83
536.22	39548.03
536.38	39718.89
536.55	39313.98
536.72	39754.00
536.89	39599.52
537.06	40004.44
537.23	39924.86
537.40	39800.81
537.57	39971.67
537.74	39948.26
537.91	40542.76
538.08	39999.76
538.25	40144.87
538.42	40301.68
538.59	40348.50
538.75	40210.40
538.92	40240.83
539.09	40332.11
539.26	40231.47
539.43	40378.92
539.60	40215.08
539.77	40350.84
539.94	40418.71
540.11	40601.27
540.28	41104.49
540.44	40673.83
540.61	40720.64
540.78	40533.40
540.95	40783.83
541.12	40823.62
541.29	40734.68
541.46	40849.37
541.62	41078.74
541.79	41684.94
541.96	40835.33
542.13	40926.61
542.30	40935.97
542.47	41212.15
542.63	41230.88
542.80	41502.38
542.97	41605.36
543.14	41703.67
543.31	41549.19
543.48	41373.65
543.64	42197.52
543.81	42029.00
543.98	41947.08
544.15	41876.86
544.32	42277.10
544.48	42396.46
544.65	42164.75
544.82	41818.35
544.99	41668.56
545.16	42487.74
545.32	42412.85
545.49	42689.03
545.66	42705.41
545.83	42635.20
546.00	42976.92
546.16	42492.43
546.33	42450.30
546.50	42789.67
546.67	42965.21
546.83	42504.13
547.00	42724.14
547.17	42679.67
547.34	42281.78
547.50	42878.61
547.67	43168.84
547.84	42768.61
548.00	42904.36
548.17	43063.52
548.34	43208.63
548.51	43318.64
548.67	43416.94
548.84	43363.11
549.01	42979.26
549.18	43419.28
549.34	43562.05
549.51	43393.53
549.68	43323.32
549.84	42990.96
550.01	43391.19
550.18	43409.92
550.34	43384.17
550.51	44072.29
550.68	43927.17
550.84	42866.91
551.01	43732.91
551.18	43629.93
551.34	43697.80
551.51	43796.10
551.68	43683.76
551.84	43988.03
552.01	43662.69
552.18	43971.64
552.34	43728.23
552.51	44273.57
552.68	43704.82
552.84	44357.83
553.01	44093.35
553.18	44355.49
553.34	44140.16
553.51	44069.95
553.67	44013.77
553.84	43990.37
554.01	44626.99
554.17	44194.00
554.34	44346.13
554.51	44673.81
554.67	44664.44
554.84	44875.09
555.00	44479.54
555.17	44231.44
555.33	44264.21
555.50	44264.21
555.67	44715.93
555.83	44261.87
556.00	44945.31
556.16	45296.39
556.33	45120.85
556.50	45062.33
556.66	44912.54
556.83	44456.14
556.99	45287.03
557.16	44877.43
557.32	45450.86
557.49	44795.51
557.65	44355.49
557.82	45071.70
557.98	45120.85
558.15	45247.24
558.32	45207.45
558.48	44896.16
558.65	44919.56
558.81	44987.44
558.98	44968.71
559.14	45111.49
559.31	45165.32
559.47	45350.22
559.64	45289.37
559.80	45013.18
559.97	45052.97
560.13	45226.17
560.30	45015.52
560.46	45586.61
560.63	45895.56
560.79	45853.44
560.96	45631.08
561.12	45645.13
561.29	45518.74
561.45	45607.68
561.61	45535.12
561.78	45595.98
561.94	45509.38
562.11	45553.85
562.27	45352.56
562.44	45790.24
562.60	45961.10
562.77	46117.92
562.93	45790.24
563.10	46157.70
563.26	45532.78
563.42	46108.55
563.59	45490.65
563.75	45928.33
563.92	46143.66
564.08	45888.54
564.24	45734.07
564.41	45528.10
564.57	45769.18
564.74	45925.99
564.90	46050.04
565.07	45698.96
565.23	45612.36
565.39	46122.60
565.56	45806.62
565.72	46087.49
565.88	46043.02
566.05	46162.39
566.21	46539.21
566.38	45984.51
566.54	46321.54
566.70	46211.54
566.87	46321.54
567.03	46099.19
567.19	46417.50
567.36	46014.93
567.52	46162.39
567.68	46548.57
567.85	46309.84
568.01	46494.74
568.17	46101.53
568.34	47000.30
568.50	46396.44
568.66	46185.79
568.83	46511.13
568.99	46291.12
569.15	46625.81
569.32	46480.70
569.48	46220.90
569.64	46799.01
569.81	46408.14
569.97	46263.03
570.13	46670.28
570.30	46167.07
570.46	46546.23
570.62	46644.54
570.78	46663.26
570.95	46464.32
571.11	46859.87
571.27	46815.40
571.43	46396.44
571.60	46726.46
571.76	46670.28
571.92	46646.88
572.09	46590.70
572.25	46485.38
572.41	46625.81
572.57	46660.92
572.74	47430.96
572.90	46529.85
573.06	47007.32
573.22	47091.58
573.38	46965.19
573.55	46864.55
573.71	47133.71
573.87	47264.78
574.03	46487.72
574.20	47461.38
574.36	46965.19
574.52	46939.44
574.68	46738.16
574.84	46993.28
575.01	47386.49
575.17	46925.40
575.33	46906.68
575.49	46944.12
575.65	46969.87
575.82	46923.06
575.98	46705.39
576.14	47061.15
576.30	47189.88
576.46	46951.15
576.62	47028.38
576.79	47243.71
576.95	46897.31
577.11	47241.37
577.27	46618.79
577.43	46880.93
577.59	46904.34
577.75	46852.84
577.92	46813.05
578.08	46946.47
578.24	47208.61
578.40	47007.32
578.56	47187.54
578.72	47318.61
578.88	47278.82
579.04	47089.24
579.21	47227.33
579.37	46953.49
579.53	47143.07
579.69	47000.30
579.85	47365.42
580.01	47416.91
580.17	46897.31
580.33	47419.25
580.49	47044.77
580.65	47028.38
580.82	47103.28
580.98	46983.91
581.14	46925.40
581.30	47388.83
581.46	46436.23
581.62	46944.12
581.78	46990.94
581.94	47241.37
582.10	47112.64
582.26	47459.04
582.42	47079.88
582.58	47210.95
582.74	47257.76
582.90	47260.10
583.06	47093.92
583.22	47145.41
583.38	47456.70
583.54	47114.98
583.70	47166.48
583.86	47599.47
584.02	47351.38
584.18	47426.28
584.34	47723.52
584.50	47915.45
584.66	47323.29
584.82	47533.94
584.98	47730.54
585.14	47306.91
585.30	47662.67
585.46	47463.72
585.62	46859.87
585.78	47501.17
585.94	47215.63
586.10	47405.21
586.26	46913.70
586.42	47440.32
586.58	46993.28
586.74	47627.56
586.90	47189.88
587.06	47690.76
587.22	47452.02
587.38	47496.49
587.54	47697.78
587.70	47812.46
587.86	47580.75
588.02	47192.22
588.18	47423.93
588.34	47342.02
588.49	47344.36
588.65	46983.91
588.81	47262.44
588.97	47583.09
589.13	47332.65
589.29	47597.13
589.45	47988.00
589.61	47779.70
589.77	47817.14
589.93	47274.14
590.08	47849.91
