SpectraSuite Data File
++++++++++++++++++++++++++++++++++++
Date: Fri Oct 25 11:23:01 EDT 2013
User: price-jones
Dark Spectrum Present: No
Reference Spectrum Present: No
Number of Sampled Component Spectra: 1
Spectrometers: USB2+H05261
Integration Time (usec): 100000 (USB2+H05261)
Spectra Averaged: 1 (USB2+H05261)
Boxcar Smoothing: 0 (USB2+H05261)
Correct for Electrical Dark: No (USB2+H05261)
Strobe/Lamp Enabled: No (USB2+H05261)
Correct for Detector Non-linearity: No (USB2+H05261)
Correct for Stray Light: No (USB2+H05261)
Number of Pixels in Processed Spectrum: 2048
>>>>>Begin Processed Spectral Data<<<<<
365.73	208.31
365.92	208.31
366.12	208.31
366.32	147.45
366.52	100.64
366.72	128.73
366.91	117.03
367.11	156.82
367.31	107.66
367.51	91.28
367.70	161.50
367.90	147.45
368.10	74.90
368.30	126.39
368.49	60.85
368.69	149.79
368.89	138.09
369.09	100.64
369.28	145.11
369.48	156.82
369.68	152.13
369.87	189.58
370.07	184.90
370.27	231.71
370.47	334.70
370.66	589.82
370.86	587.47
371.06	676.41
371.25	622.58
371.45	746.63
371.65	676.41
371.84	692.80
372.04	676.41
372.24	695.14
372.44	678.76
372.63	723.23
372.83	683.44
373.03	744.29
373.22	711.52
373.42	732.59
373.62	779.40
373.81	861.32
374.01	788.76
374.21	837.91
374.40	805.14
374.60	826.21
374.79	760.67
374.99	856.64
375.19	840.25
375.38	858.98
375.58	727.91
375.78	851.96
375.97	891.74
376.17	894.08
376.37	880.04
376.56	896.43
376.76	844.93
376.95	737.27
377.15	912.81
377.35	905.79
377.54	849.61
377.74	873.02
377.93	830.89
378.13	868.34
378.33	983.02
378.52	945.58
378.72	947.92
378.91	910.47
379.11	931.53
379.31	964.30
379.50	908.13
379.70	945.58
379.89	1034.52
380.09	840.25
380.28	968.98
380.48	917.49
380.68	933.87
380.87	980.68
381.07	990.05
381.26	1046.22
381.46	971.32
381.65	980.68
381.85	1116.44
382.04	1069.62
382.24	1008.77
382.43	922.17
382.63	1109.41
382.83	1046.22
383.02	1111.75
383.22	1090.69
383.41	1102.39
383.61	1062.60
383.80	1109.41
384.00	1090.69
384.19	1109.41
384.39	1165.59
384.58	1132.82
384.78	1076.65
384.97	1172.61
385.17	1177.29
385.36	1181.97
385.56	1074.31
385.75	1174.95
385.95	1181.97
386.14	1128.14
386.34	1121.12
386.53	1186.65
386.72	1212.40
386.92	1137.50
387.11	1207.72
387.31	1259.21
387.50	1261.55
387.70	1205.38
387.89	1273.25
388.09	1247.51
388.28	1233.46
388.48	1280.27
388.67	1303.68
388.86	1299.00
389.06	1338.79
389.25	1294.32
389.45	1357.51
389.64	1458.15
389.84	1350.49
390.03	1376.24
390.22	1371.55
390.42	1387.94
390.61	1409.00
390.81	1364.53
391.00	1359.85
391.19	1427.73
391.39	1423.05
391.58	1481.56
391.78	1336.45
391.97	1455.81
392.16	1430.07
392.36	1490.92
392.55	1544.75
392.75	1523.69
392.94	1507.30
393.13	1483.90
393.33	1577.52
393.52	1577.52
393.71	1537.73
393.91	1612.63
394.10	1682.85
394.29	1607.95
394.49	1572.84
394.68	1764.76
394.88	1668.80
395.07	1689.87
395.26	1713.27
395.46	1713.27
395.65	1743.70
395.84	1689.87
396.04	1788.17
396.23	1757.74
396.42	1783.49
396.62	1764.76
396.81	1783.49
397.00	1795.19
397.19	1792.85
397.39	1790.51
397.58	1708.59
397.77	1851.36
397.97	1764.76
398.16	1802.21
398.35	1907.54
398.55	1834.98
398.74	1905.20
398.93	1970.73
399.12	1921.58
399.32	1884.13
399.51	1952.01
399.70	2001.16
399.90	2038.61
400.09	1994.14
400.28	2026.90
400.47	1966.05
400.67	2043.29
400.86	1994.14
401.05	2012.86
401.24	2059.67
401.44	2038.61
401.63	2043.29
401.82	2183.72
402.01	2209.47
402.21	2120.53
402.40	2232.87
402.59	2324.15
402.78	2272.66
402.97	2253.94
403.17	2202.44
403.36	2223.51
403.55	2392.03
403.74	2389.69
403.93	2347.56
404.13	2466.92
404.32	2427.14
404.51	2300.75
404.70	2504.37
404.89	2354.58
405.09	2375.64
405.28	2525.44
405.47	2448.20
405.66	2546.50
405.85	2555.86
406.05	2506.71
406.24	2551.18
406.43	2495.01
406.62	2605.02
406.81	2668.21
407.00	2541.82
407.20	2712.68
407.39	2684.59
407.58	2626.08
407.77	2747.79
407.96	2789.92
408.15	2792.26
408.34	2794.60
408.54	3021.63
408.73	2899.92
408.92	2906.95
409.11	2799.28
409.30	2857.79
409.49	2799.28
409.68	2888.22
409.87	2918.65
410.07	3070.78
410.26	3019.29
410.45	3138.66
410.64	3047.38
410.83	3038.02
411.02	3098.87
411.21	3253.34
411.40	3239.30
411.59	3243.98
411.78	3206.53
411.98	3267.39
412.17	3215.90
412.36	3379.73
412.55	3206.53
412.74	3396.12
412.93	3445.27
413.12	3384.41
413.31	3578.68
413.50	3578.68
413.69	3361.01
413.88	3597.40
414.07	3641.87
414.26	3702.73
414.45	3648.90
414.64	3756.56
414.83	3864.22
415.02	3812.73
415.22	3791.67
415.41	3899.33
415.60	3719.11
415.79	3889.97
415.98	3896.99
416.17	4042.11
416.36	4009.34
416.55	4060.83
416.74	4149.77
416.93	4135.73
417.12	4124.02
417.31	4215.30
417.50	4145.09
417.69	4194.24
417.88	4358.08
418.07	4241.05
418.26	4325.31
418.45	4245.73
418.64	4526.60
418.83	4372.12
419.02	4491.49
419.21	4444.68
419.39	4475.10
419.58	4322.97
419.77	4411.91
419.96	4575.75
420.15	4645.96
420.34	4540.64
420.53	4627.24
420.72	4720.86
420.91	4802.78
421.10	4730.22
421.29	4929.17
421.48	4690.43
421.67	4826.18
421.86	4891.72
422.05	4805.12
422.24	4798.10
422.43	5064.92
422.61	4954.91
422.80	4980.66
422.99	4924.49
423.18	4929.17
423.37	4964.28
423.56	4844.91
423.75	4919.81
423.94	4854.27
424.13	4685.75
424.32	4720.86
424.50	5055.56
424.69	5191.31
424.88	5132.79
425.07	5001.72
425.26	4870.65
425.45	4863.63
425.64	4903.42
425.83	5057.90
426.01	5067.26
426.20	5191.31
426.39	5144.50
426.58	5121.09
426.77	5055.56
426.96	5116.41
427.15	5081.30
427.33	5195.99
427.52	5097.69
427.71	5254.50
427.90	5322.38
428.09	5303.65
428.28	5245.14
428.46	5270.89
428.65	5500.26
428.84	5528.35
429.03	5500.26
429.22	5348.12
429.40	5434.72
429.59	5598.56
429.78	5397.28
429.97	5376.21
430.16	5444.09
430.34	5556.43
430.53	5659.42
430.72	5774.10
430.91	5685.16
431.10	5659.42
431.28	5720.27
431.47	5867.72
431.66	5781.12
431.85	5856.02
432.03	5837.30
432.22	5907.51
432.41	5942.62
432.60	5991.77
432.79	5921.56
432.97	6171.99
433.16	5989.43
433.35	6092.41
433.54	6148.59
433.72	6146.25
433.91	6211.78
434.10	6211.78
434.28	6094.76
434.47	6019.86
434.66	6139.23
434.85	6251.57
435.03	6223.48
435.22	6291.36
435.41	6569.88
435.59	6349.87
435.78	6502.01
435.97	6408.39
436.16	6527.75
436.34	6530.09
436.53	6490.31
436.72	6712.66
436.90	6548.82
437.09	6731.38
437.28	6457.54
437.46	6736.06
437.65	6663.51
437.84	6731.38
438.02	6853.09
438.21	6712.66
438.40	6712.66
438.58	6841.39
438.77	7124.59
438.96	7028.63
439.14	7073.10
439.33	7274.38
439.52	7337.58
439.70	7325.88
439.89	7339.92
440.08	7377.37
440.26	7583.34
440.45	7400.77
440.63	7499.08
440.82	7801.01
441.01	7386.73
441.19	7620.78
441.38	7770.58
441.57	7768.24
441.75	7948.46
441.94	7999.95
442.12	7948.46
442.31	8095.91
442.50	8201.24
442.68	8067.83
442.87	8030.38
443.05	8234.00
443.24	8203.58
443.43	7985.91
443.61	8290.18
443.80	8468.06
443.98	8044.42
444.17	7981.23
444.35	8210.60
444.54	8318.26
444.73	8322.94
444.91	8149.75
445.10	8435.29
445.28	8400.18
445.47	8365.07
445.65	8615.51
445.84	8444.65
446.02	8482.10
446.21	8709.13
446.39	8393.16
446.58	8388.48
446.77	8512.53
446.95	8351.03
447.14	8517.21
447.32	8765.31
447.51	8636.58
447.69	8547.64
447.88	8561.68
448.06	8535.93
448.25	8685.73
448.43	8699.77
448.62	8596.79
448.80	8716.16
448.99	8755.94
449.17	8716.16
449.36	8718.50
449.54	8795.73
449.73	9071.92
449.91	9092.98
450.10	8961.91
450.28	9111.71
450.46	9132.77
450.65	9317.67
450.83	9125.75
451.02	9181.92
451.20	9188.94
451.39	9270.86
451.57	9242.78
451.76	9261.50
451.94	9217.03
452.13	9359.80
452.31	9551.73
452.49	9146.81
452.68	9399.59
452.86	9303.63
453.05	9621.94
453.23	9458.10
453.42	9418.32
453.60	9383.21
453.78	9547.05
453.97	9596.20
454.15	9591.52
454.34	9643.01
454.52	9729.61
454.70	9980.04
454.89	9914.51
455.07	9966.00
455.26	9949.62
455.44	9991.75
455.62	9797.48
455.81	9891.10
455.99	9970.68
456.17	10345.17
456.36	10146.22
456.54	10153.24
456.73	10207.08
456.91	10473.90
457.09	10565.18
457.28	10677.52
457.46	10331.12
457.64	10455.17
457.83	10651.78
458.01	10597.95
458.19	10799.23
458.38	10668.16
458.56	10736.04
458.74	10736.04
458.93	10724.33
459.11	10789.87
459.29	10768.80
459.48	10953.71
459.66	10817.96
459.84	11002.86
460.03	11307.13
460.21	11138.61
460.39	11047.33
460.57	11056.69
460.76	11524.80
460.94	11171.38
461.12	10874.13
461.31	11398.41
461.49	11321.17
461.67	11295.43
461.85	11882.90
462.04	11192.44
462.22	11513.10
462.40	11506.07
462.59	11627.78
462.77	11648.85
462.95	11690.98
463.13	11875.88
463.32	11630.12
463.50	11770.55
463.68	11957.80
463.86	11829.07
464.05	11683.95
464.23	11857.15
464.41	12032.69
464.59	11756.51
464.78	12238.66
464.96	12201.21
465.14	11784.60
465.32	12320.58
465.50	12184.83
465.69	12123.98
465.87	12147.38
466.05	12142.70
466.23	12226.96
466.41	12315.90
466.60	12800.39
466.78	12219.94
466.96	12081.85
467.14	12322.92
467.32	12465.69
467.51	12779.32
467.69	12451.65
467.87	12409.52
468.05	12671.66
468.23	12451.65
468.41	12540.59
468.60	12681.02
468.78	12809.75
468.96	12596.76
469.14	12788.69
469.32	13025.08
469.50	12678.68
469.69	13102.32
469.87	13202.96
470.05	13181.90
470.23	13132.75
470.41	13280.20
470.59	13476.80
470.77	13294.24
470.95	13348.08
471.14	13624.26
471.32	13107.00
471.50	13469.78
471.68	13659.37
471.86	13589.15
472.04	13687.45
472.22	14061.94
472.40	13593.83
472.58	14155.56
472.77	14019.81
472.95	14097.05
473.13	14717.29
473.31	14193.01
473.49	14281.95
473.67	14314.72
473.85	14487.92
474.03	14771.12
474.21	15166.67
474.39	14773.46
474.57	14679.84
474.75	15054.33
474.93	15150.29
475.12	14944.32
475.30	14930.28
475.48	15007.52
475.66	15192.42
475.84	15227.53
476.02	15489.67
476.20	15494.35
476.38	15674.57
476.56	16315.87
476.74	16011.60
476.92	16201.19
477.10	16051.39
477.28	16329.92
477.46	16411.84
477.64	16610.78
477.82	16748.87
478.00	17050.80
478.18	16882.28
478.36	16835.47
478.54	17231.02
478.72	17399.54
478.90	17680.41
479.08	17411.25
479.26	17886.37
479.44	18005.74
479.62	17977.65
479.80	18059.57
479.98	18384.91
480.16	18710.24
480.34	18600.24
480.52	18569.81
480.70	18714.92
480.88	18515.98
481.06	18684.50
481.24	18977.06
481.41	19152.60
481.59	19641.78
481.77	19613.69
481.95	19618.37
482.13	19700.29
482.31	19637.09
482.49	20369.68
482.67	20500.75
482.85	20531.18
483.03	20533.52
483.21	20863.54
483.39	20929.07
483.57	20947.79
483.74	21074.18
483.92	21523.57
484.10	21226.32
484.28	22066.57
484.46	22221.05
484.64	22490.21
484.82	22214.02
485.00	22380.20
485.18	22728.94
485.35	23192.37
485.53	22710.22
485.71	23307.05
485.89	23513.02
486.07	23653.45
486.25	23550.47
486.43	23594.94
486.61	23934.32
486.78	24086.45
486.96	24018.58
487.14	24650.52
487.32	24776.91
487.50	25163.10
487.68	25010.96
487.85	25259.06
488.03	25579.71
488.21	25675.68
488.39	25783.34
488.57	26518.27
488.75	26387.20
488.92	26745.30
489.10	26862.33
489.28	26864.67
489.46	27349.16
489.64	27243.84
489.81	27805.56
489.99	27761.09
490.17	27868.76
490.35	28390.70
490.53	28187.07
490.70	28673.90
490.88	28144.94
491.06	28657.52
491.24	28577.94
491.41	29158.39
491.59	29191.16
491.77	29462.66
491.95	29525.86
492.13	30113.33
492.30	30022.05
492.48	30359.09
492.66	30457.39
492.84	30274.83
493.01	30579.10
493.19	31211.04
493.37	31386.58
493.54	31168.91
493.72	31585.53
493.90	31426.37
494.08	31716.60
494.25	32346.20
494.43	32404.72
494.61	32481.95
494.79	32816.65
494.96	32568.55
495.14	32666.86
495.32	33666.27
495.49	33376.04
495.67	33729.46
495.85	33574.98
496.02	33741.16
496.20	33975.22
496.38	34361.40
496.55	34110.97
496.73	35292.94
496.91	34925.47
497.09	34724.19
497.26	35112.72
497.44	35058.88
497.62	35325.71
497.79	36395.33
497.97	35791.47
498.14	36070.00
498.32	36528.74
498.50	36545.12
498.67	36652.79
498.85	36910.25
499.03	37125.58
499.20	36996.85
499.38	37240.26
499.56	37160.69
499.73	37464.96
499.91	37652.20
500.08	37837.10
500.26	37834.76
500.44	38141.37
500.61	38089.88
500.79	37972.85
500.97	38190.52
501.14	39072.90
501.32	38705.44
501.49	38829.49
501.67	38841.19
501.84	38733.53
502.02	39016.73
502.20	39330.36
502.37	39328.02
502.55	39423.98
502.72	39716.55
502.90	39732.93
503.07	39693.15
503.25	39751.66
503.43	40360.20
503.60	40636.38
503.78	40584.89
503.95	40135.51
504.13	40615.32
504.30	41219.17
504.48	40692.55
504.65	40992.14
504.83	41104.49
505.01	41464.93
505.18	41441.53
505.36	41928.36
505.53	41223.86
505.71	41698.98
505.88	42012.62
506.06	42209.22
506.23	42078.15
506.41	42508.81
506.58	42270.08
506.76	42836.48
506.93	43021.39
507.11	42333.27
507.28	43021.39
507.46	42721.80
507.63	43208.63
507.81	43494.18
507.98	43292.89
508.16	43028.41
508.33	43356.08
508.50	43800.79
508.68	44086.33
508.85	44044.20
509.03	44355.49
509.20	44102.71
509.38	44112.08
509.55	44823.60
509.73	44460.82
509.90	45034.25
510.08	44872.75
510.25	45062.33
510.42	44982.76
510.60	45371.28
510.77	45490.65
510.95	45577.25
511.12	45354.90
511.30	45537.46
511.47	45528.10
511.64	45567.89
511.82	46307.50
511.99	45865.14
512.17	46181.11
512.34	45954.08
512.51	46520.49
512.69	46689.01
512.86	46232.60
513.04	46644.54
513.21	46993.28
513.38	47082.22
513.56	47349.04
513.73	47302.23
513.90	47271.80
514.08	47260.10
514.25	47611.18
514.43	47873.32
514.60	47681.39
514.77	47983.32
514.95	47985.66
515.12	47838.21
515.29	47758.63
515.47	48348.45
515.64	48552.07
515.81	48219.72
515.99	48540.37
516.16	48449.09
516.33	48776.76
516.51	48933.58
516.68	49191.04
516.85	48610.59
517.03	49265.94
517.20	49413.39
517.37	49010.82
517.54	49059.97
517.72	49090.40
517.89	49605.31
518.06	49371.26
518.24	49455.52
518.41	49134.87
518.58	49656.81
518.75	49535.10
518.93	49790.22
519.10	49820.64
519.27	49862.77
519.45	50012.57
519.62	50195.13
519.79	50047.68
519.96	50447.91
520.14	50293.43
520.31	50019.59
520.48	50731.11
520.65	50375.35
520.83	50745.15
521.00	50635.15
521.17	50969.85
521.34	50990.91
521.52	51234.33
521.69	51110.28
521.86	51283.48
522.03	51175.81
522.20	51793.71
522.38	51477.74
522.55	51629.88
522.72	51409.87
522.89	51683.71
523.07	51643.92
523.24	51913.08
523.41	51772.65
523.58	51774.99
523.75	52105.01
523.92	52135.43
524.10	52392.89
524.27	52432.68
524.44	52186.92
524.61	52243.10
524.78	52514.60
524.96	52261.82
525.13	52612.90
525.30	52435.02
525.47	52687.80
525.64	52701.84
525.81	52582.48
525.98	52823.55
526.16	52814.19
526.33	52736.95
526.50	53055.26
526.67	52830.57
526.84	53120.80
527.01	53029.52
527.18	53183.99
527.36	53251.87
527.53	53319.74
527.70	53600.61
527.87	53535.07
528.04	53240.17
528.21	53413.37
528.38	53469.54
528.55	53748.06
528.72	53511.67
528.89	53488.26
529.07	53272.93
529.24	53743.38
529.41	53813.60
529.58	54115.53
529.75	53872.11
529.92	53984.46
530.09	53886.15
530.26	54183.40
530.43	54279.36
530.60	53820.62
530.77	53757.42
530.94	54323.83
531.11	54181.06
531.28	54211.49
531.46	54192.76
531.63	54354.26
531.80	54405.75
531.97	54913.65
532.14	54660.87
532.31	54548.53
532.48	54625.76
532.65	54960.46
532.82	54585.97
532.99	54798.96
533.16	54979.18
533.33	54981.52
533.50	55138.34
533.67	55257.71
533.84	54944.08
534.01	54775.56
534.18	55224.94
534.35	55583.04
534.52	54930.03
534.69	55419.20
534.86	55426.23
535.03	55255.37
535.20	55456.65
535.37	55456.65
535.54	55559.64
535.71	55517.51
535.88	55365.37
536.05	55819.44
536.22	55805.39
536.38	55849.86
536.55	55704.75
536.72	55887.31
536.89	55585.38
537.06	55800.71
537.23	56032.42
537.40	56011.36
537.57	55840.50
537.74	55884.97
537.91	56086.26
538.08	56170.52
538.25	55880.29
538.42	55931.78
538.59	56423.29
538.75	55681.34
538.92	56236.05
539.09	56130.73
539.26	56374.14
539.43	56170.52
539.60	56519.26
539.77	56170.52
539.94	56601.18
540.11	56465.42
540.28	56523.94
540.44	56776.72
540.61	56575.43
540.78	56376.48
540.95	56697.14
541.12	56542.66
541.29	56385.85
541.46	56542.66
541.62	56720.54
541.79	56919.49
541.96	56339.04
542.13	56591.81
542.30	56898.42
542.47	56996.73
542.63	57029.49
542.80	57045.88
542.97	57345.47
543.14	57303.34
543.31	57408.66
543.48	57329.08
543.64	57567.82
543.81	57602.92
543.98	57504.62
544.15	57549.09
544.32	57640.37
544.48	57827.62
544.65	57593.56
544.82	57392.28
544.99	57516.32
545.16	57755.06
545.32	57764.42
545.49	57766.76
545.66	58064.01
545.83	57993.79
546.00	57748.04
546.16	58035.92
546.33	57815.91
546.50	57726.97
546.67	57832.30
546.83	57712.93
547.00	57893.15
547.17	57961.03
547.34	58014.86
547.50	58157.63
547.67	58281.68
547.84	58010.18
548.00	58089.76
548.17	58272.32
548.34	58309.77
548.51	58660.85
548.67	58288.70
548.84	58227.85
549.01	58328.49
549.18	58333.17
549.34	58471.26
549.51	58649.14
549.68	58354.24
549.84	58574.25
550.01	58592.97
550.18	58382.32
550.34	58557.86
550.51	58607.01
550.68	58588.29
550.84	58513.39
551.01	58843.41
551.18	58780.21
551.34	58817.66
551.51	58777.87
551.68	58660.85
551.84	58789.58
552.01	58562.54
552.18	59011.93
552.34	58637.44
552.51	58981.50
552.68	58688.93
552.84	58953.41
553.01	59004.91
553.18	59063.42
553.34	58962.78
553.51	58770.85
553.67	58913.62
553.84	59047.04
554.01	59061.08
554.17	59154.70
554.34	59093.85
554.51	59084.48
554.67	59348.96
554.84	59096.19
555.00	59180.45
555.17	58934.69
555.33	59297.47
555.50	59112.57
555.67	59096.19
555.83	59103.21
556.00	59311.52
556.16	59454.29
556.33	59524.50
556.50	59433.22
556.66	59508.12
556.83	59346.62
556.99	59636.85
557.16	59695.36
557.32	59746.86
557.49	59810.05
557.65	59674.30
557.82	59608.76
557.98	59402.80
558.15	59599.40
558.32	59634.51
558.48	59491.74
558.65	59760.90
558.81	59622.81
558.98	59744.51
559.14	59468.33
559.31	59756.22
559.47	59805.37
559.64	59718.77
559.80	59966.87
559.97	59934.10
560.13	59835.80
560.30	59819.41
560.46	59639.19
560.63	59945.80
560.79	59922.40
560.96	60020.70
561.12	60186.88
561.29	60065.17
561.45	59964.52
561.61	59976.23
561.78	59957.50
561.94	59826.43
562.11	59880.27
562.27	59948.14
562.44	60252.41
562.60	60287.52
562.77	60161.13
562.93	60074.53
563.10	60219.64
563.26	60170.49
563.42	60331.99
563.59	60207.94
563.75	60114.32
563.92	60266.45
564.08	60233.69
564.24	60413.91
564.41	60289.86
564.57	60299.22
564.74	60207.94
564.90	60467.74
565.07	60179.85
565.23	60121.34
565.39	60299.22
565.56	60327.31
565.72	60289.86
565.88	60266.45
566.05	60313.26
566.21	60229.01
566.38	60313.26
566.54	60477.10
566.70	60519.23
566.87	60622.22
567.03	60404.55
567.19	60364.76
567.36	60509.87
567.52	60353.05
567.68	60772.01
567.85	60413.91
568.01	60741.58
568.17	60453.70
568.34	60720.52
568.50	60488.80
568.66	60420.93
568.83	60523.91
568.99	60341.35
569.15	60645.62
569.32	60416.25
569.48	60360.08
569.64	60629.24
569.81	60556.68
569.97	60479.44
570.13	60673.71
570.30	60615.19
570.46	60636.26
570.62	60727.54
570.78	60584.77
570.95	60727.54
571.11	60711.16
571.27	60772.01
571.43	60725.20
571.60	60912.44
571.76	60811.80
571.92	60896.06
572.09	60767.33
572.25	60722.86
572.41	60746.26
572.57	60858.61
572.74	60917.12
572.90	60793.07
573.06	60755.63
573.22	60750.94
573.38	60999.04
573.55	60713.50
573.71	60952.23
573.87	60767.33
574.03	60879.67
574.20	60743.92
574.36	60697.11
574.52	60947.55
574.68	60989.68
574.84	60919.46
575.01	60956.91
575.17	60882.02
575.33	60685.41
575.49	60853.93
575.65	60725.20
575.82	61099.68
575.98	60842.23
576.14	60963.93
576.30	61001.38
576.46	60828.18
576.62	60767.33
576.79	60872.65
576.95	60816.48
577.11	60933.51
577.27	60917.12
577.43	60961.59
577.59	60767.33
577.75	60860.95
577.92	60835.20
578.08	60898.40
578.24	61139.47
578.40	61092.66
578.56	61059.90
578.72	60898.40
578.88	61146.50
579.04	61127.77
579.21	61123.09
579.37	60963.93
579.53	61289.27
579.69	60640.94
579.85	60942.87
580.01	61066.92
580.17	60645.62
580.33	61137.13
580.49	61038.83
580.65	60996.70
580.82	61167.56
580.98	61076.28
581.14	60949.89
581.30	61102.03
581.46	60919.46
581.62	61092.66
581.78	61038.83
581.94	61113.73
582.10	61200.33
582.26	60987.34
582.42	61120.75
582.58	61111.39
582.74	60982.66
582.90	61006.06
583.06	61022.45
583.22	61050.53
583.38	61076.28
583.54	61141.81
583.70	61282.25
583.86	61193.31
584.02	61057.56
584.18	61228.41
584.34	61022.45
584.50	61256.50
584.66	61043.51
584.82	61069.26
584.98	61345.44
585.14	61221.39
585.30	60961.59
585.46	61153.52
585.62	61144.16
585.78	61549.07
585.94	60942.87
586.10	61272.88
586.26	61162.88
586.42	61333.74
586.58	61275.22
586.74	61319.70
586.90	60994.36
587.06	61109.05
587.22	61205.01
587.38	61214.37
587.54	61300.97
587.70	61293.95
587.86	61209.69
588.02	61333.74
588.18	61080.96
588.34	61183.94
588.49	61052.87
