SpectraSuite Data File
++++++++++++++++++++++++++++++++++++
Date: Fri Oct 25 11:23:47 EDT 2013
User: price-jones
Dark Spectrum Present: No
Reference Spectrum Present: No
Number of Sampled Component Spectra: 1
Spectrometers: USB2+H05261
Integration Time (usec): 100000 (USB2+H05261)
Spectra Averaged: 1 (USB2+H05261)
Boxcar Smoothing: 0 (USB2+H05261)
Correct for Electrical Dark: No (USB2+H05261)
Strobe/Lamp Enabled: No (USB2+H05261)
Correct for Detector Non-linearity: No (USB2+H05261)
Correct for Stray Light: No (USB2+H05261)
Number of Pixels in Processed Spectrum: 2048
>>>>>Begin Processed Spectral Data<<<<<
365.73	250.44
365.92	250.44
366.12	250.44
366.32	159.16
366.52	152.13
366.72	205.97
366.91	114.69
367.11	79.58
367.31	119.37
367.51	60.85
367.70	208.31
367.90	170.86
368.10	60.85
368.30	81.92
368.49	67.88
368.69	196.60
368.89	112.35
369.09	161.50
369.28	159.16
369.48	166.18
369.68	180.22
369.87	222.35
370.07	177.88
370.27	222.35
370.47	320.65
370.66	643.65
370.86	610.88
371.06	674.07
371.25	772.38
371.45	620.24
371.65	634.29
371.84	718.54
372.04	641.31
372.24	758.33
372.44	739.61
372.63	678.76
372.83	713.86
373.03	791.10
373.22	744.29
373.42	786.42
373.62	755.99
373.81	851.96
374.01	844.93
374.21	793.44
374.40	830.89
374.60	805.14
374.79	814.51
374.99	807.48
375.19	828.55
375.38	896.43
375.58	781.74
375.78	940.90
375.97	870.68
376.17	826.21
376.37	889.40
376.56	863.66
376.76	870.68
376.95	844.93
377.15	966.64
377.35	931.53
377.54	980.68
377.74	901.11
377.93	882.38
378.13	924.51
378.33	929.19
378.52	887.06
378.72	973.66
378.91	1027.50
379.11	968.98
379.31	929.19
379.50	912.81
379.70	954.94
379.89	903.45
380.09	898.77
380.28	1032.18
380.48	966.64
380.68	983.02
380.87	1039.20
381.07	992.39
381.26	1039.20
381.46	945.58
381.65	1109.41
381.85	1142.18
382.04	1071.97
382.24	1001.75
382.43	1114.10
382.63	1015.79
382.83	1111.75
383.02	1039.20
383.22	1135.16
383.41	1050.90
383.61	1170.27
383.80	1172.61
384.00	1139.84
384.19	1050.90
384.39	1004.09
384.58	1102.39
384.78	1179.63
384.97	1179.63
385.17	1093.03
385.36	1196.01
385.56	1071.97
385.75	1181.97
385.95	1153.88
386.14	1179.63
386.34	1090.69
386.53	1226.44
386.72	1186.65
386.92	1240.48
387.11	1153.88
387.31	1214.74
387.50	1313.04
387.70	1224.10
387.89	1203.04
388.09	1343.47
388.28	1268.57
388.48	1277.93
388.67	1362.19
388.86	1294.32
389.06	1254.53
389.25	1338.79
389.45	1378.58
389.64	1228.78
389.84	1277.93
390.03	1291.98
390.22	1352.83
390.42	1320.06
390.61	1434.75
390.81	1385.60
391.00	1448.79
391.19	1350.49
391.39	1369.21
391.58	1423.05
391.78	1493.26
391.97	1526.03
392.16	1509.65
392.36	1479.22
392.55	1460.49
392.75	1544.75
392.94	1561.14
393.13	1547.09
393.33	1497.94
393.52	1540.07
393.71	1591.56
393.91	1619.65
394.10	1598.59
394.29	1621.99
394.49	1596.25
394.68	1678.16
394.88	1521.35
395.07	1678.16
395.26	1734.34
395.46	1699.23
395.65	1722.63
395.84	1652.42
396.04	1750.72
396.23	1802.21
396.42	1701.57
396.62	1858.39
396.81	1760.08
397.00	1863.07
397.19	1921.58
397.39	1771.79
397.58	1813.92
397.77	1818.60
397.97	1792.85
398.16	1830.30
398.35	1975.41
398.55	1914.56
398.74	1980.09
398.93	1912.22
399.12	1944.99
399.32	1846.68
399.51	1961.37
399.70	2059.67
399.90	1968.39
400.09	2052.65
400.28	1963.71
400.47	2043.29
400.67	2169.68
400.86	2047.97
401.05	2015.20
401.24	2162.66
401.44	2069.03
401.63	2160.31
401.82	2230.53
402.01	2083.08
402.21	2139.25
402.40	2275.00
402.59	2235.21
402.78	2190.74
402.97	2186.06
403.17	2307.77
403.36	2303.09
403.55	2256.28
403.74	2307.77
403.93	2359.26
404.13	2366.28
404.32	2373.30
404.51	2408.41
404.70	2317.13
404.89	2382.67
405.09	2525.44
405.28	2429.48
405.47	2579.27
405.66	2609.70
405.85	2644.81
406.05	2569.91
406.24	2579.27
406.43	2558.21
406.62	2700.98
406.81	2635.44
407.00	2654.17
407.20	2546.50
407.39	2532.46
407.58	2633.10
407.77	2710.34
407.96	2874.18
408.15	2857.79
408.34	2839.07
408.54	2738.43
408.73	2799.28
408.92	2904.60
409.11	2967.80
409.30	2864.82
409.49	2822.69
409.68	2885.88
409.87	2939.71
410.07	3021.63
410.26	3155.04
410.45	3030.99
410.64	2981.84
410.83	3045.04
411.02	3129.30
411.21	3318.88
411.40	3192.49
411.59	3194.83
411.78	3241.64
411.98	3300.16
412.17	3197.17
412.36	3293.13
412.55	3356.33
412.74	3414.84
412.93	3520.17
413.12	3311.86
413.31	3630.17
413.50	3482.72
413.69	3506.12
413.88	3599.74
414.07	3550.59
414.26	3634.85
414.45	3588.04
414.64	3712.09
414.83	3896.99
415.02	3789.33
415.22	3971.89
415.41	3864.22
415.60	3761.24
415.79	3911.04
415.98	3899.33
416.17	4009.34
416.36	3908.69
416.55	4046.79
416.74	4154.45
416.93	4173.18
417.12	4135.73
417.31	4095.94
417.50	4077.21
417.69	4454.04
417.88	4355.74
418.07	4346.37
418.26	4287.86
418.45	4203.60
418.64	4545.32
418.83	4599.15
419.02	4552.34
419.21	4580.43
419.39	4559.36
419.58	4461.06
419.77	4461.06
419.96	4781.71
420.15	4631.92
420.34	4767.67
420.53	4624.90
420.72	4777.03
420.91	4667.03
421.10	4877.68
421.29	4903.42
421.48	4664.69
421.67	4758.31
421.86	4819.16
422.05	4938.53
422.24	4854.27
422.43	4863.63
422.61	5011.09
422.80	4961.94
422.99	4992.36
423.18	4973.64
423.37	5121.09
423.56	5083.64
423.75	5018.11
423.94	4833.21
424.13	4624.90
424.32	4655.33
424.50	5022.79
424.69	5181.95
424.88	5090.67
425.07	4968.96
425.26	4875.34
425.45	4929.17
425.64	5015.77
425.83	5053.22
426.01	5069.60
426.20	5149.18
426.39	5256.84
426.58	5123.43
426.77	5090.67
426.96	5289.61
427.15	5095.35
427.33	5249.82
427.52	5151.52
427.71	5322.38
427.90	5067.26
428.09	5483.88
428.28	5507.28
428.46	5387.91
428.65	5472.17
428.84	5643.03
429.03	5537.71
429.22	5334.08
429.40	5593.88
429.59	5502.60
429.78	5369.19
429.97	5268.55
430.16	5462.81
430.34	5717.93
430.53	5799.85
430.72	5722.61
430.91	5809.21
431.10	5720.27
431.28	5900.49
431.47	5806.87
431.66	5998.79
431.85	5614.95
432.03	5888.79
432.22	5998.79
432.41	5984.75
432.60	5982.41
432.79	6036.24
432.97	5980.07
433.16	6099.44
433.35	6008.16
433.54	6134.54
433.72	6134.54
433.91	6232.85
434.10	6139.23
434.28	6237.53
434.47	6197.74
434.66	6293.70
434.85	6342.85
435.03	6384.98
435.22	6209.44
435.41	6558.18
435.59	6462.22
435.78	6431.79
435.97	6413.07
436.16	6537.12
436.34	6553.50
436.53	6637.76
436.72	6539.46
436.90	6317.11
437.09	6651.80
437.28	6450.52
437.46	6555.84
437.65	6633.08
437.84	6850.75
438.02	6778.19
438.21	6918.62
438.40	6747.76
438.58	7290.77
438.77	6995.86
438.96	6974.80
439.14	7346.94
439.33	7314.17
439.52	7155.02
439.70	7281.41
439.89	7304.81
440.08	7606.74
440.26	7222.89
440.45	7370.35
440.63	7585.68
440.82	7658.23
441.01	7618.44
441.19	7655.89
441.38	7716.75
441.57	7793.98
441.75	7981.23
441.94	8086.55
442.12	8191.88
442.31	8224.64
442.50	7948.46
442.68	8121.66
442.87	7892.29
443.05	8107.62
443.24	8388.48
443.43	8039.74
443.61	8243.37
443.80	8402.52
443.98	8107.62
444.17	8072.51
444.35	8173.15
444.54	8299.54
444.73	8304.22
444.91	8400.18
445.10	8400.18
445.28	8395.50
445.47	8348.69
445.65	8250.39
445.84	8468.06
446.02	8362.73
446.21	8510.19
446.39	8549.98
446.58	8608.49
446.77	8463.38
446.95	8367.42
447.14	8430.61
447.32	8681.05
447.51	8606.15
447.69	8531.25
447.88	8552.32
448.06	8657.64
448.25	8582.74
448.43	8704.45
448.62	8781.69
448.80	8613.17
448.99	8744.24
449.17	8699.77
449.36	8816.80
449.54	8990.00
449.73	9022.77
449.91	9069.58
450.10	9078.94
450.28	9135.11
450.46	9198.31
450.65	9167.88
450.83	9011.06
451.02	9027.45
451.20	9249.80
451.39	9289.59
451.57	9165.54
451.76	8964.25
451.94	9364.48
452.13	9327.03
452.31	9397.25
452.49	9191.28
452.68	9593.86
452.86	9380.87
453.05	9444.06
453.23	9713.22
453.42	9514.28
453.60	9554.07
453.78	9795.14
453.97	9355.12
454.15	9617.26
454.34	9493.21
454.52	9650.03
454.70	9774.08
454.89	9654.71
455.07	9933.23
455.26	10029.20
455.44	10111.11
455.62	10092.39
455.81	10001.11
455.99	9937.91
456.17	10073.67
456.36	9958.98
456.54	10258.57
456.73	10434.11
456.91	10387.30
457.09	10382.62
457.28	10530.07
457.46	10476.24
457.64	10604.97
457.83	10633.05
458.01	10431.77
458.19	10731.36
458.38	10466.88
458.56	10899.87
458.74	10869.45
458.93	11012.22
459.11	10768.80
459.29	10829.66
459.48	10923.28
459.66	10867.11
459.84	11215.85
460.03	11157.33
460.21	11232.23
460.39	11009.88
460.57	10909.24
460.76	11220.53
460.94	11302.45
461.12	11309.47
461.31	11049.67
461.49	11393.73
461.67	11314.15
461.85	11475.65
462.04	11227.55
462.22	11578.63
462.40	11587.99
462.59	11686.29
462.77	11698.00
462.95	11541.18
463.13	11541.18
463.32	11784.60
463.50	11873.54
463.68	11838.43
463.86	11829.07
464.05	11754.17
464.23	11929.71
464.41	11850.13
464.59	11859.49
464.78	12549.95
464.96	12133.34
465.14	11749.49
465.32	12016.31
465.50	12175.47
465.69	12322.92
465.87	12226.96
466.05	12154.40
466.23	12269.09
466.41	12114.61
466.60	12641.23
466.78	12271.43
466.96	12390.80
467.14	12343.99
467.32	12400.16
467.51	12468.03
467.69	12311.22
467.87	12428.24
468.05	12585.06
468.23	12657.62
468.41	12423.56
468.60	12807.41
468.78	12912.74
468.96	12926.78
469.14	12872.95
469.32	13158.49
469.50	12631.87
469.69	13114.02
469.87	13245.09
470.05	13224.03
470.23	13263.82
470.41	13179.56
470.59	13366.80
470.77	13427.65
470.95	13296.58
471.14	13853.63
471.32	13345.73
471.50	13497.87
471.68	13729.58
471.86	13593.83
472.04	13752.99
472.22	14169.60
472.40	13872.36
472.58	14015.13
472.77	14118.11
472.95	14211.73
473.13	14593.24
473.31	14305.35
473.49	14401.32
473.67	14408.34
473.85	14487.92
474.03	14691.54
474.21	14721.97
474.39	14967.73
474.57	14895.17
474.75	15206.46
474.93	15133.90
475.12	15080.07
475.30	15253.27
475.48	15396.04
475.66	15154.97
475.84	15077.73
476.02	15463.92
476.20	15789.25
476.38	16009.26
476.56	16231.62
476.74	16051.39
476.92	15934.37
477.10	15735.42
477.28	16292.47
477.46	16245.66
477.64	16812.07
477.82	16432.90
478.00	17144.42
478.18	16943.14
478.36	17106.98
478.54	17216.98
478.72	17322.30
478.90	17514.23
479.08	17500.19
479.26	17755.30
479.44	17699.13
479.62	18061.91
479.80	18010.42
479.98	18373.21
480.16	18806.20
480.34	18565.13
480.52	18712.58
480.70	18740.67
480.88	18384.91
481.06	18515.98
481.24	18916.21
481.41	19506.02
481.59	19157.28
481.77	19641.78
481.95	19836.04
482.13	19941.36
482.31	19824.34
482.49	20341.60
482.67	20217.55
482.85	20821.41
483.03	20723.10
483.21	21317.60
483.39	21186.53
483.57	20996.95
483.74	21394.84
483.92	21678.04
484.10	21259.09
484.28	21937.84
484.46	22019.76
484.64	22801.50
484.82	22209.34
485.00	22656.39
485.18	23103.43
485.35	22963.00
485.53	23075.34
485.71	23295.35
485.89	23623.03
486.07	23445.15
486.25	23906.23
486.43	23903.89
486.61	24088.79
486.78	24383.70
486.96	24266.67
487.14	24826.06
487.32	24685.63
487.50	24856.49
487.68	24975.86
487.85	25259.06
488.03	25811.43
488.21	26216.34
488.39	25986.97
488.57	26326.35
488.75	26366.13
488.92	26759.34
489.10	27063.61
489.28	27182.98
489.46	27178.30
489.64	27187.66
489.81	27765.78
489.99	27906.21
490.17	27903.87
490.35	28233.88
490.53	28505.38
490.70	28226.86
490.88	28573.26
491.06	28982.85
491.24	29542.24
491.41	29486.07
491.59	29823.11
491.77	29457.98
491.95	29923.75
492.13	30012.69
492.30	30015.03
492.48	30188.23
492.66	30356.75
492.84	30202.27
493.01	31072.95
493.19	31147.85
493.37	31463.82
493.54	31409.99
493.72	31405.31
493.90	31651.06
494.08	31952.99
494.25	32402.38
494.43	32493.66
494.61	32669.20
494.79	32882.19
494.96	32818.99
495.14	32943.04
495.32	33455.62
495.49	33198.16
495.67	33481.36
495.85	33984.58
496.02	33757.55
496.20	34073.52
496.38	34539.29
496.55	34401.19
496.73	35072.93
496.91	34590.78
497.09	34878.66
497.26	35054.20
497.44	34960.58
497.62	35793.81
497.79	36222.13
497.97	35569.12
498.14	36102.76
498.32	36664.49
498.50	36484.27
498.67	36893.86
498.85	36720.66
499.03	36999.19
499.20	37163.03
499.38	37067.06
499.56	37216.86
499.73	37324.52
499.91	37607.73
500.08	37860.51
500.26	37926.04
500.44	37696.67
500.61	37912.00
500.79	38150.73
500.97	38356.70
501.14	38845.87
501.32	38745.23
501.49	39124.40
501.67	38986.30
501.84	39353.77
502.02	39115.03
502.20	39159.50
502.37	39669.74
502.55	39658.04
502.72	39463.77
502.90	39777.40
503.07	39454.41
503.25	39807.83
503.43	40053.59
503.60	40348.50
503.78	40334.45
503.95	40673.83
504.13	40856.39
504.30	41134.92
504.48	40699.58
504.65	40933.63
504.83	41057.68
505.01	41375.99
505.18	41710.69
505.36	41808.99
505.53	41308.11
505.71	41851.12
505.88	41947.08
506.06	41345.56
506.23	42153.05
506.41	41968.15
506.58	42539.24
506.76	42422.21
506.93	42869.25
507.11	42539.24
507.28	42614.13
507.46	43119.69
507.63	42792.01
507.81	43810.15
507.98	43206.29
508.16	43533.96
508.33	43845.26
508.50	43576.09
508.68	43859.30
508.85	44399.96
509.03	44416.35
509.20	44538.05
509.38	44594.23
509.55	44617.63
509.73	44229.10
509.90	44980.42
510.08	44854.03
510.25	44851.69
510.42	44755.72
510.60	45350.22
510.77	45289.37
510.95	45860.46
511.12	45184.04
511.30	45378.31
511.47	45872.16
511.64	45792.58
511.82	46293.46
511.99	46190.47
512.17	46342.61
512.34	46209.20
512.51	46595.38
512.69	46543.89
512.86	46356.65
513.04	46909.02
513.21	46843.48
513.38	46579.00
513.56	47044.77
513.73	47327.97
513.90	47168.82
514.08	47199.24
514.25	47632.24
514.43	47547.98
514.60	48168.22
514.77	47725.86
514.95	48151.84
515.12	47779.70
515.29	47807.78
515.47	48072.26
515.64	48397.60
515.81	48060.56
515.99	48254.82
516.16	48889.11
516.33	48683.14
516.51	49345.51
516.68	48552.07
516.85	48786.13
517.03	48868.05
517.20	48961.67
517.37	49010.82
517.54	49097.42
517.72	49858.09
517.89	49202.74
518.06	49450.84
518.24	49329.13
518.41	49392.33
518.58	49977.46
518.75	49361.90
518.93	49764.47
519.10	49507.01
519.27	50218.53
519.45	49963.42
519.62	50490.04
519.79	50176.40
519.96	50293.43
520.14	50600.04
520.31	50340.24
520.48	51042.40
520.65	50457.27
520.83	50873.88
521.00	50939.42
521.17	50820.05
521.34	50873.88
521.52	51021.34
521.69	50724.09
521.86	51100.92
522.03	51400.50
522.20	51512.85
522.38	51868.61
522.55	51189.86
522.72	51512.85
522.89	51449.66
523.07	51721.16
523.24	51817.12
523.41	51910.74
523.58	51812.44
523.75	52205.65
523.92	52210.33
524.10	52509.92
524.27	52514.60
524.44	52402.25
524.61	52128.41
524.78	52573.11
524.96	52652.69
525.13	52615.24
525.30	52879.72
525.47	52708.86
525.64	52678.44
525.81	53209.74
525.98	53183.99
526.16	52900.79
526.33	52851.64
526.50	53228.46
526.67	52959.30
526.84	53146.54
527.01	53382.94
527.18	53209.74
527.36	53172.29
527.53	53064.63
527.70	53755.08
527.87	53565.50
528.04	53387.62
528.21	53745.72
528.38	53731.68
528.55	53902.54
528.72	53855.73
528.89	53731.68
529.07	53654.44
529.24	53792.53
529.41	53694.23
529.58	53797.21
529.75	54049.99
529.92	54005.52
530.09	54054.67
530.26	54054.67
530.43	54220.85
530.60	53965.73
530.77	54309.79
530.94	54351.92
531.11	54284.04
531.28	54494.69
531.46	54372.99
531.63	54485.33
531.80	54567.25
531.97	54609.38
532.14	54337.88
532.31	54497.03
532.48	54511.08
532.65	54625.76
532.82	54663.21
532.99	55065.78
533.16	55033.02
533.33	55065.78
533.50	55344.31
533.67	55435.59
533.84	54951.10
534.01	54908.97
534.18	55224.94
534.35	55339.63
534.52	55311.54
534.69	55557.30
534.86	55491.76
535.03	55454.31
535.20	55367.71
535.37	55648.58
535.54	55688.37
535.71	55304.52
535.88	55856.88
536.05	55594.74
536.22	55760.92
536.38	55962.21
536.55	55800.71
536.72	55728.16
536.89	55730.50
537.06	55936.46
537.23	55924.76
537.40	55899.01
537.57	56011.36
537.74	55901.36
537.91	56240.73
538.08	56046.47
538.25	55863.91
538.42	56182.22
538.59	56404.57
538.75	56308.61
538.92	56301.59
539.09	56519.26
539.26	56126.05
539.43	56381.16
539.60	56472.45
539.77	56442.02
539.94	56617.56
540.11	56563.73
540.28	56610.54
540.44	56575.43
540.61	56788.42
540.78	56631.60
540.95	56839.91
541.12	56659.69
541.29	56715.86
541.46	56844.59
541.62	56788.42
541.79	57198.01
541.96	56608.20
542.13	56556.70
542.30	56797.78
542.47	57120.77
542.63	56879.70
542.80	57001.41
542.97	57499.94
543.14	57352.49
543.31	57354.83
543.48	57366.53
543.64	57680.16
543.81	57546.75
543.98	57677.82
544.15	57429.72
544.32	57733.99
544.48	57752.72
544.65	57434.41
544.82	57588.88
544.99	57343.12
545.16	57748.04
545.32	57474.20
545.49	57998.48
545.66	57923.58
545.83	57553.77
546.00	58012.52
546.16	57750.38
546.33	58075.71
546.50	57464.83
546.67	58000.82
546.83	57748.04
547.00	57993.79
547.17	57729.31
547.34	58134.23
547.50	58204.44
547.67	58117.84
547.84	58183.38
548.00	58246.57
548.17	58482.97
548.34	58176.36
548.51	58422.11
548.67	58396.37
548.84	58351.90
549.01	58101.46
549.18	58450.20
549.34	58321.47
549.51	58663.19
549.68	58485.31
549.84	58646.80
550.01	58504.03
550.18	58499.35
550.34	58387.00
550.51	58677.23
550.68	58604.67
550.84	58602.33
551.01	58784.90
551.18	58592.97
551.34	58766.17
551.51	58887.88
551.68	58908.94
551.84	58791.92
552.01	58745.11
552.18	58710.00
552.34	58812.98
552.51	58754.47
552.68	58745.11
552.84	58768.51
553.01	59042.35
553.18	58979.16
553.34	58969.80
553.51	58927.67
553.67	59152.36
553.84	59159.38
554.01	59054.06
554.17	59187.47
554.34	59175.76
554.51	59133.63
554.67	59278.75
554.84	59215.55
555.00	59157.04
555.17	59213.21
555.33	59210.87
555.50	58995.54
555.67	59021.29
555.83	59096.19
556.00	59288.11
556.16	59674.30
556.33	59447.27
556.50	59484.72
556.66	59583.02
556.83	59215.55
556.99	59704.73
557.16	59877.93
557.32	59526.84
557.49	59592.38
557.65	59529.19
557.82	59456.63
557.98	59702.38
558.15	59482.37
558.32	59803.03
558.48	59447.27
558.65	59662.60
558.81	59536.21
558.98	59725.79
559.14	59798.35
559.31	59737.49
559.47	59859.20
559.64	59927.08
559.80	59859.20
559.97	59994.95
560.13	59728.13
560.30	59714.09
560.46	60001.97
560.63	59877.93
560.79	59873.24
560.96	60165.81
561.12	59969.21
561.29	60027.72
561.45	59957.50
561.61	59997.29
561.78	59994.95
561.94	59976.23
562.11	59786.64
562.27	60196.24
562.44	60193.90
562.60	59966.87
562.77	60289.86
562.93	59868.56
563.10	60165.81
563.26	60046.44
563.42	60528.59
563.59	59934.10
563.75	60093.25
563.92	60329.65
564.08	60458.38
564.24	60315.61
564.41	60306.24
564.57	60245.39
564.74	60250.07
564.90	60233.69
565.07	60292.20
565.23	60303.90
565.39	60301.56
565.56	60404.55
565.72	60296.88
565.88	60409.23
566.05	60488.80
566.21	60353.05
566.38	60495.83
566.54	60360.08
566.70	60638.60
566.87	60636.26
567.03	60341.35
567.19	60647.96
567.36	60479.44
567.52	60516.89
567.68	60795.42
567.85	60493.49
568.01	60465.40
568.17	60404.55
568.34	60685.41
568.50	60413.91
568.66	60509.87
568.83	60582.43
568.99	60537.96
569.15	60622.22
569.32	60554.34
569.48	60671.37
569.64	60643.28
569.81	60554.34
569.97	60444.33
570.13	60727.54
570.30	60390.50
570.46	60788.39
570.62	61024.79
570.78	60692.43
570.95	60837.54
571.11	60921.80
571.27	60580.09
571.43	60699.45
571.60	60690.09
571.76	60823.50
571.92	60708.82
572.09	60811.80
572.25	60970.96
572.41	60835.20
572.57	60776.69
572.74	60935.85
572.90	60671.37
573.06	60584.77
573.22	60830.52
573.38	60711.16
573.55	60849.25
573.71	61130.11
573.87	60816.48
574.03	60940.53
574.20	60762.65
574.36	60985.00
574.52	60863.29
574.68	60807.12
574.84	60896.06
575.01	61179.26
575.17	60853.93
575.33	61095.00
575.49	60818.82
575.65	60973.30
575.82	60985.00
575.98	60910.10
576.14	61141.81
576.30	60989.68
576.46	61015.43
576.62	60928.83
576.79	60800.10
576.95	60832.86
577.11	60970.96
577.27	60942.87
577.43	61006.06
577.59	61116.07
577.75	60977.98
577.92	60821.16
578.08	60870.31
578.24	60999.04
578.40	61174.58
578.56	61148.84
578.72	61116.07
578.88	61092.66
579.04	60982.66
579.21	61034.15
579.37	61181.60
579.53	61174.58
579.69	60769.67
579.85	60907.76
580.01	61055.21
580.17	60933.51
580.33	61022.45
580.49	61240.12
580.65	61090.32
580.82	61132.45
580.98	61144.16
581.14	60952.23
581.30	61092.66
581.46	60917.12
581.62	61202.67
581.78	60891.38
581.94	61027.13
582.10	61186.28
582.26	61038.83
582.42	61179.26
582.58	61031.81
582.74	60783.71
582.90	61172.24
583.06	61291.61
583.22	61045.85
583.38	61099.68
583.54	61151.18
583.70	61055.21
583.86	61165.22
584.02	60877.33
584.18	61298.63
584.34	61141.81
584.50	61181.60
584.66	61111.39
584.82	60954.57
584.98	61258.84
585.14	61087.98
585.30	60828.18
585.46	61291.61
585.62	61263.52
585.78	61396.93
585.94	61064.58
586.10	61130.11
586.26	61205.01
586.42	61258.84
586.58	61413.32
586.74	61296.29
586.90	61052.87
587.06	61127.77
587.22	61284.59
587.38	61244.80
587.54	61226.07
587.70	61434.38
587.86	61190.97
588.02	61092.66
588.18	61256.50
588.34	61315.01
588.49	61010.74
