SpectraSuite Data File
++++++++++++++++++++++++++++++++++++
Date: Fri Oct 25 11:23:17 EDT 2013
User: price-jones
Dark Spectrum Present: No
Reference Spectrum Present: No
Number of Sampled Component Spectra: 1
Spectrometers: USB2+H05261
Integration Time (usec): 100000 (USB2+H05261)
Spectra Averaged: 1 (USB2+H05261)
Boxcar Smoothing: 0 (USB2+H05261)
Correct for Electrical Dark: No (USB2+H05261)
Strobe/Lamp Enabled: No (USB2+H05261)
Correct for Detector Non-linearity: No (USB2+H05261)
Correct for Stray Light: No (USB2+H05261)
Number of Pixels in Processed Spectrum: 2048
>>>>>Begin Processed Spectral Data<<<<<
365.73	205.97
365.92	205.97
366.12	205.97
366.32	128.73
366.52	100.64
366.72	133.41
366.91	35.11
367.11	105.32
367.31	46.81
367.51	77.24
367.70	124.05
367.90	131.07
368.10	105.32
368.30	126.39
368.49	110.01
368.69	182.56
368.89	100.64
369.09	145.11
369.28	170.86
369.48	128.73
369.68	196.60
369.87	189.58
370.07	191.92
370.27	259.80
370.47	313.63
370.66	608.54
370.86	578.11
371.06	617.90
371.25	676.41
371.45	622.58
371.65	671.73
371.84	655.35
372.04	702.16
372.24	716.20
372.44	655.35
372.63	697.48
372.83	704.50
373.03	781.74
373.22	716.20
373.42	723.23
373.62	809.83
373.81	805.14
374.01	826.21
374.21	800.46
374.40	819.19
374.60	858.98
374.79	798.12
374.99	772.38
375.19	814.51
375.38	875.36
375.58	847.27
375.78	873.02
375.97	877.70
376.17	847.27
376.37	847.27
376.56	875.36
376.76	849.61
376.95	919.83
377.15	873.02
377.35	926.85
377.54	807.48
377.74	947.92
377.93	863.66
378.13	959.62
378.33	985.37
378.52	968.98
378.72	866.00
378.91	957.28
379.11	870.68
379.31	1001.75
379.50	976.00
379.70	926.85
379.89	1029.84
380.09	1006.43
380.28	976.00
380.48	882.38
380.68	1018.13
380.87	1001.75
381.07	987.71
381.26	1062.60
381.46	1004.09
381.65	1004.09
381.85	1060.26
382.04	1067.28
382.24	987.71
382.43	1050.90
382.63	1135.16
382.83	1121.12
383.02	1067.28
383.22	1048.56
383.41	1097.71
383.61	1114.10
383.80	1067.28
384.00	1114.10
384.19	1076.65
384.39	1142.18
384.58	1151.54
384.78	1193.67
384.97	1130.48
385.17	1191.33
385.36	1177.29
385.56	1132.82
385.75	1186.65
385.95	1158.57
386.14	1142.18
386.34	1200.69
386.53	1174.95
386.72	1273.25
386.92	1219.42
387.11	1235.80
387.31	1284.95
387.50	1184.31
387.70	1291.98
387.89	1273.25
388.09	1163.25
388.28	1233.46
388.48	1245.16
388.67	1350.49
388.86	1371.55
389.06	1348.15
389.25	1434.75
389.45	1378.58
389.64	1425.39
389.84	1338.79
390.03	1348.15
390.22	1427.73
390.42	1345.81
390.61	1385.60
390.81	1460.49
391.00	1364.53
391.19	1469.86
391.39	1448.79
391.58	1462.83
391.78	1460.49
391.97	1453.47
392.16	1544.75
392.36	1596.25
392.55	1530.71
392.75	1481.56
392.94	1596.25
393.13	1629.01
393.33	1551.78
393.52	1631.35
393.71	1523.69
393.91	1643.06
394.10	1554.12
394.29	1624.33
394.49	1551.78
394.68	1715.61
394.88	1614.97
395.07	1703.91
395.26	1659.44
395.46	1600.93
395.65	1746.04
395.84	1680.50
396.04	1827.96
396.23	1797.53
396.42	1682.85
396.62	1839.66
396.81	1741.36
397.00	1783.49
397.19	1792.85
397.39	1863.07
397.58	1872.43
397.77	1823.28
397.97	1853.70
398.16	1851.36
398.35	1930.94
398.55	1874.77
398.74	1816.26
398.93	1919.24
399.12	1867.75
399.32	1944.99
399.51	1973.07
399.70	1975.41
399.90	1851.36
400.09	1966.05
400.28	2094.78
400.47	2031.58
400.67	2038.61
400.86	2113.50
401.05	2087.76
401.24	2141.59
401.44	2132.23
401.63	2193.08
401.82	2228.19
402.01	2181.38
402.21	2097.12
402.40	2202.44
402.59	2263.30
402.78	2275.00
402.97	2153.29
403.17	2260.96
403.36	2286.70
403.55	2382.67
403.74	2450.54
403.93	2469.27
404.13	2375.64
404.32	2389.69
404.51	2462.24
404.70	2424.80
404.89	2387.35
405.09	2532.46
405.28	2495.01
405.47	2541.82
405.66	2633.10
405.85	2523.10
406.05	2647.15
406.24	2541.82
406.43	2619.06
406.62	2661.19
406.81	2771.19
407.00	2586.29
407.20	2588.63
407.39	2785.24
407.58	2717.36
407.77	2684.59
407.96	2715.02
408.15	2846.09
408.34	2656.51
408.54	2785.24
408.73	2736.09
408.92	2782.90
409.11	2904.60
409.30	2949.08
409.49	2885.88
409.68	2855.45
409.87	2956.10
410.07	2965.46
410.26	3007.59
410.45	2988.86
410.64	3162.06
410.83	3122.27
411.02	3155.04
411.21	3262.71
411.40	3145.68
411.59	3337.60
411.78	3232.28
411.98	3206.53
412.17	3370.37
412.36	3358.67
412.55	3431.23
412.74	3353.99
412.93	3379.73
413.12	3314.20
413.31	3552.93
413.50	3517.83
413.69	3644.21
413.88	3531.87
414.07	3691.02
414.26	3604.42
414.45	3801.03
414.64	3702.73
414.83	3810.39
415.02	3700.39
415.22	3875.93
415.41	3925.08
415.60	3904.01
415.79	4042.11
415.98	3894.65
416.17	4088.92
416.36	4063.17
416.55	3915.72
416.74	4039.76
416.93	4109.98
417.12	4105.30
417.31	4360.42
417.50	4283.18
417.69	4407.23
417.88	4386.16
418.07	4191.90
418.26	4271.48
418.45	4337.01
418.64	4578.09
418.83	4456.38
419.02	4557.02
419.21	4557.02
419.39	4491.49
419.58	4465.74
419.77	4624.90
419.96	4631.92
420.15	4613.20
420.34	4823.84
420.53	4533.62
420.72	4816.82
420.91	4746.61
421.10	4830.87
421.29	4861.29
421.48	4819.16
421.67	4816.82
421.86	4847.25
422.05	4952.57
422.24	4919.81
422.43	5001.72
422.61	4947.89
422.80	4891.72
422.99	5013.43
423.18	5100.03
423.37	5146.84
423.56	5020.45
423.75	4985.34
423.94	4833.21
424.13	4697.46
424.32	4833.21
424.50	5165.56
424.69	5050.88
424.88	5020.45
425.07	5132.79
425.26	4793.42
425.45	5132.79
425.64	5057.90
425.83	5006.41
426.01	5095.35
426.20	5111.73
426.39	5153.86
426.58	5132.79
426.77	5226.42
426.96	5118.75
427.15	5151.52
427.33	5280.25
427.52	5114.07
427.71	5228.76
427.90	5268.55
428.09	5322.38
428.28	5465.15
428.46	5561.11
428.65	5322.38
428.84	5612.60
429.03	5526.00
429.22	5378.55
429.40	5593.88
429.59	5633.67
429.78	5303.65
429.97	5380.89
430.16	5439.40
430.34	5832.62
430.53	5856.02
430.72	5652.39
430.91	5636.01
431.10	5572.82
431.28	5902.83
431.47	5682.82
431.66	5959.00
431.85	5781.12
432.03	6087.73
432.22	5959.00
432.41	5998.79
432.60	5989.43
432.79	5980.07
432.97	6127.52
433.16	6190.72
433.35	6012.84
433.54	6115.82
433.72	6127.52
433.91	6200.08
434.10	6120.50
434.28	6179.01
434.47	6127.52
434.66	6321.79
434.85	6471.58
435.03	6403.71
435.22	6300.72
435.41	6586.27
435.59	6581.59
435.78	6607.33
435.97	6377.96
436.16	6520.73
436.34	6354.55
436.53	6410.73
436.72	6722.02
436.90	6698.61
437.09	6593.29
437.28	6810.96
437.46	6691.59
437.65	6658.82
437.84	6796.92
438.02	6771.17
438.21	6883.52
438.40	6731.38
438.58	6977.14
438.77	7138.63
438.96	6988.84
439.14	7176.08
439.33	7232.26
439.52	7309.49
439.70	7389.07
439.89	7353.96
440.08	7508.44
440.26	7449.93
440.45	7293.11
440.63	7655.89
440.82	7634.83
441.01	7590.36
441.19	7599.72
441.38	7955.48
441.57	7784.62
441.75	7831.43
441.94	7992.93
442.12	8051.44
442.31	8051.44
442.50	8011.65
442.68	8067.83
442.87	8152.09
443.05	8332.31
443.24	8170.81
443.43	8208.26
443.61	8189.53
443.80	8685.73
443.98	8065.49
444.17	8025.70
444.35	8297.20
444.54	8519.55
444.73	8432.95
444.91	8276.13
445.10	8360.39
445.28	8486.78
445.47	8283.16
445.65	8531.25
445.84	8327.63
446.02	8739.56
446.21	8615.51
446.39	8580.40
446.58	8674.03
446.77	8535.93
446.95	8156.77
447.14	8603.81
447.32	8669.34
447.51	8631.90
447.69	8500.83
447.88	8730.20
448.06	8596.79
448.25	8608.49
448.43	8716.16
448.62	8531.25
448.80	8617.85
448.99	8786.37
449.17	9027.45
449.36	8737.22
449.54	8990.00
449.73	9057.87
449.91	9032.13
450.10	9043.83
450.28	9275.54
450.46	9341.08
450.65	9114.05
450.83	9011.06
451.02	9205.33
451.20	9399.59
451.39	9242.78
451.57	9184.26
451.76	9270.86
451.94	9280.22
452.13	9240.44
452.31	9413.63
452.49	9341.08
452.68	9511.94
452.86	9312.99
453.05	9659.39
453.23	9544.70
453.42	9507.26
453.60	9528.32
453.78	9799.82
453.97	9495.55
454.15	9692.16
454.34	9657.05
454.52	9748.33
454.70	9820.89
454.89	9935.57
455.07	9879.40
455.26	9900.47
455.44	9944.94
455.62	10108.77
455.81	10092.39
455.99	10143.88
456.17	10129.84
456.36	10040.90
456.54	10235.16
456.73	10462.19
456.91	10326.44
457.09	10633.05
457.28	10616.67
457.46	10270.27
457.64	10726.68
457.83	10476.24
458.01	10689.23
458.19	10937.32
458.38	10647.10
458.56	10609.65
458.74	10836.68
458.93	10700.93
459.11	10909.24
459.29	10867.11
459.48	10649.44
459.66	10906.90
459.84	10911.58
460.03	11318.83
460.21	11005.20
460.39	11131.59
460.57	10979.45
460.76	11007.54
460.94	11283.72
461.12	11367.98
461.31	11297.77
461.49	11166.70
461.67	11169.04
461.85	11482.67
462.04	11377.34
462.22	11597.35
462.40	11726.08
462.59	11637.14
462.77	11634.80
462.95	11630.12
463.13	11688.64
463.32	11847.79
463.50	12060.78
463.68	11887.58
463.86	11868.86
464.05	11637.14
464.23	11822.05
464.41	12201.21
464.59	12121.63
464.78	12259.73
464.96	12177.81
465.14	11896.94
465.32	12285.47
465.50	12241.00
465.69	12173.13
465.87	12446.97
466.05	12374.41
466.23	12418.88
466.41	12493.78
466.60	12779.32
466.78	12397.82
466.96	12393.14
467.14	12437.61
467.32	12833.16
467.51	12784.01
467.69	12561.66
467.87	12479.74
468.05	12645.91
468.23	12634.21
468.41	12423.56
468.60	12807.41
468.78	12854.22
468.96	12702.09
469.14	12711.45
469.32	13259.13
469.50	12732.51
469.69	13102.32
469.87	13483.83
470.05	13369.14
470.23	13177.22
470.41	13174.88
470.59	13371.48
470.77	13312.97
470.95	13516.59
471.14	13701.50
471.32	13453.40
471.50	13647.66
471.68	13596.17
471.86	13813.84
472.04	13811.50
472.22	14054.92
472.40	13790.44
472.58	14015.13
472.77	14108.75
472.95	14331.10
473.13	14485.58
473.31	14167.26
473.49	14431.74
473.67	14253.86
473.85	14532.39
474.03	14803.89
474.21	14801.55
474.39	14995.81
474.57	15005.17
474.75	15192.42
474.93	15140.93
475.12	15269.66
475.30	15332.85
475.48	15192.42
475.66	15562.22
475.84	15339.87
476.02	15777.55
476.20	15545.84
476.38	15943.73
476.56	16053.73
476.74	16032.67
476.92	16147.36
477.10	15932.03
477.28	16198.85
477.46	16217.57
477.64	16327.58
477.82	16769.94
478.00	17212.30
478.18	17088.25
478.36	17254.43
478.54	17184.21
478.72	17348.05
478.90	17596.15
479.08	17657.00
479.26	17942.55
479.44	17921.48
479.62	17855.95
479.80	18340.44
479.98	18457.46
480.16	18759.39
480.34	18637.69
480.52	18941.96
480.70	18934.93
480.88	18764.07
481.06	19119.84
481.24	19138.56
481.41	19648.80
481.59	19662.84
481.77	19627.73
481.95	19756.46
482.13	19730.72
482.31	20020.94
482.49	20334.57
482.67	20540.54
482.85	20566.29
483.03	21001.63
483.21	20725.44
483.39	21401.86
483.57	21202.91
483.74	21521.23
483.92	21521.23
484.10	21429.94
484.28	21928.48
484.46	22197.64
484.64	23087.04
484.82	22405.95
485.00	22497.23
485.18	23241.52
485.35	23133.86
485.53	23110.45
485.71	23122.15
485.89	24046.66
486.07	23330.46
486.25	23634.73
486.43	23632.39
486.61	24510.09
486.78	23896.87
486.96	24517.11
487.14	24893.94
487.32	24687.97
487.50	25095.22
487.68	25331.62
487.85	25556.31
488.03	25905.05
488.21	26045.48
488.39	26150.81
488.57	26700.83
488.75	26295.92
488.92	26682.11
489.10	27056.59
489.28	26995.74
489.46	27447.46
489.64	27309.37
489.81	28114.52
489.99	27997.49
490.17	28030.26
490.35	28451.55
490.53	28603.69
490.70	28463.25
490.88	28833.06
491.06	28929.02
491.24	29230.95
491.41	29235.63
491.59	29715.44
491.77	29764.59
491.95	29975.24
492.13	30188.23
492.30	30300.58
492.48	30286.53
492.66	30291.21
492.84	30670.38
493.01	31119.76
493.19	31023.80
493.37	31152.53
493.54	31470.84
493.72	32105.13
493.90	31777.45
494.08	32004.49
494.25	32381.31
494.43	32346.20
494.61	32964.10
494.79	32765.16
494.96	32708.99
495.14	33118.58
495.32	33731.80
495.49	33799.68
495.67	33605.41
495.85	33855.85
496.02	34103.95
496.20	34422.26
496.38	34450.35
496.55	34565.03
496.73	35150.17
496.91	34843.56
497.09	35168.89
497.26	35206.34
497.44	35536.35
497.62	35931.90
497.79	36182.34
497.97	35990.42
498.14	36409.37
498.32	36582.57
498.50	36715.98
498.67	37043.66
498.85	36725.35
499.03	36985.15
499.20	37106.85
499.38	37361.97
499.56	37464.96
499.73	38047.75
499.91	38117.96
500.08	38239.67
500.26	37504.74
500.44	37928.38
500.61	38183.50
500.79	38249.03
500.97	38471.39
501.14	39475.48
501.32	38733.53
501.49	39306.96
501.67	39438.03
501.84	39435.69
502.02	39117.37
502.20	39718.89
502.37	39629.95
502.55	39917.84
502.72	39915.50
502.90	40142.53
503.07	39999.76
503.25	40304.02
503.43	40046.57
503.60	40802.56
503.78	40362.54
503.95	40732.34
504.13	40882.14
504.30	40961.72
504.48	41071.72
504.65	41390.03
504.83	41237.90
505.01	41352.58
505.18	41820.69
505.36	42181.13
505.53	41851.12
505.71	42309.86
505.88	42539.24
506.06	42012.62
506.23	42827.12
506.41	42511.15
506.58	42775.63
506.76	42492.43
506.93	42656.26
507.11	42740.52
507.28	43033.09
507.46	43082.24
507.63	43597.16
507.81	43761.00
507.98	43309.27
508.16	43601.84
508.33	44016.11
508.50	44140.16
508.68	44339.11
508.85	44818.92
509.03	44584.86
509.20	44203.36
509.38	44748.70
509.55	45191.06
509.73	44715.93
509.90	44910.20
510.08	44701.89
510.25	45158.30
510.42	45312.77
510.60	45811.31
510.77	45422.78
510.95	45551.51
511.12	45579.59
511.30	45780.88
511.47	46122.60
511.64	45918.97
511.82	46330.90
511.99	46003.23
512.17	46017.27
512.34	46553.26
512.51	46579.00
512.69	46866.89
512.86	46763.90
513.04	47054.13
513.21	46745.18
513.38	47239.03
513.56	47283.50
513.73	47262.44
513.90	47585.43
514.08	47243.71
514.25	47749.27
514.43	47536.28
514.60	47676.71
514.77	47683.73
514.95	48318.02
515.12	48135.46
515.29	47819.49
515.47	48341.42
515.64	48652.72
515.81	48563.78
515.99	48680.80
516.16	48996.77
516.33	48992.09
516.51	49034.22
516.68	48994.43
516.85	48736.98
517.03	49017.84
517.20	49471.90
517.37	49485.95
517.54	49322.11
517.72	49088.06
517.89	49446.16
518.06	49902.56
518.24	49649.78
518.41	49841.71
518.58	49642.76
518.75	49862.77
518.93	49654.47
519.10	49886.18
519.27	50216.19
519.45	50003.20
519.62	50548.55
519.79	50415.14
519.96	50429.18
520.14	50363.65
520.31	50649.19
520.48	51250.71
520.65	50798.99
520.83	51196.88
521.00	51175.81
521.17	50965.17
521.34	51098.58
521.52	51505.83
521.69	51440.29
521.86	51281.14
522.03	51597.11
522.20	51877.97
522.38	51868.61
522.55	52020.75
522.72	51767.97
522.89	51976.28
523.07	52381.19
523.24	52039.47
523.41	52229.05
523.58	51812.44
523.75	52224.37
523.92	51924.78
524.10	52163.52
524.27	52376.51
524.44	52591.84
524.61	52303.95
524.78	52395.23
524.96	52643.33
525.13	52825.89
525.30	52760.36
525.47	53069.31
525.64	52893.77
525.81	53226.12
525.98	53200.38
526.16	53036.54
526.33	53111.44
526.50	53354.85
526.67	53284.64
526.84	53352.51
527.01	53368.90
527.18	53064.63
527.36	53371.24
527.53	53448.47
527.70	53638.06
527.87	53638.06
528.04	53530.39
528.21	53874.45
528.38	53656.78
528.55	53979.78
528.72	53752.74
528.89	53511.67
529.07	53846.36
529.24	53673.16
529.41	53925.94
529.58	53829.98
529.75	54136.59
529.92	54185.74
530.09	54291.07
530.26	54340.22
530.43	54560.23
530.60	54394.05
530.77	54204.47
530.94	54597.68
531.11	54581.29
531.28	54576.61
531.46	54468.95
531.63	54864.50
531.80	54700.66
531.97	55128.98
532.14	54948.76
532.31	54738.11
532.48	54810.67
532.65	55253.03
532.82	54885.56
532.99	54937.05
533.16	55213.24
533.33	54993.23
533.50	55309.20
533.67	55185.15
533.84	55229.62
534.01	55440.27
534.18	55264.73
534.35	55625.17
534.52	55533.89
534.69	55456.65
534.86	55571.34
535.03	55363.03
535.20	55334.95
535.37	55739.86
535.54	55620.49
535.71	55594.74
535.88	55707.09
536.05	55774.97
536.22	56128.39
536.38	55910.72
536.55	55955.19
536.72	55753.90
536.89	55917.74
537.06	55929.44
537.23	56252.44
537.40	55994.98
537.57	56175.20
537.74	56140.09
537.91	56254.78
538.08	56053.49
538.25	55805.39
538.42	56154.13
538.59	56334.35
538.75	56238.39
538.92	56640.96
539.09	56615.22
539.26	56624.58
539.43	56442.02
539.60	56458.40
539.77	56549.68
539.94	56893.74
540.11	56757.99
540.28	56610.54
540.44	56863.32
540.61	56715.86
540.78	56713.52
540.95	57006.09
541.12	56636.28
541.29	56760.33
541.46	56832.89
541.62	56797.78
541.79	57001.41
541.96	56795.44
542.13	57031.83
542.30	57073.96
542.47	57186.31
542.63	57230.78
542.80	57223.76
542.97	57270.57
543.14	57570.16
543.31	57563.14
543.48	57623.99
543.64	57722.29
543.81	57722.29
543.98	57584.20
544.15	57593.56
544.32	57574.84
544.48	57673.14
544.65	57705.91
544.82	57675.48
544.99	57565.48
545.16	57916.56
545.32	57822.93
545.49	58089.76
545.66	57916.56
545.83	58066.35
546.00	57851.02
546.16	58096.78
546.33	57965.71
546.50	57808.89
546.67	58038.26
546.83	57801.87
547.00	58061.67
547.17	58188.06
547.34	58319.13
547.50	58164.65
547.67	58473.60
547.84	58166.99
548.00	58543.82
548.17	58363.60
548.34	58328.49
548.51	58728.72
548.67	58422.11
548.84	58494.67
549.01	58267.64
549.18	58272.32
549.34	58468.92
549.51	58607.01
549.68	58824.68
549.84	58834.05
550.01	58688.93
550.18	58698.30
550.34	58639.78
550.51	58829.37
550.68	58859.79
550.84	58466.58
551.01	58920.65
551.18	58564.88
551.34	58773.19
551.51	58969.80
551.68	58829.37
551.84	58798.94
552.01	58763.83
552.18	58925.33
552.34	58787.24
552.51	58904.26
552.68	58951.07
552.84	59007.25
553.01	59316.20
553.18	59257.68
553.34	59105.55
553.51	58822.34
553.67	59079.80
553.84	59065.76
554.01	59334.92
554.17	59372.37
554.34	59618.13
554.51	59096.19
554.67	59306.83
554.84	59313.86
555.00	59253.00
555.17	59313.86
555.33	59250.66
555.50	59313.86
555.67	59435.56
555.83	59384.07
556.00	59442.59
556.16	59597.06
556.33	59559.61
556.50	59608.76
556.66	59629.83
556.83	59494.08
556.99	59753.88
557.16	59756.22
557.32	59657.91
557.49	59913.03
557.65	59519.82
557.82	59704.73
557.98	59643.87
558.15	59704.73
558.32	59669.62
558.48	59870.90
558.65	59660.26
558.81	59791.33
558.98	59920.05
559.14	60053.47
559.31	60009.00
559.47	59936.44
559.64	60236.03
559.80	59908.35
559.97	60011.34
560.13	59978.57
560.30	59737.49
560.46	59964.52
560.63	60116.66
560.79	60140.07
560.96	60280.50
561.12	60013.68
561.29	60083.89
561.45	60266.45
561.61	60044.10
561.78	60109.64
561.94	59927.08
562.11	60001.97
562.27	60095.60
562.44	60350.71
562.60	60224.32
562.77	60303.90
562.93	60093.25
563.10	60210.28
563.26	60224.32
563.42	60439.65
563.59	60357.74
563.75	60322.63
563.92	60282.84
564.08	60416.25
564.24	60456.04
564.41	60411.57
564.57	60331.99
564.74	60392.84
564.90	60495.83
565.07	60362.42
565.23	60460.72
565.39	60381.14
565.56	60432.63
565.72	60308.58
565.88	60425.61
566.05	60463.06
566.21	60488.80
566.38	60456.04
566.54	60734.56
566.70	60683.07
566.87	60594.13
567.03	60491.15
567.19	60736.90
567.36	60797.76
567.52	60645.62
567.68	60825.84
567.85	60570.72
568.01	60963.93
568.17	60523.91
568.34	60734.56
568.50	60566.04
568.66	60636.26
568.83	60835.20
568.99	60502.85
569.15	60776.69
569.32	60659.66
569.48	60584.77
569.64	60727.54
569.81	60746.26
569.97	60523.91
570.13	60650.30
570.30	60807.12
570.46	60720.52
570.62	60959.25
570.78	60687.75
570.95	60772.01
571.11	60893.72
571.27	60835.20
571.43	60814.14
571.60	60919.46
571.76	60870.31
571.92	60734.56
572.09	60856.27
572.25	60844.57
572.41	60896.06
572.57	60919.46
572.74	61073.94
572.90	60678.39
573.06	60921.80
573.22	60945.21
573.38	60872.65
573.55	60931.17
573.71	61024.79
573.87	61010.74
574.03	60802.44
574.20	60910.10
574.36	60900.74
574.52	60921.80
574.68	60683.07
574.84	61015.43
575.01	60942.87
575.17	61029.47
575.33	60877.33
575.49	60891.38
575.65	61006.06
575.82	61279.91
575.98	60842.23
576.14	61193.31
576.30	61041.17
576.46	60999.04
576.62	60900.74
576.79	60968.61
576.95	60921.80
577.11	61155.86
577.27	61226.07
577.43	61022.45
577.59	61059.90
577.75	61167.56
577.92	61020.11
578.08	60907.76
578.24	61027.13
578.40	61249.48
578.56	61249.48
578.72	61268.20
578.88	61385.23
579.04	61307.99
579.21	61162.88
579.37	61329.06
579.53	61275.22
579.69	60985.00
579.85	61279.91
580.01	61190.97
580.17	60919.46
580.33	61127.77
580.49	61083.30
580.65	61116.07
580.82	61102.03
580.98	60839.89
581.14	61118.41
581.30	61139.47
581.46	61186.28
581.62	61202.67
581.78	61146.50
581.94	61249.48
582.10	61195.65
582.26	61272.88
582.42	61305.65
582.58	61279.91
582.74	61263.52
582.90	61022.45
583.06	61134.79
583.22	61160.54
583.38	61286.93
583.54	61176.92
583.70	61268.20
583.86	61216.71
584.02	61352.46
584.18	61432.04
584.34	61179.26
584.50	61087.98
584.66	61195.65
584.82	61090.32
584.98	61389.91
585.14	61319.70
585.30	61141.81
585.46	61169.90
585.62	61038.83
585.78	61399.27
585.94	61064.58
586.10	61282.25
586.26	61256.50
586.42	61179.26
586.58	61317.35
586.74	61303.31
586.90	61338.42
587.06	61481.19
587.22	61380.55
587.38	61300.97
587.54	61478.85
587.70	61609.92
587.86	61223.73
588.02	61289.27
588.18	61570.13
588.34	61188.63
