SpectraSuite Data File
++++++++++++++++++++++++++++++++++++
Date: Fri Oct 25 11:33:59 EDT 2013
User: price-jones
Dark Spectrum Present: No
Reference Spectrum Present: No
Number of Sampled Component Spectra: 1
Spectrometers: USB2+H05261
Integration Time (usec): 100000 (USB2+H05261)
Spectra Averaged: 1 (USB2+H05261)
Boxcar Smoothing: 0 (USB2+H05261)
Correct for Electrical Dark: No (USB2+H05261)
Strobe/Lamp Enabled: No (USB2+H05261)
Correct for Detector Non-linearity: No (USB2+H05261)
Correct for Stray Light: No (USB2+H05261)
Number of Pixels in Processed Spectrum: 2048
>>>>>Begin Processed Spectral Data<<<<<
365.73	292.57
365.92	292.57
366.12	292.57
366.32	184.90
366.52	184.90
366.72	170.86
366.91	138.09
367.11	145.11
367.31	163.84
367.51	163.84
367.70	145.11
367.90	229.37
368.10	147.45
368.30	168.52
368.49	196.60
368.69	224.69
368.89	191.92
369.09	156.82
369.28	215.33
369.48	198.95
369.68	248.10
369.87	304.27
370.07	231.71
370.27	327.68
370.47	299.59
370.66	444.70
370.86	477.47
371.06	538.32
371.25	601.52
371.45	507.90
371.65	472.79
371.84	596.84
372.04	571.09
372.24	580.45
372.44	615.56
372.63	561.73
372.83	641.31
373.03	592.16
373.22	650.67
373.42	634.29
373.62	589.82
373.81	557.05
374.01	624.92
374.21	631.94
374.40	664.71
374.60	645.99
374.79	671.73
374.99	603.86
375.19	655.35
375.38	709.18
375.58	671.73
375.78	643.65
375.97	737.27
376.17	702.16
376.37	650.67
376.56	681.10
376.76	690.46
376.95	638.97
377.15	709.18
377.35	800.46
377.54	657.69
377.74	613.22
377.93	596.84
378.13	669.39
378.33	727.91
378.52	737.27
378.72	727.91
378.91	727.91
379.11	746.63
379.31	711.52
379.50	685.78
379.70	760.67
379.89	734.93
380.09	716.20
380.28	734.93
380.48	725.57
380.68	819.19
380.87	676.41
381.07	683.44
381.26	802.80
381.46	711.52
381.65	727.91
381.85	786.42
382.04	795.78
382.24	814.51
382.43	781.74
382.63	828.55
382.83	732.59
383.02	802.80
383.22	863.66
383.41	793.44
383.61	812.17
383.80	833.23
384.00	784.08
384.19	809.83
384.39	873.02
384.58	784.08
384.78	812.17
384.97	737.27
385.17	772.38
385.36	786.42
385.56	765.36
385.75	894.08
385.95	901.11
386.14	882.38
386.34	828.55
386.53	882.38
386.72	779.40
386.92	917.49
387.11	844.93
387.31	947.92
387.50	851.96
387.70	849.61
387.89	891.74
388.09	800.46
388.28	858.98
388.48	873.02
388.67	915.15
388.86	950.26
389.06	947.92
389.25	959.62
389.45	966.64
389.64	882.38
389.84	952.60
390.03	1027.50
390.22	1076.65
390.42	1011.11
390.61	936.21
390.81	990.05
391.00	987.71
391.19	936.21
391.39	968.98
391.58	1034.52
391.78	1020.47
391.97	1011.11
392.16	938.55
392.36	1102.39
392.55	1071.97
392.75	1064.94
392.94	985.37
393.13	1034.52
393.33	1053.24
393.52	1041.54
393.71	1125.80
393.91	1020.47
394.10	1076.65
394.29	1086.01
394.49	1111.75
394.68	1102.39
394.88	1142.18
395.07	1109.41
395.26	1071.97
395.46	1132.82
395.65	1123.46
395.84	1203.04
396.04	1306.02
396.23	1116.44
396.42	1123.46
396.62	1132.82
396.81	1270.91
397.00	1214.74
397.19	1231.12
397.39	1240.48
397.58	1221.76
397.77	1235.80
397.97	1282.61
398.16	1277.93
398.35	1240.48
398.55	1184.31
398.74	1273.25
398.93	1273.25
399.12	1329.42
399.32	1193.67
399.51	1254.53
399.70	1299.00
399.90	1310.70
400.09	1390.28
400.28	1416.02
400.47	1378.58
400.67	1329.42
400.86	1500.28
401.05	1392.62
401.24	1446.45
401.44	1380.92
401.63	1418.36
401.82	1453.47
402.01	1437.09
402.21	1448.79
402.40	1458.15
402.59	1458.15
402.78	1570.50
402.97	1511.99
403.17	1526.03
403.36	1589.22
403.55	1621.99
403.74	1434.75
403.93	1619.65
404.13	1504.96
404.32	1572.84
404.51	1502.62
404.70	1717.95
404.89	1584.54
405.09	1736.68
405.28	1710.93
405.47	1645.40
405.66	1692.21
405.85	1743.70
406.05	1633.69
406.24	1830.30
406.43	1699.23
406.62	1741.36
406.81	1942.64
407.00	1825.62
407.20	1692.21
407.39	1853.70
407.58	1720.29
407.77	1921.58
407.96	1853.70
408.15	1928.60
408.34	1832.64
408.54	1905.20
408.73	1872.43
408.92	1865.41
409.11	1956.69
409.30	1968.39
409.49	2064.35
409.68	1994.14
409.87	2054.99
410.07	1954.35
410.26	2043.29
410.45	2005.84
410.64	2090.10
410.83	2008.18
411.02	2101.80
411.21	2237.55
411.40	2165.00
411.59	2090.10
411.78	2165.00
411.98	2160.31
412.17	2228.19
412.36	2246.91
412.55	2282.02
412.74	2321.81
412.93	2246.91
413.12	2293.72
413.31	2473.95
413.50	2420.11
413.69	2314.79
413.88	2438.84
414.07	2483.31
414.26	2471.61
414.45	2464.58
414.64	2462.24
414.83	2544.16
415.02	2541.82
415.22	2569.91
415.41	2663.53
415.60	2647.15
415.79	2630.76
415.98	2693.96
416.17	2750.13
416.36	2736.09
416.55	2885.88
416.74	2715.02
416.93	2717.36
417.12	2722.04
417.31	2822.69
417.50	2796.94
417.69	3042.70
417.88	2888.22
418.07	2951.42
418.26	2963.12
418.45	3000.57
418.64	3173.77
418.83	2953.76
419.02	3059.08
419.21	3201.85
419.39	3185.47
419.58	3014.61
419.77	3059.08
419.96	3084.83
420.15	3222.92
420.34	3192.49
420.53	3213.56
420.72	3141.00
420.91	3213.56
421.10	3225.26
421.29	3215.90
421.48	3251.00
421.67	3243.98
421.86	3323.56
422.05	3211.22
422.24	3171.43
422.43	3309.52
422.61	3286.11
422.80	3335.26
422.99	3452.29
423.18	3461.65
423.37	3478.04
423.56	3368.03
423.75	3438.25
423.94	3281.43
424.13	3098.87
424.32	3365.69
424.50	3496.76
424.69	3613.79
424.88	3555.27
425.07	3365.69
425.26	3405.48
425.45	3433.57
425.64	3382.07
425.83	3368.03
426.01	3487.40
426.20	3384.41
426.39	3456.97
426.58	3449.95
426.77	3471.01
426.96	3538.89
427.15	3527.19
427.33	3471.01
427.52	3466.33
427.71	3548.25
427.90	3545.91
428.09	3641.87
428.28	3632.51
428.46	3674.64
428.65	3667.62
428.84	3730.81
429.03	3756.56
429.22	3634.85
429.40	3812.73
429.59	3829.12
429.78	3665.28
429.97	3562.30
430.16	3721.45
430.34	3705.07
430.53	3819.75
430.72	3922.74
430.91	3868.91
431.10	3815.07
431.28	3904.01
431.47	3967.21
431.66	3967.21
431.85	3978.91
432.03	3957.85
432.22	4257.43
432.41	3997.64
432.60	4161.47
432.79	4159.13
432.97	4093.60
433.16	4191.90
433.35	4142.75
433.54	4140.41
433.72	4269.14
433.91	4138.07
434.10	4091.26
434.28	4056.15
434.47	4287.86
434.66	4283.18
434.85	4353.40
435.03	4234.03
435.22	4215.30
435.41	4416.59
435.59	4372.12
435.78	4566.39
435.97	4362.76
436.16	4325.31
436.34	4217.65
436.53	4456.38
436.72	4559.36
436.90	4360.42
437.09	4348.72
437.28	4339.35
437.46	4540.64
437.65	4596.81
437.84	4468.08
438.02	4533.62
438.21	4629.58
438.40	4512.55
438.58	4615.54
438.77	4798.10
438.96	4816.82
439.14	4842.57
439.33	4861.29
439.52	4784.06
439.70	4753.63
439.89	4842.57
440.08	4983.00
440.26	5018.11
440.45	5064.92
440.63	4861.29
440.82	5008.75
441.01	5242.80
441.19	4931.51
441.38	5235.78
441.57	5210.03
441.75	5282.59
441.94	5500.26
442.12	5203.01
442.31	5469.83
442.50	5387.91
442.68	5329.40
442.87	5544.73
443.05	5547.07
443.24	5530.69
443.43	5481.53
443.61	5439.40
443.80	5628.99
443.98	5444.09
444.17	5380.89
444.35	5626.65
444.54	5640.69
444.73	5664.10
444.91	5451.11
445.10	5549.41
445.28	5678.14
445.47	5472.17
445.65	5619.63
445.84	5638.35
446.02	5668.78
446.21	5647.71
446.39	5750.70
446.58	5825.59
446.77	5696.86
446.95	5544.73
447.14	5584.52
447.32	5706.23
447.51	5685.16
447.69	5741.33
447.88	5689.84
448.06	5715.59
448.25	5809.21
448.43	5685.16
448.62	5694.52
448.80	5778.78
448.99	5816.23
449.17	5919.21
449.36	5951.98
449.54	5984.75
449.73	5860.70
449.91	5916.87
450.10	5982.41
450.28	6148.59
450.46	6200.08
450.65	6047.94
450.83	6141.57
451.02	6066.67
451.20	6155.61
451.39	5989.43
451.57	6108.80
451.76	6078.37
451.94	6202.42
452.13	6174.33
452.31	6300.72
452.49	6040.92
452.68	6157.95
452.86	6342.85
453.05	6246.89
453.23	6118.16
453.42	6197.74
453.60	6326.47
453.78	6431.79
453.97	6436.47
454.15	6494.99
454.34	6401.37
454.52	6511.37
454.70	6349.87
454.89	6604.99
455.07	6544.14
455.26	6431.79
455.44	6647.12
455.62	6642.44
455.81	6555.84
455.99	6726.70
456.17	6682.23
456.36	6778.19
456.54	6853.09
456.73	6822.66
456.91	6949.05
457.09	7007.56
457.28	6958.41
457.46	6899.90
457.64	7054.37
457.83	7091.82
458.01	6923.30
458.19	7169.06
458.38	6944.37
458.56	7098.84
458.74	7094.16
458.93	7054.37
459.11	7255.66
459.29	7204.17
459.48	7115.23
459.66	7398.43
459.84	7314.17
460.03	7473.33
460.21	7253.32
460.39	7379.71
460.57	7419.50
460.76	7293.11
460.94	7473.33
461.12	7618.44
461.31	7344.60
461.49	7452.27
461.67	7426.52
461.85	7592.70
462.04	7487.37
462.22	8131.02
462.40	7695.68
462.59	7669.94
462.77	7548.23
462.95	7674.62
463.13	7473.33
463.32	7719.09
463.50	7903.99
463.68	7740.15
463.86	7983.57
464.05	7913.35
464.23	7691.00
464.41	7943.78
464.59	7843.14
464.78	8128.68
464.96	7948.46
465.14	7836.11
465.32	8135.70
465.50	8128.68
465.69	8154.43
465.87	7857.18
466.05	8219.96
466.23	7988.25
466.41	8149.75
466.60	8269.11
466.78	8124.00
466.96	8109.96
467.14	8226.98
467.32	7967.18
467.51	8376.78
467.69	8285.50
467.87	8238.69
468.05	8442.31
468.23	8149.75
468.41	8152.09
468.60	8386.14
468.78	8439.97
468.96	8383.80
469.14	8442.31
469.32	8528.91
469.50	8393.16
469.69	8468.06
469.87	8702.11
470.05	8678.71
470.23	8638.92
470.41	8985.32
470.59	8990.00
470.77	8847.22
470.95	8781.69
471.14	8903.40
471.32	8772.33
471.50	9125.75
471.68	8959.57
471.86	8973.61
472.04	9111.71
472.22	8990.00
472.40	8936.17
472.58	9064.89
472.77	9317.67
472.95	9085.96
473.13	9495.55
473.31	9476.83
473.49	9320.01
473.67	9427.68
473.85	9359.80
474.03	9701.52
474.21	9591.52
474.39	9727.27
474.57	9671.09
474.75	9858.34
474.93	9907.49
475.12	9781.10
475.30	9956.64
475.48	9839.61
475.66	9980.04
475.84	9912.17
476.02	10106.43
476.20	10270.27
476.38	10347.51
476.56	10654.12
476.74	10429.43
476.92	10256.23
477.10	10211.76
477.28	10600.29
477.46	10785.19
477.64	10647.10
477.82	10874.13
478.00	11138.61
478.18	10846.04
478.36	11094.14
478.54	11311.81
478.72	11262.66
478.90	11545.86
479.08	11545.86
479.26	11513.10
479.44	11452.24
479.62	11508.41
479.80	11990.56
479.98	11791.62
480.16	12147.38
480.34	11943.75
480.52	12163.76
480.70	12273.77
480.88	11997.59
481.06	12233.98
481.24	12339.30
481.41	12479.74
481.59	12732.51
481.77	12812.09
481.95	12554.63
482.13	12891.67
482.31	13032.10
482.49	13308.29
482.67	13036.78
482.85	13310.63
483.03	13420.63
483.21	13493.19
483.39	13671.07
483.57	13563.40
483.74	13937.89
483.92	13757.67
484.10	13949.59
484.28	14085.34
484.46	14420.04
484.64	14342.80
484.82	14207.05
485.00	14773.46
485.18	14953.68
485.35	14902.19
485.53	14984.11
485.71	15248.59
485.89	15482.64
486.07	15056.67
486.25	15374.98
486.43	15403.07
486.61	15674.57
486.78	15737.76
486.96	15800.96
487.14	16145.02
487.32	16109.91
487.50	16208.21
487.68	16114.59
487.85	16615.46
488.03	16760.58
488.21	16936.12
488.39	16753.55
488.57	17219.32
488.75	16933.78
488.92	17324.65
489.10	17469.76
489.28	17193.58
489.46	17366.78
489.64	17422.95
489.81	18139.15
489.99	18047.87
490.17	18026.81
490.35	18263.20
490.53	18260.86
490.70	18555.77
490.88	18420.02
491.06	18745.35
491.24	18658.75
491.41	18939.62
491.59	18740.67
491.77	19243.88
491.95	19370.27
492.13	19082.39
492.30	19470.92
492.48	19758.80
492.66	19337.51
492.84	19726.04
493.01	20294.79
493.19	20077.12
493.37	20362.66
493.54	20479.69
493.72	20379.04
493.90	20435.22
494.08	20475.01
494.25	20702.04
494.43	20538.20
494.61	20954.82
494.79	21355.05
494.96	20760.55
495.14	21064.82
495.32	21638.25
495.49	21965.93
495.67	21516.54
495.85	21411.22
496.02	21933.16
496.20	22799.16
496.38	21998.70
496.55	22391.91
496.73	22757.03
496.91	22513.61
497.09	22848.31
497.26	22780.43
497.44	23061.30
497.62	22927.89
497.79	23358.55
497.97	22871.72
498.14	23325.78
498.32	23660.48
498.50	23332.80
498.67	23480.25
498.85	23569.19
499.03	23501.32
499.20	23779.84
499.38	23922.62
499.56	24259.65
499.73	24329.87
499.91	24327.53
500.08	24556.90
500.26	24322.85
500.44	24507.75
500.61	24334.55
500.79	24479.66
500.97	24622.44
501.14	24907.98
501.32	25172.46
501.49	25132.67
501.67	25394.81
501.84	25483.75
502.02	25436.94
502.20	25275.45
502.37	25593.76
502.55	25631.21
502.72	25570.35
502.90	25883.98
503.07	25788.02
503.25	25928.45
503.43	25883.98
503.60	25729.51
503.78	26527.63
503.95	26288.90
504.13	26710.19
504.30	26693.81
504.48	26499.55
504.65	26911.48
504.83	27030.85
505.01	26623.59
505.18	27140.85
505.36	27152.55
505.53	27016.80
505.71	27138.51
505.88	27227.45
506.06	26939.57
506.23	27136.17
506.41	27672.15
506.58	27414.69
506.76	27709.60
506.93	27517.68
507.11	27648.75
507.28	27999.83
507.46	27777.48
507.63	28121.54
507.81	28084.09
507.98	27922.59
508.16	27957.70
508.33	28231.54
508.50	28580.28
508.68	28783.91
508.85	29202.86
509.03	28470.28
509.20	29003.92
509.38	28961.79
509.55	29085.84
509.73	29460.32
509.90	29340.96
510.08	28985.19
510.25	28884.55
510.42	28982.85
510.60	29081.16
510.77	29336.27
510.95	29898.00
511.12	29706.08
511.30	29507.13
511.47	29788.00
511.64	30066.52
511.82	30216.32
511.99	30476.12
512.17	30497.18
512.34	30242.06
512.51	30642.29
512.69	30593.14
512.86	30569.74
513.04	30824.86
513.21	30740.60
513.38	30885.71
513.56	30855.28
513.73	30401.22
513.90	31007.42
514.08	30920.82
514.25	31246.15
514.43	31201.68
514.60	31309.35
514.77	31316.37
514.95	31285.94
515.12	31618.30
515.29	31288.28
515.47	31824.26
515.64	31835.97
515.81	31349.14
515.99	31896.82
516.16	31952.99
516.33	32247.90
516.51	32414.08
516.68	32102.79
516.85	32168.32
517.03	32126.19
517.20	32273.65
517.37	32182.37
517.54	32718.35
517.72	32259.60
517.89	32975.81
518.06	32685.58
518.24	32694.94
518.41	32500.68
518.58	32879.85
518.75	33013.26
518.93	33319.87
519.10	32657.49
519.27	33446.26
519.45	33022.62
519.62	33432.21
519.79	33230.93
519.96	33134.96
520.14	33493.07
520.31	33460.30
520.48	33961.17
520.65	33771.59
520.83	34323.96
521.00	34078.20
521.17	34153.10
521.34	33886.28
521.52	34567.37
521.69	34218.63
521.86	34518.22
522.03	34330.98
522.20	34721.85
522.38	34466.73
522.55	34438.64
522.72	34836.53
522.89	34934.84
523.07	35318.68
523.24	34885.68
523.41	35302.30
523.58	34658.65
523.75	35309.32
523.92	35005.05
524.10	35367.84
524.27	35138.46
524.44	35096.33
524.61	35239.11
524.78	35189.95
524.96	35587.85
525.13	35484.86
525.30	35817.22
525.47	35690.83
525.64	36037.23
525.81	36140.21
525.98	36245.54
526.16	35634.66
526.33	36119.15
526.50	36554.49
526.67	36238.51
526.84	36048.93
527.01	36025.53
527.18	36210.43
527.36	36222.13
527.53	36374.27
527.70	36999.19
527.87	36683.22
528.04	36545.12
528.21	36872.80
528.38	36699.60
528.55	36856.42
528.72	36868.12
528.89	37053.02
529.07	36837.69
529.24	36706.62
529.41	37500.06
529.58	37144.30
529.75	36968.76
529.92	37214.52
530.09	36961.74
530.26	36891.52
530.43	37532.83
530.60	37160.69
530.77	37572.62
530.94	37411.12
531.11	37368.99
531.28	37834.76
531.46	37818.38
531.63	37797.31
531.80	37638.15
531.97	37904.98
532.14	38059.45
532.31	38017.32
532.48	37968.17
532.65	38113.28
532.82	38342.66
532.99	38141.37
533.16	38274.78
533.33	38403.51
533.50	38227.97
533.67	38850.55
533.84	38316.91
534.01	38600.12
534.18	38375.42
534.35	38890.34
534.52	38518.20
534.69	39056.52
534.86	39428.66
535.03	38815.44
535.20	39068.22
535.37	39021.41
535.54	39594.84
535.71	39257.81
535.88	39496.54
536.05	39115.03
536.22	39590.16
536.38	39278.87
536.55	39309.30
536.72	39295.25
536.89	39267.17
537.06	39786.77
537.23	39098.65
537.40	38998.01
537.57	39391.22
537.74	39192.27
537.91	40135.51
538.08	39798.47
538.25	39580.80
538.42	39763.36
538.59	40205.72
538.75	39957.63
538.92	39871.03
539.09	40610.64
539.26	40121.46
539.43	40362.54
539.60	40512.33
539.77	40385.94
539.94	40697.24
540.11	40189.34
540.28	40238.49
540.44	40666.81
540.61	40191.68
540.78	40388.28
540.95	40685.53
541.12	40390.62
541.29	40605.95
541.46	40849.37
541.62	40577.87
541.79	41291.73
541.96	40741.71
542.13	40526.38
542.30	40868.09
542.47	41001.50
542.63	41289.39
542.80	41469.61
542.97	41453.23
543.14	41535.15
543.31	41439.18
543.48	41626.43
543.64	41476.63
543.81	41478.97
543.98	41691.96
544.15	41263.64
544.32	42075.81
544.48	42263.05
544.65	41883.89
544.82	42007.94
544.99	41684.94
545.16	41706.01
545.32	41715.37
545.49	42005.59
545.66	42483.06
545.83	42564.98
546.00	42155.39
546.16	41902.61
546.33	42260.71
546.50	42181.13
546.67	42342.63
546.83	42223.26
547.00	42160.07
547.17	41823.03
547.34	42263.05
547.50	42684.35
547.67	43077.56
547.84	42632.86
548.00	42792.01
548.17	42906.70
548.34	42724.14
548.51	42721.80
548.67	42789.67
548.84	42873.93
549.01	42749.88
549.18	42782.65
549.34	43061.18
549.51	43253.10
549.68	42752.23
549.84	42997.98
550.01	43384.17
550.18	42969.90
550.34	42972.24
550.51	43468.43
550.68	43269.48
550.84	43037.77
551.01	43447.36
551.18	43529.28
551.34	43145.44
551.51	43391.19
551.68	43606.52
551.84	43344.38
552.01	43503.54
552.18	43564.39
552.34	43379.49
552.51	43370.13
552.68	43594.82
552.84	43758.66
553.01	43882.70
553.18	43831.21
553.34	43800.79
553.51	43941.22
553.67	43908.45
553.84	43931.86
554.01	44444.43
554.17	44102.71
554.34	44409.32
554.51	43999.73
554.67	44072.29
554.84	44261.87
555.00	43887.39
555.17	44123.78
555.33	44238.47
555.50	44102.71
555.67	44664.44
555.83	44002.07
556.00	44521.67
556.16	44980.42
556.33	44608.27
556.50	44772.11
556.66	44465.50
556.83	44318.04
556.99	44926.58
557.16	44823.60
557.32	44851.69
557.49	45130.21
557.65	44540.39
557.82	44774.45
557.98	44884.45
558.15	44374.22
558.32	44912.54
558.48	44996.80
558.65	44617.63
558.81	45010.84
558.98	44655.08
559.14	44868.07
559.31	45067.02
559.47	44748.70
559.64	44715.93
559.80	45010.84
559.97	44741.68
560.13	44872.75
560.30	45116.17
560.46	45368.94
560.63	45099.78
560.79	45464.91
560.96	45387.67
561.12	45347.88
561.29	44856.37
561.45	45240.21
561.61	45436.82
561.78	45045.95
561.94	45038.93
562.11	45195.74
562.27	45429.80
562.44	45081.06
562.60	45645.13
562.77	45474.27
562.93	45624.06
563.10	45530.44
563.26	45413.41
563.42	45811.31
563.59	45635.77
563.75	45586.61
563.92	45294.05
564.08	45621.72
564.24	45312.77
564.41	45799.60
564.57	45808.96
564.74	45467.25
564.90	45837.05
565.07	46185.79
565.23	45478.95
565.39	45654.49
565.56	45947.06
565.72	45413.41
565.88	46066.42
566.05	45916.63
566.21	45750.45
566.38	45731.73
566.54	46087.49
566.70	45914.29
566.87	45900.25
567.03	45916.63
567.19	46260.69
567.36	45968.12
567.52	45731.73
567.68	46419.84
567.85	46260.69
568.01	46630.49
568.17	46188.13
568.34	46160.05
568.50	46424.53
568.66	46117.92
568.83	46101.53
568.99	45846.41
569.15	46501.76
569.32	46080.47
569.48	45991.53
569.64	46663.26
569.81	46291.12
569.97	46443.25
570.13	46553.26
570.30	46260.69
570.46	46358.99
570.62	46363.67
570.78	46192.81
570.95	46323.88
571.11	46749.86
571.27	46298.14
571.43	46246.65
571.60	46171.75
571.76	46089.83
571.92	46579.00
572.09	46141.32
572.25	46609.43
572.41	45996.21
572.57	46436.23
572.74	46717.09
572.90	46614.11
573.06	46581.34
573.22	46295.80
573.38	46349.63
573.55	46550.91
573.71	46700.71
573.87	46983.91
574.03	46782.63
574.20	46300.48
574.36	46394.10
574.52	46272.39
574.68	46567.30
574.84	46696.03
575.01	46567.30
575.17	46794.33
575.33	46618.79
575.49	46681.98
575.65	46906.68
575.82	46511.13
575.98	46700.71
576.14	46761.56
576.30	47166.48
576.46	46354.31
576.62	46672.62
576.79	46712.41
576.95	46363.67
577.11	46630.49
577.27	46969.87
577.43	47103.28
577.59	46625.81
577.75	46782.63
577.92	46614.11
578.08	46569.64
578.24	46663.26
578.40	46951.15
578.56	46546.23
578.72	46548.57
578.88	46918.38
579.04	47072.85
579.21	46616.45
579.37	47147.75
579.53	47037.75
579.69	46525.17
579.85	46866.89
580.01	46948.81
580.17	46796.67
580.33	46946.47
580.49	46681.98
580.65	46983.91
580.82	46770.93
580.98	46611.77
581.14	46672.62
581.30	46930.08
581.46	46831.78
581.62	46806.03
581.78	46681.98
581.94	46972.21
582.10	46841.14
582.26	46890.29
582.42	46609.43
582.58	47103.28
582.74	46824.76
582.90	46941.78
583.06	47381.80
583.22	46663.26
583.38	47004.98
583.54	47117.32
583.70	46740.50
583.86	47213.29
584.02	47070.51
584.18	47210.95
584.34	47145.41
584.50	47133.71
584.66	46955.83
584.82	47075.19
584.98	46763.90
585.14	47203.92
585.30	47012.00
585.46	46478.36
585.62	46972.21
585.78	46909.02
585.94	46740.50
586.10	46932.42
586.26	46637.51
586.42	47026.04
586.58	47342.02
586.74	47070.51
586.90	46784.97
587.06	47189.88
587.22	47285.84
587.38	46796.67
587.54	47344.36
587.70	47166.48
587.86	47349.04
588.02	46876.25
588.18	47164.14
588.34	47192.22
588.49	46955.83
588.65	47098.60
588.81	47288.18
588.97	47494.15
589.13	47082.22
589.29	46820.08
589.45	47405.21
589.61	47084.56
589.77	47290.52
589.93	47276.48
590.08	47452.02
