SpectraSuite Data File
++++++++++++++++++++++++++++++++++++
Date: Fri Oct 25 11:25:28 EDT 2013
User: price-jones
Dark Spectrum Present: No
Reference Spectrum Present: No
Number of Sampled Component Spectra: 1
Spectrometers: USB2+H05261
Integration Time (usec): 100000 (USB2+H05261)
Spectra Averaged: 1 (USB2+H05261)
Boxcar Smoothing: 0 (USB2+H05261)
Correct for Electrical Dark: No (USB2+H05261)
Strobe/Lamp Enabled: No (USB2+H05261)
Correct for Detector Non-linearity: No (USB2+H05261)
Correct for Stray Light: No (USB2+H05261)
Number of Pixels in Processed Spectrum: 2048
>>>>>Begin Processed Spectral Data<<<<<
365.73	196.60
365.92	196.60
366.12	196.60
366.32	152.13
366.52	163.84
366.72	203.63
366.91	177.88
367.11	175.54
367.31	152.13
367.51	53.83
367.70	154.48
367.90	131.07
368.10	84.26
368.30	102.98
368.49	95.96
368.69	173.20
368.89	147.45
369.09	149.79
369.28	154.48
369.48	140.43
369.68	248.10
369.87	210.65
370.07	138.09
370.27	205.97
370.47	402.57
370.66	613.22
370.86	582.79
371.06	631.94
371.25	737.27
371.45	671.73
371.65	671.73
371.84	667.05
372.04	688.12
372.24	716.20
372.44	779.40
372.63	716.20
372.83	734.93
373.03	741.95
373.22	681.10
373.42	770.04
373.62	741.95
373.81	739.61
374.01	880.04
374.21	786.42
374.40	830.89
374.60	746.63
374.79	823.87
374.99	884.72
375.19	847.27
375.38	933.87
375.58	851.96
375.78	926.85
375.97	870.68
376.17	964.30
376.37	835.57
376.56	912.81
376.76	896.43
376.95	882.38
377.15	910.47
377.35	922.17
377.54	870.68
377.74	837.91
377.93	837.91
378.13	844.93
378.33	870.68
378.52	924.51
378.72	936.21
378.91	912.81
379.11	873.02
379.31	987.71
379.50	950.26
379.70	961.96
379.89	957.28
380.09	938.55
380.28	987.71
380.48	1008.77
380.68	912.81
380.87	997.07
381.07	1013.45
381.26	1034.52
381.46	1064.94
381.65	1008.77
381.85	997.07
382.04	994.73
382.24	1004.09
382.43	1004.09
382.63	1074.31
382.83	1025.15
383.02	1109.41
383.22	1135.16
383.41	1029.84
383.61	1111.75
383.80	1146.86
384.00	1111.75
384.19	1071.97
384.39	1093.03
384.58	1149.20
384.78	1167.93
384.97	1142.18
385.17	1231.12
385.36	1135.16
385.56	1086.01
385.75	1111.75
385.95	1102.39
386.14	1200.69
386.34	1172.61
386.53	1196.01
386.72	1240.48
386.92	1301.34
387.11	1193.67
387.31	1196.01
387.50	1217.08
387.70	1327.08
387.89	1242.82
388.09	1317.72
388.28	1275.59
388.48	1324.74
388.67	1296.66
388.86	1296.66
389.06	1322.40
389.25	1357.51
389.45	1310.70
389.64	1392.62
389.84	1397.30
390.03	1423.05
390.22	1420.71
390.42	1341.13
390.61	1352.83
390.81	1357.51
391.00	1380.92
391.19	1486.24
391.39	1397.30
391.58	1418.36
391.78	1502.62
391.97	1521.35
392.16	1544.75
392.36	1549.43
392.55	1561.14
392.75	1516.67
392.94	1568.16
393.13	1568.16
393.33	1640.72
393.52	1500.28
393.71	1619.65
393.91	1507.30
394.10	1579.86
394.29	1621.99
394.49	1650.08
394.68	1645.40
394.88	1682.85
395.07	1645.40
395.26	1640.72
395.46	1680.50
395.65	1724.97
395.84	1659.44
396.04	1872.43
396.23	1717.95
396.42	1685.19
396.62	1750.72
396.81	1853.70
397.00	1856.04
397.19	1710.93
397.39	1778.81
397.58	1865.41
397.77	1757.74
397.97	1842.00
398.16	1888.81
398.35	1921.58
398.55	1909.88
398.74	1870.09
398.93	1956.69
399.12	1839.66
399.32	1877.11
399.51	1884.13
399.70	1952.01
399.90	1884.13
400.09	1968.39
400.28	2038.61
400.47	2057.33
400.67	2092.44
400.86	1956.69
401.05	2038.61
401.24	2043.29
401.44	2122.87
401.63	2057.33
401.82	2113.50
402.01	2136.91
402.21	2141.59
402.40	2174.36
402.59	2165.00
402.78	2193.08
402.97	2249.25
403.17	2270.32
403.36	2150.95
403.55	2211.81
403.74	2375.64
403.93	2363.94
404.13	2406.07
404.32	2394.37
404.51	2300.75
404.70	2459.90
404.89	2373.30
405.09	2530.12
405.28	2396.71
405.47	2438.84
405.66	2497.35
405.85	2394.37
406.05	2375.64
406.24	2579.27
406.43	2476.29
406.62	2539.48
406.81	2644.81
407.00	2590.97
407.20	2511.39
407.39	2642.46
407.58	2787.58
407.77	2663.53
407.96	2745.45
408.15	2729.06
408.34	2768.85
408.54	2658.85
408.73	2832.05
408.92	2724.38
409.11	2878.86
409.30	2923.33
409.49	2899.92
409.68	2967.80
409.87	2913.97
410.07	3073.12
410.26	2895.24
410.45	2977.16
410.64	2925.67
410.83	3075.46
411.02	3112.91
411.21	3112.91
411.40	3052.06
411.59	3253.34
411.78	3098.87
411.98	3152.70
412.17	3295.47
412.36	3265.05
412.55	3274.41
412.74	3400.80
412.93	3339.94
413.12	3440.59
413.31	3529.53
413.50	3529.53
413.69	3375.05
413.88	3583.36
414.07	3691.02
414.26	3529.53
414.45	3566.98
414.64	3707.41
414.83	3691.02
415.02	3765.92
415.22	3861.88
415.41	3927.42
415.60	3847.84
415.79	3845.50
415.98	3833.80
416.17	3918.06
416.36	3899.33
416.55	3929.76
416.74	3934.44
416.93	3854.86
417.12	4133.39
417.31	4098.28
417.50	4175.52
417.69	4269.14
417.88	4219.99
418.07	4128.70
418.26	4308.93
418.45	4255.09
418.64	4360.42
418.83	4365.10
419.02	4449.36
419.21	4414.25
419.39	4444.68
419.58	4311.27
419.77	4493.83
419.96	4491.49
420.15	4535.96
420.34	4550.00
420.53	4599.15
420.72	4540.64
420.91	4629.58
421.10	4725.54
421.29	4823.84
421.48	4578.09
421.67	4791.08
421.86	4737.24
422.05	4830.87
422.24	4709.16
422.43	4788.74
422.61	4901.08
422.80	4835.55
422.99	4795.76
423.18	4929.17
423.37	5081.30
423.56	4957.25
423.75	4940.87
423.94	4819.16
424.13	4566.39
424.32	4861.29
424.50	4945.55
424.69	5081.30
424.88	4999.38
425.07	4903.42
425.26	4917.47
425.45	4905.76
425.64	4961.94
425.83	4943.21
426.01	5156.20
426.20	4922.15
426.39	5032.15
426.58	4943.21
426.77	4905.76
426.96	4999.38
427.15	5046.20
427.33	5186.63
427.52	5261.52
427.71	5167.90
427.90	5203.01
428.09	5322.38
428.28	5289.61
428.46	5383.23
428.65	5207.69
428.84	5444.09
429.03	5441.75
429.22	5336.42
429.40	5469.83
429.59	5432.38
429.78	5249.82
429.97	5266.21
430.16	5397.28
430.34	5593.88
430.53	5675.80
430.72	5593.88
430.91	5614.95
431.10	5619.63
431.28	5638.35
431.47	5631.33
431.66	5898.15
431.85	5603.24
432.03	6031.56
432.22	5940.28
432.41	5818.57
432.60	5844.32
432.79	5940.28
432.97	5973.05
433.16	5900.49
433.35	6050.28
433.54	6101.78
433.72	6120.50
433.91	6047.94
434.10	6080.71
434.28	6127.52
434.47	6256.25
434.66	6125.18
434.85	6354.55
435.03	6263.27
435.22	6263.27
435.41	6399.02
435.59	6305.40
435.78	6443.49
435.97	6274.98
436.16	6347.53
436.34	6633.08
436.53	6616.69
436.72	6588.61
436.90	6274.98
437.09	6635.42
437.28	6478.60
437.46	6487.96
437.65	6682.23
437.84	6703.29
438.02	6768.83
438.21	6796.92
438.40	6539.46
438.58	6803.94
438.77	6967.77
438.96	6977.14
439.14	7023.95
439.33	6911.60
439.52	7321.20
439.70	7328.22
439.89	7288.43
440.08	7286.09
440.26	7218.21
440.45	7272.04
440.63	7311.83
440.82	7487.37
441.01	7339.92
441.19	7653.55
441.38	7838.45
441.57	7758.88
441.75	7632.49
441.94	7847.82
442.12	7838.45
442.31	7969.52
442.50	7913.35
442.68	8116.98
442.87	7974.21
443.05	8065.49
443.24	8081.87
443.43	8056.12
443.61	8112.30
443.80	8271.45
443.98	8147.40
444.17	7866.54
444.35	8252.73
444.54	8313.58
444.73	8241.03
444.91	8156.77
445.10	8156.77
445.28	8266.77
445.47	8234.00
445.65	8226.98
445.84	8243.37
446.02	8456.36
446.21	8351.03
446.39	8400.18
446.58	8468.06
446.77	8500.83
446.95	8297.20
447.14	8315.92
447.32	8489.12
447.51	8472.74
447.69	8376.78
447.88	8475.08
448.06	8528.91
448.25	8524.23
448.43	8362.73
448.62	8643.60
448.80	8461.04
448.99	8695.09
449.17	8706.79
449.36	8500.83
449.54	8924.46
449.73	8901.06
449.91	8936.17
450.10	8791.05
450.28	9092.98
450.46	8919.78
450.65	8887.01
450.83	8945.53
451.02	8870.63
451.20	9102.34
451.39	9064.89
451.57	9064.89
451.76	8999.36
451.94	9270.86
452.13	9184.26
452.31	9338.74
452.49	9067.24
452.68	9439.38
452.86	9329.38
453.05	9423.00
453.23	9542.36
453.42	9266.18
453.60	9142.13
453.78	9371.50
453.97	9451.08
454.15	9418.32
454.34	9259.16
454.52	9504.92
454.70	9547.05
454.89	9745.99
455.07	9706.20
455.26	9589.17
455.44	9905.15
455.62	9809.19
455.81	9816.21
455.99	9750.67
456.17	10080.69
456.36	9930.89
456.54	10050.26
456.73	10471.56
456.91	10403.68
457.09	10382.62
457.28	10560.50
457.46	10108.77
457.64	10429.43
457.83	10391.98
458.01	10237.50
458.19	10583.90
458.38	10349.85
458.56	10595.61
458.74	10677.52
458.93	10567.52
459.11	10677.52
459.29	10661.14
459.48	10597.95
459.66	10717.31
459.84	10796.89
460.03	10932.64
460.21	11089.46
460.39	10829.66
460.57	10757.10
460.76	10991.16
460.94	11101.16
461.12	10995.84
461.31	11098.82
461.49	11246.27
461.67	11007.54
461.85	11475.65
462.04	11255.64
462.22	11822.05
462.40	11433.52
462.59	11552.88
462.77	11222.87
462.95	11389.05
463.13	11559.91
463.32	11625.44
463.50	11555.22
463.68	11730.76
463.86	11686.29
464.05	11618.42
464.23	11644.17
464.41	11808.00
464.59	11555.22
464.78	11995.25
464.96	11843.11
465.14	11836.09
465.32	11889.92
465.50	12233.98
465.69	12058.44
465.87	11990.56
466.05	12072.48
466.23	12077.16
466.41	12025.67
466.60	12423.56
466.78	12063.12
466.96	12037.38
467.14	12072.48
467.32	12154.40
467.51	12599.10
467.69	12187.17
467.87	12278.45
468.05	12468.03
468.23	12451.65
468.41	12545.27
468.60	12641.23
468.78	12676.34
468.96	12542.93
469.14	12526.55
469.32	12720.81
469.50	12414.20
469.69	12901.03
469.87	12903.37
470.05	12929.12
470.23	13020.40
470.41	13149.13
470.59	13095.30
470.77	12952.52
470.95	13373.82
471.14	13263.82
471.32	13235.73
471.50	13493.19
471.68	13467.44
471.86	13865.33
472.04	13605.53
472.22	13713.20
472.40	13341.05
472.58	13823.20
472.77	13930.87
472.95	13912.14
473.13	14586.22
473.31	14008.11
473.49	14324.08
473.67	14068.96
473.85	14406.00
474.03	14413.02
474.21	14319.40
474.39	14796.87
474.57	14485.58
474.75	14623.67
474.93	15005.17
475.12	14904.53
475.30	14843.68
475.48	14949.00
475.66	14984.11
475.84	15033.26
476.02	15613.71
476.20	15384.34
476.38	15716.70
476.56	15903.94
476.74	15829.04
476.92	15719.04
477.10	15906.28
477.28	16114.59
477.46	16049.05
477.64	16105.23
477.82	16269.06
478.00	16805.05
478.18	16503.12
478.36	16945.48
478.54	16896.33
478.72	16968.88
478.90	17280.18
479.08	17486.14
479.26	17338.69
479.44	17436.99
479.62	17736.58
479.80	18115.75
479.98	18185.96
480.16	18560.45
480.34	18216.39
480.52	18331.08
480.70	18305.33
480.88	18396.61
481.06	18888.12
481.24	18743.01
481.41	18771.10
481.59	19063.66
481.77	19084.73
481.95	19145.58
482.13	19356.23
482.31	19445.17
482.49	20046.69
482.67	20137.97
482.85	20149.67
483.03	20638.84
483.21	20900.98
483.39	20744.17
483.57	20837.79
483.74	20910.35
483.92	21120.99
484.10	20856.51
484.28	21315.26
484.46	21970.61
484.64	22099.34
484.82	21900.39
485.00	22345.09
485.18	22525.32
485.35	23185.35
485.53	22857.67
485.71	22771.07
485.89	23091.73
486.07	23157.26
486.25	23269.61
486.43	23498.98
486.61	24013.90
486.78	24030.28
486.96	23908.57
487.14	24325.19
487.32	24489.03
487.50	24816.70
487.68	24212.84
487.85	24739.46
488.03	25263.74
488.21	25556.31
488.39	25795.04
488.57	25905.05
488.75	26073.57
488.92	26314.64
489.10	26242.09
489.28	26518.27
489.46	27075.32
489.64	26848.29
489.81	27318.73
489.99	27290.65
490.17	27562.15
490.35	28020.89
490.53	27723.65
490.70	27894.50
490.88	28077.07
491.06	28809.65
491.24	28467.94
491.41	28531.13
491.59	28985.19
491.77	29184.14
491.95	29490.75
492.13	29345.64
492.30	29734.17
492.48	29692.04
492.66	30120.35
492.84	29956.52
493.01	30658.68
493.19	30459.73
493.37	30876.35
493.54	31007.42
493.72	30934.86
493.90	31407.65
494.08	31683.83
494.25	31903.84
494.43	31529.36
494.61	32039.59
494.79	32126.19
494.96	32421.10
495.14	32369.61
495.32	33001.55
495.49	32987.51
495.67	32863.46
495.85	33172.41
496.02	33642.86
496.20	33720.10
496.38	33701.37
496.55	33844.15
496.73	34316.93
496.91	34258.42
497.09	34623.54
497.26	34455.03
497.44	34850.58
497.62	35068.25
497.79	35494.22
497.97	35573.80
498.14	35541.03
498.32	35728.28
498.50	36027.87
498.67	36397.67
498.85	36142.55
499.03	36613.00
499.20	36449.16
499.38	36882.16
499.56	36528.74
499.73	36814.29
499.91	36943.02
500.08	37628.79
500.26	37083.45
500.44	37205.16
500.61	37528.15
500.79	37542.19
500.97	37912.00
501.14	38380.10
501.32	38408.19
501.49	37933.06
501.67	38291.16
501.84	38412.87
502.02	38792.04
502.20	38962.90
502.37	38670.33
502.55	38672.67
502.72	38960.56
502.90	39236.74
503.07	39379.51
503.25	39215.68
503.43	39335.04
503.60	39814.85
503.78	39999.76
503.95	40224.45
504.13	40194.02
504.30	40350.84
504.48	40217.43
504.65	40378.92
504.83	40336.79
505.01	41048.32
505.18	40940.65
505.36	41256.62
505.53	40390.62
505.71	41544.51
505.88	41394.71
506.06	41015.55
506.23	41729.41
506.41	41373.65
506.58	41811.33
506.76	42003.25
506.93	42036.02
507.11	42176.45
507.28	41940.06
507.46	42174.11
507.63	42775.63
507.81	43196.93
507.98	42639.88
508.16	42976.92
508.33	43257.78
508.50	43161.82
508.68	43349.06
508.85	43658.01
509.03	43683.76
509.20	43674.40
509.38	44034.84
509.55	44105.06
509.73	44177.61
509.90	44081.65
510.08	44418.69
510.25	44116.76
510.42	44673.81
510.60	44877.43
510.77	44720.62
510.95	44676.15
511.12	44692.53
511.30	44821.26
511.47	45289.37
511.64	45146.59
511.82	45539.80
511.99	44987.44
512.17	45193.40
512.34	45603.00
512.51	46082.81
512.69	46216.22
512.86	46244.30
513.04	46501.76
513.21	46525.17
513.38	46333.24
513.56	46473.68
513.73	46649.22
513.90	46873.91
514.08	46878.59
514.25	47004.98
514.43	46904.34
514.60	47295.21
514.77	46602.41
514.95	46918.38
515.12	47150.09
515.29	47491.81
515.47	47590.11
515.64	47592.45
515.81	47124.35
515.99	48165.88
516.16	47892.04
516.33	48250.14
516.51	48608.25
516.68	47838.21
516.85	47917.79
517.03	48526.33
517.20	48690.16
517.37	48406.96
517.54	48538.03
517.72	48591.86
517.89	48748.68
518.06	48964.01
518.24	49214.44
518.41	49069.33
518.58	49315.09
518.75	49167.63
518.93	49247.21
519.10	49279.98
519.27	49546.80
519.45	49350.20
519.62	49219.13
519.79	49893.20
519.96	49965.76
520.14	49790.22
520.31	49645.10
520.48	50520.46
520.65	49916.61
520.83	50497.06
521.00	49947.03
521.17	50064.06
521.34	50396.42
521.52	50754.52
521.69	50483.01
521.86	50866.86
522.03	50752.18
522.20	51161.77
522.38	51082.19
522.55	51316.25
522.72	51199.22
522.89	50967.51
523.07	51533.92
523.24	51255.39
523.41	51306.88
523.58	51175.81
523.75	51922.44
523.92	51372.42
524.10	51714.14
524.27	51716.48
524.44	51758.61
524.61	51828.82
524.78	51688.39
524.96	52119.05
525.13	52107.35
525.30	52018.41
525.47	52231.40
525.64	52179.90
525.81	52516.94
525.98	52514.60
526.16	52446.72
526.33	52481.83
526.50	52547.37
526.67	52477.15
526.84	52875.04
527.01	52638.65
527.18	52608.22
527.36	52598.86
527.53	52896.11
527.70	53258.89
527.87	53120.80
528.04	53059.94
528.21	53418.05
528.38	52980.37
528.55	53277.61
528.72	53261.23
528.89	53015.47
529.07	53066.97
529.24	53073.99
529.41	53233.14
529.58	53282.30
529.75	53268.25
529.92	53567.84
530.09	53703.59
530.26	53736.36
530.43	53813.60
530.60	53333.79
530.77	53710.61
530.94	54014.88
531.11	53914.24
531.28	53972.75
531.46	54031.27
531.63	53881.47
531.80	54019.56
531.97	54129.57
532.14	54494.69
532.31	54220.85
532.48	54396.39
532.65	54368.30
532.82	54337.88
532.99	54436.18
533.16	54417.46
533.33	54642.15
533.50	54719.38
533.67	54911.31
533.84	54490.01
534.01	54557.89
534.18	54684.28
534.35	55075.15
534.52	54925.35
534.69	54820.03
534.86	55161.75
535.03	55049.40
535.20	54887.90
535.37	54993.23
535.54	55348.99
535.71	54934.71
535.88	55164.09
536.05	55374.73
536.22	55599.43
536.38	55372.39
536.55	55224.94
536.72	55344.31
536.89	55550.27
537.06	55466.02
537.23	55531.55
537.40	55236.64
537.57	55627.51
537.74	55531.55
537.91	55781.99
538.08	55585.38
538.25	55557.30
538.42	55531.55
538.59	55796.03
538.75	55833.48
538.92	56034.77
539.09	56027.74
539.26	55910.72
539.43	56112.00
539.60	56025.40
539.77	55887.31
539.94	56273.50
540.11	56266.48
540.28	56095.62
540.44	56348.40
540.61	56259.46
540.78	55959.87
540.95	56236.05
541.12	56191.58
541.29	56257.12
541.46	56214.99
541.62	56360.10
541.79	56427.98
541.96	56233.71
542.13	56554.36
542.30	56523.94
542.47	56559.05
542.63	56680.75
542.80	56741.61
542.97	56720.54
543.14	57001.41
543.31	57064.60
543.48	57080.98
543.64	57516.32
543.81	57261.21
543.98	57389.94
544.15	57029.49
544.32	57331.42
544.48	57446.11
544.65	57371.21
544.82	57282.27
544.99	57176.95
545.16	57396.96
545.32	57242.48
545.49	57551.43
545.66	57436.75
545.83	57411.00
546.00	57785.49
546.16	57242.48
546.33	57495.26
546.50	57104.39
546.67	57588.88
546.83	57249.50
547.00	57499.94
547.17	57715.27
547.34	57663.78
547.50	57719.95
547.67	57893.15
547.84	57715.27
548.00	57808.89
548.17	57918.90
548.34	57893.15
548.51	57956.35
548.67	57900.17
548.84	58166.99
549.01	57972.73
549.18	58082.73
549.34	58162.31
549.51	58117.84
549.68	58333.17
549.84	58216.14
550.01	58246.57
550.18	57848.68
550.34	58262.96
550.51	58227.85
550.68	58035.92
550.84	58169.33
551.01	58447.86
551.18	58295.72
551.34	58225.51
551.51	58506.37
551.68	58534.46
551.84	58220.83
552.01	58108.48
552.18	58408.07
552.34	58291.04
552.51	58487.65
552.68	58340.19
552.84	58581.27
553.01	58665.53
553.18	58506.37
553.34	58574.25
553.51	58391.68
553.67	58574.25
553.84	58920.65
554.01	58616.38
554.17	58796.60
554.34	59065.76
554.51	58731.06
554.67	58953.41
554.84	58890.22
555.00	58906.60
555.17	58745.11
555.33	58911.28
555.50	58735.74
555.67	58754.47
555.83	58747.45
556.00	58958.09
556.16	59323.22
556.33	59014.27
556.50	59023.63
556.66	59068.10
556.83	58677.23
556.99	59337.26
557.16	59449.61
557.32	59283.43
557.49	59475.35
557.65	58955.75
557.82	59327.90
557.98	59180.45
558.15	59267.05
558.32	59341.94
558.48	59196.83
558.65	59430.88
558.81	59395.77
558.98	59208.53
559.14	59304.49
559.31	59433.22
559.47	59587.70
559.64	59758.56
559.80	59388.75
559.97	59503.44
560.13	59463.65
560.30	59524.50
560.46	59751.54
560.63	59547.91
560.79	59585.36
560.96	59812.39
561.12	59690.68
561.29	59674.30
561.45	59660.26
561.61	59704.73
561.78	59561.95
561.94	59398.12
562.11	59662.60
562.27	59742.17
562.44	59779.62
562.60	59908.35
562.77	59718.77
562.93	59639.19
563.10	59812.39
563.26	59831.11
563.42	60097.94
563.59	59779.62
563.75	59838.14
563.92	60107.30
564.08	59667.28
564.24	60093.25
564.41	59945.80
564.57	60095.60
564.74	59924.74
564.90	60154.11
565.07	59828.77
565.23	60023.04
565.39	59901.33
565.56	59859.20
565.72	59873.24
565.88	60079.21
566.05	59971.55
566.21	60093.25
566.38	60018.36
566.54	60196.24
566.70	60062.83
566.87	60240.71
567.03	60055.81
567.19	60273.48
567.36	60016.02
567.52	60058.15
567.68	60432.63
567.85	60236.03
568.01	60360.08
568.17	60191.56
568.34	60378.80
568.50	60048.78
568.66	59987.93
568.83	60282.84
568.99	60135.38
569.15	59922.40
569.32	60296.88
569.48	60376.46
569.64	60074.53
569.81	60388.16
569.97	60266.45
570.13	60278.16
570.30	60140.07
570.46	60238.37
570.62	60292.20
570.78	60308.58
570.95	60250.07
571.11	60353.05
571.27	60238.37
571.43	60313.26
571.60	60451.36
571.76	60324.97
571.92	60353.05
572.09	60542.64
572.25	60413.91
572.41	60327.31
572.57	60381.14
572.74	60491.15
572.90	60413.91
573.06	60584.77
573.22	60186.88
573.38	60388.16
573.55	60505.19
573.71	60605.83
573.87	60729.88
574.03	60301.56
574.20	60528.59
574.36	60437.31
574.52	60500.51
574.68	60589.45
574.84	60762.65
575.01	60647.96
575.17	60470.08
575.33	60322.63
575.49	60528.59
575.65	60598.81
575.82	60673.71
575.98	60603.49
576.14	60933.51
576.30	60481.78
576.46	60727.54
576.62	60594.13
576.79	60376.46
576.95	60439.65
577.11	60844.57
577.27	60699.45
577.43	60484.12
577.59	60781.37
577.75	60479.44
577.92	60521.57
578.08	60437.31
578.24	60636.26
578.40	60718.18
578.56	60828.18
578.72	60603.49
578.88	60886.70
579.04	60788.39
579.21	60692.43
579.37	60678.39
579.53	60711.16
579.69	60720.52
579.85	60463.06
580.01	60570.72
580.17	60385.82
580.33	60753.29
580.49	60676.05
580.65	60706.47
580.82	60797.76
580.98	60561.36
581.14	60793.07
581.30	60786.05
581.46	60594.13
581.62	60781.37
581.78	60605.83
581.94	60802.44
582.10	60500.51
582.26	60860.95
582.42	60701.79
582.58	60671.37
582.74	60680.73
582.90	60774.35
583.06	60863.29
583.22	60788.39
583.38	60722.86
583.54	60809.46
583.70	60762.65
583.86	60903.08
584.02	60828.18
584.18	60846.91
584.34	60896.06
584.50	60912.44
584.66	60687.75
584.82	60526.25
584.98	61010.74
585.14	60842.23
585.30	60690.09
585.46	60907.76
585.62	60917.12
585.78	60938.19
585.94	60739.24
586.10	60795.42
586.26	60905.42
586.42	61052.87
586.58	60907.76
586.74	60809.46
586.90	60947.55
587.06	60596.47
587.22	60839.89
587.38	60858.61
587.54	60961.59
587.70	60863.29
587.86	60863.29
588.02	60797.76
588.18	61010.74
588.34	60860.95
588.49	60739.24
