SpectraSuite Data File
++++++++++++++++++++++++++++++++++++
Date: Fri Oct 25 11:33:49 EDT 2013
User: price-jones
Dark Spectrum Present: No
Reference Spectrum Present: No
Number of Sampled Component Spectra: 1
Spectrometers: USB2+H05261
Integration Time (usec): 100000 (USB2+H05261)
Spectra Averaged: 1 (USB2+H05261)
Boxcar Smoothing: 0 (USB2+H05261)
Correct for Electrical Dark: No (USB2+H05261)
Strobe/Lamp Enabled: No (USB2+H05261)
Correct for Detector Non-linearity: No (USB2+H05261)
Correct for Stray Light: No (USB2+H05261)
Number of Pixels in Processed Spectrum: 2048
>>>>>Begin Processed Spectral Data<<<<<
365.73	290.23
365.92	290.23
366.12	290.23
366.32	177.88
366.52	196.60
366.72	196.60
366.91	163.84
367.11	191.92
367.31	159.16
367.51	121.71
367.70	177.88
367.90	194.26
368.10	210.65
368.30	224.69
368.49	189.58
368.69	269.16
368.89	215.33
369.09	252.78
369.28	184.90
369.48	215.33
369.68	250.44
369.87	238.73
370.07	266.82
370.27	276.18
370.47	372.15
370.66	433.00
370.86	550.03
371.06	561.73
371.25	566.41
371.45	498.53
371.65	564.07
371.84	564.07
372.04	596.84
372.24	547.69
372.44	550.03
372.63	596.84
372.83	578.11
373.03	526.62
373.22	573.43
373.42	610.88
373.62	531.30
373.81	674.07
374.01	650.67
374.21	664.71
374.40	655.35
374.60	622.58
374.79	692.80
374.99	669.39
375.19	641.31
375.38	667.05
375.58	641.31
375.78	720.88
375.97	648.33
376.17	751.31
376.37	650.67
376.56	657.69
376.76	664.71
376.95	613.22
377.15	697.48
377.35	695.14
377.54	713.86
377.74	706.84
377.93	669.39
378.13	730.25
378.33	753.65
378.52	809.83
378.72	702.16
378.91	772.38
379.11	704.50
379.31	744.29
379.50	723.23
379.70	723.23
379.89	734.93
380.09	814.51
380.28	812.17
380.48	720.88
380.68	711.52
380.87	690.46
381.07	744.29
381.26	828.55
381.46	713.86
381.65	667.05
381.85	739.61
382.04	704.50
382.24	765.36
382.43	798.12
382.63	779.40
382.83	802.80
383.02	826.21
383.22	856.64
383.41	854.30
383.61	891.74
383.80	835.57
384.00	786.42
384.19	819.19
384.39	851.96
384.58	777.06
384.78	802.80
384.97	875.36
385.17	819.19
385.36	863.66
385.56	873.02
385.75	821.53
385.95	877.70
386.14	854.30
386.34	812.17
386.53	933.87
386.72	863.66
386.92	922.17
387.11	882.38
387.31	966.64
387.50	800.46
387.70	898.77
387.89	903.45
388.09	968.98
388.28	924.51
388.48	833.23
388.67	896.43
388.86	940.90
389.06	889.40
389.25	971.32
389.45	922.17
389.64	938.55
389.84	957.28
390.03	1015.79
390.22	994.73
390.42	997.07
390.61	929.19
390.81	929.19
391.00	1008.77
391.19	964.30
391.39	1015.79
391.58	1034.52
391.78	919.83
391.97	1074.31
392.16	1060.26
392.36	1057.92
392.55	1034.52
392.75	1184.31
392.94	999.41
393.13	1086.01
393.33	959.62
393.52	1146.86
393.71	1078.99
393.91	1095.37
394.10	1228.78
394.29	1149.20
394.49	1088.35
394.68	1078.99
394.88	1167.93
395.07	1109.41
395.26	1074.31
395.46	1158.57
395.65	1172.61
395.84	1142.18
396.04	1317.72
396.23	1160.91
396.42	1186.65
396.62	1181.97
396.81	1158.57
397.00	1188.99
397.19	1242.82
397.39	1156.22
397.58	1247.51
397.77	1270.91
397.97	1266.23
398.16	1287.29
398.35	1310.70
398.55	1280.27
398.74	1310.70
398.93	1338.79
399.12	1306.02
399.32	1343.47
399.51	1341.13
399.70	1364.53
399.90	1378.58
400.09	1355.17
400.28	1338.79
400.47	1343.47
400.67	1369.21
400.86	1465.18
401.05	1462.83
401.24	1380.92
401.44	1488.58
401.63	1446.45
401.82	1493.26
402.01	1352.83
402.21	1488.58
402.40	1451.13
402.59	1621.99
402.78	1495.60
402.97	1561.14
403.17	1519.01
403.36	1600.93
403.55	1584.54
403.74	1547.09
403.93	1568.16
404.13	1570.50
404.32	1607.95
404.51	1511.99
404.70	1638.38
404.89	1500.28
405.09	1701.57
405.28	1680.50
405.47	1739.02
405.66	1696.89
405.85	1785.83
406.05	1671.14
406.24	1565.82
406.43	1640.72
406.62	1703.91
406.81	1799.87
407.00	1764.76
407.20	1682.85
407.39	1776.47
407.58	1839.66
407.77	1830.30
407.96	1902.86
408.15	1827.96
408.34	1849.02
408.54	1900.52
408.73	2031.58
408.92	2043.29
409.11	2008.18
409.30	1975.41
409.49	2019.88
409.68	1937.96
409.87	1977.75
410.07	1987.11
410.26	2108.82
410.45	2162.66
410.64	2064.35
410.83	2150.95
411.02	2106.48
411.21	2223.51
411.40	2054.99
411.59	2190.74
411.78	2160.31
411.98	2270.32
412.17	2267.98
412.36	2312.45
412.55	2347.56
412.74	2275.00
412.93	2373.30
413.12	2370.96
413.31	2448.20
413.50	2377.98
413.69	2387.35
413.88	2480.97
414.07	2459.90
414.26	2525.44
414.45	2476.29
414.64	2427.14
414.83	2555.86
415.02	2588.63
415.22	2626.08
415.41	2590.97
415.60	2530.12
415.79	2722.04
415.98	2703.32
416.17	2825.03
416.36	2672.89
416.55	2773.53
416.74	2834.39
416.93	2775.88
417.12	2825.03
417.31	3035.67
417.50	2913.97
417.69	3005.25
417.88	3038.02
418.07	2935.03
418.26	2949.08
418.45	2993.55
418.64	3162.06
418.83	2932.69
419.02	3042.70
419.21	3145.68
419.39	2972.48
419.58	3098.87
419.77	3049.72
419.96	3169.09
420.15	3141.00
420.34	3068.44
420.53	3148.02
420.72	3220.58
420.91	3321.22
421.10	3258.03
421.29	3442.93
421.48	3178.45
421.67	3267.39
421.86	3382.07
422.05	3328.24
422.24	3368.03
422.43	3300.16
422.61	3325.90
422.80	3482.72
422.99	3396.12
423.18	3391.44
423.37	3492.08
423.56	3468.67
423.75	3426.54
423.94	3330.58
424.13	3246.32
424.32	3218.24
424.50	3426.54
424.69	3375.05
424.88	3529.53
425.07	3440.59
425.26	3405.48
425.45	3424.20
425.64	3473.36
425.83	3368.03
426.01	3440.59
426.20	3531.87
426.39	3531.87
426.58	3372.71
426.77	3433.57
426.96	3583.36
427.15	3356.33
427.33	3583.36
427.52	3412.50
427.71	3529.53
427.90	3632.51
428.09	3571.66
428.28	3609.11
428.46	3590.38
428.65	3604.42
428.84	3693.37
429.03	3688.68
429.22	3559.95
429.40	3712.09
429.59	3726.13
429.78	3653.58
429.97	3599.74
430.16	3801.03
430.34	3826.78
430.53	3808.05
430.72	3955.51
430.91	3871.25
431.10	3850.18
431.28	3887.63
431.47	4011.68
431.66	4063.17
431.85	3913.38
432.03	4124.02
432.22	4067.85
432.41	4081.89
432.60	4014.02
432.79	4060.83
432.97	4138.07
433.16	4102.96
433.35	4079.55
433.54	4119.34
433.72	4236.37
433.91	4241.05
434.10	4215.30
434.28	4184.88
434.47	4184.88
434.66	4306.59
434.85	4278.50
435.03	4362.76
435.22	4365.10
435.41	4580.43
435.59	4479.79
435.78	4418.93
435.97	4447.02
436.16	4517.23
436.34	4423.61
436.53	4306.59
436.72	4561.70
436.90	4449.36
437.09	4636.60
437.28	4435.32
437.46	4559.36
437.65	4552.34
437.84	4690.43
438.02	4461.06
438.21	4580.43
438.40	4531.28
438.58	4727.88
438.77	4798.10
438.96	4692.77
439.14	4819.16
439.33	4994.70
439.52	4936.19
439.70	4971.30
439.89	4987.68
440.08	5018.11
440.26	4849.59
440.45	4983.00
440.63	5048.54
440.82	5198.33
441.01	5062.58
441.19	5102.37
441.38	5188.97
441.57	5277.91
441.75	5320.04
441.94	5537.71
442.12	5266.21
442.31	5453.45
442.50	5427.70
442.68	5516.64
442.87	5504.94
443.05	5542.39
443.24	5509.62
443.43	5603.24
443.61	5645.37
443.80	5614.95
443.98	5540.05
444.17	5348.12
444.35	5516.64
444.54	5647.71
444.73	5631.33
444.91	5703.89
445.10	5650.05
445.28	5626.65
445.47	5633.67
445.65	5547.07
445.84	5837.30
446.02	5762.40
446.21	5664.10
446.39	5643.03
446.58	5858.36
446.77	5696.86
446.95	5614.95
447.14	5720.27
447.32	5816.23
447.51	5731.97
447.69	5764.74
447.88	5687.50
448.06	5743.67
448.25	5795.17
448.43	5870.06
448.62	5853.68
448.80	5706.23
448.99	5841.98
449.17	5961.34
449.36	5879.43
449.54	5813.89
449.73	6003.47
449.91	6125.18
450.10	5916.87
450.28	6179.01
450.46	6171.99
450.65	6221.14
450.83	6045.60
451.02	6214.12
451.20	6153.27
451.39	6132.20
451.57	6253.91
451.76	6111.14
451.94	6197.74
452.13	6237.53
452.31	6279.66
452.49	6202.42
452.68	6277.32
452.86	6190.72
453.05	6429.45
453.23	6387.32
453.42	6401.37
453.60	6352.21
453.78	6265.61
453.97	6324.13
454.15	6476.26
454.34	6326.47
454.52	6298.38
454.70	6537.12
454.89	6633.08
455.07	6466.90
455.26	6438.81
455.44	6663.51
455.62	6656.48
455.81	6581.59
455.99	6825.00
456.17	6733.72
456.36	6628.40
456.54	6764.15
456.73	6906.92
456.91	7005.22
457.09	6834.36
457.28	6925.65
457.46	6970.12
457.64	7080.12
457.83	7122.25
458.01	6846.07
458.19	7056.72
458.38	6927.99
458.56	7164.38
458.74	7138.63
458.93	7360.98
459.11	7325.88
459.29	7084.80
459.48	7487.37
459.66	7288.43
459.84	7321.20
460.03	7529.50
460.21	7328.22
460.39	7417.16
460.57	7557.59
460.76	7300.13
460.94	7515.46
461.12	7417.16
461.31	7510.78
461.49	7487.37
461.67	7440.56
461.85	7674.62
462.04	7709.72
462.22	8067.83
462.40	7861.86
462.59	7695.68
462.77	7588.02
462.95	7882.92
463.13	7590.36
463.32	7793.98
463.50	8063.15
463.68	8025.70
463.86	7985.91
464.05	7744.83
464.23	7971.86
464.41	7840.79
464.59	8004.63
464.78	7969.52
464.96	7920.37
465.14	7861.86
465.32	8100.59
465.50	8236.35
465.69	8053.78
465.87	8107.62
466.05	8030.38
466.23	8184.85
466.41	8184.85
466.60	8297.20
466.78	8091.23
466.96	8121.66
467.14	8133.36
467.32	8313.58
467.51	8346.35
467.69	8168.47
467.87	8201.24
468.05	8454.02
468.23	8327.63
468.41	8271.45
468.60	8552.32
468.78	8439.97
468.96	8322.94
469.14	8652.96
469.32	8788.71
469.50	8547.64
469.69	8713.81
469.87	8709.13
470.05	8854.25
470.23	8791.05
470.41	8861.27
470.59	8669.34
470.77	8779.35
470.95	8678.71
471.14	8943.19
471.32	8908.08
471.50	8945.53
471.68	9125.75
471.86	9008.72
472.04	9280.22
472.22	9502.58
472.40	9090.64
472.58	9219.37
472.77	8980.64
472.95	9273.20
473.13	9638.33
473.31	9231.07
473.49	9390.23
473.67	9465.13
473.85	9596.20
474.03	9694.50
474.21	9811.53
474.39	9753.01
474.57	9905.15
474.75	9947.28
474.93	10080.69
475.12	10052.60
475.30	9996.43
475.48	9776.42
475.66	10068.98
475.84	10132.18
476.02	9994.09
476.20	10099.41
476.38	10420.06
476.56	10619.01
476.74	10675.18
476.92	10387.30
477.10	10520.71
477.28	10675.18
477.46	10738.38
477.64	10834.34
477.82	10981.79
478.00	11157.33
478.18	11115.20
478.36	11105.84
478.54	11218.19
478.72	11262.66
478.90	11351.60
479.08	11398.41
479.26	11824.39
479.44	11625.44
479.62	11557.57
479.80	11850.13
479.98	12020.99
480.16	12079.50
480.34	12018.65
480.52	12177.81
480.70	12400.16
480.88	12086.53
481.06	12428.24
481.24	12435.27
481.41	12446.97
481.59	12659.96
481.77	12837.84
481.95	12564.00
482.13	13116.36
482.31	12856.56
482.49	13209.98
482.67	13083.59
482.85	13591.49
483.03	13589.15
483.21	13551.70
483.39	13795.12
483.57	13420.63
483.74	13958.96
483.92	13914.48
484.10	13900.44
484.28	14321.74
484.46	14539.41
484.64	14640.05
484.82	14216.41
485.00	14401.32
485.18	15042.62
485.35	15140.93
485.53	14927.94
485.71	15262.63
485.89	15475.62
486.07	15499.03
486.25	15424.13
486.43	15351.57
486.61	15606.69
486.78	15716.70
486.96	15782.23
487.14	15831.38
487.32	15971.82
487.50	16278.43
487.68	16554.61
487.85	16585.04
488.03	16975.91
488.21	16725.47
488.39	17032.08
488.57	17186.55
488.75	17186.55
488.92	17446.35
489.10	17521.25
489.28	17380.82
489.46	17699.13
489.64	17748.28
489.81	18106.38
489.99	17912.12
490.17	17902.76
490.35	18588.53
490.53	18485.55
490.70	18712.58
490.88	18466.83
491.06	18459.81
491.24	19133.88
491.41	18960.68
491.59	19290.70
491.77	19136.22
491.95	19503.68
492.13	19503.68
492.30	19735.40
492.48	19634.75
492.66	19278.99
492.84	19611.35
493.01	19988.18
493.19	20250.32
493.37	20332.23
493.54	20587.35
493.72	20589.69
493.90	20704.38
494.08	20706.72
494.25	20968.86
494.43	21025.03
494.61	20959.50
494.79	21413.56
494.96	21151.42
495.14	21254.40
495.32	22005.72
495.49	21451.01
495.67	21832.52
495.85	22059.55
496.02	21956.57
496.20	21970.61
496.38	22207.00
496.55	22478.50
496.73	22923.21
496.91	22876.40
497.09	22890.44
497.26	22883.42
497.44	23012.15
497.62	23147.90
497.79	23080.02
497.97	23211.09
498.14	23604.30
498.32	23623.03
498.50	23578.56
498.67	23707.29
498.85	23620.69
499.03	23885.17
499.20	24126.24
499.38	23988.15
499.56	24503.07
499.73	24283.06
499.91	24690.31
500.08	24652.86
500.26	24704.35
500.44	24421.15
500.61	24716.06
500.79	24680.95
500.97	25034.37
501.14	25223.95
501.32	25509.50
501.49	25350.34
501.67	25184.16
501.84	25647.59
502.02	25551.63
502.20	25596.10
502.37	25671.00
502.55	25872.28
502.72	25759.94
502.90	25795.04
503.07	25940.16
503.25	26237.41
503.43	25909.73
503.60	26099.31
503.78	26288.90
503.95	26216.34
504.13	26565.08
504.30	26869.35
504.48	26724.24
504.65	26569.76
504.83	27044.89
505.01	27215.75
505.18	27330.44
505.36	27068.30
505.53	27314.05
505.71	27136.17
505.88	27379.59
506.06	27288.31
506.23	27716.62
506.41	27590.24
506.58	27583.21
506.76	27515.34
506.93	27833.65
507.11	28257.29
507.28	28137.92
507.46	27938.97
507.63	28048.98
507.81	28383.68
507.98	28367.29
508.16	28168.35
508.33	28629.43
508.50	28786.25
508.68	28774.55
508.85	29001.58
509.03	28816.68
509.20	28779.23
509.38	29088.18
509.55	29549.26
509.73	29083.50
509.90	29434.58
510.08	29811.40
510.25	29748.21
510.42	29607.78
510.60	29483.73
510.77	29596.07
510.95	30047.80
511.12	29830.13
511.30	29991.62
511.47	30033.75
511.64	30118.01
511.82	30265.47
511.99	29811.40
512.17	30558.03
512.34	30471.43
512.51	30756.98
512.69	30773.36
512.86	30756.98
513.04	31079.97
513.21	30494.84
513.38	31044.87
513.56	30958.27
513.73	30646.97
513.90	31391.26
514.08	31075.29
514.25	31257.85
514.43	31648.72
514.60	31622.98
514.77	31103.38
514.95	31583.19
515.12	31697.88
515.29	31344.45
515.47	31625.32
515.64	31861.71
515.81	31779.79
515.99	32039.59
516.16	32126.19
516.33	32610.68
516.51	32428.12
516.68	32205.77
516.85	32414.08
517.03	32708.99
517.20	32458.55
517.37	32961.76
517.54	32741.75
517.72	32786.22
517.89	32987.51
518.06	32734.73
518.24	32842.40
518.41	32889.21
518.58	32987.51
518.75	32926.66
518.93	33088.15
519.10	33165.39
519.27	33200.50
519.45	33216.88
519.62	33553.92
519.79	33612.43
519.96	33479.02
520.14	33977.56
520.31	33511.79
520.48	33998.62
520.65	34022.03
520.83	34230.33
521.00	34431.62
521.17	34202.25
521.34	34302.89
521.52	34333.32
521.69	34602.48
521.86	34515.88
522.03	34529.92
522.20	35201.66
522.38	34850.58
522.55	34815.47
522.72	34848.24
522.89	34637.59
523.07	35283.58
523.24	35098.67
523.41	35573.80
523.58	34801.43
523.75	35576.14
523.92	35468.48
524.10	35976.37
524.27	35461.46
524.44	35945.95
524.61	35545.72
524.78	35772.75
524.96	35709.55
525.13	35819.56
525.30	36095.74
525.47	36425.76
525.64	36067.66
525.81	36046.59
525.98	36430.44
526.16	35934.24
526.33	36053.61
526.50	36250.22
526.67	36180.00
526.84	36306.39
527.01	36437.46
527.18	36641.09
527.36	36825.99
527.53	36683.22
527.70	36943.02
527.87	36793.22
528.04	37146.64
528.21	36966.42
528.38	36809.61
528.55	37500.06
528.72	37008.55
528.89	37092.81
529.07	37333.89
529.24	37148.98
529.41	37596.03
529.58	37347.93
529.75	37359.63
529.92	37535.17
530.09	37509.43
530.26	37638.15
530.43	37488.36
530.60	37607.73
530.77	37888.59
530.94	37722.41
531.11	37684.97
531.28	37621.77
531.46	38029.02
531.63	38232.65
531.80	38003.28
531.97	38043.07
532.14	38010.30
532.31	38419.89
532.48	38398.83
532.65	38583.73
532.82	38401.17
532.99	38291.16
533.16	38429.26
533.33	38768.63
533.50	38770.97
533.67	39122.05
533.84	38462.02
534.01	38670.33
534.18	39014.39
534.35	39267.17
534.52	38843.53
534.69	39115.03
534.86	39388.88
535.03	39255.46
535.20	39239.08
535.37	39309.30
535.54	39257.81
535.71	39019.07
535.88	39402.92
536.05	39501.22
536.22	39999.76
536.38	39957.63
536.55	39742.30
536.72	39751.66
536.89	39697.83
537.06	39812.51
537.23	39945.92
537.40	39562.08
537.57	39550.37
537.74	39618.25
537.91	39840.60
538.08	39716.55
538.25	39697.83
538.42	40289.98
538.59	40531.06
538.75	40098.06
538.92	40545.10
539.09	40587.23
539.26	40435.10
539.43	40112.10
539.60	40563.82
539.77	40453.82
539.94	40921.93
540.11	40547.44
540.28	40891.50
540.44	40666.81
540.61	40643.40
540.78	40498.29
540.95	40650.42
541.12	40809.58
541.29	40701.92
541.46	40907.88
541.62	40884.48
541.79	41378.33
541.96	40556.80
542.13	40992.14
542.30	41251.94
542.47	41031.93
542.63	41280.03
542.80	42068.79
542.97	41722.39
543.14	41507.06
543.31	41469.61
543.48	41792.61
543.64	41811.33
543.81	41610.04
543.98	41518.76
544.15	42239.65
544.32	42017.30
544.48	41921.34
544.65	42146.03
544.82	42347.31
544.99	41640.47
545.16	42366.04
545.32	42162.41
545.49	42621.16
545.66	42614.13
545.83	42454.98
546.00	42796.70
546.16	42103.90
546.33	42398.80
546.50	42335.61
546.67	42829.46
546.83	42740.52
547.00	42740.52
547.17	42321.57
547.34	42422.21
547.50	43313.95
547.67	43058.84
547.84	43241.40
548.00	43150.12
548.17	43026.07
548.34	43124.37
548.51	43047.13
548.67	42920.74
548.84	43391.19
549.01	43035.43
549.18	43154.80
549.34	42724.14
549.51	43044.79
549.68	43278.85
549.84	43152.46
550.01	43414.60
550.18	43023.73
550.34	43531.62
550.51	43632.27
550.68	44184.63
550.84	43447.36
551.01	43555.03
551.18	44009.09
551.34	43438.00
551.51	43648.65
551.68	43573.75
551.84	43566.73
552.01	43730.57
552.18	43756.32
552.34	43765.68
552.51	44179.95
552.68	43772.70
552.84	44041.86
553.01	44051.22
553.18	44119.10
553.34	44161.23
553.51	43934.20
553.67	43992.71
553.84	44261.87
554.01	44027.82
554.17	44341.45
554.34	44711.25
554.51	44191.65
554.67	44512.31
554.84	44568.48
555.00	44793.17
555.17	44392.94
555.33	44641.04
555.50	44589.55
555.67	44554.44
555.83	44423.37
556.00	44381.24
556.16	44776.79
556.33	44774.45
556.50	44884.45
556.66	44734.66
556.83	44367.20
556.99	44781.47
557.16	45139.57
557.32	44928.92
557.49	44758.06
557.65	45097.44
557.82	44825.94
557.98	45261.28
558.15	44744.02
558.32	44800.19
558.48	44786.15
558.65	45029.57
558.81	45031.91
558.98	44634.02
559.14	45420.44
559.31	45186.38
559.47	45146.59
559.64	45209.79
559.80	45408.73
559.97	45322.13
560.13	45069.36
560.30	45038.93
560.46	45319.79
560.63	45610.02
560.79	45619.38
560.96	46082.81
561.12	45397.03
561.29	45544.48
561.45	45488.31
561.61	45677.90
561.78	45684.92
561.94	45418.10
562.11	45170.00
562.27	45619.38
562.44	45666.19
562.60	45759.81
562.77	45647.47
562.93	45528.10
563.10	46225.58
563.26	45642.79
563.42	46101.53
563.59	46050.04
563.75	45516.40
563.92	45595.98
564.08	45893.22
564.24	45986.85
564.41	45713.00
564.57	45855.78
564.74	46028.98
564.90	45647.47
565.07	46007.91
565.23	46120.26
565.39	45869.82
565.56	46248.99
565.72	46160.05
565.88	45675.55
566.05	45846.41
566.21	45813.65
566.38	45904.93
566.54	46227.92
566.70	45970.46
566.87	46525.17
567.03	46150.68
567.19	46607.09
567.36	46443.25
567.52	45738.75
567.68	46773.27
567.85	46155.36
568.01	46309.84
568.17	45848.75
568.34	46511.13
568.50	46143.66
568.66	45956.42
568.83	46314.52
568.99	46480.70
569.15	46157.70
569.32	46204.52
569.48	46445.59
569.64	47012.00
569.81	46330.90
569.97	46787.31
570.13	46628.15
570.30	46263.03
570.46	46745.18
570.62	46314.52
570.78	46408.14
570.95	46307.50
571.11	46684.33
571.27	46541.55
571.43	46911.36
571.60	46623.47
571.76	46684.33
571.92	46866.89
572.09	46499.42
572.25	46721.77
572.41	46316.86
572.57	46571.98
572.74	47004.98
572.90	46567.30
573.06	46653.90
573.22	46534.53
573.38	47215.63
573.55	46918.38
573.71	47051.79
573.87	46817.74
574.03	46707.73
574.20	47138.39
574.36	47119.66
574.52	46693.69
574.68	46784.97
574.84	47157.11
575.01	46918.38
575.17	47159.45
575.33	47297.55
575.49	46412.82
575.65	47189.88
575.82	47239.03
575.98	46642.20
576.14	47363.08
576.30	47302.23
576.46	47033.07
576.62	46941.78
576.79	46700.71
576.95	46681.98
577.11	47437.98
577.27	47133.71
577.43	46953.49
577.59	47105.62
577.75	47304.57
577.92	46351.97
578.08	46831.78
578.24	47114.98
578.40	47466.06
578.56	47274.14
578.72	46766.24
578.88	46941.78
579.04	47023.70
579.21	46932.42
579.37	47175.84
579.53	47040.09
579.69	47129.03
579.85	46831.78
580.01	46902.00
580.17	46946.47
580.33	47351.38
580.49	47070.51
580.65	47187.54
580.82	47175.84
580.98	46782.63
581.14	47100.94
581.30	46988.60
581.46	47255.42
581.62	47096.26
581.78	47056.47
581.94	46960.51
582.10	47103.28
582.26	46958.17
582.42	46944.12
582.58	47463.72
582.74	47241.37
582.90	47487.13
583.06	47426.28
583.22	46897.31
583.38	47531.60
583.54	47290.52
583.70	47320.95
583.86	47302.23
584.02	46941.78
584.18	47349.04
584.34	47210.95
584.50	47437.98
584.66	47491.81
584.82	47325.63
584.98	47370.10
585.14	47562.03
585.30	46946.47
585.46	47318.61
585.62	47320.95
585.78	47498.83
585.94	46859.87
586.10	47070.51
586.26	46981.57
586.42	47484.79
586.58	47395.85
586.74	46768.58
586.90	47227.33
587.06	47276.48
587.22	47107.96
587.38	46944.12
587.54	47580.75
587.70	47672.03
587.86	47503.51
588.02	47281.16
588.18	47239.03
588.34	47086.90
588.49	47157.11
588.65	46742.84
588.81	47770.33
588.97	47332.65
589.13	47351.38
589.29	47718.84
589.45	47910.77
589.61	47496.49
589.77	47564.37
589.93	47304.57
590.08	47714.16
