SpectraSuite Data File
++++++++++++++++++++++++++++++++++++
Date: Fri Oct 25 11:26:42 EDT 2013
User: price-jones
Dark Spectrum Present: No
Reference Spectrum Present: No
Number of Sampled Component Spectra: 1
Spectrometers: USB2+H05261
Integration Time (usec): 100000 (USB2+H05261)
Spectra Averaged: 1 (USB2+H05261)
Boxcar Smoothing: 0 (USB2+H05261)
Correct for Electrical Dark: No (USB2+H05261)
Strobe/Lamp Enabled: No (USB2+H05261)
Correct for Detector Non-linearity: No (USB2+H05261)
Correct for Stray Light: No (USB2+H05261)
Number of Pixels in Processed Spectrum: 2048
>>>>>Begin Processed Spectral Data<<<<<
365.73	257.46
365.92	257.46
366.12	257.46
366.32	189.58
366.52	159.16
366.72	142.77
366.91	201.29
367.11	166.18
367.31	79.58
367.51	114.69
367.70	142.77
367.90	110.01
368.10	121.71
368.30	163.84
368.49	220.01
368.69	170.86
368.89	131.07
369.09	138.09
369.28	238.73
369.48	189.58
369.68	205.97
369.87	175.54
370.07	198.95
370.27	243.42
370.47	362.78
370.66	498.53
370.86	587.47
371.06	575.77
371.25	657.69
371.45	730.25
371.65	660.03
371.84	678.76
372.04	627.26
372.24	664.71
372.44	711.52
372.63	758.33
372.83	786.42
373.03	777.06
373.22	821.53
373.42	868.34
373.62	730.25
373.81	734.93
374.01	772.38
374.21	798.12
374.40	795.78
374.60	807.48
374.79	807.48
374.99	741.95
375.19	828.55
375.38	835.57
375.58	910.47
375.78	901.11
375.97	866.00
376.17	880.04
376.37	837.91
376.56	830.89
376.76	851.96
376.95	933.87
377.15	898.77
377.35	922.17
377.54	884.72
377.74	891.74
377.93	938.55
378.13	940.90
378.33	1013.45
378.52	945.58
378.72	1008.77
378.91	1008.77
379.11	917.49
379.31	945.58
379.50	896.43
379.70	1018.13
379.89	1032.18
380.09	980.68
380.28	1004.09
380.48	1020.47
380.68	1029.84
380.87	1102.39
381.07	1057.92
381.26	1022.81
381.46	1048.56
381.65	1153.88
381.85	1011.11
382.04	1004.09
382.24	1039.20
382.43	1107.07
382.63	1015.79
382.83	1078.99
383.02	1125.80
383.22	1088.35
383.41	1121.12
383.61	1116.44
383.80	1245.16
384.00	1118.78
384.19	1071.97
384.39	1200.69
384.58	1142.18
384.78	1132.82
384.97	1109.41
385.17	1205.38
385.36	1268.57
385.56	1100.05
385.75	1111.75
385.95	1277.93
386.14	1235.80
386.34	1259.21
386.53	1186.65
386.72	1163.25
386.92	1238.14
387.11	1299.00
387.31	1242.82
387.50	1308.36
387.70	1233.46
387.89	1210.06
388.09	1334.11
388.28	1317.72
388.48	1320.06
388.67	1291.98
388.86	1373.89
389.06	1409.00
389.25	1291.98
389.45	1462.83
389.64	1416.02
389.84	1399.64
390.03	1406.66
390.22	1357.51
390.42	1378.58
390.61	1462.83
390.81	1430.07
391.00	1385.60
391.19	1432.41
391.39	1437.09
391.58	1526.03
391.78	1495.60
391.97	1465.18
392.16	1497.94
392.36	1523.69
392.55	1577.52
392.75	1551.78
392.94	1551.78
393.13	1497.94
393.33	1509.65
393.52	1540.07
393.71	1530.71
393.91	1579.86
394.10	1598.59
394.29	1624.33
394.49	1617.31
394.68	1689.87
394.88	1626.67
395.07	1598.59
395.26	1806.89
395.46	1668.80
395.65	1689.87
395.84	1689.87
396.04	1872.43
396.23	1746.04
396.42	1762.42
396.62	1750.72
396.81	1809.23
397.00	1818.60
397.19	1806.89
397.39	1870.09
397.58	1933.28
397.77	1884.13
397.97	1919.24
398.16	1820.94
398.35	1842.00
398.55	1884.13
398.74	1891.15
398.93	2005.84
399.12	1944.99
399.32	1921.58
399.51	2012.86
399.70	1961.37
399.90	1858.39
400.09	2080.74
400.28	2054.99
400.47	2040.95
400.67	2083.08
400.86	2080.74
401.05	2186.06
401.24	2059.67
401.44	2092.44
401.63	2087.76
401.82	2157.97
402.01	2106.48
402.21	2214.15
402.40	2108.82
402.59	2279.68
402.78	2181.38
402.97	2375.64
403.17	2225.85
403.36	2263.30
403.55	2347.56
403.74	2380.32
403.93	2417.77
404.13	2466.92
404.32	2333.51
404.51	2410.75
404.70	2445.86
404.89	2434.16
405.09	2497.35
405.28	2487.99
405.47	2523.10
405.66	2537.14
405.85	2583.95
406.05	2562.89
406.24	2567.57
406.43	2567.57
406.62	2724.38
406.81	2654.17
407.00	2553.52
407.20	2588.63
407.39	2616.72
407.58	2654.17
407.77	2677.57
407.96	2818.00
408.15	2771.19
408.34	2771.19
408.54	2871.84
408.73	2724.38
408.92	2810.98
409.11	2792.26
409.30	2848.43
409.49	2867.16
409.68	2937.37
409.87	3035.67
410.07	3054.40
410.26	3038.02
410.45	3243.98
410.64	3045.04
410.83	3159.72
411.02	3061.42
411.21	3272.07
411.40	3126.96
411.59	3208.87
411.78	3145.68
411.98	3290.79
412.17	3276.75
412.36	3384.41
412.55	3435.91
412.74	3372.71
412.93	3405.48
413.12	3344.63
413.31	3569.32
413.50	3475.70
413.69	3487.40
413.88	3613.79
414.07	3566.98
414.26	3602.08
414.45	3583.36
414.64	3742.52
414.83	3744.86
415.02	3709.75
415.22	3735.50
415.41	3810.39
415.60	3960.19
415.79	3955.51
415.98	4039.76
416.17	3999.98
416.36	4018.70
416.55	4102.96
416.74	4114.66
416.93	4224.67
417.12	4044.45
417.31	4173.18
417.50	4187.22
417.69	4435.32
417.88	4170.83
418.07	4320.63
418.26	4557.02
418.45	4285.52
418.64	4578.09
418.83	4482.13
419.02	4592.13
419.21	4463.40
419.39	4615.54
419.58	4486.81
419.77	4430.63
419.96	4610.86
420.15	4645.96
420.34	4741.93
420.53	4660.01
420.72	4812.14
420.91	4713.84
421.10	4765.33
421.29	4884.70
421.48	4725.54
421.67	4807.46
421.86	4880.02
422.05	4851.93
422.24	4837.89
422.43	4947.89
422.61	4952.57
422.80	4987.68
422.99	5036.83
423.18	4936.19
423.37	5034.49
423.56	5013.43
423.75	5195.99
423.94	5151.52
424.13	4723.20
424.32	4873.00
424.50	5029.81
424.69	5177.26
424.88	5104.71
425.07	5179.61
425.26	4952.57
425.45	5111.73
425.64	5076.62
425.83	4961.94
426.01	5055.56
426.20	5144.50
426.39	5132.79
426.58	5057.90
426.77	5027.47
426.96	5093.01
427.15	5191.31
427.33	5392.59
427.52	5207.69
427.71	5338.76
427.90	5334.08
428.09	5329.40
428.28	5542.39
428.46	5352.81
428.65	5394.93
428.84	5322.38
429.03	5563.45
429.22	5401.96
429.40	5549.41
429.59	5586.86
429.78	5476.85
429.97	5296.63
430.16	5488.56
430.34	5717.93
430.53	5734.31
430.72	5748.36
430.91	5701.54
431.10	5624.31
431.28	5783.46
431.47	5851.34
431.66	5977.73
431.85	5820.91
432.03	5757.72
432.22	6017.52
432.41	6047.94
432.60	5860.70
432.79	6132.20
432.97	5935.60
433.16	5989.43
433.35	5994.11
433.54	6090.07
433.72	6183.70
433.91	6265.61
434.10	6296.04
434.28	6204.76
434.47	6267.95
434.66	6340.51
434.85	6396.68
435.03	6349.87
435.22	6436.47
435.41	6462.22
435.59	6326.47
435.78	6520.73
435.97	6712.66
436.16	6335.83
436.34	6527.75
436.53	6530.09
436.72	6616.69
436.90	6607.33
437.09	6750.10
437.28	6431.79
437.46	6691.59
437.65	6651.80
437.84	6764.15
438.02	6832.02
438.21	6902.24
438.40	6649.46
438.58	7119.91
438.77	7052.03
438.96	7267.36
439.14	7302.47
439.33	7353.96
439.52	7206.51
439.70	7316.51
439.89	7449.93
440.08	7468.65
440.26	7377.37
440.45	7370.35
440.63	7534.18
440.82	7667.60
441.01	7349.28
441.19	7735.47
441.38	7618.44
441.57	7754.19
441.75	7866.54
441.94	8035.06
442.12	7978.89
442.31	8128.68
442.50	7976.55
442.68	8119.32
442.87	8070.17
443.05	8194.22
443.24	8126.34
443.43	8255.07
443.61	8479.76
443.80	8458.70
443.98	7990.59
444.17	7815.05
444.35	8236.35
444.54	8617.85
444.73	8163.79
444.91	8325.29
445.10	8407.20
445.28	8407.20
445.47	8257.41
445.65	8322.94
445.84	8535.93
446.02	8526.57
446.21	8454.02
446.39	8437.63
446.58	8535.93
446.77	8512.53
446.95	8451.67
447.14	8524.23
447.32	8580.40
447.51	8657.64
447.69	8645.94
447.88	8580.40
448.06	8613.17
448.25	8589.77
448.43	8739.56
448.62	8627.21
448.80	8575.72
448.99	8887.01
449.17	8779.35
449.36	8559.34
449.54	8912.76
449.73	9184.26
449.91	9041.49
450.10	9146.81
450.28	9057.87
450.46	9128.09
450.65	9057.87
450.83	9095.32
451.02	9142.13
451.20	9427.68
451.39	9315.33
451.57	9298.95
451.76	9029.79
451.94	9289.59
452.13	9593.86
452.31	9394.91
452.49	9137.45
452.68	9493.21
452.86	9336.40
453.05	9533.00
453.23	9511.94
453.42	9315.33
453.60	9692.16
453.78	9731.95
453.97	9472.15
454.15	9397.25
454.34	9493.21
454.52	9956.64
454.70	9905.15
454.89	9736.63
455.07	9767.06
455.26	9832.59
455.44	10155.58
455.62	10207.08
455.81	10157.92
455.99	10139.20
456.17	10115.80
456.36	10094.73
456.54	10462.19
456.73	10232.82
456.91	10375.59
457.09	10668.16
457.28	10881.15
457.46	10492.62
457.64	10377.94
457.83	10684.55
458.01	10457.51
458.19	10733.70
458.38	10499.64
458.56	10733.70
458.74	10696.25
458.93	10712.63
459.11	10714.97
459.29	10864.77
459.48	11016.90
459.66	10967.75
459.84	11073.07
460.03	11126.91
460.21	11044.99
460.39	10881.15
460.57	11112.86
460.76	11103.50
460.94	11236.91
461.12	11208.83
461.31	11133.93
461.49	11318.83
461.67	11311.81
461.85	11763.53
462.04	11405.43
462.22	11690.98
462.40	11840.77
462.59	11389.05
462.77	11522.46
462.95	11929.71
463.13	11665.23
463.32	11896.94
463.50	11934.39
463.68	11616.08
463.86	11894.60
464.05	11971.84
464.23	11831.41
464.41	12109.93
464.59	11658.21
464.78	12292.49
464.96	12184.83
465.14	11929.71
465.32	11950.78
465.50	12142.70
465.69	12407.18
465.87	12166.10
466.05	12184.83
466.23	12339.30
466.41	12238.66
466.60	12620.17
466.78	12180.15
466.96	12269.09
467.14	12278.45
467.32	12404.84
467.51	12566.34
467.69	12161.42
467.87	12442.29
468.05	12587.40
468.23	12592.08
468.41	12444.63
468.60	12601.44
468.78	13027.42
468.96	12760.60
469.14	13027.42
469.32	12807.41
469.50	12720.81
469.69	13207.64
469.87	13062.53
470.05	13137.43
470.23	13357.44
470.41	13277.86
470.59	13586.81
470.77	13497.87
470.95	13345.73
471.14	13809.16
471.32	13336.37
471.50	13582.13
471.68	13713.20
471.86	13788.10
472.04	13874.70
472.22	14036.19
472.40	13722.56
472.58	13771.71
472.77	14101.73
472.95	14293.65
473.13	14822.61
473.31	14092.37
473.49	14314.72
473.67	13961.30
473.85	14530.05
474.03	14717.29
474.21	14686.86
474.39	14728.99
474.57	14736.01
474.75	14864.74
474.93	15157.31
475.12	15232.21
475.30	15126.88
475.48	15178.37
475.66	15510.73
475.84	15470.94
476.02	15592.65
476.20	15550.52
476.38	15377.32
476.56	16049.05
476.74	15854.79
476.92	16116.93
477.10	15742.44
477.28	16002.24
477.46	16180.12
477.64	16423.54
477.82	16608.44
478.00	16964.20
478.18	16816.75
478.36	17219.32
478.54	17034.42
478.72	17209.96
478.90	17607.85
479.08	17591.47
479.26	17823.18
479.44	17795.09
479.62	17954.25
479.80	18118.09
479.98	18286.61
480.16	18625.98
480.34	18403.63
480.52	18775.78
480.70	18855.36
480.88	18740.67
481.06	19021.53
481.24	19063.66
481.41	19126.86
481.59	19515.39
481.77	19360.91
481.95	19690.93
482.13	19936.68
482.31	19665.18
482.49	20255.00
482.67	20409.47
482.85	20690.34
483.03	20519.48
483.21	21102.27
483.39	21078.86
483.57	21170.15
483.74	21387.82
483.92	21626.55
484.10	21357.39
484.28	21956.57
484.46	22214.02
484.64	22574.47
484.82	22122.74
485.00	22534.68
485.18	22831.93
485.35	23108.11
485.53	23042.57
485.71	23077.68
485.89	23428.76
486.07	23250.88
486.25	23538.77
486.43	23608.98
486.61	24233.91
486.78	24577.97
486.96	24177.73
487.14	24959.47
487.32	24772.23
487.50	25055.43
487.68	24847.13
487.85	25755.26
488.03	25406.52
488.21	26033.78
488.39	26132.08
488.57	26190.59
488.75	26242.09
488.92	26590.83
489.10	26803.82
489.28	26724.24
489.46	27194.68
489.64	27089.36
489.81	28013.87
489.99	27894.50
490.17	28105.15
490.35	28388.36
490.53	28554.54
490.70	28329.84
490.88	28676.24
491.06	29181.80
491.24	29142.01
491.41	29589.05
491.59	29315.21
491.77	29472.03
491.95	29888.64
492.13	29961.20
492.30	30139.08
492.48	30356.75
492.66	30331.00
492.84	30670.38
493.01	31035.50
493.19	31068.27
493.37	31002.74
493.54	31166.57
493.72	31859.37
493.90	31337.43
494.08	31852.35
494.25	32446.85
494.43	32531.11
494.61	32198.75
494.79	32741.75
494.96	32975.81
495.14	33259.01
495.32	33362.00
495.49	33591.37
495.67	33359.66
495.85	34064.16
496.02	33778.61
496.20	34422.26
496.38	34387.15
496.55	34361.40
496.73	35194.64
496.91	34806.11
497.09	34927.81
497.26	35091.65
497.44	35412.31
497.62	35709.55
497.79	35817.22
497.97	35402.94
498.14	35810.20
498.32	36222.13
498.50	36369.58
498.67	36582.57
498.85	36451.50
499.03	36692.58
499.20	36978.12
499.38	37432.19
499.56	36987.49
499.73	37560.92
499.91	37769.22
500.08	37972.85
500.26	37701.35
500.44	38057.11
500.61	38087.54
500.79	37914.34
500.97	38504.15
501.14	39218.02
501.32	38838.85
501.49	38906.73
501.67	38962.90
501.84	39257.81
502.02	38873.96
502.20	39096.31
502.37	39381.85
502.55	39817.19
502.72	39519.95
502.90	39505.90
503.07	39517.60
503.25	40140.19
503.43	39824.22
503.60	40306.37
503.78	40545.10
503.95	40189.34
504.13	40631.70
504.30	40612.98
504.48	40821.28
504.65	40980.44
504.83	41375.99
505.01	41666.22
505.18	41724.73
505.36	42124.96
505.53	41284.71
505.71	41979.85
505.88	41844.10
506.06	41652.17
506.23	41979.85
506.41	42251.35
506.58	42230.29
506.76	42756.91
506.93	42499.45
507.11	42471.36
507.28	42794.36
507.46	43168.84
507.63	43496.52
507.81	43313.95
507.98	43054.15
508.16	43445.02
508.33	43833.55
508.50	44156.55
508.68	44151.87
508.85	44582.52
509.03	44194.00
509.20	44219.74
509.38	44519.33
509.55	44865.73
509.73	44671.46
509.90	44947.65
510.08	44706.57
510.25	44804.88
510.42	45090.42
510.60	45219.15
510.77	45642.79
510.95	45750.45
511.12	45371.28
511.30	45268.30
511.47	45855.78
511.64	45904.93
511.82	46279.41
511.99	45778.54
512.17	46115.58
512.34	46000.89
512.51	46693.69
512.69	46873.91
512.86	46876.25
513.04	46894.97
513.21	46674.96
513.38	46838.80
513.56	47234.35
513.73	47150.09
513.90	47501.17
514.08	47086.90
514.25	47566.71
514.43	47753.95
514.60	47807.78
514.77	47576.07
514.95	48023.11
515.12	47611.18
515.29	47796.08
515.47	48259.51
515.64	48329.72
515.81	48114.39
515.99	48343.77
516.16	48622.29
516.33	48734.63
516.51	48650.38
516.68	48697.19
516.85	48367.17
517.03	48882.09
517.20	49153.59
517.37	49397.01
517.54	48907.83
517.72	49820.64
517.89	49378.28
518.06	49647.44
518.24	49872.14
518.41	49354.88
518.58	49483.61
518.75	49509.35
518.93	49684.89
519.10	49668.51
519.27	49727.02
519.45	50071.08
519.62	50270.03
519.79	50073.42
519.96	50277.05
520.14	50450.25
520.31	50646.85
520.48	50901.97
520.65	50447.91
520.83	51070.49
521.00	50586.00
521.17	50866.86
521.34	50960.48
521.52	51023.68
521.69	51143.05
521.86	51231.99
522.03	51384.12
522.20	51349.01
522.38	51360.72
522.55	51524.55
522.72	51217.94
522.89	51316.25
523.07	51877.97
523.24	51721.16
523.41	51959.89
523.58	51812.44
523.75	52289.91
523.92	51917.76
524.10	52406.94
524.27	52285.23
524.44	52430.34
524.61	52259.48
524.78	52409.28
524.96	52587.16
525.13	52596.52
525.30	52694.82
525.47	52790.78
525.64	52697.16
525.81	52924.19
525.98	52837.59
526.16	52828.23
526.33	52942.92
526.50	53303.36
526.67	52924.19
526.84	53331.45
527.01	53242.51
527.18	52896.11
527.36	53223.78
527.53	53090.37
527.70	53874.45
527.87	53497.62
528.04	53242.51
528.21	53535.07
528.38	53286.98
528.55	53998.50
528.72	53577.20
528.89	53584.22
529.07	53492.94
529.24	53719.98
529.41	53954.03
529.58	53958.71
529.75	53844.02
529.92	54017.22
530.09	54014.88
530.26	54131.91
530.43	54148.29
530.60	53958.71
530.77	54033.61
530.94	54298.09
531.11	54239.57
531.28	54387.03
531.46	54396.39
531.63	54562.57
531.80	54520.44
531.97	54513.42
532.14	54782.58
532.31	54658.53
532.48	54691.30
532.65	54990.89
532.82	54845.77
532.99	54897.27
533.16	54759.17
533.33	54937.05
533.50	55124.30
533.67	55157.06
533.84	54883.22
534.01	55133.66
534.18	55128.98
534.35	55501.12
534.52	55484.74
534.69	55152.38
534.86	55620.49
535.03	55283.45
535.20	55433.25
535.37	55437.93
535.54	55356.01
535.71	55578.36
535.88	55786.67
536.05	55657.94
536.22	55781.99
536.38	55723.47
536.55	55683.69
536.72	55618.15
536.89	55739.86
537.06	55828.80
537.23	55805.39
537.40	55716.45
537.57	55913.06
537.74	56048.81
537.91	56381.16
538.08	56104.98
538.25	55735.18
538.42	56048.81
538.59	56350.74
538.75	55887.31
538.92	56189.24
539.09	56151.79
539.26	56479.47
539.43	56214.99
539.60	56341.38
539.77	56526.28
539.94	56589.47
540.11	56587.13
540.28	56769.69
540.44	56657.35
540.61	56584.79
540.78	56596.49
540.95	56678.41
541.12	56842.25
541.29	56650.33
541.46	56774.37
541.62	57022.47
541.79	56853.95
541.96	56748.63
542.13	56673.73
542.30	56893.74
542.47	57172.27
542.63	57031.83
542.80	57010.77
542.97	57207.37
543.14	57471.85
543.31	57364.19
543.48	57230.78
543.64	57619.31
543.81	57623.99
543.98	57511.64
544.15	57558.45
544.32	57460.15
544.48	57549.09
544.65	57698.89
544.82	57546.75
544.99	57579.52
545.16	57680.16
545.32	57579.52
545.49	57965.71
545.66	57930.60
545.83	57822.93
546.00	57731.65
546.16	58040.60
546.33	57675.48
546.50	57794.85
546.67	57893.15
546.83	57642.71
547.00	57993.79
547.17	57797.19
547.34	57851.02
547.50	58110.82
547.67	58227.85
547.84	58218.49
548.00	58145.93
548.17	58316.79
548.34	58258.27
548.51	58253.59
548.67	58239.55
548.84	58267.64
549.01	58429.13
549.18	58309.77
549.34	58309.77
549.51	58609.35
549.68	58656.17
549.84	58497.01
550.01	58384.66
550.18	58663.19
550.34	58569.57
550.51	58543.82
550.68	58611.70
550.84	58438.50
551.01	58665.53
551.18	58721.70
551.34	58555.52
551.51	58824.68
551.68	58791.92
551.84	58855.11
552.01	58707.66
552.18	59035.33
552.34	58489.99
552.51	58841.07
552.68	58555.52
552.84	58576.59
553.01	58967.46
553.18	58857.45
553.34	58965.12
553.51	59014.27
553.67	59140.66
553.84	59150.02
554.01	59105.55
554.17	59164.06
554.34	59334.92
554.51	59189.81
554.67	59117.25
554.84	59051.72
555.00	58990.86
555.17	59056.40
555.33	59281.09
555.50	59075.12
555.67	59126.61
555.83	59264.70
556.00	59220.23
556.16	59412.16
556.33	59515.14
556.50	59327.90
556.66	59671.96
556.83	59269.39
556.99	59690.68
557.16	59606.42
557.32	59913.03
557.49	59819.41
557.65	59540.89
557.82	59669.62
557.98	59746.86
558.15	59779.62
558.32	59821.75
558.48	59519.82
558.65	59758.56
558.81	59653.23
558.98	59721.11
559.14	59889.63
559.31	59924.74
559.47	59788.98
559.64	59814.73
559.80	59716.43
559.97	59920.05
560.13	59920.05
560.30	59913.03
560.46	59791.33
560.63	60030.06
560.79	59976.23
560.96	59796.01
561.12	59805.37
561.29	59774.94
561.45	60034.74
561.61	60065.17
561.78	59817.07
561.94	59896.65
562.11	60018.36
562.27	60090.91
562.44	60009.00
562.60	60327.31
562.77	60100.28
562.93	60048.78
563.10	60397.52
563.26	60175.17
563.42	60364.76
563.59	60229.01
563.75	59966.87
563.92	60292.20
564.08	60395.18
564.24	60378.80
564.41	60226.66
564.57	60231.35
564.74	60214.96
564.90	60308.58
565.07	60191.56
565.23	60282.84
565.39	60383.48
565.56	60151.77
565.72	60027.72
565.88	60395.18
566.05	60369.44
566.21	60449.02
566.38	60266.45
566.54	60559.02
566.70	60640.94
566.87	60598.81
567.03	60327.31
567.19	60657.32
567.36	60547.32
567.52	60605.83
567.68	60755.63
567.85	60470.08
568.01	60512.21
568.17	60214.96
568.34	60556.68
568.50	60673.71
568.66	60502.85
568.83	60477.10
568.99	60680.73
569.15	60603.49
569.32	60507.53
569.48	60505.19
569.64	60797.76
569.81	60654.98
569.97	60577.75
570.13	60547.32
570.30	60411.57
570.46	60383.48
570.62	60764.99
570.78	60622.22
570.95	60488.80
571.11	60615.19
571.27	60491.15
571.43	60673.71
571.60	60844.57
571.76	60673.71
571.92	60608.17
572.09	60718.18
572.25	60692.43
572.41	60659.66
572.57	60692.43
572.74	60811.80
572.90	60662.00
573.06	60804.78
573.22	60809.46
573.38	60699.45
573.55	60886.70
573.71	60977.98
573.87	60856.27
574.03	60720.52
574.20	60940.53
574.36	60713.50
574.52	61055.21
574.68	60825.84
574.84	60980.32
575.01	61048.19
575.17	60830.52
575.33	60666.69
575.49	60800.10
575.65	60809.46
575.82	60987.34
575.98	60886.70
576.14	61155.86
576.30	60856.27
576.46	60832.86
576.62	60977.98
576.79	60893.72
576.95	60746.26
577.11	60849.25
577.27	60996.70
577.43	60907.76
577.59	61008.40
577.75	60945.21
577.92	60851.59
578.08	61010.74
578.24	61013.08
578.40	61006.06
578.56	61219.05
578.72	60975.64
578.88	61160.54
579.04	61247.14
579.21	61045.85
579.37	61104.37
579.53	61207.35
579.69	60664.35
579.85	60823.50
580.01	60954.57
580.17	60851.59
580.33	60942.87
580.49	61104.37
580.65	61066.92
580.82	61034.15
580.98	60975.64
581.14	61017.77
581.30	61207.35
581.46	60945.21
581.62	61034.15
581.78	60889.04
581.94	60931.17
582.10	60963.93
582.26	60910.10
582.42	61076.28
582.58	61125.43
582.74	61134.79
582.90	60992.02
583.06	61153.52
583.22	60781.37
583.38	60963.93
583.54	60959.25
583.70	61055.21
583.86	61099.68
584.02	61134.79
584.18	61261.18
584.34	61291.61
584.50	60935.85
584.66	61034.15
584.82	60992.02
584.98	61310.33
585.14	61197.99
585.30	61064.58
585.46	61319.70
585.62	61258.84
585.78	61352.46
585.94	61076.28
586.10	61155.86
586.26	61085.64
586.42	61172.24
586.58	61448.42
586.74	61172.24
586.90	61092.66
587.06	61303.31
587.22	61279.91
587.38	61207.35
587.54	61254.16
587.70	61579.49
587.86	61073.94
588.02	61139.47
588.18	61455.45
588.34	61209.69
