SpectraSuite Data File
++++++++++++++++++++++++++++++++++++
Date: Fri Oct 25 11:34:16 EDT 2013
User: price-jones
Dark Spectrum Present: No
Reference Spectrum Present: No
Number of Sampled Component Spectra: 1
Spectrometers: USB2+H05261
Integration Time (usec): 100000 (USB2+H05261)
Spectra Averaged: 1 (USB2+H05261)
Boxcar Smoothing: 0 (USB2+H05261)
Correct for Electrical Dark: No (USB2+H05261)
Strobe/Lamp Enabled: No (USB2+H05261)
Correct for Detector Non-linearity: No (USB2+H05261)
Correct for Stray Light: No (USB2+H05261)
Number of Pixels in Processed Spectrum: 2048
>>>>>Begin Processed Spectral Data<<<<<
365.73	322.99
365.92	322.99
366.12	322.99
366.32	241.08
366.52	184.90
366.72	177.88
366.91	163.84
367.11	238.73
367.31	149.79
367.51	163.84
367.70	196.60
367.90	234.05
368.10	222.35
368.30	210.65
368.49	121.71
368.69	264.48
368.89	191.92
369.09	203.63
369.28	217.67
369.48	215.33
369.68	234.05
369.87	255.12
370.07	301.93
370.27	212.99
370.47	320.65
370.66	442.36
370.86	545.34
371.06	533.64
371.25	559.39
371.45	521.94
371.65	582.79
371.84	603.86
372.04	510.24
372.24	514.92
372.44	543.00
372.63	538.32
372.83	564.07
373.03	592.16
373.22	561.73
373.42	573.43
373.62	566.41
373.81	571.09
374.01	669.39
374.21	690.46
374.40	568.75
374.60	727.91
374.79	561.73
374.99	657.69
375.19	645.99
375.38	622.58
375.58	683.44
375.78	695.14
375.97	676.41
376.17	709.18
376.37	653.01
376.56	662.37
376.76	662.37
376.95	559.39
377.15	685.78
377.35	631.94
377.54	660.03
377.74	697.48
377.93	660.03
378.13	664.71
378.33	678.76
378.52	704.50
378.72	741.95
378.91	662.37
379.11	624.92
379.31	713.86
379.50	741.95
379.70	685.78
379.89	786.42
380.09	683.44
380.28	709.18
380.48	692.80
380.68	716.20
380.87	739.61
381.07	734.93
381.26	835.57
381.46	751.31
381.65	765.36
381.85	645.99
382.04	802.80
382.24	830.89
382.43	807.48
382.63	795.78
382.83	723.23
383.02	805.14
383.22	772.38
383.41	748.97
383.61	793.44
383.80	784.08
384.00	812.17
384.19	882.38
384.39	739.61
384.58	779.40
384.78	746.63
384.97	828.55
385.17	791.10
385.36	828.55
385.56	854.30
385.75	840.25
385.95	744.29
386.14	863.66
386.34	830.89
386.53	905.79
386.72	795.78
386.92	851.96
387.11	809.83
387.31	898.77
387.50	861.32
387.70	894.08
387.89	898.77
388.09	868.34
388.28	894.08
388.48	936.21
388.67	964.30
388.86	964.30
389.06	976.00
389.25	894.08
389.45	919.83
389.64	901.11
389.84	973.66
390.03	994.73
390.22	968.98
390.42	999.41
390.61	1006.43
390.81	950.26
391.00	1015.79
391.19	1022.81
391.39	884.72
391.58	971.32
391.78	1015.79
391.97	1036.86
392.16	1095.37
392.36	1034.52
392.55	1053.24
392.75	1067.28
392.94	1015.79
393.13	1001.75
393.33	987.71
393.52	1034.52
393.71	1025.15
393.91	1064.94
394.10	1053.24
394.29	1041.54
394.49	1069.62
394.68	1078.99
394.88	1125.80
395.07	1114.10
395.26	1158.57
395.46	1086.01
395.65	1128.14
395.84	1132.82
396.04	1217.08
396.23	1064.94
396.42	1144.52
396.62	1118.78
396.81	1198.35
397.00	1177.29
397.19	1151.54
397.39	1198.35
397.58	1205.38
397.77	1170.27
397.97	1301.34
398.16	1252.19
398.35	1238.14
398.55	1181.97
398.74	1245.16
398.93	1320.06
399.12	1277.93
399.32	1228.78
399.51	1249.85
399.70	1329.42
399.90	1233.46
400.09	1284.95
400.28	1364.53
400.47	1420.71
400.67	1383.26
400.86	1369.21
401.05	1310.70
401.24	1362.19
401.44	1385.60
401.63	1446.45
401.82	1455.81
402.01	1404.32
402.21	1460.49
402.40	1439.43
402.59	1472.20
402.78	1483.90
402.97	1533.05
403.17	1519.01
403.36	1507.30
403.55	1589.22
403.74	1488.58
403.93	1575.18
404.13	1565.82
404.32	1540.07
404.51	1591.56
404.70	1523.69
404.89	1589.22
405.09	1650.08
405.28	1692.21
405.47	1645.40
405.66	1645.40
405.85	1722.63
406.05	1617.31
406.24	1818.60
406.43	1671.14
406.62	1675.82
406.81	1715.61
407.00	1774.13
407.20	1713.27
407.39	1797.53
407.58	1753.06
407.77	1755.40
407.96	1879.45
408.15	1877.11
408.34	1816.26
408.54	1907.54
408.73	1891.15
408.92	1898.17
409.11	1792.85
409.30	1916.90
409.49	1820.94
409.68	1916.90
409.87	1982.43
410.07	1998.82
410.26	1966.05
410.45	2036.27
410.64	1956.69
410.83	2026.90
411.02	2129.89
411.21	2017.54
411.40	2050.31
411.59	2155.63
411.78	2087.76
411.98	2146.27
412.17	2146.27
412.36	2235.21
412.55	2230.53
412.74	2286.70
412.93	2286.70
413.12	2275.00
413.31	2392.03
413.50	2277.34
413.69	2401.39
413.88	2382.67
414.07	2324.15
414.26	2394.37
414.45	2396.71
414.64	2583.95
414.83	2569.91
415.02	2422.45
415.22	2670.55
415.41	2466.92
415.60	2445.86
415.79	2623.74
415.98	2628.42
416.17	2778.22
416.36	2644.81
416.55	2612.04
416.74	2808.64
416.93	2745.45
417.12	2785.24
417.31	2722.04
417.50	2691.62
417.69	2820.35
417.88	2930.35
418.07	2740.77
418.26	2920.99
418.45	2888.22
418.64	3061.42
418.83	2932.69
419.02	2878.86
419.21	2888.22
419.39	3016.95
419.58	3052.06
419.77	2960.78
419.96	3054.40
420.15	3077.80
420.34	2981.84
420.53	3016.95
420.72	3171.43
420.91	3110.57
421.10	3232.28
421.29	3122.27
421.48	3164.40
421.67	3194.83
421.86	3162.06
422.05	3353.99
422.24	3206.53
422.43	3201.85
422.61	3169.09
422.80	3281.43
422.99	3239.30
423.18	3229.94
423.37	3309.52
423.56	3105.89
423.75	3293.13
423.94	3229.94
424.13	3129.30
424.32	3201.85
424.50	3225.26
424.69	3344.63
424.88	3463.99
425.07	3307.18
425.26	3314.20
425.45	3370.37
425.64	3236.96
425.83	3208.87
426.01	3351.65
426.20	3274.41
426.39	3473.36
426.58	3265.05
426.77	3300.16
426.96	3349.31
427.15	3482.72
427.33	3412.50
427.52	3487.40
427.71	3515.48
427.90	3559.95
428.09	3625.49
428.28	3604.42
428.46	3625.49
428.65	3524.85
428.84	3653.58
429.03	3679.32
429.22	3494.42
429.40	3599.74
429.59	3604.42
429.78	3581.02
429.97	3363.35
430.16	3578.68
430.34	3709.75
430.53	3913.38
430.72	3674.64
430.91	3714.43
431.10	3779.97
431.28	3833.80
431.47	3763.58
431.66	3801.03
431.85	3892.31
432.03	4016.36
432.22	4032.74
432.41	3857.20
432.60	3929.76
432.79	4035.08
432.97	4032.74
433.16	3983.59
433.35	4014.02
433.54	4166.15
433.72	4227.01
433.91	4070.19
434.10	4023.38
434.28	4025.72
434.47	4086.58
434.66	3967.21
434.85	4086.58
435.03	4100.62
435.22	4231.69
435.41	4231.69
435.59	4112.32
435.78	4306.59
435.97	4229.35
436.16	4299.56
436.34	4241.05
436.53	4369.78
436.72	4376.80
436.90	4259.78
437.09	4416.59
437.28	4322.97
437.46	4379.14
437.65	4266.80
437.84	4585.11
438.02	4447.02
438.21	4550.00
438.40	4315.95
438.58	4554.68
438.77	4500.85
438.96	4622.56
439.14	4748.95
439.33	4571.07
439.52	4739.58
439.70	4858.95
439.89	4896.40
440.08	4753.63
440.26	4891.72
440.45	4980.66
440.63	4966.62
440.82	4997.04
441.01	4844.91
441.19	4990.02
441.38	5102.37
441.57	5022.79
441.75	5172.58
441.94	5184.29
442.12	5310.68
442.31	5198.33
442.50	5270.89
442.68	5324.72
442.87	5305.99
443.05	5238.12
443.24	5341.10
443.43	5303.65
443.61	5301.31
443.80	5537.71
443.98	5287.27
444.17	5153.86
444.35	5434.72
444.54	5568.13
444.73	5254.50
444.91	5348.12
445.10	5617.29
445.28	5483.88
445.47	5350.46
445.65	5575.16
445.84	5516.64
446.02	5495.58
446.21	5455.79
446.39	5621.97
446.58	5514.30
446.77	5397.28
446.95	5425.36
447.14	5565.79
447.32	5600.90
447.51	5530.69
447.69	5596.22
447.88	5654.73
448.06	5657.07
448.25	5530.69
448.43	5544.73
448.62	5696.86
448.80	5511.96
448.99	5720.27
449.17	5706.23
449.36	5710.91
449.54	5797.51
449.73	5659.42
449.91	5907.51
450.10	5823.25
450.28	6043.26
450.46	5994.11
450.65	5853.68
450.83	5987.09
451.02	5954.32
451.20	5959.00
451.39	5998.79
451.57	6179.01
451.76	5837.30
451.94	5755.38
452.13	6019.86
452.31	6022.20
452.49	5970.71
452.68	6186.04
452.86	6141.57
453.05	6160.29
453.23	6267.95
453.42	6169.65
453.60	6019.86
453.78	6190.72
453.97	6200.08
454.15	6134.54
454.34	6167.31
454.52	6193.06
454.70	6279.66
454.89	6422.43
455.07	6380.30
455.26	6384.98
455.44	6600.31
455.62	6324.13
455.81	6441.15
455.99	6633.08
456.17	6642.44
456.36	6516.05
456.54	6640.10
456.73	6647.12
456.91	6808.62
457.09	6771.17
457.28	6857.77
457.46	6738.40
457.64	6878.83
457.83	6780.53
458.01	6567.54
458.19	7091.82
458.38	6904.58
458.56	6832.02
458.74	6904.58
458.93	6827.34
459.11	6796.92
459.29	7103.53
459.48	6874.15
459.66	7150.34
459.84	7185.44
460.03	7194.81
460.21	7052.03
460.39	7274.38
460.57	7194.81
460.76	7054.37
460.94	7157.36
461.12	7372.69
461.31	7250.98
461.49	7194.81
461.67	7379.71
461.85	7332.90
462.04	7398.43
462.22	7908.67
462.40	7627.81
462.59	7499.08
462.77	7468.65
462.95	7641.85
463.13	7480.35
463.32	7421.84
463.50	7524.82
463.68	7393.75
463.86	7747.17
464.05	7595.04
464.23	7672.28
464.41	7651.21
464.59	7468.65
464.78	7892.29
464.96	7770.58
465.14	7623.12
465.32	7772.92
465.50	7948.46
465.69	7824.41
465.87	7899.31
466.05	7889.95
466.23	7915.69
466.41	7824.41
466.60	8081.87
466.78	7815.05
466.96	7901.65
467.14	7896.97
467.32	7976.55
467.51	8142.72
467.69	7726.11
467.87	8056.12
468.05	8140.38
468.23	8145.06
468.41	7953.14
468.60	8170.81
468.78	8229.32
468.96	8074.85
469.14	8367.42
469.32	8269.11
469.50	8044.42
469.69	8351.03
469.87	8402.52
470.05	8381.46
470.23	8479.76
470.41	8383.80
470.59	8575.72
470.77	8339.33
470.95	8538.27
471.14	8805.10
471.32	8503.17
471.50	8833.18
471.68	8840.20
471.86	8641.26
472.04	8861.27
472.22	8990.00
472.40	8896.38
472.58	8870.63
472.77	8924.46
472.95	8975.95
473.13	9242.78
473.31	8898.72
473.49	9022.77
473.67	8910.42
473.85	9205.33
474.03	9331.72
474.21	9488.53
474.39	9385.55
474.57	9558.75
474.75	9533.00
474.93	9715.56
475.12	9694.50
475.30	9507.26
475.48	9481.51
475.66	9696.84
475.84	9907.49
476.02	9884.08
476.20	9703.86
476.38	10059.62
476.56	10235.16
476.74	10228.14
476.92	10216.44
477.10	10066.64
477.28	10321.76
477.46	10389.64
477.64	10410.70
477.82	10654.12
478.00	10780.51
478.18	10792.21
478.36	10871.79
478.54	10888.17
478.72	10998.18
478.90	11206.48
479.08	11108.18
479.26	11307.13
479.44	11164.36
479.62	11346.92
479.80	11325.85
479.98	11456.92
480.16	11817.36
480.34	11485.01
480.52	11805.66
480.70	11765.87
480.88	11604.38
481.06	11918.01
481.24	11971.84
481.41	11957.80
481.59	12182.49
481.77	12308.88
481.95	12259.73
482.13	12545.27
482.31	12351.01
482.49	12830.82
482.67	12725.49
482.85	12973.59
483.03	13071.89
483.21	13247.43
483.39	13275.52
483.57	13549.36
483.74	13439.36
483.92	13621.92
484.10	13415.95
484.28	13879.38
484.46	13991.72
484.64	14239.82
484.82	14029.17
485.00	14218.75
485.18	14616.65
485.35	14553.45
485.53	14202.37
485.71	14391.95
485.89	14939.64
486.07	14696.22
486.25	14815.59
486.43	14846.02
486.61	15243.91
486.78	15119.86
486.96	15161.99
487.14	15272.00
487.32	15681.59
487.50	15843.09
487.68	15822.02
487.85	16269.06
488.03	16297.15
488.21	16196.51
488.39	16615.46
488.57	16704.40
488.75	16388.43
488.92	16807.39
489.10	16889.31
489.28	17200.60
489.46	17235.70
489.64	16975.91
489.81	17455.72
489.99	17483.80
490.17	17682.75
490.35	17907.44
490.53	17748.28
490.70	17982.34
490.88	18162.56
491.06	18136.81
491.24	18246.82
491.41	18443.42
491.59	18317.03
491.77	18457.46
491.95	18586.19
492.13	18899.83
492.30	19122.18
492.48	19023.87
492.66	19187.71
492.84	19176.01
493.01	19056.64
493.19	19599.65
493.37	19529.43
493.54	19522.41
493.72	20030.30
493.90	19468.58
494.08	19765.82
494.25	20395.43
494.43	20189.46
494.61	20549.90
494.79	20580.33
494.96	20556.93
495.14	20847.15
495.32	21205.25
495.49	20482.03
495.67	20884.60
495.85	21195.89
496.02	21369.09
496.20	21413.56
496.38	21436.97
496.55	21387.82
496.73	22291.26
496.91	21876.99
497.09	22078.27
497.26	21738.90
497.44	22099.34
497.62	22085.30
497.79	22401.27
497.97	22405.95
498.14	22829.59
498.32	22757.03
498.50	22923.21
498.67	23110.45
498.85	23222.80
499.03	23101.09
499.20	23438.12
499.38	23393.65
499.56	23349.18
499.73	23531.75
499.91	23800.91
500.08	23850.06
500.26	23342.16
500.44	23943.68
500.61	23910.91
500.79	23976.45
500.97	24133.26
501.14	24793.29
501.32	24423.49
501.49	24240.93
501.67	24545.20
501.84	24727.76
502.02	24638.82
502.20	24634.14
502.37	24865.85
502.55	24762.87
502.72	25092.88
502.90	24964.15
503.07	24912.66
503.25	24896.28
503.43	24774.57
503.60	25514.18
503.78	25530.56
503.95	25350.34
504.13	25706.10
504.30	25764.62
504.48	25394.81
504.65	25907.39
504.83	25898.03
505.01	26324.01
505.18	26206.98
505.36	26408.26
505.53	26059.52
505.71	26412.95
505.88	26553.38
506.06	26487.84
506.23	26696.15
506.41	26583.80
506.58	26707.85
506.76	26906.80
506.93	27101.06
507.11	26621.25
507.28	26958.29
507.46	27370.22
507.63	27388.95
507.81	27623.00
507.98	27260.22
508.16	27536.40
508.33	27557.47
508.50	27725.99
508.68	27524.70
508.85	27819.61
509.03	28114.52
509.20	27962.38
509.38	28074.73
509.55	27995.15
509.73	27936.63
509.90	28048.98
510.08	28093.45
510.25	28140.26
510.42	28381.34
510.60	28444.53
510.77	28699.65
510.95	29081.16
511.12	28952.43
511.30	28863.49
511.47	28900.94
511.64	29216.91
511.82	29216.91
511.99	29214.57
512.17	29167.76
512.34	29434.58
512.51	29706.08
512.69	29481.39
512.86	29677.99
513.04	29677.99
513.21	29996.31
513.38	30000.99
513.56	30092.27
513.73	29998.65
513.90	30078.22
514.08	30031.41
514.25	30513.56
514.43	30455.05
514.60	30384.83
514.77	30270.15
514.95	30691.44
515.12	30644.63
515.29	30834.22
515.47	30408.24
515.64	30768.68
515.81	30883.37
515.99	30895.07
516.16	31215.72
516.33	31552.76
516.51	31168.91
516.68	31232.11
516.85	31512.97
517.03	31304.67
517.20	31903.84
517.37	31566.81
517.54	31548.08
517.72	31536.38
517.89	31857.03
518.06	31740.00
518.24	31496.59
518.41	31826.60
518.58	32189.39
518.75	31740.00
518.93	32102.79
519.10	32259.60
519.27	32198.75
519.45	32411.74
519.62	32723.03
519.79	32708.99
519.96	32397.70
520.14	32671.54
520.31	32713.67
520.48	32687.92
520.65	32575.58
520.83	32943.04
521.00	33137.30
521.17	32943.04
521.34	33081.13
521.52	33600.73
521.69	33507.11
521.86	33340.93
522.03	33830.10
522.20	33699.03
522.38	33771.59
522.55	33776.27
522.72	33858.19
522.89	33858.19
523.07	34183.52
523.24	33750.52
523.41	34101.61
523.58	33944.79
523.75	34534.60
523.92	34092.24
524.10	34309.91
524.27	34686.74
524.44	35049.52
524.61	34740.57
524.78	34698.44
524.96	34925.47
525.13	34726.53
525.30	34492.47
525.47	34756.96
525.64	34845.90
525.81	35131.44
525.98	35309.32
526.16	35035.48
526.33	35070.59
526.50	35529.33
526.67	34979.31
526.84	35115.06
527.01	35515.29
527.18	35218.04
527.36	35796.15
527.53	35346.77
527.70	35983.40
527.87	35791.47
528.04	35789.13
528.21	35632.32
528.38	35711.89
528.55	36088.72
528.72	35857.01
528.89	35866.37
529.07	35859.35
529.24	35793.81
529.41	35978.72
529.58	36287.67
529.75	36062.97
529.92	36205.75
530.09	36360.22
530.26	36458.52
530.43	36142.55
530.60	36041.91
530.77	36510.02
530.94	36030.21
531.11	36299.37
531.28	36390.65
531.46	36683.22
531.63	36687.90
531.80	36685.56
531.97	36872.80
532.14	36919.61
532.31	36795.56
532.48	37083.45
532.65	37434.53
532.82	37139.62
532.99	37368.99
533.16	37415.80
533.33	37301.12
533.50	37689.65
533.67	37537.51
533.84	37247.29
534.01	37436.87
534.18	37687.31
534.35	37584.32
534.52	38080.52
534.69	37944.76
534.86	38167.12
535.03	37991.58
535.20	37614.75
535.37	38014.98
535.54	37942.42
535.71	37792.63
535.88	38192.86
536.05	38424.57
536.22	38169.46
536.38	38494.79
536.55	38195.20
536.72	38012.64
536.89	37947.11
537.06	37996.26
537.23	38417.55
537.40	38019.66
537.57	38096.90
537.74	38455.00
537.91	38965.24
538.08	38778.00
538.25	38405.85
538.42	38766.29
538.59	39016.73
538.75	38820.13
538.92	39260.15
539.09	38852.89
539.26	38925.45
539.43	38953.54
539.60	38983.96
539.77	39206.31
539.94	39416.96
540.11	38972.26
540.28	39250.78
540.44	39541.01
540.61	39337.38
540.78	39391.22
540.95	39519.95
541.12	39133.76
541.29	39342.06
541.46	39154.82
541.62	39089.29
541.79	39754.00
541.96	39489.52
542.13	39379.51
542.30	39562.08
542.47	39917.84
542.63	40114.44
542.80	40287.64
542.97	40680.85
543.14	40561.48
543.31	40582.55
543.48	40467.86
543.64	40573.19
543.81	40524.04
543.98	40582.55
544.15	40273.60
544.32	40444.46
544.48	40957.03
544.65	40921.93
544.82	40690.21
544.99	40659.79
545.16	40952.35
545.32	40858.73
545.49	41256.62
545.66	41148.96
545.83	41151.30
546.00	41038.95
546.16	40917.25
546.33	41074.06
546.50	40748.73
546.67	41017.89
546.83	40622.34
547.00	41256.62
547.17	40999.16
547.34	41539.83
547.50	41698.98
547.67	41710.69
547.84	41221.52
548.00	41818.35
548.17	41860.48
548.34	41846.44
548.51	41762.18
548.67	41682.60
548.84	41741.11
549.01	41867.50
549.18	41907.29
549.34	41752.82
549.51	41830.05
549.68	41989.21
549.84	41680.26
550.01	41916.65
550.18	42230.29
550.34	42426.89
550.51	42263.05
550.68	42674.99
550.84	41921.34
551.01	42153.05
551.18	42129.64
551.34	42249.01
551.51	42319.23
551.68	41874.52
551.84	42366.04
552.01	42464.34
552.18	42581.37
552.34	42272.42
552.51	42576.69
552.68	42452.64
552.84	42504.13
553.01	42103.90
553.18	42553.28
553.34	42831.80
553.51	42649.24
553.67	42885.64
553.84	42988.62
554.01	43005.00
554.17	42806.06
554.34	43030.75
554.51	42974.58
554.67	43283.53
554.84	43110.33
555.00	43061.18
555.17	42803.72
555.33	43203.95
555.50	43243.74
555.67	43217.99
555.83	42946.49
556.00	43325.66
556.16	43854.62
556.33	43501.20
556.50	42962.87
556.66	43316.29
556.83	42822.44
556.99	43456.73
557.16	44013.77
557.32	43529.28
557.49	43866.32
557.65	43189.91
557.82	43524.60
557.98	43761.00
558.15	43538.65
558.32	43445.02
558.48	43536.30
558.65	43564.39
558.81	43779.72
558.98	43627.59
559.14	43559.71
559.31	43552.69
559.47	43742.27
559.64	43770.36
559.80	43416.94
559.97	43573.75
560.13	43746.95
560.30	44098.03
560.46	44240.81
560.63	44002.07
560.79	44514.65
560.96	44334.43
561.12	44425.71
561.29	44135.48
561.45	44304.00
561.61	44179.95
561.78	44556.78
561.94	44067.61
562.11	44252.51
562.27	44086.33
562.44	43882.70
562.60	44268.89
562.77	44694.87
562.93	44449.11
563.10	44399.96
563.26	44186.97
563.42	44381.24
563.59	44273.57
563.75	44680.83
563.92	44140.16
564.08	44301.66
564.24	44474.86
564.41	44411.67
564.57	44224.42
564.74	44729.98
564.90	44734.66
565.07	44802.53
565.23	44470.18
565.39	44233.78
565.56	44746.36
565.72	44449.11
565.88	44580.18
566.05	45132.55
566.21	44734.66
566.38	44673.81
566.54	44715.93
566.70	44636.36
566.87	44968.71
567.03	44591.89
567.19	44905.52
567.36	44928.92
567.52	45404.05
567.68	45172.34
567.85	44687.85
568.01	45275.32
568.17	45207.45
568.34	44957.01
568.50	44849.35
568.66	44809.56
568.83	44978.07
568.99	44664.44
569.15	45329.16
569.32	44758.06
569.48	44905.52
569.64	45331.50
569.81	45125.53
569.97	44783.81
570.13	45205.11
570.30	44786.15
570.46	45205.11
570.62	45177.02
570.78	45001.48
570.95	45120.85
571.11	45162.98
571.27	45336.18
571.43	45256.60
571.60	44631.68
571.76	44982.76
571.92	45212.13
572.09	44968.71
572.25	44964.03
572.41	44896.16
572.57	45446.18
572.74	45752.79
572.90	45120.85
573.06	45429.80
573.22	45125.53
573.38	45471.93
573.55	45364.26
573.71	45750.45
573.87	45258.94
574.03	45067.02
574.20	45556.19
574.36	45230.85
574.52	45268.30
574.68	45600.66
574.84	45603.00
575.01	45591.30
575.17	45598.32
575.33	45766.84
575.49	45340.86
575.65	45490.65
575.82	45406.39
575.98	45263.62
576.14	45413.41
576.30	45935.35
576.46	45530.44
576.62	45483.63
576.79	45542.14
576.95	45109.14
577.11	45165.32
577.27	45448.52
577.43	45380.65
577.59	45567.89
577.75	45268.30
577.92	45455.54
578.08	45406.39
578.24	45530.44
578.40	45928.33
578.56	45975.14
578.72	45844.07
578.88	45923.65
579.04	45481.29
579.21	45610.02
579.37	45689.60
579.53	45879.18
579.69	45357.24
579.85	45387.67
580.01	45603.00
580.17	45865.14
580.33	45846.41
580.49	46014.93
580.65	45703.64
580.82	45364.26
580.98	45504.70
581.14	45432.14
581.30	45682.58
581.46	45212.13
581.62	45631.08
581.78	45483.63
581.94	46005.57
582.10	45886.20
582.26	45942.38
582.42	45801.94
582.58	45900.25
582.74	45792.58
582.90	45970.46
583.06	45556.19
583.22	45661.51
583.38	46190.47
583.54	45343.20
583.70	45883.86
583.86	46073.45
584.02	45741.09
584.18	46199.83
584.34	46141.32
584.50	46026.63
584.66	46110.89
584.82	46007.91
584.98	46120.26
585.14	46204.52
585.30	45514.06
585.46	45984.51
585.62	45839.39
585.78	45617.04
585.94	45701.30
586.10	45883.86
586.26	45713.00
586.42	45834.71
586.58	45492.99
586.74	45893.22
586.90	45663.85
587.06	45909.61
587.22	45560.87
587.38	45949.40
587.54	46174.09
587.70	46384.74
587.86	46129.62
588.02	45748.11
588.18	45804.28
588.34	45633.42
588.49	46146.00
588.65	45755.13
588.81	46174.09
588.97	45769.18
589.13	46014.93
589.29	45638.11
589.45	46150.68
589.61	46043.02
589.77	46279.41
589.93	45888.54
590.08	46410.48
