SpectraSuite Data File
++++++++++++++++++++++++++++++++++++
Date: Fri Oct 25 11:23:50 EDT 2013
User: price-jones
Dark Spectrum Present: No
Reference Spectrum Present: No
Number of Sampled Component Spectra: 1
Spectrometers: USB2+H05261
Integration Time (usec): 100000 (USB2+H05261)
Spectra Averaged: 1 (USB2+H05261)
Boxcar Smoothing: 0 (USB2+H05261)
Correct for Electrical Dark: No (USB2+H05261)
Strobe/Lamp Enabled: No (USB2+H05261)
Correct for Detector Non-linearity: No (USB2+H05261)
Correct for Stray Light: No (USB2+H05261)
Number of Pixels in Processed Spectrum: 2048
>>>>>Begin Processed Spectral Data<<<<<
365.73	236.39
365.92	236.39
366.12	236.39
366.32	119.37
366.52	147.45
366.72	140.43
366.91	56.17
367.11	184.90
367.31	91.28
367.51	145.11
367.70	175.54
367.90	161.50
368.10	131.07
368.30	126.39
368.49	182.56
368.69	138.09
368.89	114.69
369.09	175.54
369.28	100.64
369.48	98.30
369.68	177.88
369.87	210.65
370.07	147.45
370.27	346.40
370.47	348.74
370.66	543.00
370.86	566.41
371.06	613.22
371.25	655.35
371.45	655.35
371.65	683.44
371.84	631.94
372.04	713.86
372.24	676.41
372.44	645.99
372.63	791.10
372.83	734.93
373.03	732.59
373.22	748.97
373.42	777.06
373.62	760.67
373.81	739.61
374.01	814.51
374.21	760.67
374.40	713.86
374.60	805.14
374.79	837.91
374.99	898.77
375.19	847.27
375.38	861.32
375.58	898.77
375.78	763.01
375.97	816.85
376.17	905.79
376.37	809.83
376.56	858.98
376.76	905.79
376.95	861.32
377.15	933.87
377.35	840.25
377.54	919.83
377.74	915.15
377.93	917.49
378.13	884.72
378.33	924.51
378.52	929.19
378.72	987.71
378.91	945.58
379.11	943.24
379.31	889.40
379.50	896.43
379.70	954.94
379.89	940.90
380.09	966.64
380.28	945.58
380.48	983.02
380.68	933.87
380.87	1041.54
381.07	987.71
381.26	1029.84
381.46	987.71
381.65	1018.13
381.85	1083.67
382.04	1022.81
382.24	1067.28
382.43	976.00
382.63	1055.58
382.83	1043.88
383.02	1111.75
383.22	1174.95
383.41	1060.26
383.61	1034.52
383.80	1102.39
384.00	1071.97
384.19	1074.31
384.39	1095.37
384.58	1107.07
384.78	1097.71
384.97	1170.27
385.17	1116.44
385.36	1121.12
385.56	1146.86
385.75	1114.10
385.95	1114.10
386.14	1165.59
386.34	1144.52
386.53	1179.63
386.72	1277.93
386.92	1167.93
387.11	1263.89
387.31	1296.66
387.50	1240.48
387.70	1275.59
387.89	1165.59
388.09	1362.19
388.28	1296.66
388.48	1207.72
388.67	1252.19
388.86	1380.92
389.06	1299.00
389.25	1338.79
389.45	1329.42
389.64	1322.40
389.84	1371.55
390.03	1369.21
390.22	1418.36
390.42	1413.68
390.61	1380.92
390.81	1313.04
391.00	1401.98
391.19	1371.55
391.39	1451.13
391.58	1437.09
391.78	1600.93
391.97	1399.64
392.16	1423.05
392.36	1556.46
392.55	1490.92
392.75	1535.39
392.94	1547.09
393.13	1418.36
393.33	1530.71
393.52	1689.87
393.71	1591.56
393.91	1542.41
394.10	1519.01
394.29	1586.88
394.49	1544.75
394.68	1629.01
394.88	1645.40
395.07	1799.87
395.26	1708.59
395.46	1619.65
395.65	1687.53
395.84	1797.53
396.04	1680.50
396.23	1813.92
396.42	1736.68
396.62	1774.13
396.81	1895.83
397.00	1853.70
397.19	1820.94
397.39	1778.81
397.58	1710.93
397.77	1762.42
397.97	1952.01
398.16	1755.40
398.35	1867.75
398.55	1844.34
398.74	1872.43
398.93	1984.77
399.12	1816.26
399.32	1912.22
399.51	1900.52
399.70	2031.58
399.90	1933.28
400.09	2050.31
400.28	2071.37
400.47	2176.70
400.67	1987.11
400.86	2073.71
401.05	2115.84
401.24	2022.22
401.44	2101.80
401.63	2143.93
401.82	2239.89
402.01	2200.10
402.21	2113.50
402.40	2120.53
402.59	2078.40
402.78	2188.40
402.97	2293.72
403.17	2242.23
403.36	2244.57
403.55	2279.68
403.74	2382.67
403.93	2193.08
404.13	2469.27
404.32	2345.22
404.51	2429.48
404.70	2380.32
404.89	2382.67
405.09	2597.99
405.28	2553.52
405.47	2408.41
405.66	2553.52
405.85	2448.20
406.05	2539.48
406.24	2637.78
406.43	2600.34
406.62	2710.34
406.81	2668.21
407.00	2651.83
407.20	2553.52
407.39	2803.96
407.58	2661.19
407.77	2799.28
407.96	2743.11
408.15	2715.02
408.34	2696.30
408.54	2750.13
408.73	2810.98
408.92	2827.37
409.11	2860.13
409.30	2843.75
409.49	2867.16
409.68	2916.31
409.87	3000.57
410.07	3066.10
410.26	3023.97
410.45	2981.84
410.64	3030.99
410.83	3180.79
411.02	3183.13
411.21	3293.13
411.40	3138.66
411.59	3148.02
411.78	3169.09
411.98	3276.75
412.17	3304.84
412.36	3351.65
412.55	3368.03
412.74	3492.08
412.93	3351.65
413.12	3377.39
413.31	3524.85
413.50	3478.04
413.69	3412.50
413.88	3576.34
414.07	3524.85
414.26	3564.64
414.45	3583.36
414.64	3681.66
414.83	3803.37
415.02	3815.07
415.22	3822.09
415.41	3969.55
415.60	3899.33
415.79	3943.80
415.98	4119.34
416.17	3857.20
416.36	3971.89
416.55	4023.38
416.74	4117.00
416.93	4091.26
417.12	4205.94
417.31	4262.12
417.50	4173.18
417.69	4376.80
417.88	4273.82
418.07	4215.30
418.26	4416.59
418.45	4322.97
418.64	4374.46
418.83	4435.32
419.02	4498.51
419.21	4535.96
419.39	4592.13
419.58	4517.23
419.77	4428.29
419.96	4535.96
420.15	4475.10
420.34	4723.20
420.53	4559.36
420.72	4690.43
420.91	4603.83
421.10	4793.42
421.29	4884.70
421.48	4744.27
421.67	4669.37
421.86	4739.58
422.05	4772.35
422.24	4931.51
422.43	5046.20
422.61	4833.21
422.80	4985.34
422.99	4964.28
423.18	5015.77
423.37	4938.53
423.56	4896.40
423.75	5078.96
423.94	4734.90
424.13	4554.68
424.32	4720.86
424.50	4978.32
424.69	5247.48
424.88	5062.58
425.07	4863.63
425.26	4961.94
425.45	4947.89
425.64	4936.19
425.83	4919.81
426.01	5078.96
426.20	5013.43
426.39	5074.28
426.58	4940.87
426.77	5188.97
426.96	5165.56
427.15	5069.60
427.33	5172.58
427.52	5170.24
427.71	5287.27
427.90	5373.87
428.09	5254.50
428.28	5439.40
428.46	5451.11
428.65	5399.62
428.84	5380.89
429.03	5476.85
429.22	5401.96
429.40	5448.77
429.59	5502.60
429.78	5137.48
429.97	5331.74
430.16	5469.83
430.34	5699.20
430.53	5776.44
430.72	5678.14
430.91	5729.63
431.10	5799.85
431.28	6045.60
431.47	5734.31
431.66	6003.47
431.85	5736.65
432.03	5893.47
432.22	5912.19
432.41	5844.32
432.60	5919.21
432.79	6001.13
432.97	6136.88
433.16	6066.67
433.35	5888.79
433.54	6155.61
433.72	6134.54
433.91	5935.60
434.10	6188.38
434.28	6153.27
434.47	6333.49
434.66	6244.55
434.85	6394.34
435.03	6382.64
435.22	6471.58
435.41	6473.92
435.59	6452.86
435.78	6483.28
435.97	6537.12
436.16	6352.21
436.34	6459.88
436.53	6492.65
436.72	6649.46
436.90	6443.49
437.09	6703.29
437.28	6572.22
437.46	6518.39
437.65	6771.17
437.84	6892.88
438.02	6698.61
438.21	6691.59
438.40	6672.87
438.58	7119.91
438.77	7054.37
438.96	6979.48
439.14	7084.80
439.33	7276.73
439.52	7262.68
439.70	7136.29
439.89	7253.32
440.08	7330.56
440.26	7335.24
440.45	7393.75
440.63	7398.43
440.82	7536.52
441.01	7555.25
441.19	7824.41
441.38	7838.45
441.57	7733.13
441.75	7845.48
441.94	8018.68
442.12	7927.39
442.31	7941.44
442.50	8023.36
442.68	7920.37
442.87	8168.47
443.05	8098.25
443.24	8252.73
443.43	7999.95
443.61	8248.05
443.80	8308.90
443.98	8147.40
444.17	7964.84
444.35	8329.97
444.54	8535.93
444.73	8336.99
444.91	8226.98
445.10	8444.65
445.28	8376.78
445.47	8283.16
445.65	8362.73
445.84	8486.78
446.02	8393.16
446.21	8472.74
446.39	8308.90
446.58	8470.40
446.77	8292.52
446.95	8442.31
447.14	8444.65
447.32	8465.72
447.51	8603.81
447.69	8482.10
447.88	8402.52
448.06	8692.75
448.25	8465.72
448.43	8463.38
448.62	8510.19
448.80	8573.38
448.99	8730.20
449.17	8702.11
449.36	8596.79
449.54	8751.26
449.73	8894.04
449.91	8924.46
450.10	8877.65
450.28	8929.14
450.46	9128.09
450.65	9092.98
450.83	9160.86
451.02	9004.04
451.20	9231.07
451.39	9261.50
451.57	9259.16
451.76	9156.18
451.94	9193.62
452.13	9369.16
452.31	9177.24
452.49	9364.48
452.68	9345.76
452.86	9394.91
453.05	9350.44
453.23	9355.12
453.42	9497.89
453.60	9479.17
453.78	9523.64
453.97	9249.80
454.15	9605.56
454.34	9392.57
454.52	9687.48
454.70	9689.82
454.89	9802.16
455.07	9753.01
455.26	9778.76
455.44	10019.83
455.62	9905.15
455.81	10101.75
455.99	10064.30
456.17	10036.22
456.36	10068.98
456.54	10104.09
456.73	10387.30
456.91	10361.55
457.09	10349.85
457.28	10497.30
457.46	10340.49
457.64	10560.50
457.83	10506.66
458.01	10427.09
458.19	10714.97
458.38	10518.37
458.56	10796.89
458.74	10881.15
458.93	10750.08
459.11	10848.38
459.29	10906.90
459.48	10916.26
459.66	10817.96
459.84	10906.90
460.03	11229.89
460.21	11044.99
460.39	11016.90
460.57	10920.94
460.76	11215.85
460.94	11225.21
461.12	11178.40
461.31	11183.08
461.49	11302.45
461.67	11108.18
461.85	11477.99
462.04	11389.05
462.22	11426.50
462.40	11606.72
462.59	11681.61
462.77	11580.97
462.95	11714.38
463.13	11658.21
463.32	11611.40
463.50	11852.47
463.68	11744.81
463.86	11761.19
464.05	11735.45
464.23	11950.78
464.41	11913.33
464.59	11723.74
464.78	12145.04
464.96	11784.60
465.14	11819.71
465.32	12161.42
465.50	12231.64
465.69	12173.13
465.87	12346.33
466.05	11997.59
466.23	12135.68
466.41	12224.62
466.60	12468.03
466.78	12313.56
466.96	12196.53
467.14	12400.16
467.32	12554.63
467.51	12629.53
467.69	12231.64
467.87	12554.63
468.05	12500.80
468.23	12620.17
468.41	12648.26
468.60	12540.59
468.78	13118.70
468.96	12727.83
469.14	12950.18
469.32	13109.34
469.50	12762.94
469.69	12952.52
469.87	13163.17
470.05	13104.66
470.23	13121.04
470.41	13149.13
470.59	13282.54
470.77	13266.16
470.95	13467.44
471.14	13469.78
471.32	13137.43
471.50	13654.69
471.68	13706.18
471.86	13769.37
472.04	13717.88
472.22	13987.04
472.40	13647.66
472.58	13818.52
472.77	14073.64
472.95	14012.79
473.13	14726.65
473.31	13942.57
473.49	14391.95
473.67	14377.91
473.85	14391.95
474.03	14602.60
474.21	14738.35
474.39	14602.60
474.57	14644.73
474.75	15002.83
474.93	15164.33
475.12	14871.76
475.30	15110.50
475.48	14806.23
475.66	15454.56
475.84	15358.60
476.02	15499.03
476.20	15545.84
476.38	15658.18
476.56	16137.99
476.74	15861.81
476.92	15772.87
477.10	15744.78
477.28	16404.81
477.46	16219.91
477.64	16561.63
477.82	16493.76
478.00	17104.64
478.18	16931.44
478.36	16919.73
478.54	17020.38
478.72	17104.64
478.90	17640.62
479.08	17851.27
479.26	17678.07
479.44	17661.68
479.62	18022.12
479.80	18003.40
479.98	18146.17
480.16	18684.50
480.34	18614.28
480.52	18740.67
480.70	18710.24
480.88	18434.06
481.06	18787.48
481.24	18906.85
481.41	19190.05
481.59	19208.78
481.77	19697.95
481.95	19819.66
482.13	19814.98
482.31	19889.87
482.49	20201.16
482.67	20271.38
482.85	20643.52
483.03	20851.83
483.21	20868.22
483.39	20975.88
483.57	20964.18
483.74	21137.38
483.92	21404.20
484.10	20961.84
484.28	21713.15
484.46	22052.53
484.64	22391.91
484.82	21958.91
485.00	22539.36
485.18	22785.12
485.35	22930.23
485.53	22902.14
485.71	23199.39
485.89	23716.65
486.07	23531.75
486.25	23587.92
486.43	23793.89
486.61	23601.96
486.78	24224.54
486.96	24191.78
487.14	24865.85
487.32	24741.80
487.50	24966.49
487.68	25097.56
487.85	25530.56
488.03	25816.11
488.21	26202.30
488.39	25649.93
488.57	26478.48
488.75	26714.87
488.92	26424.65
489.10	27016.80
489.28	26941.91
489.46	27220.43
489.64	27185.32
489.81	27566.83
489.99	27618.32
490.17	28196.43
490.35	28245.58
490.53	28135.58
490.70	28481.98
490.88	28191.75
491.06	29193.50
491.24	28975.83
491.41	29188.82
491.59	29443.94
491.77	29434.58
491.95	29628.84
492.13	29502.45
492.30	29986.94
492.48	30146.10
492.66	30515.90
492.84	30143.76
493.01	30810.81
493.19	30586.12
493.37	31124.44
493.54	31257.85
493.72	31552.76
493.90	31688.51
494.08	32130.87
494.25	32072.36
494.43	31913.20
494.61	32755.80
494.79	33076.45
494.96	32615.37
495.14	32830.69
495.32	33015.60
495.49	33427.53
495.67	33170.07
495.85	34057.14
496.02	33799.68
496.20	34047.77
496.38	34319.28
496.55	33895.64
496.73	34813.13
496.91	34300.55
497.09	34941.86
497.26	34998.03
497.44	35508.27
497.62	35255.49
497.79	35903.82
497.97	35732.96
498.14	35849.99
498.32	36435.12
498.50	36456.18
498.67	36893.86
498.85	36776.84
499.03	36545.12
499.20	36870.46
499.38	36851.73
499.56	37490.70
499.73	37654.54
499.91	37544.53
500.08	37450.91
500.26	37511.77
500.44	37734.12
500.61	38050.09
500.79	38199.88
500.97	38244.35
501.14	38593.09
501.32	38848.21
501.49	38536.92
501.67	38995.67
501.84	38927.79
502.02	39143.12
502.20	38960.56
502.37	39306.96
502.55	39264.83
502.72	39728.25
502.90	39627.61
503.07	39480.16
503.25	40051.25
503.43	39920.18
503.60	40421.05
503.78	40449.14
503.95	40334.45
504.13	40776.81
504.30	40788.52
504.48	40044.23
504.65	40561.48
504.83	41247.26
505.01	41399.40
505.18	41219.17
505.36	41851.12
505.53	41509.40
505.71	41502.38
505.88	41830.05
506.06	41675.58
506.23	42286.46
506.41	42036.02
506.58	42380.08
506.76	42485.40
506.93	42492.43
507.11	42843.51
507.28	42756.91
507.46	42913.72
507.63	42997.98
507.81	43646.31
507.98	43187.56
508.16	43129.05
508.33	43320.98
508.50	43419.28
508.68	44425.71
508.85	44079.31
509.03	43964.62
509.20	44107.40
509.38	44299.32
509.55	44334.43
509.73	44460.82
509.90	44783.81
510.08	44751.04
510.25	45202.77
510.42	44952.33
510.60	45390.01
510.77	44893.82
510.95	45792.58
511.12	45392.35
511.30	45532.78
511.47	45790.24
511.64	45759.81
511.82	46127.28
511.99	45787.90
512.17	46326.22
512.34	46202.18
512.51	46614.11
512.69	46663.26
512.86	46827.10
513.04	46820.08
513.21	46649.22
513.38	46857.52
513.56	46794.33
513.73	46583.68
513.90	47365.42
514.08	47232.01
514.25	47262.44
514.43	47779.70
514.60	47737.57
514.77	47386.49
514.95	47929.49
515.12	47966.94
515.29	47751.61
515.47	47934.17
515.64	48332.06
515.81	48168.22
515.99	48378.87
516.16	48732.29
516.33	48140.14
516.51	48765.06
516.68	48814.21
516.85	48856.34
517.03	49244.87
517.20	48987.41
517.37	49263.60
517.54	49078.69
517.72	48933.58
517.89	49233.17
518.06	49205.08
518.24	49478.92
518.41	49193.38
518.58	49642.76
518.75	49502.33
518.93	49876.82
519.10	49570.21
519.27	49832.35
519.45	49769.15
519.62	50155.34
519.79	50108.53
519.96	49956.39
520.14	50216.19
520.31	50176.40
520.48	50836.44
520.65	50934.74
520.83	50880.91
521.00	50981.55
521.17	50635.15
521.34	50494.72
521.52	50969.85
521.69	51224.96
521.86	51121.98
522.03	51494.13
522.20	51281.14
522.38	51723.50
522.55	51519.87
522.72	51629.88
522.89	51271.78
523.07	51592.43
523.24	51810.10
523.41	51845.21
523.58	51629.88
523.75	51882.66
523.92	51938.83
524.10	52006.70
524.27	52083.94
524.44	52299.27
524.61	52236.08
524.78	52119.05
524.96	52247.78
525.13	52261.82
525.30	52486.51
525.47	52500.56
525.64	52580.13
525.81	52626.95
525.98	52800.15
526.16	52680.78
526.33	52673.76
526.50	53015.47
526.67	52926.53
526.84	53209.74
527.01	53198.04
527.18	52959.30
527.36	52987.39
527.53	53338.47
527.70	53556.14
527.87	53656.78
528.04	53279.96
528.21	53443.79
528.38	53418.05
528.55	53593.59
528.72	53478.90
528.89	53406.34
529.07	53340.81
529.24	53565.50
529.41	53806.58
529.58	53738.70
529.75	54190.42
529.92	53925.94
530.09	53874.45
530.26	53982.12
530.43	54033.61
530.60	53954.03
530.77	54012.54
530.94	54410.43
531.11	53982.12
531.28	54330.86
531.46	54490.01
531.63	54195.10
531.80	54494.69
531.97	54487.67
532.14	54546.18
532.31	54412.77
532.48	54979.18
532.65	54700.66
532.82	54726.41
532.99	54983.86
533.16	54763.85
533.33	54892.58
533.50	54997.91
533.67	55007.27
533.84	54843.43
534.01	55269.41
534.18	54939.39
534.35	55295.16
534.52	55182.81
534.69	55157.06
534.86	55332.60
535.03	55217.92
535.20	55168.77
535.37	55496.44
535.54	55435.59
535.71	55454.31
535.88	55409.84
536.05	55356.01
536.22	55812.41
536.38	55934.12
536.55	55657.94
536.72	55679.00
536.89	55639.22
537.06	56027.74
537.23	55767.94
537.40	55702.41
537.57	55664.96
537.74	55821.78
537.91	56062.85
538.08	56072.21
538.25	55767.94
538.42	55973.91
538.59	56336.69
538.75	55987.95
538.92	56343.72
539.09	56327.33
539.26	56350.74
539.43	56093.28
539.60	56231.37
539.77	56343.72
539.94	56687.78
540.11	56662.03
540.28	56537.98
540.44	56537.98
540.61	56570.75
540.78	56570.75
540.95	56748.63
541.12	56666.71
541.29	56423.29
541.46	56779.06
541.62	56727.56
541.79	56921.83
541.96	56498.19
542.13	56413.93
542.30	56886.72
542.47	57059.92
542.63	56755.65
542.80	56814.16
542.97	57385.25
543.14	57286.95
543.31	57270.57
543.48	57387.60
543.64	57279.93
543.81	57289.29
543.98	57258.87
544.15	57230.78
544.32	57490.58
544.48	57560.79
544.65	57441.43
544.82	57497.60
544.99	57453.13
545.16	57635.69
545.32	57471.85
545.49	57820.59
545.66	57876.77
545.83	57827.62
546.00	57649.74
546.16	57731.65
546.33	57715.27
546.50	57633.35
546.67	57869.75
546.83	57542.07
547.00	57806.55
547.17	57930.60
547.34	58113.16
547.50	58159.97
547.67	58169.33
547.84	58185.72
548.00	58237.21
548.17	58309.77
548.34	58265.30
548.51	58387.00
548.67	58185.72
548.84	58265.30
549.01	58148.27
549.18	58260.62
549.34	58485.31
549.51	58258.27
549.68	58368.28
549.84	58391.68
550.01	58363.60
550.18	58122.52
550.34	58431.47
550.51	58866.81
550.68	58653.82
550.84	58136.57
551.01	58724.04
551.18	58522.76
551.34	58607.01
551.51	58726.38
551.68	58820.00
551.84	58710.00
552.01	58597.65
552.18	58576.59
552.34	58567.23
552.51	58796.60
552.68	58892.56
552.84	58979.16
553.01	59075.12
553.18	59089.16
553.34	58983.84
553.51	58892.56
553.67	58932.35
553.84	59032.99
554.01	58880.86
554.17	59047.04
554.34	59058.74
554.51	59210.87
554.67	59220.23
554.84	59030.65
555.00	59082.14
555.17	59070.44
555.33	59194.49
555.50	59203.85
555.67	59056.40
555.83	59068.10
556.00	59348.96
556.16	59384.07
556.33	59363.01
556.50	59423.86
556.66	59458.97
556.83	59185.13
556.99	59590.04
557.16	59414.50
557.32	59526.84
557.49	59686.00
557.65	59341.94
557.82	59538.55
557.98	59592.38
558.15	59697.70
558.32	59723.45
558.48	59234.28
558.65	59690.68
558.81	59465.99
558.98	59456.63
559.14	59718.77
559.31	59697.70
559.47	59693.02
559.64	59938.78
559.80	59646.21
559.97	59924.74
560.13	59845.16
560.30	59742.17
560.46	59728.13
560.63	60020.70
560.79	59835.80
560.96	60140.07
561.12	60025.38
561.29	59798.35
561.45	60168.15
561.61	59910.69
561.78	59976.23
561.94	60018.36
562.11	60060.49
562.27	60238.37
562.44	59891.97
562.60	60081.55
562.77	59992.61
562.93	59945.80
563.10	60048.78
563.26	60083.89
563.42	60172.83
563.59	60041.76
563.75	59955.16
563.92	60172.83
564.08	60238.37
564.24	60271.14
564.41	60238.37
564.57	60182.19
564.74	60259.43
564.90	60198.58
565.07	60102.62
565.23	60245.39
565.39	60179.85
565.56	60264.11
565.72	60420.93
565.88	60310.92
566.05	60294.54
566.21	60212.62
566.38	60261.77
566.54	60303.90
566.70	60434.97
566.87	60514.55
567.03	60095.60
567.19	60505.19
567.36	60594.13
567.52	60516.89
567.68	60467.74
567.85	60596.47
568.01	60502.85
568.17	60566.04
568.34	60631.58
568.50	60505.19
568.66	60486.46
568.83	60418.59
568.99	60364.76
569.15	60505.19
569.32	60491.15
569.48	60570.72
569.64	60818.82
569.81	60561.36
569.97	60355.39
570.13	60498.17
570.30	60336.67
570.46	60701.79
570.62	60654.98
570.78	60669.03
570.95	60479.44
571.11	60624.56
571.27	60577.75
571.43	60554.34
571.60	60821.16
571.76	60678.39
571.92	60729.88
572.09	60671.37
572.25	60793.07
572.41	60615.19
572.57	60715.84
572.74	60699.45
572.90	60622.22
573.06	60694.77
573.22	60956.91
573.38	60729.88
573.55	60704.13
573.71	60898.40
573.87	60690.09
574.03	60692.43
574.20	60587.11
574.36	60767.33
574.52	60896.06
574.68	60942.87
574.84	60970.96
575.01	60800.10
575.17	60975.64
575.33	60687.75
575.49	60760.31
575.65	60832.86
575.82	60844.57
575.98	61003.72
576.14	61029.47
576.30	61221.39
576.46	60788.39
576.62	60865.63
576.79	61071.60
576.95	60629.24
577.11	60886.70
577.27	60769.67
577.43	60985.00
577.59	60970.96
577.75	60867.97
577.92	60687.75
578.08	60783.71
578.24	60842.23
578.40	61076.28
578.56	61127.77
578.72	60889.04
578.88	61045.85
579.04	61151.18
579.21	61219.05
579.37	61167.56
579.53	61179.26
579.69	60952.23
579.85	60917.12
580.01	61001.38
580.17	60711.16
580.33	60982.66
580.49	61041.17
580.65	60947.55
580.82	61001.38
580.98	60977.98
581.14	60935.85
581.30	61151.18
581.46	60870.31
581.62	61036.49
581.78	60919.46
581.94	60853.93
582.10	61045.85
582.26	60956.91
582.42	60926.49
582.58	61076.28
582.74	60860.95
582.90	60935.85
583.06	61104.37
583.22	60804.78
583.38	61109.05
583.54	61083.30
583.70	61003.72
583.86	61179.26
584.02	60924.14
584.18	61251.82
584.34	61207.35
584.50	60935.85
584.66	60921.80
584.82	61106.71
584.98	61057.56
585.14	61069.26
585.30	60942.87
585.46	61109.05
585.62	61188.63
585.78	61272.88
585.94	61027.13
586.10	61207.35
586.26	61144.16
586.42	61132.45
586.58	61315.01
586.74	61034.15
586.90	61066.92
587.06	61069.26
587.22	61291.61
587.38	61043.51
587.54	61212.03
587.70	61179.26
587.86	61118.41
588.02	61085.64
588.18	61366.51
588.34	61132.45
588.49	61169.90
