SpectraSuite Data File
++++++++++++++++++++++++++++++++++++
Date: Fri Oct 25 11:34:09 EDT 2013
User: price-jones
Dark Spectrum Present: No
Reference Spectrum Present: No
Number of Sampled Component Spectra: 1
Spectrometers: USB2+H05261
Integration Time (usec): 100000 (USB2+H05261)
Spectra Averaged: 1 (USB2+H05261)
Boxcar Smoothing: 0 (USB2+H05261)
Correct for Electrical Dark: No (USB2+H05261)
Strobe/Lamp Enabled: No (USB2+H05261)
Correct for Detector Non-linearity: No (USB2+H05261)
Correct for Stray Light: No (USB2+H05261)
Number of Pixels in Processed Spectrum: 2048
>>>>>Begin Processed Spectral Data<<<<<
365.73	313.63
365.92	313.63
366.12	313.63
366.32	205.97
366.52	159.16
366.72	180.22
366.91	91.28
367.11	117.03
367.31	166.18
367.51	131.07
367.70	156.82
367.90	107.66
368.10	154.48
368.30	173.20
368.49	227.03
368.69	229.37
368.89	189.58
369.09	166.18
369.28	203.63
369.48	234.05
369.68	283.20
369.87	177.88
370.07	227.03
370.27	278.52
370.47	315.97
370.66	475.13
370.86	496.19
371.06	486.83
371.25	561.73
371.45	517.26
371.65	486.83
371.84	545.34
372.04	528.96
372.24	540.66
372.44	557.05
372.63	552.37
372.83	592.16
373.03	615.56
373.22	587.47
373.42	641.31
373.62	617.90
373.81	657.69
374.01	641.31
374.21	681.10
374.40	678.76
374.60	564.07
374.79	627.26
374.99	608.54
375.19	702.16
375.38	678.76
375.58	669.39
375.78	655.35
375.97	697.48
376.17	739.61
376.37	601.52
376.56	636.63
376.76	699.82
376.95	690.46
377.15	676.41
377.35	664.71
377.54	786.42
377.74	683.44
377.93	657.69
378.13	734.93
378.33	704.50
378.52	711.52
378.72	667.05
378.91	744.29
379.11	725.57
379.31	699.82
379.50	739.61
379.70	692.80
379.89	786.42
380.09	814.51
380.28	674.07
380.48	669.39
380.68	690.46
380.87	702.16
381.07	748.97
381.26	791.10
381.46	716.20
381.65	767.70
381.85	723.23
382.04	737.27
382.24	795.78
382.43	746.63
382.63	744.29
382.83	685.78
383.02	821.53
383.22	800.46
383.41	720.88
383.61	765.36
383.80	793.44
384.00	812.17
384.19	767.70
384.39	784.08
384.58	826.21
384.78	858.98
384.97	905.79
385.17	833.23
385.36	812.17
385.56	807.48
385.75	819.19
385.95	821.53
386.14	753.65
386.34	816.85
386.53	891.74
386.72	821.53
386.92	873.02
387.11	945.58
387.31	814.51
387.50	844.93
387.70	861.32
387.89	863.66
388.09	957.28
388.28	961.96
388.48	987.71
388.67	882.38
388.86	903.45
389.06	976.00
389.25	896.43
389.45	887.06
389.64	945.58
389.84	915.15
390.03	999.41
390.22	990.05
390.42	968.98
390.61	961.96
390.81	912.81
391.00	950.26
391.19	938.55
391.39	973.66
391.58	1027.50
391.78	980.68
391.97	983.02
392.16	959.62
392.36	1081.33
392.55	1018.13
392.75	1027.50
392.94	1004.09
393.13	1053.24
393.33	1034.52
393.52	1050.90
393.71	992.39
393.91	1086.01
394.10	1001.75
394.29	1053.24
394.49	1083.67
394.68	1067.28
394.88	1107.07
395.07	1135.16
395.26	1046.22
395.46	1170.27
395.65	1100.05
395.84	1118.78
396.04	1259.21
396.23	1219.42
396.42	1212.40
396.62	1158.57
396.81	1212.40
397.00	1191.33
397.19	1212.40
397.39	1158.57
397.58	1228.78
397.77	1174.95
397.97	1224.10
398.16	1165.59
398.35	1299.00
398.55	1235.80
398.74	1359.85
398.93	1270.91
399.12	1289.64
399.32	1284.95
399.51	1306.02
399.70	1331.76
399.90	1313.04
400.09	1338.79
400.28	1334.11
400.47	1291.98
400.67	1401.98
400.86	1465.18
401.05	1427.73
401.24	1392.62
401.44	1380.92
401.63	1500.28
401.82	1497.94
402.01	1511.99
402.21	1394.96
402.40	1355.17
402.59	1451.13
402.78	1542.41
402.97	1488.58
403.17	1509.65
403.36	1465.18
403.55	1476.88
403.74	1497.94
403.93	1523.69
404.13	1577.52
404.32	1462.83
404.51	1570.50
404.70	1652.42
404.89	1596.25
405.09	1668.80
405.28	1689.87
405.47	1664.12
405.66	1617.31
405.85	1717.95
406.05	1577.52
406.24	1717.95
406.43	1724.97
406.62	1727.32
406.81	1788.17
407.00	1689.87
407.20	1666.46
407.39	1797.53
407.58	1792.85
407.77	1736.68
407.96	1823.28
408.15	1853.70
408.34	1877.11
408.54	1930.94
408.73	1823.28
408.92	1891.15
409.11	1926.26
409.30	1926.26
409.49	1933.28
409.68	1825.62
409.87	1980.09
410.07	2024.56
410.26	2064.35
410.45	2040.95
410.64	2078.40
410.83	2129.89
411.02	2071.37
411.21	2069.03
411.40	2062.01
411.59	2181.38
411.78	2169.68
411.98	2087.76
412.17	2228.19
412.36	2153.29
412.55	2181.38
412.74	2279.68
412.93	2282.02
413.12	2310.11
413.31	2385.01
413.50	2464.58
413.69	2324.15
413.88	2436.50
414.07	2401.39
414.26	2366.28
414.45	2338.20
414.64	2448.20
414.83	2525.44
415.02	2462.24
415.22	2581.61
415.41	2642.46
415.60	2544.16
415.79	2712.68
415.98	2558.21
416.17	2679.91
416.36	2686.94
416.55	2640.12
416.74	2586.29
416.93	2644.81
417.12	2785.24
417.31	2743.11
417.50	2813.32
417.69	2972.48
417.88	2876.52
418.07	2818.00
418.26	2942.05
418.45	2953.76
418.64	2998.23
418.83	3028.65
419.02	2925.67
419.21	2958.44
419.39	3091.85
419.58	2923.33
419.77	2920.99
419.96	2984.18
420.15	3059.08
420.34	3169.09
420.53	3150.36
420.72	3070.78
420.91	3159.72
421.10	3136.32
421.29	3164.40
421.48	3204.19
421.67	3164.40
421.86	3185.47
422.05	3215.90
422.24	3229.94
422.43	3314.20
422.61	3192.49
422.80	3358.67
422.99	3290.79
423.18	3239.30
423.37	3424.20
423.56	3384.41
423.75	3363.35
423.94	3243.98
424.13	3148.02
424.32	3176.11
424.50	3206.53
424.69	3335.26
424.88	3396.12
425.07	3283.77
425.26	3269.73
425.45	3461.65
425.64	3267.39
425.83	3417.18
426.01	3440.59
426.20	3417.18
426.39	3398.46
426.58	3342.28
426.77	3403.14
426.96	3506.12
427.15	3368.03
427.33	3463.99
427.52	3433.57
427.71	3461.65
427.90	3445.27
428.09	3583.36
428.28	3648.90
428.46	3590.38
428.65	3552.93
428.84	3686.34
429.03	3630.17
429.22	3602.08
429.40	3749.54
429.59	3684.00
429.78	3651.24
429.97	3557.61
430.16	3831.46
430.34	3658.26
430.53	3932.10
430.72	3808.05
430.91	3712.09
431.10	3702.73
431.28	3777.62
431.47	3981.25
431.66	3932.10
431.85	3798.69
432.03	3908.69
432.22	3922.74
432.41	4042.11
432.60	3955.51
432.79	4037.42
432.97	4056.15
433.16	4030.40
433.35	3978.91
433.54	4063.17
433.72	4168.49
433.91	4102.96
434.10	4173.18
434.28	3978.91
434.47	4102.96
434.66	4222.33
434.85	4119.34
435.03	4173.18
435.22	4189.56
435.41	4358.08
435.59	4180.20
435.78	4227.01
435.97	4187.22
436.16	4283.18
436.34	4086.58
436.53	4255.09
436.72	4386.16
436.90	4341.69
437.09	4458.72
437.28	4322.97
437.46	4346.37
437.65	4407.23
437.84	4521.92
438.02	4489.15
438.21	4550.00
438.40	4425.95
438.58	4753.63
438.77	4645.96
438.96	4468.08
439.14	4657.67
439.33	4741.93
439.52	4880.02
439.70	4730.22
439.89	4922.15
440.08	4931.51
440.26	4889.38
440.45	4926.83
440.63	4882.36
440.82	5064.92
441.01	5043.85
441.19	4968.96
441.38	5252.16
441.57	4865.97
441.75	5067.26
441.94	5238.12
442.12	5221.74
442.31	5212.37
442.50	5338.76
442.68	5301.31
442.87	5460.47
443.05	5359.83
443.24	5446.43
443.43	5425.36
443.61	5387.91
443.80	5476.85
443.98	5305.99
444.17	5247.48
444.35	5544.73
444.54	5483.88
444.73	5359.83
444.91	5570.48
445.10	5502.60
445.28	5439.40
445.47	5626.65
445.65	5572.82
445.84	5582.18
446.02	5626.65
446.21	5577.50
446.39	5561.11
446.58	5668.78
446.77	5511.96
446.95	5511.96
447.14	5504.94
447.32	5614.95
447.51	5607.92
447.69	5556.43
447.88	5533.03
448.06	5633.67
448.25	5603.24
448.43	5706.23
448.62	5612.60
448.80	5631.33
448.99	5612.60
449.17	5689.84
449.36	5746.02
449.54	5760.06
449.73	5888.79
449.91	5909.85
450.10	5797.51
450.28	5863.04
450.46	6071.35
450.65	5954.32
450.83	6066.67
451.02	6085.39
451.20	6094.76
451.39	6099.44
451.57	6153.27
451.76	6059.65
451.94	6097.10
452.13	6230.51
452.31	6216.46
452.49	6118.16
452.68	6195.40
452.86	6104.12
453.05	6218.80
453.23	6342.85
453.42	6293.70
453.60	6169.65
453.78	6160.29
453.97	6115.82
454.15	6291.36
454.34	6368.60
454.52	6396.68
454.70	6331.15
454.89	6366.26
455.07	6476.26
455.26	6480.94
455.44	6525.41
455.62	6382.64
455.81	6356.90
455.99	6717.34
456.17	6609.67
456.36	6628.40
456.54	6717.34
456.73	6707.98
456.91	6951.39
457.09	6897.56
457.28	6710.32
457.46	6717.34
457.64	6892.88
457.83	6927.99
458.01	6558.18
458.19	7143.32
458.38	6717.34
458.56	7091.82
458.74	7124.59
458.93	7178.42
459.11	6918.62
459.29	7012.24
459.48	7136.29
459.66	7063.74
459.84	7061.40
460.03	7234.60
460.21	7155.02
460.39	7213.53
460.57	7131.61
460.76	7293.11
460.94	7162.04
461.12	7335.24
461.31	7180.76
461.49	7295.45
461.67	7218.21
461.85	7463.97
462.04	7283.75
462.22	7555.25
462.40	7602.06
462.59	7473.33
462.77	7520.14
462.95	7653.55
463.13	7470.99
463.32	7442.90
463.50	7630.15
463.68	7719.09
463.86	7672.28
464.05	7531.84
464.23	7623.12
464.41	7693.34
464.59	7557.59
464.78	7908.67
464.96	7747.17
465.14	7660.57
465.32	7892.29
465.50	7906.33
465.69	7882.92
465.87	7936.76
466.05	7981.23
466.23	7967.18
466.41	7932.08
466.60	8046.76
466.78	7939.10
466.96	7866.54
467.14	7854.84
467.32	7955.48
467.51	8201.24
467.69	7737.81
467.87	8245.71
468.05	8292.52
468.23	8093.57
468.41	8269.11
468.60	8320.60
468.78	8287.84
468.96	8133.36
469.14	8133.36
469.32	8430.61
469.50	8264.43
469.69	8379.12
469.87	8561.68
470.05	8559.34
470.23	8517.21
470.41	8484.44
470.59	8568.70
470.77	8655.30
470.95	8580.40
471.14	8945.53
471.32	8404.86
471.50	8807.44
471.68	8786.37
471.86	8884.67
472.04	8755.94
472.22	9020.42
472.40	8805.10
472.58	8954.89
472.77	9025.11
472.95	9135.11
473.13	9205.33
473.31	9224.05
473.49	9179.58
473.67	8975.95
473.85	9254.48
474.03	9582.15
474.21	9191.28
474.39	9551.73
474.57	9563.43
474.75	9743.65
474.93	9570.45
475.12	9745.99
475.30	9628.96
475.48	9710.88
475.66	9834.93
475.84	9806.84
476.02	10022.17
476.20	9973.02
476.38	10148.56
476.56	10167.29
476.74	10347.51
476.92	10157.92
477.10	10120.48
477.28	10621.35
477.46	10628.37
477.64	10298.36
477.82	10614.33
478.00	10764.12
478.18	10803.91
478.36	10918.60
478.54	10949.03
478.72	11049.67
478.90	10995.84
479.08	11265.00
479.26	11304.79
479.44	11461.60
479.62	11557.57
479.80	11529.48
479.98	11728.42
480.16	12009.29
480.34	11749.49
480.52	11985.88
480.70	12077.16
480.88	11840.77
481.06	12079.50
481.24	12184.83
481.41	12250.36
481.59	12187.17
481.77	12521.87
481.95	12638.89
482.13	12821.45
482.31	12416.54
482.49	13158.49
482.67	12957.21
482.85	13083.59
483.03	13319.99
483.21	13160.83
483.39	13523.62
483.57	13355.10
483.74	13420.63
483.92	13521.27
484.10	13675.75
484.28	13888.74
484.46	14450.47
484.64	14352.16
484.82	14108.75
485.00	14415.36
485.18	14431.74
485.35	14801.55
485.53	14679.84
485.71	14806.23
485.89	15103.48
486.07	14946.66
486.25	14824.95
486.43	15101.14
486.61	15143.27
486.78	15379.66
486.96	15419.45
487.14	15714.36
487.32	15604.35
487.50	15826.70
487.68	15910.96
487.85	16285.45
488.03	16224.59
488.21	16224.59
488.39	16498.44
488.57	16512.48
488.75	16688.02
488.92	16868.24
489.10	16908.03
489.28	17020.38
489.46	17305.92
489.64	17226.34
489.81	17652.32
489.99	17774.03
490.17	17715.51
490.35	17830.20
490.53	17940.21
490.70	18235.11
490.88	18092.34
491.06	18562.79
491.24	18427.04
491.41	18590.88
491.59	18427.04
491.77	18515.98
491.95	18944.30
492.13	19138.56
492.30	19000.47
492.48	19339.85
492.66	19133.88
492.84	19419.42
493.01	19730.72
493.19	19417.08
493.37	19915.62
493.54	19997.54
493.72	20004.56
493.90	20147.33
494.08	20070.09
494.25	20210.53
494.43	20435.22
494.61	20629.48
494.79	20795.66
494.96	20563.95
495.14	21060.14
495.32	20929.07
495.49	20931.41
495.67	21062.48
495.85	21378.45
496.02	21565.70
496.20	21680.38
496.38	22061.89
496.55	22005.72
496.73	22382.54
496.91	21846.56
497.09	22258.49
497.26	22284.24
497.44	22223.39
497.62	22448.08
497.79	22845.97
497.97	22665.75
498.14	23042.57
498.32	23080.02
498.50	22857.67
498.67	23337.48
498.85	23101.09
499.03	23534.09
499.20	23372.59
499.38	23276.63
499.56	23641.75
499.73	23580.90
499.91	24254.97
500.08	24261.99
500.26	23976.45
500.44	24004.53
500.61	24517.11
500.79	24196.46
500.97	24386.04
501.14	24671.59
501.32	24627.12
501.49	24414.13
501.67	24638.82
501.84	24929.05
502.02	24540.52
502.20	24753.51
502.37	24978.20
502.55	24903.30
502.72	24835.42
502.90	25429.92
503.07	25120.97
503.25	24989.90
503.43	25406.52
503.60	25010.96
503.78	25575.03
503.95	25762.28
504.13	26108.68
504.30	25626.53
504.48	25942.50
504.65	26038.46
504.83	26321.66
505.01	26218.68
505.18	26541.68
505.36	26635.30
505.53	26752.32
505.71	26710.19
505.88	26476.14
506.06	26614.23
506.23	27103.40
506.41	26637.64
506.58	26740.62
506.76	27208.73
506.93	27461.51
507.11	26782.75
507.28	27180.64
507.46	27119.79
507.63	27440.44
507.81	27557.47
507.98	27728.33
508.16	27438.10
508.33	27999.83
508.50	27740.03
508.68	27555.13
508.85	28144.94
509.03	27828.97
509.20	28137.92
509.38	28229.20
509.55	28699.65
509.73	28407.08
509.90	28526.45
510.08	28287.71
510.25	28748.80
510.42	28797.95
510.60	28828.38
510.77	28978.17
510.95	29027.32
511.12	29226.27
511.30	29024.98
511.47	29167.76
511.64	29371.38
511.82	29476.71
511.99	29221.59
512.17	29757.57
512.34	29076.48
512.51	30038.44
512.69	30139.08
512.86	30115.67
513.04	30314.62
513.21	30129.72
513.38	30010.35
513.56	30171.85
513.73	29954.18
513.90	30646.97
514.08	30441.01
514.25	30618.89
514.43	30408.24
514.60	30881.03
514.77	30799.11
514.95	31175.94
515.12	30771.02
515.29	30595.48
515.47	31381.90
515.64	30878.69
515.81	31316.37
515.99	31351.48
516.16	31442.76
516.33	31124.44
516.51	31686.17
516.68	31477.86
516.85	31538.72
517.03	31688.51
517.20	31543.40
517.37	31716.60
517.54	31637.02
517.72	31985.76
517.89	31718.94
518.06	31871.07
518.24	31931.93
518.41	32126.19
518.58	32304.07
518.75	32053.64
518.93	32245.56
519.10	32407.06
519.27	32755.80
519.45	32374.29
519.62	32587.28
519.79	32713.67
519.96	32280.67
520.14	32737.07
520.31	32697.28
520.48	33270.72
520.65	33172.41
520.83	33563.28
521.00	33731.80
521.17	33589.03
521.34	33280.08
521.52	33837.12
521.69	33553.92
521.86	33472.00
522.03	33635.84
522.20	34068.84
522.38	34218.63
522.55	34096.92
522.72	33942.45
522.89	34099.26
523.07	34436.30
523.24	33919.04
523.41	34583.76
523.58	34082.88
523.75	34609.50
523.92	34550.99
524.10	34398.85
524.27	34768.66
524.44	34417.58
524.61	34803.77
524.78	34855.26
524.96	34838.87
525.13	35063.57
525.30	35227.40
525.47	35515.29
525.64	34937.18
525.81	35054.20
525.98	35468.48
526.16	35590.19
526.33	34939.52
526.50	35587.85
526.67	35115.06
526.84	35578.48
527.01	35604.23
527.18	35812.54
527.36	35704.87
527.53	35328.05
527.70	36432.78
527.87	36079.36
528.04	35768.07
528.21	35754.02
528.38	35981.06
528.55	36081.70
528.72	35950.63
528.89	36086.38
529.07	36318.09
529.24	36407.03
529.41	36652.79
529.58	36282.98
529.75	36088.72
529.92	36348.52
530.09	36685.56
530.26	36510.02
530.43	36774.50
530.60	36486.61
530.77	36479.59
530.94	36734.71
531.11	36889.18
531.28	36877.48
531.46	37001.53
531.63	37038.98
531.80	36921.95
531.97	37589.00
532.14	37120.90
532.31	37254.31
532.48	37202.82
532.65	37626.45
532.82	37153.66
532.99	37258.99
533.16	37591.34
533.33	37631.13
533.50	37436.87
533.67	37729.44
533.84	37146.64
534.01	37830.08
534.18	37544.53
534.35	38211.59
534.52	38223.29
534.69	38223.29
534.86	38197.54
535.03	38335.63
535.20	38216.27
535.37	38581.39
535.54	38586.07
535.71	38239.67
535.88	38380.10
536.05	38761.61
536.22	38415.21
536.38	38368.40
536.55	38630.54
536.72	38586.07
536.89	38686.71
537.06	38742.89
537.23	38808.42
537.40	38810.76
537.57	38752.25
537.74	39138.44
537.91	39365.47
538.08	38850.55
538.25	38663.31
538.42	38806.08
538.59	39236.74
538.75	39274.19
538.92	39246.10
539.09	39351.43
539.26	39239.08
539.43	39330.36
539.60	39601.86
539.77	39342.06
539.94	39959.97
540.11	39700.17
540.28	39683.78
540.44	39374.83
540.61	39681.44
540.78	39349.09
540.95	39688.46
541.12	39800.81
541.29	40154.23
541.46	40151.89
541.62	39824.22
541.79	40392.97
541.96	39372.49
542.13	39730.59
542.30	40086.36
542.47	40189.34
542.63	40313.39
542.80	40509.99
542.97	40620.00
543.14	40765.11
543.31	40304.02
543.48	40783.83
543.64	40683.19
543.81	40725.32
543.98	40762.77
544.15	40753.41
544.32	40795.54
544.48	41242.58
544.65	40954.69
544.82	41439.18
544.99	40692.55
545.16	41296.41
545.32	41230.88
545.49	41317.48
545.66	41518.76
545.83	41708.35
546.00	41170.02
546.16	41038.95
546.33	41102.15
546.50	41303.43
546.67	41844.10
546.83	41191.09
547.00	41195.77
547.17	41617.07
547.34	41675.58
547.50	41523.44
547.67	41780.90
547.84	41460.25
548.00	41605.36
548.17	42124.96
548.34	41954.10
548.51	42146.03
548.67	42129.64
548.84	41493.02
549.01	41989.21
549.18	41904.95
549.34	42483.06
549.51	42227.95
549.68	42209.22
549.84	42012.62
550.01	42361.36
550.18	42192.84
550.34	42309.86
550.51	42466.68
550.68	42469.02
550.84	41921.34
551.01	42616.47
551.18	42508.81
551.34	42623.50
551.51	42604.77
551.68	42534.56
551.84	42595.41
552.01	42864.57
552.18	42604.77
552.34	42733.50
552.51	42445.62
552.68	42321.57
552.84	42920.74
553.01	42616.47
553.18	42717.12
553.34	43077.56
553.51	42653.92
553.67	42967.55
553.84	42920.74
554.01	43225.01
554.17	42806.06
554.34	43257.78
554.51	43377.15
554.67	43601.84
554.84	43562.05
555.00	43533.96
555.17	43140.75
555.33	43756.32
555.50	43180.54
555.67	43206.29
555.83	43374.81
556.00	43585.46
556.16	44060.58
556.33	44037.18
556.50	43704.82
556.66	43880.36
556.83	43540.99
556.99	44119.10
557.16	43625.25
557.32	43859.30
557.49	44088.67
557.65	43756.32
557.82	43847.60
557.98	43957.60
558.15	44093.35
558.32	44062.93
558.48	43672.06
558.65	43952.92
558.81	43988.03
558.98	43660.35
559.14	44210.38
559.31	43859.30
559.47	44065.27
559.64	44336.77
559.80	44308.68
559.97	43889.73
560.13	44217.40
560.30	44238.47
560.46	44357.83
560.63	44423.37
560.79	44533.37
560.96	44680.83
561.12	44348.47
561.29	44425.71
561.45	44170.59
561.61	44505.29
561.78	44617.63
561.94	44645.72
562.11	44470.18
562.27	44577.84
562.44	44559.12
562.60	44502.95
562.77	44477.20
562.93	44875.09
563.10	44804.88
563.26	44919.56
563.42	45104.46
563.59	44474.86
563.75	44458.48
563.92	44713.59
564.08	44643.38
564.24	44928.92
564.41	44865.73
564.57	45008.50
564.74	44690.19
564.90	44858.71
565.07	44865.73
565.23	44978.07
565.39	44390.60
565.56	44818.92
565.72	44800.19
565.88	44851.69
566.05	44931.26
566.21	45364.26
566.38	45179.36
566.54	45036.59
566.70	45303.41
566.87	45294.05
567.03	45067.02
567.19	45474.27
567.36	45415.76
567.52	45408.73
567.68	45443.84
567.85	45029.57
568.01	45537.46
568.17	45322.13
568.34	45256.60
568.50	44856.37
568.66	45186.38
568.83	45027.23
568.99	45326.81
569.15	45230.85
569.32	45268.30
569.48	44900.84
569.64	45514.06
569.81	45771.52
569.97	45778.54
570.13	45759.81
570.30	45205.11
570.46	45570.23
570.62	45436.82
570.78	45221.49
570.95	45511.72
571.11	45787.90
571.27	45090.42
571.43	45317.45
571.60	45603.00
571.76	45312.77
571.92	45612.36
572.09	45338.52
572.25	45371.28
572.41	45848.75
572.57	45478.95
572.74	46155.36
572.90	45401.71
573.06	45579.59
573.22	46017.27
573.38	45757.47
573.55	45689.60
573.71	46469.00
573.87	45633.42
574.03	45799.60
574.20	45778.54
574.36	45724.71
574.52	45635.77
574.68	45757.47
574.84	45628.74
575.01	46141.32
575.17	46335.59
575.33	45586.61
575.49	45998.55
575.65	45855.78
575.82	46061.74
575.98	45755.13
576.14	45921.31
576.30	46204.52
576.46	45764.49
576.62	46059.40
576.79	45862.80
576.95	45296.39
577.11	45645.13
577.27	45401.71
577.43	46129.62
577.59	46169.41
577.75	45666.19
577.92	45228.51
578.08	45862.80
578.24	46230.26
578.40	46064.08
578.56	45851.09
578.72	46106.21
578.88	45900.25
579.04	46239.62
579.21	45724.71
579.37	45949.40
579.53	45778.54
579.69	45935.35
579.85	45720.02
580.01	45708.32
580.17	46005.57
580.33	46138.98
580.49	45808.96
580.65	45963.44
580.82	46239.62
580.98	45584.27
581.14	45713.00
581.30	46206.86
581.46	45588.95
581.62	45956.42
581.78	45745.77
581.94	46040.68
582.10	45989.19
582.26	46443.25
582.42	46089.83
582.58	45645.13
582.74	45832.37
582.90	46024.29
583.06	46071.10
583.22	46131.96
583.38	46127.28
583.54	46497.08
583.70	45837.05
583.86	45989.19
584.02	45813.65
584.18	46550.91
584.34	46258.35
584.50	46361.33
584.66	46497.08
584.82	46045.36
584.98	46560.28
585.14	46314.52
585.30	45837.05
585.46	46230.26
585.62	45731.73
585.78	46258.35
585.94	45705.98
586.10	46253.67
586.26	46204.52
586.42	46499.42
586.58	46246.65
586.74	46127.28
586.90	46129.62
587.06	46108.55
587.22	46309.84
587.38	46314.52
587.54	46396.44
587.70	46312.18
587.86	46312.18
588.02	46344.95
588.18	46124.94
588.34	46012.59
588.49	46274.73
588.65	46160.05
588.81	46066.42
588.97	46410.48
589.13	46466.66
589.29	46033.66
589.45	46653.90
589.61	46277.07
589.77	46256.01
589.93	46012.59
590.08	46347.29
