SpectraSuite Data File
++++++++++++++++++++++++++++++++++++
Date: Fri Oct 25 10:43:31 EDT 2013
User: price-jones
Dark Spectrum Present: No
Reference Spectrum Present: No
Number of Sampled Component Spectra: 1
Spectrometers: USB2+H05261
Integration Time (usec): 100000 (USB2+H05261)
Spectra Averaged: 1 (USB2+H05261)
Boxcar Smoothing: 0 (USB2+H05261)
Correct for Electrical Dark: No (USB2+H05261)
Strobe/Lamp Enabled: No (USB2+H05261)
Correct for Detector Non-linearity: No (USB2+H05261)
Correct for Stray Light: No (USB2+H05261)
Number of Pixels in Processed Spectrum: 2048
>>>>>Begin Processed Spectral Data<<<<<
365.73	86.60
365.92	86.60
366.12	86.60
366.32	100.64
366.52	95.96
366.72	39.79
366.91	11.70
367.11	0.00
367.31	0.00
367.51	0.00
367.70	0.00
367.90	51.49
368.10	49.15
368.30	51.49
368.49	63.19
368.69	58.51
368.89	0.00
369.09	70.22
369.28	49.15
369.48	81.92
369.68	56.17
369.87	128.73
370.07	65.54
370.27	93.62
370.47	177.88
370.66	374.49
370.86	402.57
371.06	390.87
371.25	465.77
371.45	367.46
371.65	498.53
371.84	442.36
372.04	491.51
372.24	465.77
372.44	463.43
372.63	547.69
372.83	484.49
373.03	491.51
373.22	517.26
373.42	571.09
373.62	559.39
373.81	545.34
374.01	575.77
374.21	552.37
374.40	552.37
374.60	613.22
374.79	599.18
374.99	580.45
375.19	578.11
375.38	465.77
375.58	557.05
375.78	615.56
375.97	634.29
376.17	681.10
376.37	547.69
376.56	547.69
376.76	599.18
376.95	641.31
377.15	636.63
377.35	688.12
377.54	585.13
377.74	657.69
377.93	648.33
378.13	608.54
378.33	660.03
378.52	643.65
378.72	723.23
378.91	578.11
379.11	669.39
379.31	732.59
379.50	678.76
379.70	737.27
379.89	650.67
380.09	727.91
380.28	641.31
380.48	800.46
380.68	631.94
380.87	643.65
381.07	676.41
381.26	718.54
381.46	681.10
381.65	669.39
381.85	697.48
382.04	760.67
382.24	678.76
382.43	643.65
382.63	697.48
382.83	681.10
383.02	767.70
383.22	755.99
383.41	655.35
383.61	692.80
383.80	765.36
384.00	760.67
384.19	802.80
384.39	884.72
384.58	866.00
384.78	849.61
384.97	809.83
385.17	779.40
385.36	840.25
385.56	788.76
385.75	718.54
385.95	770.04
386.14	795.78
386.34	774.72
386.53	779.40
386.72	809.83
386.92	894.08
387.11	828.55
387.31	805.14
387.50	833.23
387.70	912.81
387.89	903.45
388.09	980.68
388.28	926.85
388.48	837.91
388.67	976.00
388.86	887.06
389.06	856.64
389.25	936.21
389.45	950.26
389.64	968.98
389.84	1004.09
390.03	966.64
390.22	1062.60
390.42	964.30
390.61	966.64
390.81	964.30
391.00	1116.44
391.19	1118.78
391.39	1060.26
391.58	1090.69
391.78	1090.69
391.97	1067.28
392.16	1053.24
392.36	1093.03
392.55	931.53
392.75	966.64
392.94	987.71
393.13	985.37
393.33	994.73
393.52	1111.75
393.71	1121.12
393.91	1069.62
394.10	1151.54
394.29	1128.14
394.49	1100.05
394.68	1144.52
394.88	1235.80
395.07	1221.76
395.26	1231.12
395.46	1231.12
395.65	1233.46
395.84	1184.31
396.04	1146.86
396.23	1221.76
396.42	1146.86
396.62	1163.25
396.81	1149.20
397.00	1184.31
397.19	1252.19
397.39	1287.29
397.58	1310.70
397.77	1348.15
397.97	1394.96
398.16	1380.92
398.35	1343.47
398.55	1474.54
398.74	1544.75
398.93	1544.75
399.12	1514.33
399.32	1490.92
399.51	1514.33
399.70	1570.50
399.90	1542.41
400.09	1544.75
400.28	1593.90
400.47	1586.88
400.67	1570.50
400.86	1671.14
401.05	1638.38
401.24	1673.48
401.44	1624.33
401.63	1610.29
401.82	1708.59
402.01	1673.48
402.21	1694.55
402.40	1746.04
402.59	1739.02
402.78	1771.79
402.97	1762.42
403.17	1755.40
403.36	1813.92
403.55	1865.41
403.74	1898.17
403.93	1851.36
404.13	1893.49
404.32	1898.17
404.51	1888.81
404.70	1851.36
404.89	1809.23
405.09	1963.71
405.28	1944.99
405.47	1973.07
405.66	1919.24
405.85	1926.26
406.05	1937.96
406.24	2024.56
406.43	1959.03
406.62	2043.29
406.81	2059.67
407.00	1942.64
407.20	1987.11
407.39	2043.29
407.58	2083.08
407.77	2204.78
407.96	2097.12
408.15	2183.72
408.34	2218.83
408.54	2279.68
408.73	2328.83
408.92	2326.49
409.11	2380.32
409.30	2293.72
409.49	2228.19
409.68	2293.72
409.87	2249.25
410.07	2349.90
410.26	2380.32
410.45	2420.11
410.64	2331.17
410.83	2492.67
411.02	2487.99
411.21	2569.91
411.40	2583.95
411.59	2633.10
411.78	2712.68
411.98	2541.82
412.17	2555.86
412.36	2663.53
412.55	2729.06
412.74	2647.15
412.93	2712.68
413.12	2670.55
413.31	2722.04
413.50	2796.94
413.69	2785.24
413.88	2876.52
414.07	2778.22
414.26	2974.82
414.45	2935.03
414.64	3000.57
414.83	3028.65
415.02	3187.81
415.22	2977.16
415.41	3131.64
415.60	3098.87
415.79	3164.40
415.98	3157.38
416.17	3241.64
416.36	3206.53
416.55	3190.15
416.74	3302.50
416.93	3243.98
417.12	3356.33
417.31	3349.31
417.50	3339.94
417.69	3482.72
417.88	3368.03
418.07	3239.30
418.26	3379.73
418.45	3590.38
418.64	3485.06
418.83	3702.73
419.02	3597.40
419.21	3564.64
419.39	3655.92
419.58	3513.14
419.77	3529.53
419.96	3599.74
420.15	3599.74
420.34	3705.07
420.53	3805.71
420.72	3920.40
420.91	3709.75
421.10	3782.31
421.29	3789.33
421.48	3653.58
421.67	3908.69
421.86	3768.26
422.05	3882.95
422.24	3892.31
422.43	3761.24
422.61	3794.01
422.80	3934.44
422.99	3812.73
423.18	3847.84
423.37	3925.08
423.56	3723.79
423.75	3918.06
423.94	3730.81
424.13	3644.21
424.32	3782.31
424.50	3840.82
424.69	4009.34
424.88	3932.10
425.07	3819.75
425.26	3852.52
425.45	3782.31
425.64	3934.44
425.83	3873.59
426.01	4051.47
426.20	3861.88
426.39	4070.19
426.58	3843.16
426.77	3836.14
426.96	3976.57
427.15	3971.89
427.33	4093.60
427.52	4053.81
427.71	4009.34
427.90	4084.23
428.09	4166.15
428.28	4109.98
428.46	4205.94
428.65	4079.55
428.84	4236.37
429.03	4182.54
429.22	4021.04
429.40	4126.36
429.59	4170.83
429.78	3831.46
429.97	3932.10
430.16	3901.67
430.34	3976.57
430.53	4217.65
430.72	4166.15
430.91	4147.43
431.10	4346.37
431.28	4491.49
431.47	4608.51
431.66	4713.84
431.85	4444.68
432.03	4643.62
432.22	4697.46
432.41	4507.87
432.60	4627.24
432.79	4697.46
432.97	4657.67
433.16	4634.26
433.35	4517.23
433.54	4552.34
433.72	4601.49
433.91	4706.82
434.10	4746.61
434.28	4819.16
434.47	4779.37
434.66	4877.68
434.85	4915.12
435.03	4950.23
435.22	4905.76
435.41	4961.94
435.59	5071.94
435.78	5022.79
435.97	5158.54
436.16	5046.20
436.34	5153.86
436.53	5078.96
436.72	5441.75
436.90	5107.05
437.09	5191.31
437.28	5153.86
437.46	5181.95
437.65	5135.14
437.84	5041.51
438.02	5125.77
438.21	5151.52
438.40	5027.47
438.58	5394.93
438.77	5268.55
438.96	5280.25
439.14	5661.76
439.33	5626.65
439.52	5458.13
439.70	5598.56
439.89	5685.16
440.08	5664.10
440.26	5757.72
440.45	5724.95
440.63	5769.42
440.82	5895.81
441.01	5774.10
441.19	5942.62
441.38	6019.86
441.57	6033.90
441.75	6050.28
441.94	6171.99
442.12	6274.98
442.31	6359.24
442.50	6286.68
442.68	6375.62
442.87	6363.92
443.05	6160.29
443.24	6347.53
443.43	6478.60
443.61	6246.89
443.80	6609.67
443.98	6272.64
444.17	6274.98
444.35	6347.53
444.54	6597.97
444.73	6492.65
444.91	6387.32
445.10	6368.60
445.28	6506.69
445.47	6471.58
445.65	6417.75
445.84	6443.49
446.02	6478.60
446.21	6420.09
446.39	6583.93
446.58	6602.65
446.77	6574.56
446.95	6513.71
447.14	6684.57
447.32	6658.82
447.51	6682.23
447.69	6703.29
447.88	6808.62
448.06	6787.55
448.25	6506.69
448.43	6656.48
448.62	6747.76
448.80	6719.68
448.99	6656.48
449.17	6874.15
449.36	6778.19
449.54	6925.65
449.73	6911.60
449.91	7187.79
450.10	7030.97
450.28	7098.84
450.46	7087.14
450.65	7267.36
450.83	7122.25
451.02	7091.82
451.20	7328.22
451.39	7215.87
451.57	7194.81
451.76	7042.67
451.94	7105.87
452.13	7265.02
452.31	7143.32
452.49	7012.24
452.68	7124.59
452.86	7049.69
453.05	7279.07
453.23	7227.57
453.42	7246.30
453.60	7239.28
453.78	7295.45
453.97	7297.79
454.15	7293.11
454.34	7243.96
454.52	7651.21
454.70	7389.07
454.89	7379.71
455.07	7618.44
455.26	7573.97
455.44	7564.61
455.62	7683.98
455.81	7723.77
455.99	7847.82
456.17	7922.71
456.36	7772.92
456.54	7578.65
456.73	8009.31
456.91	8189.53
457.09	7927.39
457.28	8290.18
457.46	7850.16
457.64	8294.86
457.83	7903.99
458.01	7971.86
458.19	8304.22
458.38	7939.10
458.56	8138.04
458.74	8339.33
458.93	8051.44
459.11	8170.81
459.29	8159.11
459.48	8241.03
459.66	8297.20
459.84	8458.70
460.03	8395.50
460.21	8280.82
460.39	8421.25
460.57	8435.29
460.76	8386.14
460.94	8587.43
461.12	8587.43
461.31	8573.38
461.49	8444.65
461.67	8589.77
461.85	8678.71
462.04	8592.11
462.22	9219.37
462.40	8798.07
462.59	8645.94
462.77	8816.80
462.95	8987.66
463.13	8851.91
463.32	8793.39
463.50	8891.70
463.68	8812.12
463.86	8973.61
464.05	9055.53
464.23	8856.59
464.41	8875.31
464.59	8669.34
464.78	9137.45
464.96	8959.57
465.14	8915.10
465.32	9167.88
465.50	9184.26
465.69	9493.21
465.87	9160.86
466.05	9142.13
466.23	9219.37
466.41	9123.41
466.60	9188.94
466.78	8877.65
466.96	9205.33
467.14	9245.12
467.32	9020.42
467.51	9390.23
467.69	9158.52
467.87	9245.12
468.05	9523.64
468.23	9245.12
468.41	9275.54
468.60	9584.49
468.78	9497.89
468.96	9467.47
469.14	9575.13
469.32	9605.56
469.50	9488.53
469.69	9659.39
469.87	9607.90
470.05	9804.50
470.23	9783.44
470.41	9717.90
470.59	9888.76
470.77	9940.26
470.95	10057.28
471.14	10129.84
471.32	9949.62
471.50	10190.69
471.68	10303.04
471.86	10171.97
472.04	10284.31
472.22	10509.01
472.40	9949.62
472.58	10317.08
472.77	10373.25
472.95	10523.05
473.13	10665.82
473.31	10473.90
473.49	10534.75
473.67	10424.75
473.85	10733.70
474.03	10775.83
474.21	10988.82
474.39	10981.79
474.57	11089.46
474.75	10988.82
474.93	11173.72
475.12	11098.82
475.30	11157.33
475.48	11028.60
475.66	11239.25
475.84	11300.11
476.02	11372.66
476.20	11438.20
476.38	11541.18
476.56	11910.99
476.74	11838.43
476.92	11740.13
477.10	11637.14
477.28	11983.54
477.46	11896.94
477.64	12189.51
477.82	12334.62
478.00	12463.35
478.18	12381.43
478.36	12428.24
478.54	12671.66
478.72	12645.91
478.90	12706.77
479.08	12908.05
479.26	13085.94
479.44	12989.97
479.62	13221.69
479.80	13334.03
479.98	13298.92
480.16	13549.36
480.34	13420.63
480.52	13703.84
480.70	13907.46
480.88	13486.17
481.06	13865.33
481.24	13884.06
481.41	14097.05
481.59	14094.71
481.77	14258.54
481.95	14321.74
482.13	14415.36
482.31	14714.95
482.49	14771.12
482.67	14843.68
482.85	14766.44
483.03	15084.75
483.21	15096.46
483.39	15250.93
483.57	15454.56
483.74	15227.53
483.92	15428.81
484.10	15541.16
484.28	15571.58
484.46	16058.42
484.64	16189.49
484.82	15999.90
485.00	16072.46
485.18	16133.31
485.35	16348.64
485.53	16060.76
485.71	15906.28
485.89	16142.67
486.07	15988.20
486.25	16702.06
486.43	16814.41
486.61	17111.66
486.78	17097.61
486.96	16992.29
487.14	17364.43
487.32	17802.11
487.50	17926.16
487.68	18101.70
487.85	18101.70
488.03	18277.24
488.21	18295.97
488.39	18625.98
488.57	18546.40
488.75	18366.18
488.92	18827.27
489.10	19227.50
489.28	19229.84
489.46	19522.41
489.64	19396.02
489.81	20140.31
489.99	20175.42
490.17	19728.38
490.35	20084.14
490.53	20269.04
490.70	20290.10
490.88	20730.12
491.06	20563.95
491.24	20395.43
491.41	20634.16
491.59	20484.37
491.77	20507.77
491.95	21081.21
492.13	21048.44
492.30	21532.93
492.48	21710.81
492.66	21628.89
492.84	21738.90
493.01	22251.47
493.19	21727.19
493.37	21834.86
493.54	21884.01
493.72	22036.14
493.90	22735.96
494.08	22780.43
494.25	22841.29
494.43	23065.98
494.61	22874.06
494.79	23126.83
494.96	23400.68
495.14	23222.80
495.32	23342.16
495.49	23620.69
495.67	23941.34
495.85	23854.74
496.02	24077.09
496.20	24362.64
496.38	24219.86
496.55	24161.35
496.73	24762.87
496.91	24907.98
497.09	24379.02
497.26	24886.92
497.44	25408.86
497.62	24877.55
497.79	25139.69
497.97	24989.90
498.14	25415.88
498.32	25406.52
498.50	25771.64
498.67	25757.60
498.85	25883.98
499.03	25879.30
499.20	26089.95
499.38	26148.46
499.56	26209.32
499.73	26237.41
499.91	26190.59
500.08	26588.49
500.26	26471.46
500.44	26146.12
500.61	26504.23
500.79	26314.64
500.97	26618.91
501.14	27201.71
501.32	26803.82
501.49	27197.02
501.67	26946.59
501.84	26991.06
502.02	27229.79
502.20	27393.63
502.37	27466.19
502.55	27548.11
502.72	27791.52
502.90	27936.63
503.07	27374.91
503.25	27721.30
503.43	27938.97
503.60	28245.58
503.78	27789.18
503.95	27730.67
504.13	28280.69
504.30	28254.95
504.48	28245.58
504.65	28357.93
504.83	28931.36
505.01	28900.94
505.18	28819.02
505.36	29235.63
505.53	29015.62
505.71	29291.80
505.88	29963.54
506.06	29249.67
506.23	29151.37
506.41	29177.12
506.58	29626.50
506.76	29532.88
506.93	29680.33
507.11	29727.14
507.28	30040.78
507.46	30008.01
507.63	29900.34
507.81	29813.74
507.98	30251.42
508.16	30129.72
508.33	30382.49
508.50	30749.96
508.68	30492.50
508.85	30726.55
509.03	31033.16
509.20	30794.43
509.38	30967.63
509.55	31023.80
509.73	31201.68
509.90	31433.39
510.08	30969.97
510.25	31117.42
510.42	31452.12
510.60	31882.78
510.77	31585.53
510.95	31761.07
511.12	31955.33
511.30	31761.07
511.47	32343.86
511.64	32243.22
511.82	32072.36
511.99	31988.10
512.17	32442.17
512.34	32093.43
512.51	32294.71
512.69	32308.76
512.86	32587.28
513.04	32823.67
513.21	32568.55
513.38	32577.92
513.56	32617.71
513.73	32744.09
513.90	33153.69
514.08	32662.18
514.25	33006.23
514.43	32936.02
514.60	33034.32
514.77	33186.46
514.95	33596.05
515.12	33223.90
515.29	33209.86
515.47	33970.54
515.64	33996.28
515.81	33453.28
515.99	33591.37
516.16	33546.90
516.33	33404.13
516.51	33624.14
516.68	33111.56
516.85	32870.48
517.03	33242.63
517.20	33886.28
517.37	34155.44
517.54	33897.98
517.72	33825.42
517.89	33759.89
518.06	33881.60
518.24	33989.26
518.41	33792.65
518.58	34342.68
518.75	34412.90
518.93	34646.95
519.10	34628.23
519.27	34394.17
519.45	35026.12
519.62	35126.76
519.79	35220.38
519.96	34850.58
520.14	34948.88
520.31	34960.58
520.48	35552.74
520.65	35648.70
520.83	35119.74
521.00	35674.45
521.17	35662.74
521.34	35653.38
521.52	36180.00
521.69	35899.14
521.86	36322.77
522.03	35903.82
522.20	35765.73
522.38	36205.75
522.55	36250.22
522.72	36112.13
522.89	36194.04
523.07	36587.25
523.24	36177.66
523.41	36807.26
523.58	36355.54
523.75	37010.89
523.92	36957.06
524.10	36882.16
524.27	37048.34
524.44	37261.33
524.61	36643.43
524.78	37471.98
524.96	37668.58
525.13	37558.58
525.30	37270.69
525.47	37401.76
525.64	37064.72
525.81	37352.61
525.98	37193.45
526.16	36898.55
526.33	37303.46
526.50	37233.24
526.67	36708.96
526.84	37577.30
527.01	36870.46
527.18	37340.91
527.36	37703.69
527.53	37713.05
527.70	38281.80
527.87	38115.62
528.04	38050.09
528.21	38066.47
528.38	38150.73
528.55	38366.06
528.72	38438.62
528.89	38476.07
529.07	38068.81
529.24	38567.35
529.41	38789.70
529.58	38637.56
529.75	39108.01
529.92	39131.42
530.09	38642.24
530.26	38766.29
530.43	39288.23
530.60	38649.27
530.77	38738.21
530.94	39129.08
531.11	39093.97
531.28	39166.52
531.46	39515.26
531.63	39290.57
531.80	39089.29
531.97	39093.97
532.14	38815.44
532.31	39086.95
532.48	39023.75
532.65	39426.32
532.82	38888.00
532.99	39641.65
533.16	39505.90
533.33	39477.82
533.50	39957.63
533.67	39908.47
533.84	39456.75
534.01	39445.05
534.18	39533.99
534.35	39885.07
534.52	40105.08
534.69	39934.22
534.86	40032.52
535.03	40002.10
535.20	40402.33
535.37	40713.62
535.54	40954.69
535.71	40245.51
535.88	40416.37
536.05	40294.66
536.22	40507.65
536.38	40584.89
536.55	40458.50
536.72	40605.95
536.89	40421.05
537.06	40170.61
537.23	40748.73
537.40	40690.21
537.57	41392.37
537.74	40744.05
537.91	41053.00
538.08	40926.61
538.25	40718.30
538.42	41048.32
538.59	41074.06
538.75	40591.91
538.92	41071.72
539.09	41141.94
539.26	41317.48
539.43	41275.35
539.60	41123.21
539.77	41062.36
539.94	40933.63
540.11	41226.20
540.28	41696.64
540.44	41242.58
540.61	41422.80
540.78	40994.48
540.95	41067.04
541.12	41127.89
541.29	41378.33
541.46	41308.11
541.62	41514.08
541.79	42117.94
541.96	41031.93
542.13	41771.54
542.30	41464.93
542.47	41596.00
542.63	41858.14
542.80	41617.07
542.97	42106.24
543.14	42831.80
543.31	42309.86
543.48	42197.52
543.64	42740.52
543.81	42724.14
543.98	42600.09
544.15	42607.11
544.32	42529.87
544.48	42838.83
544.65	42548.60
544.82	42616.47
544.99	42384.76
545.16	42560.30
545.32	42490.09
545.49	42909.04
545.66	42843.51
545.83	42871.59
546.00	43248.42
546.16	42939.47
546.33	42462.00
546.50	42562.64
546.67	42850.53
546.83	42995.64
547.00	43299.91
547.17	42820.10
547.34	42827.12
547.50	43000.32
547.67	43255.44
547.84	43131.39
548.00	43215.65
548.17	43901.43
548.34	43178.20
548.51	43681.42
548.67	43482.47
548.84	43524.60
549.01	43325.66
549.18	43098.62
549.34	43491.83
549.51	43470.77
549.68	43196.93
549.84	43821.85
550.01	43981.01
550.18	43983.35
550.34	43351.40
550.51	43814.83
550.68	43761.00
550.84	43145.44
551.01	43899.09
551.18	43395.87
551.34	43681.42
551.51	43676.74
551.68	44083.99
551.84	43533.96
552.01	43704.82
552.18	43629.93
552.34	43515.24
552.51	44198.68
552.68	43915.47
552.84	44069.95
553.01	44044.20
553.18	44067.61
553.34	44369.54
553.51	44596.57
553.67	44229.10
553.84	44720.62
554.01	44278.25
554.17	44673.81
554.34	44594.23
554.51	44224.42
554.67	44383.58
554.84	44093.35
555.00	44346.13
555.17	44498.26
555.33	44659.76
555.50	44353.15
555.67	44479.54
555.83	44332.09
556.00	44568.48
556.16	44708.91
556.33	44428.05
556.50	44458.48
556.66	44673.81
556.83	44182.29
556.99	44748.70
557.16	44905.52
557.32	44706.57
557.49	44776.79
557.65	44488.90
557.82	44982.76
557.98	44631.68
558.15	45118.51
558.32	44509.97
558.48	44509.97
558.65	44385.92
558.81	44219.74
558.98	44582.52
559.14	45088.08
559.31	44449.11
559.47	44795.51
559.64	44739.34
559.80	44933.60
559.97	44610.61
560.13	44811.90
560.30	45010.84
560.46	45127.87
560.63	45052.97
560.79	44989.78
560.96	45111.49
561.12	44896.16
561.29	44797.85
561.45	44964.03
561.61	45179.36
561.78	44914.88
561.94	45036.59
562.11	44601.25
562.27	44765.09
562.44	45392.35
562.60	45359.58
562.77	44982.76
562.93	45092.76
563.10	45827.69
563.26	44980.42
563.42	45408.73
563.59	45415.76
563.75	45022.54
563.92	45556.19
564.08	45144.25
564.24	45617.04
564.41	45432.14
564.57	45584.27
564.74	45317.45
564.90	45516.40
565.07	45567.89
565.23	45336.18
565.39	45111.49
565.56	45272.98
565.72	45181.70
565.88	45312.77
566.05	44889.13
566.21	44807.22
566.38	45160.64
566.54	45272.98
566.70	45708.32
566.87	45722.37
567.03	45729.39
567.19	45907.27
567.36	45567.89
567.52	45654.49
567.68	45537.46
567.85	45481.29
568.01	45668.53
568.17	45324.47
568.34	45670.87
568.50	45661.51
568.66	45446.18
568.83	45448.52
568.99	45439.16
569.15	45394.69
569.32	45572.57
569.48	45734.07
569.64	45647.47
569.81	45656.83
569.97	45989.19
570.13	45165.32
570.30	45095.10
570.46	45270.64
570.62	44926.58
570.78	45492.99
570.95	45078.72
571.11	45312.77
571.27	45303.41
571.43	45097.44
571.60	45654.49
571.76	45343.20
571.92	45574.91
572.09	45750.45
572.25	45439.16
572.41	45577.25
572.57	46052.38
572.74	45563.21
572.90	45539.80
573.06	45769.18
573.22	45940.04
573.38	45897.91
573.55	45373.63
573.71	45698.96
573.87	45757.47
574.03	45441.50
574.20	45537.46
574.36	45340.86
574.52	45860.46
574.68	45488.31
574.84	45801.94
575.01	45656.83
575.17	45972.80
575.33	45720.02
575.49	45773.86
575.65	45764.49
575.82	46059.40
575.98	45308.09
576.14	45923.65
576.30	46019.61
576.46	45551.51
576.62	45261.28
576.79	45497.67
576.95	45539.80
577.11	45837.05
577.27	45727.05
577.43	45488.31
577.59	45567.89
577.75	45916.63
577.92	45460.23
578.08	45823.01
578.24	45675.55
578.40	45631.08
578.56	45357.24
578.72	45815.99
578.88	45993.87
579.04	45851.09
579.21	45705.98
579.37	45790.24
579.53	46223.24
579.69	45806.62
579.85	45364.26
580.01	45741.09
580.17	45579.59
580.33	45422.78
580.49	45839.39
580.65	45404.05
580.82	45647.47
580.98	45495.33
581.14	45640.45
581.30	45734.07
581.46	45855.78
581.62	45656.83
581.78	46181.11
581.94	46059.40
582.10	45944.72
582.26	45888.54
582.42	45937.69
582.58	45542.14
582.74	45855.78
582.90	46073.45
583.06	45750.45
583.22	45993.87
583.38	46199.83
583.54	45975.14
583.70	45654.49
583.86	45963.44
584.02	45574.91
584.18	45567.89
584.34	45610.02
584.50	45738.75
584.66	46080.47
584.82	45539.80
584.98	46256.01
585.14	45748.11
585.30	45511.72
585.46	45832.37
585.62	45874.50
585.78	45940.04
585.94	45439.16
586.10	45720.02
586.26	45874.50
586.42	46099.19
586.58	46188.13
586.74	46113.23
586.90	45682.58
587.06	45998.55
587.22	46363.67
587.38	45462.57
587.54	45612.36
587.70	46017.27
587.86	45998.55
588.02	45350.22
588.18	45701.30
588.34	45687.26
588.49	45415.76
588.65	45263.62
588.81	45092.76
588.97	45572.57
589.13	45382.99
589.29	45708.32
589.45	45682.58
589.61	45542.14
589.77	45741.09
589.93	46007.91
590.08	45879.18
