SpectraSuite Data File
++++++++++++++++++++++++++++++++++++
Date: Fri Oct 25 11:33:28 EDT 2013
User: price-jones
Dark Spectrum Present: No
Reference Spectrum Present: No
Number of Sampled Component Spectra: 1
Spectrometers: USB2+H05261
Integration Time (usec): 100000 (USB2+H05261)
Spectra Averaged: 1 (USB2+H05261)
Boxcar Smoothing: 0 (USB2+H05261)
Correct for Electrical Dark: No (USB2+H05261)
Strobe/Lamp Enabled: No (USB2+H05261)
Correct for Detector Non-linearity: No (USB2+H05261)
Correct for Stray Light: No (USB2+H05261)
Number of Pixels in Processed Spectrum: 2048
>>>>>Begin Processed Spectral Data<<<<<
365.73	231.71
365.92	231.71
366.12	231.71
366.32	290.23
366.52	205.97
366.72	166.18
366.91	175.54
367.11	191.92
367.31	166.18
367.51	203.63
367.70	175.54
367.90	201.29
368.10	79.58
368.30	156.82
368.49	166.18
368.69	196.60
368.89	191.92
369.09	210.65
369.28	229.37
369.48	224.69
369.68	168.52
369.87	220.01
370.07	231.71
370.27	318.31
370.47	276.18
370.66	435.34
370.86	493.85
371.06	543.00
371.25	585.13
371.45	535.98
371.65	573.43
371.84	472.79
372.04	610.88
372.24	484.49
372.44	566.41
372.63	589.82
372.83	610.88
373.03	585.13
373.22	575.77
373.42	601.52
373.62	681.10
373.81	543.00
374.01	688.12
374.21	669.39
374.40	575.77
374.60	660.03
374.79	657.69
374.99	606.20
375.19	615.56
375.38	674.07
375.58	655.35
375.78	716.20
375.97	692.80
376.17	655.35
376.37	653.01
376.56	601.52
376.76	638.97
376.95	622.58
377.15	702.16
377.35	697.48
377.54	702.16
377.74	709.18
377.93	702.16
378.13	660.03
378.33	702.16
378.52	615.56
378.72	741.95
378.91	669.39
379.11	725.57
379.31	667.05
379.50	681.10
379.70	718.54
379.89	713.86
380.09	716.20
380.28	681.10
380.48	720.88
380.68	702.16
380.87	741.95
381.07	748.97
381.26	753.65
381.46	699.82
381.65	767.70
381.85	777.06
382.04	784.08
382.24	760.67
382.43	739.61
382.63	746.63
382.83	774.72
383.02	755.99
383.22	823.87
383.41	748.97
383.61	819.19
383.80	858.98
384.00	819.19
384.19	821.53
384.39	891.74
384.58	877.70
384.78	894.08
384.97	854.30
385.17	863.66
385.36	828.55
385.56	833.23
385.75	884.72
385.95	821.53
386.14	849.61
386.34	901.11
386.53	868.34
386.72	873.02
386.92	896.43
387.11	940.90
387.31	847.27
387.50	905.79
387.70	1001.75
387.89	828.55
388.09	912.81
388.28	915.15
388.48	1006.43
388.67	952.60
388.86	959.62
389.06	1001.75
389.25	922.17
389.45	954.94
389.64	903.45
389.84	983.02
390.03	943.24
390.22	933.87
390.42	964.30
390.61	910.47
390.81	1013.45
391.00	957.28
391.19	987.71
391.39	1053.24
391.58	1109.41
391.78	1006.43
391.97	1083.67
392.16	1048.56
392.36	1086.01
392.55	1048.56
392.75	1100.05
392.94	1039.20
393.13	1011.11
393.33	1062.60
393.52	1097.71
393.71	1022.81
393.91	1172.61
394.10	1043.88
394.29	1139.84
394.49	1064.94
394.68	1139.84
394.88	1116.44
395.07	1146.86
395.26	1137.50
395.46	1177.29
395.65	1193.67
395.84	1277.93
396.04	1317.72
396.23	1210.06
396.42	1172.61
396.62	1174.95
396.81	1240.48
397.00	1263.89
397.19	1247.51
397.39	1151.54
397.58	1224.10
397.77	1146.86
397.97	1228.78
398.16	1242.82
398.35	1263.89
398.55	1219.42
398.74	1252.19
398.93	1266.23
399.12	1287.29
399.32	1301.34
399.51	1301.34
399.70	1327.08
399.90	1310.70
400.09	1423.05
400.28	1366.87
400.47	1413.68
400.67	1397.30
400.86	1439.43
401.05	1397.30
401.24	1519.01
401.44	1439.43
401.63	1437.09
401.82	1474.54
402.01	1404.32
402.21	1565.82
402.40	1465.18
402.59	1472.20
402.78	1556.46
402.97	1535.39
403.17	1490.92
403.36	1530.71
403.55	1621.99
403.74	1582.20
403.93	1542.41
404.13	1678.16
404.32	1558.80
404.51	1624.33
404.70	1636.03
404.89	1624.33
405.09	1682.85
405.28	1687.53
405.47	1603.27
405.66	1699.23
405.85	1755.40
406.05	1554.12
406.24	1764.76
406.43	1722.63
406.62	1849.02
406.81	1785.83
407.00	1732.00
407.20	1682.85
407.39	1760.08
407.58	1863.07
407.77	1977.75
407.96	1856.04
408.15	1823.28
408.34	1762.42
408.54	1856.04
408.73	1959.03
408.92	1984.77
409.11	1949.67
409.30	1867.75
409.49	1881.79
409.68	2001.16
409.87	1968.39
410.07	1970.73
410.26	2050.31
410.45	2157.97
410.64	2043.29
410.83	2045.63
411.02	2165.00
411.21	2326.49
411.40	2115.84
411.59	2230.53
411.78	2258.62
411.98	2263.30
412.17	2101.80
412.36	2328.83
412.55	2265.64
412.74	2335.85
412.93	2246.91
413.12	2321.81
413.31	2410.75
413.50	2506.71
413.69	2487.99
413.88	2541.82
414.07	2431.82
414.26	2523.10
414.45	2523.10
414.64	2546.50
414.83	2623.74
415.02	2696.30
415.22	2572.25
415.41	2677.57
415.60	2719.70
415.79	2684.59
415.98	2794.60
416.17	2712.68
416.36	2672.89
416.55	2696.30
416.74	2810.98
416.93	2822.69
417.12	2881.20
417.31	2785.24
417.50	2869.50
417.69	2942.05
417.88	2967.80
418.07	2937.37
418.26	2946.73
418.45	2979.50
418.64	3096.53
418.83	3126.96
419.02	2932.69
419.21	3096.53
419.39	3136.32
419.58	3042.70
419.77	3073.12
419.96	3138.66
420.15	3159.72
420.34	3082.49
420.53	3180.79
420.72	3344.63
420.91	3267.39
421.10	3302.50
421.29	3183.13
421.48	3227.60
421.67	3286.11
421.86	3276.75
422.05	3323.56
422.24	3328.24
422.43	3407.82
422.61	3293.13
422.80	3468.67
422.99	3405.48
423.18	3370.37
423.37	3524.85
423.56	3405.48
423.75	3414.84
423.94	3169.09
424.13	3143.34
424.32	3265.05
424.50	3361.01
424.69	3524.85
424.88	3463.99
425.07	3463.99
425.26	3328.24
425.45	3417.18
425.64	3396.12
425.83	3585.70
426.01	3419.52
426.20	3412.50
426.39	3543.57
426.58	3461.65
426.77	3529.53
426.96	3442.93
427.15	3545.91
427.33	3618.47
427.52	3520.17
427.71	3597.40
427.90	3604.42
428.09	3581.02
428.28	3644.21
428.46	3735.50
428.65	3794.01
428.84	3758.90
429.03	3691.02
429.22	3791.67
429.40	3805.71
429.59	3681.66
429.78	3653.58
429.97	3620.81
430.16	3716.77
430.34	3822.09
430.53	3936.78
430.72	3859.54
430.91	3782.31
431.10	3843.16
431.28	3983.59
431.47	4002.32
431.66	3981.25
431.85	3920.40
432.03	4009.34
432.22	4142.75
432.41	3995.29
432.60	4063.17
432.79	4037.42
432.97	4163.81
433.16	3999.98
433.35	4154.45
433.54	4184.88
433.72	4236.37
433.91	4376.80
434.10	4147.43
434.28	4161.47
434.47	4273.82
434.66	4355.74
434.85	4290.20
435.03	4306.59
435.22	4266.80
435.41	4395.53
435.59	4491.49
435.78	4500.85
435.97	4465.74
436.16	4360.42
436.34	4456.38
436.53	4404.89
436.72	4437.66
436.90	4482.13
437.09	4524.26
437.28	4648.30
437.46	4507.87
437.65	4650.64
437.84	4613.20
438.02	4589.79
438.21	4528.94
438.40	4615.54
438.58	4734.90
438.77	4697.46
438.96	4847.25
439.14	4994.70
439.33	4877.68
439.52	4894.06
439.70	4844.91
439.89	4994.70
440.08	5020.45
440.26	5074.28
440.45	5121.09
440.63	5135.14
440.82	5116.41
441.01	5118.75
441.19	5254.50
441.38	5355.15
441.57	5362.17
441.75	5277.91
441.94	5301.31
442.12	5228.76
442.31	5476.85
442.50	5628.99
442.68	5355.15
442.87	5341.10
443.05	5401.96
443.24	5671.12
443.43	5614.95
443.61	5537.71
443.80	5643.03
443.98	5483.88
444.17	5392.59
444.35	5497.92
444.54	5760.06
444.73	5657.07
444.91	5514.30
445.10	5776.44
445.28	5741.33
445.47	5603.24
445.65	5643.03
445.84	5720.27
446.02	5799.85
446.21	5781.12
446.39	5834.96
446.58	5811.55
446.77	5792.83
446.95	5570.48
447.14	5841.98
447.32	5834.96
447.51	5710.91
447.69	5696.86
447.88	5811.55
448.06	5600.90
448.25	5790.49
448.43	5849.00
448.62	5856.02
448.80	5750.70
448.99	5921.56
449.17	5970.71
449.36	5727.29
449.54	6143.91
449.73	6069.01
449.91	6242.21
450.10	6146.25
450.28	6197.74
450.46	6146.25
450.65	6073.69
450.83	6141.57
451.02	6136.88
451.20	6218.80
451.39	6122.84
451.57	6260.93
451.76	6094.76
451.94	6274.98
452.13	6195.40
452.31	6209.44
452.49	6342.85
452.68	6415.41
452.86	6422.43
453.05	6279.66
453.23	6455.20
453.42	6324.13
453.60	6494.99
453.78	6363.92
453.97	6487.96
454.15	6476.26
454.34	6427.11
454.52	6689.25
454.70	6448.18
454.89	6640.10
455.07	6555.84
455.26	6612.01
455.44	6754.79
455.62	6902.24
455.81	6679.89
455.99	6841.39
456.17	6600.31
456.36	6829.68
456.54	6923.30
456.73	6820.32
456.91	6876.49
457.09	6977.14
457.28	7148.00
457.46	6885.86
457.64	7040.33
457.83	7052.03
458.01	7115.23
458.19	7201.83
458.38	7082.46
458.56	7185.44
458.74	7126.93
458.93	7166.72
459.11	7234.60
459.29	7110.55
459.48	7363.33
459.66	7075.44
459.84	7368.01
460.03	7543.55
460.21	7344.60
460.39	7403.11
460.57	7552.91
460.76	7447.58
460.94	7403.11
461.12	7583.34
461.31	7529.50
461.49	7616.10
461.67	7588.02
461.85	7716.75
462.04	7496.74
462.22	8269.11
462.40	7747.17
462.59	7761.22
462.77	7730.79
462.95	7866.54
463.13	7801.01
463.32	7805.69
463.50	7875.90
463.68	7899.31
463.86	7887.61
464.05	7864.20
464.23	7946.12
464.41	8058.46
464.59	7719.09
464.78	8152.09
464.96	8030.38
465.14	7906.33
465.32	8030.38
465.50	8091.23
465.69	8170.81
465.87	7981.23
466.05	8161.45
466.23	8042.08
466.41	8053.78
466.60	8231.66
466.78	8285.50
466.96	8198.90
467.14	8229.32
467.32	8093.57
467.51	8512.53
467.69	8278.47
467.87	8383.80
468.05	8564.02
468.23	8273.79
468.41	8336.99
468.60	8716.16
468.78	8613.17
468.96	8535.93
469.14	8627.21
469.32	8652.96
469.50	8482.10
469.69	8793.39
469.87	8669.34
470.05	8638.92
470.23	8791.05
470.41	8720.84
470.59	8990.00
470.77	8849.57
470.95	8718.50
471.14	9039.15
471.32	8959.57
471.50	9001.70
471.68	9085.96
471.86	9149.15
472.04	9125.75
472.22	9327.03
472.40	9076.60
472.58	9266.18
472.77	9310.65
472.95	9217.03
473.13	9682.80
473.31	9582.15
473.49	9420.66
473.67	9317.67
473.85	9497.89
474.03	9788.12
474.21	9785.78
474.39	9956.64
474.57	9738.97
474.75	10047.92
474.93	9961.32
475.12	10017.49
475.30	10073.67
475.48	9900.47
475.66	10251.55
475.84	10005.79
476.02	10326.44
476.20	10256.23
476.38	10377.94
476.56	10656.46
476.74	10546.45
476.92	10420.06
477.10	10527.73
477.28	10684.55
477.46	10710.29
477.64	10810.93
477.82	11136.27
478.00	11176.06
478.18	11117.54
478.36	11463.94
478.54	11604.38
478.72	11487.35
478.90	11431.18
479.08	11688.64
479.26	11805.66
479.44	11744.81
479.62	11978.86
479.80	11829.07
479.98	12084.19
480.16	12351.01
480.34	12351.01
480.52	12416.54
480.70	12496.12
480.88	12112.27
481.06	12269.09
481.24	12308.88
481.41	12493.78
481.59	12828.48
481.77	12844.86
481.95	13067.21
482.13	13060.19
482.31	12947.84
482.49	13626.60
482.67	13446.38
482.85	13406.59
483.03	13591.49
483.21	13741.29
483.39	13818.52
483.57	13743.63
483.74	14029.17
483.92	14134.50
484.10	14164.92
484.28	14532.39
484.46	14516.00
484.64	14614.30
484.82	14340.46
485.00	14712.61
485.18	14799.21
485.35	15061.35
485.53	15152.63
485.71	15246.25
485.89	15389.02
486.07	15435.83
486.25	15777.55
486.43	15709.68
486.61	15859.47
486.78	15829.04
486.96	16203.53
487.14	16060.76
487.32	16393.11
487.50	16290.13
487.68	16606.10
487.85	16255.02
488.03	16713.77
488.21	17085.91
488.39	16950.16
488.57	16957.18
488.75	17224.00
488.92	17111.66
489.10	17731.90
489.28	17441.67
489.46	17888.71
489.64	17846.58
489.81	18202.35
489.99	18380.23
490.17	18022.12
490.35	18532.36
490.53	18679.82
490.70	18815.57
490.88	18714.92
491.06	18972.38
491.24	19084.73
491.41	19232.18
491.59	19068.34
491.77	19264.95
491.95	19346.87
492.13	19634.75
492.30	19637.09
492.48	19630.07
492.66	19681.56
492.84	19981.15
493.01	19861.79
493.19	20379.04
493.37	20568.63
493.54	20519.48
493.72	20627.14
493.90	20933.75
494.08	21256.75
494.25	20812.04
494.43	21326.96
494.61	21415.90
494.79	21331.64
494.96	21333.98
495.14	21184.19
495.32	21598.46
495.49	21638.25
495.67	22242.11
495.85	21837.20
496.02	22085.30
496.20	22532.34
496.38	22450.42
496.55	22223.39
496.73	22972.36
496.91	22663.41
497.09	22764.05
497.26	22752.35
497.44	22920.87
497.62	23278.97
497.79	23344.50
497.97	23543.45
498.14	23892.19
498.32	23562.17
498.50	23934.32
498.67	24084.11
498.85	23770.48
499.03	24187.10
499.20	24006.87
499.38	24664.57
499.56	24692.65
499.73	24638.82
499.91	24680.95
500.08	24699.67
500.26	24643.50
500.44	24891.60
500.61	24849.47
500.79	24884.58
500.97	24910.32
501.14	25230.98
501.32	25275.45
501.49	25376.09
501.67	25362.04
501.84	25921.43
502.02	25839.51
502.20	25869.94
502.37	25523.54
502.55	25823.13
502.72	26218.68
502.90	26199.96
503.07	25919.09
503.25	26122.72
503.43	26068.89
503.60	26349.75
503.78	26548.70
503.95	26494.86
504.13	26274.85
504.30	26948.93
504.48	26508.91
504.65	26939.57
504.83	27105.74
505.01	27339.80
505.18	27316.39
505.36	27035.53
505.53	27419.38
505.71	27660.45
505.88	27494.27
506.06	27419.38
506.23	27744.71
506.41	27637.05
506.58	28025.57
506.76	28053.66
506.93	28198.77
507.11	27981.10
507.28	28390.70
507.46	27812.59
507.63	28114.52
507.81	28559.22
507.98	27866.42
508.16	28643.48
508.33	28549.85
508.50	29006.26
508.68	28865.83
508.85	29097.54
509.03	28861.15
509.20	29359.68
509.38	29244.99
509.55	29415.85
509.73	29418.19
509.90	29394.79
510.08	29680.33
510.25	29715.44
510.42	29670.97
510.60	29465.00
510.77	29984.60
510.95	30106.31
511.12	29795.02
511.30	29919.07
511.47	30206.95
511.64	30246.74
511.82	30714.85
511.99	30703.15
512.17	30651.66
512.34	30670.38
512.51	30962.95
512.69	31131.47
512.86	30677.40
513.04	30843.58
513.21	31185.30
513.38	31101.04
513.56	31084.65
513.73	31075.29
513.90	31527.02
514.08	31075.29
514.25	31475.52
514.43	31517.65
514.60	31594.89
514.77	31634.68
514.95	31857.03
515.12	31630.00
515.29	31751.71
515.47	32107.47
515.64	31990.44
515.81	31999.80
515.99	32587.28
516.16	32414.08
516.33	32224.50
516.51	32376.63
516.68	32336.84
516.85	32697.28
517.03	32882.19
517.20	33006.23
517.37	32727.71
517.54	32711.33
517.72	32744.09
517.89	32985.17
518.06	33535.20
518.24	33132.62
518.41	33174.75
518.58	33081.13
518.75	33207.52
518.93	33570.30
519.10	33474.34
519.27	33762.23
519.45	33799.68
519.62	33790.31
519.79	33972.88
519.96	33935.43
520.14	34136.71
520.31	33516.47
520.48	33972.88
520.65	34485.45
520.83	34541.63
521.00	34796.74
521.17	34263.10
521.34	34363.75
521.52	34916.11
521.69	34663.33
521.86	34939.52
522.03	34969.94
522.20	34792.06
522.38	35314.00
522.55	35232.08
522.72	34752.27
522.89	35061.22
523.07	35772.75
523.24	35353.79
523.41	35515.29
523.58	35140.80
523.75	35590.19
523.92	35512.95
524.10	35384.22
524.27	35674.45
524.44	35950.63
524.61	35672.10
524.78	35835.94
524.96	36055.95
525.13	36247.88
525.30	36453.84
525.47	36404.69
525.64	35985.74
525.81	36573.21
525.98	36708.96
526.16	36304.05
526.33	36699.60
526.50	36591.94
526.67	36439.80
526.84	36460.87
527.01	36552.15
527.18	36725.35
527.36	37181.75
527.53	37144.30
527.70	37003.87
527.87	37275.37
528.04	36971.10
528.21	37141.96
528.38	37024.93
528.55	37680.28
528.72	37336.23
528.89	37226.22
529.07	37277.71
529.24	37673.26
529.41	37429.85
529.58	37525.81
529.75	38031.36
529.92	37624.11
530.09	37745.82
530.26	37778.59
530.43	38244.35
530.60	37914.34
530.77	37757.52
530.94	38068.81
531.11	37944.76
531.28	38171.80
531.46	38199.88
531.63	38284.14
531.80	38550.96
531.97	38394.15
532.14	38501.81
532.31	38356.70
532.48	38817.78
532.65	38916.09
532.82	38225.63
532.99	38852.89
533.16	38820.13
533.33	39175.89
533.50	39222.70
533.67	38892.68
533.84	38712.46
534.01	38885.66
534.18	38927.79
534.35	38995.67
534.52	38986.30
534.69	39555.05
534.86	39672.08
535.03	39662.72
535.20	39133.76
535.37	39716.55
535.54	39402.92
535.71	39658.04
535.88	40053.59
536.05	40011.46
536.22	39833.58
536.38	40062.95
536.55	39704.85
536.72	40151.89
536.89	39763.36
537.06	39978.69
537.23	39936.56
537.40	40289.98
537.57	39824.22
537.74	39672.08
537.91	40217.43
538.08	40304.02
538.25	39770.38
538.42	40215.08
538.59	40624.68
538.75	40301.68
538.92	40924.27
539.09	40701.92
539.26	40837.67
539.43	40612.98
539.60	40725.32
539.77	40790.86
539.94	41273.01
540.11	40910.22
540.28	41167.68
540.44	40687.87
540.61	41055.34
540.78	41125.55
540.95	41036.61
541.12	40849.37
541.29	40559.14
541.46	41031.93
541.62	41460.25
541.79	41668.56
541.96	41399.40
542.13	41296.41
542.30	41275.35
542.47	41530.47
542.63	41324.50
542.80	41734.09
542.97	41743.45
543.14	42277.10
543.31	41790.27
543.48	41886.23
543.64	42270.08
543.81	42431.57
543.98	41970.49
544.15	41965.81
544.32	42422.21
544.48	42246.67
544.65	42513.49
544.82	42384.76
544.99	42108.58
545.16	42157.73
545.32	41933.04
545.49	42775.63
545.66	42885.64
545.83	43182.88
546.00	43131.39
546.16	42658.60
546.33	42873.93
546.50	42462.00
546.67	43283.53
546.83	42375.40
547.00	42925.42
547.17	42703.07
547.34	42997.98
547.50	42679.67
547.67	43454.39
547.84	43262.46
548.00	43255.44
548.17	43367.79
548.34	43166.50
548.51	43232.04
548.67	43367.79
548.84	43295.23
549.01	42794.36
549.18	43292.89
549.34	43735.25
549.51	43447.36
549.68	43646.31
549.84	43938.88
550.01	43597.16
550.18	43536.30
550.34	43845.26
550.51	43962.28
550.68	43922.49
550.84	43538.65
551.01	44147.18
551.18	43674.40
551.34	43824.19
551.51	43885.04
551.68	44322.72
551.84	43562.05
552.01	43814.83
552.18	44233.78
552.34	43765.68
552.51	43782.06
552.68	44231.44
552.84	44156.55
553.01	44364.85
553.18	44563.80
553.34	44528.69
553.51	44243.15
553.67	44507.63
553.84	44624.65
554.01	44477.20
554.17	44622.31
554.34	44947.65
554.51	44491.24
554.67	44795.51
554.84	44893.82
555.00	44617.63
555.17	44519.33
555.33	44910.20
555.50	45134.89
555.67	44900.84
555.83	44790.83
556.00	45191.06
556.16	45125.53
556.33	45146.59
556.50	45074.04
556.66	45130.21
556.83	44634.02
556.99	45467.25
557.16	45434.48
557.32	45495.33
557.49	45230.85
557.65	45038.93
557.82	45048.29
557.98	45219.15
558.15	45272.98
558.32	45031.91
558.48	44814.24
558.65	45074.04
558.81	45668.53
558.98	45256.60
559.14	45631.08
559.31	45038.93
559.47	45523.42
559.64	45717.68
559.80	45563.21
559.97	45818.33
560.13	45141.91
560.30	45471.93
560.46	45858.12
560.63	46127.28
560.79	46288.77
560.96	45883.86
561.12	45827.69
561.29	45579.59
561.45	46078.13
561.61	45977.48
561.78	45532.78
561.94	45687.26
562.11	45921.31
562.27	46122.60
562.44	45808.96
562.60	45918.97
562.77	45996.21
562.93	45879.18
563.10	46457.29
563.26	45713.00
563.42	46136.64
563.59	46000.89
563.75	45860.46
563.92	46410.48
564.08	45617.04
564.24	46211.54
564.41	46260.69
564.57	45778.54
564.74	46316.86
564.90	46398.78
565.07	46096.85
565.23	45944.72
565.39	46522.83
565.56	46597.73
565.72	46314.52
565.88	46218.56
566.05	46178.77
566.21	46314.52
566.38	46223.24
566.54	46157.70
566.70	46555.60
566.87	46227.92
567.03	46752.20
567.19	46700.71
567.36	46225.58
567.52	46691.35
567.68	46955.83
567.85	46667.94
568.01	46745.18
568.17	46351.97
568.34	46808.37
568.50	46789.65
568.66	46506.44
568.83	46944.12
568.99	46777.95
569.15	46361.33
569.32	46628.15
569.48	46714.75
569.64	47100.94
569.81	47107.96
569.97	46429.21
570.13	46759.22
570.30	46541.55
570.46	46625.81
570.62	46887.95
570.78	46663.26
570.95	46639.86
571.11	47107.96
571.27	46469.00
571.43	46501.76
571.60	46735.82
571.76	46651.56
571.92	46894.97
572.09	46946.47
572.25	46724.11
572.41	46497.08
572.57	46988.60
572.74	47775.02
572.90	47044.77
573.06	46927.74
573.22	47124.35
573.38	47255.42
573.55	47086.90
573.71	47569.05
573.87	47063.49
574.03	47054.13
574.20	47206.26
574.36	47077.54
574.52	47194.56
574.68	47248.39
574.84	47316.27
575.01	47365.42
575.17	47299.89
575.33	46927.74
575.49	46946.47
575.65	47239.03
575.82	47360.74
575.98	47070.51
576.14	47210.95
576.30	47433.30
576.46	47407.55
576.62	47126.69
576.79	47019.02
576.95	46946.47
577.11	47037.75
577.27	47061.15
577.43	47033.07
577.59	47185.20
577.75	46890.29
577.92	46955.83
578.08	47217.97
578.24	46983.91
578.40	47732.89
578.56	47484.79
578.72	47224.99
578.88	47608.84
579.04	47107.96
579.21	47063.49
579.37	47374.78
579.53	47157.11
579.69	47068.17
579.85	47136.05
580.01	47234.35
580.17	47281.16
580.33	47344.36
580.49	47466.06
580.65	47693.10
580.82	47356.06
580.98	47131.37
581.14	46869.23
581.30	47194.56
581.46	47440.32
581.62	47501.17
581.78	47072.85
581.94	47398.19
582.10	47084.56
582.26	47594.79
582.42	47337.33
582.58	47344.36
582.74	47648.63
582.90	47327.97
583.06	47854.59
583.22	47224.99
583.38	47267.12
583.54	47650.97
583.70	47576.07
583.86	47512.88
584.02	47517.56
584.18	47728.20
584.34	47634.58
584.50	47786.72
584.66	47716.50
584.82	47459.04
584.98	48006.73
585.14	47730.54
585.30	47421.59
585.46	47447.34
585.62	47236.69
585.78	47690.76
585.94	47489.47
586.10	47306.91
586.26	47253.08
586.42	47571.39
586.58	47700.12
586.74	47243.71
586.90	47386.49
587.06	47105.62
587.22	47529.26
587.38	47980.98
587.54	47826.51
587.70	48053.54
587.86	47571.39
588.02	47927.15
588.18	47646.29
588.34	47557.35
588.49	47814.80
588.65	47391.17
588.81	47519.90
588.97	47475.43
589.13	47798.42
589.29	47564.37
589.45	47978.64
589.61	47285.84
589.77	47945.87
589.93	47498.83
