SpectraSuite Data File
++++++++++++++++++++++++++++++++++++
Date: Fri Oct 25 10:44:49 EDT 2013
User: price-jones
Dark Spectrum Present: No
Reference Spectrum Present: No
Number of Sampled Component Spectra: 1
Spectrometers: USB2+H05261
Integration Time (usec): 100000 (USB2+H05261)
Spectra Averaged: 1 (USB2+H05261)
Boxcar Smoothing: 0 (USB2+H05261)
Correct for Electrical Dark: No (USB2+H05261)
Strobe/Lamp Enabled: No (USB2+H05261)
Correct for Detector Non-linearity: No (USB2+H05261)
Correct for Stray Light: No (USB2+H05261)
Number of Pixels in Processed Spectrum: 2048
>>>>>Begin Processed Spectral Data<<<<<
365.73	131.07
365.92	131.07
366.12	131.07
366.32	63.19
366.52	28.09
366.72	23.41
366.91	0.00
367.11	0.00
367.31	0.00
367.51	23.41
367.70	42.13
367.90	56.17
368.10	23.41
368.30	88.94
368.49	39.79
368.69	0.00
368.89	2.34
369.09	4.68
369.28	72.56
369.48	102.98
369.68	173.20
369.87	84.26
370.07	194.26
370.27	119.37
370.47	191.92
370.66	315.97
370.86	440.02
371.06	393.21
371.25	454.06
371.45	400.23
371.65	444.70
371.84	468.11
372.04	372.15
372.24	505.56
372.44	559.39
372.63	482.15
372.83	510.24
373.03	484.49
373.22	468.11
373.42	484.49
373.62	477.47
373.81	603.86
374.01	664.71
374.21	613.22
374.40	512.58
374.60	521.94
374.79	554.71
374.99	585.13
375.19	568.75
375.38	505.56
375.58	547.69
375.78	608.54
375.97	500.87
376.17	634.29
376.37	578.11
376.56	580.45
376.76	585.13
376.95	610.88
377.15	620.24
377.35	599.18
377.54	662.37
377.74	596.84
377.93	603.86
378.13	620.24
378.33	631.94
378.52	594.50
378.72	617.90
378.91	594.50
379.11	645.99
379.31	554.71
379.50	540.66
379.70	636.63
379.89	671.73
380.09	594.50
380.28	676.41
380.48	592.16
380.68	589.82
380.87	669.39
381.07	744.29
381.26	744.29
381.46	681.10
381.65	753.65
381.85	638.97
382.04	662.37
382.24	617.90
382.43	655.35
382.63	697.48
382.83	664.71
383.02	753.65
383.22	774.72
383.41	704.50
383.61	741.95
383.80	690.46
384.00	681.10
384.19	713.86
384.39	695.14
384.58	706.84
384.78	725.57
384.97	716.20
385.17	739.61
385.36	781.74
385.56	758.33
385.75	779.40
385.95	840.25
386.14	727.91
386.34	671.73
386.53	777.06
386.72	844.93
386.92	826.21
387.11	755.99
387.31	821.53
387.50	835.57
387.70	777.06
387.89	854.30
388.09	830.89
388.28	814.51
388.48	739.61
388.67	866.00
388.86	856.64
389.06	842.59
389.25	938.55
389.45	910.47
389.64	968.98
389.84	837.91
390.03	898.77
390.22	917.49
390.42	830.89
390.61	849.61
390.81	957.28
391.00	863.66
391.19	1001.75
391.39	999.41
391.58	936.21
391.78	985.37
391.97	950.26
392.16	891.74
392.36	950.26
392.55	896.43
392.75	1057.92
392.94	957.28
393.13	924.51
393.33	990.05
393.52	959.62
393.71	896.43
393.91	940.90
394.10	990.05
394.29	1046.22
394.49	1025.15
394.68	1132.82
394.88	1111.75
395.07	1116.44
395.26	1076.65
395.46	1132.82
395.65	1142.18
395.84	1144.52
396.04	1151.54
396.23	1121.12
396.42	1081.33
396.62	1039.20
396.81	1179.63
397.00	1130.48
397.19	1191.33
397.39	1214.74
397.58	1270.91
397.77	1167.93
397.97	1245.16
398.16	1196.01
398.35	1256.87
398.55	1245.16
398.74	1317.72
398.93	1341.13
399.12	1336.45
399.32	1240.48
399.51	1310.70
399.70	1390.28
399.90	1301.34
400.09	1301.34
400.28	1387.94
400.47	1465.18
400.67	1502.62
400.86	1416.02
401.05	1446.45
401.24	1432.41
401.44	1551.78
401.63	1423.05
401.82	1481.56
402.01	1469.86
402.21	1589.22
402.40	1572.84
402.59	1514.33
402.78	1640.72
402.97	1530.71
403.17	1507.30
403.36	1516.67
403.55	1610.29
403.74	1720.29
403.93	1689.87
404.13	1708.59
404.32	1727.32
404.51	1643.06
404.70	1605.61
404.89	1596.25
405.09	1706.25
405.28	1710.93
405.47	1788.17
405.66	1767.10
405.85	1762.42
406.05	1802.21
406.24	1781.15
406.43	1713.27
406.62	1792.85
406.81	1909.88
407.00	1802.21
407.20	1823.28
407.39	1792.85
407.58	1867.75
407.77	1928.60
407.96	1989.46
408.15	1916.90
408.34	1973.07
408.54	2069.03
408.73	1898.17
408.92	2029.24
409.11	2059.67
409.30	2033.93
409.49	2092.44
409.68	2087.76
409.87	2031.58
410.07	2043.29
410.26	2115.84
410.45	2113.50
410.64	2134.57
410.83	2186.06
411.02	2129.89
411.21	2270.32
411.40	2195.42
411.59	2218.83
411.78	2258.62
411.98	2235.21
412.17	2410.75
412.36	2342.88
412.55	2495.01
412.74	2361.60
412.93	2417.77
413.12	2214.15
413.31	2429.48
413.50	2492.67
413.69	2544.16
413.88	2455.22
414.07	2506.71
414.26	2558.21
414.45	2609.70
414.64	2719.70
414.83	2731.41
415.02	2703.32
415.22	2663.53
415.41	2806.30
415.60	2710.34
415.79	2693.96
415.98	2902.26
416.17	2813.32
416.36	2822.69
416.55	2916.31
416.74	2979.50
416.93	2935.03
417.12	2923.33
417.31	2850.77
417.50	3038.02
417.69	3082.49
417.88	3087.17
418.07	3091.85
418.26	3145.68
418.45	3082.49
418.64	3103.55
418.83	3251.00
419.02	3105.89
419.21	3204.19
419.39	3141.00
419.58	3281.43
419.77	3087.17
419.96	3293.13
420.15	3389.10
420.34	3300.16
420.53	3307.18
420.72	3370.37
420.91	3393.78
421.10	3358.67
421.29	3337.60
421.48	3417.18
421.67	3318.88
421.86	3480.38
422.05	3386.76
422.24	3241.64
422.43	3555.27
422.61	3382.07
422.80	3449.95
422.99	3433.57
423.18	3363.35
423.37	3602.08
423.56	3574.00
423.75	3585.70
423.94	3569.32
424.13	3400.80
424.32	3288.45
424.50	3538.89
424.69	3632.51
424.88	3625.49
425.07	3456.97
425.26	3559.95
425.45	3508.46
425.64	3492.08
425.83	3564.64
426.01	3557.61
426.20	3576.34
426.39	3695.71
426.58	3688.68
426.77	3534.21
426.96	3758.90
427.15	3597.40
427.33	3770.60
427.52	3620.81
427.71	3794.01
427.90	3684.00
428.09	3775.28
428.28	3875.93
428.46	3791.67
428.65	3737.84
428.84	3829.12
429.03	3794.01
429.22	3714.43
429.40	3822.09
429.59	3892.31
429.78	3555.27
429.97	3543.57
430.16	3669.96
430.34	3709.75
430.53	3889.97
430.72	3873.59
430.91	3934.44
431.10	3941.46
431.28	4025.72
431.47	4147.43
431.66	4042.11
431.85	4081.89
432.03	4259.78
432.22	4245.73
432.41	4135.73
432.60	4198.92
432.79	4140.41
432.97	4109.98
433.16	4154.45
433.35	4159.13
433.54	4290.20
433.72	4311.27
433.91	4390.84
434.10	4222.33
434.28	4322.97
434.47	4425.95
434.66	4397.87
434.85	4418.93
435.03	4437.66
435.22	4528.94
435.41	4622.56
435.59	4652.98
435.78	4341.69
435.97	4634.26
436.16	4688.09
436.34	4580.43
436.53	4554.68
436.72	4748.95
436.90	4489.15
437.09	4718.52
437.28	4678.73
437.46	4573.41
437.65	4629.58
437.84	4741.93
438.02	4784.06
438.21	4643.62
438.40	4557.02
438.58	4924.49
438.77	4975.98
438.96	4819.16
439.14	5083.64
439.33	4863.63
439.52	5013.43
439.70	5076.62
439.89	5071.94
440.08	5193.65
440.26	5144.50
440.45	5217.05
440.63	5263.86
440.82	5191.31
441.01	5266.21
441.19	5357.49
441.38	5556.43
441.57	5530.69
441.75	5490.90
441.94	5504.94
442.12	5640.69
442.31	5612.60
442.50	5659.42
442.68	5734.31
442.87	5795.17
443.05	5659.42
443.24	5713.25
443.43	5771.76
443.61	5694.52
443.80	5921.56
443.98	5753.04
444.17	5551.75
444.35	5923.90
444.54	5984.75
444.73	5881.77
444.91	5900.49
445.10	5776.44
445.28	5774.10
445.47	5729.63
445.65	5722.61
445.84	5933.26
446.02	5987.09
446.21	5923.90
446.39	5947.30
446.58	5806.87
446.77	6106.46
446.95	5898.15
447.14	6040.92
447.32	5959.00
447.51	5795.17
447.69	5970.71
447.88	5919.21
448.06	6015.18
448.25	6010.50
448.43	6174.33
448.62	5827.93
448.80	5987.09
448.99	6078.37
449.17	6141.57
449.36	6005.81
449.54	6277.32
449.73	6347.53
449.91	6375.62
450.10	6340.51
450.28	6429.45
450.46	6377.96
450.65	6406.05
450.83	6370.94
451.02	6431.79
451.20	6272.64
451.39	6513.71
451.57	6530.09
451.76	6459.88
451.94	6431.79
452.13	6705.63
452.31	6565.20
452.49	6239.87
452.68	6471.58
452.86	6576.91
453.05	6637.76
453.23	6609.67
453.42	6569.88
453.60	6541.80
453.78	6719.68
453.97	6487.96
454.15	6579.25
454.34	6729.04
454.52	6726.70
454.70	6766.49
454.89	6754.79
455.07	6846.07
455.26	6764.15
455.44	6906.92
455.62	7016.93
455.81	6895.22
455.99	7159.70
456.17	6986.50
456.36	7002.88
456.54	6953.73
456.73	7082.46
456.91	7180.76
457.09	7023.95
457.28	7215.87
457.46	7218.21
457.64	7328.22
457.83	7297.79
458.01	7005.22
458.19	7499.08
458.38	7494.40
458.56	7665.25
458.74	7548.23
458.93	7384.39
459.11	7302.47
459.29	7510.78
459.48	7630.15
459.66	7522.48
459.84	7571.63
460.03	7602.06
460.21	7700.36
460.39	7473.33
460.57	7688.66
460.76	7639.51
460.94	7878.24
461.12	7623.12
461.31	7873.56
461.49	7812.71
461.67	7768.24
461.85	7985.91
462.04	7988.25
462.22	8121.66
462.40	7985.91
462.59	8088.89
462.77	8035.06
462.95	8119.32
463.13	7838.45
463.32	7861.86
463.50	8067.83
463.68	8156.77
463.86	8184.85
464.05	8168.47
464.23	8154.43
464.41	8116.98
464.59	7922.71
464.78	8313.58
464.96	8121.66
465.14	8299.54
465.32	8348.69
465.50	8355.71
465.69	8334.65
465.87	8285.50
466.05	8234.00
466.23	8425.93
466.41	8264.43
466.60	8589.77
466.78	8332.31
466.96	8292.52
467.14	8428.27
467.32	8486.78
467.51	8549.98
467.69	8353.37
467.87	8514.87
468.05	8512.53
468.23	8704.45
468.41	8449.33
468.60	8472.74
468.78	8709.13
468.96	8538.27
469.14	8833.18
469.32	8933.82
469.50	8606.15
469.69	8758.28
469.87	8781.69
470.05	8837.86
470.23	8954.89
470.41	8681.05
470.59	9076.60
470.77	8882.33
470.95	8961.91
471.14	9273.20
471.32	9181.92
471.50	9352.78
471.68	9338.74
471.86	9149.15
472.04	9322.35
472.22	9252.14
472.40	9411.29
472.58	9469.81
472.77	9509.60
472.95	9647.69
473.13	9823.23
473.31	9640.67
473.49	9542.36
473.67	9619.60
473.85	9664.07
474.03	10017.49
474.21	9731.95
474.39	9881.74
474.57	10104.09
474.75	10214.10
474.93	10036.22
475.12	10146.22
475.30	10354.53
475.48	9977.70
475.66	10235.16
475.84	10167.29
476.02	10406.02
476.20	10565.18
476.38	10574.54
476.56	10916.26
476.74	10874.13
476.92	10656.46
477.10	10492.62
477.28	10843.70
477.46	11054.35
477.64	11143.29
477.82	11363.30
478.00	11407.77
478.18	11335.21
478.36	11265.00
478.54	11466.28
478.72	11485.01
478.90	11714.38
479.08	11667.57
479.26	11822.05
479.44	11768.21
479.62	12121.63
479.80	12109.93
479.98	12081.85
480.16	12531.23
480.34	12580.38
480.52	12517.18
480.70	12697.41
480.88	12512.50
481.06	12613.15
481.24	12751.24
481.41	12975.93
481.59	12992.31
481.77	13165.51
481.95	13111.68
482.13	13132.75
482.31	13123.38
482.49	13528.30
482.67	13390.20
482.85	13556.38
483.03	13675.75
483.21	13701.50
483.39	14045.55
483.57	13940.23
483.74	14202.37
483.92	14441.11
484.10	14373.23
484.28	14420.04
484.46	14485.58
484.64	14967.73
484.82	14640.05
485.00	14647.07
485.18	15000.49
485.35	15346.89
485.53	14771.12
485.71	15023.90
485.89	14881.13
486.07	15405.41
486.25	15379.66
486.43	15819.68
486.61	15723.72
486.78	15866.49
486.96	15878.19
487.14	16262.04
487.32	16116.93
487.50	16800.37
487.68	16652.91
487.85	16844.84
488.03	16940.80
488.21	16987.61
488.39	16926.75
488.57	17076.55
488.75	17219.32
488.92	17720.20
489.10	17607.85
489.28	17795.09
489.46	17921.48
489.64	18082.98
489.81	18349.80
489.99	18499.59
490.17	18480.87
490.35	18881.10
490.53	18604.92
490.70	18836.63
490.88	18663.43
491.06	19068.34
491.24	18649.39
491.41	19019.19
491.59	19014.51
491.77	19140.90
491.95	19484.96
492.13	19606.67
492.30	19779.87
492.48	19791.57
492.66	19978.81
492.84	19962.43
493.01	20196.48
493.19	20126.27
493.37	20549.90
493.54	20739.49
493.72	20582.67
493.90	20774.60
494.08	20926.73
494.25	21256.75
494.43	21319.94
494.61	21373.77
494.79	21474.42
494.96	21380.79
495.14	21879.33
495.32	21799.75
495.49	21926.14
495.67	22082.95
495.85	22394.25
496.02	22457.44
496.20	22300.62
496.38	22562.76
496.55	22581.49
496.73	22927.89
496.91	22401.27
497.09	23166.62
497.26	23157.26
497.44	23325.78
497.62	23482.59
497.79	23585.58
497.97	23311.74
498.14	23531.75
498.32	23665.16
498.50	23730.69
498.67	23903.89
498.85	23630.05
499.03	24070.07
499.20	24140.29
499.38	24376.68
499.56	24493.71
499.73	24411.79
499.91	24809.68
500.08	24662.22
500.26	24049.00
500.44	24694.99
500.61	24870.53
500.79	24493.71
500.97	25008.62
501.14	25130.33
501.32	24964.15
501.49	25411.20
501.67	25422.90
501.84	25525.88
502.02	25207.57
502.20	25865.26
502.37	25741.21
502.55	25666.31
502.72	25593.76
502.90	25865.26
503.07	25876.96
503.25	26029.10
503.43	26001.01
503.60	26349.75
503.78	26326.35
503.95	26167.19
504.13	26515.93
504.30	26534.65
504.48	26757.00
504.65	26670.40
504.83	26642.32
505.01	27152.55
505.18	26986.38
505.36	27154.90
505.53	27056.59
505.71	27143.19
505.88	27463.85
506.06	27234.47
506.23	27690.88
506.41	27323.41
506.58	27557.47
506.76	27765.78
506.93	27941.32
507.11	27660.45
507.28	28070.04
507.46	27665.13
507.63	28037.28
507.81	27941.32
507.98	28041.96
508.16	28432.83
508.33	28453.89
508.50	28451.55
508.68	28437.51
508.85	28926.68
509.03	28779.23
509.20	28699.65
509.38	29036.69
509.55	28975.83
509.73	29092.86
509.90	29134.99
510.08	29280.10
510.25	28999.24
510.42	29422.87
510.60	29184.14
510.77	29481.39
510.95	29553.94
511.12	29537.56
511.30	29963.54
511.47	29968.22
511.64	29788.00
511.82	30242.06
511.99	29991.62
512.17	30031.41
512.34	30005.67
512.51	30614.21
512.69	30389.52
512.86	30565.06
513.04	30651.66
513.21	30740.60
513.38	30684.42
513.56	30862.30
513.73	30558.03
513.90	30906.77
514.08	30433.99
514.25	30874.01
514.43	31253.17
514.60	31173.60
514.77	30955.93
514.95	31384.24
515.12	31323.39
515.29	31299.98
515.47	31512.97
515.64	31615.96
515.81	31601.91
515.99	31409.99
516.16	31665.11
516.33	31260.20
516.51	31651.06
516.68	31241.47
516.85	31356.16
517.03	31452.12
517.20	31564.46
517.37	32418.76
517.54	32219.81
517.72	32107.47
517.89	32231.52
518.06	32320.46
518.24	31981.08
518.41	31957.67
518.58	32547.49
518.75	32383.65
518.93	32547.49
519.10	33163.05
519.27	32748.78
519.45	32837.72
519.62	33048.36
519.79	33181.77
519.96	33092.83
520.14	32917.29
520.31	33336.25
520.48	33408.81
520.65	33553.92
520.83	33394.76
521.00	33628.82
521.17	33757.55
521.34	33869.89
521.52	33797.34
521.69	33851.17
521.86	34122.67
522.03	34024.37
522.20	34036.07
522.38	34106.29
522.55	34256.08
522.72	34227.99
522.89	33970.54
523.07	34412.90
523.24	34176.50
523.41	34576.73
523.58	34969.94
523.75	34991.01
523.92	34635.25
524.10	34749.93
524.27	35084.63
524.44	35009.73
524.61	34939.52
524.78	35449.75
524.96	35489.54
525.13	35072.93
525.30	35314.00
525.47	35695.51
525.64	35325.71
525.81	35655.72
525.98	35012.07
526.16	35042.50
526.33	35393.58
526.50	35185.27
526.67	35253.15
526.84	35330.39
527.01	35185.27
527.18	35466.14
527.36	35861.69
527.53	35786.79
527.70	35974.03
527.87	35929.56
528.04	36004.46
528.21	36388.31
528.38	36210.43
528.55	36479.59
528.72	36287.67
528.89	36505.34
529.07	35983.40
529.24	36526.40
529.41	36739.39
529.58	36339.16
529.75	36680.88
529.92	37010.89
530.09	36465.55
530.26	36978.12
530.43	36687.90
530.60	36215.11
530.77	36713.64
530.94	36503.00
531.11	36964.08
531.28	37132.60
531.46	37455.59
531.63	37139.62
531.80	37034.30
531.97	37212.18
532.14	37565.60
532.31	37258.99
532.48	37333.89
532.65	37635.81
532.82	37088.13
532.99	37750.50
533.16	37258.99
533.33	37741.14
533.50	37773.91
533.67	37979.87
533.84	37900.29
534.01	38012.64
534.18	37579.64
534.35	37991.58
534.52	37493.04
534.69	38242.01
534.86	37954.13
535.03	37848.80
535.20	38424.57
535.37	38377.76
535.54	38616.50
535.71	38363.72
535.88	38368.40
536.05	38176.48
536.22	38267.76
536.38	38829.49
536.55	38593.09
536.72	38466.70
536.89	38721.82
537.06	38707.78
537.23	38689.06
537.40	38408.19
537.57	38513.52
537.74	38422.23
537.91	38899.70
538.08	39124.40
538.25	38761.61
538.42	38827.15
538.59	38911.41
538.75	38625.86
538.92	38785.02
539.09	38920.77
539.26	39267.17
539.43	39203.97
539.60	38934.81
539.77	38981.62
539.94	39100.99
540.11	39124.40
540.28	39056.52
540.44	39281.21
540.61	39508.24
540.78	39321.00
540.95	38801.40
541.12	39143.12
541.29	39269.51
541.46	39395.90
541.62	39370.15
541.79	39852.30
541.96	39732.93
542.13	39690.80
542.30	39517.60
542.47	39845.28
542.63	39786.77
542.80	40280.62
542.97	40828.30
543.14	40392.97
543.31	40629.36
543.48	40662.13
543.64	40950.01
543.81	40664.47
543.98	40851.71
544.15	40144.87
544.32	40816.60
544.48	41244.92
544.65	40648.08
544.82	40952.35
544.99	40575.53
545.16	41134.92
545.32	40694.89
545.49	41256.62
545.66	41354.93
545.83	41373.65
546.00	41188.75
546.16	40985.12
546.33	41085.76
546.50	41024.91
546.67	41289.39
546.83	40809.58
547.00	41151.30
547.17	41132.57
547.34	40825.96
547.50	41137.26
547.67	41441.53
547.84	40940.65
548.00	41661.54
548.17	41642.81
548.34	41352.58
548.51	41509.40
548.67	41834.74
548.84	41755.16
549.01	41453.23
549.18	41752.82
549.34	41895.59
549.51	41596.00
549.68	41907.29
549.84	41879.21
550.01	41979.85
550.18	41614.72
550.34	41907.29
550.51	41879.21
550.68	41801.97
550.84	41528.13
551.01	42286.46
551.18	42241.99
551.34	41954.10
551.51	42019.64
551.68	42241.99
551.84	42057.09
552.01	42190.50
552.18	42169.43
552.34	42066.45
552.51	42454.98
552.68	42052.41
552.84	42845.85
553.01	42653.92
553.18	42253.69
553.34	42232.63
553.51	42146.03
553.67	42075.81
553.84	42857.55
554.01	42403.49
554.17	42279.44
554.34	42735.84
554.51	42836.48
554.67	42520.51
554.84	42380.08
555.00	42602.43
555.17	42429.23
555.33	42698.39
555.50	42295.82
555.67	42876.27
555.83	42408.17
556.00	42806.06
556.16	43180.54
556.33	43119.69
556.50	42651.58
556.66	42955.85
556.83	42831.80
556.99	43084.58
557.16	43075.22
557.32	43203.95
557.49	43262.46
557.65	42356.67
557.82	42965.21
557.98	43449.70
558.15	43323.32
558.32	42939.47
558.48	42749.88
558.65	42792.01
558.81	43234.38
558.98	42962.87
559.14	43129.05
559.31	43138.41
559.47	43423.96
559.64	43732.91
559.80	43707.16
559.97	43620.56
560.13	43119.69
560.30	43215.65
560.46	43594.82
560.63	43316.29
560.79	43629.93
560.96	43924.83
561.12	43765.68
561.29	43391.19
561.45	43253.10
561.61	43257.78
561.78	43438.00
561.94	43105.65
562.11	43370.13
562.27	43225.01
562.44	43433.32
562.60	43721.21
562.77	43763.34
562.93	43856.96
563.10	43978.67
563.26	43320.98
563.42	43871.00
563.59	43353.74
563.75	43473.11
563.92	43618.22
564.08	43243.74
564.24	43924.83
564.41	43679.08
564.57	43395.87
564.74	43856.96
564.90	43854.62
565.07	43910.79
565.23	43826.53
565.39	43578.43
565.56	43732.91
565.72	43672.06
565.88	43658.01
566.05	43873.34
566.21	43758.66
566.38	43828.87
566.54	44088.67
566.70	43826.53
566.87	44591.89
567.03	44392.94
567.19	44247.83
567.36	44229.10
567.52	43702.48
567.68	44060.58
567.85	44044.20
568.01	43952.92
568.17	43782.06
568.34	44229.10
568.50	44142.50
568.66	44107.40
568.83	44257.19
568.99	43810.15
569.15	43878.02
569.32	43835.89
569.48	44004.41
569.64	44137.82
569.81	44273.57
569.97	44341.45
570.13	44229.10
570.30	44095.69
570.46	43941.22
570.62	43941.22
570.78	43887.39
570.95	43842.92
571.11	44156.55
571.27	43938.88
571.43	44020.80
571.60	44156.55
571.76	43643.97
571.92	44030.16
572.09	44156.55
572.25	44353.15
572.41	44299.32
572.57	44456.14
572.74	44676.15
572.90	44425.71
573.06	44151.87
573.22	44465.50
573.38	44062.93
573.55	44264.21
573.71	44311.02
573.87	44512.31
574.03	44126.12
574.20	44271.23
574.36	44128.46
574.52	44044.20
574.68	44151.87
574.84	44575.50
575.01	44526.35
575.17	44374.22
575.33	44142.50
575.49	43875.68
575.65	44477.20
575.82	44788.49
575.98	44446.77
576.14	44491.24
576.30	44350.81
576.46	44715.93
576.62	44100.37
576.79	44350.81
576.95	43707.16
577.11	44800.19
577.27	44570.82
577.43	44683.17
577.59	44432.73
577.75	44364.85
577.92	43931.86
578.08	43990.37
578.24	44016.11
578.40	44275.91
578.56	44055.90
578.72	44196.34
578.88	44779.13
579.04	44168.25
579.21	44332.09
579.37	44491.24
579.53	44062.93
579.69	44076.97
579.85	44336.77
580.01	44381.24
580.17	44650.40
580.33	44498.26
580.49	44713.59
580.65	44428.05
580.82	44547.42
580.98	44355.49
581.14	44385.92
581.30	44587.21
581.46	44729.98
581.62	44495.92
581.78	44664.44
581.94	44584.86
582.10	44189.31
582.26	44470.18
582.42	44507.63
582.58	44486.56
582.74	44858.71
582.90	44868.07
583.06	44481.88
583.22	44659.76
583.38	44587.21
583.54	44559.12
583.70	44947.65
583.86	44898.50
584.02	44067.61
584.18	44488.90
584.34	44446.77
584.50	44451.45
584.66	44481.88
584.82	44247.83
584.98	44739.34
585.14	44727.64
585.30	44172.93
585.46	44832.96
585.62	44219.74
585.78	44629.34
585.94	44210.38
586.10	44184.63
586.26	44568.48
586.42	44439.75
586.58	45132.55
586.74	44818.92
586.90	44198.68
587.06	44327.41
587.22	44678.49
587.38	44233.78
587.54	44676.15
587.70	44788.49
587.86	44465.50
588.02	44399.96
588.18	44978.07
588.34	44622.31
588.49	44289.96
588.65	44025.48
588.81	44622.31
588.97	44304.00
589.13	44556.78
589.29	44355.49
589.45	44549.76
589.61	44605.93
589.77	45195.74
589.93	44870.41
590.08	44580.18
590.24	44821.26
590.40	44715.93
