SpectraSuite Data File
++++++++++++++++++++++++++++++++++++
Date: Fri Oct 25 10:46:55 EDT 2013
User: price-jones
Dark Spectrum Present: No
Reference Spectrum Present: No
Number of Sampled Component Spectra: 1
Spectrometers: USB2+H05261
Integration Time (usec): 100000 (USB2+H05261)
Spectra Averaged: 1 (USB2+H05261)
Boxcar Smoothing: 0 (USB2+H05261)
Correct for Electrical Dark: No (USB2+H05261)
Strobe/Lamp Enabled: No (USB2+H05261)
Correct for Detector Non-linearity: No (USB2+H05261)
Correct for Stray Light: No (USB2+H05261)
Number of Pixels in Processed Spectrum: 2048
>>>>>Begin Processed Spectral Data<<<<<
365.73	140.43
365.92	140.43
366.12	140.43
366.32	42.13
366.52	51.49
366.72	88.94
366.91	0.00
367.11	11.70
367.31	18.72
367.51	7.02
367.70	0.00
367.90	28.09
368.10	37.45
368.30	0.00
368.49	21.06
368.69	102.98
368.89	4.68
369.09	72.56
369.28	81.92
369.48	60.85
369.68	39.79
369.87	65.54
370.07	60.85
370.27	126.39
370.47	234.05
370.66	390.87
370.86	407.25
371.06	482.15
371.25	505.56
371.45	449.38
371.65	557.05
371.84	521.94
372.04	437.68
372.24	510.24
372.44	550.03
372.63	512.58
372.83	601.52
373.03	552.37
373.22	543.00
373.42	557.05
373.62	552.37
373.81	505.56
374.01	510.24
374.21	571.09
374.40	580.45
374.60	615.56
374.79	550.03
374.99	554.71
375.19	606.20
375.38	599.18
375.58	638.97
375.78	603.86
375.97	566.41
376.17	554.71
376.37	596.84
376.56	655.35
376.76	641.31
376.95	589.82
377.15	650.67
377.35	608.54
377.54	624.92
377.74	603.86
377.93	739.61
378.13	674.07
378.33	631.94
378.52	667.05
378.72	667.05
378.91	690.46
379.11	655.35
379.31	608.54
379.50	624.92
379.70	704.50
379.89	781.74
380.09	716.20
380.28	692.80
380.48	690.46
380.68	631.94
380.87	695.14
381.07	755.99
381.26	720.88
381.46	741.95
381.65	755.99
381.85	784.08
382.04	669.39
382.24	748.97
382.43	730.25
382.63	751.31
382.83	763.01
383.02	805.14
383.22	823.87
383.41	737.27
383.61	798.12
383.80	697.48
384.00	767.70
384.19	711.52
384.39	741.95
384.58	802.80
384.78	873.02
384.97	688.12
385.17	837.91
385.36	741.95
385.56	898.77
385.75	812.17
385.95	791.10
386.14	933.87
386.34	884.72
386.53	861.32
386.72	868.34
386.92	866.00
387.11	922.17
387.31	903.45
387.50	898.77
387.70	891.74
387.89	940.90
388.09	891.74
388.28	847.27
388.48	866.00
388.67	898.77
388.86	968.98
389.06	1008.77
389.25	1025.15
389.45	1027.50
389.64	933.87
389.84	1088.35
390.03	959.62
390.22	1029.84
390.42	1008.77
390.61	973.66
390.81	1034.52
391.00	1025.15
391.19	1191.33
391.39	1088.35
391.58	1135.16
391.78	1025.15
391.97	976.00
392.16	1032.18
392.36	1123.46
392.55	964.30
392.75	1004.09
392.94	1053.24
393.13	1011.11
393.33	973.66
393.52	1043.88
393.71	1020.47
393.91	1130.48
394.10	1160.91
394.29	1121.12
394.49	1142.18
394.68	1212.40
394.88	1252.19
395.07	1165.59
395.26	1254.53
395.46	1233.46
395.65	1238.14
395.84	1256.87
396.04	1322.40
396.23	1198.35
396.42	1107.07
396.62	1224.10
396.81	1270.91
397.00	1130.48
397.19	1306.02
397.39	1338.79
397.58	1392.62
397.77	1366.87
397.97	1399.64
398.16	1341.13
398.35	1446.45
398.55	1409.00
398.74	1411.34
398.93	1570.50
399.12	1406.66
399.32	1448.79
399.51	1598.59
399.70	1430.07
399.90	1591.56
400.09	1584.54
400.28	1591.56
400.47	1554.12
400.67	1586.88
400.86	1643.06
401.05	1666.46
401.24	1612.63
401.44	1647.74
401.63	1689.87
401.82	1661.78
402.01	1696.89
402.21	1732.00
402.40	1804.55
402.59	1753.06
402.78	1746.04
402.97	1790.51
403.17	1842.00
403.36	1774.13
403.55	1870.09
403.74	1891.15
403.93	1837.32
404.13	1886.47
404.32	1757.74
404.51	1858.39
404.70	1816.26
404.89	1947.33
405.09	1905.20
405.28	1912.22
405.47	1975.41
405.66	1980.09
405.85	1973.07
406.05	1949.67
406.24	1984.77
406.43	1954.35
406.62	2015.20
406.81	2134.57
407.00	2094.78
407.20	1937.96
407.39	2132.23
407.58	2094.78
407.77	2076.06
407.96	2211.81
408.15	2270.32
408.34	2195.42
408.54	2218.83
408.73	2321.81
408.92	2221.17
409.11	2307.77
409.30	2167.34
409.49	2289.04
409.68	2258.62
409.87	2193.08
410.07	2424.80
410.26	2296.07
410.45	2366.28
410.64	2424.80
410.83	2471.61
411.02	2401.39
411.21	2658.85
411.40	2473.95
411.59	2520.76
411.78	2581.61
411.98	2579.27
412.17	2544.16
412.36	2626.08
412.55	2630.76
412.74	2670.55
412.93	2750.13
413.12	2633.10
413.31	2888.22
413.50	2761.83
413.69	2808.64
413.88	2913.97
414.07	2909.29
414.26	2850.77
414.45	2918.65
414.64	2855.45
414.83	3038.02
415.02	3030.99
415.22	2951.42
415.41	3054.40
415.60	3035.67
415.79	3199.51
415.98	3124.62
416.17	3171.43
416.36	3166.74
416.55	3148.02
416.74	3332.92
416.93	3108.23
417.12	3253.34
417.31	3318.88
417.50	3356.33
417.69	3522.51
417.88	3328.24
418.07	3293.13
418.26	3431.23
418.45	3435.91
418.64	3489.74
418.83	3527.19
419.02	3566.98
419.21	3644.21
419.39	3597.40
419.58	3515.48
419.77	3508.46
419.96	3742.52
420.15	3698.05
420.34	3822.09
420.53	3723.79
420.72	3791.67
420.91	3756.56
421.10	3747.20
421.29	3868.91
421.48	3548.25
421.67	3768.26
421.86	3744.86
422.05	3574.00
422.24	3669.96
422.43	3819.75
422.61	3768.26
422.80	3964.87
422.99	3819.75
423.18	3894.65
423.37	4011.68
423.56	3969.55
423.75	3920.40
423.94	3859.54
424.13	3616.13
424.32	3833.80
424.50	3943.80
424.69	3857.20
424.88	3934.44
425.07	3936.78
425.26	3826.78
425.45	3908.69
425.64	3920.40
425.83	3831.46
426.01	3906.35
426.20	3969.55
426.39	3915.72
426.58	3988.27
426.77	3894.65
426.96	3850.18
427.15	3908.69
427.33	4086.58
427.52	3946.14
427.71	4065.51
427.90	4016.36
428.09	4100.62
428.28	4112.32
428.46	4177.86
428.65	4095.94
428.84	4161.47
429.03	4262.12
429.22	4126.36
429.40	4053.81
429.59	4084.23
429.78	3859.54
429.97	3925.08
430.16	4095.94
430.34	4032.74
430.53	4117.00
430.72	4294.88
430.91	4301.90
431.10	4259.78
431.28	4479.79
431.47	4538.30
431.66	4692.77
431.85	4463.40
432.03	4566.39
432.22	4643.62
432.41	4716.18
432.60	4739.58
432.79	4599.15
432.97	4758.31
433.16	4631.92
433.35	4650.64
433.54	4641.28
433.72	4613.20
433.91	4690.43
434.10	4678.73
434.28	4622.56
434.47	4802.78
434.66	4915.12
434.85	4919.81
435.03	4823.84
435.22	4865.97
435.41	5081.30
435.59	4985.34
435.78	4954.91
435.97	5163.22
436.16	4987.68
436.34	5214.71
436.53	5004.07
436.72	5348.12
436.90	5057.90
437.09	5085.98
437.28	4985.34
437.46	5118.75
437.65	5177.26
437.84	5018.11
438.02	5210.03
438.21	5069.60
438.40	5137.48
438.58	5352.81
438.77	5495.58
438.96	5305.99
439.14	5423.02
439.33	5607.92
439.52	5668.78
439.70	5568.13
439.89	5565.79
440.08	5699.20
440.26	5694.52
440.45	5626.65
440.63	5673.46
440.82	5970.71
441.01	5792.83
441.19	5767.08
441.38	5982.41
441.57	5982.41
441.75	6125.18
441.94	6246.89
442.12	6286.68
442.31	6408.39
442.50	6263.27
442.68	6202.42
442.87	6265.61
443.05	6207.10
443.24	6293.70
443.43	6480.94
443.61	6476.26
443.80	6668.19
443.98	6317.11
444.17	6190.72
444.35	6223.48
444.54	6469.24
444.73	6392.00
444.91	6363.92
445.10	6553.50
445.28	6527.75
445.47	6417.75
445.65	6380.30
445.84	6576.91
446.02	6530.09
446.21	6576.91
446.39	6445.84
446.58	6665.85
446.77	6715.00
446.95	6485.62
447.14	6595.63
447.32	6689.25
447.51	6637.76
447.69	6565.20
447.88	6649.46
448.06	6532.44
448.25	6658.82
448.43	6644.78
448.62	6792.23
448.80	6829.68
448.99	6633.08
449.17	6832.02
449.36	6693.93
449.54	6974.80
449.73	7040.33
449.91	7052.03
450.10	7105.87
450.28	7222.89
450.46	7122.25
450.65	7042.67
450.83	7082.46
451.02	6944.37
451.20	7148.00
451.39	7190.13
451.57	7129.27
451.76	7190.13
451.94	7187.79
452.13	7220.55
452.31	7229.91
452.49	6874.15
452.68	7222.89
452.86	7260.34
453.05	7150.34
453.23	7250.98
453.42	7192.47
453.60	7332.90
453.78	7478.01
453.97	7276.73
454.15	7407.80
454.34	7187.79
454.52	7414.82
454.70	7386.73
454.89	7538.87
455.07	7555.25
455.26	7709.72
455.44	7665.25
455.62	7770.58
455.81	7632.49
455.99	7747.17
456.17	7698.02
456.36	7627.81
456.54	7686.32
456.73	8095.91
456.91	8170.81
457.09	8039.74
457.28	8070.17
457.46	7976.55
457.64	8133.36
457.83	7922.71
458.01	7960.16
458.19	8056.12
458.38	7962.50
458.56	8189.53
458.74	8147.40
458.93	8147.40
459.11	8191.88
459.29	8077.19
459.48	8161.45
459.66	8273.79
459.84	8376.78
460.03	8664.66
460.21	8355.71
460.39	8360.39
460.57	8360.39
460.76	8540.61
460.94	8709.13
461.12	8608.49
461.31	8711.47
461.49	8418.91
461.67	8486.78
461.85	8706.79
462.04	8678.71
462.22	9415.98
462.40	8805.10
462.59	8725.52
462.77	8908.08
462.95	8795.73
463.13	8840.20
463.32	8723.18
463.50	8908.08
463.68	8959.57
463.86	9055.53
464.05	8629.56
464.23	8762.97
464.41	9104.68
464.59	8805.10
464.78	9181.92
464.96	9015.74
465.14	8847.22
465.32	9029.79
465.50	9130.43
465.69	9275.54
465.87	9053.19
466.05	9011.06
466.23	9224.05
466.41	9053.19
466.60	9397.25
466.78	9116.39
466.96	9273.20
467.14	9128.09
467.32	9200.65
467.51	9270.86
467.69	9055.53
467.87	9085.96
468.05	9525.98
468.23	9411.29
468.41	9303.63
468.60	9490.87
468.78	9502.58
468.96	9287.25
469.14	9687.48
469.32	9853.66
469.50	9132.77
469.69	9750.67
469.87	9549.39
470.05	9666.41
470.23	9802.16
470.41	9809.19
470.59	9790.46
470.77	9851.31
470.95	9788.12
471.14	9907.49
471.32	9923.87
471.50	10171.97
471.68	9951.96
471.86	10356.87
472.04	10143.88
472.22	10445.81
472.40	10253.89
472.58	10188.35
472.77	10326.44
472.95	10555.82
473.13	10995.84
473.31	10424.75
473.49	10391.98
473.67	10567.52
473.85	10607.31
474.03	10974.77
474.21	10846.04
474.39	10874.13
474.57	10977.11
474.75	11089.46
474.93	11089.46
475.12	11176.06
475.30	11243.93
475.48	11173.72
475.66	11133.93
475.84	11063.71
476.02	11279.04
476.20	11269.68
476.38	11545.86
476.56	11934.39
476.74	11693.32
476.92	11599.70
477.10	11784.60
477.28	12095.89
477.46	12173.13
477.64	11983.54
477.82	12292.49
478.00	12669.32
478.18	12704.43
478.36	12610.81
478.54	12472.71
478.72	12666.98
478.90	12917.42
479.08	12957.21
479.26	12858.90
479.44	12992.31
479.62	13085.94
479.80	13041.46
479.98	13327.01
480.16	13469.78
480.34	13373.82
480.52	13774.05
480.70	13617.24
480.88	13422.97
481.06	13614.90
481.24	13820.86
481.41	13900.44
481.59	14272.59
481.77	14087.68
481.95	14195.35
482.13	14403.66
482.31	14415.36
482.49	14705.59
482.67	14745.38
482.85	14876.44
483.03	14934.96
483.21	15241.57
483.39	15489.67
483.57	15243.91
483.74	15370.30
483.92	15496.69
484.10	15632.44
484.28	15922.66
484.46	15843.09
484.64	16269.06
484.82	16004.58
485.00	16283.11
485.18	16578.01
485.35	16224.59
485.53	16084.16
485.71	16152.04
485.89	16400.13
486.07	16264.38
486.25	16189.49
486.43	16695.04
486.61	16872.92
486.78	17013.35
486.96	17224.00
487.14	17429.97
487.32	17596.15
487.50	18122.77
487.68	18024.47
487.85	18305.33
488.03	18246.82
488.21	18836.63
488.39	18621.30
488.57	18712.58
488.75	18745.35
488.92	18981.74
489.10	19192.39
489.28	19372.61
489.46	19494.32
489.64	19627.73
489.81	20107.54
489.99	20056.05
490.17	20070.09
490.35	20205.84
490.53	20039.67
490.70	20240.95
490.88	20456.28
491.06	20884.60
491.24	20664.59
491.41	20748.85
491.59	20945.45
491.77	20657.57
491.95	21254.40
492.13	21399.52
492.30	21546.97
492.48	21764.64
492.66	22040.82
492.84	21762.30
493.01	21736.56
493.19	22057.21
493.37	22625.96
493.54	22480.85
493.72	22876.40
493.90	22544.04
494.08	22810.86
494.25	23234.50
494.43	23037.89
494.61	23297.69
494.79	23674.52
494.96	23098.75
495.14	23344.50
495.32	23475.57
495.49	23316.42
495.67	23728.35
495.85	23777.50
496.02	24128.58
496.20	24156.67
496.38	24582.65
496.55	24524.13
496.73	24971.18
496.91	24610.73
497.09	24847.13
497.26	24678.61
497.44	25113.95
497.62	25041.39
497.79	25362.04
497.97	25060.12
498.14	25191.19
498.32	25436.94
498.50	25790.36
498.67	26176.55
498.85	25720.15
499.03	26302.94
499.20	26085.27
499.38	26338.05
499.56	26043.14
499.73	26321.66
499.91	26347.41
500.08	26391.88
500.26	26045.48
500.44	26677.43
500.61	26616.57
500.79	26782.75
500.97	26757.00
501.14	27316.39
501.32	27421.72
501.49	27199.37
501.67	26944.25
501.84	27225.11
502.02	27381.93
502.20	27428.74
502.37	27847.69
502.55	27615.98
502.72	27887.48
502.90	27857.06
503.07	28091.11
503.25	28128.56
503.43	27995.15
503.60	28233.88
503.78	28072.39
503.95	28353.25
504.13	28830.72
504.30	28716.03
504.48	28709.01
504.65	29146.69
504.83	28994.56
505.01	28826.04
505.18	29006.26
505.36	29745.87
505.53	29233.29
505.71	29443.94
505.88	29422.87
506.06	29270.74
506.23	30082.91
506.41	29139.67
506.58	29832.47
506.76	29771.61
506.93	29958.86
507.11	29858.21
507.28	30190.57
507.46	30033.75
507.63	29741.19
507.81	30003.33
507.98	30216.32
508.16	30483.14
508.33	30401.22
508.50	30396.54
508.68	30876.35
508.85	31337.43
509.03	30984.01
509.20	31651.06
509.38	31091.68
509.55	31227.43
509.73	31456.80
509.90	31679.15
510.08	31269.56
510.25	31079.97
510.42	31260.20
510.60	31735.32
510.77	31590.21
510.95	31952.99
511.12	32168.32
511.30	32165.98
511.47	31981.08
511.64	32498.34
511.82	32718.35
511.99	31950.65
512.17	32552.17
512.34	32364.93
512.51	32755.80
512.69	32809.63
512.86	32863.46
513.04	33020.28
513.21	32818.99
513.38	32868.14
513.56	32978.15
513.73	32802.61
513.90	32833.04
514.08	32739.41
514.25	33134.96
514.43	33125.60
514.60	32961.76
514.77	33614.77
514.95	33652.22
515.12	33308.16
515.29	33816.06
515.47	33834.78
515.64	33926.07
515.81	33771.59
515.99	33736.48
516.16	33844.15
516.33	33488.38
516.51	33766.91
516.68	33603.07
516.85	33359.66
517.03	33116.24
517.20	34426.94
517.37	34005.64
517.54	34024.37
517.72	34686.74
517.89	33811.38
518.06	34190.55
518.24	34712.49
518.41	34511.20
518.58	34157.78
518.75	34623.54
518.93	34618.86
519.10	34866.96
519.27	35182.93
519.45	35166.55
519.62	35154.85
519.79	35208.68
519.96	35611.25
520.14	35653.38
520.31	35557.42
520.48	35498.91
520.65	35519.97
520.83	36240.86
521.00	36016.16
521.17	35676.79
521.34	35955.31
521.52	35988.08
521.69	36273.62
521.86	36437.46
522.03	36252.56
522.20	36034.89
522.38	35988.08
522.55	36870.46
522.72	36299.37
522.89	36620.02
523.07	36755.77
523.24	36172.98
523.41	36617.68
523.58	37347.93
523.75	37380.70
523.92	37345.59
524.10	37614.75
524.27	37118.56
524.44	37336.23
524.61	37357.29
524.78	37635.81
524.96	37549.21
525.13	37488.36
525.30	37837.10
525.47	38457.34
525.64	37860.51
525.81	37736.46
525.98	37584.32
526.16	37408.78
526.33	37350.27
526.50	37572.62
526.67	37642.84
526.84	37865.19
527.01	37521.13
527.18	37811.35
527.36	38316.91
527.53	38326.27
527.70	38534.58
527.87	38810.76
528.04	38403.51
528.21	38312.23
528.38	38581.39
528.55	38932.47
528.72	39091.63
528.89	38974.60
529.07	39007.37
529.24	38513.52
529.41	38557.99
529.58	38686.71
529.75	38763.95
529.92	38653.95
530.09	39356.11
530.26	39222.70
530.43	39042.48
530.60	39072.90
530.77	39105.67
530.94	39447.39
531.11	39597.18
531.28	39831.24
531.46	39667.40
531.63	39849.96
531.80	39620.59
531.97	39615.91
532.14	39789.11
532.31	39339.72
532.48	39667.40
532.65	40009.12
532.82	39599.52
532.99	39868.69
533.16	39625.27
533.33	40006.78
533.50	40177.64
533.67	40376.58
533.84	39880.39
534.01	40144.87
534.18	40140.19
534.35	40800.22
534.52	40657.45
534.69	40390.62
534.86	40341.47
535.03	40538.08
535.20	40830.65
535.37	40961.72
535.54	40882.14
535.71	40629.36
535.88	40678.51
536.05	40755.75
536.22	40921.93
536.38	40875.12
536.55	41125.55
536.72	41008.53
536.89	40500.63
537.06	40765.11
537.23	41137.26
537.40	41254.28
537.57	41296.41
537.74	41287.05
537.91	41596.00
538.08	41411.10
538.25	41322.16
538.42	41626.43
538.59	41556.21
538.75	41270.67
538.92	41240.24
539.09	41282.37
539.26	41532.81
539.43	41769.20
539.60	41481.31
539.77	41603.02
539.94	41525.78
540.11	41724.73
540.28	40931.29
540.44	41776.22
540.61	41483.66
540.78	41710.69
540.95	41764.52
541.12	41375.99
541.29	41717.71
541.46	42033.68
541.62	41900.27
541.79	42272.42
541.96	41600.68
542.13	42270.08
542.30	42181.13
542.47	41947.08
542.63	42197.52
542.80	42366.04
542.97	42190.50
543.14	42838.83
543.31	42843.51
543.48	42665.63
543.64	43208.63
543.81	43325.66
543.98	42990.96
544.15	42878.61
544.32	42815.42
544.48	43175.86
544.65	43246.08
544.82	43058.84
544.99	42808.40
545.16	43068.20
545.32	42939.47
545.49	43454.39
545.66	43079.90
545.83	43559.71
546.00	43489.49
546.16	43508.22
546.33	43353.74
546.50	43185.22
546.67	43054.15
546.83	43276.51
547.00	43491.83
547.17	43393.53
547.34	43412.26
547.50	43393.53
547.67	43643.97
547.84	43555.03
548.00	44411.67
548.17	43791.42
548.34	44016.11
548.51	43828.87
548.67	43681.42
548.84	43913.13
549.01	44039.52
549.18	44123.78
549.34	44060.58
549.51	43835.89
549.68	44215.06
549.84	43992.71
550.01	44636.36
550.18	44348.47
550.34	44250.17
550.51	43927.17
550.68	44142.50
550.84	44102.71
551.01	44158.89
551.18	44191.65
551.34	44065.27
551.51	44662.10
551.68	44369.54
551.84	44467.84
552.01	44512.31
552.18	44484.22
552.34	44315.70
552.51	44900.84
552.68	44659.76
552.84	44650.40
553.01	45038.93
553.18	44301.66
553.34	44587.21
553.51	44795.51
553.67	44545.08
553.84	45162.98
554.01	44872.75
554.17	44905.52
554.34	44762.75
554.51	44795.51
554.67	44931.26
554.84	45043.61
555.00	44739.34
555.17	45031.91
555.33	44870.41
555.50	44903.18
555.67	45160.64
555.83	44989.78
556.00	45368.94
556.16	45146.59
556.33	44748.70
556.50	44596.57
556.66	45614.70
556.83	45102.12
556.99	45116.17
557.16	45181.70
557.32	45109.14
557.49	45155.96
557.65	45301.07
557.82	45272.98
557.98	45284.68
558.15	45113.83
558.32	45612.36
558.48	44854.03
558.65	45483.63
558.81	45090.42
558.98	44945.31
559.14	45476.61
559.31	45638.11
559.47	45764.49
559.64	45944.72
559.80	45514.06
559.97	45464.91
560.13	45434.48
560.30	45612.36
560.46	45844.07
560.63	45661.51
560.79	45675.55
560.96	46026.63
561.12	45378.31
561.29	46050.04
561.45	45581.93
561.61	45970.46
561.78	45708.32
561.94	45492.99
562.11	45771.52
562.27	45666.19
562.44	45607.68
562.60	46190.47
562.77	46007.91
562.93	45933.01
563.10	45890.88
563.26	45705.98
563.42	45769.18
563.59	45958.76
563.75	45605.34
563.92	45715.34
564.08	46213.88
564.24	46286.43
564.41	46167.07
564.57	45895.56
564.74	45977.48
564.90	45813.65
565.07	46401.12
565.23	45853.44
565.39	46148.34
565.56	46305.16
565.72	45949.40
565.88	45525.76
566.05	45911.95
566.21	45881.52
566.38	45858.12
566.54	45544.48
566.70	46726.46
566.87	46476.02
567.03	46373.03
567.19	46230.26
567.36	46494.74
567.52	45893.22
567.68	46457.29
567.85	46274.73
568.01	46497.08
568.17	45996.21
568.34	46143.66
568.50	45958.76
568.66	46164.73
568.83	46195.15
568.99	45933.01
569.15	45958.76
569.32	45638.11
569.48	46153.02
569.64	46564.96
569.81	45979.82
569.97	46026.63
570.13	45879.18
570.30	45631.08
570.46	46110.89
570.62	45565.55
570.78	45855.78
570.95	46033.66
571.11	46270.05
571.27	45986.85
571.43	46216.22
571.60	46436.23
571.76	46122.60
571.92	46141.32
572.09	46316.86
572.25	46230.26
572.41	45954.08
572.57	46415.16
572.74	46806.03
572.90	46548.57
573.06	45954.08
573.22	45872.16
573.38	46466.66
573.55	46057.06
573.71	46541.55
573.87	46274.73
574.03	45858.12
574.20	46333.24
574.36	46286.43
574.52	46405.80
574.68	46377.72
574.84	46628.15
575.01	46583.68
575.17	46050.04
575.33	46321.54
575.49	46124.94
575.65	46483.04
575.82	46520.49
575.98	45942.38
576.14	46941.78
576.30	46796.67
576.46	46473.68
576.62	46770.93
576.79	46529.85
576.95	45956.42
577.11	46773.27
577.27	46511.13
577.43	46480.70
577.59	46499.42
577.75	46541.55
577.92	45921.31
578.08	46122.60
578.24	46192.81
578.40	46464.32
578.56	46223.24
578.72	46146.00
578.88	46656.24
579.04	46146.00
579.21	46480.70
579.37	46464.32
579.53	46356.65
579.69	46071.10
579.85	46225.58
580.01	46553.26
580.17	46667.94
580.33	46515.81
580.49	46358.99
580.65	46794.33
580.82	46216.22
580.98	46632.83
581.14	46822.42
581.30	46787.31
581.46	46550.91
581.62	46770.93
581.78	46735.82
581.94	46569.64
582.10	46176.43
582.26	46464.32
582.42	46710.07
582.58	46616.45
582.74	46417.50
582.90	46602.41
583.06	46417.50
583.22	47021.36
583.38	47061.15
583.54	46401.12
583.70	46665.60
583.86	46499.42
584.02	46127.28
584.18	46543.89
584.34	46604.75
584.50	46820.08
584.66	46431.55
584.82	46153.02
584.98	46667.94
585.14	46621.13
585.30	46557.94
585.46	46506.44
585.62	46089.83
585.78	46178.77
585.94	46291.12
586.10	46880.93
586.26	46160.05
586.42	46665.60
586.58	46665.60
586.74	46721.77
586.90	46635.17
587.06	46550.91
587.22	46319.20
587.38	46541.55
587.54	46733.48
587.70	46653.90
587.86	46508.79
588.02	46373.03
588.18	47037.75
588.34	46492.40
588.49	46209.20
588.65	46476.02
588.81	46644.54
588.97	46206.86
589.13	46040.68
589.29	46447.93
589.45	46485.38
589.61	46571.98
589.77	46698.37
589.93	46494.74
