SpectraSuite Data File
++++++++++++++++++++++++++++++++++++
Date: Fri Oct 25 10:43:21 EDT 2013
User: price-jones
Dark Spectrum Present: No
Reference Spectrum Present: No
Number of Sampled Component Spectra: 1
Spectrometers: USB2+H05261
Integration Time (usec): 100000 (USB2+H05261)
Spectra Averaged: 1 (USB2+H05261)
Boxcar Smoothing: 0 (USB2+H05261)
Correct for Electrical Dark: No (USB2+H05261)
Strobe/Lamp Enabled: No (USB2+H05261)
Correct for Detector Non-linearity: No (USB2+H05261)
Correct for Stray Light: No (USB2+H05261)
Number of Pixels in Processed Spectrum: 2048
>>>>>Begin Processed Spectral Data<<<<<
365.73	98.30
365.92	98.30
366.12	98.30
366.32	0.00
366.52	16.38
366.72	0.00
366.91	0.00
367.11	2.34
367.31	7.02
367.51	32.77
367.70	4.68
367.90	39.79
368.10	0.00
368.30	23.41
368.49	72.56
368.69	112.35
368.89	18.72
369.09	63.19
369.28	67.88
369.48	58.51
369.68	44.47
369.87	16.38
370.07	51.49
370.27	107.66
370.47	208.31
370.66	397.89
370.86	423.64
371.06	397.89
371.25	519.60
371.45	423.64
371.65	475.13
371.84	428.32
372.04	381.51
372.24	442.36
372.44	507.90
372.63	461.09
372.83	493.85
373.03	517.26
373.22	493.85
373.42	456.40
373.62	545.34
373.81	500.87
374.01	512.58
374.21	493.85
374.40	552.37
374.60	575.77
374.79	561.73
374.99	517.26
375.19	629.60
375.38	575.77
375.58	578.11
375.78	575.77
375.97	594.50
376.17	655.35
376.37	662.37
376.56	606.20
376.76	568.75
376.95	538.32
377.15	641.31
377.35	648.33
377.54	599.18
377.74	702.16
377.93	669.39
378.13	606.20
378.33	674.07
378.52	627.26
378.72	690.46
378.91	683.44
379.11	662.37
379.31	709.18
379.50	688.12
379.70	648.33
379.89	608.54
380.09	737.27
380.28	732.59
380.48	678.76
380.68	648.33
380.87	699.82
381.07	629.60
381.26	709.18
381.46	653.01
381.65	758.33
381.85	697.48
382.04	716.20
382.24	716.20
382.43	723.23
382.63	739.61
382.83	704.50
383.02	737.27
383.22	758.33
383.41	772.38
383.61	737.27
383.80	809.83
384.00	737.27
384.19	774.72
384.39	748.97
384.58	781.74
384.78	767.70
384.97	727.91
385.17	746.63
385.36	786.42
385.56	837.91
385.75	812.17
385.95	826.21
386.14	840.25
386.34	882.38
386.53	858.98
386.72	858.98
386.92	882.38
387.11	856.64
387.31	837.91
387.50	884.72
387.70	772.38
387.89	889.40
388.09	844.93
388.28	882.38
388.48	929.19
388.67	894.08
388.86	901.11
389.06	915.15
389.25	985.37
389.45	1011.11
389.64	873.02
389.84	901.11
390.03	945.58
390.22	966.64
390.42	1018.13
390.61	1011.11
390.81	1027.50
391.00	1071.97
391.19	1123.46
391.39	1104.73
391.58	1090.69
391.78	952.60
391.97	1015.79
392.16	1036.86
392.36	1097.71
392.55	1013.45
392.75	997.07
392.94	1011.11
393.13	929.19
393.33	978.34
393.52	1123.46
393.71	1064.94
393.91	1090.69
394.10	1174.95
394.29	1149.20
394.49	1053.24
394.68	1242.82
394.88	1273.25
395.07	1165.59
395.26	1224.10
395.46	1240.48
395.65	1219.42
395.84	1165.59
396.04	1242.82
396.23	1151.54
396.42	1137.50
396.62	1170.27
396.81	1193.67
397.00	1139.84
397.19	1284.95
397.39	1282.61
397.58	1406.66
397.77	1423.05
397.97	1392.62
398.16	1376.24
398.35	1486.24
398.55	1399.64
398.74	1474.54
398.93	1591.56
399.12	1469.86
399.32	1523.69
399.51	1572.84
399.70	1554.12
399.90	1558.80
400.09	1526.03
400.28	1584.54
400.47	1504.96
400.67	1633.69
400.86	1640.72
401.05	1680.50
401.24	1654.76
401.44	1657.10
401.63	1710.93
401.82	1729.66
402.01	1647.74
402.21	1722.63
402.40	1701.57
402.59	1750.72
402.78	1661.78
402.97	1858.39
403.17	1905.20
403.36	1767.10
403.55	1902.86
403.74	1891.15
403.93	1921.58
404.13	1806.89
404.32	1790.51
404.51	1886.47
404.70	1961.37
404.89	1933.28
405.09	1940.30
405.28	1961.37
405.47	1968.39
405.66	1984.77
405.85	1959.03
406.05	2024.56
406.24	1970.73
406.43	1966.05
406.62	2092.44
406.81	2047.97
407.00	1984.77
407.20	2019.88
407.39	2047.97
407.58	2045.63
407.77	2239.89
407.96	2169.68
408.15	2232.87
408.34	2127.55
408.54	2249.25
408.73	2284.36
408.92	2314.79
409.11	2310.11
409.30	2237.55
409.49	2296.07
409.68	2361.60
409.87	2265.64
410.07	2312.45
410.26	2396.71
410.45	2263.30
410.64	2443.52
410.83	2361.60
411.02	2499.69
411.21	2541.82
411.40	2661.19
411.59	2729.06
411.78	2747.79
411.98	2668.21
412.17	2558.21
412.36	2691.62
412.55	2773.53
412.74	2839.07
412.93	2743.11
413.12	2766.51
413.31	2909.29
413.50	2857.79
413.69	2916.31
413.88	2820.35
414.07	2890.56
414.26	2899.92
414.45	2984.18
414.64	2895.24
414.83	2979.50
415.02	2949.08
415.22	3108.23
415.41	3138.66
415.60	3070.78
415.79	3063.76
415.98	3234.62
416.17	3227.60
416.36	3262.71
416.55	3133.98
416.74	3119.93
416.93	3185.47
417.12	3297.81
417.31	3424.20
417.50	3293.13
417.69	3487.40
417.88	3503.78
418.07	3382.07
418.26	3414.84
418.45	3449.95
418.64	3534.21
418.83	3637.19
419.02	3545.91
419.21	3527.19
419.39	3543.57
419.58	3616.13
419.77	3578.68
419.96	3595.06
420.15	3672.30
420.34	3639.53
420.53	3623.15
420.72	3847.84
420.91	3761.24
421.10	3817.41
421.29	3871.25
421.48	3882.95
421.67	3730.81
421.86	3791.67
422.05	3901.67
422.24	3782.31
422.43	3873.59
422.61	3723.79
422.80	3796.35
422.99	3868.91
423.18	3810.39
423.37	3866.56
423.56	3850.18
423.75	3934.44
423.94	3899.33
424.13	3616.13
424.32	3765.92
424.50	3896.99
424.69	3990.61
424.88	4091.26
425.07	3906.35
425.26	3913.38
425.45	3854.86
425.64	3918.06
425.83	3960.19
426.01	3899.33
426.20	4070.19
426.39	4067.85
426.58	3927.42
426.77	3976.57
426.96	3997.64
427.15	3969.55
427.33	4140.41
427.52	4074.87
427.71	4133.39
427.90	4095.94
428.09	4121.68
428.28	4032.74
428.46	4109.98
428.65	4133.39
428.84	4271.48
429.03	4351.06
429.22	4117.00
429.40	4135.73
429.59	4161.47
429.78	3967.21
429.97	3969.55
430.16	4032.74
430.34	4042.11
430.53	4154.45
430.72	4079.55
430.91	4306.59
431.10	4238.71
431.28	4505.53
431.47	4456.38
431.66	4624.90
431.85	4477.44
432.03	4603.83
432.22	4641.28
432.41	4678.73
432.60	4706.82
432.79	4610.86
432.97	4671.71
433.16	4648.30
433.35	4664.69
433.54	4657.67
433.72	4531.28
433.91	4634.26
434.10	4755.97
434.28	4739.58
434.47	4760.65
434.66	4990.02
434.85	4863.63
435.03	4997.04
435.22	4835.55
435.41	4994.70
435.59	5060.24
435.78	5191.31
435.97	5149.18
436.16	5167.90
436.34	5095.35
436.53	5114.07
436.72	5235.78
436.90	5085.98
437.09	5125.77
437.28	5151.52
437.46	5172.58
437.65	5184.29
437.84	5214.71
438.02	5149.18
438.21	5081.30
438.40	5137.48
438.58	5142.16
438.77	5362.17
438.96	5596.22
439.14	5514.30
439.33	5607.92
439.52	5762.40
439.70	5638.35
439.89	5603.24
440.08	5621.97
440.26	5827.93
440.45	5668.78
440.63	5799.85
440.82	6129.86
441.01	5949.64
441.19	6054.97
441.38	6146.25
441.57	6001.13
441.75	6132.20
441.94	6120.50
442.12	6162.63
442.31	6408.39
442.50	6258.59
442.68	6389.66
442.87	6356.90
443.05	6443.49
443.24	6455.20
443.43	6380.30
443.61	6516.05
443.80	6637.76
443.98	6258.59
444.17	6232.85
444.35	6633.08
444.54	6752.45
444.73	6518.39
444.91	6471.58
445.10	6403.71
445.28	6380.30
445.47	6382.64
445.65	6244.55
445.84	6478.60
446.02	6715.00
446.21	6619.04
446.39	6794.58
446.58	6764.15
446.77	6862.45
446.95	6532.44
447.14	6696.27
447.32	6658.82
447.51	6604.99
447.69	6476.26
447.88	6663.51
448.06	6656.48
448.25	6780.53
448.43	6789.89
448.62	6583.93
448.80	6848.41
448.99	6780.53
449.17	6984.16
449.36	6619.04
449.54	6904.58
449.73	7002.88
449.91	7103.53
450.10	7007.56
450.28	7452.27
450.46	7332.90
450.65	7187.79
450.83	7194.81
451.02	7110.55
451.20	7300.13
451.39	7255.66
451.57	7236.94
451.76	6986.50
451.94	7272.04
452.13	7246.30
452.31	7028.63
452.49	7140.97
452.68	7307.15
452.86	7094.16
453.05	7405.46
453.23	7342.26
453.42	7239.28
453.60	7267.36
453.78	7442.90
453.97	7208.85
454.15	7496.74
454.34	7501.42
454.52	7562.27
454.70	7419.50
454.89	7545.89
455.07	7623.12
455.26	7686.32
455.44	7808.03
455.62	7688.66
455.81	7845.48
455.99	7768.24
456.17	7770.58
456.36	7925.05
456.54	7990.59
456.73	8006.97
456.91	8051.44
457.09	8201.24
457.28	8318.26
457.46	8222.30
457.64	8074.85
457.83	8145.06
458.01	8119.32
458.19	8194.22
458.38	8318.26
458.56	8229.32
458.74	8311.24
458.93	8231.66
459.11	8250.39
459.29	8037.40
459.48	8271.45
459.66	8264.43
459.84	8489.12
460.03	8205.92
460.21	8465.72
460.39	8491.46
460.57	8308.90
460.76	8355.71
460.94	8606.15
461.12	8526.57
461.31	8571.04
461.49	8688.07
461.67	8418.91
461.85	8800.41
462.04	8917.44
462.22	9455.76
462.40	8901.06
462.59	8807.44
462.77	8933.82
462.95	8931.48
463.13	8985.32
463.32	8954.89
463.50	9046.17
463.68	9064.89
463.86	9123.41
464.05	8973.61
464.23	8863.61
464.41	9034.47
464.59	8910.42
464.78	9254.48
464.96	9036.81
465.14	9064.89
465.32	9202.99
465.50	9331.72
465.69	9336.40
465.87	9247.46
466.05	9219.37
466.23	9121.07
466.41	9130.43
466.60	9465.13
466.78	9226.39
466.96	9481.51
467.14	9039.15
467.32	9184.26
467.51	9231.07
467.69	9151.49
467.87	9364.48
468.05	9408.95
468.23	9507.26
468.41	9383.21
468.60	9514.28
468.78	9605.56
468.96	9359.80
469.14	9809.19
469.32	9870.04
469.50	9455.76
469.69	9701.52
469.87	9830.25
470.05	9832.59
470.23	9753.01
470.41	9884.08
470.59	10001.11
470.77	9907.49
470.95	9827.91
471.14	10099.41
471.32	9874.72
471.50	10244.52
471.68	10279.63
471.86	10406.02
472.04	10120.48
472.22	10490.28
472.40	10314.74
472.58	10260.91
472.77	10464.54
472.95	10539.43
473.13	10916.26
473.31	10518.37
473.49	10635.39
473.67	10640.08
473.85	10700.93
474.03	11183.08
474.21	10918.60
474.39	11040.31
474.57	10991.16
474.75	11000.52
474.93	11307.13
475.12	11215.85
475.30	11253.30
475.48	11014.56
475.66	11187.76
475.84	11220.53
476.02	11564.59
476.20	11351.60
476.38	11763.53
476.56	11695.66
476.74	11981.20
476.92	11833.75
477.10	11798.64
477.28	12194.19
477.46	11999.93
477.64	12248.02
477.82	12381.43
478.00	12526.55
478.18	12414.20
478.36	12465.69
478.54	12784.01
478.72	12854.22
478.90	12772.30
479.08	13032.10
479.26	13174.88
479.44	12886.99
479.62	13111.68
479.80	13212.32
479.98	13301.26
480.16	13818.52
480.34	13542.34
480.52	13797.46
480.70	13675.75
480.88	13493.19
481.06	13820.86
481.24	13987.04
481.41	14017.47
481.59	14527.71
481.77	14490.26
481.95	14335.78
482.13	14448.13
482.31	14443.45
482.49	14618.99
482.67	14906.87
482.85	15143.27
483.03	15194.76
483.21	15328.17
483.39	15559.88
483.57	15304.76
483.74	15412.43
483.92	15513.07
484.10	15300.08
484.28	15728.40
484.46	16137.99
484.64	16135.65
484.82	15859.47
485.00	16067.78
485.18	16390.77
485.35	16346.30
485.53	15969.48
485.71	15985.86
485.89	16669.30
486.07	16451.63
486.25	16624.83
486.43	17006.33
486.61	17022.72
486.78	17116.34
486.96	17233.36
487.14	17635.94
487.32	17537.63
487.50	17858.29
487.68	18040.85
487.85	18143.83
488.03	18354.48
488.21	18719.60
488.39	18616.62
488.57	18743.01
488.75	18714.92
488.92	18925.57
489.10	19173.67
489.28	19674.54
489.46	20030.30
489.64	19903.92
489.81	20044.35
489.99	19768.16
490.17	20009.24
490.35	20535.86
490.53	20514.80
490.70	20510.11
490.88	20699.70
491.06	20989.92
491.24	20819.07
491.41	20545.22
491.59	20472.67
491.77	20830.77
491.95	21125.68
492.13	21149.08
492.30	21645.27
492.48	21490.80
492.66	21921.46
492.84	21778.68
493.01	21776.34
493.19	21912.10
493.37	22361.48
493.54	22230.41
493.72	22396.59
493.90	22277.22
494.08	22848.31
494.25	22850.65
494.43	23012.15
494.61	23082.36
494.79	23421.74
494.96	23442.81
495.14	23592.60
495.32	23491.96
495.49	23737.71
495.67	23882.83
495.85	23796.23
496.02	24156.67
496.20	24266.67
496.38	24180.07
496.55	24657.54
496.73	25057.78
496.91	24748.82
497.09	24851.81
497.26	25102.25
497.44	25013.31
497.62	25303.53
497.79	25408.86
497.97	25233.32
498.14	25568.01
498.32	25603.12
498.50	25811.43
498.67	25895.69
498.85	25764.62
499.03	26125.06
499.20	26106.34
499.38	26494.86
499.56	26192.94
499.73	26431.67
499.91	26403.58
500.08	26590.83
500.26	26529.97
500.44	26771.05
500.61	26668.06
500.79	26668.06
500.97	26618.91
501.14	26930.20
501.32	26740.62
501.49	26916.16
501.67	26576.78
501.84	27573.85
502.02	27056.59
502.20	27548.11
502.37	27672.15
502.55	27494.27
502.72	27793.86
502.90	27747.05
503.07	27618.32
503.25	28327.50
503.43	28002.17
503.60	28079.41
503.78	28079.41
503.95	27964.72
504.13	28690.29
504.30	28795.61
504.48	28610.71
504.65	28666.88
504.83	28996.90
505.01	29055.41
505.18	29102.22
505.36	29364.36
505.53	29411.17
505.71	29488.41
505.88	29706.08
506.06	29134.99
506.23	29443.94
506.41	29420.53
506.58	29638.20
506.76	29738.85
506.93	30508.88
507.11	29872.26
507.28	30061.84
507.46	29865.24
507.63	29692.04
507.81	30089.93
507.98	29771.61
508.16	30326.32
508.33	30377.81
508.50	30181.21
508.68	30548.67
508.85	30789.75
509.03	30707.83
509.20	31131.47
509.38	31037.84
509.55	31019.12
509.73	31299.98
509.90	31133.81
510.08	31545.74
510.25	31255.51
510.42	31330.41
510.60	31262.54
510.77	32020.87
510.95	31866.39
511.12	31875.76
511.30	31580.85
511.47	32093.43
511.64	32414.08
511.82	32283.01
511.99	31997.46
512.17	32158.96
512.34	32404.72
512.51	32507.70
512.69	32601.32
512.86	32418.76
513.04	32767.50
513.21	32734.73
513.38	32526.42
513.56	32844.74
513.73	32545.15
513.90	32971.13
514.08	32882.19
514.25	33006.23
514.43	33127.94
514.60	32950.06
514.77	33464.98
514.95	33153.69
515.12	32910.27
515.29	33436.89
515.47	34085.22
515.64	34089.90
515.81	33734.14
515.99	33567.96
516.16	33647.54
516.33	33713.08
516.51	33696.69
516.68	32938.36
516.85	33336.25
517.03	32952.40
517.20	33837.12
517.37	34134.37
517.54	34148.42
517.72	33923.72
517.89	33563.28
518.06	33874.57
518.24	34022.03
518.41	34405.88
518.58	34581.42
518.75	34396.51
518.93	34323.96
519.10	34565.03
519.27	35126.76
519.45	35285.92
519.62	35374.86
519.79	35512.95
519.96	35227.40
520.14	35538.69
520.31	34902.07
520.48	35615.93
520.65	34892.71
520.83	36004.46
521.00	36077.02
521.17	35463.80
521.34	35775.09
521.52	35702.53
521.69	36077.02
521.86	36315.75
522.03	36105.10
522.20	36137.87
522.38	36575.55
522.55	36451.50
522.72	36334.48
522.89	36222.13
523.07	36308.73
523.24	36488.95
523.41	36753.43
523.58	36357.88
523.75	36924.29
523.92	37064.72
524.10	37043.66
524.27	37055.36
524.44	37134.94
524.61	37350.27
524.78	37500.06
524.96	37542.19
525.13	37376.01
525.30	37787.95
525.47	37682.62
525.64	37553.90
525.81	37387.72
525.98	37797.31
526.16	37298.78
526.33	37003.87
526.50	37645.18
526.67	36772.16
526.84	37436.87
527.01	37099.83
527.18	37347.93
527.36	37804.33
527.53	37951.79
527.70	38508.83
527.87	38160.09
528.04	38387.13
528.21	38401.17
528.38	38185.84
528.55	39005.03
528.72	38431.60
528.89	38827.15
529.07	38476.07
529.24	38625.86
529.41	38742.89
529.58	38291.16
529.75	38752.25
529.92	39271.85
530.09	39021.41
530.26	39175.89
530.43	39423.98
530.60	38653.95
530.77	39042.48
530.94	39203.97
531.11	39075.24
531.28	39604.20
531.46	39262.49
531.63	39672.08
531.80	39009.71
531.97	39306.96
532.14	39363.13
532.31	38827.15
532.48	39201.63
532.65	39842.94
532.82	39302.28
532.99	39208.65
533.16	39468.45
533.33	40306.37
533.50	40212.74
533.67	39707.19
533.84	39377.17
534.01	40460.84
534.18	40034.86
534.35	40025.50
534.52	39978.69
534.69	39732.93
534.86	40329.77
535.03	40472.54
535.20	40622.34
535.37	40502.97
535.54	41027.25
535.71	40449.14
535.88	40540.42
536.05	40297.00
536.22	40893.84
536.38	40526.38
536.55	40519.35
536.72	40767.45
536.89	40519.35
537.06	40479.57
537.23	41193.43
537.40	41113.85
537.57	40807.24
537.74	40893.84
537.91	41284.71
538.08	41368.97
538.25	40240.83
538.42	41256.62
538.59	41530.47
538.75	40765.11
538.92	41633.45
539.09	41113.85
539.26	41081.08
539.43	40884.48
539.60	41067.04
539.77	41127.89
539.94	41282.37
540.11	41097.47
540.28	41570.25
540.44	41364.29
540.61	41759.84
540.78	41563.23
540.95	41371.31
541.12	41034.27
541.29	41659.20
541.46	41865.16
541.62	41895.59
541.79	41757.50
541.96	41596.00
542.13	41401.74
542.30	42162.41
542.47	41734.09
542.63	41523.44
542.80	41888.57
542.97	42911.38
543.14	42183.48
543.31	42241.99
543.48	42213.90
543.64	42862.23
543.81	42487.74
543.98	42534.56
544.15	42504.13
544.32	42438.59
544.48	42836.48
544.65	42714.78
544.82	42710.10
544.99	42653.92
545.16	43026.07
545.32	42623.50
545.49	42724.14
545.66	43274.16
545.83	43463.75
546.00	43328.00
546.16	43009.68
546.33	43145.44
546.50	42983.94
546.67	42986.28
546.83	42445.62
547.00	42953.51
547.17	43157.14
547.34	43311.61
547.50	42918.40
547.67	43302.25
547.84	43147.78
548.00	43585.46
548.17	43491.83
548.34	43365.45
548.51	43821.85
548.67	43372.47
548.84	43533.96
549.01	43143.09
549.18	43580.78
549.34	43863.98
549.51	43955.26
549.68	43552.69
549.84	43604.18
550.01	43964.62
550.18	43447.36
550.34	43559.71
550.51	43679.08
550.68	43770.36
550.84	43351.40
551.01	43765.68
551.18	43679.08
551.34	43543.33
551.51	43901.43
551.68	44002.07
551.84	44039.52
552.01	43639.29
552.18	44004.41
552.34	43826.53
552.51	44046.54
552.68	44219.74
552.84	43943.56
553.01	44706.57
553.18	44395.28
553.34	44259.53
553.51	44100.37
553.67	44547.42
553.84	44392.94
554.01	44903.18
554.17	44493.58
554.34	44652.74
554.51	44751.04
554.67	44521.67
554.84	44811.90
555.00	44664.44
555.17	44783.81
555.33	44617.63
555.50	44652.74
555.67	44643.38
555.83	44458.48
556.00	44521.67
556.16	44725.30
556.33	44439.75
556.50	44828.28
556.66	44526.35
556.83	44612.95
556.99	44737.00
557.16	44914.88
557.32	44933.60
557.49	45090.42
557.65	44758.06
557.82	44982.76
557.98	44947.65
558.15	44603.59
558.32	45062.33
558.48	44605.93
558.65	44715.93
558.81	44666.78
558.98	44987.44
559.14	44678.49
559.31	44676.15
559.47	44919.56
559.64	44545.08
559.80	44823.60
559.97	45069.36
560.13	44933.60
560.30	45219.15
560.46	45141.91
560.63	45385.33
560.79	45244.90
560.96	45340.86
561.12	45331.50
561.29	44865.73
561.45	44877.43
561.61	45003.82
561.78	45062.33
561.94	45078.72
562.11	45184.04
562.27	45198.09
562.44	45294.05
562.60	45038.93
562.77	45579.59
562.93	45387.67
563.10	45621.72
563.26	45151.27
563.42	45193.40
563.59	45268.30
563.75	45715.34
563.92	45790.24
564.08	45652.15
564.24	46024.29
564.41	45289.37
564.57	45420.44
564.74	45558.53
564.90	45350.22
565.07	45230.85
565.23	45298.73
565.39	45485.97
565.56	45537.46
565.72	44924.24
565.88	45291.71
566.05	45104.46
566.21	45085.74
566.38	45022.54
566.54	45532.78
566.70	45677.90
566.87	46237.28
567.03	45886.20
567.19	45813.65
567.36	46038.34
567.52	45296.39
567.68	45823.01
567.85	45771.52
568.01	45935.35
568.17	45687.26
568.34	45825.35
568.50	45567.89
568.66	45853.44
568.83	45682.58
568.99	45525.76
569.15	45251.92
569.32	45684.92
569.48	46050.04
569.64	45752.79
569.81	45907.27
569.97	45727.05
570.13	45642.79
570.30	45549.17
570.46	45467.25
570.62	45205.11
570.78	45003.82
570.95	45148.93
571.11	45593.64
571.27	45839.39
571.43	45820.67
571.60	45530.44
571.76	45247.24
571.92	45808.96
572.09	45649.81
572.25	46078.13
572.41	45748.11
572.57	46206.86
572.74	46389.42
572.90	45834.71
573.06	45783.22
573.22	45790.24
573.38	45886.20
573.55	46199.83
573.71	46131.96
573.87	45879.18
574.03	45935.35
574.20	45801.94
574.36	45982.16
574.52	45900.25
574.68	45371.28
574.84	45972.80
575.01	45661.51
575.17	45542.14
575.33	45502.35
575.49	45436.82
575.65	45982.16
575.82	45825.35
575.98	45853.44
576.14	45951.74
576.30	45837.05
576.46	46043.02
576.62	45776.20
576.79	45825.35
576.95	45542.14
577.11	45862.80
577.27	45769.18
577.43	45907.27
577.59	45291.71
577.75	45832.37
577.92	45523.42
578.08	45649.81
578.24	45394.69
578.40	45893.22
578.56	45603.00
578.72	45694.28
578.88	45867.48
579.04	45485.97
579.21	45752.79
579.37	45478.95
579.53	45455.54
579.69	45729.39
579.85	45862.80
580.01	45839.39
580.17	46028.98
580.33	46073.45
580.49	46031.32
580.65	45736.41
580.82	45961.10
580.98	45418.10
581.14	45429.80
581.30	45799.60
581.46	45769.18
581.62	45743.43
581.78	46038.34
581.94	46256.01
582.10	46122.60
582.26	46284.09
582.42	45904.93
582.58	45879.18
582.74	45680.24
582.90	45820.67
583.06	45989.19
583.22	46059.40
583.38	46087.49
583.54	46241.96
583.70	46192.81
583.86	45717.68
584.02	46169.41
584.18	46291.12
584.34	45366.60
584.50	45820.67
584.66	45628.74
584.82	46190.47
584.98	45928.33
585.14	45982.16
585.30	46012.59
585.46	45769.18
585.62	45600.66
585.78	46134.30
585.94	45598.32
586.10	45724.71
586.26	45801.94
586.42	46014.93
586.58	45996.21
586.74	45869.82
586.90	46122.60
587.06	45762.15
587.22	45787.90
587.38	45909.61
587.54	45958.76
587.70	46178.77
587.86	46174.09
588.02	45933.01
588.18	46291.12
588.34	45687.26
588.49	45326.81
588.65	45359.58
588.81	45160.64
588.97	45340.86
589.13	45577.25
589.29	45474.27
589.45	45523.42
589.61	45797.26
589.77	46052.38
589.93	46026.63
590.08	46064.08
