SpectraSuite Data File
++++++++++++++++++++++++++++++++++++
Date: Fri Oct 25 10:48:23 EDT 2013
User: price-jones
Dark Spectrum Present: No
Reference Spectrum Present: No
Number of Sampled Component Spectra: 1
Spectrometers: USB2+H05261
Integration Time (usec): 100000 (USB2+H05261)
Spectra Averaged: 1 (USB2+H05261)
Boxcar Smoothing: 0 (USB2+H05261)
Correct for Electrical Dark: No (USB2+H05261)
Strobe/Lamp Enabled: No (USB2+H05261)
Correct for Detector Non-linearity: No (USB2+H05261)
Correct for Stray Light: No (USB2+H05261)
Number of Pixels in Processed Spectrum: 2048
>>>>>Begin Processed Spectral Data<<<<<
365.73	145.11
365.92	145.11
366.12	145.11
366.32	98.30
366.52	98.30
366.72	67.88
366.91	60.85
367.11	56.17
367.31	32.77
367.51	0.00
367.70	49.15
367.90	11.70
368.10	2.34
368.30	84.26
368.49	18.72
368.69	77.24
368.89	30.43
369.09	72.56
369.28	65.54
369.48	102.98
369.68	56.17
369.87	159.16
370.07	126.39
370.27	110.01
370.47	154.48
370.66	400.23
370.86	475.13
371.06	505.56
371.25	486.83
371.45	482.15
371.65	538.32
371.84	447.04
372.04	533.64
372.24	512.58
372.44	535.98
372.63	547.69
372.83	538.32
373.03	505.56
373.22	482.15
373.42	491.51
373.62	578.11
373.81	571.09
374.01	561.73
374.21	554.71
374.40	587.47
374.60	641.31
374.79	566.41
374.99	482.15
375.19	655.35
375.38	596.84
375.58	629.60
375.78	585.13
375.97	575.77
376.17	720.88
376.37	624.92
376.56	629.60
376.76	594.50
376.95	554.71
377.15	629.60
377.35	638.97
377.54	655.35
377.74	641.31
377.93	688.12
378.13	697.48
378.33	664.71
378.52	695.14
378.72	657.69
378.91	657.69
379.11	678.76
379.31	697.48
379.50	575.77
379.70	695.14
379.89	723.23
380.09	660.03
380.28	669.39
380.48	753.65
380.68	730.25
380.87	695.14
381.07	716.20
381.26	727.91
381.46	730.25
381.65	643.65
381.85	702.16
382.04	660.03
382.24	648.33
382.43	695.14
382.63	660.03
382.83	723.23
383.02	720.88
383.22	828.55
383.41	809.83
383.61	751.31
383.80	795.78
384.00	788.76
384.19	807.48
384.39	858.98
384.58	851.96
384.78	828.55
384.97	931.53
385.17	844.93
385.36	798.12
385.56	812.17
385.75	873.02
385.95	891.74
386.14	863.66
386.34	870.68
386.53	826.21
386.72	866.00
386.92	882.38
387.11	863.66
387.31	985.37
387.50	894.08
387.70	849.61
387.89	919.83
388.09	887.06
388.28	826.21
388.48	844.93
388.67	936.21
388.86	950.26
389.06	917.49
389.25	971.32
389.45	985.37
389.64	992.39
389.84	976.00
390.03	1015.79
390.22	936.21
390.42	1027.50
390.61	1163.25
390.81	976.00
391.00	1081.33
391.19	1097.71
391.39	1046.22
391.58	1067.28
391.78	1165.59
391.97	1034.52
392.16	1069.62
392.36	1081.33
392.55	1067.28
392.75	1064.94
392.94	1027.50
393.13	1053.24
393.33	1034.52
393.52	1046.22
393.71	1053.24
393.91	1144.52
394.10	1200.69
394.29	1111.75
394.49	1203.04
394.68	1259.21
394.88	1231.12
395.07	1181.97
395.26	1170.27
395.46	1217.08
395.65	1252.19
395.84	1167.93
396.04	1268.57
396.23	1114.10
396.42	1156.22
396.62	1181.97
396.81	1240.48
397.00	1299.00
397.19	1235.80
397.39	1233.46
397.58	1310.70
397.77	1306.02
397.97	1371.55
398.16	1420.71
398.35	1439.43
398.55	1320.06
398.74	1490.92
398.93	1504.96
399.12	1533.05
399.32	1488.58
399.51	1542.41
399.70	1575.18
399.90	1465.18
400.09	1556.46
400.28	1591.56
400.47	1502.62
400.67	1724.97
400.86	1643.06
401.05	1544.75
401.24	1710.93
401.44	1626.67
401.63	1736.68
401.82	1664.12
402.01	1771.79
402.21	1668.80
402.40	1743.70
402.59	1621.99
402.78	1701.57
402.97	1706.25
403.17	1743.70
403.36	1774.13
403.55	1757.74
403.74	1851.36
403.93	1809.23
404.13	1832.64
404.32	1816.26
404.51	1783.49
404.70	1905.20
404.89	1881.79
405.09	1944.99
405.28	1982.43
405.47	1799.87
405.66	1863.07
405.85	1916.90
406.05	1923.92
406.24	1916.90
406.43	1994.14
406.62	2038.61
406.81	2150.95
407.00	1984.77
407.20	1984.77
407.39	2069.03
407.58	2064.35
407.77	2080.74
407.96	2176.70
408.15	2059.67
408.34	2218.83
408.54	2223.51
408.73	2174.36
408.92	2176.70
409.11	2202.44
409.30	2197.76
409.49	2232.87
409.68	2251.60
409.87	2272.66
410.07	2338.20
410.26	2335.85
410.45	2377.98
410.64	2359.26
410.83	2518.42
411.02	2443.52
411.21	2506.71
411.40	2452.88
411.59	2649.49
411.78	2485.65
411.98	2595.65
412.17	2637.78
412.36	2635.44
412.55	2567.57
412.74	2703.32
412.93	2703.32
413.12	2495.01
413.31	2942.05
413.50	2785.24
413.69	2813.32
413.88	2815.66
414.07	2855.45
414.26	2963.12
414.45	2803.96
414.64	2836.73
414.83	2970.14
415.02	3023.97
415.22	2970.14
415.41	3066.10
415.60	3068.44
415.79	3126.96
415.98	3126.96
416.17	3236.96
416.36	3208.87
416.55	3243.98
416.74	3133.98
416.93	3227.60
417.12	3136.32
417.31	3293.13
417.50	3236.96
417.69	3531.87
417.88	3375.05
418.07	3447.61
418.26	3407.82
418.45	3403.14
418.64	3632.51
418.83	3438.25
419.02	3363.35
419.21	3599.74
419.39	3414.84
419.58	3433.57
419.77	3508.46
419.96	3684.00
420.15	3644.21
420.34	3557.61
420.53	3688.68
420.72	3782.31
420.91	3609.11
421.10	3634.85
421.29	3805.71
421.48	3707.41
421.67	3824.44
421.86	3698.05
422.05	3691.02
422.24	3583.36
422.43	3786.99
422.61	3831.46
422.80	3763.58
422.99	3936.78
423.18	3805.71
423.37	3941.46
423.56	3854.86
423.75	3810.39
423.94	3850.18
424.13	3669.96
424.32	3674.64
424.50	4002.32
424.69	4086.58
424.88	3992.95
425.07	3927.42
425.26	3836.14
425.45	3857.20
425.64	3918.06
425.83	3904.01
426.01	3990.61
426.20	3922.74
426.39	3936.78
426.58	3974.23
426.77	3885.29
426.96	3873.59
427.15	4037.42
427.33	4007.00
427.52	3990.61
427.71	4060.83
427.90	4046.79
428.09	4112.32
428.28	4119.34
428.46	4152.11
428.65	4060.83
428.84	4217.65
429.03	4112.32
429.22	3983.59
429.40	4086.58
429.59	3974.23
429.78	3974.23
429.97	3918.06
430.16	4098.28
430.34	4091.26
430.53	4084.23
430.72	4121.68
430.91	4107.64
431.10	4124.02
431.28	4472.76
431.47	4447.02
431.66	4643.62
431.85	4559.36
432.03	4617.88
432.22	4655.33
432.41	4739.58
432.60	4692.77
432.79	4554.68
432.97	4564.04
433.16	4734.90
433.35	4578.09
433.54	4599.15
433.72	4533.62
433.91	4678.73
434.10	4622.56
434.28	4566.39
434.47	4765.33
434.66	4674.05
434.85	4786.40
435.03	4994.70
435.22	4798.10
435.41	5018.11
435.59	4938.53
435.78	4968.96
435.97	5013.43
436.16	5041.51
436.34	4983.00
436.53	5004.07
436.72	5305.99
436.90	5032.15
437.09	5104.71
437.28	4912.78
437.46	5242.80
437.65	5109.39
437.84	5118.75
438.02	5083.64
438.21	5198.33
438.40	5074.28
438.58	5231.10
438.77	5259.18
438.96	5425.36
439.14	5500.26
439.33	5598.56
439.52	5446.43
439.70	5497.92
439.89	5514.30
440.08	5591.54
440.26	5633.67
440.45	5591.54
440.63	5757.72
440.82	5839.64
441.01	5949.64
441.19	5879.43
441.38	5912.19
441.57	6118.16
441.75	6111.14
441.94	6179.01
442.12	6354.55
442.31	6258.59
442.50	6396.68
442.68	6120.50
442.87	6092.41
443.05	6296.04
443.24	6363.92
443.43	6333.49
443.61	6382.64
443.80	6551.16
443.98	6274.98
444.17	6022.20
444.35	6420.09
444.54	6473.92
444.73	6532.44
444.91	6352.21
445.10	6436.47
445.28	6317.11
445.47	6239.87
445.65	6349.87
445.84	6335.83
446.02	6511.37
446.21	6551.16
446.39	6621.38
446.58	6604.99
446.77	6506.69
446.95	6345.19
447.14	6562.86
447.32	6602.65
447.51	6504.35
447.69	6562.86
447.88	6497.33
448.06	6602.65
448.25	6562.86
448.43	6754.79
448.62	6597.97
448.80	6626.06
448.99	6520.73
449.17	6750.10
449.36	6782.87
449.54	6679.89
449.73	6963.09
449.91	7005.22
450.10	6899.90
450.28	7087.14
450.46	7129.27
450.65	7000.54
450.83	7169.06
451.02	6946.71
451.20	7201.83
451.39	7087.14
451.57	7030.97
451.76	6902.24
451.94	6967.77
452.13	7171.40
452.31	7059.06
452.49	7002.88
452.68	6979.48
452.86	7218.21
453.05	7351.62
453.23	7206.51
453.42	7169.06
453.60	7323.54
453.78	7349.28
453.97	7220.55
454.15	7255.66
454.34	7124.59
454.52	7323.54
454.70	7389.07
454.89	7365.67
455.07	7543.55
455.26	7602.06
455.44	7602.06
455.62	7372.69
455.81	7604.40
455.99	7768.24
456.17	7658.23
456.36	7927.39
456.54	7772.92
456.73	7875.90
456.91	7915.69
457.09	7906.33
457.28	8093.57
457.46	7889.95
457.64	7845.48
457.83	7852.50
458.01	7819.73
458.19	7939.10
458.38	7908.67
458.56	8051.44
458.74	8081.87
458.93	8170.81
459.11	8128.68
459.29	8126.34
459.48	8173.15
459.66	8114.64
459.84	8219.96
460.03	8257.41
460.21	8308.90
460.39	8348.69
460.57	8229.32
460.76	8517.21
460.94	8533.59
461.12	8596.79
461.31	8484.44
461.49	8521.89
461.67	8374.44
461.85	8779.35
462.04	8514.87
462.22	8992.34
462.40	8683.39
462.59	8723.18
462.77	8741.90
462.95	8975.95
463.13	8699.77
463.32	8655.30
463.50	8891.70
463.68	8828.50
463.86	9025.11
464.05	8762.97
464.23	8821.48
464.41	8842.54
464.59	8725.52
464.78	9198.31
464.96	9071.92
465.14	8959.57
465.32	8975.95
465.50	9060.21
465.69	9165.54
465.87	9074.26
466.05	9104.68
466.23	8971.27
466.41	9090.64
466.60	9315.33
466.78	9210.01
466.96	9174.90
467.14	9212.35
467.32	9085.96
467.51	9327.03
467.69	9118.73
467.87	9249.80
468.05	9357.46
468.23	9104.68
468.41	9181.92
468.60	9359.80
468.78	9476.83
468.96	9355.12
469.14	9472.15
469.32	9565.77
469.50	9411.29
469.69	9427.68
469.87	9856.00
470.05	9769.40
470.23	9530.66
470.41	9535.34
470.59	9741.31
470.77	9699.18
470.95	9916.85
471.14	9989.41
471.32	9799.82
471.50	9949.62
471.68	10038.56
471.86	10174.31
472.04	10345.17
472.22	10382.62
472.40	10132.18
472.58	10104.09
472.77	10272.61
472.95	10483.26
473.13	10721.99
473.31	10134.52
473.49	10511.35
473.67	10413.04
473.85	10445.81
474.03	10750.08
474.21	10829.66
474.39	10972.43
474.57	10691.57
474.75	10965.41
474.93	10714.97
475.12	11052.01
475.30	11059.03
475.48	11124.57
475.66	11208.83
475.84	11066.05
476.02	11382.03
476.20	11389.05
476.38	11475.65
476.56	11468.62
476.74	11492.03
476.92	11716.72
477.10	11688.64
477.28	11875.88
477.46	11927.37
477.64	12175.47
477.82	12255.04
478.00	12294.83
478.18	12248.02
478.36	12259.73
478.54	12496.12
478.72	12610.81
478.90	12758.26
479.08	13095.30
479.26	13015.72
479.44	12898.69
479.62	13041.46
479.80	13095.30
479.98	13184.24
480.16	13425.31
480.34	13446.38
480.52	13525.96
480.70	13406.59
480.88	13703.84
481.06	13692.13
481.24	13642.98
481.41	14036.19
481.59	14202.37
481.77	14160.24
481.95	14270.25
482.13	14455.15
482.31	14235.14
482.49	14366.21
482.67	14588.56
482.85	14607.28
483.03	15316.47
483.21	15019.22
483.39	15180.71
483.57	15084.75
483.74	15243.91
483.92	15325.83
484.10	15379.66
484.28	15630.10
484.46	15962.45
484.64	16271.40
484.82	15674.57
485.00	16016.29
485.18	16205.87
485.35	16372.05
485.53	16009.26
485.71	16046.71
485.89	16624.83
486.07	16290.13
486.25	16229.27
486.43	16821.43
486.61	16826.11
486.78	17013.35
486.96	17149.11
487.14	17458.06
487.32	17642.96
487.50	17874.67
487.68	18094.68
487.85	18342.78
488.03	18260.86
488.21	18127.45
488.39	18387.25
488.57	18487.89
488.75	18761.73
488.92	18932.59
489.10	18897.49
489.28	18991.11
489.46	19204.10
489.64	19489.64
489.81	19728.38
489.99	19833.70
490.17	19803.27
490.35	20343.94
490.53	20252.66
490.70	20133.29
490.88	20238.61
491.06	20762.89
491.24	20676.29
491.41	20510.11
491.59	20688.00
491.77	20367.34
491.95	20741.83
492.13	21219.30
492.30	21413.56
492.48	21633.57
492.66	21708.47
492.84	21275.47
493.01	21834.86
493.19	21834.86
493.37	21954.22
493.54	22218.71
493.72	22471.48
493.90	22434.03
494.08	22658.73
494.25	22869.37
494.43	22998.10
494.61	23267.27
494.79	23281.31
494.96	23168.96
495.14	23227.48
495.32	23262.58
495.49	23651.11
495.67	23508.34
495.85	24081.77
496.02	23927.30
496.20	24463.28
496.38	24215.18
496.55	24147.31
496.73	24631.80
496.91	24812.02
497.09	24748.82
497.26	24950.11
497.44	24891.60
497.62	24971.18
497.79	24966.49
497.97	25043.73
498.14	24636.48
498.32	25525.88
498.50	25626.53
498.67	25432.26
498.85	26073.57
499.03	25902.71
499.20	25776.32
499.38	26340.39
499.56	26169.53
499.73	25984.63
499.91	26403.58
500.08	26338.05
500.26	26036.12
500.44	26288.90
500.61	26450.39
500.79	26242.09
500.97	26513.59
501.14	26761.69
501.32	26906.80
501.49	27103.40
501.67	26806.16
501.84	27030.85
502.02	27094.04
502.20	27693.22
502.37	27421.72
502.55	27456.82
502.72	27742.37
502.90	28048.98
503.07	27824.29
503.25	27828.97
503.43	27922.59
503.60	27901.53
503.78	28128.56
503.95	27915.57
504.13	28161.33
504.30	28379.00
504.48	28273.67
504.65	28535.81
504.83	28664.54
505.01	28858.81
505.18	28919.66
505.36	29046.05
505.53	29027.32
505.71	29289.46
505.88	29259.04
506.06	29130.31
506.23	29109.24
506.41	29193.50
506.58	29619.48
506.76	30050.14
506.93	29677.99
507.11	29883.96
507.28	30015.03
507.46	29823.11
507.63	30199.93
507.81	29972.90
507.98	29933.11
508.16	30223.34
508.33	30185.89
508.50	30487.82
508.68	30352.07
508.85	31126.78
509.03	30529.95
509.20	31040.18
509.38	31173.60
509.55	30951.24
509.73	31264.88
509.90	30948.90
510.08	31089.34
510.25	31578.51
510.42	31381.90
510.60	31187.64
510.77	31915.54
510.95	32100.45
511.12	31779.79
511.30	31704.90
511.47	32442.17
511.64	31866.39
511.82	32346.20
511.99	31817.24
512.17	32285.35
512.34	32222.16
512.51	32470.25
512.69	32692.60
512.86	32510.04
513.04	32725.37
513.21	32737.07
513.38	32584.94
513.56	32982.83
513.73	32496.00
513.90	32669.20
514.08	32521.74
514.25	32893.89
514.43	32753.46
514.60	33163.05
514.77	33310.50
514.95	33205.18
515.12	33418.17
515.29	33530.51
515.47	34115.65
515.64	33795.00
515.81	33727.12
515.99	33717.76
516.16	33645.20
516.33	33472.00
516.51	33790.31
516.68	33158.37
516.85	33401.79
517.03	33642.86
517.20	34050.11
517.37	34099.26
517.54	33935.43
517.72	34017.35
517.89	33996.28
518.06	33792.65
518.24	34448.00
518.41	34050.11
518.58	34466.73
518.75	34408.22
518.93	34639.93
519.10	34763.98
519.27	34806.11
519.45	34932.50
519.62	35096.33
519.79	34543.97
519.96	35409.96
520.14	35215.70
520.31	34684.40
520.48	35014.41
520.65	35061.22
520.83	35688.49
521.00	35864.03
521.17	35842.96
521.34	35409.96
521.52	36278.30
521.69	35739.98
521.86	36428.10
522.03	35826.58
522.20	36570.87
522.38	36306.39
522.55	36561.51
522.72	36217.45
522.89	36425.76
523.07	36327.45
523.24	36517.04
523.41	36369.58
523.58	36580.23
523.75	36772.16
523.92	37036.64
524.10	37338.57
524.27	37237.92
524.44	37270.69
524.61	36755.77
524.78	37170.05
524.96	36959.40
525.13	37544.53
525.30	37635.81
525.47	38033.71
525.64	37464.96
525.81	37872.21
525.98	37570.28
526.16	37062.38
526.33	37151.32
526.50	37439.21
526.67	37254.31
526.84	36964.08
527.01	37373.67
527.18	37401.76
527.36	37914.34
527.53	37816.04
527.70	38309.89
527.87	38323.93
528.04	38429.26
528.21	38291.16
528.38	38546.28
528.55	38871.62
528.72	38925.45
528.89	38892.68
529.07	38485.43
529.24	38415.21
529.41	38691.40
529.58	38672.67
529.75	38782.68
529.92	38731.18
530.09	39278.87
530.26	39166.52
530.43	38799.06
530.60	38719.48
530.77	39000.35
530.94	39243.76
531.11	39356.11
531.28	39374.83
531.46	39859.32
531.63	39732.93
531.80	39196.95
531.97	39285.89
532.14	39283.55
532.31	39346.75
532.48	39180.57
532.65	39529.31
532.82	39782.09
532.99	40065.29
533.16	39533.99
533.33	40289.98
533.50	39952.94
533.67	40299.34
533.84	39807.83
534.01	39859.32
534.18	39976.35
534.35	40570.85
534.52	39976.35
534.69	40383.60
534.86	40435.10
535.03	40187.00
535.20	40620.00
535.37	40781.49
535.54	40701.92
535.71	40699.58
535.88	40641.06
536.05	40369.56
536.22	40636.38
536.38	40687.87
536.55	40685.53
536.72	40575.53
536.89	40620.00
537.06	41083.42
537.23	40858.73
537.40	40634.04
537.57	40797.88
537.74	41069.38
537.91	41605.36
538.08	41408.76
538.25	40802.56
538.42	41198.11
538.59	41081.08
538.75	40889.16
538.92	41354.93
539.09	41567.91
539.26	41457.91
539.43	41539.83
539.60	41649.83
539.77	41092.79
539.94	41336.20
540.11	40982.78
540.28	41336.20
540.44	41443.87
540.61	41750.48
540.78	41247.26
540.95	41294.07
541.12	41722.39
541.29	41581.96
541.46	41511.74
541.62	42073.47
541.79	41804.31
541.96	41586.64
542.13	41832.39
542.30	42333.27
542.47	42000.91
542.63	42106.24
542.80	41900.27
542.97	42689.03
543.14	42997.98
543.31	42679.67
543.48	42862.23
543.64	43077.56
543.81	42946.49
543.98	42689.03
544.15	42614.13
544.32	42707.76
544.48	43208.63
544.65	42632.86
544.82	42829.46
544.99	42433.91
545.16	42993.30
545.32	42834.14
545.49	43414.60
545.66	43466.09
545.83	43313.95
546.00	43157.14
546.16	42848.19
546.33	42941.81
546.50	42763.93
546.67	43075.22
546.83	42749.88
547.00	43201.61
547.17	43262.46
547.34	43159.48
547.50	43133.73
547.67	43306.93
547.84	43309.27
548.00	43281.19
548.17	43695.46
548.34	43571.41
548.51	43775.04
548.67	44039.52
548.84	43856.96
549.01	44072.29
549.18	43627.59
549.34	43856.96
549.51	44383.58
549.68	43943.56
549.84	44142.50
550.01	44222.08
550.18	43639.29
550.34	44357.83
550.51	43681.42
550.68	43842.92
550.84	43494.18
551.01	44327.41
551.18	44374.22
551.34	44198.68
551.51	43929.51
551.68	44350.81
551.84	44360.17
552.01	44135.48
552.18	44128.46
552.34	43915.47
552.51	44311.02
552.68	44088.67
552.84	44392.94
553.01	45059.99
553.18	44238.47
553.34	44282.94
553.51	44439.75
553.67	44353.15
553.84	44428.05
554.01	44451.45
554.17	44839.98
554.34	44973.39
554.51	44928.92
554.67	44729.98
554.84	44795.51
555.00	44952.33
555.17	44638.70
555.33	45020.20
555.50	44741.68
555.67	45352.56
555.83	44921.90
556.00	44987.44
556.16	45116.17
556.33	45464.91
556.50	44737.00
556.66	45235.53
556.83	44589.55
556.99	45294.05
557.16	45029.57
557.32	45062.33
557.49	45509.38
557.65	44868.07
557.82	45247.24
557.98	45343.20
558.15	44978.07
558.32	45106.80
558.48	44884.45
558.65	44914.88
558.81	45258.94
558.98	44959.35
559.14	45013.18
559.31	45043.61
559.47	45277.66
559.64	45694.28
559.80	45336.18
559.97	45703.64
560.13	45291.71
560.30	45425.12
560.46	45195.74
560.63	45532.78
560.79	45970.46
560.96	45645.13
561.12	45617.04
561.29	45867.48
561.45	45249.58
561.61	45418.10
561.78	45762.15
561.94	45399.37
562.11	45291.71
562.27	45172.34
562.44	45455.54
562.60	45408.73
562.77	45930.67
562.93	45972.80
563.10	46146.00
563.26	45549.17
563.42	46176.43
563.59	45823.01
563.75	45860.46
563.92	45727.05
564.08	45921.31
564.24	45591.30
564.41	46087.49
564.57	46089.83
564.74	45834.71
564.90	45544.48
565.07	46007.91
565.23	45909.61
565.39	45495.33
565.56	46078.13
565.72	45736.41
565.88	46188.13
566.05	45275.32
566.21	45780.88
566.38	45778.54
566.54	45991.53
566.70	46087.49
566.87	46103.87
567.03	46103.87
567.19	46431.55
567.36	46047.70
567.52	46057.06
567.68	46223.24
567.85	46258.35
568.01	46319.20
568.17	45804.28
568.34	46071.10
568.50	45703.64
568.66	45813.65
568.83	45694.28
568.99	45804.28
569.15	46082.81
569.32	45916.63
569.48	45808.96
569.64	46075.79
569.81	46052.38
569.97	46167.07
570.13	46148.34
570.30	45827.69
570.46	45551.51
570.62	45790.24
570.78	45612.36
570.95	45762.15
571.11	46377.72
571.27	45811.31
571.43	46195.15
571.60	46087.49
571.76	46309.84
571.92	45745.77
572.09	46024.29
572.25	46052.38
572.41	46394.10
572.57	46450.27
572.74	46607.09
572.90	46443.25
573.06	46354.31
573.22	46852.84
573.38	46178.77
573.55	45610.02
573.71	46171.75
573.87	46602.41
574.03	45717.68
574.20	46349.63
574.36	46443.25
574.52	46595.38
574.68	46319.20
574.84	46377.72
575.01	45717.68
575.17	46342.61
575.33	45949.40
575.49	45893.22
575.65	46555.60
575.82	46791.99
575.98	46473.68
576.14	46623.47
576.30	46396.44
576.46	46122.60
576.62	46190.47
576.79	46391.76
576.95	45415.76
577.11	46117.92
577.27	46590.70
577.43	46197.49
577.59	46167.07
577.75	46307.50
577.92	46085.15
578.08	46298.14
578.24	45869.82
578.40	46124.94
578.56	46131.96
578.72	46127.28
578.88	46447.93
579.04	46026.63
579.21	46263.03
579.37	46660.92
579.53	46293.46
579.69	46564.96
579.85	46344.95
580.01	46562.62
580.17	46623.47
580.33	46883.27
580.49	46361.33
580.65	46459.63
580.82	46309.84
580.98	46293.46
581.14	46223.24
581.30	46799.01
581.46	46614.11
581.62	46440.91
581.78	46344.95
581.94	46609.43
582.10	46560.28
582.26	46845.82
582.42	46770.93
582.58	46232.60
582.74	46340.27
582.90	46124.94
583.06	46569.64
583.22	46703.05
583.38	46780.29
583.54	46274.73
583.70	46621.13
583.86	46534.53
584.02	46122.60
584.18	46363.67
584.34	46569.64
584.50	46431.55
584.66	46157.70
584.82	46567.30
584.98	46447.93
585.14	46593.04
585.30	45979.82
585.46	46574.32
585.62	46141.32
585.78	46447.93
585.94	46103.87
586.10	46321.54
586.26	46246.65
586.42	46611.77
586.58	46293.46
586.74	46749.86
586.90	45918.97
587.06	45998.55
587.22	46293.46
587.38	46092.17
587.54	46866.89
587.70	46541.55
587.86	46401.12
588.02	46225.58
588.18	46714.75
588.34	46143.66
588.49	46251.33
588.65	45832.37
588.81	46007.91
588.97	46033.66
589.13	46120.26
589.29	46176.43
589.45	46164.73
589.61	46447.93
589.77	46447.93
589.93	46443.25
