SpectraSuite Data File
++++++++++++++++++++++++++++++++++++
Date: Fri Oct 25 10:47:27 EDT 2013
User: price-jones
Dark Spectrum Present: No
Reference Spectrum Present: No
Number of Sampled Component Spectra: 1
Spectrometers: USB2+H05261
Integration Time (usec): 100000 (USB2+H05261)
Spectra Averaged: 1 (USB2+H05261)
Boxcar Smoothing: 0 (USB2+H05261)
Correct for Electrical Dark: No (USB2+H05261)
Strobe/Lamp Enabled: No (USB2+H05261)
Correct for Detector Non-linearity: No (USB2+H05261)
Correct for Stray Light: No (USB2+H05261)
Number of Pixels in Processed Spectrum: 2048
>>>>>Begin Processed Spectral Data<<<<<
365.73	166.18
365.92	166.18
366.12	166.18
366.32	102.98
366.52	72.56
366.72	32.77
366.91	25.75
367.11	16.38
367.31	0.00
367.51	0.00
367.70	0.00
367.90	32.77
368.10	14.04
368.30	42.13
368.49	102.98
368.69	21.06
368.89	32.77
369.09	35.11
369.28	91.28
369.48	126.39
369.68	81.92
369.87	161.50
370.07	156.82
370.27	175.54
370.47	255.12
370.66	341.72
370.86	386.19
371.06	451.72
371.25	381.51
371.45	407.25
371.65	407.25
371.84	451.72
372.04	461.09
372.24	505.56
372.44	468.11
372.63	496.19
372.83	465.77
373.03	510.24
373.22	430.66
373.42	454.06
373.62	517.26
373.81	540.66
374.01	568.75
374.21	561.73
374.40	540.66
374.60	557.05
374.79	552.37
374.99	599.18
375.19	564.07
375.38	538.32
375.58	538.32
375.78	538.32
375.97	587.47
376.17	594.50
376.37	477.47
376.56	594.50
376.76	554.71
376.95	580.45
377.15	580.45
377.35	648.33
377.54	587.47
377.74	589.82
377.93	603.86
378.13	653.01
378.33	622.58
378.52	601.52
378.72	674.07
378.91	641.31
379.11	638.97
379.31	580.45
379.50	608.54
379.70	641.31
379.89	676.41
380.09	638.97
380.28	615.56
380.48	636.63
380.68	660.03
380.87	627.26
381.07	629.60
381.26	695.14
381.46	610.88
381.65	690.46
381.85	638.97
382.04	711.52
382.24	664.71
382.43	667.05
382.63	655.35
382.83	760.67
383.02	695.14
383.22	692.80
383.41	671.73
383.61	727.91
383.80	779.40
384.00	704.50
384.19	723.23
384.39	702.16
384.58	746.63
384.78	826.21
384.97	791.10
385.17	716.20
385.36	833.23
385.56	875.36
385.75	772.38
385.95	730.25
386.14	798.12
386.34	718.54
386.53	751.31
386.72	795.78
386.92	819.19
387.11	835.57
387.31	770.04
387.50	732.59
387.70	788.76
387.89	854.30
388.09	791.10
388.28	884.72
388.48	816.85
388.67	823.87
388.86	851.96
389.06	851.96
389.25	910.47
389.45	849.61
389.64	847.27
389.84	851.96
390.03	908.13
390.22	889.40
390.42	875.36
390.61	816.85
390.81	976.00
391.00	931.53
391.19	938.55
391.39	936.21
391.58	866.00
391.78	973.66
391.97	889.40
392.16	870.68
392.36	943.24
392.55	990.05
392.75	924.51
392.94	978.34
393.13	940.90
393.33	931.53
393.52	992.39
393.71	940.90
393.91	1064.94
394.10	978.34
394.29	1074.31
394.49	1008.77
394.68	1027.50
394.88	1102.39
395.07	1116.44
395.26	1055.58
395.46	1050.90
395.65	1081.33
395.84	1135.16
396.04	1240.48
396.23	1088.35
396.42	1006.43
396.62	1121.12
396.81	1174.95
397.00	1132.82
397.19	1137.50
397.39	1156.22
397.58	1123.46
397.77	1228.78
397.97	1273.25
398.16	1277.93
398.35	1287.29
398.55	1252.19
398.74	1179.63
398.93	1336.45
399.12	1322.40
399.32	1245.16
399.51	1303.68
399.70	1261.55
399.90	1355.17
400.09	1299.00
400.28	1362.19
400.47	1315.38
400.67	1504.96
400.86	1437.09
401.05	1404.32
401.24	1444.11
401.44	1420.71
401.63	1437.09
401.82	1469.86
402.01	1394.96
402.21	1425.39
402.40	1490.92
402.59	1369.21
402.78	1481.56
402.97	1455.81
403.17	1540.07
403.36	1568.16
403.55	1533.05
403.74	1617.31
403.93	1533.05
404.13	1593.90
404.32	1610.29
404.51	1717.95
404.70	1570.50
404.89	1614.97
405.09	1650.08
405.28	1673.48
405.47	1612.63
405.66	1778.81
405.85	1596.25
406.05	1699.23
406.24	1645.40
406.43	1743.70
406.62	1720.29
406.81	1767.10
407.00	1802.21
407.20	1834.98
407.39	1853.70
407.58	1827.96
407.77	1865.41
407.96	1923.92
408.15	1959.03
408.34	1834.98
408.54	1991.80
408.73	1928.60
408.92	1947.33
409.11	1973.07
409.30	2019.88
409.49	2005.84
409.68	2001.16
409.87	2064.35
410.07	2092.44
410.26	2019.88
410.45	2054.99
410.64	2155.63
410.83	2172.02
411.02	2150.95
411.21	2176.70
411.40	2134.57
411.59	2176.70
411.78	2190.74
411.98	2246.91
412.17	2331.17
412.36	2260.96
412.55	2394.37
412.74	2303.09
412.93	2420.11
413.12	2319.47
413.31	2471.61
413.50	2349.90
413.69	2518.42
413.88	2434.16
414.07	2480.97
414.26	2520.76
414.45	2567.57
414.64	2574.59
414.83	2637.78
415.02	2619.06
415.22	2658.85
415.41	2785.24
415.60	2651.83
415.79	2712.68
415.98	2738.43
416.17	2766.51
416.36	2794.60
416.55	2757.15
416.74	2857.79
416.93	2895.24
417.12	2895.24
417.31	2832.05
417.50	2843.75
417.69	2874.18
417.88	2979.50
418.07	3049.72
418.26	2904.60
418.45	2958.44
418.64	3173.77
418.83	3038.02
419.02	3098.87
419.21	3169.09
419.39	3171.43
419.58	3148.02
419.77	3119.93
419.96	3136.32
420.15	3251.00
420.34	3185.47
420.53	3246.32
420.72	3309.52
420.91	3372.71
421.10	3372.71
421.29	3330.58
421.48	3356.33
421.67	3431.23
421.86	3351.65
422.05	3447.61
422.24	3382.07
422.43	3274.41
422.61	3365.69
422.80	3475.70
422.99	3363.35
423.18	3592.72
423.37	3627.83
423.56	3440.59
423.75	3372.71
423.94	3384.41
424.13	3265.05
424.32	3368.03
424.50	3407.82
424.69	3548.25
424.88	3623.15
425.07	3501.44
425.26	3377.39
425.45	3506.12
425.64	3435.91
425.83	3531.87
426.01	3562.30
426.20	3527.19
426.39	3576.34
426.58	3501.44
426.77	3482.72
426.96	3557.61
427.15	3581.02
427.33	3646.55
427.52	3723.79
427.71	3618.47
427.90	3688.68
428.09	3637.19
428.28	3763.58
428.46	3592.72
428.65	3672.30
428.84	3871.25
429.03	3824.44
429.22	3695.71
429.40	3672.30
429.59	3698.05
429.78	3506.12
429.97	3520.17
430.16	3576.34
430.34	3698.05
430.53	3920.40
430.72	3885.29
430.91	3833.80
431.10	3864.22
431.28	3962.53
431.47	4030.40
431.66	3955.51
431.85	4025.72
432.03	4023.38
432.22	4201.26
432.41	4072.53
432.60	4285.52
432.79	4156.79
432.97	4184.88
433.16	4124.02
433.35	4114.66
433.54	4201.26
433.72	4299.56
433.91	4109.98
434.10	4203.60
434.28	4273.82
434.47	4161.47
434.66	4322.97
434.85	4388.50
435.03	4248.07
435.22	4362.76
435.41	4432.97
435.59	4634.26
435.78	4498.51
435.97	4407.23
436.16	4538.30
436.34	4636.60
436.53	4573.41
436.72	4510.21
436.90	4444.68
437.09	4533.62
437.28	4432.97
437.46	4636.60
437.65	4582.77
437.84	4741.93
438.02	4706.82
438.21	4683.41
438.40	4645.96
438.58	4699.80
438.77	4840.23
438.96	4802.78
439.14	4819.16
439.33	4765.33
439.52	5081.30
439.70	5060.24
439.89	5135.14
440.08	5071.94
440.26	5085.98
440.45	5020.45
440.63	5195.99
440.82	5247.48
441.01	5139.82
441.19	5221.74
441.38	5439.40
441.57	5357.49
441.75	5378.55
441.94	5497.92
442.12	5418.34
442.31	5511.96
442.50	5593.88
442.68	5830.27
442.87	5582.18
443.05	5596.22
443.24	5654.73
443.43	5575.16
443.61	5561.11
443.80	5834.96
443.98	5387.91
444.17	5317.70
444.35	5579.84
444.54	5760.06
444.73	5832.62
444.91	5783.46
445.10	5783.46
445.28	5565.79
445.47	5746.02
445.65	5729.63
445.84	5703.89
446.02	5757.72
446.21	5851.34
446.39	5795.17
446.58	5767.08
446.77	5874.74
446.95	5846.66
447.14	5949.64
447.32	5977.73
447.51	6001.13
447.69	5652.39
447.88	5987.09
448.06	5921.56
448.25	6001.13
448.43	5834.96
448.62	5736.65
448.80	5942.62
448.99	6061.99
449.17	5905.17
449.36	6022.20
449.54	5973.05
449.73	6139.23
449.91	6164.97
450.10	6277.32
450.28	6244.55
450.46	6363.92
450.65	6328.81
450.83	6413.07
451.02	6221.14
451.20	6326.47
451.39	6228.17
451.57	6284.34
451.76	6480.94
451.94	6455.20
452.13	6312.42
452.31	6363.92
452.49	6293.70
452.68	6422.43
452.86	6406.05
453.05	6436.47
453.23	6450.52
453.42	6452.86
453.60	6635.42
453.78	6565.20
453.97	6480.94
454.15	6541.80
454.34	6462.22
454.52	6733.72
454.70	6541.80
454.89	6490.31
455.07	6590.95
455.26	6548.82
455.44	6757.13
455.62	6820.32
455.81	6722.02
455.99	6897.56
456.17	6911.60
456.36	6895.22
456.54	6918.62
456.73	7101.19
456.91	7286.09
457.09	7208.85
457.28	7105.87
457.46	7021.61
457.64	7206.51
457.83	7002.88
458.01	7052.03
458.19	7346.94
458.38	6981.82
458.56	7279.07
458.74	7269.70
458.93	7220.55
459.11	7375.03
459.29	7248.64
459.48	7386.73
459.66	7386.73
459.84	7339.92
460.03	7700.36
460.21	7475.67
460.39	7438.22
460.57	7428.86
460.76	7524.82
460.94	7602.06
461.12	7705.04
461.31	7583.34
461.49	7564.61
461.67	7599.72
461.85	7817.39
462.04	7861.86
462.22	8269.11
462.40	7700.36
462.59	7702.70
462.77	7852.50
462.95	8004.63
463.13	7873.56
463.32	7730.79
463.50	7906.33
463.68	7793.98
463.86	8053.78
464.05	7929.74
464.23	7875.90
464.41	8215.28
464.59	7850.16
464.78	8049.10
464.96	8102.93
465.14	8105.28
465.32	8269.11
465.50	8201.24
465.69	8219.96
465.87	8095.91
466.05	7985.91
466.23	8191.88
466.41	8229.32
466.60	8526.57
466.78	8297.20
466.96	8177.83
467.14	8362.73
467.32	8269.11
467.51	8456.36
467.69	8100.59
467.87	8603.81
468.05	8388.48
468.23	8259.75
468.41	8521.89
468.60	8446.99
468.78	8390.82
468.96	8496.14
469.14	8461.04
469.32	8784.03
469.50	8479.76
469.69	8645.94
469.87	8706.79
470.05	8851.91
470.23	8826.16
470.41	8809.78
470.59	8898.72
470.77	8720.84
470.95	9064.89
471.14	9074.26
471.32	8772.33
471.50	9032.13
471.68	8982.98
471.86	9114.05
472.04	9165.54
472.22	9144.47
472.40	9219.37
472.58	9102.34
472.77	9362.14
472.95	9516.62
473.13	9699.18
473.31	9446.40
473.49	9254.48
473.67	9355.12
473.85	9544.70
474.03	9710.88
474.21	9977.70
474.39	9879.40
474.57	9942.60
474.75	10015.15
474.93	9968.34
475.12	9937.91
475.30	9851.31
475.48	10115.80
475.66	10134.52
475.84	10097.07
476.02	10097.07
476.20	10296.02
476.38	10237.50
476.56	10736.04
476.74	10485.60
476.92	10590.92
477.10	10340.49
477.28	10836.68
477.46	10810.93
477.64	10848.38
477.82	10834.34
478.00	11232.23
478.18	11229.89
478.36	11138.61
478.54	11314.15
478.72	11438.20
478.90	11360.96
479.08	11686.29
479.26	11609.06
479.44	11698.00
479.62	11655.87
479.80	11763.53
479.98	11812.68
480.16	12170.79
480.34	11864.18
480.52	12154.40
480.70	11962.48
480.88	12320.58
481.06	12589.74
481.24	12451.65
481.41	12875.29
481.59	12762.94
481.77	12760.60
481.95	12868.27
482.13	13074.23
482.31	13158.49
482.49	13319.99
482.67	13261.48
482.85	13228.71
483.03	13617.24
483.21	13453.40
483.39	13701.50
483.57	13755.33
483.74	13912.14
483.92	14317.06
484.10	13898.10
484.28	14174.28
484.46	14499.62
484.64	14630.69
484.82	14431.74
485.00	14780.48
485.18	14855.38
485.35	15002.83
485.53	14981.77
485.71	14661.12
485.89	15105.82
486.07	15056.67
486.25	15059.01
486.43	15194.76
486.61	15562.22
486.78	15683.93
486.96	15630.10
487.14	15992.88
487.32	16276.09
487.50	16266.72
487.68	16416.52
487.85	16622.48
488.03	16365.03
488.21	16669.30
488.39	16730.15
488.57	16933.78
488.75	17123.36
488.92	17273.15
489.10	17184.21
489.28	17441.67
489.46	17589.13
489.64	17720.20
489.81	18057.23
489.99	18148.51
490.17	18181.28
490.35	18441.08
490.53	18300.65
490.70	18757.05
490.88	18431.72
491.06	18686.84
491.24	18689.18
491.41	18747.69
491.59	18965.36
491.77	18913.87
491.95	18883.44
492.13	19381.98
492.30	19358.57
492.48	19676.88
492.66	19557.52
492.84	19660.50
493.01	19515.39
493.19	19946.05
493.37	20266.70
493.54	20236.27
493.72	20255.00
493.90	20315.85
494.08	20493.73
494.25	21184.19
494.43	20779.28
494.61	20961.84
494.79	20919.71
494.96	21249.72
495.14	21390.16
495.32	21322.28
495.49	21446.33
495.67	21495.48
495.85	21736.56
496.02	22075.93
496.20	22146.15
496.38	21965.93
496.55	22181.26
496.73	22525.32
496.91	22511.27
497.09	22492.55
497.26	22614.26
497.44	22572.13
497.62	22885.76
497.79	23068.32
497.97	22930.23
498.14	22906.82
498.32	23208.75
498.50	23410.04
498.67	23435.78
498.85	23447.49
499.03	23536.43
499.20	23676.86
499.38	23702.61
499.56	23974.11
499.73	23859.42
499.91	24135.60
500.08	24425.83
500.26	24231.57
500.44	24521.79
500.61	24456.26
500.79	24563.92
500.97	24503.07
501.14	24741.80
501.32	24849.47
501.49	24786.27
501.67	25153.74
501.84	25174.80
502.02	25064.80
502.20	25034.37
502.37	25305.87
502.55	25364.39
502.72	25448.64
502.90	25364.39
503.07	25706.10
503.25	26141.44
503.43	25727.17
503.60	25820.79
503.78	25778.66
503.95	25640.57
504.13	26082.93
504.30	26710.19
504.48	26338.05
504.65	26529.97
504.83	26291.24
505.01	26672.74
505.18	26588.49
505.36	27386.61
505.53	26714.87
505.71	27021.48
505.88	27154.90
506.06	26984.04
506.23	26787.43
506.41	27426.40
506.58	27042.55
506.76	27365.54
506.93	27316.39
507.11	27402.99
507.28	27702.58
507.46	27461.51
507.63	27363.20
507.81	27395.97
507.98	27735.35
508.16	27967.06
508.33	27976.42
508.50	28180.05
508.68	27964.72
508.85	28362.61
509.03	28121.54
509.20	28386.02
509.38	28519.43
509.55	28929.02
509.73	29186.48
509.90	28732.42
510.08	28606.03
510.25	28486.66
510.42	29118.60
510.60	28924.34
510.77	29090.52
510.95	29483.73
511.12	28856.46
511.30	29277.76
511.47	29399.47
511.64	29628.84
511.82	29577.35
511.99	29170.10
512.17	30127.38
512.34	29923.75
512.51	29837.15
512.69	29961.20
512.86	29909.71
513.04	30134.40
513.21	30286.53
513.38	30705.49
513.56	30396.54
513.73	30382.49
513.90	30464.41
514.08	30396.54
514.25	30775.70
514.43	31082.31
514.60	30639.95
514.77	30682.08
514.95	30644.63
515.12	30920.82
515.29	30785.07
515.47	31349.14
515.64	31339.77
515.81	31150.19
515.99	31302.32
516.16	31157.21
516.33	31421.69
516.51	31309.35
516.68	31370.20
516.85	31349.14
517.03	31597.23
517.20	31709.58
517.37	31522.34
517.54	31618.30
517.72	32032.57
517.89	32018.53
518.06	31702.56
518.24	31948.31
518.41	32034.91
518.58	32126.19
518.75	32236.20
518.93	32435.14
519.10	32114.49
519.27	32624.73
519.45	32238.54
519.62	32844.74
519.79	32793.25
519.96	32914.95
520.14	33039.00
520.31	33111.56
520.48	33200.50
520.65	32877.51
520.83	33130.28
521.00	33127.94
521.17	33088.15
521.34	33642.86
521.52	33450.94
521.69	33488.38
521.86	33394.76
522.03	33565.62
522.20	33277.74
522.38	33603.07
522.55	34143.74
522.72	34057.14
522.89	33844.15
523.07	33855.85
523.24	34132.03
523.41	33949.47
523.58	34075.86
523.75	34218.63
523.92	34340.34
524.10	34314.59
524.27	34515.88
524.44	34473.75
524.61	34782.70
524.78	34658.65
524.96	35042.50
525.13	34588.44
525.30	35098.67
525.47	35091.65
525.64	35311.66
525.81	35119.74
525.98	35129.10
526.16	34562.69
526.33	34962.92
526.50	35124.42
526.67	34632.91
526.84	35058.88
527.01	35227.40
527.18	35386.56
527.36	35686.15
527.53	35372.52
527.70	35601.89
527.87	35887.43
528.04	35672.10
528.21	35913.18
528.38	35611.25
528.55	35775.09
528.72	35910.84
528.89	35945.95
529.07	36322.77
529.24	35892.12
529.41	36233.83
529.58	36336.82
529.75	35892.12
529.92	36453.84
530.09	36053.61
530.26	36477.25
530.43	36528.74
530.60	36243.20
530.77	36500.65
530.94	36968.76
531.11	36840.03
531.28	36795.56
531.46	36624.70
531.63	36488.95
531.80	36863.44
531.97	37029.62
532.14	37352.61
532.31	36807.26
532.48	36786.20
532.65	37364.31
532.82	37008.55
532.99	37436.87
533.16	37233.24
533.33	37294.10
533.50	37766.88
533.67	37619.43
533.84	37446.23
534.01	37598.37
534.18	37319.84
534.35	37731.78
534.52	37399.42
534.69	37368.99
534.86	38139.03
535.03	37497.72
535.20	37844.12
535.37	38593.09
535.54	38373.08
535.71	37673.26
535.88	37972.85
536.05	38312.23
536.22	38204.56
536.38	37989.24
536.55	38431.60
536.72	37989.24
536.89	38279.46
537.06	38312.23
537.23	38841.19
537.40	37975.19
537.57	38527.56
537.74	38574.37
537.91	38932.47
538.08	38433.94
538.25	38220.95
538.42	38618.84
538.59	38653.95
538.75	38534.58
538.92	38873.96
539.09	38902.04
539.26	38789.70
539.43	39108.01
539.60	38782.68
539.77	39012.05
539.94	38693.74
540.11	38831.83
540.28	38782.68
540.44	39110.35
540.61	38787.36
540.78	38785.02
540.95	39278.87
541.12	39002.69
541.29	38740.55
541.46	39416.96
541.62	39386.54
541.79	39873.37
541.96	39147.80
542.13	39091.63
542.30	39405.26
542.47	39562.08
542.63	39550.37
542.80	40119.12
542.97	40046.57
543.14	40039.54
543.31	40205.72
543.48	40273.60
543.64	40552.12
543.81	40430.41
543.98	40521.69
544.15	40266.58
544.32	40292.32
544.48	40608.29
544.65	40437.44
544.82	40376.58
544.99	40030.18
545.16	40369.56
545.32	40444.46
545.49	40739.36
545.66	40524.04
545.83	40289.98
546.00	40861.07
546.16	40500.63
546.33	40603.61
546.50	40271.26
546.67	40678.51
546.83	40643.40
547.00	40582.55
547.17	40678.51
547.34	40861.07
547.50	41179.39
547.67	40856.39
547.84	40725.32
548.00	41476.63
548.17	41420.46
548.34	41256.62
548.51	41567.91
548.67	41296.41
548.84	41677.92
549.01	41570.25
549.18	41242.58
549.34	41256.62
549.51	41226.20
549.68	42148.37
549.84	41586.64
550.01	41918.99
550.18	41331.52
550.34	41532.81
550.51	41380.67
550.68	41366.63
550.84	41467.27
551.01	41661.54
551.18	41387.69
551.34	41731.75
551.51	41500.04
551.68	41897.93
551.84	41890.91
552.01	41757.50
552.18	41628.77
552.34	41230.88
552.51	42377.74
552.68	42328.59
552.84	41940.06
553.01	42508.81
553.18	42094.53
553.34	41921.34
553.51	41956.44
553.67	42124.96
553.84	42256.03
554.01	42660.94
554.17	42286.46
554.34	42469.02
554.51	42838.83
554.67	42405.83
554.84	42380.08
555.00	42120.28
555.17	42415.19
555.33	42560.30
555.50	42094.53
555.67	42206.88
555.83	42902.02
556.00	42609.45
556.16	42691.37
556.33	42363.70
556.50	43124.37
556.66	42637.54
556.83	42775.63
556.99	42953.51
557.16	42838.83
557.32	42782.65
557.49	42925.42
557.65	42415.19
557.82	42457.32
557.98	42443.27
558.15	42485.40
558.32	43126.71
558.48	43047.13
558.65	42916.06
558.81	42703.07
558.98	42850.53
559.14	42822.44
559.31	42553.28
559.47	43068.20
559.64	43606.52
559.80	43304.59
559.97	43098.62
560.13	43199.27
560.30	42878.61
560.46	43150.12
560.63	42829.46
560.79	43040.11
560.96	43489.49
561.12	43105.65
561.29	43515.24
561.45	43122.03
561.61	43255.44
561.78	43210.97
561.94	43056.50
562.11	43302.25
562.27	43489.49
562.44	43077.56
562.60	43084.58
562.77	43482.47
562.93	43765.68
563.10	43407.58
563.26	43098.62
563.42	43658.01
563.59	43283.53
563.75	43402.89
563.92	43791.42
564.08	43585.46
564.24	43580.78
564.41	43777.38
564.57	43346.72
564.74	43636.95
564.90	43828.87
565.07	43903.77
565.23	43648.65
565.39	42934.79
565.56	43342.04
565.72	43449.70
565.88	43681.42
566.05	43571.41
566.21	43711.84
566.38	43693.12
566.54	43473.11
566.70	43840.57
566.87	44100.37
567.03	43835.89
567.19	44179.95
567.36	43772.70
567.52	43512.90
567.68	44264.21
567.85	43859.30
568.01	43990.37
568.17	44142.50
568.34	44229.10
568.50	44067.61
568.66	43676.74
568.83	44198.68
568.99	43770.36
569.15	43772.70
569.32	43791.42
569.48	44168.25
569.64	44194.00
569.81	44065.27
569.97	44135.48
570.13	43875.68
570.30	43576.09
570.46	43936.54
570.62	43592.48
570.78	43477.79
570.95	44172.93
571.11	43866.32
571.27	43800.79
571.43	44165.91
571.60	44259.53
571.76	44250.17
571.92	43779.72
572.09	43751.63
572.25	44002.07
572.41	43674.40
572.57	44030.16
572.74	44350.81
572.90	44495.92
573.06	43711.84
573.22	44191.65
573.38	44219.74
573.55	43569.07
573.71	44533.37
573.87	43875.68
574.03	44116.76
574.20	44154.21
574.36	44135.48
574.52	44341.45
574.68	44133.14
574.84	44039.52
575.01	44076.97
575.17	44048.88
575.33	43842.92
575.49	43629.93
575.65	44484.22
575.82	44444.43
575.98	44116.76
576.14	44687.85
576.30	44189.31
576.46	44545.08
576.62	43772.70
576.79	44257.19
576.95	44123.78
577.11	44093.35
577.27	44507.63
577.43	44261.87
577.59	44140.16
577.75	44210.38
577.92	44126.12
578.08	43917.81
578.24	43941.22
578.40	44678.49
578.56	44219.74
578.72	44184.63
578.88	44425.71
579.04	44495.92
579.21	44414.01
579.37	44226.76
579.53	43817.17
579.69	43845.26
579.85	44477.20
580.01	44437.41
580.17	44385.92
580.33	44575.50
580.49	44222.08
580.65	44240.81
580.82	44526.35
580.98	44149.53
581.14	44191.65
581.30	44662.10
581.46	44313.36
581.62	44748.70
581.78	44465.50
581.94	44626.99
582.10	44137.82
582.26	44409.32
582.42	44259.53
582.58	44081.65
582.74	44130.80
582.90	44362.51
583.06	44348.47
583.22	44694.87
583.38	44533.37
583.54	44392.94
583.70	44254.85
583.86	43866.32
584.02	44083.99
584.18	44332.09
584.34	44601.25
584.50	44949.99
584.66	44170.59
584.82	44236.12
584.98	45020.20
585.14	44519.33
585.30	44282.94
585.46	44161.23
585.62	44205.70
585.78	44453.79
585.94	43777.38
586.10	44741.68
586.26	44147.18
586.42	44301.66
586.58	44514.65
586.74	44360.17
586.90	44186.97
587.06	44039.52
587.22	44472.52
587.38	44252.51
587.54	44875.09
587.70	44737.00
587.86	44467.84
588.02	44486.56
588.18	44896.16
588.34	44243.15
588.49	43969.30
588.65	44294.64
588.81	44488.90
588.97	44048.88
589.13	44414.01
589.29	44364.85
589.45	44622.31
589.61	44692.53
589.77	44465.50
589.93	44456.14
590.08	44624.65
590.24	45244.90
590.40	44694.87
