SpectraSuite Data File
++++++++++++++++++++++++++++++++++++
Date: Fri Oct 25 11:26:00 EDT 2013
User: price-jones
Dark Spectrum Present: No
Reference Spectrum Present: No
Number of Sampled Component Spectra: 1
Spectrometers: USB2+H05261
Integration Time (usec): 100000 (USB2+H05261)
Spectra Averaged: 1 (USB2+H05261)
Boxcar Smoothing: 0 (USB2+H05261)
Correct for Electrical Dark: No (USB2+H05261)
Strobe/Lamp Enabled: No (USB2+H05261)
Correct for Detector Non-linearity: No (USB2+H05261)
Correct for Stray Light: No (USB2+H05261)
Number of Pixels in Processed Spectrum: 2048
>>>>>Begin Processed Spectral Data<<<<<
365.73	191.92
365.92	191.92
366.12	191.92
366.32	212.99
366.52	159.16
366.72	161.50
366.91	154.48
367.11	170.86
367.31	142.77
367.51	154.48
367.70	70.22
367.90	131.07
368.10	119.37
368.30	210.65
368.49	147.45
368.69	156.82
368.89	161.50
369.09	84.26
369.28	161.50
369.48	175.54
369.68	189.58
369.87	182.56
370.07	243.42
370.27	255.12
370.47	292.57
370.66	634.29
370.86	603.86
371.06	643.65
371.25	636.63
371.45	664.71
371.65	641.31
371.84	671.73
372.04	650.67
372.24	690.46
372.44	748.97
372.63	699.82
372.83	732.59
373.03	830.89
373.22	716.20
373.42	772.38
373.62	767.70
373.81	788.76
374.01	833.23
374.21	777.06
374.40	784.08
374.60	760.67
374.79	809.83
374.99	814.51
375.19	873.02
375.38	795.78
375.58	877.70
375.78	929.19
375.97	954.94
376.17	868.34
376.37	894.08
376.56	851.96
376.76	847.27
376.95	840.25
377.15	971.32
377.35	861.32
377.54	898.77
377.74	868.34
377.93	926.85
378.13	919.83
378.33	924.51
378.52	901.11
378.72	997.07
378.91	954.94
379.11	903.45
379.31	929.19
379.50	863.66
379.70	950.26
379.89	1036.86
380.09	917.49
380.28	1027.50
380.48	950.26
380.68	994.73
380.87	922.17
381.07	983.02
381.26	1057.92
381.46	985.37
381.65	1041.54
381.85	1046.22
382.04	1086.01
382.24	1102.39
382.43	1071.97
382.63	1137.50
382.83	1060.26
383.02	1076.65
383.22	1121.12
383.41	1156.22
383.61	1172.61
383.80	1128.14
384.00	1090.69
384.19	1090.69
384.39	1107.07
384.58	1188.99
384.78	1156.22
384.97	1184.31
385.17	1200.69
385.36	1137.50
385.56	1172.61
385.75	1121.12
385.95	1212.40
386.14	1224.10
386.34	1137.50
386.53	1144.52
386.72	1261.55
386.92	1186.65
387.11	1224.10
387.31	1252.19
387.50	1249.85
387.70	1299.00
387.89	1261.55
388.09	1217.08
388.28	1256.87
388.48	1235.80
388.67	1378.58
388.86	1203.04
389.06	1357.51
389.25	1350.49
389.45	1348.15
389.64	1338.79
389.84	1444.11
390.03	1291.98
390.22	1469.86
390.42	1430.07
390.61	1413.68
390.81	1341.13
391.00	1409.00
391.19	1455.81
391.39	1401.98
391.58	1514.33
391.78	1416.02
391.97	1521.35
392.16	1371.55
392.36	1600.93
392.55	1586.88
392.75	1495.60
392.94	1476.88
393.13	1516.67
393.33	1593.90
393.52	1514.33
393.71	1542.41
393.91	1467.52
394.10	1654.76
394.29	1671.14
394.49	1533.05
394.68	1652.42
394.88	1645.40
395.07	1706.25
395.26	1680.50
395.46	1598.59
395.65	1708.59
395.84	1689.87
396.04	1809.23
396.23	1792.85
396.42	1727.32
396.62	1856.04
396.81	1776.47
397.00	1844.34
397.19	1703.91
397.39	1846.68
397.58	1736.68
397.77	1783.49
397.97	1905.20
398.16	1849.02
398.35	2019.88
398.55	1818.60
398.74	1909.88
398.93	1914.56
399.12	1989.46
399.32	1980.09
399.51	1856.04
399.70	2017.54
399.90	2033.93
400.09	1994.14
400.28	2008.18
400.47	2015.20
400.67	2071.37
400.86	2179.04
401.05	2104.14
401.24	2054.99
401.44	2216.49
401.63	2115.84
401.82	2120.53
402.01	2153.29
402.21	2092.44
402.40	2136.91
402.59	2239.89
402.78	2214.15
402.97	2202.44
403.17	2235.21
403.36	2169.68
403.55	2211.81
403.74	2438.84
403.93	2326.49
404.13	2452.88
404.32	2361.60
404.51	2338.20
404.70	2373.30
404.89	2218.83
405.09	2480.97
405.28	2530.12
405.47	2513.74
405.66	2450.54
405.85	2499.69
406.05	2497.35
406.24	2581.61
406.43	2499.69
406.62	2670.55
406.81	2705.66
407.00	2644.81
407.20	2574.59
407.39	2712.68
407.58	2698.64
407.77	2717.36
407.96	2740.77
408.15	2682.25
408.34	2715.02
408.54	2761.83
408.73	2700.98
408.92	2752.47
409.11	2752.47
409.30	2906.95
409.49	2920.99
409.68	2897.58
409.87	2906.95
410.07	2967.80
410.26	2923.33
410.45	3052.06
410.64	3045.04
410.83	3052.06
411.02	3105.89
411.21	3255.69
411.40	3075.46
411.59	3262.71
411.78	3260.37
411.98	3211.22
412.17	3269.73
412.36	3274.41
412.55	3403.14
412.74	3405.48
412.93	3426.54
413.12	3307.18
413.31	3555.27
413.50	3426.54
413.69	3499.10
413.88	3719.11
414.07	3548.25
414.26	3459.31
414.45	3655.92
414.64	3747.20
414.83	3705.07
415.02	3782.31
415.22	3784.65
415.41	3911.04
415.60	3868.91
415.79	3969.55
415.98	3906.35
416.17	4023.38
416.36	3946.14
416.55	3974.23
416.74	3997.64
416.93	4065.51
417.12	4084.23
417.31	4133.39
417.50	4196.58
417.69	4348.72
417.88	4339.35
418.07	4297.22
418.26	4344.03
418.45	4205.94
418.64	4327.65
418.83	4339.35
419.02	4315.95
419.21	4554.68
419.39	4573.41
419.58	4606.17
419.77	4526.60
419.96	4451.70
420.15	4540.64
420.34	4636.60
420.53	4664.69
420.72	4643.62
420.91	4896.40
421.10	4732.56
421.29	4739.58
421.48	4704.48
421.67	4681.07
421.86	4709.16
422.05	4905.76
422.24	4795.76
422.43	4798.10
422.61	4751.29
422.80	4891.72
422.99	5046.20
423.18	4978.32
423.37	5039.17
423.56	5020.45
423.75	4950.23
423.94	4833.21
424.13	4706.82
424.32	4755.97
424.50	4924.49
424.69	5048.54
424.88	5172.58
425.07	5067.26
425.26	4847.25
425.45	5116.41
425.64	4891.72
425.83	5043.85
426.01	5121.09
426.20	5046.20
426.39	4983.00
426.58	5055.56
426.77	5062.58
426.96	5083.64
427.15	5078.96
427.33	5240.46
427.52	5158.54
427.71	5109.39
427.90	5329.40
428.09	5226.42
428.28	5242.80
428.46	5259.18
428.65	5305.99
428.84	5554.09
429.03	5497.92
429.22	5277.91
429.40	5397.28
429.59	5472.17
429.78	5301.31
429.97	5298.97
430.16	5509.62
430.34	5568.13
430.53	5736.65
430.72	5657.07
430.91	5579.84
431.10	5607.92
431.28	5699.20
431.47	5605.58
431.66	5795.17
431.85	5715.59
432.03	5722.61
432.22	5888.79
432.41	5874.74
432.60	5898.15
432.79	5982.41
432.97	5977.73
433.16	6122.84
433.35	6108.80
433.54	5994.11
433.72	6333.49
433.91	6127.52
434.10	6071.35
434.28	5884.11
434.47	6167.31
434.66	6389.66
434.85	6251.57
435.03	6230.51
435.22	6417.75
435.41	6410.73
435.59	6359.24
435.78	6504.35
435.97	6572.22
436.16	6347.53
436.34	6523.07
436.53	6604.99
436.72	6621.38
436.90	6403.71
437.09	6696.27
437.28	6567.54
437.46	6623.72
437.65	6595.63
437.84	6796.92
438.02	6719.68
438.21	6651.80
438.40	6609.67
438.58	6937.35
438.77	6956.07
438.96	7040.33
439.14	7162.04
439.33	7281.41
439.52	7199.49
439.70	7145.66
439.89	7241.62
440.08	7225.23
440.26	7407.80
440.45	7393.75
440.63	7616.10
440.82	7548.23
441.01	7412.48
441.19	7735.47
441.38	7510.78
441.57	7630.15
441.75	7850.16
441.94	8023.36
442.12	7967.18
442.31	8025.70
442.50	8042.08
442.68	7889.95
442.87	7852.50
443.05	8086.55
443.24	8037.40
443.43	8152.09
443.61	8269.11
443.80	8421.25
443.98	7957.82
444.17	7801.01
444.35	8189.53
444.54	8407.20
444.73	8362.73
444.91	8355.71
445.10	8201.24
445.28	8299.54
445.47	8194.22
445.65	8304.22
445.84	8311.24
446.02	8540.61
446.21	8360.39
446.39	8313.58
446.58	8521.89
446.77	8491.46
446.95	8257.41
447.14	8320.60
447.32	8533.59
447.51	8400.18
447.69	8376.78
447.88	8557.00
448.06	8674.03
448.25	8390.82
448.43	8524.23
448.62	8601.47
448.80	8667.00
448.99	8585.08
449.17	8781.69
449.36	8603.81
449.54	8755.94
449.73	9043.83
449.91	8725.52
450.10	8889.35
450.28	8919.78
450.46	8926.80
450.65	8973.61
450.83	9092.98
451.02	9186.60
451.20	9242.78
451.39	9053.19
451.57	9200.65
451.76	9102.34
451.94	9226.39
452.13	9214.69
452.31	9336.40
452.49	9188.94
452.68	9158.52
452.86	9376.19
453.05	9544.70
453.23	9584.49
453.42	9214.69
453.60	9430.02
453.78	9404.27
453.97	9502.58
454.15	9547.05
454.34	9425.34
454.52	9638.33
454.70	9722.59
454.89	9724.93
455.07	9692.16
455.26	9694.50
455.44	9619.60
455.62	9827.91
455.81	9902.81
455.99	9940.26
456.17	10001.11
456.36	9996.43
456.54	9963.66
456.73	10113.45
456.91	10413.04
457.09	10314.74
457.28	10616.67
457.46	10188.35
457.64	10590.92
457.83	10429.43
458.01	10225.80
458.19	10473.90
458.38	10518.37
458.56	10569.86
458.74	10511.35
458.93	10647.10
459.11	10644.76
459.29	10703.27
459.48	10738.38
459.66	10679.86
459.84	10803.91
460.03	10953.71
460.21	10860.09
460.39	11096.48
460.57	11098.82
460.76	11234.57
460.94	11288.40
461.12	11241.59
461.31	11133.93
461.49	11239.25
461.67	11274.36
461.85	11583.31
462.04	11176.06
462.22	11819.71
462.40	11414.79
462.59	11513.10
462.77	11618.42
462.95	11882.90
463.13	11529.48
463.32	11461.60
463.50	11847.79
463.68	11775.24
463.86	11779.92
464.05	11592.67
464.23	11386.71
464.41	12065.46
464.59	11688.64
464.78	12177.81
464.96	12079.50
465.14	11875.88
465.32	12039.72
465.50	12088.87
465.69	12215.26
465.87	12180.15
466.05	11861.84
466.23	12039.72
466.41	12367.39
466.60	12456.33
466.78	12079.50
466.96	12278.45
467.14	12084.19
467.32	12248.02
467.51	12458.67
467.69	12166.10
467.87	12744.22
468.05	12734.85
468.23	12423.56
468.41	12587.40
468.60	12674.00
468.78	12830.82
468.96	12395.48
469.14	12830.82
469.32	12886.99
469.50	12793.37
469.69	13050.83
469.87	12999.34
470.05	12884.65
470.23	13238.07
470.41	13090.62
470.59	13331.69
470.77	13195.94
470.95	13263.82
471.14	13516.59
471.32	13193.60
471.50	13570.43
471.68	13425.31
471.86	13659.37
472.04	13703.84
472.22	14059.60
472.40	13624.26
472.58	13888.74
472.77	13743.63
472.95	13963.64
473.13	14523.02
473.31	13820.86
473.49	14015.13
473.67	13909.80
473.85	14597.92
474.03	14618.99
474.21	14665.80
474.39	14794.53
474.57	14672.82
474.75	14890.49
474.93	14946.66
475.12	14731.33
475.30	14946.66
475.48	14876.44
475.66	15274.34
475.84	15145.61
476.02	15300.08
476.20	15257.95
476.38	15520.09
476.56	16381.41
476.74	15793.94
476.92	16091.18
477.10	15604.35
477.28	15908.62
477.46	16163.74
477.64	16175.44
477.82	16587.38
478.00	16837.81
478.18	16657.59
478.36	16877.60
478.54	16896.33
478.72	17060.16
478.90	17387.84
479.08	17439.33
479.26	17776.37
479.44	17701.47
479.62	17748.28
479.80	18230.43
479.98	17909.78
480.16	18733.65
480.34	18450.44
480.52	18501.93
480.70	18590.88
480.88	18445.76
481.06	18977.06
481.24	19030.90
481.41	19110.47
481.59	19330.48
481.77	19365.59
481.95	19398.36
482.13	19662.84
482.31	19653.48
482.49	20159.03
482.67	20231.59
482.85	20362.66
483.03	20821.41
483.21	20570.97
483.39	21092.91
483.57	20631.82
483.74	21259.09
483.92	21076.52
484.10	21441.65
484.28	21666.34
484.46	22127.42
484.64	22251.47
484.82	21895.71
485.00	22033.80
485.18	22621.28
485.35	23077.68
485.53	22721.92
485.71	22960.66
485.89	23344.50
486.07	23339.82
486.25	23199.39
486.43	23730.69
486.61	23761.12
486.78	24437.53
486.96	24421.15
487.14	24346.25
487.32	24776.91
487.50	24673.93
487.68	24973.52
487.85	25432.26
488.03	25158.42
488.21	25553.97
488.39	25680.36
488.57	25809.09
488.75	26022.08
488.92	26368.48
489.10	26864.67
489.28	26506.57
489.46	27241.50
489.64	26773.39
489.81	27709.60
489.99	27599.60
490.17	27871.10
490.35	27885.14
490.53	27903.87
490.70	28278.35
490.88	28320.48
491.06	28706.67
491.24	28694.97
491.41	28900.94
491.59	29015.62
491.77	29408.83
491.95	29696.72
492.13	29584.37
492.30	29823.11
492.48	29937.79
492.66	30026.73
492.84	30230.36
493.01	31068.27
493.19	30431.65
493.37	30878.69
493.54	31166.57
493.72	31292.96
493.90	31370.20
494.08	31892.14
494.25	31936.61
494.43	32173.00
494.61	32058.32
494.79	32362.59
494.96	32463.23
495.14	32425.78
495.32	32968.79
495.49	32877.51
495.67	33146.67
495.85	33427.53
496.02	33905.00
496.20	34181.18
496.38	34047.77
496.55	34125.01
496.73	34827.17
496.91	34593.12
497.09	34675.04
497.26	34731.21
497.44	34897.39
497.62	35164.21
497.79	35632.32
497.97	35243.79
498.14	36196.38
498.32	35828.92
498.50	36198.73
498.67	36100.42
498.85	36563.85
499.03	36547.47
499.20	36935.99
499.38	36690.24
499.56	36989.83
499.73	37244.94
499.91	37167.71
500.08	37022.59
500.26	37551.56
500.44	37518.79
500.61	37546.87
500.79	37338.57
500.97	38586.07
501.14	38733.53
501.32	38525.22
501.49	38270.10
501.67	38550.96
501.84	39051.84
502.02	38871.62
502.20	39253.12
502.37	39505.90
502.55	38955.88
502.72	39599.52
502.90	39711.87
503.07	39594.84
503.25	39803.15
503.43	39700.17
503.60	40278.28
503.78	40119.12
503.95	40030.18
504.13	40240.83
504.30	40652.76
504.48	40332.11
504.65	40266.58
504.83	41017.89
505.01	41303.43
505.18	40884.48
505.36	41542.17
505.53	41109.17
505.71	41628.77
505.88	41642.81
506.06	41481.31
506.23	41771.54
506.41	41539.83
506.58	41956.44
506.76	42094.53
506.93	42522.85
507.11	42682.01
507.28	42323.91
507.46	42700.73
507.63	42976.92
507.81	42682.01
507.98	42644.56
508.16	43129.05
508.33	42899.68
508.50	43742.27
508.68	43391.19
508.85	43910.79
509.03	43878.02
509.20	43901.43
509.38	43775.04
509.55	44268.89
509.73	44765.09
509.90	44566.14
510.08	44638.70
510.25	44423.37
510.42	44924.24
510.60	44914.88
510.77	45132.55
510.95	45823.01
511.12	44783.81
511.30	45263.62
511.47	45371.28
511.64	45546.82
511.82	45762.15
511.99	45748.11
512.17	45979.82
512.34	45668.53
512.51	46342.61
512.69	46246.65
512.86	46188.13
513.04	46410.48
513.21	46843.48
513.38	46712.41
513.56	47056.47
513.73	46869.23
513.90	47297.55
514.08	46852.84
514.25	47222.65
514.43	46920.72
514.60	47484.79
514.77	47278.82
514.95	47697.78
515.12	47068.17
515.29	47227.33
515.47	48072.26
515.64	47971.62
515.81	47784.38
515.99	48151.84
516.16	48664.42
516.33	48353.13
516.51	48488.88
516.68	48362.49
516.85	48481.86
517.03	48898.47
517.20	48818.89
517.37	48664.42
517.54	49205.08
517.72	48980.39
517.89	48942.94
518.06	49333.81
518.24	49172.31
518.41	49223.81
518.58	49546.80
518.75	48961.67
518.93	49511.69
519.10	49497.65
519.27	49855.75
519.45	49886.18
519.62	49961.08
519.79	49750.43
519.96	49822.98
520.14	50164.70
520.31	50120.23
520.48	50541.53
520.65	50281.73
520.83	50646.85
521.00	50447.91
521.17	50504.08
521.34	50578.98
521.52	50852.82
521.69	50855.16
521.86	50967.51
522.03	50817.71
522.20	51047.08
522.38	51264.75
522.55	51290.50
522.72	51356.03
522.89	51363.06
523.07	51716.48
523.24	51215.60
523.41	51435.61
523.58	51501.15
523.75	51679.03
523.92	51870.95
524.10	51421.57
524.27	52023.09
524.44	51952.87
524.61	52158.84
524.78	52303.95
524.96	52093.30
525.13	52287.57
525.30	52413.96
525.47	52704.18
525.64	52554.39
525.81	52542.69
525.98	52776.74
526.16	52458.43
526.33	52711.20
526.50	52907.81
526.67	53043.56
526.84	52971.00
527.01	52797.80
527.18	52739.29
527.36	52814.19
527.53	53010.79
527.70	53616.99
527.87	53350.17
528.04	53176.97
528.21	53167.61
528.38	53694.23
528.55	53553.80
528.72	53343.15
528.89	53439.11
529.07	53291.66
529.24	53429.75
529.41	53759.76
529.58	53586.57
529.75	53432.09
529.92	53684.87
530.09	53724.66
530.26	54113.19
530.43	53872.11
530.60	53937.65
530.77	53581.88
530.94	54288.73
531.11	53869.77
531.28	54122.55
531.46	54110.85
531.63	54113.19
531.80	54206.81
531.97	54286.39
532.14	54443.20
532.31	54092.12
532.48	54361.28
532.65	54466.61
532.82	54408.09
532.99	54773.22
533.16	54368.30
533.33	54927.69
533.50	54841.09
533.67	55000.25
533.84	54520.44
534.01	54777.90
534.18	54906.63
534.35	55112.59
534.52	54803.64
534.69	54923.01
534.86	55274.09
535.03	55098.55
535.20	55044.72
535.37	55337.29
535.54	55428.57
535.71	55068.12
535.88	55281.11
536.05	55341.97
536.22	55435.59
536.38	55440.27
536.55	55405.16
536.72	55749.22
536.89	55458.99
537.06	55498.78
537.23	55810.07
537.40	55732.84
537.57	55777.31
537.74	55852.20
537.91	55931.78
538.08	55943.48
538.25	55608.79
538.42	55931.78
538.59	56243.07
538.75	55901.36
538.92	55966.89
539.09	56275.84
539.26	56137.75
539.43	55838.16
539.60	56184.56
539.77	56191.58
539.94	56292.22
540.11	56355.42
540.28	56463.08
540.44	56456.06
540.61	56381.16
540.78	56247.75
540.95	56474.79
541.12	56081.58
541.29	56369.46
541.46	56580.11
541.62	56484.15
541.79	56750.97
541.96	56542.66
542.13	56537.98
542.30	56732.25
542.47	56863.32
542.63	56849.27
542.80	56697.14
542.97	57144.18
543.14	57176.95
543.31	57146.52
543.48	57160.56
543.64	57118.43
543.81	57153.54
543.98	57420.36
544.15	57495.26
544.32	57396.96
544.48	57574.84
544.65	57396.96
544.82	57467.17
544.99	57235.46
545.16	57403.98
545.32	57542.07
545.49	57474.20
545.66	57790.17
545.83	57654.42
546.00	57670.80
546.16	57745.70
546.33	57785.49
546.50	57354.83
546.67	57834.64
546.83	57392.28
547.00	57853.36
547.17	57801.87
547.34	57932.94
547.50	58052.31
547.67	57881.45
547.84	58145.93
548.00	58134.23
548.17	58220.83
548.34	57881.45
548.51	58129.54
548.67	58199.76
548.84	58195.08
549.01	57867.40
549.18	58204.44
549.34	58244.23
549.51	58145.93
549.68	58564.88
549.84	58251.25
550.01	58279.34
550.18	58379.98
550.34	58286.36
550.51	58363.60
550.68	58433.81
550.84	58082.73
551.01	58504.03
551.18	58309.77
551.34	58454.88
551.51	58347.21
551.68	58581.27
551.84	58752.13
552.01	58436.16
552.18	58546.16
552.34	58522.76
552.51	58946.39
552.68	58489.99
552.84	58602.33
553.01	59042.35
553.18	58653.82
553.34	58822.34
553.51	58796.60
553.67	58880.86
553.84	58976.82
554.01	58993.20
554.17	58981.50
554.34	59096.19
554.51	58969.80
554.67	59030.65
554.84	58951.07
555.00	58920.65
555.17	59011.93
555.33	59145.34
555.50	58836.39
555.67	59021.29
555.83	59056.40
556.00	58944.05
556.16	59412.16
556.33	59393.43
556.50	59187.47
556.66	59178.10
556.83	58899.58
556.99	59547.91
557.16	59267.05
557.32	59377.05
557.49	59503.44
557.65	59332.58
557.82	59444.93
557.98	59449.61
558.15	59405.14
558.32	59421.52
558.48	59465.99
558.65	59494.08
558.81	59561.95
558.98	59552.59
559.14	59604.08
559.31	59613.44
559.47	59674.30
559.64	59512.80
559.80	59515.14
559.97	59664.94
560.13	59468.33
560.30	59681.32
560.46	59494.08
560.63	59746.86
560.79	59725.79
560.96	59831.11
561.12	59852.18
561.29	59891.97
561.45	59824.09
561.61	59814.73
561.78	59742.17
561.94	59779.62
562.11	59791.33
562.27	60023.04
562.44	59737.49
562.60	60013.68
562.77	59936.44
562.93	59824.09
563.10	60289.86
563.26	59749.20
563.42	60280.50
563.59	60067.51
563.75	59597.06
563.92	59931.76
564.08	59941.12
564.24	60025.38
564.41	60130.70
564.57	60104.96
564.74	60128.36
564.90	59997.29
565.07	60055.81
565.23	60114.32
565.39	60065.17
565.56	60207.94
565.72	60196.24
565.88	60191.56
566.05	60037.08
566.21	60170.49
566.38	60392.84
566.54	60245.39
566.70	60114.32
566.87	60233.69
567.03	60200.92
567.19	60413.91
567.36	60465.40
567.52	60371.78
567.68	60432.63
567.85	60289.86
568.01	60369.44
568.17	60196.24
568.34	60502.85
568.50	60324.97
568.66	60329.65
568.83	60360.08
568.99	60301.56
569.15	60449.02
569.32	60313.26
569.48	60348.37
569.64	60470.08
569.81	60390.50
569.97	60266.45
570.13	60542.64
570.30	60343.69
570.46	60371.78
570.62	60589.45
570.78	60530.93
570.95	60310.92
571.11	60463.06
571.27	60418.59
571.43	60299.22
571.60	60636.26
571.76	60458.38
571.92	60753.29
572.09	60530.93
572.25	60528.59
572.41	60608.17
572.57	60392.84
572.74	60739.24
572.90	60449.02
573.06	60535.62
573.22	60441.99
573.38	60755.63
573.55	60554.34
573.71	60757.97
573.87	60718.18
574.03	60406.89
574.20	60690.09
574.36	60561.36
574.52	60755.63
574.68	60566.04
574.84	60781.37
575.01	60640.94
575.17	60680.73
575.33	60713.50
575.49	60645.62
575.65	60605.83
575.82	60952.23
575.98	60584.77
576.14	60816.48
576.30	60734.56
576.46	60631.58
576.62	60931.17
576.79	60598.81
576.95	60795.42
577.11	60643.28
577.27	60750.94
577.43	60601.15
577.59	60903.08
577.75	60706.47
577.92	60729.88
578.08	60732.22
578.24	60624.56
578.40	60977.98
578.56	61029.47
578.72	60795.42
578.88	61059.90
579.04	60961.59
579.21	60851.59
579.37	61055.21
579.53	60823.50
579.69	60701.79
579.85	60559.02
580.01	60776.69
580.17	60540.30
580.33	60779.03
580.49	60853.93
580.65	60874.99
580.82	60835.20
580.98	60849.25
581.14	60779.03
581.30	61057.56
581.46	60846.91
581.62	60910.10
581.78	60704.13
581.94	60935.85
582.10	60926.49
582.26	60912.44
582.42	60839.89
582.58	60706.47
582.74	60900.74
582.90	60966.27
583.06	60872.65
583.22	60701.79
583.38	60870.31
583.54	60797.76
583.70	61022.45
583.86	60985.00
584.02	60886.70
584.18	61109.05
584.34	60973.30
584.50	60924.14
584.66	60863.29
584.82	60912.44
584.98	61169.90
585.14	60999.04
585.30	60989.68
585.46	61029.47
585.62	61020.11
585.78	61095.00
585.94	60891.38
586.10	60839.89
586.26	61106.71
586.42	61029.47
586.58	60910.10
586.74	61099.68
586.90	60879.67
587.06	61104.37
587.22	61200.33
587.38	61003.72
587.54	61307.99
587.70	61256.50
587.86	61069.26
588.02	61017.77
588.18	61237.78
588.34	61017.77
588.49	60989.68
