SpectraSuite Data File
++++++++++++++++++++++++++++++++++++
Date: Fri Oct 25 10:44:32 EDT 2013
User: price-jones
Dark Spectrum Present: No
Reference Spectrum Present: No
Number of Sampled Component Spectra: 1
Spectrometers: USB2+H05261
Integration Time (usec): 100000 (USB2+H05261)
Spectra Averaged: 1 (USB2+H05261)
Boxcar Smoothing: 0 (USB2+H05261)
Correct for Electrical Dark: No (USB2+H05261)
Strobe/Lamp Enabled: No (USB2+H05261)
Correct for Detector Non-linearity: No (USB2+H05261)
Correct for Stray Light: No (USB2+H05261)
Number of Pixels in Processed Spectrum: 2048
>>>>>Begin Processed Spectral Data<<<<<
365.73	145.11
365.92	145.11
366.12	145.11
366.32	28.09
366.52	28.09
366.72	114.69
366.91	0.00
367.11	0.00
367.31	2.34
367.51	0.00
367.70	0.00
367.90	28.09
368.10	37.45
368.30	0.00
368.49	0.00
368.69	140.43
368.89	21.06
369.09	53.83
369.28	91.28
369.48	37.45
369.68	58.51
369.87	131.07
370.07	107.66
370.27	133.41
370.47	210.65
370.66	287.89
370.86	404.91
371.06	437.68
371.25	461.09
371.45	465.77
371.65	489.17
371.84	507.90
372.04	447.04
372.24	571.09
372.44	428.32
372.63	489.17
372.83	397.89
373.03	416.62
373.22	458.74
373.42	517.26
373.62	503.22
373.81	589.82
374.01	505.56
374.21	580.45
374.40	507.90
374.60	514.92
374.79	601.52
374.99	608.54
375.19	561.73
375.38	503.22
375.58	561.73
375.78	594.50
375.97	601.52
376.17	573.43
376.37	526.62
376.56	561.73
376.76	550.03
376.95	526.62
377.15	615.56
377.35	585.13
377.54	620.24
377.74	519.60
377.93	587.47
378.13	617.90
378.33	660.03
378.52	564.07
378.72	617.90
378.91	545.34
379.11	617.90
379.31	634.29
379.50	571.09
379.70	678.76
379.89	671.73
380.09	573.43
380.28	606.20
380.48	617.90
380.68	631.94
380.87	603.86
381.07	655.35
381.26	664.71
381.46	702.16
381.65	664.71
381.85	692.80
382.04	695.14
382.24	641.31
382.43	716.20
382.63	702.16
382.83	690.46
383.02	674.07
383.22	697.48
383.41	730.25
383.61	755.99
383.80	674.07
384.00	755.99
384.19	671.73
384.39	779.40
384.58	702.16
384.78	755.99
384.97	809.83
385.17	823.87
385.36	894.08
385.56	732.59
385.75	695.14
385.95	805.14
386.14	767.70
386.34	858.98
386.53	739.61
386.72	779.40
386.92	849.61
387.11	819.19
387.31	875.36
387.50	716.20
387.70	840.25
387.89	821.53
388.09	821.53
388.28	791.10
388.48	870.68
388.67	814.51
388.86	915.15
389.06	903.45
389.25	894.08
389.45	889.40
389.64	863.66
389.84	952.60
390.03	898.77
390.22	910.47
390.42	889.40
390.61	964.30
390.81	938.55
391.00	952.60
391.19	1004.09
391.39	994.73
391.58	1022.81
391.78	858.98
391.97	1064.94
392.16	983.02
392.36	1006.43
392.55	980.68
392.75	971.32
392.94	940.90
393.13	990.05
393.33	1004.09
393.52	936.21
393.71	1088.35
393.91	1076.65
394.10	1118.78
394.29	1032.18
394.49	1020.47
394.68	1076.65
394.88	1057.92
395.07	1064.94
395.26	1123.46
395.46	1100.05
395.65	1165.59
395.84	1153.88
396.04	1130.48
396.23	1083.67
396.42	1043.88
396.62	1086.01
396.81	1228.78
397.00	1149.20
397.19	1242.82
397.39	1207.72
397.58	1259.21
397.77	1273.25
397.97	1256.87
398.16	1270.91
398.35	1320.06
398.55	1193.67
398.74	1404.32
398.93	1416.02
399.12	1376.24
399.32	1409.00
399.51	1327.08
399.70	1453.47
399.90	1437.09
400.09	1444.11
400.28	1486.24
400.47	1502.62
400.67	1577.52
400.86	1481.56
401.05	1467.52
401.24	1486.24
401.44	1584.54
401.63	1542.41
401.82	1619.65
402.01	1572.84
402.21	1507.30
402.40	1593.90
402.59	1614.97
402.78	1685.19
402.97	1605.61
403.17	1689.87
403.36	1757.74
403.55	1617.31
403.74	1720.29
403.93	1671.14
404.13	1732.00
404.32	1636.03
404.51	1673.48
404.70	1645.40
404.89	1729.66
405.09	1762.42
405.28	1750.72
405.47	1804.55
405.66	1844.34
405.85	1872.43
406.05	1771.79
406.24	1792.85
406.43	1722.63
406.62	1858.39
406.81	2026.90
407.00	1898.17
407.20	1825.62
407.39	1874.77
407.58	1912.22
407.77	1977.75
407.96	2069.03
408.15	1991.80
408.34	2085.42
408.54	2113.50
408.73	2036.27
408.92	2062.01
409.11	2029.24
409.30	2085.42
409.49	2064.35
409.68	2099.46
409.87	2083.08
410.07	2146.27
410.26	2106.48
410.45	2120.53
410.64	2253.94
410.83	2359.26
411.02	2310.11
411.21	2340.54
411.40	2373.30
411.59	2359.26
411.78	2438.84
411.98	2375.64
412.17	2387.35
412.36	2354.58
412.55	2452.88
412.74	2492.67
412.93	2586.29
413.12	2513.74
413.31	2654.17
413.50	2586.29
413.69	2579.27
413.88	2661.19
414.07	2572.25
414.26	2677.57
414.45	2700.98
414.64	2623.74
414.83	2747.79
415.02	2686.94
415.22	2843.75
415.41	2867.16
415.60	2930.35
415.79	2949.08
415.98	2991.20
416.17	2970.14
416.36	2986.52
416.55	3012.27
416.74	2991.20
416.93	2916.31
417.12	3094.19
417.31	3068.44
417.50	3108.23
417.69	3180.79
417.88	3080.14
418.07	3213.56
418.26	3213.56
418.45	3255.69
418.64	3269.73
418.83	3148.02
419.02	3309.52
419.21	3309.52
419.39	3218.24
419.58	3243.98
419.77	3295.47
419.96	3342.28
420.15	3400.80
420.34	3433.57
420.53	3349.31
420.72	3602.08
420.91	3438.25
421.10	3431.23
421.29	3541.23
421.48	3377.39
421.67	3630.17
421.86	3389.10
422.05	3581.02
422.24	3456.97
422.43	3531.87
422.61	3400.80
422.80	3576.34
422.99	3625.49
423.18	3595.06
423.37	3613.79
423.56	3623.15
423.75	3653.58
423.94	3611.45
424.13	3499.10
424.32	3466.33
424.50	3857.20
424.69	3691.02
424.88	3772.94
425.07	3592.72
425.26	3510.80
425.45	3646.55
425.64	3653.58
425.83	3646.55
426.01	3808.05
426.20	3758.90
426.39	3744.86
426.58	3557.61
426.77	3531.87
426.96	3684.00
427.15	3639.53
427.33	3728.47
427.52	3721.45
427.71	3737.84
427.90	3889.97
428.09	3815.07
428.28	3786.99
428.46	3892.31
428.65	3810.39
428.84	4011.68
429.03	4028.06
429.22	3871.25
429.40	3950.82
429.59	3889.97
429.78	3887.63
429.97	3672.30
430.16	3765.92
430.34	3784.65
430.53	4049.13
430.72	3887.63
430.91	4016.36
431.10	4067.85
431.28	4238.71
431.47	4234.03
431.66	4308.93
431.85	4128.70
432.03	4198.92
432.22	4360.42
432.41	4283.18
432.60	4329.99
432.79	4234.03
432.97	4367.44
433.16	4348.72
433.35	4212.96
433.54	4449.36
433.72	4475.10
433.91	4432.97
434.10	4381.48
434.28	4315.95
434.47	4461.06
434.66	4528.94
434.85	4521.92
435.03	4697.46
435.22	4571.07
435.41	4697.46
435.59	4648.30
435.78	4807.46
435.97	4746.61
436.16	4730.22
436.34	4732.56
436.53	4631.92
436.72	4966.62
436.90	4699.80
437.09	4898.74
437.28	4739.58
437.46	4746.61
437.65	4709.16
437.84	4732.56
438.02	4655.33
438.21	4905.76
438.40	4739.58
438.58	4873.00
438.77	4961.94
438.96	4947.89
439.14	5170.24
439.33	5156.20
439.52	5233.44
439.70	5121.09
439.89	5327.06
440.08	5369.19
440.26	5186.63
440.45	5249.82
440.63	5425.36
440.82	5460.47
441.01	5628.99
441.19	5551.75
441.38	5551.75
441.57	5624.31
441.75	5596.22
441.94	5760.06
442.12	5839.64
442.31	5928.58
442.50	5877.09
442.68	5771.76
442.87	5514.30
443.05	5806.87
443.24	5930.92
443.43	5874.74
443.61	6015.18
443.80	6141.57
443.98	5802.19
444.17	5647.71
444.35	5909.85
444.54	6230.51
444.73	6005.81
444.91	6106.46
445.10	6141.57
445.28	5951.98
445.47	5863.04
445.65	6001.13
445.84	6207.10
446.02	6108.80
446.21	6024.54
446.39	6012.84
446.58	6190.72
446.77	6033.90
446.95	5809.21
447.14	6237.53
447.32	6188.38
447.51	5989.43
447.69	6064.33
447.88	6237.53
448.06	6160.29
448.25	6017.52
448.43	6270.30
448.62	6246.89
448.80	6204.76
448.99	6115.82
449.17	6188.38
449.36	6389.66
449.54	6396.68
449.73	6530.09
449.91	6511.37
450.10	6548.82
450.28	6581.59
450.46	6630.74
450.65	6546.48
450.83	6504.35
451.02	6672.87
451.20	6628.40
451.39	6670.53
451.57	6684.57
451.76	6588.61
451.94	6747.76
452.13	6860.11
452.31	6766.49
452.49	6649.46
452.68	6883.52
452.86	6637.76
453.05	6731.38
453.23	6953.73
453.42	6619.04
453.60	6612.01
453.78	6855.43
453.97	6766.49
454.15	6738.40
454.34	6916.28
454.52	6895.22
454.70	7059.06
454.89	6848.41
455.07	6803.94
455.26	6834.36
455.44	7052.03
455.62	7180.76
455.81	7171.40
455.99	7119.91
456.17	7222.89
456.36	7143.32
456.54	7485.03
456.73	7311.83
456.91	7515.46
457.09	7382.05
457.28	7669.94
457.46	7349.28
457.64	7541.21
457.83	7503.76
458.01	7337.58
458.19	7691.00
458.38	7435.88
458.56	7424.18
458.74	7562.27
458.93	7658.23
459.11	7550.57
459.29	7620.78
459.48	7569.29
459.66	7639.51
459.84	7878.24
460.03	7990.59
460.21	7672.28
460.39	7625.47
460.57	7644.19
460.76	7744.83
460.94	7978.89
461.12	7971.86
461.31	7964.84
461.49	7946.12
461.67	7786.96
461.85	8236.35
462.04	8168.47
462.22	8278.47
462.40	8372.10
462.59	8006.97
462.77	8077.19
462.95	8390.82
463.13	8386.14
463.32	8219.96
463.50	8372.10
463.68	8329.97
463.86	8334.65
464.05	8074.85
464.23	8259.75
464.41	8334.65
464.59	8255.07
464.78	8175.49
464.96	8423.59
465.14	8395.50
465.32	8568.70
465.50	8685.73
465.69	8496.14
465.87	8496.14
466.05	8758.28
466.23	8512.53
466.41	8458.70
466.60	8816.80
466.78	8638.92
466.96	8552.32
467.14	8512.53
467.32	8650.62
467.51	8636.58
467.69	8461.04
467.87	8739.56
468.05	8922.12
468.23	8662.32
468.41	8788.71
468.60	8975.95
468.78	8784.03
468.96	8657.64
469.14	8978.30
469.32	9277.88
469.50	8924.46
469.69	9123.41
469.87	9090.64
470.05	9282.56
470.23	9020.42
470.41	9289.59
470.59	9315.33
470.77	9280.22
470.95	9345.76
471.14	9415.98
471.32	9254.48
471.50	9518.96
471.68	9444.06
471.86	9507.26
472.04	9568.11
472.22	9561.09
472.40	9446.40
472.58	9619.60
472.77	9724.93
472.95	9804.50
473.13	9886.42
473.31	9930.89
473.49	9848.97
473.67	9877.06
473.85	9980.04
474.03	10010.47
474.21	10258.57
474.39	10317.08
474.57	10272.61
474.75	10485.60
474.93	10279.63
475.12	10401.34
475.30	10546.45
475.48	10359.21
475.66	10619.01
475.84	10796.89
476.02	10462.19
476.20	10787.53
476.38	10925.62
476.56	11056.69
476.74	10911.58
476.92	11087.12
477.10	11014.56
477.28	11023.92
477.46	11103.50
477.64	11529.48
477.82	11412.45
478.00	11702.68
478.18	11468.62
478.36	11501.39
478.54	11910.99
478.72	11754.17
478.90	12051.42
479.08	12222.28
479.26	12058.44
479.44	12283.13
479.62	12205.89
479.80	12334.62
479.98	12645.91
480.16	12664.64
480.34	12678.68
480.52	12863.58
480.70	12915.08
480.88	12559.31
481.06	12905.71
481.24	12901.03
481.41	13350.42
481.59	13427.65
481.77	13373.82
481.95	13458.08
482.13	13518.93
482.31	13699.16
482.49	14075.98
482.67	13961.30
482.85	13942.57
483.03	14024.49
483.21	14333.44
483.39	14719.63
483.57	14281.95
483.74	14448.13
483.92	14705.59
484.10	14572.18
484.28	14953.68
484.46	15117.52
484.64	15190.08
484.82	15068.37
485.00	15145.61
485.18	15328.17
485.35	15421.79
485.53	15159.65
485.71	15236.89
485.89	15358.60
486.07	15594.99
486.25	15552.86
486.43	15791.59
486.61	15719.04
486.78	16203.53
486.96	16226.93
487.14	16491.41
487.32	16582.70
487.50	16961.86
487.68	16926.75
487.85	17006.33
488.03	17483.80
488.21	17535.29
488.39	17411.25
488.57	17413.59
488.75	17497.84
488.92	17804.46
489.10	17963.61
489.28	18197.67
489.46	18251.50
489.64	18293.63
489.81	18778.12
489.99	18654.07
490.17	18824.93
490.35	18810.89
490.53	19115.16
490.70	19197.07
490.88	19166.65
491.06	19344.53
491.24	19438.15
491.41	19590.28
491.59	19459.21
491.77	19606.67
491.95	19578.58
492.13	20180.10
492.30	20121.59
492.48	20095.84
492.66	20404.79
492.84	20280.74
493.01	20826.09
493.19	20587.35
493.37	20744.17
493.54	20915.03
493.72	21179.51
493.90	21294.19
494.08	21212.28
494.25	21804.43
494.43	21853.58
494.61	21846.56
494.79	21659.32
494.96	21722.51
495.14	21736.56
495.32	22473.82
495.49	22059.55
495.67	22438.72
495.85	22522.98
496.02	22773.41
496.20	22742.99
496.38	22937.25
496.55	22899.80
496.73	23573.88
496.91	23253.22
497.09	23655.79
497.26	23466.21
497.44	23524.72
497.62	23496.64
497.79	23906.23
497.97	23754.10
498.14	23817.29
498.32	24173.05
498.50	23697.92
498.67	24531.15
498.85	24409.45
499.03	24690.31
499.20	24355.61
499.38	24393.06
499.56	24706.70
499.73	25329.28
499.91	24776.91
500.08	25076.50
500.26	24973.52
500.44	25249.70
500.61	25242.68
500.79	24891.60
500.97	25413.54
501.14	25668.66
501.32	25415.88
501.49	25490.77
501.67	25551.63
501.84	25553.97
502.02	26424.65
502.20	26176.55
502.37	26214.00
502.55	25825.47
502.72	26579.12
502.90	26363.79
503.07	26403.58
503.25	26546.36
503.43	26803.82
503.60	26527.63
503.78	26625.93
503.95	26572.10
504.13	26579.12
504.30	26977.01
504.48	27110.43
504.65	27339.80
504.83	27524.70
505.01	27498.95
505.18	27344.48
505.36	27824.29
505.53	27847.69
505.71	27885.14
505.88	28030.26
506.06	27559.81
506.23	28095.79
506.41	27723.65
506.58	28252.61
506.76	28184.73
506.93	28376.66
507.11	28498.36
507.28	28540.49
507.46	28694.97
507.63	28451.55
507.81	28790.93
507.98	28421.13
508.16	28313.46
508.33	29048.39
508.50	28844.76
508.68	28811.99
508.85	29214.57
509.03	29294.14
509.20	29132.65
509.38	29619.48
509.55	29837.15
509.73	29504.79
509.90	29685.01
510.08	29462.66
510.25	29626.50
510.42	29914.39
510.60	29722.46
510.77	30426.96
510.95	30242.06
511.12	30471.43
511.30	30092.27
511.47	30679.74
511.64	30471.43
511.82	30188.23
511.99	30298.23
512.17	30691.44
512.34	30511.22
512.51	31131.47
512.69	31253.17
512.86	30897.41
513.04	30974.65
513.21	30972.31
513.38	31087.00
513.56	31246.15
513.73	31250.83
513.90	31498.93
514.08	31065.93
514.25	31512.97
514.43	31295.30
514.60	31318.71
514.77	31531.70
514.95	31545.74
515.12	31768.09
515.29	31803.20
515.47	32088.74
515.64	32474.93
515.81	31903.84
515.99	32329.82
516.16	32107.47
516.33	31714.26
516.51	32217.47
516.68	32161.30
516.85	31606.59
517.03	32126.19
517.20	32261.94
517.37	32858.78
517.54	32622.39
517.72	32538.13
517.89	32304.07
518.06	32627.07
518.24	32760.48
518.41	32744.09
518.58	33020.28
518.75	33008.58
518.93	32987.51
519.10	33354.97
519.27	32926.66
519.45	33392.42
519.62	33579.67
519.79	33436.89
519.96	33715.42
520.14	33748.18
520.31	33628.82
520.48	33787.97
520.65	33717.76
520.83	34059.48
521.00	34307.57
521.17	33961.17
521.34	34160.12
521.52	33783.29
521.69	34550.99
521.86	34593.12
522.03	34616.52
522.20	34609.50
522.38	34394.17
522.55	34927.81
522.72	35119.74
522.89	34473.75
523.07	34803.77
523.24	34312.25
523.41	35042.50
523.58	35091.65
523.75	35395.92
523.92	35323.36
524.10	35278.89
524.27	35644.02
524.44	35512.95
524.61	36018.50
524.78	35789.13
524.96	35655.72
525.13	35812.54
525.30	35903.82
525.47	35969.35
525.64	36013.82
525.81	35936.59
525.98	36046.59
526.16	35655.72
526.33	36011.48
526.50	36055.95
526.67	35665.08
526.84	35950.63
527.01	36123.83
527.18	36205.75
527.36	36325.11
527.53	36514.70
527.70	36423.42
527.87	36833.01
528.04	36467.89
528.21	36802.58
528.38	36797.90
528.55	37106.85
528.72	36945.36
528.89	37249.63
529.07	36982.80
529.24	36584.91
529.41	37195.79
529.58	36917.27
529.75	37137.28
529.92	37230.90
530.09	37378.36
530.26	37284.73
530.43	37195.79
530.60	37076.43
530.77	37230.90
530.94	37984.55
531.11	37701.35
531.28	37881.57
531.46	37790.29
531.63	37912.00
531.80	37731.78
531.97	37865.19
532.14	37640.50
532.31	37368.99
532.48	37811.35
532.65	38073.49
532.82	37542.19
532.99	38316.91
533.16	37717.73
533.33	37830.08
533.50	38415.21
533.67	38550.96
533.84	38279.46
534.01	38639.90
534.18	38298.19
534.35	38347.34
534.52	38398.83
534.69	38508.83
534.86	38850.55
535.03	39023.75
535.20	38588.41
535.37	38969.92
535.54	38911.41
535.71	39206.31
535.88	38857.57
536.05	39026.09
536.22	39164.18
536.38	39250.78
536.55	39325.68
536.72	39023.75
536.89	38815.44
537.06	39056.52
537.23	39168.87
537.40	39313.98
537.57	39419.30
537.74	39161.84
537.91	39988.05
538.08	39477.82
538.25	39349.09
538.42	39416.96
538.59	39730.59
538.75	39086.95
538.92	39487.18
539.09	39658.04
539.26	39330.36
539.43	39763.36
539.60	39412.28
539.77	39166.52
539.94	39742.30
540.11	39716.55
540.28	39796.13
540.44	39442.71
540.61	39611.23
540.78	40144.87
540.95	39812.51
541.12	39620.59
541.29	39791.45
541.46	40144.87
541.62	40179.98
541.79	40392.97
541.96	40261.90
542.13	39814.85
542.30	40102.74
542.47	40535.74
542.63	40505.31
542.80	40542.76
542.97	40947.67
543.14	41034.27
543.31	40921.93
543.48	40760.43
543.64	41106.83
543.81	41198.11
543.98	41214.49
544.15	41170.02
544.32	41338.54
544.48	41584.30
544.65	41195.77
544.82	41258.96
544.99	41207.47
545.16	41193.43
545.32	41078.74
545.49	41816.01
545.66	41633.45
545.83	41549.19
546.00	41741.11
546.16	41198.11
546.33	41502.38
546.50	41237.90
546.67	41886.23
546.83	41401.74
547.00	41565.57
547.17	41942.40
547.34	41588.98
547.50	41869.84
547.67	41904.95
547.84	41628.77
548.00	41703.67
548.17	42445.62
548.34	41713.03
548.51	42176.45
548.67	41996.23
548.84	42452.64
549.01	41628.77
549.18	42026.66
549.34	42178.79
549.51	42651.58
549.68	42403.49
549.84	42038.36
550.01	42251.35
550.18	42167.09
550.34	42328.59
550.51	42237.31
550.68	42478.38
550.84	42127.30
551.01	42387.10
551.18	42696.05
551.34	42089.85
551.51	42450.30
551.68	42588.39
551.84	42719.46
552.01	42593.07
552.18	42120.28
552.34	42696.05
552.51	42700.73
552.68	42431.57
552.84	43173.52
553.01	42944.15
553.18	42593.07
553.34	42663.28
553.51	42698.39
553.67	42986.28
553.84	43107.99
554.01	42679.67
554.17	43477.79
554.34	43026.07
554.51	43171.18
554.67	42855.21
554.84	43297.57
555.00	42827.12
555.17	42852.87
555.33	43302.25
555.50	43292.89
555.67	42920.74
555.83	43346.72
556.00	42892.66
556.16	43309.27
556.33	43533.96
556.50	43276.51
556.66	43276.51
556.83	43302.25
556.99	43470.77
557.16	43302.25
557.32	43695.46
557.49	43800.79
557.65	43342.04
557.82	43498.86
557.98	43569.07
558.15	43730.57
558.32	43810.15
558.48	43402.89
558.65	43573.75
558.81	43810.15
558.98	43826.53
559.14	43220.33
559.31	43810.15
559.47	43739.93
559.64	44617.63
559.80	43920.15
559.97	43772.70
560.13	43400.55
560.30	43430.98
560.46	43739.93
560.63	43913.13
560.79	44086.33
560.96	44577.84
561.12	44243.15
561.29	43812.49
561.45	43807.81
561.61	43817.17
561.78	43695.46
561.94	43718.87
562.11	43999.73
562.27	43805.47
562.44	43761.00
562.60	44243.15
562.77	44083.99
562.93	44046.54
563.10	44416.35
563.26	43669.72
563.42	44236.12
563.59	44083.99
563.75	44254.85
563.92	44203.36
564.08	44563.80
564.24	44692.53
564.41	44224.42
564.57	44037.18
564.74	43913.13
564.90	44210.38
565.07	44144.84
565.23	44147.18
565.39	43861.64
565.56	44638.70
565.72	43941.22
565.88	44315.70
566.05	44411.67
566.21	44224.42
566.38	44083.99
566.54	44608.27
566.70	44842.32
566.87	44758.06
567.03	44306.34
567.19	44774.45
567.36	44589.55
567.52	44137.82
567.68	44847.00
567.85	44105.06
568.01	44357.83
568.17	44378.90
568.34	44236.12
568.50	44294.64
568.66	44369.54
568.83	44563.80
568.99	44524.01
569.15	44460.82
569.32	44165.91
569.48	44650.40
569.64	44746.36
569.81	44114.42
569.97	44334.43
570.13	44692.53
570.30	44217.40
570.46	44409.32
570.62	44332.09
570.78	44013.77
570.95	44704.23
571.11	44863.39
571.27	44559.12
571.43	44505.29
571.60	44502.95
571.76	44156.55
571.92	44671.46
572.09	44423.37
572.25	44547.42
572.41	44491.24
572.57	44917.22
572.74	45202.77
572.90	44910.20
573.06	44861.05
573.22	44767.43
573.38	44605.93
573.55	44854.03
573.71	45113.83
573.87	44886.79
574.03	44708.91
574.20	44397.62
574.36	44390.60
574.52	44804.88
574.68	45064.67
574.84	44823.60
575.01	44343.79
575.17	44870.41
575.33	44390.60
575.49	44755.72
575.65	44463.16
575.82	45191.06
575.98	45071.70
576.14	45247.24
576.30	45027.23
576.46	44638.70
576.62	44835.30
576.79	44720.62
576.95	44322.72
577.11	44622.31
577.27	44715.93
577.43	44465.50
577.59	44832.96
577.75	44348.47
577.92	44289.96
578.08	44886.79
578.24	44582.52
578.40	44299.32
578.56	45074.04
578.72	45153.62
578.88	45165.32
579.04	44896.16
579.21	44711.25
579.37	44947.65
579.53	44760.40
579.69	44823.60
579.85	44758.06
580.01	44872.75
580.17	45020.20
580.33	44741.68
580.49	45289.37
580.65	45303.41
580.82	45214.47
580.98	44505.29
581.14	44343.79
581.30	45010.84
581.46	44987.44
581.62	44893.82
581.78	44865.73
581.94	44839.98
582.10	44584.86
582.26	44788.49
582.42	44837.64
582.58	44868.07
582.74	44762.75
582.90	44903.18
583.06	45607.68
583.22	45518.74
583.38	45146.59
583.54	44973.39
583.70	44774.45
583.86	44844.66
584.02	44732.32
584.18	44858.71
584.34	44725.30
584.50	45062.33
584.66	44626.99
584.82	45048.29
584.98	45502.35
585.14	45148.93
585.30	44914.88
585.46	45027.23
585.62	44772.11
585.78	44758.06
585.94	44748.70
586.10	44687.85
586.26	45027.23
586.42	45085.74
586.58	45312.77
586.74	45095.10
586.90	44762.75
587.06	44626.99
587.22	44624.65
587.38	44978.07
587.54	45106.80
587.70	44987.44
587.86	45153.62
588.02	44989.78
588.18	45155.96
588.34	44870.41
588.49	44837.64
588.65	44729.98
588.81	44868.07
588.97	44521.67
589.13	44856.37
589.29	44865.73
589.45	44706.57
589.61	44886.79
589.77	44999.14
589.93	45418.10
590.08	45022.54
590.24	44931.26
