SpectraSuite Data File
++++++++++++++++++++++++++++++++++++
Date: Fri Oct 25 11:26:24 EDT 2013
User: price-jones
Dark Spectrum Present: No
Reference Spectrum Present: No
Number of Sampled Component Spectra: 1
Spectrometers: USB2+H05261
Integration Time (usec): 100000 (USB2+H05261)
Spectra Averaged: 1 (USB2+H05261)
Boxcar Smoothing: 0 (USB2+H05261)
Correct for Electrical Dark: No (USB2+H05261)
Strobe/Lamp Enabled: No (USB2+H05261)
Correct for Detector Non-linearity: No (USB2+H05261)
Correct for Stray Light: No (USB2+H05261)
Number of Pixels in Processed Spectrum: 2048
>>>>>Begin Processed Spectral Data<<<<<
365.73	278.52
365.92	278.52
366.12	278.52
366.32	131.07
366.52	163.84
366.72	156.82
366.91	138.09
367.11	135.75
367.31	161.50
367.51	102.98
367.70	126.39
367.90	128.73
368.10	177.88
368.30	168.52
368.49	210.65
368.69	163.84
368.89	135.75
369.09	121.71
369.28	156.82
369.48	229.37
369.68	241.08
369.87	147.45
370.07	212.99
370.27	166.18
370.47	362.78
370.66	582.79
370.86	636.63
371.06	669.39
371.25	674.07
371.45	617.90
371.65	657.69
371.84	596.84
372.04	669.39
372.24	678.76
372.44	746.63
372.63	744.29
372.83	800.46
373.03	753.65
373.22	781.74
373.42	758.33
373.62	727.91
373.81	840.25
374.01	788.76
374.21	812.17
374.40	812.17
374.60	936.21
374.79	868.34
374.99	842.59
375.19	786.42
375.38	819.19
375.58	819.19
375.78	912.81
375.97	805.14
376.17	887.06
376.37	837.91
376.56	910.47
376.76	807.48
376.95	903.45
377.15	940.90
377.35	849.61
377.54	919.83
377.74	802.80
377.93	837.91
378.13	870.68
378.33	954.94
378.52	894.08
378.72	964.30
378.91	999.41
379.11	976.00
379.31	884.72
379.50	1015.79
379.70	976.00
379.89	971.32
380.09	987.71
380.28	940.90
380.48	1001.75
380.68	1074.31
380.87	938.55
381.07	1125.80
381.26	1004.09
381.46	978.34
381.65	1107.07
381.85	1156.22
382.04	1050.90
382.24	1088.35
382.43	1048.56
382.63	1036.86
382.83	1032.18
383.02	1149.20
383.22	1130.48
383.41	1097.71
383.61	1088.35
383.80	1102.39
384.00	1109.41
384.19	1081.33
384.39	1111.75
384.58	1093.03
384.78	1181.97
384.97	1153.88
385.17	1221.76
385.36	1181.97
385.56	1247.51
385.75	1107.07
385.95	1165.59
386.14	1188.99
386.34	1226.44
386.53	1235.80
386.72	1149.20
386.92	1193.67
387.11	1284.95
387.31	1252.19
387.50	1226.44
387.70	1179.63
387.89	1235.80
388.09	1315.38
388.28	1390.28
388.48	1301.34
388.67	1427.73
388.86	1380.92
389.06	1308.36
389.25	1352.83
389.45	1327.08
389.64	1369.21
389.84	1380.92
390.03	1397.30
390.22	1359.85
390.42	1439.43
390.61	1394.96
390.81	1336.45
391.00	1352.83
391.19	1490.92
391.39	1500.28
391.58	1413.68
391.78	1493.26
391.97	1476.88
392.16	1509.65
392.36	1596.25
392.55	1511.99
392.75	1533.05
392.94	1516.67
393.13	1451.13
393.33	1530.71
393.52	1495.60
393.71	1570.50
393.91	1593.90
394.10	1544.75
394.29	1509.65
394.49	1535.39
394.68	1732.00
394.88	1629.01
395.07	1713.27
395.26	1675.82
395.46	1666.46
395.65	1694.55
395.84	1877.11
396.04	1867.75
396.23	1830.30
396.42	1699.23
396.62	1797.53
396.81	1734.34
397.00	1757.74
397.19	1849.02
397.39	1813.92
397.58	1877.11
397.77	1839.66
397.97	1867.75
398.16	1842.00
398.35	1853.70
398.55	1870.09
398.74	1792.85
398.93	1933.28
399.12	1834.98
399.32	1872.43
399.51	1900.52
399.70	2054.99
399.90	1996.48
400.09	2073.71
400.28	2101.80
400.47	2026.90
400.67	1998.82
400.86	2022.22
401.05	2129.89
401.24	2059.67
401.44	2223.51
401.63	2118.18
401.82	2172.02
402.01	2232.87
402.21	2125.21
402.40	2190.74
402.59	2207.13
402.78	2169.68
402.97	2221.17
403.17	2216.49
403.36	2207.13
403.55	2223.51
403.74	2298.41
403.93	2413.09
404.13	2300.75
404.32	2361.60
404.51	2303.09
404.70	2431.82
404.89	2282.02
405.09	2546.50
405.28	2380.32
405.47	2443.52
405.66	2509.05
405.85	2553.52
406.05	2576.93
406.24	2492.67
406.43	2567.57
406.62	2630.76
406.81	2752.47
407.00	2583.95
407.20	2607.36
407.39	2583.95
407.58	2637.78
407.77	2640.12
407.96	2757.15
408.15	2794.60
408.34	2796.94
408.54	2651.83
408.73	2818.00
408.92	2850.77
409.11	2913.97
409.30	2909.29
409.49	2815.66
409.68	2949.08
409.87	2958.44
410.07	2899.92
410.26	3005.25
410.45	2979.50
410.64	3049.72
410.83	3014.61
411.02	2958.44
411.21	3260.37
411.40	3063.76
411.59	3288.45
411.78	3180.79
411.98	3206.53
412.17	3269.73
412.36	3330.58
412.55	3260.37
412.74	3243.98
412.93	3260.37
413.12	3372.71
413.31	3545.91
413.50	3382.07
413.69	3400.80
413.88	3487.40
414.07	3529.53
414.26	3578.68
414.45	3646.55
414.64	3730.81
414.83	3742.52
415.02	3819.75
415.22	3833.80
415.41	3826.78
415.60	3861.88
415.79	3953.16
415.98	3971.89
416.17	4058.49
416.36	3899.33
416.55	3878.27
416.74	3985.93
416.93	3960.19
417.12	3978.91
417.31	4292.54
417.50	4117.00
417.69	4329.99
417.88	4400.21
418.07	4269.14
418.26	4311.27
418.45	4182.54
418.64	4442.34
418.83	4437.66
419.02	4318.29
419.21	4486.81
419.39	4381.48
419.58	4475.10
419.77	4435.32
419.96	4484.47
420.15	4648.30
420.34	4564.04
420.53	4587.45
420.72	4711.50
420.91	4641.28
421.10	4578.09
421.29	4643.62
421.48	4704.48
421.67	4861.29
421.86	4671.71
422.05	4690.43
422.24	4723.20
422.43	4793.42
422.61	4807.46
422.80	4809.80
422.99	5050.88
423.18	4793.42
423.37	4833.21
423.56	4924.49
423.75	4975.98
423.94	4873.00
424.13	4435.32
424.32	4669.37
424.50	4999.38
424.69	4971.30
424.88	5046.20
425.07	4915.12
425.26	4767.67
425.45	4828.53
425.64	4830.87
425.83	5006.41
426.01	5078.96
426.20	5085.98
426.39	5046.20
426.58	4865.97
426.77	4936.19
426.96	5013.43
427.15	5076.62
427.33	5144.50
427.52	5130.45
427.71	5163.22
427.90	5219.39
428.09	5423.02
428.28	5385.57
428.46	5352.81
428.65	5277.91
428.84	5584.52
429.03	5472.17
429.22	5329.40
429.40	5416.00
429.59	5528.35
429.78	5399.62
429.97	5121.09
430.16	5327.06
430.34	5540.05
430.53	5708.57
430.72	5605.58
430.91	5668.78
431.10	5680.48
431.28	5678.14
431.47	5643.03
431.66	5886.45
431.85	5703.89
432.03	6001.13
432.22	6043.26
432.41	5926.24
432.60	5851.34
432.79	5753.04
432.97	5806.87
433.16	6057.31
433.35	6059.65
433.54	6015.18
433.72	6146.25
433.91	6162.63
434.10	6092.41
434.28	6209.44
434.47	6267.95
434.66	6204.76
434.85	6249.23
435.03	6307.74
435.22	6118.16
435.41	6408.39
435.59	6218.80
435.78	6347.53
435.97	6597.97
436.16	6438.81
436.34	6352.21
436.53	6628.40
436.72	6705.63
436.90	6359.24
437.09	6509.03
437.28	6553.50
437.46	6724.36
437.65	6729.04
437.84	6803.94
438.02	6719.68
438.21	6619.04
438.40	6686.91
438.58	6998.20
438.77	6881.18
438.96	6923.30
439.14	7105.87
439.33	7248.64
439.52	7152.68
439.70	6998.20
439.89	7091.82
440.08	7492.05
440.26	7342.26
440.45	7349.28
440.63	7515.46
440.82	7396.09
441.01	7438.22
441.19	7566.95
441.38	7555.25
441.57	7639.51
441.75	7719.09
441.94	7847.82
442.12	7845.48
442.31	7939.10
442.50	7889.95
442.68	7964.84
442.87	7969.52
443.05	8023.36
443.24	8189.53
443.43	8056.12
443.61	8124.00
443.80	8362.73
443.98	8028.04
444.17	7847.82
444.35	8114.64
444.54	8322.94
444.73	8407.20
444.91	8299.54
445.10	8276.13
445.28	8325.29
445.47	8175.49
445.65	8411.89
445.84	8259.75
446.02	8463.38
446.21	8175.49
446.39	8226.98
446.58	8393.16
446.77	8369.76
446.95	8138.04
447.14	8493.80
447.32	8439.97
447.51	8351.03
447.69	8475.08
447.88	8484.44
448.06	8669.34
448.25	8468.06
448.43	8374.44
448.62	8685.73
448.80	8643.60
448.99	8655.30
449.17	8842.54
449.36	8608.49
449.54	8777.01
449.73	8980.64
449.91	8966.59
450.10	8788.71
450.28	8835.52
450.46	9095.32
450.65	8861.27
450.83	9238.09
451.02	9069.58
451.20	9188.94
451.39	9067.24
451.57	9277.88
451.76	9167.88
451.94	9284.91
452.13	9179.58
452.31	9310.65
452.49	9165.54
452.68	9219.37
452.86	9383.21
453.05	9394.91
453.23	9315.33
453.42	9144.47
453.60	9399.59
453.78	9390.23
453.97	9493.21
454.15	9518.96
454.34	9570.45
454.52	9673.43
454.70	9533.00
454.89	9755.35
455.07	9682.80
455.26	9671.09
455.44	9907.49
455.62	9881.74
455.81	9921.53
455.99	9844.29
456.17	9954.30
456.36	10029.20
456.54	10256.23
456.73	10359.21
456.91	10375.59
457.09	10305.38
457.28	10436.45
457.46	10097.07
457.64	10391.98
457.83	10394.32
458.01	10516.03
458.19	10712.63
458.38	10483.26
458.56	10714.97
458.74	10513.69
458.93	10700.93
459.11	10438.79
459.29	10560.50
459.48	10963.07
459.66	10710.29
459.84	11009.88
460.03	11068.39
460.21	10836.68
460.39	10977.11
460.57	10902.22
460.76	11213.51
460.94	11138.61
461.12	11063.71
461.31	11152.65
461.49	10974.77
461.67	11030.94
461.85	11414.79
462.04	11328.19
462.22	11578.63
462.40	11611.40
462.59	11349.26
462.77	11480.33
462.95	11562.25
463.13	11419.47
463.32	11461.60
463.50	11688.64
463.68	11779.92
463.86	11676.93
464.05	11611.40
464.23	11641.82
464.41	12074.82
464.59	11576.29
464.78	12037.38
464.96	11857.15
465.14	11793.96
465.32	12051.42
465.50	11789.28
465.69	12322.92
465.87	12149.72
466.05	12028.01
466.23	11932.05
466.41	12077.16
466.60	12187.17
466.78	12154.40
466.96	12355.69
467.14	12264.41
467.32	12308.88
467.51	12608.47
467.69	12208.23
467.87	12629.53
468.05	12615.49
468.23	12341.64
468.41	12479.74
468.60	12421.22
468.78	12624.85
468.96	12634.21
469.14	12844.86
469.32	12683.36
469.50	12662.30
469.69	12690.38
469.87	12854.22
470.05	13135.09
470.23	12877.63
470.41	13116.36
470.59	13263.82
470.77	13043.81
470.95	13109.34
471.14	13490.85
471.32	13317.65
471.50	13661.71
471.68	13680.43
471.86	13678.09
472.04	13687.45
472.22	14094.71
472.40	13542.34
472.58	13907.46
472.77	14059.60
472.95	14024.49
473.13	14593.24
473.31	13965.98
473.49	14104.07
473.67	13991.72
473.85	14190.67
474.03	14665.80
474.21	14544.09
474.39	14579.20
474.57	14731.33
474.75	14541.75
474.93	14918.57
475.12	14843.68
475.30	15161.99
475.48	15042.62
475.66	15129.22
475.84	14778.14
476.02	15260.29
476.20	15393.70
476.38	15461.58
476.56	15782.23
476.74	15770.53
476.92	15840.75
477.10	15775.21
477.28	16112.25
477.46	16210.55
477.64	16187.14
477.82	16325.24
478.00	16957.18
478.18	16479.71
478.36	16875.26
478.54	17135.06
478.72	16980.59
478.90	17277.83
479.08	17579.76
479.26	17598.49
479.44	17575.08
479.62	17668.70
479.80	17717.86
479.98	18298.31
480.16	18649.39
480.34	18265.54
480.52	18572.15
480.70	18576.83
480.88	18258.52
481.06	18726.63
481.24	18841.31
481.41	19042.60
481.59	19515.39
481.77	18944.30
481.95	19494.32
482.13	19491.98
482.31	19880.51
482.49	20240.95
482.67	20262.02
482.85	20421.17
483.03	20360.32
483.21	20608.42
483.39	20765.23
483.57	20947.79
483.74	21116.31
483.92	21525.91
484.10	20915.03
484.28	21539.95
484.46	21799.75
484.64	22211.68
484.82	21715.49
485.00	22104.02
485.18	22309.99
485.35	22822.56
485.53	22733.62
485.71	23147.90
485.89	23424.08
486.07	23400.68
486.25	23618.35
486.43	23363.23
486.61	23709.63
486.78	23915.59
486.96	24182.42
487.14	24472.64
487.32	24561.58
487.50	24514.77
487.68	25099.90
487.85	24938.41
488.03	25326.94
488.21	25706.10
488.39	25575.03
488.57	25745.89
488.75	25940.16
488.92	26316.98
489.10	26597.85
489.28	26506.57
489.46	27290.65
489.64	26962.97
489.81	27735.35
489.99	27597.26
490.17	27482.57
490.35	27943.66
490.53	28107.49
490.70	27857.06
490.88	28187.07
491.06	28409.42
491.24	28741.78
491.41	28456.23
491.59	29184.14
491.77	29357.34
491.95	29455.64
492.13	29575.01
492.30	29764.59
492.48	29834.81
492.66	29905.02
492.84	30363.77
493.01	30492.50
493.19	30345.05
493.37	30864.64
493.54	31246.15
493.72	31147.85
493.90	31253.17
494.08	31655.75
494.25	32133.21
494.43	31772.77
494.61	32332.16
494.79	32175.34
494.96	32446.85
495.14	32591.96
495.32	33226.24
495.49	32954.74
495.67	32830.69
495.85	33394.76
496.02	33387.74
496.20	33628.82
496.38	33757.55
496.55	33708.40
496.73	34291.19
496.91	34452.69
497.09	34675.04
497.26	34792.06
497.44	34623.54
497.62	34876.32
497.79	35730.62
497.97	35302.30
498.14	35550.40
498.32	36154.26
498.50	35606.57
498.67	36540.44
498.85	35618.27
499.03	36353.20
499.20	36341.50
499.38	36720.66
499.56	36720.66
499.73	37083.45
499.91	37326.86
500.08	37125.58
500.26	37172.39
500.44	37514.11
500.61	37584.32
500.79	37965.83
500.97	37703.69
501.14	38649.27
501.32	38291.16
501.49	38202.22
501.67	38394.15
501.84	38857.57
502.02	38525.22
502.20	38775.66
502.37	39311.64
502.55	39159.50
502.72	39232.06
502.90	39065.88
503.07	39026.09
503.25	39629.95
503.43	39456.75
503.60	39800.81
503.78	39627.61
503.95	39997.41
504.13	40055.93
504.30	40421.05
504.48	40430.41
504.65	40821.28
504.83	41090.44
505.01	41265.99
505.18	40938.31
505.36	41195.77
505.53	40863.41
505.71	41844.10
505.88	41373.65
506.06	41113.85
506.23	42141.35
506.41	41769.20
506.58	41722.39
506.76	41565.57
506.93	42660.94
507.11	42199.86
507.28	42281.78
507.46	42469.02
507.63	42707.76
507.81	42789.67
507.98	42611.79
508.16	43103.31
508.33	43154.80
508.50	43512.90
508.68	43077.56
508.85	43318.64
509.03	43320.98
509.20	43580.78
509.38	43863.98
509.55	44381.24
509.73	44210.38
509.90	44259.53
510.08	44238.47
510.25	44671.46
510.42	44215.06
510.60	45003.82
510.77	45074.04
510.95	45291.71
511.12	45097.44
511.30	44776.79
511.47	45170.00
511.64	45045.95
511.82	45490.65
511.99	45518.74
512.17	45675.55
512.34	45815.99
512.51	46089.83
512.69	45696.62
512.86	46101.53
513.04	46176.43
513.21	46160.05
513.38	46686.67
513.56	46845.82
513.73	46562.62
513.90	46742.84
514.08	46391.76
514.25	46759.22
514.43	46932.42
514.60	47217.97
514.77	46902.00
514.95	47943.53
515.12	47079.88
515.29	47817.14
515.47	47735.23
515.64	48182.27
515.81	48030.13
515.99	47606.50
516.16	48039.50
516.33	48109.71
516.51	48615.27
516.68	48484.20
516.85	48491.22
517.03	48605.91
517.20	48624.63
517.37	48378.87
517.54	48435.05
517.72	48601.22
517.89	49076.35
518.06	48921.88
518.24	49099.76
518.41	49111.46
518.58	49160.61
518.75	49120.82
518.93	49169.97
519.10	49055.29
519.27	49600.63
519.45	49551.48
519.62	49560.84
519.79	49661.49
519.96	49757.45
520.14	50197.47
520.31	49954.05
520.48	50239.60
520.65	50459.61
520.83	50497.06
521.00	50773.24
521.17	50244.28
521.34	50199.81
521.52	50511.10
521.69	50555.57
521.86	50536.85
522.03	50862.18
522.20	51154.75
522.38	51021.34
522.55	51030.70
522.72	50887.93
522.89	51267.09
523.07	51332.63
523.24	51517.53
523.41	51543.28
523.58	51058.79
523.75	51627.54
523.92	51473.06
524.10	51938.83
524.27	51660.30
524.44	51695.41
524.61	51952.87
524.78	51859.25
524.96	51973.94
525.13	51821.80
525.30	52027.77
525.47	52425.66
525.64	52079.26
525.81	52353.10
525.98	52538.01
526.16	52542.69
526.33	52685.46
526.50	52669.08
526.67	52516.94
526.84	52861.00
527.01	52626.95
527.18	52849.30
527.36	52650.35
527.53	52720.57
527.70	53277.61
527.87	53003.77
528.04	53137.18
528.21	53361.87
528.38	53111.44
528.55	53518.69
528.72	53294.00
528.89	53240.17
529.07	53268.25
529.24	53160.59
529.41	53563.16
529.58	53366.55
529.75	53411.02
529.92	53591.25
530.09	53549.12
530.26	53937.65
530.43	53661.46
530.60	53715.29
530.77	53670.82
530.94	53986.80
531.11	53628.69
531.28	53900.20
531.46	54075.74
531.63	54073.40
531.80	54047.65
531.97	54108.50
532.14	54174.04
532.31	54181.06
532.48	54408.09
532.65	54529.80
532.82	54185.74
532.99	54614.06
533.16	54480.65
533.33	54660.87
533.50	54796.62
533.67	54681.94
533.84	54454.90
534.01	54838.75
534.18	54915.99
534.35	54878.54
534.52	54628.10
534.69	54859.82
534.86	54967.48
535.03	54948.76
535.20	54904.29
535.37	55217.92
535.54	55253.03
535.71	54913.65
535.88	55302.18
536.05	55302.18
536.22	55271.75
536.38	55512.83
536.55	55573.68
536.72	55547.93
536.89	55447.29
537.06	55384.10
537.23	55805.39
537.40	55456.65
537.57	55285.79
537.74	55636.87
537.91	55655.60
538.08	55571.34
538.25	55611.13
538.42	55564.32
538.59	56222.01
538.75	55655.60
538.92	55889.65
539.09	56076.90
539.26	55793.69
539.43	55978.59
539.60	56144.77
539.77	56023.06
539.94	56339.04
540.11	56175.20
540.28	56076.90
540.44	56420.95
540.61	56030.08
540.78	56296.91
540.95	56336.69
541.12	56306.27
541.29	56608.20
541.46	56444.36
541.62	56172.86
541.79	56573.09
541.96	56229.03
542.13	56364.78
542.30	56442.02
542.47	56385.85
542.63	56516.92
542.80	56767.35
542.97	56783.74
543.14	57359.51
543.31	56978.00
543.48	56992.04
543.64	57179.29
543.81	57352.49
543.98	57179.29
544.15	57221.42
544.32	57354.83
544.48	57275.25
544.65	57176.95
544.82	57326.74
544.99	57209.71
545.16	57188.65
545.32	56921.83
545.49	57551.43
545.66	57539.73
545.83	57439.09
546.00	57626.33
546.16	57733.99
546.33	57689.52
546.50	57359.51
546.67	57591.22
546.83	57312.70
547.00	57532.71
547.17	57392.28
547.34	57682.50
547.50	57858.04
547.67	57893.15
547.84	57808.89
548.00	57738.68
548.17	57921.24
548.34	58005.50
548.51	58019.54
548.67	58033.58
548.84	57921.24
549.01	57785.49
549.18	57982.09
549.34	58045.29
549.51	58312.11
549.68	58314.45
549.84	58056.99
550.01	58230.19
550.18	58216.14
550.34	58377.64
550.51	58052.31
550.68	58365.94
550.84	58169.33
551.01	58368.28
551.18	58134.23
551.34	58358.92
551.51	58520.41
551.68	58504.03
551.84	58368.28
552.01	58206.78
552.18	58536.80
552.34	58365.94
552.51	58614.04
552.68	58295.72
552.84	58791.92
553.01	58850.43
553.18	58576.59
553.34	58719.36
553.51	58419.77
553.67	58700.64
553.84	58801.28
554.01	58915.96
554.17	58864.47
554.34	59049.38
554.51	58873.84
554.67	59084.48
554.84	58653.82
555.00	58951.07
555.17	58738.08
555.33	58922.99
555.50	58534.46
555.67	58777.87
555.83	58820.00
556.00	58953.41
556.16	59344.28
556.33	58866.81
556.50	59140.66
556.66	59175.76
556.83	59030.65
556.99	59030.65
557.16	59409.82
557.32	59456.63
557.49	59634.51
557.65	59166.40
557.82	59330.24
557.98	59241.30
558.15	59393.43
558.32	59374.71
558.48	59229.60
558.65	59267.05
558.81	59346.62
558.98	59353.65
559.14	59585.36
559.31	59435.56
559.47	59402.80
559.64	59498.76
559.80	59482.37
559.97	59597.06
560.13	59381.73
560.30	59564.29
560.46	59540.89
560.63	59585.36
560.79	59487.06
560.96	59648.55
561.12	59618.13
561.29	59423.86
561.45	59491.74
561.61	59831.11
561.78	59536.21
561.94	59477.69
562.11	59526.84
562.27	59866.22
562.44	59824.09
562.60	60104.96
562.77	59952.82
562.93	59650.89
563.10	59868.56
563.26	59891.97
563.42	60058.15
563.59	59746.86
563.75	59906.01
563.92	59924.74
564.08	59847.50
564.24	60142.41
564.41	59983.25
564.57	59922.40
564.74	60004.31
564.90	59833.46
565.07	60067.51
565.23	59877.93
565.39	60093.25
565.56	60343.69
565.72	60065.17
565.88	60004.31
566.05	60013.68
566.21	59983.25
566.38	60184.54
566.54	60128.36
566.70	60205.60
566.87	60240.71
567.03	60060.49
567.19	60329.65
567.36	60287.52
567.52	60186.88
567.68	60371.78
567.85	60109.64
568.01	60163.47
568.17	60219.64
568.34	60238.37
568.50	60163.47
568.66	60205.60
568.83	60327.31
568.99	60147.09
569.15	60205.60
569.32	60170.49
569.48	60161.13
569.64	60449.02
569.81	60385.82
569.97	60217.30
570.13	60240.71
570.30	60306.24
570.46	60353.05
570.62	60481.78
570.78	60409.23
570.95	60285.18
571.11	60671.37
571.27	60149.43
571.43	60261.77
571.60	60540.30
571.76	60317.95
571.92	60395.18
572.09	60186.88
572.25	60465.40
572.41	60374.12
572.57	60488.80
572.74	60577.75
572.90	60402.21
573.06	60313.26
573.22	60465.40
573.38	60444.33
573.55	60420.93
573.71	60542.64
573.87	60624.56
574.03	60514.55
574.20	60488.80
574.36	60404.55
574.52	60647.96
574.68	60617.53
574.84	60739.24
575.01	60577.75
575.17	60399.86
575.33	60353.05
575.49	60519.23
575.65	60430.29
575.82	60594.13
575.98	60692.43
576.14	60645.62
576.30	60882.02
576.46	60694.77
576.62	60552.00
576.79	60622.22
576.95	60559.02
577.11	60582.43
577.27	60481.78
577.43	60776.69
577.59	60680.73
577.75	60807.12
577.92	60533.28
578.08	60446.68
578.24	60521.57
578.40	60835.20
578.56	60900.74
578.72	60622.22
578.88	61027.13
579.04	60807.12
579.21	60729.88
579.37	60666.69
579.53	60860.95
579.69	60486.46
579.85	60786.05
580.01	60683.07
580.17	60584.77
580.33	60615.19
580.49	60772.01
580.65	60694.77
580.82	60732.22
580.98	60526.25
581.14	60704.13
581.30	60823.50
581.46	60664.35
581.62	60814.14
581.78	60720.52
581.94	60732.22
582.10	60776.69
582.26	60699.45
582.42	60659.66
582.58	60701.79
582.74	60842.23
582.90	60484.12
583.06	60757.97
583.22	60591.79
583.38	60874.99
583.54	60729.88
583.70	60739.24
583.86	60800.10
584.02	60828.18
584.18	60980.32
584.34	60828.18
584.50	60879.67
584.66	60757.97
584.82	60811.80
584.98	61062.24
585.14	60935.85
585.30	60814.14
585.46	61109.05
585.62	60825.84
585.78	61097.34
585.94	60652.64
586.10	60816.48
586.26	60893.72
586.42	60870.31
586.58	60891.38
586.74	60954.57
586.90	60734.56
587.06	60896.06
587.22	61017.77
587.38	61064.58
587.54	60921.80
587.70	61202.67
587.86	60900.74
588.02	60977.98
588.18	61059.90
588.34	60977.98
588.49	61052.87
