SpectraSuite Data File
++++++++++++++++++++++++++++++++++++
Date: Fri Oct 25 10:44:42 EDT 2013
User: price-jones
Dark Spectrum Present: No
Reference Spectrum Present: No
Number of Sampled Component Spectra: 1
Spectrometers: USB2+H05261
Integration Time (usec): 100000 (USB2+H05261)
Spectra Averaged: 1 (USB2+H05261)
Boxcar Smoothing: 0 (USB2+H05261)
Correct for Electrical Dark: No (USB2+H05261)
Strobe/Lamp Enabled: No (USB2+H05261)
Correct for Detector Non-linearity: No (USB2+H05261)
Correct for Stray Light: No (USB2+H05261)
Number of Pixels in Processed Spectrum: 2048
>>>>>Begin Processed Spectral Data<<<<<
365.73	161.50
365.92	161.50
366.12	161.50
366.32	56.17
366.52	35.11
366.72	53.83
366.91	0.00
367.11	46.81
367.31	2.34
367.51	11.70
367.70	72.56
367.90	98.30
368.10	18.72
368.30	23.41
368.49	0.00
368.69	0.00
368.89	0.00
369.09	58.51
369.28	65.54
369.48	95.96
369.68	110.01
369.87	145.11
370.07	56.17
370.27	152.13
370.47	217.67
370.66	358.10
370.86	418.96
371.06	411.93
371.25	458.74
371.45	421.30
371.65	475.13
371.84	440.02
372.04	433.00
372.24	472.79
372.44	498.53
372.63	449.38
372.83	540.66
373.03	479.81
373.22	521.94
373.42	428.32
373.62	456.40
373.81	517.26
374.01	524.28
374.21	538.32
374.40	425.98
374.60	491.51
374.79	568.75
374.99	540.66
375.19	489.17
375.38	575.77
375.58	582.79
375.78	564.07
375.97	524.28
376.17	533.64
376.37	617.90
376.56	620.24
376.76	554.71
376.95	643.65
377.15	622.58
377.35	568.75
377.54	561.73
377.74	566.41
377.93	599.18
378.13	603.86
378.33	599.18
378.52	533.64
378.72	657.69
378.91	627.26
379.11	582.79
379.31	657.69
379.50	566.41
379.70	638.97
379.89	657.69
380.09	645.99
380.28	657.69
380.48	662.37
380.68	592.16
380.87	645.99
381.07	568.75
381.26	716.20
381.46	585.13
381.65	657.69
381.85	589.82
382.04	634.29
382.24	660.03
382.43	624.92
382.63	624.92
382.83	681.10
383.02	653.01
383.22	695.14
383.41	692.80
383.61	669.39
383.80	800.46
384.00	695.14
384.19	795.78
384.39	716.20
384.58	667.05
384.78	772.38
384.97	730.25
385.17	718.54
385.36	805.14
385.56	723.23
385.75	697.48
385.95	774.72
386.14	760.67
386.34	777.06
386.53	777.06
386.72	802.80
386.92	781.74
387.11	784.08
387.31	800.46
387.50	755.99
387.70	734.93
387.89	828.55
388.09	816.85
388.28	767.70
388.48	770.04
388.67	830.89
388.86	968.98
389.06	795.78
389.25	957.28
389.45	912.81
389.64	884.72
389.84	875.36
390.03	854.30
390.22	966.64
390.42	854.30
390.61	947.92
390.81	922.17
391.00	957.28
391.19	973.66
391.39	987.71
391.58	940.90
391.78	943.24
391.97	978.34
392.16	964.30
392.36	1041.54
392.55	990.05
392.75	992.39
392.94	957.28
393.13	1015.79
393.33	917.49
393.52	1008.77
393.71	1062.60
393.91	1015.79
394.10	1011.11
394.29	1086.01
394.49	1039.20
394.68	1095.37
394.88	1041.54
395.07	1221.76
395.26	1193.67
395.46	1100.05
395.65	1200.69
395.84	1177.29
396.04	1172.61
396.23	1170.27
396.42	1114.10
396.62	1083.67
396.81	1100.05
397.00	1090.69
397.19	1198.35
397.39	1224.10
397.58	1219.42
397.77	1249.85
397.97	1198.35
398.16	1313.04
398.35	1355.17
398.55	1322.40
398.74	1291.98
398.93	1306.02
399.12	1210.06
399.32	1245.16
399.51	1343.47
399.70	1486.24
399.90	1390.28
400.09	1420.71
400.28	1390.28
400.47	1507.30
400.67	1462.83
400.86	1493.26
401.05	1413.68
401.24	1465.18
401.44	1526.03
401.63	1493.26
401.82	1460.49
402.01	1476.88
402.21	1565.82
402.40	1486.24
402.59	1406.66
402.78	1586.88
402.97	1519.01
403.17	1542.41
403.36	1605.61
403.55	1680.50
403.74	1654.76
403.93	1629.01
404.13	1710.93
404.32	1631.35
404.51	1685.19
404.70	1694.55
404.89	1575.18
405.09	1781.15
405.28	1713.27
405.47	1687.53
405.66	1795.19
405.85	1727.32
406.05	1783.49
406.24	1823.28
406.43	1823.28
406.62	1933.28
406.81	1874.77
407.00	1858.39
407.20	1764.76
407.39	1710.93
407.58	1870.09
407.77	1926.26
407.96	1893.49
408.15	2076.06
408.34	1865.41
408.54	1994.14
408.73	1923.92
408.92	2066.69
409.11	2010.52
409.30	2078.40
409.49	2043.29
409.68	2118.18
409.87	2059.67
410.07	2062.01
410.26	2022.22
410.45	2069.03
410.64	2218.83
410.83	2204.78
411.02	2172.02
411.21	2246.91
411.40	2235.21
411.59	2307.77
411.78	2335.85
411.98	2385.01
412.17	2431.82
412.36	2476.29
412.55	2499.69
412.74	2534.80
412.93	2452.88
413.12	2387.35
413.31	2473.95
413.50	2551.18
413.69	2576.93
413.88	2757.15
414.07	2626.08
414.26	2684.59
414.45	2588.63
414.64	2743.11
414.83	2754.81
415.02	2637.78
415.22	2743.11
415.41	2815.66
415.60	2848.43
415.79	2750.13
415.98	2857.79
416.17	2848.43
416.36	2834.39
416.55	2876.52
416.74	2944.39
416.93	2953.76
417.12	2972.48
417.31	3002.91
417.50	3000.57
417.69	3061.42
417.88	3042.70
418.07	3028.65
418.26	3096.53
418.45	3171.43
418.64	3318.88
418.83	3141.00
419.02	3255.69
419.21	3304.84
419.39	3129.30
419.58	3253.34
419.77	3265.05
419.96	3251.00
420.15	3297.81
420.34	3318.88
420.53	3396.12
420.72	3426.54
420.91	3424.20
421.10	3389.10
421.29	3414.84
421.48	3323.56
421.67	3440.59
421.86	3304.84
422.05	3508.46
422.24	3428.88
422.43	3316.54
422.61	3454.63
422.80	3557.61
422.99	3435.91
423.18	3489.74
423.37	3627.83
423.56	3492.08
423.75	3442.93
423.94	3386.76
424.13	3372.71
424.32	3346.97
424.50	3548.25
424.69	3707.41
424.88	3653.58
425.07	3487.40
425.26	3522.51
425.45	3494.42
425.64	3475.70
425.83	3658.26
426.01	3602.08
426.20	3569.32
426.39	3548.25
426.58	3625.49
426.77	3569.32
426.96	3557.61
427.15	3471.01
427.33	3662.94
427.52	3705.07
427.71	3705.07
427.90	3667.62
428.09	3808.05
428.28	3742.52
428.46	3709.75
428.65	3798.69
428.84	3845.50
429.03	3822.09
429.22	3728.47
429.40	3847.84
429.59	3758.90
429.78	3574.00
429.97	3623.15
430.16	3826.78
430.34	3854.86
430.53	3899.33
430.72	3850.18
430.91	3934.44
431.10	3885.29
431.28	4093.60
431.47	4074.87
431.66	4170.83
431.85	3964.87
432.03	4159.13
432.22	4189.56
432.41	4063.17
432.60	4149.77
432.79	4063.17
432.97	4304.25
433.16	4156.79
433.35	4238.71
433.54	4276.16
433.72	4234.03
433.91	4238.71
434.10	4194.24
434.28	4421.27
434.47	4374.46
434.66	4428.29
434.85	4454.04
435.03	4489.15
435.22	4489.15
435.41	4674.05
435.59	4641.28
435.78	4603.83
435.97	4559.36
436.16	4575.75
436.34	4674.05
436.53	4610.86
436.72	4772.35
436.90	4479.79
437.09	4723.20
437.28	4589.79
437.46	4725.54
437.65	4622.56
437.84	4615.54
438.02	4713.84
438.21	4734.90
438.40	4554.68
438.58	4807.46
438.77	4945.55
438.96	4917.47
439.14	5020.45
439.33	5039.17
439.52	5142.16
439.70	5008.75
439.89	5130.45
440.08	5027.47
440.26	5259.18
440.45	5254.50
440.63	5315.36
440.82	5465.15
441.01	5355.15
441.19	5434.72
441.38	5423.02
441.57	5493.24
441.75	5460.47
441.94	5537.71
442.12	5530.69
442.31	5544.73
442.50	5694.52
442.68	5575.16
442.87	5577.50
443.05	5755.38
443.24	5736.65
443.43	5804.53
443.61	5888.79
443.80	6111.14
443.98	5535.37
444.17	5636.01
444.35	5874.74
444.54	5944.96
444.73	5893.47
444.91	5769.42
445.10	5989.43
445.28	5736.65
445.47	5813.89
445.65	5610.26
445.84	5956.66
446.02	5937.94
446.21	5968.37
446.39	5870.06
446.58	5825.59
446.77	6026.88
446.95	5919.21
447.14	6129.86
447.32	6174.33
447.51	6099.44
447.69	5853.68
447.88	5980.07
448.06	6113.48
448.25	6186.04
448.43	6038.58
448.62	6076.03
448.80	5982.41
448.99	6204.76
449.17	6183.70
449.36	5944.96
449.54	6296.04
449.73	6176.67
449.91	6520.73
450.10	6389.66
450.28	6370.94
450.46	6431.79
450.65	6366.26
450.83	6303.06
451.02	6291.36
451.20	6551.16
451.39	6539.46
451.57	6520.73
451.76	6443.49
451.94	6614.35
452.13	6579.25
452.31	6600.31
452.49	6338.17
452.68	6504.35
452.86	6569.88
453.05	6602.65
453.23	6696.27
453.42	6532.44
453.60	6511.37
453.78	6623.72
453.97	6443.49
454.15	6626.06
454.34	6691.59
454.52	6633.08
454.70	6621.38
454.89	6651.80
455.07	6876.49
455.26	6853.09
455.44	7000.54
455.62	6916.28
455.81	7159.70
455.99	7056.72
456.17	6977.14
456.36	7021.61
456.54	7019.27
456.73	7255.66
456.91	7290.77
457.09	7206.51
457.28	7566.95
457.46	7190.13
457.64	7344.60
457.83	7302.47
458.01	7133.95
458.19	7459.29
458.38	7382.05
458.56	7543.55
458.74	7283.75
458.93	7265.02
459.11	7440.56
459.29	7487.37
459.48	7538.87
459.66	7698.02
459.84	7592.70
460.03	7822.07
460.21	7761.22
460.39	7709.72
460.57	7693.34
460.76	7721.43
460.94	7801.01
461.12	7850.16
461.31	7882.92
461.49	7798.66
461.67	7768.24
461.85	7866.54
462.04	7889.95
462.22	8065.49
462.40	8163.79
462.59	8037.40
462.77	7990.59
462.95	8135.70
463.13	7990.59
463.32	8114.64
463.50	8119.32
463.68	8119.32
463.86	8074.85
464.05	8016.33
464.23	8128.68
464.41	8348.69
464.59	8060.80
464.78	8397.84
464.96	8301.88
465.14	8189.53
465.32	8184.85
465.50	8353.37
465.69	8477.42
465.87	8255.07
466.05	8372.10
466.23	8198.90
466.41	8325.29
466.60	8681.05
466.78	8386.14
466.96	8163.79
467.14	8346.35
467.32	8493.80
467.51	8751.26
467.69	8285.50
467.87	8376.78
468.05	8720.84
468.23	8613.17
468.41	8566.36
468.60	8514.87
468.78	8753.60
468.96	8552.32
469.14	8875.31
469.32	8961.91
469.50	8585.08
469.69	9081.28
469.87	8821.48
470.05	9107.02
470.23	8826.16
470.41	8889.35
470.59	8933.82
470.77	8964.25
470.95	9001.70
471.14	9205.33
471.32	8861.27
471.50	9289.59
471.68	9404.27
471.86	9408.95
472.04	9432.36
472.22	9668.75
472.40	9158.52
472.58	9525.98
472.77	9568.11
472.95	9689.82
473.13	9799.82
473.31	9511.94
473.49	9582.15
473.67	9776.42
473.85	9720.24
474.03	10108.77
474.21	10125.16
474.39	10085.37
474.57	9947.28
474.75	10183.67
474.93	10129.84
475.12	10106.43
475.30	10178.99
475.48	10085.37
475.66	10258.57
475.84	10242.18
476.02	10464.54
476.20	10317.08
476.38	10656.46
476.56	10920.94
476.74	10949.03
476.92	10878.81
477.10	10796.89
477.28	10855.40
477.46	10965.41
477.64	11021.58
477.82	11199.46
478.00	11595.01
478.18	11473.31
478.36	11463.94
478.54	11527.14
478.72	11667.57
478.90	11800.98
479.08	11941.41
479.26	11669.91
479.44	11925.03
479.62	12107.59
479.80	12191.85
479.98	12194.19
480.16	12299.52
480.34	12343.99
480.52	12652.94
480.70	12444.63
480.88	12196.53
481.06	12414.20
481.24	12629.53
481.41	12992.31
481.59	13116.36
481.77	13212.32
481.95	13039.12
482.13	13219.35
482.31	13233.39
482.49	13317.65
482.67	13453.40
482.85	13657.03
483.03	13891.08
483.21	13926.19
483.39	14113.43
483.57	14047.90
483.74	14340.46
483.92	14221.10
484.10	14300.67
484.28	14427.06
484.46	14485.58
484.64	14663.46
484.82	14551.11
485.00	14532.39
485.18	14827.29
485.35	15286.04
485.53	14707.93
485.71	15054.33
485.89	15384.34
486.07	15508.39
486.25	15346.89
486.43	15454.56
486.61	15758.83
486.78	15854.79
486.96	16020.97
487.14	16276.09
487.32	16018.63
487.50	16601.42
487.68	16346.30
487.85	16512.48
488.03	17050.80
488.21	17104.64
488.39	17245.07
488.57	17245.07
488.75	17444.01
488.92	17649.98
489.10	17837.22
489.28	17717.86
489.46	18134.47
489.64	18183.62
489.81	18340.44
489.99	18211.71
490.17	18284.26
490.35	18717.26
490.53	18649.39
490.70	18551.09
490.88	18614.28
491.06	18925.57
491.24	18693.86
491.41	19211.12
491.59	19187.71
491.77	19152.60
491.95	19522.41
492.13	19585.60
492.30	20018.60
492.48	19861.79
492.66	20072.43
492.84	20119.24
493.01	20276.06
493.19	20379.04
493.37	20240.95
493.54	20486.71
493.72	20596.71
493.90	20624.80
494.08	21043.76
494.25	21308.24
494.43	21462.71
494.61	21544.63
494.79	21521.23
494.96	21544.63
495.14	21537.61
495.32	21872.31
495.49	22057.21
495.67	21724.85
495.85	22441.06
496.02	22120.40
496.20	22445.74
496.38	22345.09
496.55	22471.48
496.73	23103.43
496.91	22707.88
497.09	22895.12
497.26	23318.76
497.44	22689.15
497.62	23297.69
497.79	23246.20
497.97	23262.58
498.14	23580.90
498.32	23608.98
498.50	23690.90
498.67	23637.07
498.85	24121.56
499.03	24074.75
499.20	24222.20
499.38	24173.05
499.56	24070.07
499.73	24428.17
499.91	24503.07
500.08	24802.66
500.26	24386.04
500.44	24713.72
500.61	24786.27
500.79	24622.44
500.97	25177.14
501.14	25088.20
501.32	24905.64
501.49	25205.23
501.67	25656.95
501.84	25319.92
502.02	25319.92
502.20	25649.93
502.37	25640.57
502.55	25549.29
502.72	25764.62
502.90	25991.65
503.07	25986.97
503.25	26033.78
503.43	26026.76
503.60	26256.13
503.78	25947.18
503.95	26164.85
504.13	26312.30
504.30	26780.41
504.48	26651.68
504.65	26827.22
504.83	26712.53
505.01	27019.14
505.18	27084.68
505.36	27393.63
505.53	26955.95
505.71	27421.72
505.88	27332.78
506.06	27281.28
506.23	27550.45
506.41	27026.17
506.58	27718.96
506.76	27463.85
506.93	27728.33
507.11	27580.87
507.28	28170.69
507.46	27742.37
507.63	27690.88
507.81	28149.62
507.98	27871.10
508.16	28065.36
508.33	28521.77
508.50	28311.12
508.68	28402.40
508.85	29008.60
509.03	28788.59
509.20	28678.58
509.38	28936.04
509.55	29137.33
509.73	29053.07
509.90	29469.69
510.08	28868.17
510.25	29205.20
510.42	29280.10
510.60	29249.67
510.77	29972.90
510.95	29989.28
511.12	29434.58
511.30	29834.81
511.47	29986.94
511.64	29759.91
511.82	30139.08
511.99	29881.62
512.17	30333.34
512.34	29769.27
512.51	30232.70
512.69	30450.37
512.86	30263.13
513.04	30607.19
513.21	30438.67
513.38	30323.98
513.56	30424.62
513.73	30583.78
513.90	30616.55
514.08	30822.51
514.25	31225.09
514.43	31014.44
514.60	30906.77
514.77	30974.65
514.95	31311.69
515.12	31271.90
515.29	31541.06
515.47	31564.46
515.64	31608.93
515.81	31501.27
515.99	31316.37
516.16	31606.59
516.33	31487.23
516.51	31770.43
516.68	31613.62
516.85	31307.01
517.03	31842.99
517.20	32091.09
517.37	32123.85
517.54	32051.30
517.72	32341.52
517.89	32177.68
518.06	32229.18
518.24	31960.02
518.41	31835.97
518.58	32107.47
518.75	32341.52
518.93	32416.42
519.10	32491.32
519.27	33202.84
519.45	32947.72
519.62	33022.62
519.79	33010.92
519.96	33013.26
520.14	32849.42
520.31	32957.08
520.48	33415.83
520.65	33497.75
520.83	33736.48
521.00	33954.15
521.17	33717.76
521.34	33621.80
521.52	33591.37
521.69	33696.69
521.86	33991.60
522.03	34162.46
522.20	34057.14
522.38	33820.74
522.55	34377.79
522.72	34047.77
522.89	33872.23
523.07	34579.07
523.24	34022.03
523.41	34628.23
523.58	34223.31
523.75	34941.86
523.92	34583.76
524.10	34789.72
524.27	34632.91
524.44	34773.34
524.61	35103.35
524.78	34848.24
524.96	35201.66
525.13	35232.08
525.30	35288.26
525.47	35379.54
525.64	35255.49
525.81	35292.94
525.98	35688.49
526.16	35262.51
526.33	35061.22
526.50	35679.13
526.67	35260.17
526.84	35414.65
527.01	35103.35
527.18	35592.53
527.36	36009.14
527.53	35442.73
527.70	36453.84
527.87	36383.63
528.04	35906.16
528.21	36231.49
528.38	35910.84
528.55	36435.12
528.72	36484.27
528.89	36449.16
529.07	36549.81
529.24	36306.39
529.41	36748.75
529.58	36271.28
529.75	36320.43
529.92	36409.37
530.09	36961.74
530.26	36900.89
530.43	36966.42
530.60	36680.88
530.77	37003.87
530.94	36928.97
531.11	36697.26
531.28	36914.93
531.46	36989.83
531.63	37258.99
531.80	37104.51
531.97	36975.78
532.14	37525.81
532.31	37242.60
532.48	37289.42
532.65	37390.06
532.82	37188.77
532.99	37605.39
533.16	37024.93
533.33	37897.95
533.50	37823.06
533.67	37748.16
533.84	37720.07
534.01	37841.78
534.18	37481.34
534.35	37940.08
534.52	37883.91
534.69	38071.15
534.86	38040.73
535.03	37759.86
535.20	38134.35
535.37	38976.94
535.54	38274.78
535.71	38314.57
535.88	38597.77
536.05	38391.81
536.22	38763.95
536.38	38099.24
536.55	38637.56
536.72	38265.42
536.89	38211.59
537.06	38572.03
537.23	38632.88
537.40	38569.69
537.57	39000.35
537.74	38735.87
537.91	39210.99
538.08	38738.21
538.25	38892.68
538.42	38691.40
538.59	39009.71
538.75	38824.81
538.92	38918.43
539.09	38670.33
539.26	38948.85
539.43	38775.66
539.60	39494.20
539.77	39157.16
539.94	38951.20
540.11	39346.75
540.28	39445.05
540.44	39395.90
540.61	39665.06
540.78	39056.52
540.95	39253.12
541.12	39431.01
541.29	39459.09
541.46	39250.78
541.62	39732.93
541.79	39751.66
541.96	39269.51
542.13	39929.54
542.30	39910.82
542.47	39901.45
542.63	39957.63
542.80	40154.23
542.97	39950.60
543.14	40430.41
543.31	40465.52
543.48	40376.58
543.64	41027.25
543.81	40816.60
543.98	40617.66
544.15	40397.65
544.32	40875.12
544.48	40917.25
544.65	40987.46
544.82	41132.57
544.99	40659.79
545.16	40659.79
545.32	40624.68
545.49	41177.04
545.66	40954.69
545.83	41354.93
546.00	41722.39
546.16	40865.75
546.33	40524.04
546.50	40795.54
546.67	40849.37
546.83	40605.95
547.00	40935.97
547.17	40994.48
547.34	41074.06
547.50	40954.69
547.67	41429.82
547.84	41392.37
548.00	41280.03
548.17	41727.07
548.34	41415.78
548.51	41780.90
548.67	41764.52
548.84	41890.91
549.01	41340.88
549.18	41556.21
549.34	41876.86
549.51	41675.58
549.68	42143.69
549.84	41588.98
550.01	41902.61
550.18	41799.63
550.34	42136.66
550.51	41736.43
550.68	42017.30
550.84	41677.92
551.01	41977.51
551.18	42305.18
551.34	42108.58
551.51	42169.43
551.68	42333.27
551.84	42281.78
552.01	42122.62
552.18	41801.97
552.34	42164.75
552.51	42220.92
552.68	42136.66
552.84	42740.52
553.01	42674.99
553.18	42309.86
553.34	42288.80
553.51	42033.68
553.67	42707.76
553.84	42796.70
554.01	42185.82
554.17	42684.35
554.34	42410.51
554.51	42586.05
554.67	42913.72
554.84	42485.40
555.00	42705.41
555.17	42401.14
555.33	42789.67
555.50	42450.30
555.67	42368.38
555.83	42667.97
556.00	42728.82
556.16	43150.12
556.33	42581.37
556.50	42586.05
556.66	42934.79
556.83	42258.37
556.99	43323.32
557.16	43257.78
557.32	43131.39
557.49	43328.00
557.65	43147.78
557.82	42649.24
557.98	43082.24
558.15	42834.14
558.32	42939.47
558.48	43225.01
558.65	43126.71
558.81	43079.90
558.98	43093.94
559.14	43248.42
559.31	43459.07
559.47	43379.49
559.64	43650.99
559.80	43292.89
559.97	43208.63
560.13	43246.08
560.30	43037.77
560.46	43295.23
560.63	42995.64
560.79	43189.91
560.96	43288.21
561.12	43629.93
561.29	43365.45
561.45	43831.21
561.61	43124.37
561.78	43531.62
561.94	43133.73
562.11	43505.88
562.27	43470.77
562.44	43512.90
562.60	43653.33
562.77	43793.76
562.93	43608.86
563.10	43662.69
563.26	43393.53
563.42	43910.79
563.59	43374.81
563.75	43419.28
563.92	44100.37
564.08	44079.31
564.24	43882.70
564.41	43971.64
564.57	43931.86
564.74	43871.00
564.90	43538.65
565.07	43643.97
565.23	43545.67
565.39	43964.62
565.56	43896.75
565.72	43990.37
565.88	44205.70
566.05	43655.67
566.21	43665.03
566.38	43983.35
566.54	43819.51
566.70	43992.71
566.87	44318.04
567.03	43697.80
567.19	44617.63
567.36	44020.80
567.52	43896.75
567.68	44596.57
567.85	43952.92
568.01	44339.11
568.17	43618.22
568.34	43821.85
568.50	43742.27
568.66	43798.44
568.83	44048.88
568.99	43636.95
569.15	43849.94
569.32	43959.94
569.48	43768.02
569.64	43871.00
569.81	44060.58
569.97	43931.86
570.13	44130.80
570.30	43723.55
570.46	43753.97
570.62	44046.54
570.78	44135.48
570.95	44196.34
571.11	44444.43
571.27	43526.94
571.43	44065.27
571.60	44030.16
571.76	43924.83
571.92	43625.25
572.09	44039.52
572.25	43901.43
572.41	43906.11
572.57	44432.73
572.74	44519.33
572.90	44488.90
573.06	44224.42
573.22	44170.59
573.38	44254.85
573.55	44055.90
573.71	44355.49
573.87	44201.02
574.03	43849.94
574.20	44559.12
574.36	44315.70
574.52	44594.23
574.68	44390.60
574.84	44385.92
575.01	44196.34
575.17	44163.57
575.33	43973.98
575.49	43831.21
575.65	44423.37
575.82	44575.50
575.98	44271.23
576.14	44622.31
576.30	44554.44
576.46	44446.77
576.62	44250.17
576.79	43665.03
576.95	43871.00
577.11	44594.23
577.27	44360.17
577.43	44392.94
577.59	44589.55
577.75	44212.72
577.92	44116.76
578.08	44327.41
578.24	44423.37
578.40	44088.67
578.56	44189.31
578.72	44830.62
578.88	44626.99
579.04	44175.27
579.21	44744.02
579.37	44240.81
579.53	44444.43
579.69	44212.72
579.85	44231.44
580.01	44655.08
580.17	44418.69
580.33	44690.19
580.49	44659.76
580.65	44802.53
580.82	44809.56
580.98	44655.08
581.14	44135.48
581.30	45102.12
581.46	45003.82
581.62	44531.03
581.78	44264.21
581.94	44966.37
582.10	44294.64
582.26	44514.65
582.42	44612.95
582.58	44425.71
582.74	44353.15
582.90	44477.20
583.06	44526.35
583.22	44823.60
583.38	44463.16
583.54	45006.16
583.70	44247.83
583.86	44589.55
584.02	44704.23
584.18	44552.10
584.34	44626.99
584.50	44559.12
584.66	44357.83
584.82	44446.77
584.98	44797.85
585.14	44601.25
585.30	44542.74
585.46	44495.92
585.62	44397.62
585.78	44432.73
585.94	44320.38
586.10	44308.68
586.26	44184.63
586.42	44900.84
586.58	44882.11
586.74	44875.09
586.90	44453.79
587.06	44334.43
587.22	44790.83
587.38	44165.91
587.54	44566.14
587.70	44388.26
587.86	44790.83
588.02	44336.77
588.18	44861.05
588.34	44201.02
588.49	44083.99
588.65	43859.30
588.81	44219.74
588.97	43973.98
589.13	44624.65
589.29	44453.79
589.45	44905.52
589.61	44631.68
589.77	44797.85
589.93	44505.29
590.08	44531.03
590.24	44694.87
