SpectraSuite Data File
++++++++++++++++++++++++++++++++++++
Date: Fri Oct 25 11:34:32 EDT 2013
User: price-jones
Dark Spectrum Present: No
Reference Spectrum Present: No
Number of Sampled Component Spectra: 1
Spectrometers: USB2+H05261
Integration Time (usec): 100000 (USB2+H05261)
Spectra Averaged: 1 (USB2+H05261)
Boxcar Smoothing: 0 (USB2+H05261)
Correct for Electrical Dark: No (USB2+H05261)
Strobe/Lamp Enabled: No (USB2+H05261)
Correct for Detector Non-linearity: No (USB2+H05261)
Correct for Stray Light: No (USB2+H05261)
Number of Pixels in Processed Spectrum: 2048
>>>>>Begin Processed Spectral Data<<<<<
365.73	271.50
365.92	271.50
366.12	271.50
366.32	271.50
366.52	212.99
366.72	205.97
366.91	196.60
367.11	142.77
367.31	217.67
367.51	201.29
367.70	168.52
367.90	170.86
368.10	168.52
368.30	180.22
368.49	189.58
368.69	205.97
368.89	180.22
369.09	163.84
369.28	215.33
369.48	175.54
369.68	212.99
369.87	285.55
370.07	236.39
370.27	283.20
370.47	355.76
370.66	498.53
370.86	447.04
371.06	540.66
371.25	552.37
371.45	491.51
371.65	519.60
371.84	475.13
372.04	557.05
372.24	573.43
372.44	550.03
372.63	547.69
372.83	613.22
373.03	608.54
373.22	613.22
373.42	631.94
373.62	617.90
373.81	589.82
374.01	624.92
374.21	650.67
374.40	653.01
374.60	676.41
374.79	578.11
374.99	624.92
375.19	629.60
375.38	660.03
375.58	580.45
375.78	622.58
375.97	667.05
376.17	695.14
376.37	613.22
376.56	704.50
376.76	671.73
376.95	596.84
377.15	641.31
377.35	610.88
377.54	653.01
377.74	657.69
377.93	580.45
378.13	669.39
378.33	716.20
378.52	655.35
378.72	641.31
378.91	634.29
379.11	692.80
379.31	657.69
379.50	718.54
379.70	767.70
379.89	688.12
380.09	667.05
380.28	702.16
380.48	674.07
380.68	662.37
380.87	681.10
381.07	744.29
381.26	819.19
381.46	706.84
381.65	711.52
381.85	758.33
382.04	720.88
382.24	727.91
382.43	772.38
382.63	732.59
382.83	774.72
383.02	765.36
383.22	823.87
383.41	704.50
383.61	800.46
383.80	760.67
384.00	798.12
384.19	858.98
384.39	791.10
384.58	830.89
384.78	866.00
384.97	847.27
385.17	746.63
385.36	777.06
385.56	849.61
385.75	781.74
385.95	809.83
386.14	784.08
386.34	800.46
386.53	884.72
386.72	793.44
386.92	908.13
387.11	866.00
387.31	940.90
387.50	812.17
387.70	863.66
387.89	891.74
388.09	866.00
388.28	856.64
388.48	863.66
388.67	940.90
388.86	889.40
389.06	919.83
389.25	992.39
389.45	901.11
389.64	903.45
389.84	968.98
390.03	912.81
390.22	912.81
390.42	877.70
390.61	1001.75
390.81	851.96
391.00	954.94
391.19	976.00
391.39	976.00
391.58	985.37
391.78	1004.09
391.97	1114.10
392.16	917.49
392.36	1036.86
392.55	1039.20
392.75	1050.90
392.94	987.71
393.13	1097.71
393.33	1041.54
393.52	1074.31
393.71	1013.45
393.91	1055.58
394.10	1015.79
394.29	1039.20
394.49	1104.73
394.68	1118.78
394.88	1116.44
395.07	1139.84
395.26	1149.20
395.46	1118.78
395.65	1167.93
395.84	1163.25
396.04	1118.78
396.23	1158.57
396.42	1100.05
396.62	1181.97
396.81	1214.74
397.00	1196.01
397.19	1137.50
397.39	1102.39
397.58	1132.82
397.77	1198.35
397.97	1196.01
398.16	1277.93
398.35	1207.72
398.55	1188.99
398.74	1184.31
398.93	1291.98
399.12	1217.08
399.32	1336.45
399.51	1221.76
399.70	1329.42
399.90	1336.45
400.09	1350.49
400.28	1343.47
400.47	1301.34
400.67	1362.19
400.86	1291.98
401.05	1299.00
401.24	1376.24
401.44	1514.33
401.63	1371.55
401.82	1350.49
402.01	1425.39
402.21	1404.32
402.40	1444.11
402.59	1441.77
402.78	1495.60
402.97	1427.73
403.17	1502.62
403.36	1519.01
403.55	1502.62
403.74	1540.07
403.93	1516.67
404.13	1577.52
404.32	1591.56
404.51	1495.60
404.70	1565.82
404.89	1551.78
405.09	1568.16
405.28	1638.38
405.47	1638.38
405.66	1591.56
405.85	1636.03
406.05	1640.72
406.24	1631.35
406.43	1701.57
406.62	1652.42
406.81	1783.49
407.00	1739.02
407.20	1785.83
407.39	1668.80
407.58	1739.02
407.77	1778.81
407.96	1755.40
408.15	1783.49
408.34	1741.36
408.54	1849.02
408.73	1825.62
408.92	1748.38
409.11	1884.13
409.30	1994.14
409.49	1865.41
409.68	1902.86
409.87	1886.47
410.07	1963.71
410.26	1942.64
410.45	2019.88
410.64	1973.07
410.83	1977.75
411.02	1928.60
411.21	2129.89
411.40	2083.08
411.59	2101.80
411.78	2101.80
411.98	2139.25
412.17	2136.91
412.36	2230.53
412.55	2221.17
412.74	2209.47
412.93	2347.56
413.12	2211.81
413.31	2324.15
413.50	2331.17
413.69	2298.41
413.88	2443.52
414.07	2239.89
414.26	2354.58
414.45	2363.94
414.64	2382.67
414.83	2450.54
415.02	2387.35
415.22	2471.61
415.41	2619.06
415.60	2525.44
415.79	2537.14
415.98	2509.05
416.17	2628.42
416.36	2668.21
416.55	2518.42
416.74	2724.38
416.93	2672.89
417.12	2689.28
417.31	2654.17
417.50	2605.02
417.69	2747.79
417.88	2712.68
418.07	2843.75
418.26	2801.62
418.45	2836.73
418.64	2953.76
418.83	2920.99
419.02	3005.25
419.21	2998.23
419.39	2920.99
419.58	2942.05
419.77	2853.11
419.96	2951.42
420.15	3014.61
420.34	3098.87
420.53	3101.21
420.72	3265.05
420.91	3075.46
421.10	3028.65
421.29	3152.70
421.48	3171.43
421.67	3204.19
421.86	3119.93
422.05	3122.27
422.24	3276.75
422.43	3171.43
422.61	3171.43
422.80	3166.74
422.99	3307.18
423.18	3274.41
423.37	3265.05
423.56	3243.98
423.75	3335.26
423.94	3124.62
424.13	3047.38
424.32	3108.23
424.50	3311.86
424.69	3279.09
424.88	3332.92
425.07	3339.94
425.26	3262.71
425.45	3192.49
425.64	3265.05
425.83	3269.73
426.01	3330.58
426.20	3382.07
426.39	3311.86
426.58	3339.94
426.77	3393.78
426.96	3344.63
427.15	3412.50
427.33	3414.84
427.52	3410.16
427.71	3496.76
427.90	3428.88
428.09	3552.93
428.28	3478.04
428.46	3555.27
428.65	3517.83
428.84	3623.15
429.03	3545.91
429.22	3442.93
429.40	3550.59
429.59	3489.74
429.78	3508.46
429.97	3428.88
430.16	3754.22
430.34	3730.81
430.53	3597.40
430.72	3775.28
430.91	3674.64
431.10	3758.90
431.28	3887.63
431.47	3772.94
431.66	3817.41
431.85	3723.79
432.03	3908.69
432.22	3990.61
432.41	3875.93
432.60	3929.76
432.79	3953.16
432.97	4023.38
433.16	4046.79
433.35	3913.38
433.54	3805.71
433.72	4018.70
433.91	4028.06
434.10	4058.49
434.28	4018.70
434.47	3988.27
434.66	4107.64
434.85	4079.55
435.03	4170.83
435.22	4114.66
435.41	4273.82
435.59	4182.54
435.78	4241.05
435.97	4262.12
436.16	4159.13
436.34	4175.52
436.53	4273.82
436.72	4322.97
436.90	4301.90
437.09	4512.55
437.28	4294.88
437.46	4269.14
437.65	4299.56
437.84	4421.27
438.02	4390.84
438.21	4507.87
438.40	4444.68
438.58	4631.92
438.77	4596.81
438.96	4624.90
439.14	4645.96
439.33	4674.05
439.52	4741.93
439.70	4737.24
439.89	4739.58
440.08	4840.23
440.26	4798.10
440.45	4765.33
440.63	4908.10
440.82	4959.60
441.01	5083.64
441.19	4994.70
441.38	5041.51
441.57	4882.36
441.75	5064.92
441.94	4994.70
442.12	5132.79
442.31	5188.97
442.50	5287.27
442.68	5160.88
442.87	5228.76
443.05	5380.89
443.24	5439.40
443.43	5366.85
443.61	5210.03
443.80	5439.40
443.98	5172.58
444.17	4964.28
444.35	5198.33
444.54	5418.34
444.73	5378.55
444.91	5549.41
445.10	5298.97
445.28	5376.21
445.47	5479.19
445.65	5387.91
445.84	5603.24
446.02	5605.58
446.21	5397.28
446.39	5451.11
446.58	5308.34
446.77	5488.56
446.95	5298.97
447.14	5479.19
447.32	5544.73
447.51	5666.44
447.69	5523.66
447.88	5493.24
448.06	5535.37
448.25	5790.49
448.43	5411.32
448.62	5479.19
448.80	5652.39
448.99	5823.25
449.17	5565.79
449.36	5617.29
449.54	5816.23
449.73	5741.33
449.91	5774.10
450.10	5654.73
450.28	5720.27
450.46	5951.98
450.65	5837.30
450.83	5956.66
451.02	5837.30
451.20	5940.28
451.39	5984.75
451.57	5884.11
451.76	5797.51
451.94	5867.72
452.13	5940.28
452.31	6071.35
452.49	5811.55
452.68	6052.63
452.86	6031.56
453.05	6216.46
453.23	6043.26
453.42	5966.03
453.60	5980.07
453.78	6193.06
453.97	6019.86
454.15	6019.86
454.34	6071.35
454.52	6099.44
454.70	6204.76
454.89	6352.21
455.07	6202.42
455.26	6389.66
455.44	6494.99
455.62	6394.34
455.81	6445.84
455.99	6539.46
456.17	6530.09
456.36	6497.33
456.54	6462.22
456.73	6757.13
456.91	6740.74
457.09	6569.88
457.28	6906.92
457.46	6890.54
457.64	6869.47
457.83	6757.13
458.01	6670.53
458.19	6827.34
458.38	6792.23
458.56	6860.11
458.74	6792.23
458.93	6902.24
459.11	6965.43
459.29	6846.07
459.48	6956.07
459.66	6960.75
459.84	6993.52
460.03	7030.97
460.21	7077.78
460.39	7070.76
460.57	7103.53
460.76	7098.84
460.94	7328.22
461.12	7180.76
461.31	7267.36
461.49	7206.51
461.67	7140.97
461.85	7222.89
462.04	7197.15
462.22	7536.52
462.40	7396.09
462.59	7428.86
462.77	7328.22
462.95	7456.95
463.13	7375.03
463.32	7440.56
463.50	7396.09
463.68	7627.81
463.86	7456.95
464.05	7508.44
464.23	7492.05
464.41	7735.47
464.59	7473.33
464.78	7808.03
464.96	7529.50
465.14	7597.38
465.32	7953.14
465.50	7875.90
465.69	7761.22
465.87	7590.36
466.05	7712.07
466.23	7716.75
466.41	7840.79
466.60	7939.10
466.78	7779.94
466.96	7786.96
467.14	7819.73
467.32	7908.67
467.51	7920.37
467.69	7817.39
467.87	7943.78
468.05	7925.05
468.23	7927.39
468.41	7878.24
468.60	8166.13
468.78	8219.96
468.96	7948.46
469.14	8060.80
469.32	8266.77
469.50	8161.45
469.69	8278.47
469.87	8437.63
470.05	8468.06
470.23	8390.82
470.41	8421.25
470.59	8430.61
470.77	8414.23
470.95	8472.74
471.14	8828.50
471.32	8489.12
471.50	8575.72
471.68	8720.84
471.86	8952.55
472.04	8769.99
472.22	8826.16
472.40	8606.15
472.58	8912.76
472.77	9004.04
472.95	9116.39
473.13	9310.65
473.31	9053.19
473.49	9221.71
473.67	9004.04
473.85	9085.96
474.03	9104.68
474.21	9301.29
474.39	9467.47
474.57	9273.20
474.75	9537.68
474.93	9423.00
475.12	9399.59
475.30	9603.22
475.48	9556.41
475.66	9563.43
475.84	9706.20
476.02	9863.02
476.20	9750.67
476.38	9860.68
476.56	10169.63
476.74	10251.55
476.92	10101.75
477.10	10073.67
477.28	10389.64
477.46	10303.04
477.64	10277.29
477.82	10527.73
478.00	10717.31
478.18	10581.56
478.36	10857.75
478.54	10902.22
478.72	11009.88
478.90	11052.01
479.08	11087.12
479.26	11084.78
479.44	11073.07
479.62	11367.98
479.80	11435.86
479.98	11239.25
480.16	11513.10
480.34	11445.22
480.52	11751.83
480.70	11618.42
480.88	11719.06
481.06	11964.82
481.24	11988.22
481.41	12067.80
481.59	12161.42
481.77	12325.26
481.95	12386.12
482.13	12264.41
482.31	12444.63
482.49	12800.39
482.67	12575.70
482.85	12842.52
483.03	12982.95
483.21	12950.18
483.39	13146.79
483.57	12875.29
483.74	13282.54
483.92	13462.76
484.10	13331.69
484.28	13671.07
484.46	14045.55
484.64	13785.76
484.82	13507.23
485.00	13947.25
485.18	14033.85
485.35	14080.66
485.53	14675.16
485.71	14548.77
485.89	14567.49
486.07	14721.97
486.25	14614.30
486.43	15140.93
486.61	15016.88
486.78	15185.40
486.96	14963.04
487.14	15499.03
487.32	15349.23
487.50	15557.54
487.68	15667.55
487.85	15747.12
488.03	15859.47
488.21	16109.91
488.39	16161.40
488.57	16514.82
488.75	16313.53
488.92	16327.58
489.10	16685.68
489.28	16650.57
489.46	17111.66
489.64	17050.80
489.81	17130.38
489.99	17170.17
490.17	17205.28
490.35	17481.46
490.53	17851.27
490.70	17701.47
490.88	17357.41
491.06	18134.47
491.24	17879.35
491.41	17956.59
491.59	18497.25
491.77	18363.84
491.95	18312.35
492.13	18356.82
492.30	18993.45
492.48	18623.64
492.66	18970.04
492.84	18820.25
493.01	19007.49
493.19	19180.69
493.37	19466.24
493.54	19080.05
493.72	19587.94
493.90	19782.21
494.08	20156.69
494.25	19723.69
494.43	19875.83
494.61	20098.18
494.79	20133.29
494.96	20318.19
495.14	20276.06
495.32	20716.08
495.49	20322.87
495.67	20601.40
495.85	21188.87
496.02	21118.65
496.20	21451.01
496.38	21167.80
496.55	21205.25
496.73	22029.12
496.91	21465.05
497.09	21727.19
497.26	21493.14
497.44	21626.55
497.62	22473.82
497.79	22115.72
497.97	22328.71
498.14	22127.42
498.32	22829.59
498.50	22579.15
498.67	22607.23
498.85	22572.13
499.03	22916.19
499.20	22953.63
499.38	23183.01
499.56	23260.24
499.73	23414.72
499.91	23311.74
500.08	23718.99
500.26	23386.63
500.44	23351.52
500.61	23559.83
500.79	23578.56
500.97	23817.29
501.14	23974.11
501.32	24247.95
501.49	24278.38
501.67	24395.40
501.84	24446.90
502.02	24243.27
502.20	24482.00
502.37	24620.10
502.55	24400.08
502.72	24767.55
502.90	24730.10
503.07	24821.38
503.25	25036.71
503.43	24739.46
503.60	24954.79
503.78	25259.06
503.95	24985.22
504.13	25249.70
504.30	25584.40
504.48	25483.75
504.65	25191.19
504.83	25729.51
505.01	25879.30
505.18	26136.76
505.36	26033.78
505.53	26015.05
505.71	25823.13
505.88	26080.59
506.06	26106.34
506.23	26232.72
506.41	26281.88
506.58	26567.42
506.76	26452.73
506.93	26405.92
507.11	26548.70
507.28	26871.69
507.46	26759.34
507.63	26628.27
507.81	27168.94
507.98	26862.33
508.16	27117.45
508.33	27182.98
508.50	27012.12
508.68	27470.87
508.85	27796.20
509.03	27697.90
509.20	27449.80
509.38	27316.39
509.55	28016.21
509.73	27637.05
509.90	28371.97
510.08	28109.83
510.25	27894.50
510.42	28222.18
510.60	28407.08
510.77	28458.57
510.95	28800.29
511.12	28114.52
511.30	28386.02
511.47	28800.29
511.64	28648.16
511.82	29127.97
511.99	28816.68
512.17	29235.63
512.34	29181.80
512.51	29179.46
512.69	29392.45
512.86	29237.97
513.04	29401.81
513.21	29495.43
513.38	29795.02
513.56	29741.19
513.73	29518.84
513.90	29944.81
514.08	29696.72
514.25	30342.70
514.43	30022.05
514.60	30197.59
514.77	30340.36
514.95	30171.85
515.12	30195.25
515.29	30295.89
515.47	30466.75
515.64	30677.40
515.81	30529.95
515.99	30600.16
516.16	31047.21
516.33	30656.34
516.51	31112.74
516.68	30829.54
516.85	30866.98
517.03	31274.24
517.20	31187.64
517.37	31117.42
517.54	30981.67
517.72	31484.89
517.89	31407.65
518.06	31075.29
518.24	31604.25
518.41	31529.36
518.58	31180.62
518.75	31391.26
518.93	31761.07
519.10	31737.66
519.27	31761.07
519.45	31775.11
519.62	31894.48
519.79	32020.87
519.96	32231.52
520.14	32060.66
520.31	31744.69
520.48	32177.68
520.65	32385.99
520.83	32727.71
521.00	32659.84
521.17	32624.73
521.34	32760.48
521.52	33022.62
521.69	32814.31
521.86	32470.25
522.03	33188.80
522.20	33383.06
522.38	33474.34
522.55	33266.03
522.72	33177.09
522.89	33364.34
523.07	33509.45
523.24	33614.77
523.41	33312.84
523.58	33207.52
523.75	34178.84
523.92	33855.85
524.10	34171.82
524.27	33876.91
524.44	34309.91
524.61	34103.95
524.78	33792.65
524.96	34565.03
525.13	34459.71
525.30	34265.44
525.47	34122.67
525.64	34492.47
525.81	34295.87
525.98	34658.65
526.16	34440.98
526.33	34843.56
526.50	34822.49
526.67	34518.22
526.84	34623.54
527.01	34848.24
527.18	35028.46
527.36	34845.90
527.53	35204.00
527.70	35442.73
527.87	35449.75
528.04	34817.81
528.21	35070.59
528.38	35510.61
528.55	35358.47
528.72	35225.06
528.89	35129.10
529.07	35215.70
529.24	35042.50
529.41	35517.63
529.58	35695.51
529.75	35496.56
529.92	35875.73
530.09	35931.90
530.26	35803.17
530.43	35454.44
530.60	35936.59
530.77	36144.89
530.94	35686.15
531.11	35784.45
531.28	36252.56
531.46	36257.24
531.63	36334.48
531.80	36416.40
531.97	36554.49
532.14	36428.10
532.31	36421.08
532.48	36631.72
532.65	36931.31
532.82	36383.63
532.99	36753.43
533.16	36746.41
533.33	36694.92
533.50	36844.71
533.67	37017.91
533.84	37195.79
534.01	36957.06
534.18	37156.00
534.35	37394.74
534.52	37514.11
534.69	37364.31
534.86	37109.19
535.03	37425.17
535.20	37612.41
535.37	37748.16
535.54	37792.63
535.71	37528.15
535.88	37649.86
536.05	38089.88
536.22	37708.37
536.38	37443.89
536.55	37858.17
536.72	37785.61
536.89	37511.77
537.06	37794.97
537.23	38036.05
537.40	38022.00
537.57	38153.07
537.74	37727.10
537.91	38197.54
538.08	38022.00
538.25	37743.48
538.42	38499.47
538.59	38614.16
538.75	38462.02
538.92	38422.23
539.09	38433.94
539.26	38440.96
539.43	38738.21
539.60	38824.81
539.77	38321.59
539.94	38731.18
540.11	38880.98
540.28	39023.75
540.44	38590.75
540.61	39070.56
540.78	38735.87
540.95	39274.19
541.12	39288.23
541.29	38958.22
541.46	39152.48
541.62	39234.40
541.79	39115.03
541.96	38810.76
542.13	38763.95
542.30	39323.34
542.47	39721.23
542.63	39672.08
542.80	39519.95
542.97	39590.16
543.14	39983.37
543.31	39814.85
543.48	39681.44
543.64	39941.24
543.81	40189.34
543.98	40072.31
544.15	39929.54
544.32	40278.28
544.48	40229.13
544.65	40495.95
544.82	40746.39
544.99	40156.57
545.16	39992.73
545.32	40013.80
545.49	40786.18
545.66	40903.20
545.83	40561.48
546.00	40678.51
546.16	40247.85
546.33	40769.79
546.50	40381.26
546.67	40690.21
546.83	40179.98
547.00	40341.47
547.17	40825.96
547.34	40748.73
547.50	40645.74
547.67	41191.09
547.84	41158.32
548.00	41008.53
548.17	41284.71
548.34	41287.05
548.51	41434.50
548.67	41237.90
548.84	41111.51
549.01	40858.73
549.18	41294.07
549.34	41502.38
549.51	41605.36
549.68	41560.89
549.84	41022.57
550.01	41242.58
550.18	41268.33
550.34	41565.57
550.51	41750.48
550.68	41614.72
550.84	41256.62
551.01	41385.35
551.18	41453.23
551.34	41773.88
551.51	41853.46
551.68	41902.61
551.84	42153.05
552.01	41675.58
552.18	42064.11
552.34	41876.86
552.51	42101.56
552.68	41979.85
552.84	41935.38
553.01	41783.24
553.18	42127.30
553.34	42515.83
553.51	41846.44
553.67	42120.28
553.84	42253.69
554.01	42157.73
554.17	41937.72
554.34	42660.94
554.51	42672.65
554.67	42953.51
554.84	42497.11
555.00	42417.53
555.17	42249.01
555.33	43077.56
555.50	42604.77
555.67	42637.54
555.83	42305.18
556.00	42384.76
556.16	42913.72
556.33	42965.21
556.50	42890.32
556.66	42670.31
556.83	42628.18
556.99	42967.55
557.16	43180.54
557.32	42740.52
557.49	42827.12
557.65	42534.56
557.82	42623.50
557.98	42621.16
558.15	43070.54
558.32	43344.38
558.48	42892.66
558.65	43002.66
558.81	43042.45
558.98	42792.01
559.14	43276.51
559.31	42930.11
559.47	43386.51
559.64	43288.21
559.80	43473.11
559.97	43782.06
560.13	43091.60
560.30	43459.07
560.46	43491.83
560.63	43501.20
560.79	43416.94
560.96	43798.44
561.12	43454.39
561.29	43723.55
561.45	43608.86
561.61	43648.65
561.78	43512.90
561.94	43730.57
562.11	43562.05
562.27	43992.71
562.44	43744.61
562.60	43501.20
562.77	43950.58
562.93	43494.18
563.10	44402.30
563.26	43629.93
563.42	44058.24
563.59	43800.79
563.75	43852.28
563.92	43929.51
564.08	43578.43
564.24	44011.43
564.41	43957.60
564.57	43655.67
564.74	43842.92
564.90	43721.21
565.07	44013.77
565.23	43908.45
565.39	44116.76
565.56	44374.22
565.72	44044.20
565.88	44278.25
566.05	43892.07
566.21	43952.92
566.38	44519.33
566.54	44215.06
566.70	44025.48
566.87	44091.01
567.03	43826.53
567.19	44165.91
567.36	44215.06
567.52	44194.00
567.68	44460.82
567.85	44215.06
568.01	44388.26
568.17	44091.01
568.34	44587.21
568.50	44437.41
568.66	44383.58
568.83	44184.63
568.99	44327.41
569.15	44760.40
569.32	44566.14
569.48	44500.61
569.64	44603.59
569.81	44238.47
569.97	44629.34
570.13	44708.91
570.30	44271.23
570.46	44655.08
570.62	44699.55
570.78	44002.07
570.95	44830.62
571.11	45050.63
571.27	44179.95
571.43	44271.23
571.60	44598.91
571.76	44664.44
571.92	44671.46
572.09	44362.51
572.25	44385.92
572.41	44453.79
572.57	44399.96
572.74	44886.79
572.90	44685.51
573.06	44821.26
573.22	44680.83
573.38	44868.07
573.55	44849.35
573.71	45083.40
573.87	45027.23
574.03	44804.88
574.20	44935.95
574.36	44919.56
574.52	44966.37
574.68	44608.27
574.84	45179.36
575.01	45277.66
575.17	45195.74
575.33	44882.11
575.49	44477.20
575.65	44765.09
575.82	44762.75
575.98	44940.63
576.14	45331.50
576.30	44865.73
576.46	44952.33
576.62	44835.30
576.79	45031.91
576.95	44397.62
577.11	44818.92
577.27	44985.10
577.43	44910.20
577.59	45038.93
577.75	44877.43
577.92	44832.96
578.08	44886.79
578.24	45354.90
578.40	44917.22
578.56	44903.18
578.72	45067.02
578.88	45083.40
579.04	44837.64
579.21	44744.02
579.37	44949.99
579.53	45127.87
579.69	44680.83
579.85	45209.79
580.01	45088.08
580.17	44706.57
580.33	45420.44
580.49	44655.08
580.65	45345.54
580.82	44947.65
580.98	45045.95
581.14	44502.95
581.30	44732.32
581.46	44854.03
581.62	45015.52
581.78	45228.51
581.94	45361.92
582.10	45034.25
582.26	45460.23
582.42	45104.46
582.58	45186.38
582.74	45235.53
582.90	45338.52
583.06	45469.59
583.22	45048.29
583.38	45069.36
583.54	45191.06
583.70	45280.00
583.86	45043.61
584.02	45193.40
584.18	45607.68
584.34	45324.47
584.50	45654.49
584.66	45429.80
584.82	45518.74
584.98	45680.24
585.14	45673.21
585.30	45055.31
585.46	45226.17
585.62	45130.21
585.78	45350.22
585.94	44942.97
586.10	45165.32
586.26	44985.10
586.42	45071.70
586.58	45429.80
586.74	45518.74
586.90	45296.39
587.06	44999.14
587.22	45490.65
587.38	45415.76
587.54	45258.94
587.70	45972.80
587.86	45294.05
588.02	44989.78
588.18	45375.97
588.34	45565.55
588.49	45233.19
588.65	45425.12
588.81	45067.02
588.97	45617.04
589.13	45162.98
589.29	45474.27
589.45	45579.59
589.61	45556.19
589.77	45532.78
589.93	45977.48
590.08	45563.21
