SpectraSuite Data File
++++++++++++++++++++++++++++++++++++
Date: Fri Oct 25 11:26:39 EDT 2013
User: price-jones
Dark Spectrum Present: No
Reference Spectrum Present: No
Number of Sampled Component Spectra: 1
Spectrometers: USB2+H05261
Integration Time (usec): 100000 (USB2+H05261)
Spectra Averaged: 1 (USB2+H05261)
Boxcar Smoothing: 0 (USB2+H05261)
Correct for Electrical Dark: No (USB2+H05261)
Strobe/Lamp Enabled: No (USB2+H05261)
Correct for Detector Non-linearity: No (USB2+H05261)
Correct for Stray Light: No (USB2+H05261)
Number of Pixels in Processed Spectrum: 2048
>>>>>Begin Processed Spectral Data<<<<<
365.73	285.55
365.92	285.55
366.12	285.55
366.32	161.50
366.52	145.11
366.72	133.41
366.91	79.58
367.11	112.35
367.31	72.56
367.51	98.30
367.70	112.35
367.90	138.09
368.10	107.66
368.30	142.77
368.49	154.48
368.69	201.29
368.89	135.75
369.09	205.97
369.28	182.56
369.48	147.45
369.68	187.24
369.87	234.05
370.07	173.20
370.27	224.69
370.47	334.70
370.66	615.56
370.86	690.46
371.06	690.46
371.25	723.23
371.45	716.20
371.65	697.48
371.84	669.39
372.04	681.10
372.24	662.37
372.44	739.61
372.63	655.35
372.83	765.36
373.03	760.67
373.22	737.27
373.42	814.51
373.62	725.57
373.81	840.25
374.01	868.34
374.21	830.89
374.40	828.55
374.60	786.42
374.79	891.74
374.99	877.70
375.19	830.89
375.38	861.32
375.58	851.96
375.78	877.70
375.97	795.78
376.17	908.13
376.37	884.72
376.56	858.98
376.76	847.27
376.95	919.83
377.15	901.11
377.35	957.28
377.54	896.43
377.74	968.98
377.93	866.00
378.13	887.06
378.33	961.96
378.52	851.96
378.72	943.24
378.91	922.17
379.11	929.19
379.31	1034.52
379.50	945.58
379.70	1048.56
379.89	1090.69
380.09	978.34
380.28	957.28
380.48	1034.52
380.68	1046.22
380.87	1011.11
381.07	1043.88
381.26	1027.50
381.46	933.87
381.65	1078.99
381.85	1067.28
382.04	1088.35
382.24	1121.12
382.43	1018.13
382.63	1053.24
382.83	1139.84
383.02	1081.33
383.22	1118.78
383.41	1116.44
383.61	1132.82
383.80	1167.93
384.00	1109.41
384.19	1153.88
384.39	1100.05
384.58	1193.67
384.78	1132.82
384.97	1179.63
385.17	1139.84
385.36	1228.78
385.56	1181.97
385.75	1221.76
385.95	1226.44
386.14	1207.72
386.34	1242.82
386.53	1193.67
386.72	1245.16
386.92	1268.57
387.11	1226.44
387.31	1320.06
387.50	1242.82
387.70	1289.64
387.89	1249.85
388.09	1238.14
388.28	1310.70
388.48	1299.00
388.67	1362.19
388.86	1277.93
389.06	1352.83
389.25	1387.94
389.45	1341.13
389.64	1430.07
389.84	1366.87
390.03	1437.09
390.22	1465.18
390.42	1315.38
390.61	1334.11
390.81	1366.87
391.00	1451.13
391.19	1320.06
391.39	1418.36
391.58	1509.65
391.78	1458.15
391.97	1605.61
392.16	1472.20
392.36	1643.06
392.55	1500.28
392.75	1519.01
392.94	1577.52
393.13	1533.05
393.33	1526.03
393.52	1575.18
393.71	1549.43
393.91	1621.99
394.10	1547.09
394.29	1544.75
394.49	1666.46
394.68	1596.25
394.88	1551.78
395.07	1640.72
395.26	1586.88
395.46	1631.35
395.65	1687.53
395.84	1727.32
396.04	1823.28
396.23	1795.19
396.42	1638.38
396.62	1846.68
396.81	1743.70
397.00	1790.51
397.19	1799.87
397.39	1846.68
397.58	1797.53
397.77	1809.23
397.97	1909.88
398.16	1863.07
398.35	1926.26
398.55	1881.79
398.74	2026.90
398.93	1949.67
399.12	1928.60
399.32	1863.07
399.51	1846.68
399.70	2040.95
399.90	2015.20
400.09	2040.95
400.28	2029.24
400.47	2097.12
400.67	2083.08
400.86	2017.54
401.05	2083.08
401.24	2059.67
401.44	2139.25
401.63	2197.76
401.82	2125.21
402.01	2090.10
402.21	2258.62
402.40	2253.94
402.59	2193.08
402.78	2197.76
402.97	2282.02
403.17	2256.28
403.36	2230.53
403.55	2399.05
403.74	2427.14
403.93	2373.30
404.13	2293.72
404.32	2466.92
404.51	2307.77
404.70	2520.76
404.89	2387.35
405.09	2588.63
405.28	2450.54
405.47	2597.99
405.66	2537.14
405.85	2502.03
406.05	2569.91
406.24	2502.03
406.43	2544.16
406.62	2691.62
406.81	2581.61
407.00	2597.99
407.20	2516.08
407.39	2644.81
407.58	2810.98
407.77	2813.32
407.96	2705.66
408.15	2860.13
408.34	2750.13
408.54	2717.36
408.73	2808.64
408.92	2789.92
409.11	2832.05
409.30	2895.24
409.49	2836.73
409.68	3005.25
409.87	2815.66
410.07	2930.35
410.26	2923.33
410.45	2974.82
410.64	2991.20
410.83	3150.36
411.02	3087.17
411.21	3337.60
411.40	3279.09
411.59	3309.52
411.78	3159.72
411.98	3178.45
412.17	3241.64
412.36	3344.63
412.55	3442.93
412.74	3496.76
412.93	3421.86
413.12	3318.88
413.31	3538.89
413.50	3459.31
413.69	3426.54
413.88	3475.70
414.07	3602.08
414.26	3655.92
414.45	3733.15
414.64	3698.05
414.83	3749.54
415.02	3833.80
415.22	3826.78
415.41	3648.90
415.60	3815.07
415.79	3990.61
415.98	3976.57
416.17	4032.74
416.36	4124.02
416.55	4117.00
416.74	4152.11
416.93	4194.24
417.12	4016.36
417.31	4250.41
417.50	4058.49
417.69	4521.92
417.88	4402.55
418.07	4255.09
418.26	4484.47
418.45	4386.16
418.64	4463.40
418.83	4624.90
419.02	4475.10
419.21	4542.98
419.39	4512.55
419.58	4582.77
419.77	4423.61
419.96	4634.26
420.15	4695.11
420.34	4475.10
420.53	4580.43
420.72	4678.73
420.91	4636.60
421.10	4730.22
421.29	4858.95
421.48	4777.03
421.67	4774.69
421.86	4765.33
422.05	4849.59
422.24	4868.31
422.43	4833.21
422.61	4870.65
422.80	4922.15
422.99	4931.51
423.18	5165.56
423.37	4940.87
423.56	5011.09
423.75	4891.72
423.94	4765.33
424.13	4706.82
424.32	4802.78
424.50	4924.49
424.69	5188.97
424.88	5137.48
425.07	4947.89
425.26	4910.44
425.45	5034.49
425.64	5039.17
425.83	4880.02
426.01	5174.92
426.20	5226.42
426.39	4971.30
426.58	5032.15
426.77	5053.22
426.96	5151.52
427.15	5233.44
427.33	5142.16
427.52	5160.88
427.71	5338.76
427.90	5305.99
428.09	5195.99
428.28	5427.70
428.46	5338.76
428.65	5364.51
428.84	5591.54
429.03	5523.66
429.22	5371.53
429.40	5504.94
429.59	5392.59
429.78	5416.00
429.97	5177.26
430.16	5423.02
430.34	5596.22
430.53	5598.56
430.72	5591.54
430.91	5699.20
431.10	5643.03
431.28	5809.21
431.47	5736.65
431.66	5951.98
431.85	5746.02
432.03	6019.86
432.22	6111.14
432.41	6031.56
432.60	5811.55
432.79	5947.30
432.97	5996.45
433.16	6047.94
433.35	6083.05
433.54	6066.67
433.72	6150.93
433.91	6071.35
434.10	6209.44
434.28	6085.39
434.47	6260.93
434.66	6345.19
434.85	6354.55
435.03	6516.05
435.22	6270.30
435.41	6450.52
435.59	6375.62
435.78	6480.94
435.97	6483.28
436.16	6251.57
436.34	6340.51
436.53	6595.63
436.72	6682.23
436.90	6565.20
437.09	6649.46
437.28	6300.72
437.46	6675.21
437.65	6670.53
437.84	6799.26
438.02	6993.52
438.21	6993.52
438.40	6874.15
438.58	6878.83
438.77	7059.06
438.96	6981.82
439.14	7199.49
439.33	7290.77
439.52	7232.26
439.70	7419.50
439.89	7431.20
440.08	7513.12
440.26	7356.30
440.45	7246.30
440.63	7620.78
440.82	7829.09
441.01	7405.46
441.19	7630.15
441.38	7775.26
441.57	7758.88
441.75	7662.91
441.94	7957.82
442.12	8025.70
442.31	8039.74
442.50	8116.98
442.68	8056.12
442.87	8060.80
443.05	8098.25
443.24	8271.45
443.43	8344.01
443.61	8346.35
443.80	8503.17
443.98	8119.32
444.17	7953.14
444.35	8318.26
444.54	8549.98
444.73	8339.33
444.91	8411.89
445.10	8458.70
445.28	8446.99
445.47	8191.88
445.65	8126.34
445.84	8423.59
446.02	8362.73
446.21	8409.54
446.39	8435.29
446.58	8484.44
446.77	8510.19
446.95	8386.14
447.14	8318.26
447.32	8514.87
447.51	8582.74
447.69	8486.78
447.88	8683.39
448.06	8643.60
448.25	8533.59
448.43	8737.22
448.62	8498.49
448.80	8767.65
448.99	8924.46
449.17	8828.50
449.36	8746.58
449.54	8933.82
449.73	8938.51
449.91	9085.96
450.10	8961.91
450.28	9198.31
450.46	9142.13
450.65	9198.31
450.83	9107.02
451.02	9303.63
451.20	9415.98
451.39	9202.99
451.57	9214.69
451.76	9034.47
451.94	9188.94
452.13	9441.72
452.31	9453.42
452.49	9331.72
452.68	9329.38
452.86	9434.70
453.05	9528.32
453.23	9547.05
453.42	9493.21
453.60	9331.72
453.78	9540.02
453.97	9603.22
454.15	9380.87
454.34	9549.39
454.52	9834.93
454.70	9755.35
454.89	9720.24
455.07	9858.34
455.26	9727.27
455.44	9893.44
455.62	9935.57
455.81	9792.80
455.99	10164.95
456.17	10076.01
456.36	9848.97
456.54	9933.23
456.73	10015.15
456.91	10459.85
457.09	10637.73
457.28	10356.87
457.46	10356.87
457.64	10541.77
457.83	10635.39
458.01	10478.58
458.19	10607.31
458.38	10466.88
458.56	10923.28
458.74	10836.68
458.93	10778.17
459.11	10691.57
459.29	10803.91
459.48	10815.62
459.66	10927.96
459.84	10993.50
460.03	11002.86
460.21	11147.97
460.39	11112.86
460.57	10967.75
460.76	11129.25
460.94	11272.02
461.12	11548.20
461.31	11082.44
461.49	11339.90
461.67	11323.51
461.85	11332.87
462.04	11218.19
462.22	11585.65
462.40	11576.29
462.59	11735.45
462.77	11712.04
462.95	11473.31
463.13	11592.67
463.32	11702.68
463.50	11761.19
463.68	11941.41
463.86	11894.60
464.05	11815.02
464.23	11824.39
464.41	12084.19
464.59	11646.51
464.78	12166.10
464.96	12091.21
465.14	11857.15
465.32	11999.93
465.50	12154.40
465.69	12107.59
465.87	12044.40
466.05	12362.71
466.23	12351.01
466.41	12374.41
466.60	12341.64
466.78	12456.33
466.96	12273.77
467.14	12313.56
467.32	12404.84
467.51	12645.91
467.69	12414.20
467.87	12292.49
468.05	12659.96
468.23	12453.99
468.41	12627.19
468.60	12800.39
468.78	12690.38
468.96	12716.13
469.14	13118.70
469.32	13036.78
469.50	12716.13
469.69	13195.94
469.87	13364.46
470.05	13198.28
470.23	13291.90
470.41	13252.11
470.59	13296.58
470.77	13462.76
470.95	13341.05
471.14	13657.03
471.32	13261.48
471.50	13692.13
471.68	13657.03
471.86	13832.57
472.04	13743.63
472.22	14274.93
472.40	13722.56
472.58	14010.45
472.77	14043.21
472.95	14284.29
473.13	14654.09
473.31	14066.62
473.49	14235.14
473.67	14310.04
473.85	14408.34
474.03	14759.42
474.21	14778.14
474.39	14768.78
474.57	14672.82
474.75	14750.06
474.93	14965.39
475.12	15030.92
475.30	15293.06
475.48	14881.13
475.66	15541.16
475.84	15171.35
476.02	15620.74
476.20	15452.22
476.38	15812.66
476.56	15983.52
476.74	15997.56
476.92	16107.57
477.10	15704.99
477.28	16395.45
477.46	15936.71
477.64	16484.39
477.82	16313.53
478.00	16692.70
478.18	16697.38
478.36	17228.68
478.54	17156.13
478.72	17355.07
478.90	17610.19
479.08	17736.58
479.26	17935.53
479.44	17535.29
479.62	17844.24
479.80	18017.44
479.98	18237.45
480.16	18981.74
480.34	18345.12
480.52	18743.01
480.70	18574.49
480.88	18649.39
481.06	18724.29
481.24	19126.86
481.41	19215.80
481.59	19351.55
481.77	19536.45
481.95	19482.62
482.13	19829.02
482.31	19873.49
482.49	20311.17
482.67	20271.38
482.85	20669.27
483.03	20936.09
483.21	20718.42
483.39	21408.88
483.57	21135.04
483.74	21202.91
483.92	21469.73
484.10	21628.89
484.28	21909.75
484.46	22253.81
484.64	22377.86
484.82	22214.02
485.00	22562.76
485.18	22888.10
485.35	23110.45
485.53	22801.50
485.71	22794.48
485.89	23438.12
486.07	23538.77
486.25	23660.48
486.43	23992.83
486.61	24144.97
486.78	24077.09
486.96	24407.11
487.14	24753.51
487.32	24734.78
487.50	25135.01
487.68	24844.79
487.85	25500.14
488.03	25965.90
488.21	25586.74
488.39	25907.39
488.57	26029.10
488.75	26356.77
488.92	26677.43
489.10	26845.94
489.28	26394.22
489.46	27213.41
489.64	27072.98
489.81	27847.69
489.99	27828.97
490.17	28271.33
490.35	28421.13
490.53	28283.03
490.70	28308.78
490.88	28477.30
491.06	28957.11
491.24	29099.88
491.41	29111.58
491.59	29282.44
491.77	28978.17
491.95	30068.86
492.13	30071.20
492.30	30171.85
492.48	30284.19
492.66	30178.87
492.84	30354.41
493.01	30827.20
493.19	30808.47
493.37	30991.03
493.54	31297.64
493.72	31887.46
493.90	31747.03
494.08	31807.88
494.25	32374.29
494.43	32404.72
494.61	32404.72
494.79	32591.96
494.96	32563.87
495.14	33251.99
495.32	33123.26
495.49	33106.88
495.67	33151.35
495.85	33715.42
496.02	34113.31
496.20	34117.99
496.38	34256.08
496.55	34651.63
496.73	34850.58
496.91	34749.93
497.09	35119.74
497.26	35058.88
497.44	34822.49
497.62	35742.32
497.79	36009.14
497.97	35433.37
498.14	36243.20
498.32	36247.88
498.50	36339.16
498.67	36793.22
498.85	36488.95
499.03	36765.14
499.20	36708.96
499.38	37172.39
499.56	37357.29
499.73	37577.30
499.91	37481.34
500.08	37834.76
500.26	37680.28
500.44	37696.67
500.61	38237.33
500.79	37830.08
500.97	38148.39
501.14	38958.22
501.32	39075.24
501.49	38307.55
501.67	38843.53
501.84	39044.82
502.02	39283.55
502.20	39166.52
502.37	38993.32
502.55	39330.36
502.72	39711.87
502.90	39510.58
503.07	39866.34
503.25	39716.55
503.43	39711.87
503.60	40175.30
503.78	40933.63
503.95	40540.42
504.13	40673.83
504.30	40622.34
504.48	40854.05
504.65	41317.48
504.83	41146.62
505.01	41364.29
505.18	41375.99
505.36	41935.38
505.53	41460.25
505.71	41872.18
505.88	42117.94
506.06	41748.14
506.23	42108.58
506.41	41792.61
506.58	42227.95
506.76	42382.42
506.93	42621.16
507.11	42660.94
507.28	43105.65
507.46	42890.32
507.63	43084.58
507.81	43295.23
507.98	43438.00
508.16	43594.82
508.33	43430.98
508.50	43262.46
508.68	43681.42
508.85	44601.25
509.03	43587.80
509.20	43777.38
509.38	44392.94
509.55	44889.13
509.73	44540.39
509.90	44304.00
510.08	44690.19
510.25	44795.51
510.42	44919.56
510.60	45326.81
510.77	45272.98
510.95	45771.52
511.12	44891.48
511.30	45191.06
511.47	45352.56
511.64	45776.20
511.82	46241.96
511.99	45638.11
512.17	46473.68
512.34	45935.35
512.51	46171.75
512.69	46256.01
512.86	46487.72
513.04	47178.18
513.21	46637.51
513.38	47077.54
513.56	47093.92
513.73	46770.93
513.90	47110.30
514.08	46930.08
514.25	47477.77
514.43	47133.71
514.60	47414.57
514.77	47243.71
514.95	47899.06
515.12	47470.75
515.29	47517.56
515.47	47927.15
515.64	48069.92
515.81	48004.39
515.99	48116.73
516.16	48528.67
516.33	48367.17
516.51	49134.87
516.68	48318.02
516.85	48870.39
517.03	49109.12
517.20	49191.04
517.37	48928.90
517.54	49022.52
517.72	48945.28
517.89	49436.80
518.06	49432.11
518.24	49446.16
518.41	49195.72
518.58	49315.09
518.75	49497.65
518.93	49703.62
519.10	49301.04
519.27	49932.99
519.45	49822.98
519.62	50064.06
519.79	50525.14
519.96	49799.58
520.14	49982.14
520.31	50014.91
520.48	50672.60
520.65	50330.88
520.83	50665.58
521.00	50780.26
521.17	50674.94
521.34	51131.34
521.52	50988.57
521.69	50838.78
521.86	51224.96
522.03	51309.22
522.20	51381.78
522.38	51494.13
522.55	51351.35
522.72	51419.23
522.89	51171.13
523.07	51721.16
523.24	51522.21
523.41	51732.86
523.58	51812.44
523.75	52130.75
523.92	52196.29
524.10	51952.87
524.27	52240.76
524.44	52273.52
524.61	52151.82
524.78	52367.15
524.96	52296.93
525.13	52694.82
525.30	52566.09
525.47	52603.54
525.64	52406.94
525.81	52547.37
525.98	52741.63
526.16	53022.50
526.33	52882.06
526.50	53076.33
526.67	53008.45
526.84	53193.36
527.01	53099.73
527.18	52959.30
527.36	53216.76
527.53	53205.06
527.70	53310.38
527.87	53698.91
528.04	53418.05
528.21	53514.01
528.38	53286.98
528.55	53528.05
528.72	53530.39
528.89	53329.11
529.07	53401.66
529.24	53483.58
529.41	54082.76
529.58	53640.40
529.75	53811.26
529.92	53846.36
530.09	53942.33
530.26	54028.93
530.43	54178.72
530.60	53895.52
530.77	54148.29
530.94	54143.61
531.11	54241.92
531.28	54040.63
531.46	54368.30
531.63	54368.30
531.80	54279.36
531.97	54288.73
532.14	54777.90
532.31	54372.99
532.48	54593.00
532.65	54653.85
532.82	54562.57
532.99	54726.41
533.16	54724.07
533.33	54775.56
533.50	55290.48
533.67	54731.09
533.84	54588.31
534.01	54990.89
534.18	54857.48
534.35	55374.73
534.52	55028.34
534.69	55121.96
534.86	55253.03
535.03	55007.27
535.20	55079.83
535.37	55363.03
535.54	55648.58
535.71	55393.46
535.88	55475.38
536.05	55550.27
536.22	55711.77
536.38	55927.10
536.55	55557.30
536.72	55449.63
536.89	55884.97
537.06	55870.93
537.23	55819.44
537.40	55866.25
537.57	55786.67
537.74	55781.99
537.91	56076.90
538.08	56116.68
538.25	55899.01
538.42	56254.78
538.59	56245.41
538.75	56006.68
538.92	56212.65
539.09	56048.81
539.26	56200.94
539.43	56130.73
539.60	56395.21
539.77	56205.62
539.94	56647.99
540.11	56245.41
540.28	56371.80
540.44	56570.75
540.61	56521.60
540.78	56346.06
540.95	56470.11
541.12	56521.60
541.29	56828.21
541.46	56573.09
541.62	56680.75
541.79	56839.91
541.96	56507.55
542.13	56708.84
542.30	56575.43
542.47	57090.35
542.63	57052.90
542.80	57020.13
542.97	57226.10
543.14	57441.43
543.31	57303.34
543.48	57151.20
543.64	57375.89
543.81	57366.53
543.98	57506.96
544.15	57382.91
544.32	57521.01
544.48	57757.40
544.65	57368.87
544.82	57488.24
544.99	57551.43
545.16	57537.39
545.32	57310.36
545.49	57661.44
545.66	57869.75
545.83	57654.42
546.00	57935.28
546.16	57631.01
546.33	57607.61
546.50	57623.99
546.67	57813.57
546.83	57652.08
547.00	57696.55
547.17	57787.83
547.34	57773.78
547.50	58094.44
547.67	58251.25
547.84	57963.37
548.00	58089.76
548.17	58038.26
548.34	58141.25
548.51	58396.37
548.67	58150.61
548.84	58382.32
549.01	58089.76
549.18	58230.19
549.34	58422.11
549.51	58230.19
549.68	58431.47
549.84	58284.02
550.01	58616.38
550.18	58220.83
550.34	58431.47
550.51	58564.88
550.68	58319.13
550.84	58295.72
551.01	58585.95
551.18	58436.16
551.34	58592.97
551.51	58707.66
551.68	58749.79
551.84	58665.53
552.01	58649.14
552.18	58724.04
552.34	58555.52
552.51	58897.24
552.68	58665.53
552.84	58915.96
553.01	58941.71
553.18	58796.60
553.34	59150.02
553.51	58784.90
553.67	58960.44
553.84	58946.39
554.01	59182.79
554.17	59014.27
554.34	59295.13
554.51	59063.42
554.67	58789.58
554.84	59164.06
555.00	59152.36
555.17	59152.36
555.33	59175.76
555.50	59082.14
555.67	59180.45
555.83	59199.17
556.00	59309.18
556.16	59395.77
556.33	59297.47
556.50	59290.45
556.66	59337.26
556.83	59274.07
556.99	59414.50
557.16	59657.91
557.32	59531.53
557.49	59725.79
557.65	59557.27
557.82	59334.92
557.98	59412.16
558.15	59517.48
558.32	59489.40
558.48	59496.42
558.65	59653.23
558.81	59721.11
558.98	59599.40
559.14	59484.72
559.31	59559.61
559.47	59625.15
559.64	59884.95
559.80	59891.97
559.97	59847.50
560.13	59405.14
560.30	59751.54
560.46	60046.44
560.63	59777.28
560.79	60016.02
560.96	60009.00
561.12	59875.58
561.29	59798.35
561.45	59831.11
561.61	59884.95
561.78	59786.64
561.94	59854.52
562.11	59894.31
562.27	59962.18
562.44	60032.40
562.60	60090.91
562.77	59941.12
562.93	60067.51
563.10	60144.75
563.26	60060.49
563.42	60392.84
563.59	59994.95
563.75	60083.89
563.92	60271.14
564.08	60104.96
564.24	60109.64
564.41	60144.75
564.57	60179.85
564.74	60191.56
564.90	60275.82
565.07	60172.83
565.23	60046.44
565.39	60214.96
565.56	60420.93
565.72	60289.86
565.88	60205.60
566.05	60259.43
566.21	60221.98
566.38	60339.01
566.54	60147.09
566.70	60509.87
566.87	60444.33
567.03	60048.78
567.19	60474.76
567.36	60467.74
567.52	60353.05
567.68	60678.39
567.85	60427.95
568.01	60430.29
568.17	60179.85
568.34	60505.19
568.50	60191.56
568.66	60441.99
568.83	60725.20
568.99	60458.38
569.15	60563.70
569.32	60364.76
569.48	60343.69
569.64	60624.56
569.81	60383.48
569.97	60346.03
570.13	60341.35
570.30	60348.37
570.46	60657.32
570.62	60633.92
570.78	60437.31
570.95	60514.55
571.11	60617.53
571.27	60404.55
571.43	60708.82
571.60	60704.13
571.76	60711.16
571.92	60767.33
572.09	60659.66
572.25	60704.13
572.41	60566.04
572.57	60610.51
572.74	60734.56
572.90	60678.39
573.06	60603.49
573.22	60734.56
573.38	60629.24
573.55	60559.02
573.71	60963.93
573.87	60706.47
574.03	60582.43
574.20	60828.18
574.36	60711.16
574.52	60996.70
574.68	60722.86
574.84	60982.66
575.01	60884.36
575.17	60734.56
575.33	60839.89
575.49	60776.69
575.65	60903.08
575.82	60905.42
575.98	60872.65
576.14	61059.90
576.30	60769.67
576.46	60776.69
576.62	60828.18
576.79	60828.18
576.95	60439.65
577.11	60874.99
577.27	60905.42
577.43	60992.02
577.59	60949.89
577.75	60802.44
577.92	60779.03
578.08	60947.55
578.24	60832.86
578.40	61146.50
578.56	60966.27
578.72	60926.49
578.88	61066.92
579.04	61057.56
579.21	60903.08
579.37	60853.93
579.53	61153.52
579.69	60879.67
579.85	60938.19
580.01	60896.06
580.17	60734.56
580.33	60926.49
580.49	61181.60
580.65	61057.56
580.82	60760.31
580.98	60989.68
581.14	60926.49
581.30	61111.39
581.46	61111.39
581.62	61228.41
581.78	60872.65
581.94	60961.59
582.10	60776.69
582.26	61048.19
582.42	60996.70
582.58	61179.26
582.74	61008.40
582.90	60956.91
583.06	61013.08
583.22	60807.12
583.38	61015.43
583.54	61048.19
583.70	61069.26
583.86	60975.64
584.02	61052.87
584.18	61137.13
584.34	61085.64
584.50	61066.92
584.66	61141.81
584.82	60917.12
584.98	61242.46
585.14	61162.88
585.30	61137.13
585.46	61172.24
585.62	60970.96
585.78	61279.91
585.94	60856.27
586.10	60982.66
586.26	61006.06
586.42	61221.39
586.58	61193.31
586.74	61244.80
586.90	61029.47
587.06	61158.20
587.22	61464.81
587.38	61151.18
587.54	61230.75
587.70	61324.38
587.86	61155.86
588.02	61130.11
588.18	61357.14
588.34	61197.99
588.49	61214.37
