SpectraSuite Data File
++++++++++++++++++++++++++++++++++++
Date: Fri Oct 25 11:25:24 EDT 2013
User: price-jones
Dark Spectrum Present: No
Reference Spectrum Present: No
Number of Sampled Component Spectra: 1
Spectrometers: USB2+H05261
Integration Time (usec): 100000 (USB2+H05261)
Spectra Averaged: 1 (USB2+H05261)
Boxcar Smoothing: 0 (USB2+H05261)
Correct for Electrical Dark: No (USB2+H05261)
Strobe/Lamp Enabled: No (USB2+H05261)
Correct for Detector Non-linearity: No (USB2+H05261)
Correct for Stray Light: No (USB2+H05261)
Number of Pixels in Processed Spectrum: 2048
>>>>>Begin Processed Spectral Data<<<<<
365.73	229.37
365.92	229.37
366.12	229.37
366.32	227.03
366.52	93.62
366.72	161.50
366.91	161.50
367.11	105.32
367.31	91.28
367.51	126.39
367.70	135.75
367.90	149.79
368.10	145.11
368.30	140.43
368.49	100.64
368.69	170.86
368.89	208.31
369.09	135.75
369.28	142.77
369.48	159.16
369.68	128.73
369.87	227.03
370.07	205.97
370.27	210.65
370.47	257.46
370.66	514.92
370.86	650.67
371.06	638.97
371.25	751.31
371.45	683.44
371.65	671.73
371.84	692.80
372.04	695.14
372.24	706.84
372.44	765.36
372.63	779.40
372.83	718.54
373.03	807.48
373.22	765.36
373.42	653.01
373.62	760.67
373.81	821.53
374.01	788.76
374.21	837.91
374.40	713.86
374.60	833.23
374.79	816.85
374.99	793.44
375.19	849.61
375.38	856.64
375.58	842.59
375.78	882.38
375.97	858.98
376.17	905.79
376.37	898.77
376.56	835.57
376.76	828.55
376.95	840.25
377.15	861.32
377.35	833.23
377.54	884.72
377.74	912.81
377.93	908.13
378.13	917.49
378.33	936.21
378.52	854.30
378.72	894.08
378.91	1074.31
379.11	840.25
379.31	889.40
379.50	964.30
379.70	1064.94
379.89	1004.09
380.09	844.93
380.28	997.07
380.48	943.24
380.68	926.85
380.87	983.02
381.07	968.98
381.26	973.66
381.46	1053.24
381.65	1069.62
381.85	964.30
382.04	1053.24
382.24	1039.20
382.43	1008.77
382.63	1097.71
382.83	1123.46
383.02	1100.05
383.22	1095.37
383.41	1149.20
383.61	1053.24
383.80	1188.99
384.00	1046.22
384.19	1165.59
384.39	1184.31
384.58	1128.14
384.78	1135.16
384.97	1224.10
385.17	1130.48
385.36	1160.91
385.56	1142.18
385.75	1064.94
385.95	1090.69
386.14	1261.55
386.34	1184.31
386.53	1212.40
386.72	1228.78
386.92	1249.85
387.11	1207.72
387.31	1172.61
387.50	1247.51
387.70	1256.87
387.89	1214.74
388.09	1238.14
388.28	1289.64
388.48	1301.34
388.67	1224.10
388.86	1261.55
389.06	1174.95
389.25	1284.95
389.45	1320.06
389.64	1341.13
389.84	1500.28
390.03	1469.86
390.22	1397.30
390.42	1376.24
390.61	1371.55
390.81	1387.94
391.00	1348.15
391.19	1369.21
391.39	1507.30
391.58	1404.32
391.78	1479.22
391.97	1430.07
392.16	1472.20
392.36	1488.58
392.55	1441.77
392.75	1526.03
392.94	1540.07
393.13	1586.88
393.33	1488.58
393.52	1533.05
393.71	1558.80
393.91	1586.88
394.10	1561.14
394.29	1614.97
394.49	1582.20
394.68	1692.21
394.88	1603.27
395.07	1692.21
395.26	1771.79
395.46	1706.25
395.65	1706.25
395.84	1724.97
396.04	1708.59
396.23	1706.25
396.42	1720.29
396.62	1708.59
396.81	1884.13
397.00	1708.59
397.19	1741.36
397.39	1753.06
397.58	1790.51
397.77	1802.21
397.97	1877.11
398.16	1717.95
398.35	1830.30
398.55	1802.21
398.74	1902.86
398.93	1912.22
399.12	1842.00
399.32	1846.68
399.51	1891.15
399.70	1942.64
399.90	1959.03
400.09	2045.63
400.28	2094.78
400.47	1942.64
400.67	2069.03
400.86	2129.89
401.05	1909.88
401.24	2165.00
401.44	2143.93
401.63	2127.55
401.82	2214.15
402.01	2085.42
402.21	2139.25
402.40	2195.42
402.59	2183.72
402.78	2326.49
402.97	2300.75
403.17	2237.55
403.36	2310.11
403.55	2401.39
403.74	2289.04
403.93	2403.73
404.13	2312.45
404.32	2321.81
404.51	2328.83
404.70	2377.98
404.89	2370.96
405.09	2401.39
405.28	2396.71
405.47	2455.22
405.66	2649.49
405.85	2569.91
406.05	2480.97
406.24	2642.46
406.43	2555.86
406.62	2579.27
406.81	2710.34
407.00	2476.29
407.20	2478.63
407.39	2612.04
407.58	2691.62
407.77	2775.88
407.96	2810.98
408.15	2693.96
408.34	2663.53
408.54	2740.77
408.73	2712.68
408.92	2799.28
409.11	2984.18
409.30	2937.37
409.49	2906.95
409.68	2836.73
409.87	2895.24
410.07	2918.65
410.26	2963.12
410.45	2986.52
410.64	2986.52
410.83	3068.44
411.02	3164.40
411.21	3157.38
411.40	3066.10
411.59	3185.47
411.78	3155.04
411.98	3241.64
412.17	3176.11
412.36	3258.03
412.55	3323.56
412.74	3363.35
412.93	3342.28
413.12	3375.05
413.31	3571.66
413.50	3520.17
413.69	3478.04
413.88	3517.83
414.07	3597.40
414.26	3548.25
414.45	3651.24
414.64	3557.61
414.83	3705.07
415.02	3733.15
415.22	3691.02
415.41	3786.99
415.60	3838.48
415.79	3861.88
415.98	3936.78
416.17	3831.46
416.36	3955.51
416.55	3943.80
416.74	3997.64
416.93	3915.72
417.12	4112.32
417.31	4105.30
417.50	4182.54
417.69	4205.94
417.88	4227.01
418.07	4383.82
418.26	4280.84
418.45	4229.35
418.64	4400.21
418.83	4304.25
419.02	4287.86
419.21	4512.55
419.39	4463.40
419.58	4486.81
419.77	4491.49
419.96	4475.10
420.15	4624.90
420.34	4589.79
420.53	4624.90
420.72	4660.01
420.91	4608.51
421.10	4657.67
421.29	4704.48
421.48	4725.54
421.67	4943.21
421.86	4798.10
422.05	4798.10
422.24	4746.61
422.43	4746.61
422.61	4882.36
422.80	4936.19
422.99	4975.98
423.18	4945.55
423.37	4943.21
423.56	4835.55
423.75	4781.71
423.94	4751.29
424.13	4692.77
424.32	4741.93
424.50	4992.36
424.69	5219.39
424.88	5188.97
425.07	4919.81
425.26	4772.35
425.45	4978.32
425.64	5015.77
425.83	4978.32
426.01	5015.77
426.20	5069.60
426.39	4973.64
426.58	4947.89
426.77	5029.81
426.96	4940.87
427.15	5198.33
427.33	5111.73
427.52	5132.79
427.71	5123.43
427.90	5203.01
428.09	5352.81
428.28	5362.17
428.46	5193.65
428.65	5238.12
428.84	5427.70
429.03	5448.77
429.22	5392.59
429.40	5469.83
429.59	5460.47
429.78	5156.20
429.97	5146.84
430.16	5476.85
430.34	5596.22
430.53	5504.94
430.72	5542.39
430.91	5476.85
431.10	5696.86
431.28	5694.52
431.47	5603.24
431.66	5781.12
431.85	5722.61
432.03	5797.51
432.22	5764.74
432.41	5774.10
432.60	5776.44
432.79	6012.84
432.97	5912.19
433.16	6146.25
433.35	5977.73
433.54	6080.71
433.72	6066.67
433.91	6087.73
434.10	6101.78
434.28	6136.88
434.47	6141.57
434.66	6193.06
434.85	6265.61
435.03	6420.09
435.22	6249.23
435.41	6359.24
435.59	6363.92
435.78	6375.62
435.97	6473.92
436.16	6387.32
436.34	6289.02
436.53	6396.68
436.72	6619.04
436.90	6509.03
437.09	6630.74
437.28	6466.90
437.46	6445.84
437.65	6724.36
437.84	6642.44
438.02	6698.61
438.21	6649.46
438.40	6537.12
438.58	6822.66
438.77	6899.90
438.96	6920.96
439.14	7115.23
439.33	7229.91
439.52	7030.97
439.70	7316.51
439.89	7382.05
440.08	7272.04
440.26	7405.46
440.45	7332.90
440.63	7524.82
440.82	7536.52
441.01	7543.55
441.19	7548.23
441.38	7611.42
441.57	7712.07
441.75	7803.35
441.94	7894.63
442.12	7880.58
442.31	8025.70
442.50	7777.60
442.68	7922.71
442.87	7946.12
443.05	7990.59
443.24	8198.90
443.43	8046.76
443.61	8175.49
443.80	8493.80
443.98	8060.80
444.17	7744.83
444.35	8060.80
444.54	8299.54
444.73	8372.10
444.91	8372.10
445.10	8271.45
445.28	8255.07
445.47	8248.05
445.65	8081.87
445.84	8461.04
446.02	8362.73
446.21	8280.82
446.39	8142.72
446.58	8418.91
446.77	8491.46
446.95	8180.17
447.14	8461.04
447.32	8470.40
447.51	8418.91
447.69	8177.83
447.88	8430.61
448.06	8390.82
448.25	8521.89
448.43	8585.08
448.62	8489.12
448.80	8510.19
448.99	8510.19
449.17	8695.09
449.36	8676.37
449.54	8844.88
449.73	8851.91
449.91	8980.64
450.10	8992.34
450.28	8992.34
450.46	9074.26
450.65	8830.84
450.83	8861.27
451.02	9011.06
451.20	9107.02
451.39	9212.35
451.57	9142.13
451.76	8938.51
451.94	9055.53
452.13	9298.95
452.31	9329.38
452.49	9069.58
452.68	9294.27
452.86	9371.50
453.05	9378.53
453.23	9338.74
453.42	9240.44
453.60	9327.03
453.78	9570.45
453.97	9359.80
454.15	9547.05
454.34	9547.05
454.52	9544.70
454.70	9792.80
454.89	9624.28
455.07	9603.22
455.26	9689.82
455.44	9717.90
455.62	9687.48
455.81	9816.21
455.99	10031.54
456.17	9745.99
456.36	10038.56
456.54	10228.14
456.73	10399.00
456.91	10403.68
457.09	10258.57
457.28	10541.77
457.46	10293.68
457.64	10356.87
457.83	10537.09
458.01	10424.75
458.19	10621.35
458.38	10291.34
458.56	10588.58
458.74	10532.41
458.93	10391.98
459.11	10511.35
459.29	10937.32
459.48	10656.46
459.66	10619.01
459.84	10764.12
460.03	11185.42
460.21	10949.03
460.39	10829.66
460.57	10820.30
460.76	11117.54
460.94	11117.54
461.12	11335.21
461.31	11070.73
461.49	11131.59
461.67	11250.96
461.85	11475.65
462.04	11211.17
462.22	11550.54
462.40	11585.65
462.59	11426.50
462.77	11349.26
462.95	11658.21
463.13	11349.26
463.32	11611.40
463.50	11632.46
463.68	11676.93
463.86	11873.54
464.05	11623.10
464.23	11639.48
464.41	11920.35
464.59	11426.50
464.78	12105.25
464.96	11772.89
465.14	11784.60
465.32	11983.54
465.50	12198.87
465.69	12025.67
465.87	12152.06
466.05	12222.28
466.23	12285.47
466.41	12032.69
466.60	12877.63
466.78	12180.15
466.96	12079.50
467.14	12077.16
467.32	12397.82
467.51	12404.84
467.69	12285.47
467.87	12636.55
468.05	12601.44
468.23	12369.73
468.41	12252.70
468.60	12325.26
468.78	12697.41
468.96	12814.43
469.14	12727.83
469.32	12870.61
469.50	12615.49
469.69	13025.08
469.87	13039.12
470.05	13078.91
470.23	13081.25
470.41	13191.26
470.59	13289.56
470.77	13069.55
470.95	13193.60
471.14	13324.67
471.32	13224.03
471.50	13565.74
471.68	13530.64
471.86	13364.46
472.04	13607.87
472.22	13806.82
472.40	13551.70
472.58	13776.39
472.77	13848.95
472.95	14064.28
473.13	14548.77
473.31	14019.81
473.49	13909.80
473.67	14022.15
473.85	13968.32
474.03	14263.22
474.21	14600.26
474.39	14548.77
474.57	14391.95
474.75	14686.86
474.93	14890.49
475.12	14803.89
475.30	15201.78
475.48	14726.65
475.66	15164.33
475.84	14998.15
476.02	15391.36
476.20	15323.49
476.38	15791.59
476.56	15716.70
476.74	15936.71
476.92	15749.46
477.10	15503.71
477.28	15901.60
477.46	15995.22
477.64	16414.18
477.82	16554.61
478.00	16840.15
478.18	16711.42
478.36	16599.08
478.54	17259.11
478.72	17277.83
478.90	17088.25
479.08	17607.85
479.26	17502.53
479.44	17607.85
479.62	17661.68
479.80	17839.56
479.98	18097.02
480.16	18637.69
480.34	18143.83
480.52	18534.70
480.70	18377.89
480.88	17996.38
481.06	18647.05
481.24	18750.03
481.41	19068.34
481.59	19440.49
481.77	19363.25
481.95	19452.19
482.13	19845.40
482.31	19288.35
482.49	20114.56
482.67	19922.64
482.85	20266.70
483.03	20627.14
483.21	20830.77
483.39	20699.70
483.57	20725.44
483.74	21113.97
483.92	21308.24
484.10	20973.54
484.28	21439.31
484.46	21741.24
484.64	22218.71
484.82	21837.20
485.00	22087.64
485.18	22129.77
485.35	22670.43
485.53	22721.92
485.71	22801.50
485.89	23061.30
486.07	23005.13
486.25	23634.73
486.43	23438.12
486.61	23616.01
486.78	24086.45
486.96	24058.37
487.14	24168.37
487.32	24435.19
487.50	24819.04
487.68	24746.48
487.85	25116.29
488.03	25046.07
488.21	25539.93
488.39	25591.42
488.57	25687.38
488.75	26171.87
488.92	26305.28
489.10	26424.65
489.28	26511.25
489.46	26803.82
489.64	26267.83
489.81	27648.75
489.99	27608.96
490.17	27515.34
490.35	27915.57
490.53	27667.47
490.70	27953.02
490.88	27957.70
491.06	28774.55
491.24	28701.99
491.41	28875.19
491.59	29408.83
491.77	28748.80
491.95	29523.52
492.13	29315.21
492.30	30019.71
492.48	29963.54
492.66	30281.85
492.84	30010.35
493.01	30267.81
493.19	30450.37
493.37	30391.86
493.54	31098.70
493.72	30895.07
493.90	31353.82
494.08	31817.24
494.25	31477.86
494.43	31775.11
494.61	32128.53
494.79	32397.70
494.96	32046.62
495.14	32538.13
495.32	33062.41
495.49	32994.53
495.67	33085.81
495.85	33289.44
496.02	33869.89
496.20	33387.74
496.38	33881.60
496.55	33933.09
496.73	34366.09
496.91	34227.99
497.09	34658.65
497.26	34600.14
497.44	34778.02
497.62	34890.37
497.79	35625.29
497.97	35241.45
498.14	35931.90
498.32	35983.40
498.50	35967.01
498.67	36025.53
498.85	36788.54
499.03	35875.73
499.20	36713.64
499.38	36669.17
499.56	36727.69
499.73	36950.04
499.91	36875.14
500.08	37385.38
500.26	37462.61
500.44	37471.98
500.61	37659.22
500.79	37883.91
500.97	37521.13
501.14	38450.32
501.32	38333.29
501.49	38380.10
501.67	38368.40
501.84	38635.22
502.02	38672.67
502.20	38778.00
502.37	38890.34
502.55	38799.06
502.72	39295.25
502.90	39246.10
503.07	39524.63
503.25	39381.85
503.43	39335.04
503.60	39519.95
503.78	39756.34
503.95	39737.62
504.13	40247.85
504.30	40620.00
504.48	40556.80
504.65	40280.62
504.83	40751.07
505.01	40615.32
505.18	40730.00
505.36	41120.87
505.53	41237.90
505.71	41268.33
505.88	41628.77
506.06	41474.29
506.23	41738.77
506.41	41425.14
506.58	41720.05
506.76	41893.25
506.93	42501.79
507.11	42007.94
507.28	42342.63
507.46	42375.40
507.63	42094.53
507.81	43028.41
507.98	42380.08
508.16	42625.84
508.33	42960.53
508.50	43669.72
508.68	43398.21
508.85	43543.33
509.03	43433.32
509.20	43821.85
509.38	43552.69
509.55	43873.34
509.73	44346.13
509.90	44437.41
510.08	44505.29
510.25	44378.90
510.42	44304.00
510.60	44643.38
510.77	44814.24
510.95	44912.54
511.12	44570.82
511.30	45219.15
511.47	44781.47
511.64	45132.55
511.82	45708.32
511.99	45013.18
512.17	45544.48
512.34	45815.99
512.51	45984.51
512.69	46377.72
512.86	46089.83
513.04	46466.66
513.21	46265.37
513.38	46560.28
513.56	46946.47
513.73	46670.28
513.90	47239.03
514.08	46691.35
514.25	46883.27
514.43	47051.79
514.60	47009.66
514.77	47012.00
514.95	47360.74
515.12	47140.73
515.29	47217.97
515.47	47566.71
515.64	47728.20
515.81	47501.17
515.99	47952.90
516.16	47683.73
516.33	47899.06
516.51	48486.54
516.68	48231.42
516.85	48315.68
517.03	48659.74
517.20	48395.26
517.37	48123.75
517.54	48460.79
517.72	48580.16
517.89	48928.90
518.06	49223.81
518.24	49050.61
518.41	49071.67
518.58	49024.86
518.75	48783.79
518.93	49673.19
519.10	49284.66
519.27	49811.28
519.45	49352.54
519.62	49467.22
519.79	49551.48
519.96	49322.11
520.14	49727.02
520.31	49759.79
520.48	50108.53
520.65	50108.53
520.83	50454.93
521.00	50380.03
521.17	49956.39
521.34	50415.14
521.52	50623.45
521.69	50703.03
521.86	50880.91
522.03	50520.46
522.20	50890.27
522.38	51044.74
522.55	51075.17
522.72	50733.45
522.89	51264.75
523.07	51447.32
523.24	50866.86
523.41	51655.62
523.58	51327.95
523.75	51709.46
523.92	51374.76
524.10	51753.93
524.27	51861.59
524.44	51922.44
524.61	52016.07
524.78	51859.25
524.96	52004.36
525.13	52203.31
525.30	51945.85
525.47	52390.55
525.64	52268.84
525.81	52109.69
525.98	52470.13
526.16	52521.62
526.33	52147.14
526.50	52825.89
526.67	52420.98
526.84	52577.79
527.01	52736.95
527.18	52631.63
527.36	52622.26
527.53	52582.48
527.70	53031.86
527.87	52910.15
528.04	52933.56
528.21	53249.53
528.38	53446.13
528.55	53373.58
528.72	52973.34
528.89	53116.12
529.07	53394.64
529.24	53113.78
529.41	53546.78
529.58	53546.78
529.75	53471.88
529.92	53422.73
530.09	53614.65
530.26	53432.09
530.43	53764.45
530.60	53717.64
530.77	53832.32
530.94	53748.06
531.11	53638.06
531.28	54073.40
531.46	53968.07
531.63	54232.55
531.80	54031.27
531.97	54241.92
532.14	53820.62
532.31	54188.08
532.48	54387.03
532.65	54527.46
532.82	54354.26
532.99	54234.89
533.16	54583.63
533.33	54433.84
533.50	54908.97
533.67	54595.34
533.84	54354.26
534.01	54543.84
534.18	54658.53
534.35	55194.51
534.52	54901.95
534.69	54988.55
534.86	55147.70
535.03	54843.43
535.20	54768.54
535.37	55077.49
535.54	55168.77
535.71	55077.49
535.88	55084.51
536.05	55363.03
536.22	55501.12
536.38	55323.24
536.55	55154.72
536.72	55372.39
536.89	55196.85
537.06	55564.32
537.23	55529.21
537.40	55267.07
537.57	55501.12
537.74	55679.00
537.91	55917.74
538.08	55550.27
538.25	55686.03
538.42	55831.14
538.59	56074.55
538.75	55856.88
538.92	55936.46
539.09	55910.72
539.26	55791.35
539.43	56236.05
539.60	56020.72
539.77	56168.18
539.94	56446.70
540.11	56158.81
540.28	56135.41
540.44	56182.22
540.61	56275.84
540.78	56207.97
540.95	56292.22
541.12	56090.94
541.29	56376.48
541.46	56404.57
541.62	56598.83
541.79	56418.61
541.96	56341.38
542.13	56535.64
542.30	56360.10
542.47	56500.53
542.63	56591.81
542.80	56662.03
542.97	57008.43
543.14	56914.81
543.31	57020.13
543.48	57167.58
543.64	57368.87
543.81	57219.08
543.98	57343.12
544.15	56992.04
544.32	57319.72
544.48	57326.74
544.65	57258.87
544.82	57350.15
544.99	57113.75
545.16	57282.27
545.32	57268.23
545.49	57588.88
545.66	57558.45
545.83	57497.60
546.00	57631.01
546.16	57523.35
546.33	57432.07
546.50	57279.93
546.67	57361.85
546.83	57453.13
547.00	57626.33
547.17	57584.20
547.34	57792.51
547.50	57883.79
547.67	58122.52
547.84	57813.57
548.00	57907.19
548.17	58129.54
548.34	57752.72
548.51	57982.09
548.67	58061.67
548.84	57811.23
549.01	57890.81
549.18	57904.85
549.34	57989.11
549.51	58178.70
549.68	58389.34
549.84	58300.40
550.01	58293.38
550.18	58166.99
550.34	58274.66
550.51	58302.74
550.68	58244.23
550.84	58019.54
551.01	58492.33
551.18	58389.34
551.34	58291.04
551.51	58347.21
551.68	58443.18
551.84	58195.08
552.01	58384.66
552.18	58450.20
552.34	58403.39
552.51	58808.30
552.68	58204.44
552.84	58548.50
553.01	58747.45
553.18	58754.47
553.34	58944.05
553.51	58719.36
553.67	58555.52
553.84	58721.70
554.01	58728.72
554.17	58979.16
554.34	58951.07
554.51	58824.68
554.67	59058.74
554.84	58822.34
555.00	58810.64
555.17	58805.96
555.33	58784.90
555.50	58810.64
555.67	58883.20
555.83	58831.71
556.00	58827.02
556.16	59135.98
556.33	59264.70
556.50	58997.88
556.66	59178.10
556.83	59128.95
556.99	59124.27
557.16	59430.88
557.32	59185.13
557.49	59554.93
557.65	58953.41
557.82	59131.29
557.98	59185.13
558.15	59199.17
558.32	59419.18
558.48	59302.15
558.65	59355.99
558.81	59267.05
558.98	59264.70
559.14	59552.59
559.31	59456.63
559.47	59639.19
559.64	59250.66
559.80	59515.14
559.97	59566.63
560.13	59543.23
560.30	59716.43
560.46	59442.59
560.63	59536.21
560.79	59568.97
560.96	59657.91
561.12	59772.60
561.29	59676.64
561.45	59639.19
561.61	59611.10
561.78	59765.58
561.94	59805.37
562.11	59688.34
562.27	59674.30
562.44	59817.07
562.60	59906.01
562.77	59852.18
562.93	59693.02
563.10	59906.01
563.26	59772.60
563.42	59948.14
563.59	59934.10
563.75	59700.04
563.92	59636.85
564.08	59821.75
564.24	60065.17
564.41	60058.15
564.57	59966.87
564.74	59969.21
564.90	60053.47
565.07	59732.81
565.23	59976.23
565.39	59908.35
565.56	59971.55
565.72	60135.38
565.88	60001.97
566.05	59994.95
566.21	59997.29
566.38	60142.41
566.54	60313.26
566.70	60144.75
566.87	60308.58
567.03	60065.17
567.19	60299.22
567.36	60154.11
567.52	60093.25
567.68	60388.16
567.85	60210.28
568.01	60161.13
568.17	60081.55
568.34	60411.57
568.50	60264.11
568.66	60182.19
568.83	60371.78
568.99	60317.95
569.15	60385.82
569.32	60111.98
569.48	60289.86
569.64	60331.99
569.81	60252.41
569.97	60156.45
570.13	60315.61
570.30	60289.86
570.46	60212.62
570.62	60245.39
570.78	60404.55
570.95	60512.21
571.11	60383.48
571.27	60037.08
571.43	60404.55
571.60	60376.46
571.76	60353.05
571.92	60474.76
572.09	60575.40
572.25	60484.12
572.41	60528.59
572.57	60540.30
572.74	60633.92
572.90	60397.52
573.06	60425.61
573.22	60519.23
573.38	60636.26
573.55	60327.31
573.71	60612.85
573.87	60594.13
574.03	60456.04
574.20	60493.49
574.36	60172.83
574.52	60615.19
574.68	60584.77
574.84	60575.40
575.01	60481.78
575.17	60603.49
575.33	60507.53
575.49	60406.89
575.65	60430.29
575.82	60516.89
575.98	60434.97
576.14	60919.46
576.30	60764.99
576.46	60701.79
576.62	60748.60
576.79	60552.00
576.95	60423.27
577.11	60612.85
577.27	60776.69
577.43	60743.92
577.59	60589.45
577.75	60622.22
577.92	60446.68
578.08	60615.19
578.24	60701.79
578.40	60776.69
578.56	60687.75
578.72	60701.79
578.88	61006.06
579.04	60952.23
579.21	60790.73
579.37	60809.46
579.53	60718.18
579.69	60561.36
579.85	60617.53
580.01	60575.40
580.17	60580.09
580.33	60776.69
580.49	60720.52
580.65	60874.99
580.82	60774.35
580.98	60636.26
581.14	60664.35
581.30	60837.54
581.46	60704.13
581.62	60926.49
581.78	60662.00
581.94	60825.84
582.10	60643.28
582.26	60685.41
582.42	60736.90
582.58	60776.69
582.74	60743.92
582.90	60853.93
583.06	60968.61
583.22	60512.21
583.38	60692.43
583.54	60645.62
583.70	60884.36
583.86	60926.49
584.02	60746.26
584.18	60907.76
584.34	60809.46
584.50	60711.16
584.66	60816.48
584.82	60640.94
584.98	60961.59
585.14	60788.39
585.30	60837.54
585.46	60942.87
585.62	60694.77
585.78	61155.86
585.94	60591.79
586.10	60994.36
586.26	60727.54
586.42	60874.99
586.58	60865.63
586.74	61008.40
586.90	60870.31
587.06	60729.88
587.22	61085.64
587.38	61134.79
587.54	60910.10
587.70	61169.90
587.86	60987.34
588.02	60706.47
588.18	61036.49
588.34	60905.42
588.49	60989.68
