SpectraSuite Data File
++++++++++++++++++++++++++++++++++++
Date: Fri Oct 25 11:34:17 EDT 2013
User: price-jones
Dark Spectrum Present: No
Reference Spectrum Present: No
Number of Sampled Component Spectra: 1
Spectrometers: USB2+H05261
Integration Time (usec): 100000 (USB2+H05261)
Spectra Averaged: 1 (USB2+H05261)
Boxcar Smoothing: 0 (USB2+H05261)
Correct for Electrical Dark: No (USB2+H05261)
Strobe/Lamp Enabled: No (USB2+H05261)
Correct for Detector Non-linearity: No (USB2+H05261)
Correct for Stray Light: No (USB2+H05261)
Number of Pixels in Processed Spectrum: 2048
>>>>>Begin Processed Spectral Data<<<<<
365.73	264.48
365.92	264.48
366.12	264.48
366.32	187.24
366.52	161.50
366.72	152.13
366.91	159.16
367.11	241.08
367.31	159.16
367.51	255.12
367.70	124.05
367.90	147.45
368.10	191.92
368.30	135.75
368.49	161.50
368.69	170.86
368.89	215.33
369.09	152.13
369.28	201.29
369.48	227.03
369.68	180.22
369.87	273.84
370.07	210.65
370.27	271.50
370.47	320.65
370.66	479.81
370.86	517.26
371.06	472.79
371.25	528.96
371.45	503.22
371.65	578.11
371.84	538.32
372.04	543.00
372.24	533.64
372.44	578.11
372.63	594.50
372.83	552.37
373.03	482.15
373.22	575.77
373.42	606.20
373.62	535.98
373.81	601.52
374.01	662.37
374.21	643.65
374.40	683.44
374.60	571.09
374.79	697.48
374.99	622.58
375.19	648.33
375.38	631.94
375.58	678.76
375.78	582.79
375.97	648.33
376.17	676.41
376.37	690.46
376.56	648.33
376.76	650.67
376.95	603.86
377.15	723.23
377.35	744.29
377.54	662.37
377.74	645.99
377.93	697.48
378.13	662.37
378.33	718.54
378.52	678.76
378.72	685.78
378.91	706.84
379.11	674.07
379.31	711.52
379.50	716.20
379.70	753.65
379.89	711.52
380.09	765.36
380.28	720.88
380.48	704.50
380.68	753.65
380.87	779.40
381.07	795.78
381.26	755.99
381.46	842.59
381.65	814.51
381.85	718.54
382.04	765.36
382.24	898.77
382.43	786.42
382.63	770.04
382.83	814.51
383.02	816.85
383.22	819.19
383.41	791.10
383.61	858.98
383.80	884.72
384.00	767.70
384.19	723.23
384.39	812.17
384.58	809.83
384.78	823.87
384.97	849.61
385.17	866.00
385.36	744.29
385.56	889.40
385.75	802.80
385.95	830.89
386.14	877.70
386.34	833.23
386.53	842.59
386.72	891.74
386.92	858.98
387.11	837.91
387.31	929.19
387.50	844.93
387.70	877.70
387.89	828.55
388.09	945.58
388.28	905.79
388.48	814.51
388.67	884.72
388.86	851.96
389.06	894.08
389.25	910.47
389.45	940.90
389.64	971.32
389.84	959.62
390.03	943.24
390.22	964.30
390.42	922.17
390.61	940.90
390.81	976.00
391.00	957.28
391.19	1036.86
391.39	990.05
391.58	954.94
391.78	1104.73
391.97	985.37
392.16	954.94
392.36	1041.54
392.55	1025.15
392.75	945.58
392.94	1100.05
393.13	1076.65
393.33	1057.92
393.52	997.07
393.71	1036.86
393.91	994.73
394.10	1060.26
394.29	1088.35
394.49	1041.54
394.68	1116.44
394.88	1090.69
395.07	1207.72
395.26	1095.37
395.46	1151.54
395.65	1186.65
395.84	1130.48
396.04	1179.63
396.23	1179.63
396.42	1130.48
396.62	1181.97
396.81	1219.42
397.00	1181.97
397.19	1179.63
397.39	1186.65
397.58	1331.76
397.77	1184.31
397.97	1273.25
398.16	1261.55
398.35	1299.00
398.55	1219.42
398.74	1284.95
398.93	1263.89
399.12	1238.14
399.32	1196.01
399.51	1320.06
399.70	1362.19
399.90	1315.38
400.09	1310.70
400.28	1390.28
400.47	1317.72
400.67	1437.09
400.86	1467.52
401.05	1416.02
401.24	1533.05
401.44	1336.45
401.63	1404.32
401.82	1448.79
402.01	1486.24
402.21	1476.88
402.40	1554.12
402.59	1453.47
402.78	1371.55
402.97	1423.05
403.17	1401.98
403.36	1540.07
403.55	1516.67
403.74	1523.69
403.93	1551.78
404.13	1577.52
404.32	1645.40
404.51	1523.69
404.70	1551.78
404.89	1542.41
405.09	1673.48
405.28	1519.01
405.47	1575.18
405.66	1694.55
405.85	1722.63
406.05	1724.97
406.24	1652.42
406.43	1657.10
406.62	1680.50
406.81	1874.77
407.00	1785.83
407.20	1708.59
407.39	1657.10
407.58	1739.02
407.77	1769.44
407.96	1874.77
408.15	1797.53
408.34	1839.66
408.54	1881.79
408.73	1860.73
408.92	1846.68
409.11	1944.99
409.30	2050.31
409.49	1874.77
409.68	1893.49
409.87	1902.86
410.07	2010.52
410.26	1916.90
410.45	2017.54
410.64	1996.48
410.83	2005.84
411.02	2132.23
411.21	2125.21
411.40	2099.46
411.59	2172.02
411.78	2104.14
411.98	2076.06
412.17	2230.53
412.36	2141.59
412.55	2305.43
412.74	2284.36
412.93	2188.40
413.12	2246.91
413.31	2429.48
413.50	2349.90
413.69	2305.43
413.88	2455.22
414.07	2368.62
414.26	2375.64
414.45	2413.09
414.64	2363.94
414.83	2429.48
415.02	2417.77
415.22	2459.90
415.41	2593.31
415.60	2527.78
415.79	2677.57
415.98	2715.02
416.17	2605.02
416.36	2539.48
416.55	2609.70
416.74	2649.49
416.93	2726.72
417.12	2724.38
417.31	2787.58
417.50	2864.82
417.69	2855.45
417.88	2916.31
418.07	2827.37
418.26	2764.17
418.45	2899.92
418.64	3045.04
418.83	3030.99
419.02	2899.92
419.21	3108.23
419.39	3028.65
419.58	2937.37
419.77	3073.12
419.96	3066.10
420.15	2972.48
420.34	3115.25
420.53	3080.14
420.72	3112.91
420.91	3145.68
421.10	3145.68
421.29	3145.68
421.48	3091.85
421.67	3171.43
421.86	3204.19
422.05	3208.87
422.24	3204.19
422.43	3248.66
422.61	3384.41
422.80	3550.59
422.99	3349.31
423.18	3293.13
423.37	3302.50
423.56	3269.73
423.75	3279.09
423.94	3152.70
424.13	3061.42
424.32	3241.64
424.50	3384.41
424.69	3581.02
424.88	3403.14
425.07	3171.43
425.26	3377.39
425.45	3290.79
425.64	3290.79
425.83	3272.07
426.01	3295.47
426.20	3503.78
426.39	3389.10
426.58	3435.91
426.77	3368.03
426.96	3417.18
427.15	3407.82
427.33	3454.63
427.52	3463.99
427.71	3405.48
427.90	3508.46
428.09	3548.25
428.28	3641.87
428.46	3548.25
428.65	3508.46
428.84	3791.67
429.03	3646.55
429.22	3499.10
429.40	3613.79
429.59	3574.00
429.78	3651.24
429.97	3522.51
430.16	3740.18
430.34	3693.37
430.53	3770.60
430.72	3660.60
430.91	3695.71
431.10	3733.15
431.28	3719.11
431.47	3918.06
431.66	3892.31
431.85	3831.46
432.03	4023.38
432.22	4018.70
432.41	3861.88
432.60	4007.00
432.79	3889.97
432.97	3960.19
433.16	3969.55
433.35	3892.31
433.54	4056.15
433.72	4131.05
433.91	4196.58
434.10	4138.07
434.28	4007.00
434.47	4191.90
434.66	4175.52
434.85	4175.52
435.03	4156.79
435.22	4070.19
435.41	4273.82
435.59	4322.97
435.78	4369.78
435.97	4301.90
436.16	4386.16
436.34	4198.92
436.53	4311.27
436.72	4486.81
436.90	4294.88
437.09	4489.15
437.28	4414.25
437.46	4346.37
437.65	4550.00
437.84	4477.44
438.02	4456.38
438.21	4510.21
438.40	4435.32
438.58	4725.54
438.77	4510.21
438.96	4571.07
439.14	4631.92
439.33	4751.29
439.52	4671.71
439.70	4767.67
439.89	4880.02
440.08	4830.87
440.26	4844.91
440.45	4933.85
440.63	4924.49
440.82	5022.79
441.01	5022.79
441.19	5135.14
441.38	5142.16
441.57	5107.05
441.75	5118.75
441.94	5277.91
442.12	5203.01
442.31	5331.74
442.50	5303.65
442.68	5221.74
442.87	5235.78
443.05	5338.76
443.24	5439.40
443.43	5317.70
443.61	5303.65
443.80	5579.84
443.98	5291.95
444.17	5074.28
444.35	5359.83
444.54	5497.92
444.73	5416.00
444.91	5317.70
445.10	5416.00
445.28	5348.12
445.47	5448.77
445.65	5469.83
445.84	5516.64
446.02	5561.11
446.21	5488.56
446.39	5500.26
446.58	5593.88
446.77	5528.35
446.95	5465.15
447.14	5418.34
447.32	5626.65
447.51	5554.09
447.69	5575.16
447.88	5575.16
448.06	5558.77
448.25	5544.73
448.43	5638.35
448.62	5692.18
448.80	5701.54
448.99	5738.99
449.17	5837.30
449.36	5603.24
449.54	5806.87
449.73	5720.27
449.91	5956.66
450.10	5933.26
450.28	6024.54
450.46	5968.37
450.65	5959.00
450.83	5970.71
451.02	6076.03
451.20	6015.18
451.39	6022.20
451.57	5963.68
451.76	5905.17
451.94	6047.94
452.13	6066.67
452.31	6003.47
452.49	5912.19
452.68	6127.52
452.86	6087.73
453.05	6282.00
453.23	6242.21
453.42	6127.52
453.60	6085.39
453.78	6146.25
453.97	6209.44
454.15	6129.86
454.34	6256.25
454.52	6349.87
454.70	6537.12
454.89	6267.95
455.07	6520.73
455.26	6384.98
455.44	6459.88
455.62	6415.41
455.81	6424.77
455.99	6569.88
456.17	6731.38
456.36	6679.89
456.54	6778.19
456.73	6747.76
456.91	6836.70
457.09	6750.10
457.28	6839.05
457.46	6509.03
457.64	7052.03
457.83	6759.47
458.01	6736.06
458.19	6860.11
458.38	6712.66
458.56	6932.67
458.74	7098.84
458.93	6946.71
459.11	6981.82
459.29	7084.80
459.48	7126.93
459.66	6942.03
459.84	7042.67
460.03	7262.68
460.21	7145.66
460.39	7061.40
460.57	7211.19
460.76	7288.43
460.94	7250.98
461.12	7349.28
461.31	7152.68
461.49	7250.98
461.67	7222.89
461.85	7412.48
462.04	7384.39
462.22	7765.90
462.40	7620.78
462.59	7541.21
462.77	7487.37
462.95	7599.72
463.13	7445.24
463.32	7562.27
463.50	7819.73
463.68	7604.40
463.86	7592.70
464.05	7515.46
464.23	7726.11
464.41	7726.11
464.59	7379.71
464.78	7836.11
464.96	7756.54
465.14	7620.78
465.32	7796.32
465.50	7772.92
465.69	7810.37
465.87	8182.51
466.05	7843.14
466.23	7911.01
466.41	7943.78
466.60	8049.10
466.78	7857.18
466.96	7854.84
467.14	7777.60
467.32	8105.28
467.51	8215.28
467.69	7859.52
467.87	8290.18
468.05	8018.68
468.23	8023.36
468.41	8025.70
468.60	8304.22
468.78	8236.35
468.96	8140.38
469.14	8362.73
469.32	8351.03
469.50	8133.36
469.69	8339.33
469.87	8383.80
470.05	8351.03
470.23	8568.70
470.41	8704.45
470.59	8671.68
470.77	8496.14
470.95	8613.17
471.14	8730.20
471.32	8386.14
471.50	8652.96
471.68	8795.73
471.86	8805.10
472.04	8856.59
472.22	8982.98
472.40	8549.98
472.58	8856.59
472.77	9006.38
472.95	9263.84
473.13	9385.55
473.31	9069.58
473.49	9254.48
473.67	9235.75
473.85	9074.26
474.03	9308.31
474.21	9390.23
474.39	9210.01
474.57	9460.45
474.75	9584.49
474.93	9703.86
475.12	9504.92
475.30	9877.06
475.48	9865.36
475.66	9724.93
475.84	9837.27
476.02	9879.40
476.20	9973.02
476.38	10045.58
476.56	10366.23
476.74	10157.92
476.92	10235.16
477.10	9998.77
477.28	10366.23
477.46	10312.40
477.64	10485.60
477.82	10616.67
478.00	11030.94
478.18	10754.76
478.36	10721.99
478.54	10892.85
478.72	10937.32
478.90	11236.91
479.08	10993.50
479.26	11344.58
479.44	11335.21
479.62	11412.45
479.80	11545.86
479.98	11529.48
480.16	11747.15
480.34	11716.72
480.52	11779.92
480.70	11887.58
480.88	12011.63
481.06	12070.14
481.24	12140.36
481.41	12299.52
481.59	12304.20
481.77	12372.07
481.95	12461.01
482.13	12636.55
482.31	12779.32
482.49	12966.57
482.67	12999.34
482.85	12865.92
483.03	13156.15
483.21	13132.75
483.39	13408.93
483.57	13282.54
483.74	13191.26
483.92	13472.12
484.10	13331.69
484.28	13900.44
484.46	14057.26
484.64	14377.91
484.82	14171.94
485.00	14012.79
485.18	14438.76
485.35	14623.67
485.53	14558.13
485.71	14916.23
485.89	14860.06
486.07	14530.05
486.25	14998.15
486.43	14944.32
486.61	15276.68
486.78	15389.02
486.96	15468.60
487.14	15620.74
487.32	15707.34
487.50	15908.62
487.68	15910.96
487.85	16217.57
488.03	16039.69
488.21	16194.17
488.39	16402.47
488.57	16594.40
488.75	16578.01
488.92	16896.33
489.10	17039.10
489.28	16800.37
489.46	17348.05
489.64	17308.26
489.81	17418.27
489.99	17685.09
490.17	17439.33
490.35	17858.29
490.53	17916.80
490.70	18253.84
490.88	17767.01
491.06	18183.62
491.24	18312.35
491.41	18696.20
491.59	18579.17
491.77	18621.30
491.95	18930.25
492.13	19150.26
492.30	18967.70
492.48	19269.63
492.66	19112.81
492.84	19009.83
493.01	19580.92
493.19	19583.26
493.37	19728.38
493.54	19868.81
493.72	19758.80
493.90	20175.42
494.08	19871.15
494.25	20355.64
494.43	20369.68
494.61	20589.69
494.79	20507.77
494.96	20690.34
495.14	20673.95
495.32	21074.18
495.49	20964.18
495.67	21205.25
495.85	21125.68
496.02	21584.42
496.20	21474.42
496.38	21532.93
496.55	21633.57
496.73	22183.60
496.91	21979.97
497.09	22047.85
497.26	22251.47
497.44	22239.77
497.62	22717.24
497.79	22672.77
497.97	22455.10
498.14	22792.14
498.32	22967.68
498.50	22869.37
498.67	23337.48
498.85	23056.62
499.03	23426.42
499.20	23611.32
499.38	23440.47
499.56	23524.72
499.73	23833.68
499.91	23667.50
500.08	24070.07
500.26	23931.98
500.44	23995.17
500.61	24182.42
500.79	24027.94
500.97	24273.70
501.14	24842.45
501.32	24926.71
501.49	24460.94
501.67	24329.87
501.84	24685.63
502.02	24758.19
502.20	24915.00
502.37	24676.27
502.55	24830.74
502.72	25076.50
502.90	25177.14
503.07	25017.99
503.25	24954.79
503.43	25376.09
503.60	25631.21
503.78	25458.01
503.95	25523.54
504.13	25898.03
504.30	25993.99
504.48	25731.85
504.65	25965.90
504.83	26008.03
505.01	26120.38
505.18	26347.41
505.36	26567.42
505.53	26230.38
505.71	26471.46
505.88	26380.18
506.06	26497.20
506.23	26724.24
506.41	27000.42
506.58	26785.09
506.76	26773.39
506.93	26899.78
507.11	27243.84
507.28	27150.21
507.46	27000.42
507.63	27243.84
507.81	27482.57
507.98	27211.07
508.16	27300.01
508.33	27639.39
508.50	27826.63
508.68	27770.46
508.85	28273.67
509.03	27679.18
509.20	28032.60
509.38	28238.56
509.55	28484.32
509.73	28730.08
509.90	28449.21
510.08	28458.57
510.25	28496.02
510.42	28774.55
510.60	28994.56
510.77	28814.34
510.95	29008.60
511.12	29020.30
511.30	28781.57
511.47	29137.33
511.64	29549.26
511.82	29563.31
511.99	29373.72
512.17	29493.09
512.34	29256.70
512.51	29869.92
512.69	29582.03
512.86	29687.36
513.04	29993.97
513.21	29535.22
513.38	30134.40
513.56	30059.50
513.73	29790.34
513.90	30251.42
514.08	30064.18
514.25	30291.21
514.43	30394.20
514.60	30452.71
514.77	30274.83
514.95	30934.86
515.12	30382.49
515.29	30567.40
515.47	30995.71
515.64	30888.05
515.81	30787.41
515.99	31171.25
516.16	31192.32
516.33	31454.46
516.51	31381.90
516.68	31421.69
516.85	30986.35
517.03	31632.34
517.20	31590.21
517.37	31824.26
517.54	32084.06
517.72	32016.19
517.89	31585.53
518.06	32170.66
518.24	32264.28
518.41	32032.57
518.58	32041.93
518.75	32205.77
518.93	32498.34
519.10	32137.90
519.27	32598.98
519.45	32713.67
519.62	32828.35
519.79	32329.82
519.96	32730.05
520.14	32723.03
520.31	32458.55
520.48	33109.22
520.65	32964.10
520.83	33652.22
521.00	33511.79
521.17	33266.03
521.34	33413.49
521.52	33708.40
521.69	33642.86
521.86	33319.87
522.03	33558.60
522.20	34132.03
522.38	34256.08
522.55	33710.74
522.72	34209.27
522.89	34036.07
523.07	34246.72
523.24	34387.15
523.41	34064.16
523.58	33905.00
523.75	34326.30
523.92	34335.66
524.10	34396.51
524.27	34778.02
524.44	34274.80
524.61	34651.63
524.78	35063.57
524.96	34829.51
525.13	34469.07
525.30	35110.38
525.47	35225.06
525.64	35150.17
525.81	35257.83
525.98	35241.45
526.16	34955.90
526.33	35103.35
526.50	35688.49
526.67	35054.20
526.84	35604.23
527.01	35597.21
527.18	35416.99
527.36	35854.67
527.53	35468.48
527.70	36311.07
527.87	36346.18
528.04	35505.93
528.21	35906.16
528.38	36025.53
528.55	35943.61
528.72	36081.70
528.89	36044.25
529.07	35714.23
529.24	36098.08
529.41	36657.47
529.58	35964.67
529.75	35817.22
529.92	36584.91
530.09	35955.31
530.26	36423.42
530.43	36783.86
530.60	36421.08
530.77	36472.57
530.94	36655.13
531.11	36893.86
531.28	36844.71
531.46	36905.57
531.63	36896.20
531.80	37034.30
531.97	37560.92
532.14	37191.11
532.31	37001.53
532.48	37069.40
532.65	37270.69
532.82	37415.80
532.99	37308.14
533.16	37233.24
533.33	37848.80
533.50	37516.45
533.67	37523.47
533.84	37268.35
534.01	37474.32
534.18	37879.23
534.35	38354.36
534.52	37916.68
534.69	38370.74
534.86	37804.33
535.03	37780.93
535.20	38117.96
535.37	38672.67
535.54	38417.55
535.71	38024.34
535.88	37956.47
536.05	38478.41
536.22	38632.88
536.38	38504.15
536.55	38625.86
536.72	38529.90
536.89	38293.50
537.06	38635.22
537.23	38850.55
537.40	38401.17
537.57	38546.28
537.74	38462.02
537.91	38787.36
538.08	38892.68
538.25	38476.07
538.42	38998.01
538.59	39236.74
538.75	38836.51
538.92	39035.45
539.09	39283.55
539.26	39400.58
539.43	39065.88
539.60	39351.43
539.77	39395.90
539.94	39746.98
540.11	39477.82
540.28	39192.27
540.44	39550.37
540.61	39269.51
540.78	39363.13
540.95	39611.23
541.12	39491.86
541.29	38960.56
541.46	39564.42
541.62	39611.23
541.79	40191.68
541.96	39606.55
542.13	39899.11
542.30	40133.17
542.47	39983.37
542.63	40215.08
542.80	40222.11
542.97	40517.01
543.14	40278.28
543.31	40463.18
543.48	40252.53
543.64	41001.50
543.81	40783.83
543.98	40449.14
544.15	40744.05
544.32	40577.87
544.48	41118.53
544.65	40966.40
544.82	40732.34
544.99	40535.74
545.16	40844.69
545.32	40517.01
545.49	41109.17
545.66	41464.93
545.83	40989.80
546.00	41399.40
546.16	41240.24
546.33	41275.35
546.50	40706.60
546.67	41577.28
546.83	40645.74
547.00	40905.54
547.17	41017.89
547.34	41186.41
547.50	41642.81
547.67	41839.42
547.84	41413.44
548.00	41851.12
548.17	42120.28
548.34	41998.57
548.51	41682.60
548.67	41757.50
548.84	42031.34
549.01	41951.76
549.18	41797.29
549.34	42061.77
549.51	42225.60
549.68	42251.35
549.84	41858.14
550.01	42192.84
550.18	42092.19
550.34	42099.22
550.51	42417.53
550.68	42160.07
550.84	42043.04
551.01	42574.34
551.18	42476.04
551.34	42480.72
551.51	42628.18
551.68	42342.63
551.84	42600.09
552.01	42230.29
552.18	42848.19
552.34	42775.63
552.51	42719.46
552.68	42476.04
552.84	42450.30
553.01	42932.45
553.18	43061.18
553.34	43126.71
553.51	42880.95
553.67	43103.31
553.84	42993.30
554.01	42852.87
554.17	43117.35
554.34	43110.33
554.51	43091.60
554.67	43093.94
554.84	43430.98
555.00	43107.99
555.17	43213.31
555.33	43498.86
555.50	43178.20
555.67	43175.86
555.83	43456.73
556.00	43786.74
556.16	43997.39
556.33	43517.58
556.50	43810.15
556.66	43573.75
556.83	43566.73
556.99	43793.76
557.16	43852.28
557.32	44069.95
557.49	43646.31
557.65	43428.64
557.82	43744.61
557.98	43737.59
558.15	44020.80
558.32	43508.22
558.48	43564.39
558.65	43957.60
558.81	44107.40
558.98	44112.08
559.14	43983.35
559.31	43585.46
559.47	43796.10
559.64	44336.77
559.80	43840.57
559.97	43936.54
560.13	44091.01
560.30	44161.23
560.46	44624.65
560.63	44147.18
560.79	43899.09
560.96	44645.72
561.12	44299.32
561.29	44341.45
561.45	44432.73
561.61	44161.23
561.78	44273.57
561.94	44128.46
562.11	44514.65
562.27	44275.91
562.44	44027.82
562.60	44531.03
562.77	44425.71
562.93	44425.71
563.10	44949.99
563.26	44725.30
563.42	44907.86
563.59	44357.83
563.75	44713.59
563.92	44685.51
564.08	44538.05
564.24	44992.12
564.41	44287.62
564.57	44713.59
564.74	44790.83
564.90	44685.51
565.07	44638.70
565.23	44636.36
565.39	44318.04
565.56	45162.98
565.72	44753.38
565.88	45078.72
566.05	45078.72
566.21	45083.40
566.38	44877.43
566.54	44839.98
566.70	45045.95
566.87	44940.63
567.03	44765.09
567.19	44825.94
567.36	45008.50
567.52	44729.98
567.68	44905.52
567.85	44872.75
568.01	45067.02
568.17	44858.71
568.34	45170.00
568.50	45415.76
568.66	45158.30
568.83	45081.06
568.99	45127.87
569.15	44577.84
569.32	44842.32
569.48	44774.45
569.64	45214.47
569.81	45460.23
569.97	45177.02
570.13	45539.80
570.30	44940.63
570.46	45483.63
570.62	45272.98
570.78	45130.21
570.95	45120.85
571.11	45509.38
571.27	45411.07
571.43	45134.89
571.60	44940.63
571.76	45216.81
571.92	45757.47
572.09	44980.42
572.25	45322.13
572.41	45382.99
572.57	45179.36
572.74	45675.55
572.90	45387.67
573.06	45453.20
573.22	45434.48
573.38	45617.04
573.55	45581.93
573.71	46038.34
573.87	45610.02
574.03	45633.42
574.20	45483.63
574.36	45390.01
574.52	45160.64
574.68	45462.57
574.84	45834.71
575.01	45820.67
575.17	45668.53
575.33	45783.22
575.49	45099.78
575.65	45645.13
575.82	45841.73
575.98	45722.37
576.14	45467.25
576.30	46057.06
576.46	45588.95
576.62	45759.81
576.79	45570.23
576.95	45488.31
577.11	45209.79
577.27	45727.05
577.43	45495.33
577.59	45471.93
577.75	45432.14
577.92	45277.66
578.08	45771.52
578.24	46036.00
578.40	45890.88
578.56	45792.58
578.72	45794.92
578.88	45762.15
579.04	45879.18
579.21	45588.95
579.37	45914.29
579.53	46012.59
579.69	45574.91
579.85	45860.46
580.01	45521.08
580.17	45628.74
580.33	45794.92
580.49	46068.76
580.65	45830.03
580.82	45387.67
580.98	45645.13
581.14	45701.30
581.30	45900.25
581.46	45954.08
581.62	45909.61
581.78	45507.04
581.94	46099.19
582.10	45385.33
582.26	45921.31
582.42	45750.45
582.58	45745.77
582.74	45743.43
582.90	45916.63
583.06	46033.66
583.22	46080.47
583.38	45881.52
583.54	46209.20
583.70	45930.67
583.86	46117.92
584.02	45848.75
584.18	45909.61
584.34	45570.23
584.50	46054.72
584.66	46024.29
584.82	46075.79
584.98	46419.84
585.14	45759.81
585.30	45815.99
585.46	46274.73
585.62	45684.92
585.78	46274.73
585.94	45813.65
586.10	46050.04
586.26	45940.04
586.42	46103.87
586.58	45951.74
586.74	46003.23
586.90	45848.75
587.06	45741.09
587.22	45944.72
587.38	45834.71
587.54	46506.44
587.70	46134.30
587.86	46227.92
588.02	45954.08
588.18	46000.89
588.34	45947.06
588.49	46220.90
588.65	45853.44
588.81	46454.95
588.97	46183.45
589.13	45762.15
589.29	45680.24
589.45	46373.03
589.61	46539.21
589.77	46188.13
589.93	45867.48
590.08	46138.98
