SpectraSuite Data File
++++++++++++++++++++++++++++++++++++
Date: Fri Oct 25 11:34:48 EDT 2013
User: price-jones
Dark Spectrum Present: No
Reference Spectrum Present: No
Number of Sampled Component Spectra: 1
Spectrometers: USB2+H05261
Integration Time (usec): 100000 (USB2+H05261)
Spectra Averaged: 1 (USB2+H05261)
Boxcar Smoothing: 0 (USB2+H05261)
Correct for Electrical Dark: No (USB2+H05261)
Strobe/Lamp Enabled: No (USB2+H05261)
Correct for Detector Non-linearity: No (USB2+H05261)
Correct for Stray Light: No (USB2+H05261)
Number of Pixels in Processed Spectrum: 2048
>>>>>Begin Processed Spectral Data<<<<<
365.73	280.86
365.92	280.86
366.12	280.86
366.32	194.26
366.52	180.22
366.72	229.37
366.91	215.33
367.11	168.52
367.31	196.60
367.51	140.43
367.70	124.05
367.90	173.20
368.10	119.37
368.30	224.69
368.49	278.52
368.69	135.75
368.89	180.22
369.09	191.92
369.28	227.03
369.48	220.01
369.68	269.16
369.87	294.91
370.07	229.37
370.27	257.46
370.47	353.42
370.66	458.74
370.86	498.53
371.06	486.83
371.25	514.92
371.45	571.09
371.65	610.88
371.84	510.24
372.04	521.94
372.24	507.90
372.44	571.09
372.63	716.20
372.83	643.65
373.03	634.29
373.22	653.01
373.42	589.82
373.62	603.86
373.81	608.54
374.01	599.18
374.21	622.58
374.40	648.33
374.60	636.63
374.79	594.50
374.99	692.80
375.19	664.71
375.38	655.35
375.58	620.24
375.78	704.50
375.97	641.31
376.17	678.76
376.37	601.52
376.56	720.88
376.76	634.29
376.95	674.07
377.15	671.73
377.35	657.69
377.54	697.48
377.74	589.82
377.93	587.47
378.13	716.20
378.33	725.57
378.52	763.01
378.72	617.90
378.91	737.27
379.11	676.41
379.31	702.16
379.50	671.73
379.70	657.69
379.89	748.97
380.09	681.10
380.28	645.99
380.48	627.26
380.68	702.16
380.87	777.06
381.07	725.57
381.26	765.36
381.46	751.31
381.65	763.01
381.85	753.65
382.04	683.44
382.24	748.97
382.43	781.74
382.63	767.70
382.83	765.36
383.02	830.89
383.22	699.82
383.41	718.54
383.61	781.74
383.80	807.48
384.00	777.06
384.19	795.78
384.39	795.78
384.58	835.57
384.78	837.91
384.97	924.51
385.17	805.14
385.36	786.42
385.56	758.33
385.75	828.55
385.95	835.57
386.14	912.81
386.34	779.40
386.53	746.63
386.72	858.98
386.92	858.98
387.11	858.98
387.31	826.21
387.50	851.96
387.70	877.70
387.89	805.14
388.09	793.44
388.28	868.34
388.48	922.17
388.67	908.13
388.86	873.02
389.06	854.30
389.25	973.66
389.45	947.92
389.64	877.70
389.84	891.74
390.03	851.96
390.22	964.30
390.42	882.38
390.61	919.83
390.81	896.43
391.00	950.26
391.19	1008.77
391.39	966.64
391.58	983.02
391.78	987.71
391.97	1071.97
392.16	968.98
392.36	1032.18
392.55	1083.67
392.75	992.39
392.94	908.13
393.13	1015.79
393.33	1018.13
393.52	1025.15
393.71	1039.20
393.91	1093.03
394.10	1011.11
394.29	1027.50
394.49	1057.92
394.68	1062.60
394.88	1076.65
395.07	1151.54
395.26	999.41
395.46	1097.71
395.65	1104.73
395.84	1128.14
396.04	1149.20
396.23	1226.44
396.42	1186.65
396.62	1170.27
396.81	1249.85
397.00	1144.52
397.19	1137.50
397.39	1207.72
397.58	1226.44
397.77	1249.85
397.97	1273.25
398.16	1151.54
398.35	1144.52
398.55	1177.29
398.74	1247.51
398.93	1254.53
399.12	1245.16
399.32	1266.23
399.51	1294.32
399.70	1238.14
399.90	1256.87
400.09	1308.36
400.28	1359.85
400.47	1357.51
400.67	1301.34
400.86	1306.02
401.05	1418.36
401.24	1420.71
401.44	1350.49
401.63	1329.42
401.82	1409.00
402.01	1322.40
402.21	1455.81
402.40	1299.00
402.59	1409.00
402.78	1420.71
402.97	1528.37
403.17	1446.45
403.36	1495.60
403.55	1458.15
403.74	1589.22
403.93	1537.73
404.13	1509.65
404.32	1556.46
404.51	1589.22
404.70	1511.99
404.89	1547.09
405.09	1572.84
405.28	1547.09
405.47	1675.82
405.66	1598.59
405.85	1563.48
406.05	1666.46
406.24	1645.40
406.43	1689.87
406.62	1685.19
406.81	1806.89
407.00	1591.56
407.20	1689.87
407.39	1638.38
407.58	1783.49
407.77	1844.34
407.96	1849.02
408.15	1802.21
408.34	1874.77
408.54	1867.75
408.73	1827.96
408.92	1881.79
409.11	1809.23
409.30	1830.30
409.49	1865.41
409.68	1856.04
409.87	1935.62
410.07	2012.86
410.26	2036.27
410.45	1921.58
410.64	1984.77
410.83	1959.03
411.02	1912.22
411.21	2083.08
411.40	2104.14
411.59	2165.00
411.78	2080.74
411.98	2099.46
412.17	2157.97
412.36	2167.34
412.55	2221.17
412.74	2120.53
412.93	2165.00
413.12	2165.00
413.31	2347.56
413.50	2275.00
413.69	2293.72
413.88	2319.47
414.07	2373.30
414.26	2452.88
414.45	2492.67
414.64	2260.96
414.83	2429.48
415.02	2431.82
415.22	2441.18
415.41	2455.22
415.60	2459.90
415.79	2661.19
415.98	2567.57
416.17	2633.10
416.36	2630.76
416.55	2626.08
416.74	2773.53
416.93	2574.59
417.12	2605.02
417.31	2785.24
417.50	2778.22
417.69	2771.19
417.88	2782.90
418.07	2846.09
418.26	2768.85
418.45	2848.43
418.64	2860.13
418.83	2923.33
419.02	2867.16
419.21	3049.72
419.39	2857.79
419.58	2885.88
419.77	2785.24
419.96	3002.91
420.15	3009.93
420.34	3000.57
420.53	2986.52
420.72	3150.36
420.91	3089.51
421.10	3136.32
421.29	3110.57
421.48	3028.65
421.67	3148.02
421.86	3145.68
422.05	3021.63
422.24	3112.91
422.43	3260.37
422.61	3157.38
422.80	3201.85
422.99	3138.66
423.18	3255.69
423.37	3234.62
423.56	3335.26
423.75	3342.28
423.94	3197.17
424.13	3038.02
424.32	3040.36
424.50	3361.01
424.69	3337.60
424.88	3213.56
425.07	3267.39
425.26	3283.77
425.45	3220.58
425.64	3304.84
425.83	3089.51
426.01	3398.46
426.20	3281.43
426.39	3332.92
426.58	3236.96
426.77	3227.60
426.96	3213.56
427.15	3255.69
427.33	3386.76
427.52	3400.80
427.71	3454.63
427.90	3449.95
428.09	3489.74
428.28	3473.36
428.46	3487.40
428.65	3602.08
428.84	3665.28
429.03	3665.28
429.22	3576.34
429.40	3534.21
429.59	3576.34
429.78	3534.21
429.97	3618.47
430.16	3515.48
430.34	3801.03
430.53	3667.62
430.72	3597.40
430.91	3691.02
431.10	3599.74
431.28	3822.09
431.47	3784.65
431.66	3765.92
431.85	3829.12
432.03	3840.82
432.22	3925.08
432.41	3882.95
432.60	3815.07
432.79	3819.75
432.97	3911.04
433.16	3838.48
433.35	3918.06
433.54	3852.52
433.72	3974.23
433.91	4095.94
434.10	4039.76
434.28	4117.00
434.47	3999.98
434.66	4060.83
434.85	4142.75
435.03	4044.45
435.22	4105.30
435.41	4184.88
435.59	4095.94
435.78	4093.60
435.97	4283.18
436.16	4170.83
436.34	4201.26
436.53	4196.58
436.72	4423.61
436.90	4051.47
437.09	4203.60
437.28	4306.59
437.46	4205.94
437.65	4262.12
437.84	4381.48
438.02	4416.59
438.21	4404.89
438.40	4332.33
438.58	4479.79
438.77	4540.64
438.96	4432.97
439.14	4503.19
439.33	4545.32
439.52	4461.06
439.70	4531.28
439.89	4606.17
440.08	4704.48
440.26	4758.31
440.45	4664.69
440.63	4870.65
440.82	4908.10
441.01	4856.61
441.19	4816.82
441.38	4957.25
441.57	4938.53
441.75	5032.15
441.94	5034.49
442.12	5132.79
442.31	5210.03
442.50	5055.56
442.68	4997.04
442.87	5245.14
443.05	5078.96
443.24	5163.22
443.43	5167.90
443.61	5317.70
443.80	5399.62
443.98	5289.61
444.17	5004.07
444.35	5153.86
444.54	5327.06
444.73	5277.91
444.91	5357.49
445.10	5357.49
445.28	5282.59
445.47	5298.97
445.65	5282.59
445.84	5434.72
446.02	5362.17
446.21	5408.98
446.39	5474.51
446.58	5392.59
446.77	5434.72
446.95	5266.21
447.14	5291.95
447.32	5483.88
447.51	5441.75
447.69	5418.34
447.88	5558.77
448.06	5518.98
448.25	5320.04
448.43	5479.19
448.62	5476.85
448.80	5502.60
448.99	5547.07
449.17	5582.18
449.36	5479.19
449.54	5694.52
449.73	5865.38
449.91	5682.82
450.10	5568.13
450.28	5837.30
450.46	5729.63
450.65	5636.01
450.83	5729.63
451.02	5788.14
451.20	5823.25
451.39	5856.02
451.57	5811.55
451.76	5778.78
451.94	5921.56
452.13	5823.25
452.31	5884.11
452.49	5977.73
452.68	5977.73
452.86	5870.06
453.05	6129.86
453.23	6010.50
453.42	6071.35
453.60	5956.66
453.78	6001.13
453.97	6001.13
454.15	5963.68
454.34	6066.67
454.52	6239.87
454.70	5980.07
454.89	6204.76
455.07	6396.68
455.26	6335.83
455.44	6232.85
455.62	6195.40
455.81	6321.79
455.99	6277.32
456.17	6356.90
456.36	6317.11
456.54	6551.16
456.73	6506.69
456.91	6509.03
457.09	6384.98
457.28	6616.69
457.46	6548.82
457.64	6803.94
457.83	6583.93
458.01	6511.37
458.19	6612.01
458.38	6827.34
458.56	6911.60
458.74	6740.74
458.93	6853.09
459.11	6670.53
459.29	6820.32
459.48	6780.53
459.66	6766.49
459.84	6881.18
460.03	6991.18
460.21	6970.12
460.39	6970.12
460.57	7059.06
460.76	7082.46
460.94	6949.05
461.12	7115.23
461.31	7082.46
461.49	6951.39
461.67	6972.46
461.85	7386.73
462.04	7225.23
462.22	7243.96
462.40	7438.22
462.59	7178.42
462.77	7459.29
462.95	7279.07
463.13	7243.96
463.32	7232.26
463.50	7199.49
463.68	7470.99
463.86	7478.01
464.05	7410.14
464.23	7557.59
464.41	7456.95
464.59	7527.16
464.78	7566.95
464.96	7559.93
465.14	7421.84
465.32	7426.52
465.50	7590.36
465.69	7550.57
465.87	7620.78
466.05	7459.29
466.23	7775.26
466.41	7765.90
466.60	7927.39
466.78	7693.34
466.96	7812.71
467.14	7808.03
467.32	7833.77
467.51	7946.12
467.69	7620.78
467.87	7817.39
468.05	7957.82
468.23	7875.90
468.41	7810.37
468.60	7798.66
468.78	7997.61
468.96	7971.86
469.14	8091.23
469.32	8098.25
469.50	7801.01
469.69	8065.49
469.87	8133.36
470.05	8315.92
470.23	8355.71
470.41	8353.37
470.59	8435.29
470.77	8257.41
470.95	8465.72
471.14	8472.74
471.32	8063.15
471.50	8564.02
471.68	8393.16
471.86	8519.55
472.04	8573.38
472.22	8594.45
472.40	8468.06
472.58	8580.40
472.77	8667.00
472.95	8877.65
473.13	9125.75
473.31	8629.56
473.49	8821.48
473.67	8917.44
473.85	8842.54
474.03	9205.33
474.21	9069.58
474.39	9200.65
474.57	9291.93
474.75	9212.35
474.93	9434.70
475.12	9191.28
475.30	9401.93
475.48	9577.47
475.66	9406.61
475.84	9437.04
476.02	9460.45
476.20	9792.80
476.38	9694.50
476.56	9863.02
476.74	9853.66
476.92	9881.74
477.10	9863.02
477.28	10076.01
477.46	10167.29
477.64	10174.31
477.82	10218.78
478.00	10721.99
478.18	10464.54
478.36	10436.45
478.54	10733.70
478.72	10714.97
478.90	10787.53
479.08	10946.69
479.26	10822.64
479.44	11206.48
479.62	10911.58
479.80	11152.65
479.98	11112.86
480.16	11272.02
480.34	11477.99
480.52	11508.41
480.70	11571.61
480.88	11279.04
481.06	11763.53
481.24	11770.55
481.41	11705.02
481.59	11859.49
481.77	12222.28
481.95	12226.96
482.13	12341.64
482.31	12276.11
482.49	12456.33
482.67	12664.64
482.85	12636.55
483.03	12671.66
483.21	13057.85
483.39	12917.42
483.57	12978.27
483.74	13128.06
483.92	12959.55
484.10	13062.53
484.28	13486.17
484.46	13673.41
484.64	13860.65
484.82	13486.17
485.00	13968.32
485.18	13916.83
485.35	14207.05
485.53	13802.14
485.71	14183.65
485.89	14490.26
486.07	14574.52
486.25	14757.08
486.43	14340.46
486.61	14700.90
486.78	14644.73
486.96	15023.90
487.14	15229.87
487.32	15082.41
487.50	15543.50
487.68	15178.37
487.85	15564.56
488.03	15646.48
488.21	16168.42
488.39	15819.68
488.57	16135.65
488.75	16198.85
488.92	16446.94
489.10	16587.38
489.28	16659.93
489.46	16697.38
489.64	16713.77
489.81	16802.71
489.99	16805.05
490.17	16875.26
490.35	17298.90
490.53	17390.18
490.70	17350.39
490.88	17661.68
491.06	17921.48
491.24	17717.86
491.41	17642.96
491.59	17881.69
491.77	18050.21
491.95	18312.35
492.13	18228.09
492.30	18675.13
492.48	18377.89
492.66	18429.38
492.84	18553.43
493.01	18906.85
493.19	18960.68
493.37	19049.62
493.54	19066.00
493.72	19138.56
493.90	19094.09
494.08	19587.94
494.25	19681.56
494.43	19435.81
494.61	19723.69
494.79	20053.71
494.96	19960.09
495.14	20173.08
495.32	20311.17
495.49	20388.41
495.67	20367.34
495.85	20739.49
496.02	20503.09
496.20	20940.77
496.38	20975.88
496.55	21170.15
496.73	21809.11
496.91	21088.23
497.09	21043.76
497.26	21514.20
497.44	21490.80
497.62	21680.38
497.79	21848.90
497.97	21755.28
498.14	22263.18
498.32	22120.40
498.50	22244.45
498.67	22445.74
498.85	22015.08
499.03	22211.68
499.20	22799.16
499.38	22803.84
499.56	22970.02
499.73	22703.20
499.91	22925.55
500.08	23482.59
500.26	22995.76
500.44	23058.96
500.61	23136.20
500.79	23094.07
500.97	23393.65
501.14	23995.17
501.32	23580.90
501.49	23655.79
501.67	23747.08
501.84	24013.90
502.02	24065.39
502.20	24215.18
502.37	24252.63
502.55	24072.41
502.72	24236.25
502.90	24116.88
503.07	24339.23
503.25	24196.46
503.43	24254.97
503.60	24453.92
503.78	24655.20
503.95	24795.64
504.13	25006.28
504.30	25088.20
504.48	24629.46
504.65	25252.04
504.83	25324.60
505.01	25144.38
505.18	25221.61
505.36	25867.60
505.53	25652.27
505.71	25919.09
505.88	25724.83
506.06	25727.17
506.23	26143.78
506.41	25687.38
506.58	26099.31
506.76	26022.08
506.93	26171.87
507.11	26024.42
507.28	26333.37
507.46	26019.74
507.63	26298.26
507.81	26639.98
507.98	26316.98
508.16	26731.26
508.33	27058.93
508.50	26920.84
508.68	27030.85
508.85	27065.96
509.03	26801.47
509.20	27398.31
509.38	27473.21
509.55	27400.65
509.73	27487.25
509.90	27728.33
510.08	27515.34
510.25	27761.09
510.42	27529.38
510.60	28027.92
510.77	28191.75
510.95	28182.39
511.12	28350.91
511.30	28037.28
511.47	28388.36
511.64	28505.38
511.82	28449.21
511.99	28301.76
512.17	28451.55
512.34	28699.65
512.51	28907.96
512.69	29106.90
512.86	29043.71
513.04	29163.08
513.21	29064.77
513.38	28943.06
513.56	29259.04
513.73	29071.79
513.90	29181.80
514.08	29535.22
514.25	29703.74
514.43	29427.56
514.60	29912.05
514.77	29670.97
514.95	29624.16
515.12	29848.85
515.29	29802.04
515.47	29839.49
515.64	29858.21
515.81	29860.55
515.99	30490.16
516.16	30560.37
516.33	30316.96
516.51	30375.47
516.68	30260.79
516.85	30569.74
517.03	30663.36
517.20	31072.95
517.37	30672.72
517.54	30920.82
517.72	30932.52
517.89	30670.38
518.06	31154.87
518.24	31058.91
518.41	30923.16
518.58	31042.53
518.75	31250.83
518.93	31536.38
519.10	31131.47
519.27	31353.82
519.45	31321.05
519.62	31613.62
519.79	31723.62
519.96	31428.71
520.14	32011.51
520.31	31653.40
520.48	31964.70
520.65	32318.12
520.83	32173.00
521.00	31969.38
521.17	32552.17
521.34	32055.98
521.52	32421.10
521.69	32243.22
521.86	32870.48
522.03	32566.21
522.20	32746.44
522.38	32762.82
522.55	32587.28
522.72	32713.67
522.89	32802.61
523.07	33490.73
523.24	32989.85
523.41	33167.73
523.58	32851.76
523.75	33254.33
523.92	33413.49
524.10	33212.20
524.27	33270.72
524.44	33783.29
524.61	33521.15
524.78	33537.54
524.96	33642.86
525.13	33900.32
525.30	34099.26
525.47	33879.25
525.64	33624.14
525.81	34071.18
525.98	34188.21
526.16	34078.20
526.33	33949.47
526.50	34220.97
526.67	34225.65
526.84	34073.52
527.01	34398.85
527.18	34380.13
527.36	34628.23
527.53	34604.82
527.70	34857.60
527.87	35051.86
528.04	34649.29
528.21	34930.16
528.38	34916.11
528.55	34766.32
528.72	34682.06
528.89	34930.16
529.07	35093.99
529.24	34305.23
529.41	35330.39
529.58	35452.09
529.75	34885.68
529.92	35409.96
530.09	35178.25
530.26	35138.46
530.43	35496.56
530.60	35236.77
530.77	35108.04
530.94	35782.11
531.11	35550.40
531.28	35711.89
531.46	35833.60
531.63	35587.85
531.80	35585.50
531.97	36425.76
532.14	35775.09
532.31	35840.62
532.48	36098.08
532.65	36266.60
532.82	36184.68
532.99	36430.44
533.16	35967.01
533.33	36456.18
533.50	36411.71
533.67	36355.54
533.84	36086.38
534.01	36191.70
534.18	36371.92
534.35	37046.00
534.52	37069.40
534.69	36657.47
534.86	36940.68
535.03	36898.55
535.20	37036.64
535.37	36989.83
535.54	37106.85
535.71	36643.43
535.88	37177.07
536.05	36844.71
536.22	37294.10
536.38	37270.69
536.55	37345.59
536.72	37277.71
536.89	37177.07
537.06	37457.93
537.23	37614.75
537.40	37406.44
537.57	37148.98
537.74	37188.77
537.91	37457.93
538.08	37900.29
538.25	37556.24
538.42	37677.94
538.59	37752.84
538.75	37610.07
538.92	37872.21
539.09	38174.14
539.26	38043.07
539.43	37916.68
539.60	38080.52
539.77	38078.18
539.94	38574.37
540.11	38302.87
540.28	37661.56
540.44	38249.03
540.61	38115.62
540.78	38426.92
540.95	38263.08
541.12	38366.06
541.29	37844.12
541.46	38548.62
541.62	38281.80
541.79	38974.60
541.96	38274.78
542.13	38483.09
542.30	38494.79
542.47	39180.57
542.63	38932.47
542.80	39442.71
542.97	39400.58
543.14	39180.57
543.31	39161.84
543.48	38967.58
543.64	39356.11
543.81	39337.38
543.98	39440.37
544.15	39290.57
544.32	39548.03
544.48	39852.30
544.65	39847.62
544.82	39777.40
544.99	39576.12
545.16	39489.52
545.32	39777.40
545.49	39959.97
545.66	40259.55
545.83	40229.13
546.00	40074.65
546.16	39854.64
546.33	40041.88
546.50	39847.62
546.67	40245.51
546.83	39651.02
547.00	40582.55
547.17	40418.71
547.34	40203.38
547.50	40385.94
547.67	40940.65
547.84	40437.44
548.00	40802.56
548.17	40725.32
548.34	40992.14
548.51	40662.13
548.67	40687.87
548.84	40486.59
549.01	40039.54
549.18	40641.06
549.34	40601.27
549.51	40594.25
549.68	40814.26
549.84	40685.53
550.01	40891.50
550.18	41045.97
550.34	40718.30
550.51	41024.91
550.68	41244.92
550.84	40748.73
551.01	41036.61
551.18	41060.02
551.34	41371.31
551.51	41296.41
551.68	41593.66
551.84	41216.83
552.01	40629.36
552.18	41141.94
552.34	40816.60
552.51	41476.63
552.68	41106.83
552.84	41420.46
553.01	41301.09
553.18	41251.94
553.34	41841.76
553.51	41429.82
553.67	41886.23
553.84	41825.37
554.01	41764.52
554.17	41832.39
554.34	41605.36
554.51	41691.96
554.67	41759.84
554.84	41727.07
555.00	41230.88
555.17	41993.89
555.33	42040.70
555.50	41691.96
555.67	42150.71
555.83	42103.90
556.00	42007.94
556.16	42747.54
556.33	42382.42
556.50	42316.89
556.66	42171.77
556.83	41921.34
556.99	42361.36
557.16	42761.59
557.32	42328.59
557.49	42515.83
557.65	42085.17
557.82	42113.26
557.98	42674.99
558.15	42227.95
558.32	42440.93
558.48	42536.90
558.65	42361.36
558.81	42155.39
558.98	42768.61
559.14	42312.20
559.31	42611.79
559.47	42607.11
559.64	42974.58
559.80	42747.54
559.97	42632.86
560.13	42270.08
560.30	42651.58
560.46	43330.34
560.63	42944.15
560.79	43044.79
560.96	43203.95
561.12	43262.46
561.29	43040.11
561.45	42960.53
561.61	43012.02
561.78	42962.87
561.94	42995.64
562.11	43278.85
562.27	43278.85
562.44	42761.59
562.60	42873.93
562.77	43019.05
562.93	42859.89
563.10	43601.84
563.26	42813.08
563.42	43274.16
563.59	43243.74
563.75	43494.18
563.92	43154.80
564.08	43126.71
564.24	43398.21
564.41	43590.14
564.57	43178.20
564.74	43470.77
564.90	43243.74
565.07	43470.77
565.23	43634.61
565.39	43377.15
565.56	43337.36
565.72	43058.84
565.88	43597.16
566.05	43515.24
566.21	43180.54
566.38	43751.63
566.54	43615.88
566.70	43784.40
566.87	43480.13
567.03	43442.68
567.19	44058.24
567.36	43840.57
567.52	43681.42
567.68	44044.20
567.85	43924.83
568.01	43725.89
568.17	43463.75
568.34	43681.42
568.50	43522.26
568.66	43290.55
568.83	43709.50
568.99	43906.11
569.15	43945.90
569.32	43800.79
569.48	43239.06
569.64	44034.84
569.81	44189.31
569.97	44215.06
570.13	43901.43
570.30	43976.33
570.46	43742.27
570.62	44013.77
570.78	43924.83
570.95	44154.21
571.11	44292.30
571.27	44027.82
571.43	43564.39
571.60	44308.68
571.76	43807.81
571.92	43878.02
572.09	43999.73
572.25	44018.46
572.41	43679.08
572.57	44161.23
572.74	44278.25
572.90	44149.53
573.06	44261.87
573.22	44219.74
573.38	44481.88
573.55	44409.32
573.71	44495.92
573.87	44095.69
574.03	44002.07
574.20	44383.58
574.36	44287.62
574.52	43693.12
574.68	44411.67
574.84	44018.46
575.01	44601.25
575.17	44299.32
575.33	44119.10
575.49	43847.60
575.65	44296.98
575.82	44514.65
575.98	44093.35
576.14	44711.25
576.30	44729.98
576.46	44418.69
576.62	44165.91
576.79	44720.62
576.95	43852.28
577.11	43871.00
577.27	44392.94
577.43	44575.50
577.59	44460.82
577.75	44184.63
577.92	43650.99
578.08	44060.58
578.24	44392.94
578.40	44748.70
578.56	44648.06
578.72	44458.48
578.88	44524.01
579.04	44191.65
579.21	44250.17
579.37	44287.62
579.53	44561.46
579.69	44498.26
579.85	44224.42
580.01	44446.77
580.17	44343.79
580.33	44362.51
580.49	44205.70
580.65	44498.26
580.82	44744.02
580.98	44383.58
581.14	44128.46
581.30	44694.87
581.46	44404.64
581.62	44460.82
581.78	44296.98
581.94	44348.47
582.10	44233.78
582.26	44397.62
582.42	44629.34
582.58	44664.44
582.74	44603.59
582.90	44573.16
583.06	44418.69
583.22	44186.97
583.38	44865.73
583.54	44313.36
583.70	44444.43
583.86	44666.78
584.02	44418.69
584.18	45361.92
584.34	44296.98
584.50	44790.83
584.66	45109.14
584.82	44676.15
584.98	45240.21
585.14	44704.23
585.30	44575.50
585.46	44917.22
585.62	44552.10
585.78	44830.62
585.94	44362.51
586.10	44737.00
586.26	44437.41
586.42	44521.67
586.58	44907.86
586.74	44912.54
586.90	44589.55
587.06	44732.32
587.22	44793.17
587.38	44708.91
587.54	45092.76
587.70	44821.26
587.86	44949.99
588.02	44268.89
588.18	44746.36
588.34	45078.72
588.49	44685.51
588.65	44591.89
588.81	44882.11
588.97	44781.47
589.13	44531.03
589.29	45165.32
589.45	45357.24
589.61	45081.06
589.77	45048.29
589.93	44837.64
590.08	44692.53
590.24	45682.58
