SpectraSuite Data File
++++++++++++++++++++++++++++++++++++
Date: Fri Oct 25 11:26:16 EDT 2013
User: price-jones
Dark Spectrum Present: No
Reference Spectrum Present: No
Number of Sampled Component Spectra: 1
Spectrometers: USB2+H05261
Integration Time (usec): 100000 (USB2+H05261)
Spectra Averaged: 1 (USB2+H05261)
Boxcar Smoothing: 0 (USB2+H05261)
Correct for Electrical Dark: No (USB2+H05261)
Strobe/Lamp Enabled: No (USB2+H05261)
Correct for Detector Non-linearity: No (USB2+H05261)
Correct for Stray Light: No (USB2+H05261)
Number of Pixels in Processed Spectrum: 2048
>>>>>Begin Processed Spectral Data<<<<<
365.73	245.76
365.92	245.76
366.12	245.76
366.32	191.92
366.52	126.39
366.72	180.22
366.91	107.66
367.11	121.71
367.31	154.48
367.51	142.77
367.70	163.84
367.90	191.92
368.10	175.54
368.30	117.03
368.49	145.11
368.69	189.58
368.89	42.13
369.09	142.77
369.28	241.08
369.48	217.67
369.68	175.54
369.87	243.42
370.07	177.88
370.27	222.35
370.47	332.36
370.66	615.56
370.86	585.13
371.06	634.29
371.25	655.35
371.45	709.18
371.65	772.38
371.84	760.67
372.04	662.37
372.24	671.73
372.44	709.18
372.63	777.06
372.83	774.72
373.03	763.01
373.22	755.99
373.42	734.93
373.62	751.31
373.81	812.17
374.01	830.89
374.21	882.38
374.40	821.53
374.60	798.12
374.79	774.72
374.99	957.28
375.19	868.34
375.38	844.93
375.58	809.83
375.78	870.68
375.97	791.10
376.17	880.04
376.37	802.80
376.56	889.40
376.76	849.61
376.95	847.27
377.15	880.04
377.35	952.60
377.54	826.21
377.74	826.21
377.93	870.68
378.13	971.32
378.33	901.11
378.52	849.61
378.72	980.68
378.91	866.00
379.11	957.28
379.31	943.24
379.50	926.85
379.70	945.58
379.89	1001.75
380.09	983.02
380.28	894.08
380.48	985.37
380.68	924.51
380.87	922.17
381.07	978.34
381.26	992.39
381.46	971.32
381.65	990.05
381.85	1043.88
382.04	1062.60
382.24	1074.31
382.43	1062.60
382.63	997.07
382.83	1008.77
383.02	1095.37
383.22	1071.97
383.41	1142.18
383.61	1116.44
383.80	1118.78
384.00	1179.63
384.19	1172.61
384.39	1104.73
384.58	1142.18
384.78	1088.35
384.97	1146.86
385.17	1142.18
385.36	1060.26
385.56	1165.59
385.75	1121.12
385.95	1158.57
386.14	1163.25
386.34	1200.69
386.53	1181.97
386.72	1146.86
386.92	1224.10
387.11	1266.23
387.31	1172.61
387.50	1228.78
387.70	1224.10
387.89	1275.59
388.09	1294.32
388.28	1313.04
388.48	1219.42
388.67	1231.12
388.86	1310.70
389.06	1334.11
389.25	1294.32
389.45	1357.51
389.64	1376.24
389.84	1397.30
390.03	1409.00
390.22	1387.94
390.42	1294.32
390.61	1308.36
390.81	1366.87
391.00	1439.43
391.19	1444.11
391.39	1416.02
391.58	1521.35
391.78	1423.05
391.97	1451.13
392.16	1472.20
392.36	1563.48
392.55	1540.07
392.75	1561.14
392.94	1577.52
393.13	1514.33
393.33	1490.92
393.52	1533.05
393.71	1504.96
393.91	1582.20
394.10	1462.83
394.29	1640.72
394.49	1612.63
394.68	1696.89
394.88	1570.50
395.07	1673.48
395.26	1713.27
395.46	1577.52
395.65	1748.38
395.84	1776.47
396.04	1769.44
396.23	1753.06
396.42	1600.93
396.62	1809.23
396.81	1750.72
397.00	1781.15
397.19	1769.44
397.39	1753.06
397.58	1893.49
397.77	1778.81
397.97	1736.68
398.16	1813.92
398.35	1905.20
398.55	1837.32
398.74	1994.14
398.93	1839.66
399.12	1863.07
399.32	1825.62
399.51	1891.15
399.70	1994.14
399.90	1975.41
400.09	1963.71
400.28	2047.97
400.47	2045.63
400.67	2139.25
400.86	2169.68
401.05	2010.52
401.24	2083.08
401.44	2176.70
401.63	2132.23
401.82	2165.00
402.01	2143.93
402.21	2127.55
402.40	2015.20
402.59	2136.91
402.78	2225.85
402.97	2108.82
403.17	2129.89
403.36	2314.79
403.55	2237.55
403.74	2331.17
403.93	2342.88
404.13	2333.51
404.32	2368.62
404.51	2293.72
404.70	2347.56
404.89	2408.41
405.09	2441.18
405.28	2553.52
405.47	2492.67
405.66	2518.42
405.85	2548.84
406.05	2499.69
406.24	2518.42
406.43	2588.63
406.62	2628.42
406.81	2761.83
407.00	2576.93
407.20	2516.08
407.39	2623.74
407.58	2782.90
407.77	2675.23
407.96	2670.55
408.15	2677.57
408.34	2712.68
408.54	2874.18
408.73	2792.26
408.92	2850.77
409.11	2825.03
409.30	2942.05
409.49	3019.29
409.68	2944.39
409.87	2841.41
410.07	2963.12
410.26	3023.97
410.45	2951.42
410.64	3089.51
410.83	3033.33
411.02	3070.78
411.21	3164.40
411.40	3197.17
411.59	3199.51
411.78	3094.19
411.98	3215.90
412.17	3199.51
412.36	3353.99
412.55	3400.80
412.74	3311.86
412.93	3342.28
413.12	3400.80
413.31	3613.79
413.50	3480.38
413.69	3524.85
413.88	3721.45
414.07	3613.79
414.26	3627.83
414.45	3590.38
414.64	3620.81
414.83	3578.68
415.02	3758.90
415.22	3681.66
415.41	3918.06
415.60	3838.48
415.79	3908.69
415.98	4039.76
416.17	4004.66
416.36	3906.35
416.55	3983.59
416.74	3985.93
416.93	4194.24
417.12	4117.00
417.31	4093.60
417.50	4217.65
417.69	4353.40
417.88	4163.81
418.07	4224.67
418.26	4222.33
418.45	4315.95
418.64	4456.38
418.83	4325.31
419.02	4311.27
419.21	4456.38
419.39	4493.83
419.58	4461.06
419.77	4418.93
419.96	4535.96
420.15	4521.92
420.34	4482.13
420.53	4559.36
420.72	4746.61
420.91	4821.50
421.10	4774.69
421.29	4779.37
421.48	4669.37
421.67	4748.95
421.86	4657.67
422.05	4781.71
422.24	4669.37
422.43	4870.65
422.61	4968.96
422.80	4954.91
422.99	4863.63
423.18	4917.47
423.37	4936.19
423.56	5163.22
423.75	4905.76
423.94	4947.89
424.13	4456.38
424.32	4681.07
424.50	5071.94
424.69	5001.72
424.88	5046.20
425.07	4952.57
425.26	4945.55
425.45	4959.60
425.64	5036.83
425.83	4983.00
426.01	5109.39
426.20	4997.04
426.39	4961.94
426.58	4968.96
426.77	4889.38
426.96	5203.01
427.15	4887.04
427.33	5224.08
427.52	5095.35
427.71	5327.06
427.90	5313.02
428.09	5270.89
428.28	5343.44
428.46	5256.84
428.65	5394.93
428.84	5411.32
429.03	5579.84
429.22	5446.43
429.40	5476.85
429.59	5593.88
429.78	5362.17
429.97	5334.08
430.16	5324.72
430.34	5542.39
430.53	5474.51
430.72	5636.01
430.91	5570.48
431.10	5607.92
431.28	5767.08
431.47	5804.53
431.66	5818.57
431.85	5750.70
432.03	5968.37
432.22	5973.05
432.41	5949.64
432.60	5891.13
432.79	5947.30
432.97	6052.63
433.16	6003.47
433.35	5823.25
433.54	6141.57
433.72	6125.18
433.91	6132.20
434.10	6120.50
434.28	6171.99
434.47	6031.56
434.66	6193.06
434.85	6307.74
435.03	6349.87
435.22	6127.52
435.41	6609.67
435.59	6363.92
435.78	6427.11
435.97	6581.59
436.16	6326.47
436.34	6443.49
436.53	6436.47
436.72	6740.74
436.90	6609.67
437.09	6588.61
437.28	6754.79
437.46	6600.31
437.65	6731.38
437.84	6736.06
438.02	6696.27
438.21	6806.28
438.40	6670.53
438.58	6829.68
438.77	6958.41
438.96	6792.23
439.14	7246.30
439.33	7152.68
439.52	7033.31
439.70	7164.38
439.89	7466.31
440.08	7424.18
440.26	7456.95
440.45	7239.28
440.63	7578.65
440.82	7562.27
441.01	7379.71
441.19	7536.52
441.38	7639.51
441.57	7751.85
441.75	7761.22
441.94	7742.49
442.12	8056.12
442.31	8145.06
442.50	7955.48
442.68	7772.92
442.87	7950.80
443.05	8201.24
443.24	8250.39
443.43	7964.84
443.61	8189.53
443.80	8442.31
443.98	8114.64
444.17	7948.46
444.35	8365.07
444.54	8257.41
444.73	8355.71
444.91	8294.86
445.10	8205.92
445.28	8280.82
445.47	8475.08
445.65	8182.51
445.84	8255.07
446.02	8411.89
446.21	8336.99
446.39	8264.43
446.58	8514.87
446.77	8442.31
446.95	8224.64
447.14	8205.92
447.32	8571.04
447.51	8402.52
447.69	8336.99
447.88	8531.25
448.06	8664.66
448.25	8456.36
448.43	8477.42
448.62	8643.60
448.80	8318.26
448.99	8430.61
449.17	8571.04
449.36	8521.89
449.54	8954.89
449.73	8973.61
449.91	9034.47
450.10	8982.98
450.28	9085.96
450.46	9069.58
450.65	8945.53
450.83	9104.68
451.02	8800.41
451.20	8975.95
451.39	9202.99
451.57	9078.94
451.76	8898.72
451.94	9179.58
452.13	9167.88
452.31	9198.31
452.49	9027.45
452.68	9226.39
452.86	9240.44
453.05	9511.94
453.23	9387.89
453.42	9312.99
453.60	9334.06
453.78	9488.53
453.97	9509.60
454.15	9404.27
454.34	9467.47
454.52	9631.30
454.70	9607.90
454.89	9509.60
455.07	9764.72
455.26	9619.60
455.44	9935.57
455.62	9877.06
455.81	9872.38
455.99	9989.41
456.17	10092.39
456.36	10066.64
456.54	10001.11
456.73	10073.67
456.91	10497.30
457.09	10317.08
457.28	10492.62
457.46	10153.24
457.64	10410.70
457.83	10609.65
458.01	10244.52
458.19	10637.73
458.38	10611.99
458.56	10565.18
458.74	10588.58
458.93	10675.18
459.11	10541.77
459.29	10459.85
459.48	10644.76
459.66	10567.52
459.84	10850.72
460.03	11063.71
460.21	10834.34
460.39	11002.86
460.57	10822.64
460.76	11119.89
460.94	11187.76
461.12	11143.29
461.31	11225.21
461.49	11199.46
461.67	10916.26
461.85	11405.43
462.04	11330.53
462.22	11653.53
462.40	11543.52
462.59	11286.06
462.77	11365.64
462.95	11667.57
463.13	11300.11
463.32	11747.15
463.50	12084.19
463.68	11679.27
463.86	11660.55
464.05	11662.89
464.23	11627.78
464.41	11878.22
464.59	11520.12
464.78	12016.31
464.96	11742.47
465.14	11730.76
465.32	11803.32
465.50	11950.78
465.69	12051.42
465.87	12074.82
466.05	12194.19
466.23	12060.78
466.41	12156.74
466.60	12559.31
466.78	12271.43
466.96	12231.64
467.14	12322.92
467.32	12458.67
467.51	12271.43
467.69	12100.57
467.87	12336.96
468.05	12432.93
468.23	12238.66
468.41	12229.30
468.60	12465.69
468.78	12821.45
468.96	12212.92
469.14	12734.85
469.32	12821.45
469.50	12676.34
469.69	12823.80
469.87	12926.78
470.05	12959.55
470.23	13149.13
470.41	12891.67
470.59	13240.41
470.77	13158.49
470.95	13123.38
471.14	13493.19
471.32	13121.04
471.50	13472.12
471.68	13598.51
471.86	13558.72
472.04	13614.90
472.22	13949.59
472.40	13713.20
472.58	13930.87
472.77	13867.67
472.95	14143.86
473.13	14504.30
473.31	14141.52
473.49	14050.24
473.67	13980.02
473.85	14277.27
474.03	14658.78
474.21	14281.95
474.39	14539.41
474.57	14565.15
474.75	14682.18
474.93	14878.79
475.12	14871.76
475.30	15059.01
475.48	15091.77
475.66	14904.53
475.84	15044.96
476.02	15269.66
476.20	15262.63
476.38	15342.21
476.56	15815.00
476.74	15866.49
476.92	15885.22
477.10	15803.30
477.28	15906.28
477.46	16067.78
477.64	16065.44
477.82	16463.33
478.00	16968.88
478.18	16697.38
478.36	16884.62
478.54	17123.36
478.72	17240.39
478.90	17282.52
479.08	17235.70
479.26	17397.20
479.44	17635.94
479.62	17619.55
479.80	18064.25
479.98	18094.68
480.16	18314.69
480.34	18132.13
480.52	18494.91
480.70	18459.81
480.88	18202.35
481.06	18478.53
481.24	18764.07
481.41	19264.95
481.59	19183.03
481.77	19070.68
481.95	19697.95
482.13	19379.64
482.31	19775.19
482.49	20006.90
482.67	19922.64
482.85	20407.13
483.03	20547.56
483.21	20690.34
483.39	21041.42
483.57	20699.70
483.74	21343.35
483.92	21345.69
484.10	21130.36
484.28	21675.70
484.46	21766.98
484.64	22174.24
484.82	22022.10
485.00	22129.77
485.18	22621.28
485.35	22869.37
485.53	22436.38
485.71	22845.97
485.89	23311.74
486.07	23307.05
486.25	23325.78
486.43	23803.25
486.61	23660.48
486.78	24020.92
486.96	24116.88
487.14	24510.09
487.32	24617.75
487.50	24713.72
487.68	24851.81
487.85	24847.13
488.03	25305.87
488.21	25813.77
488.39	25883.98
488.57	25898.03
488.75	26197.62
488.92	26113.36
489.10	26588.49
489.28	26632.96
489.46	27234.47
489.64	26803.82
489.81	27658.11
489.99	27260.22
490.17	27601.94
490.35	27929.61
490.53	28102.81
490.70	28472.62
490.88	28114.52
491.06	28582.62
491.24	28868.17
491.41	28816.68
491.59	29144.35
491.77	29294.14
491.95	29317.55
492.13	29759.91
492.30	29598.41
492.48	29755.23
492.66	30462.07
492.84	29832.47
493.01	30438.67
493.19	30492.50
493.37	31005.08
493.54	30991.03
493.72	31206.36
493.90	31372.54
494.08	31686.17
494.25	31498.93
494.43	31770.43
494.61	31983.42
494.79	32173.00
494.96	32479.61
495.14	32627.07
495.32	32940.70
495.49	32980.49
495.67	33474.34
495.85	33572.64
496.02	33263.69
496.20	33722.44
496.38	34071.18
496.55	34195.23
496.73	34583.76
496.91	34073.52
497.09	34682.06
497.26	34754.61
497.44	34766.32
497.62	34995.69
497.79	35637.00
497.97	35295.28
498.14	35861.69
498.32	35908.50
498.50	35906.16
498.67	36442.14
498.85	36002.12
499.03	36385.97
499.20	36224.47
499.38	36582.57
499.56	36631.72
499.73	36718.32
499.91	37361.97
500.08	37413.46
500.26	37258.99
500.44	37397.08
500.61	37804.33
500.79	37394.74
500.97	37626.45
501.14	38457.34
501.32	38419.89
501.49	38202.22
501.67	38553.30
501.84	38651.61
502.02	38405.85
502.20	38892.68
502.37	38972.26
502.55	39124.40
502.72	39349.09
502.90	39400.58
503.07	39550.37
503.25	39721.23
503.43	39061.20
503.60	39679.10
503.78	39871.03
503.95	39906.13
504.13	40650.42
504.30	40280.62
504.48	40254.87
504.65	40584.89
504.83	40608.29
505.01	40573.19
505.18	41291.73
505.36	41429.82
505.53	41308.11
505.71	41338.54
505.88	41865.16
506.06	41350.24
506.23	41717.71
506.41	41383.01
506.58	41832.39
506.76	42174.11
506.93	42052.41
507.11	41713.03
507.28	42464.34
507.46	42075.81
507.63	42590.73
507.81	43033.09
507.98	42934.79
508.16	42899.68
508.33	43161.82
508.50	43356.08
508.68	43674.40
508.85	43650.99
509.03	43793.76
509.20	44013.77
509.38	44397.62
509.55	44404.64
509.73	44399.96
509.90	44051.22
510.08	44535.71
510.25	44711.25
510.42	44554.44
510.60	44957.01
510.77	45013.18
510.95	45350.22
511.12	45074.04
511.30	44753.38
511.47	45209.79
511.64	45034.25
511.82	45518.74
511.99	45193.40
512.17	45879.18
512.34	45872.16
512.51	45900.25
512.69	46138.98
512.86	46300.48
513.04	46707.73
513.21	46433.89
513.38	46813.05
513.56	46445.59
513.73	46735.82
513.90	46759.22
514.08	47004.98
514.25	46845.82
514.43	46733.48
514.60	46586.02
514.77	47164.14
514.95	47470.75
515.12	47430.96
515.29	47281.16
515.47	47885.02
515.64	48168.22
515.81	47653.31
515.99	48184.61
516.16	48191.63
516.33	47980.98
516.51	48229.08
516.68	48505.26
516.85	48095.67
517.03	48783.79
517.20	48858.68
517.37	48554.41
517.54	48809.53
517.72	48821.23
517.89	48971.03
518.06	49153.59
518.24	49186.36
518.41	48982.73
518.58	49268.28
518.75	49041.24
518.93	49516.37
519.10	49188.70
519.27	49415.73
519.45	49518.71
519.62	49808.94
519.79	49743.41
519.96	50054.70
520.14	50113.21
520.31	50202.15
520.48	49991.50
520.65	49944.69
520.83	50403.44
521.00	50644.51
521.17	50394.07
521.34	50688.98
521.52	50703.03
521.69	50555.57
521.86	50876.22
522.03	51058.79
522.20	51100.92
522.38	50997.93
522.55	51180.49
522.72	51182.84
522.89	51051.76
523.07	51304.54
523.24	51241.35
523.41	51395.82
523.58	51147.73
523.75	51526.89
523.92	51681.37
524.10	51636.90
524.27	51742.22
524.44	51971.60
524.61	51941.17
524.78	52083.94
524.96	51973.94
525.13	52163.52
525.30	52147.14
525.47	52236.08
525.64	52179.90
525.81	52662.05
525.98	52776.74
526.16	52229.05
526.33	52545.03
526.50	52877.38
526.67	52601.20
526.84	52655.03
527.01	52708.86
527.18	52797.80
527.36	53155.91
527.53	52924.19
527.70	53153.57
527.87	53057.60
528.04	53003.77
528.21	52856.32
528.38	53523.37
528.55	53352.51
528.72	53399.32
528.89	53481.24
529.07	53284.64
529.24	53441.45
529.41	53408.68
529.58	53371.24
529.75	53448.47
529.92	53645.08
530.09	53736.36
530.26	53942.33
530.43	53844.02
530.60	53787.85
530.77	53872.11
530.94	54045.31
531.11	53841.68
531.28	54033.61
531.46	53991.48
531.63	54059.35
531.80	53989.14
531.97	54270.00
532.14	54525.12
532.31	54232.55
532.48	54447.88
532.65	54749.81
532.82	54387.03
532.99	54520.44
533.16	54162.34
533.33	54665.55
533.50	54726.41
533.67	54857.48
533.84	54581.29
534.01	54791.94
534.18	54712.36
534.35	55147.70
534.52	54506.40
534.69	55018.97
534.86	54986.21
535.03	54548.53
535.20	55121.96
535.37	55079.83
535.54	55075.15
535.71	55283.45
535.88	55192.17
536.05	55358.35
536.22	55250.69
536.38	55618.15
536.55	55468.36
536.72	55632.19
536.89	55346.65
537.06	55229.62
537.23	55669.64
537.40	55398.14
537.57	55533.89
537.74	55491.76
537.91	55781.99
538.08	55866.25
538.25	55693.05
538.42	55742.20
538.59	55987.95
538.75	55781.99
538.92	55877.95
539.09	56039.45
539.26	55910.72
539.43	56107.32
539.60	56048.81
539.77	56287.54
539.94	56390.53
540.11	56149.45
540.28	56275.84
540.44	56271.16
540.61	56268.82
540.78	56296.91
540.95	56332.01
541.12	56154.13
541.29	56287.54
541.46	56287.54
541.62	56519.26
541.79	56402.23
541.96	56151.79
542.13	56250.09
542.30	56545.00
542.47	56512.23
542.63	56720.54
542.80	56619.90
542.97	56910.13
543.14	56996.73
543.31	57045.88
543.48	57050.56
543.64	57364.19
543.81	57291.63
543.98	57153.54
544.15	57052.90
544.32	57284.61
544.48	57502.28
544.65	57265.89
544.82	57549.09
544.99	57055.24
545.16	57399.30
545.32	57375.89
545.49	57528.03
545.66	57588.88
545.83	57450.79
546.00	57708.25
546.16	57640.37
546.33	57298.65
546.50	57270.57
546.67	57703.57
546.83	57193.33
547.00	57652.08
547.17	57595.90
547.34	57698.89
547.50	57874.43
547.67	58010.18
547.84	57886.13
548.00	57776.12
548.17	58073.37
548.34	57909.53
548.51	58014.86
548.67	58122.52
548.84	57965.71
549.01	58096.78
549.18	57932.94
549.34	58239.55
549.51	58405.73
549.68	58089.76
549.84	58255.93
550.01	58272.32
550.18	58181.04
550.34	58412.75
550.51	58525.10
550.68	58178.70
550.84	58213.80
551.01	58417.43
551.18	58478.28
551.34	58277.00
551.51	58265.30
551.68	58344.87
551.84	58241.89
552.01	58464.24
552.18	58410.41
552.34	58298.06
552.51	58515.73
552.68	58412.75
552.84	58461.90
553.01	58768.51
553.18	58607.01
553.34	58817.66
553.51	58637.44
553.67	58611.70
553.84	58693.61
554.01	58651.48
554.17	58904.26
554.34	58766.17
554.51	58899.58
554.67	58752.13
554.84	58866.81
555.00	58805.96
555.17	58784.90
555.33	59007.25
555.50	58719.36
555.67	59079.80
555.83	58922.99
556.00	59093.85
556.16	59341.94
556.33	59051.72
556.50	59229.60
556.66	59241.30
556.83	58908.94
556.99	59171.08
557.16	59346.62
557.32	59334.92
557.49	59686.00
557.65	59430.88
557.82	59325.56
557.98	59281.09
558.15	59465.99
558.32	59391.09
558.48	59220.23
558.65	59297.47
558.81	59367.69
558.98	59402.80
559.14	59306.83
559.31	59456.63
559.47	59587.70
559.64	59594.72
559.80	59543.23
559.97	59592.38
560.13	59400.46
560.30	59674.30
560.46	59587.70
560.63	59620.47
560.79	59657.91
560.96	59746.86
561.12	59693.02
561.29	59920.05
561.45	59913.03
561.61	59758.56
561.78	59751.54
561.94	59629.83
562.11	59746.86
562.27	59821.75
562.44	59774.94
562.60	59950.48
562.77	59969.21
562.93	59770.26
563.10	59966.87
563.26	59859.20
563.42	60107.30
563.59	59840.48
563.75	59746.86
563.92	59784.30
564.08	60079.21
564.24	59934.10
564.41	60093.25
564.57	60116.66
564.74	59898.99
564.90	60030.06
565.07	59938.78
565.23	59873.24
565.39	59927.08
565.56	60018.36
565.72	60048.78
565.88	60088.57
566.05	59962.18
566.21	60060.49
566.38	60048.78
566.54	60233.69
566.70	60067.51
566.87	60261.77
567.03	60289.86
567.19	60320.29
567.36	60191.56
567.52	60137.72
567.68	60446.68
567.85	60458.38
568.01	60346.03
568.17	60076.87
568.34	60308.58
568.50	60271.14
568.66	60088.57
568.83	60399.86
568.99	60196.24
569.15	60259.43
569.32	60247.73
569.48	60182.19
569.64	60261.77
569.81	60315.61
569.97	60053.47
570.13	60294.54
570.30	60233.69
570.46	60238.37
570.62	60285.18
570.78	60350.71
570.95	60327.31
571.11	60568.38
571.27	60477.10
571.43	60470.08
571.60	60603.49
571.76	60547.32
571.92	60350.71
572.09	60425.61
572.25	60598.81
572.41	60420.93
572.57	60561.36
572.74	60610.51
572.90	60310.92
573.06	60650.30
573.22	60706.47
573.38	60519.23
573.55	60367.10
573.71	60619.88
573.87	60807.12
574.03	60589.45
574.20	60411.57
574.36	60530.93
574.52	60650.30
574.68	60610.51
574.84	60603.49
575.01	60507.53
575.17	60631.58
575.33	60287.52
575.49	60402.21
575.65	60640.94
575.82	60790.73
575.98	60851.59
576.14	60736.90
576.30	60650.30
576.46	60528.59
576.62	60388.16
576.79	60484.12
576.95	60224.32
577.11	60573.06
577.27	60694.77
577.43	60776.69
577.59	60610.51
577.75	60662.00
577.92	60505.19
578.08	60769.67
578.24	60830.52
578.40	60933.51
578.56	60830.52
578.72	60762.65
578.88	60736.90
579.04	60940.53
579.21	60706.47
579.37	60767.33
579.53	60942.87
579.69	60303.90
579.85	60690.09
580.01	60711.16
580.17	60666.69
580.33	60856.27
580.49	60795.42
580.65	60727.54
580.82	60809.46
580.98	60743.92
581.14	60692.43
581.30	60830.52
581.46	60788.39
581.62	60729.88
581.78	60650.30
581.94	60872.65
582.10	60825.84
582.26	60776.69
582.42	60708.82
582.58	60690.09
582.74	60741.58
582.90	60882.02
583.06	60900.74
583.22	60664.35
583.38	60825.84
583.54	60725.20
583.70	60931.17
583.86	60755.63
584.02	60743.92
584.18	60973.30
584.34	60732.22
584.50	60832.86
584.66	60617.53
584.82	60767.33
584.98	61031.81
585.14	60907.76
585.30	60694.77
585.46	60757.97
585.62	60851.59
585.78	61158.20
585.94	60811.80
586.10	60821.16
586.26	60949.89
586.42	60945.21
586.58	61071.60
586.74	60970.96
586.90	61083.30
587.06	60814.14
587.22	61006.06
587.38	60905.42
587.54	61043.51
587.70	61291.61
587.86	61137.13
588.02	60900.74
588.18	60940.53
588.34	60729.88
588.49	60842.23
