SpectraSuite Data File
++++++++++++++++++++++++++++++++++++
Date: Fri Oct 25 10:44:25 EDT 2013
User: price-jones
Dark Spectrum Present: No
Reference Spectrum Present: No
Number of Sampled Component Spectra: 1
Spectrometers: USB2+H05261
Integration Time (usec): 100000 (USB2+H05261)
Spectra Averaged: 1 (USB2+H05261)
Boxcar Smoothing: 0 (USB2+H05261)
Correct for Electrical Dark: No (USB2+H05261)
Strobe/Lamp Enabled: No (USB2+H05261)
Correct for Detector Non-linearity: No (USB2+H05261)
Correct for Stray Light: No (USB2+H05261)
Number of Pixels in Processed Spectrum: 2048
>>>>>Begin Processed Spectral Data<<<<<
365.73	98.30
365.92	98.30
366.12	98.30
366.32	37.45
366.52	21.06
366.72	35.11
366.91	49.15
367.11	58.51
367.31	0.00
367.51	11.70
367.70	0.00
367.90	0.00
368.10	44.47
368.30	28.09
368.49	0.00
368.69	86.60
368.89	0.00
369.09	11.70
369.28	102.98
369.48	0.00
369.68	14.04
369.87	60.85
370.07	105.32
370.27	117.03
370.47	180.22
370.66	400.23
370.86	400.23
371.06	416.62
371.25	526.62
371.45	397.89
371.65	470.45
371.84	447.04
372.04	379.17
372.24	435.34
372.44	423.64
372.63	528.96
372.83	543.00
373.03	468.11
373.22	496.19
373.42	578.11
373.62	564.07
373.81	517.26
374.01	564.07
374.21	547.69
374.40	641.31
374.60	592.16
374.79	653.01
374.99	533.64
375.19	617.90
375.38	578.11
375.58	699.82
375.78	571.09
375.97	657.69
376.17	624.92
376.37	613.22
376.56	653.01
376.76	608.54
376.95	622.58
377.15	685.78
377.35	608.54
377.54	676.41
377.74	660.03
377.93	734.93
378.13	671.73
378.33	718.54
378.52	664.71
378.72	648.33
378.91	711.52
379.11	695.14
379.31	650.67
379.50	655.35
379.70	755.99
379.89	650.67
380.09	744.29
380.28	681.10
380.48	702.16
380.68	748.97
380.87	685.78
381.07	662.37
381.26	748.97
381.46	725.57
381.65	662.37
381.85	716.20
382.04	653.01
382.24	798.12
382.43	720.88
382.63	685.78
382.83	711.52
383.02	730.25
383.22	737.27
383.41	763.01
383.61	741.95
383.80	784.08
384.00	758.33
384.19	809.83
384.39	858.98
384.58	788.76
384.78	882.38
384.97	873.02
385.17	779.40
385.36	858.98
385.56	793.44
385.75	791.10
385.95	816.85
386.14	976.00
386.34	837.91
386.53	851.96
386.72	847.27
386.92	861.32
387.11	901.11
387.31	983.02
387.50	851.96
387.70	877.70
387.89	868.34
388.09	908.13
388.28	842.59
388.48	866.00
388.67	926.85
388.86	952.60
389.06	947.92
389.25	1004.09
389.45	1062.60
389.64	997.07
389.84	1018.13
390.03	1074.31
390.22	1027.50
390.42	992.39
390.61	1020.47
390.81	1093.03
391.00	1086.01
391.19	1160.91
391.39	1104.73
391.58	1015.79
391.78	994.73
391.97	1111.75
392.16	1088.35
392.36	1067.28
392.55	1022.81
392.75	1074.31
392.94	1053.24
393.13	1004.09
393.33	1053.24
393.52	1114.10
393.71	1062.60
393.91	1111.75
394.10	1174.95
394.29	1186.65
394.49	1224.10
394.68	1308.36
394.88	1294.32
395.07	1221.76
395.26	1252.19
395.46	1291.98
395.65	1191.33
395.84	1261.55
396.04	1341.13
396.23	1188.99
396.42	1172.61
396.62	1118.78
396.81	1238.14
397.00	1196.01
397.19	1341.13
397.39	1341.13
397.58	1392.62
397.77	1373.89
397.97	1528.37
398.16	1516.67
398.35	1462.83
398.55	1474.54
398.74	1570.50
398.93	1554.12
399.12	1533.05
399.32	1521.35
399.51	1544.75
399.70	1614.97
399.90	1561.14
400.09	1612.63
400.28	1631.35
400.47	1666.46
400.67	1783.49
400.86	1636.03
401.05	1783.49
401.24	1734.34
401.44	1710.93
401.63	1834.98
401.82	1849.02
402.01	1820.94
402.21	1724.97
402.40	1823.28
402.59	1710.93
402.78	1834.98
402.97	1783.49
403.17	1881.79
403.36	1771.79
403.55	1898.17
403.74	1849.02
403.93	1996.48
404.13	1886.47
404.32	1977.75
404.51	1923.92
404.70	1998.82
404.89	1989.46
405.09	2080.74
405.28	1935.62
405.47	2017.54
405.66	2015.20
405.85	2148.61
406.05	2038.61
406.24	2052.65
406.43	2113.50
406.62	2211.81
406.81	2249.25
407.00	2111.16
407.20	2038.61
407.39	2148.61
407.58	2279.68
407.77	2272.66
407.96	2207.13
408.15	2289.04
408.34	2260.96
408.54	2375.64
408.73	2293.72
408.92	2324.15
409.11	2293.72
409.30	2387.35
409.49	2331.17
409.68	2385.01
409.87	2415.43
410.07	2417.77
410.26	2469.27
410.45	2546.50
410.64	2525.44
410.83	2675.23
411.02	2609.70
411.21	2588.63
411.40	2677.57
411.59	2682.25
411.78	2729.06
411.98	2740.77
412.17	2684.59
412.36	2738.43
412.55	2778.22
412.74	2768.85
412.93	2836.73
413.12	2792.26
413.31	2960.78
413.50	2935.03
413.69	2913.97
413.88	3028.65
414.07	2925.67
414.26	3087.17
414.45	3014.61
414.64	3066.10
414.83	3028.65
415.02	3150.36
415.22	3234.62
415.41	3211.22
415.60	3269.73
415.79	3197.17
415.98	3520.17
416.17	3379.73
416.36	3152.70
416.55	3323.56
416.74	3332.92
416.93	3384.41
417.12	3494.42
417.31	3492.08
417.50	3499.10
417.69	3648.90
417.88	3452.29
418.07	3623.15
418.26	3559.95
418.45	3625.49
418.64	3669.96
418.83	3754.22
419.02	3644.21
419.21	3779.97
419.39	3646.55
419.58	3693.37
419.77	3709.75
419.96	3716.77
420.15	3784.65
420.34	3857.20
420.53	3985.93
420.72	3922.74
420.91	3948.48
421.10	4037.42
421.29	4030.40
421.48	3981.25
421.67	4035.08
421.86	3962.53
422.05	3871.25
422.24	3756.56
422.43	3859.54
422.61	4105.30
422.80	4086.58
422.99	3967.21
423.18	4131.05
423.37	4135.73
423.56	4105.30
423.75	4149.77
423.94	4091.26
424.13	3721.45
424.32	3899.33
424.50	4088.92
424.69	4119.34
424.88	4119.34
425.07	4098.28
425.26	3948.48
425.45	4067.85
425.64	4079.55
425.83	4058.49
426.01	4067.85
426.20	4053.81
426.39	4067.85
426.58	4084.23
426.77	4058.49
426.96	4091.26
427.15	4154.45
427.33	4170.83
427.52	4177.86
427.71	4259.78
427.90	4203.60
428.09	4255.09
428.28	4259.78
428.46	4306.59
428.65	4152.11
428.84	4463.40
429.03	4432.97
429.22	4346.37
429.40	4203.60
429.59	4152.11
429.78	4147.43
429.97	3981.25
430.16	4191.90
430.34	4166.15
430.53	4297.22
430.72	4255.09
430.91	4365.10
431.10	4379.14
431.28	4650.64
431.47	4699.80
431.66	4807.46
431.85	4676.39
432.03	4767.67
432.22	4772.35
432.41	4730.22
432.60	4868.31
432.79	4861.29
432.97	4936.19
433.16	4833.21
433.35	4830.87
433.54	4870.65
433.72	4795.76
433.91	4755.97
434.10	4870.65
434.28	4858.95
434.47	4990.02
434.66	5123.43
434.85	5020.45
435.03	5039.17
435.22	5093.01
435.41	5282.59
435.59	5217.05
435.78	5137.48
435.97	5186.63
436.16	5341.10
436.34	5240.46
436.53	5289.61
436.72	5437.06
436.90	5268.55
437.09	5259.18
437.28	5371.53
437.46	5441.75
437.65	5493.24
437.84	5488.56
438.02	5387.91
438.21	5373.87
438.40	5313.02
438.58	5692.18
438.77	5509.62
438.96	5570.48
439.14	5755.38
439.33	5783.46
439.52	5809.21
439.70	5872.40
439.89	5685.16
440.08	5863.04
440.26	5987.09
440.45	5804.53
440.63	6090.07
440.82	5991.77
441.01	6036.24
441.19	6146.25
441.38	6195.40
441.57	6260.93
441.75	6349.87
441.94	6284.34
442.12	6539.46
442.31	6581.59
442.50	6560.52
442.68	6478.60
442.87	6492.65
443.05	6326.47
443.24	6595.63
443.43	6466.90
443.61	6555.84
443.80	6651.80
443.98	6548.82
444.17	6551.16
444.35	6569.88
444.54	6712.66
444.73	6738.40
444.91	6803.94
445.10	6649.46
445.28	6640.10
445.47	6677.55
445.65	6665.85
445.84	6726.70
446.02	6780.53
446.21	6663.51
446.39	6946.71
446.58	7098.84
446.77	6864.79
446.95	6792.23
447.14	6822.66
447.32	6974.80
447.51	6834.36
447.69	6745.42
447.88	6937.35
448.06	6965.43
448.25	6970.12
448.43	6677.55
448.62	6834.36
448.80	6993.52
448.99	6960.75
449.17	7000.54
449.36	7110.55
449.54	7152.68
449.73	7307.15
449.91	7405.46
450.10	7503.76
450.28	7442.90
450.46	7370.35
450.65	7391.41
450.83	7452.27
451.02	7604.40
451.20	7545.89
451.39	7396.09
451.57	7405.46
451.76	7412.48
451.94	7475.67
452.13	7463.97
452.31	7463.97
452.49	7314.17
452.68	7438.22
452.86	7335.24
453.05	7625.47
453.23	7501.42
453.42	7276.73
453.60	7550.57
453.78	7691.00
453.97	7651.21
454.15	7522.48
454.34	7667.60
454.52	7712.07
454.70	7653.55
454.89	7922.71
455.07	7646.53
455.26	7889.95
455.44	7815.05
455.62	7833.77
455.81	7941.44
455.99	7978.89
456.17	8205.92
456.36	7981.23
456.54	8135.70
456.73	8367.42
456.91	8297.20
457.09	8484.44
457.28	8355.71
457.46	8360.39
457.64	8418.91
457.83	8580.40
458.01	8348.69
458.19	8505.51
458.38	8451.67
458.56	8435.29
458.74	8533.59
458.93	8655.30
459.11	8667.00
459.29	8468.06
459.48	8599.13
459.66	8482.10
459.84	8568.70
460.03	8716.16
460.21	8793.39
460.39	8748.92
460.57	8905.74
460.76	8835.52
460.94	9149.15
461.12	8861.27
461.31	8973.61
461.49	8814.46
461.67	8879.99
461.85	9212.35
462.04	8940.85
462.22	9341.08
462.40	9102.34
462.59	9217.03
462.77	9308.31
462.95	9149.15
463.13	9238.09
463.32	9025.11
463.50	9277.88
463.68	9191.28
463.86	9336.40
464.05	9226.39
464.23	9273.20
464.41	9514.28
464.59	9092.98
464.78	9380.87
464.96	9486.19
465.14	9202.99
465.32	9420.66
465.50	9586.83
465.69	9654.71
465.87	9334.06
466.05	9624.28
466.23	9507.26
466.41	9467.47
466.60	9795.14
466.78	9451.08
466.96	9528.32
467.14	9467.47
467.32	9682.80
467.51	9570.45
467.69	9701.52
467.87	9598.54
468.05	9762.37
468.23	9745.99
468.41	9764.72
468.60	9937.91
468.78	9841.95
468.96	9820.89
469.14	9872.38
469.32	10001.11
469.50	9839.61
469.69	10157.92
469.87	10068.98
470.05	9984.73
470.23	10256.23
470.41	10078.35
470.59	10279.63
470.77	10277.29
470.95	10298.36
471.14	10569.86
471.32	10120.48
471.50	10581.56
471.68	10630.71
471.86	10705.61
472.04	10946.69
472.22	10995.84
472.40	10565.18
472.58	10752.42
472.77	10937.32
472.95	10939.66
473.13	10925.62
473.31	10834.34
473.49	11047.33
473.67	10967.75
473.85	11215.85
474.03	11269.68
474.21	11255.64
474.39	11447.56
474.57	11452.24
474.75	11587.99
474.93	11730.76
475.12	11595.01
475.30	11625.44
475.48	11630.12
475.66	11592.67
475.84	11559.91
476.02	11754.17
476.20	11583.31
476.38	11798.64
476.56	12156.74
476.74	12201.21
476.92	12018.65
477.10	12152.06
477.28	12657.62
477.46	12339.30
477.64	12758.26
477.82	12547.61
478.00	12863.58
478.18	12954.87
478.36	12989.97
478.54	12975.93
478.72	13209.98
478.90	13458.08
479.08	13392.55
479.26	13319.99
479.44	13425.31
479.62	13497.87
479.80	13816.18
479.98	13582.13
480.16	13891.08
480.34	13937.89
480.52	14253.86
480.70	14314.72
480.88	13902.78
481.06	14209.39
481.24	14391.95
481.41	14616.65
481.59	14689.20
481.77	14927.94
481.95	14600.26
482.13	15131.56
482.31	14899.85
482.49	15281.36
482.67	15068.37
482.85	15632.44
483.03	15550.52
483.21	16035.01
483.39	15981.18
483.57	15920.32
483.74	15740.10
483.92	16079.48
484.10	16123.95
484.28	16437.58
484.46	16613.12
484.64	16901.01
484.82	16369.71
485.00	16599.08
485.18	16865.90
485.35	17034.42
485.53	16655.25
485.71	16505.46
485.89	16697.38
486.07	16996.97
486.25	16910.37
486.43	17132.72
486.61	17666.36
486.78	17701.47
486.96	17717.86
487.14	17781.05
487.32	18464.49
487.50	18375.55
487.68	18508.96
487.85	19117.50
488.03	19183.03
488.21	19124.52
488.39	19295.38
488.57	19108.13
488.75	19126.86
488.92	19494.32
489.10	19662.84
489.28	19974.13
489.46	20229.25
489.64	20238.61
489.81	20540.54
489.99	20634.16
490.17	20837.79
490.35	21053.12
490.53	20882.26
490.70	20961.84
490.88	20847.15
491.06	21209.93
491.24	21348.03
491.41	21502.50
491.59	21420.58
491.77	21348.03
491.95	21502.50
492.13	21745.92
492.30	22225.73
492.48	22197.64
492.66	22045.51
492.84	22099.34
493.01	22579.15
493.19	22452.76
493.37	22850.65
493.54	22593.19
493.72	23339.82
493.90	22899.80
494.08	23309.40
494.25	23782.18
494.43	23983.47
494.61	23791.55
494.79	24386.04
494.96	24184.76
495.14	24276.04
495.32	24247.95
495.49	24500.73
495.67	24283.06
495.85	24805.00
496.02	24753.51
496.20	24753.51
496.38	25294.17
496.55	24940.75
496.73	25778.66
496.91	25544.61
497.09	25972.92
497.26	25701.42
497.44	25312.89
497.62	25846.54
497.79	26185.91
497.97	25706.10
498.14	25748.23
498.32	26082.93
498.50	26373.16
498.67	26960.63
498.85	26335.71
499.03	27115.11
499.20	26986.38
499.38	26799.13
499.56	26735.94
499.73	27288.31
499.91	27395.97
500.08	27723.65
500.26	27080.00
500.44	27255.54
500.61	27513.00
500.79	27096.38
500.97	27515.34
501.14	28027.92
501.32	27824.29
501.49	27747.05
501.67	27913.23
501.84	28208.14
502.02	28081.75
502.20	28584.96
502.37	28662.20
502.55	28257.29
502.72	28552.20
502.90	29132.65
503.07	28650.50
503.25	28924.34
503.43	28542.83
503.60	28940.72
503.78	28987.53
503.95	28751.14
504.13	29230.95
504.30	29165.42
504.48	29509.47
504.65	29582.03
504.83	29640.54
505.01	29820.77
505.18	30108.65
505.36	30242.06
505.53	30756.98
505.71	30354.41
505.88	30670.38
506.06	29921.41
506.23	30499.52
506.41	30349.73
506.58	30333.34
506.76	30347.39
506.93	30637.61
507.11	30682.08
507.28	30801.45
507.46	30473.78
507.63	30855.28
507.81	31014.44
507.98	30649.32
508.16	31047.21
508.33	31541.06
508.50	31484.89
508.68	31857.03
508.85	31702.56
509.03	31798.52
509.20	32032.57
509.38	31978.74
509.55	31976.40
509.73	31847.67
509.90	31838.31
510.08	32236.20
510.25	32011.51
510.42	32568.55
510.60	32322.80
510.77	32671.54
510.95	32587.28
511.12	32929.00
511.30	32952.40
511.47	33219.22
511.64	33031.98
511.82	33263.69
511.99	33366.68
512.17	33076.45
512.34	33027.30
512.51	33490.73
512.69	33497.75
512.86	33280.08
513.04	33734.14
513.21	33350.29
513.38	33935.43
513.56	34061.82
513.73	33462.64
513.90	33582.01
514.08	33633.50
514.25	33696.69
514.43	33752.87
514.60	33993.94
514.77	33930.75
514.95	34356.72
515.12	34696.10
515.29	34291.19
515.47	35143.14
515.64	34909.09
515.81	34459.71
515.99	34675.04
516.16	34211.61
516.33	34293.53
516.51	34398.85
516.68	33968.19
516.85	33993.94
517.03	34536.94
517.20	34569.71
517.37	35101.01
517.54	34969.94
517.72	34991.01
517.89	34651.63
518.06	34525.24
518.24	34649.29
518.41	35302.30
518.58	35381.88
518.75	35189.95
518.93	35529.33
519.10	36009.14
519.27	35629.98
519.45	35873.39
519.62	36023.19
519.79	36151.91
519.96	36046.59
520.14	36250.22
520.31	36077.02
520.48	36650.45
520.65	36194.04
520.83	36673.85
521.00	37055.36
521.17	37048.34
521.34	36837.69
521.52	36914.93
521.69	36935.99
521.86	37521.13
522.03	36966.42
522.20	37160.69
522.38	36861.10
522.55	37354.95
522.72	37387.72
522.89	37078.77
523.07	37120.90
523.24	37090.47
523.41	37748.16
523.58	37443.89
523.75	38115.62
523.92	38251.38
524.10	38082.86
524.27	38405.85
524.44	38485.43
524.61	37949.45
524.78	38384.79
524.96	37811.35
525.13	38803.74
525.30	38866.94
525.47	38792.04
525.64	38611.82
525.81	38763.95
525.98	38682.03
526.16	38024.34
526.33	38148.39
526.50	38258.40
526.67	37579.64
526.84	38153.07
527.01	38499.47
527.18	38469.04
527.36	38763.95
527.53	39505.90
527.70	39679.10
527.87	39496.54
528.04	39161.84
528.21	39337.38
528.38	39100.99
528.55	39845.28
528.72	39210.99
528.89	40039.54
529.07	39768.04
529.24	39487.18
529.41	39845.28
529.58	39969.33
529.75	39842.94
529.92	39716.55
530.09	39999.76
530.26	39880.39
530.43	40449.14
530.60	39840.60
530.77	40102.74
530.94	39981.03
531.11	40458.50
531.28	40278.28
531.46	40701.92
531.63	40353.18
531.80	40285.30
531.97	40245.51
532.14	40069.97
532.31	39683.78
532.48	40212.74
532.65	40498.29
532.82	40362.54
532.99	40800.22
533.16	40535.74
533.33	41177.04
533.50	40982.78
533.67	41015.55
533.84	40605.95
534.01	40959.38
534.18	40952.35
534.35	41200.45
534.52	40989.80
534.69	41191.09
534.86	41331.52
535.03	40811.92
535.20	41478.97
535.37	41787.92
535.54	42085.17
535.71	41825.37
535.88	41514.08
536.05	41579.62
536.22	41647.49
536.38	41537.49
536.55	41076.40
536.72	41560.89
536.89	41471.95
537.06	41289.39
537.23	41806.65
537.40	42003.25
537.57	42000.91
537.74	41979.85
537.91	42471.36
538.08	42361.36
538.25	41858.14
538.42	42344.97
538.59	42454.98
538.75	42003.25
538.92	42178.79
539.09	42253.69
539.26	42408.17
539.43	41930.70
539.60	42682.01
539.77	42642.22
539.94	42307.52
540.11	42176.45
540.28	42260.71
540.44	42450.30
540.61	42223.26
540.78	42359.02
540.95	42281.78
541.12	42277.10
541.29	42693.71
541.46	42663.28
541.62	42572.00
541.79	43173.52
541.96	42799.04
542.13	42852.87
542.30	42232.63
542.47	43164.16
542.63	43367.79
542.80	43005.00
542.97	43529.28
543.14	43505.88
543.31	43524.60
543.48	43297.57
543.64	44219.74
543.81	43454.39
543.98	43585.46
544.15	43440.34
544.32	43639.29
544.48	44095.69
544.65	43917.81
544.82	43866.32
544.99	43564.39
545.16	43510.56
545.32	44065.27
545.49	44395.28
545.66	44023.14
545.83	43718.87
546.00	44411.67
546.16	44598.91
546.33	43852.28
546.50	43550.35
546.67	44339.11
546.83	43592.48
547.00	44222.08
547.17	44074.63
547.34	44114.42
547.50	44367.20
547.67	44650.40
547.84	44289.96
548.00	44701.89
548.17	44573.16
548.34	44460.82
548.51	45027.23
548.67	44488.90
548.84	44900.84
549.01	44514.65
549.18	44402.30
549.34	45017.86
549.51	44774.45
549.68	44954.67
549.84	44828.28
550.01	45057.65
550.18	44683.17
550.34	45118.51
550.51	44610.61
550.68	44481.88
550.84	44392.94
551.01	45048.29
551.18	45083.40
551.34	44638.70
551.51	44931.26
551.68	45415.76
551.84	45207.45
552.01	44985.10
552.18	44971.05
552.34	45024.89
552.51	45170.00
552.68	45207.45
552.84	45209.79
553.01	45303.41
553.18	45043.61
553.34	45511.72
553.51	45404.05
553.67	45205.11
553.84	45518.74
554.01	45181.70
554.17	45790.24
554.34	45647.47
554.51	45303.41
554.67	45815.99
554.84	45785.56
555.00	45530.44
555.17	45289.37
555.33	45516.40
555.50	45722.37
555.67	45385.33
555.83	45820.67
556.00	45563.21
556.16	46312.18
556.33	45287.03
556.50	45626.40
556.66	45729.39
556.83	45174.68
556.99	46124.94
557.16	45689.60
557.32	46038.34
557.49	45965.78
557.65	45701.30
557.82	45659.17
557.98	45820.67
558.15	46017.27
558.32	46073.45
558.48	45677.90
558.65	45956.42
558.81	45743.43
558.98	45350.22
559.14	45827.69
559.31	45724.71
559.47	45975.14
559.64	46080.47
559.80	45872.16
559.97	46117.92
560.13	45890.88
560.30	45755.13
560.46	45869.82
560.63	46265.37
560.79	46174.09
560.96	46213.88
561.12	46562.62
561.29	46078.13
561.45	46440.91
561.61	46155.36
561.78	46469.00
561.94	46265.37
562.11	46054.72
562.27	46312.18
562.44	46532.19
562.60	46476.02
562.77	46403.46
562.93	45937.69
563.10	46443.25
563.26	46026.63
563.42	46506.44
563.59	45488.31
563.75	46401.12
563.92	46347.29
564.08	46298.14
564.24	46721.77
564.41	46026.63
564.57	46417.50
564.74	46454.95
564.90	46651.56
565.07	46450.27
565.23	46536.87
565.39	46260.69
565.56	46419.84
565.72	46204.52
565.88	46108.55
566.05	46195.15
566.21	46412.82
566.38	46181.11
566.54	46689.01
566.70	46623.47
566.87	47000.30
567.03	46740.50
567.19	46656.24
567.36	46670.28
567.52	46759.22
567.68	46499.42
567.85	46478.36
568.01	46866.89
568.17	46665.60
568.34	46820.08
568.50	46618.79
568.66	46361.33
568.83	46813.05
568.99	46328.56
569.15	46478.36
569.32	46490.06
569.48	46473.68
569.64	46815.40
569.81	46775.61
569.97	46944.12
570.13	46520.49
570.30	46616.45
570.46	46078.13
570.62	46330.90
570.78	46543.89
570.95	46415.16
571.11	46817.74
571.27	47084.56
571.43	46880.93
571.60	46593.04
571.76	46677.30
571.92	46700.71
572.09	46742.84
572.25	46784.97
572.41	46651.56
572.57	46602.41
572.74	47147.75
572.90	46815.40
573.06	46794.33
573.22	46843.48
573.38	46887.95
573.55	46375.37
573.71	47084.56
573.87	46351.97
574.03	46527.51
574.20	46831.78
574.36	46894.97
574.52	46717.09
574.68	47047.11
574.84	46918.38
575.01	46499.42
575.17	46607.09
575.33	46859.87
575.49	46347.29
575.65	46684.33
575.82	46721.77
575.98	46660.92
576.14	47150.09
576.30	46857.52
576.46	46415.16
576.62	46852.84
576.79	46990.94
576.95	46958.17
577.11	46735.82
577.27	46686.67
577.43	47297.55
577.59	46501.76
577.75	46600.07
577.92	46560.28
578.08	46363.67
578.24	46490.06
578.40	46471.34
578.56	46974.55
578.72	46913.70
578.88	46937.10
579.04	46937.10
579.21	46904.34
579.37	46850.50
579.53	46780.29
579.69	46731.14
579.85	46951.15
580.01	47084.56
580.17	46890.29
580.33	47082.22
580.49	46983.91
580.65	47217.97
580.82	46838.80
580.98	46614.11
581.14	46843.48
581.30	47501.17
581.46	47271.80
581.62	47037.75
581.78	47243.71
581.94	47063.49
582.10	46817.74
582.26	47110.30
582.42	46731.14
582.58	47112.64
582.74	46707.73
582.90	47019.02
583.06	47117.32
583.22	47234.35
583.38	47632.24
583.54	46976.89
583.70	47030.72
583.86	46920.72
584.02	47086.90
584.18	47091.58
584.34	46885.61
584.50	47089.24
584.66	46600.07
584.82	46522.83
584.98	46775.61
585.14	46972.21
585.30	46649.22
585.46	46855.18
585.62	46768.58
585.78	46775.61
585.94	46476.02
586.10	46649.22
586.26	46787.31
586.42	47143.07
586.58	46885.61
586.74	47220.31
586.90	46890.29
587.06	46850.50
587.22	47208.61
587.38	46838.80
587.54	47096.26
587.70	47297.55
587.86	46550.91
588.02	46852.84
588.18	47047.11
588.34	46621.13
588.49	46569.64
588.65	45876.84
588.81	46316.86
588.97	46719.43
589.13	45933.01
589.29	46909.02
589.45	46600.07
589.61	46567.30
589.77	46803.69
589.93	47091.58
