SpectraSuite Data File
++++++++++++++++++++++++++++++++++++
Date: Fri Oct 25 11:33:41 EDT 2013
User: price-jones
Dark Spectrum Present: No
Reference Spectrum Present: No
Number of Sampled Component Spectra: 1
Spectrometers: USB2+H05261
Integration Time (usec): 100000 (USB2+H05261)
Spectra Averaged: 1 (USB2+H05261)
Boxcar Smoothing: 0 (USB2+H05261)
Correct for Electrical Dark: No (USB2+H05261)
Strobe/Lamp Enabled: No (USB2+H05261)
Correct for Detector Non-linearity: No (USB2+H05261)
Correct for Stray Light: No (USB2+H05261)
Number of Pixels in Processed Spectrum: 2048
>>>>>Begin Processed Spectral Data<<<<<
365.73	315.97
365.92	315.97
366.12	315.97
366.32	147.45
366.52	145.11
366.72	266.82
366.91	177.88
367.11	203.63
367.31	102.98
367.51	168.52
367.70	191.92
367.90	184.90
368.10	128.73
368.30	182.56
368.49	182.56
368.69	229.37
368.89	168.52
369.09	198.95
369.28	182.56
369.48	170.86
369.68	187.24
369.87	201.29
370.07	273.84
370.27	315.97
370.47	283.20
370.66	463.43
370.86	519.60
371.06	547.69
371.25	514.92
371.45	505.56
371.65	592.16
371.84	521.94
372.04	582.79
372.24	526.62
372.44	587.47
372.63	592.16
372.83	566.41
373.03	582.79
373.22	641.31
373.42	723.23
373.62	617.90
373.81	634.29
374.01	711.52
374.21	709.18
374.40	587.47
374.60	634.29
374.79	692.80
374.99	648.33
375.19	662.37
375.38	664.71
375.58	624.92
375.78	615.56
375.97	566.41
376.17	727.91
376.37	643.65
376.56	669.39
376.76	608.54
376.95	634.29
377.15	692.80
377.35	653.01
377.54	706.84
377.74	755.99
377.93	624.92
378.13	636.63
378.33	671.73
378.52	631.94
378.72	685.78
378.91	688.12
379.11	671.73
379.31	669.39
379.50	690.46
379.70	631.94
379.89	786.42
380.09	716.20
380.28	751.31
380.48	777.06
380.68	788.76
380.87	772.38
381.07	748.97
381.26	716.20
381.46	739.61
381.65	732.59
381.85	798.12
382.04	702.16
382.24	805.14
382.43	812.17
382.63	716.20
382.83	753.65
383.02	856.64
383.22	795.78
383.41	875.36
383.61	821.53
383.80	840.25
384.00	896.43
384.19	767.70
384.39	821.53
384.58	844.93
384.78	826.21
384.97	863.66
385.17	868.34
385.36	837.91
385.56	809.83
385.75	887.06
385.95	903.45
386.14	887.06
386.34	795.78
386.53	931.53
386.72	826.21
386.92	854.30
387.11	971.32
387.31	875.36
387.50	856.64
387.70	823.87
387.89	849.61
388.09	945.58
388.28	936.21
388.48	978.34
388.67	858.98
388.86	983.02
389.06	919.83
389.25	912.81
389.45	901.11
389.64	922.17
389.84	915.15
390.03	915.15
390.22	945.58
390.42	903.45
390.61	945.58
390.81	952.60
391.00	957.28
391.19	961.96
391.39	985.37
391.58	1039.20
391.78	971.32
391.97	1011.11
392.16	1011.11
392.36	1043.88
392.55	1076.65
392.75	1053.24
392.94	992.39
393.13	1053.24
393.33	1046.22
393.52	1102.39
393.71	1114.10
393.91	1053.24
394.10	1076.65
394.29	1029.84
394.49	1071.97
394.68	1130.48
394.88	1116.44
395.07	1210.06
395.26	1188.99
395.46	1172.61
395.65	1123.46
395.84	1174.95
396.04	1242.82
396.23	1210.06
396.42	1212.40
396.62	1247.51
396.81	1299.00
397.00	1181.97
397.19	1158.57
397.39	1231.12
397.58	1287.29
397.77	1219.42
397.97	1287.29
398.16	1261.55
398.35	1231.12
398.55	1280.27
398.74	1357.51
398.93	1299.00
399.12	1310.70
399.32	1273.25
399.51	1294.32
399.70	1385.60
399.90	1291.98
400.09	1376.24
400.28	1439.43
400.47	1427.73
400.67	1437.09
400.86	1362.19
401.05	1500.28
401.24	1490.92
401.44	1493.26
401.63	1399.64
401.82	1469.86
402.01	1437.09
402.21	1495.60
402.40	1521.35
402.59	1439.43
402.78	1526.03
402.97	1547.09
403.17	1516.67
403.36	1472.20
403.55	1535.39
403.74	1565.82
403.93	1593.90
404.13	1568.16
404.32	1689.87
404.51	1516.67
404.70	1668.80
404.89	1607.95
405.09	1603.27
405.28	1631.35
405.47	1666.46
405.66	1685.19
405.85	1715.61
406.05	1673.48
406.24	1680.50
406.43	1694.55
406.62	1809.23
406.81	1792.85
407.00	1685.19
407.20	1809.23
407.39	1699.23
407.58	1916.90
407.77	1872.43
407.96	1830.30
408.15	1858.39
408.34	1804.55
408.54	2010.52
408.73	1919.24
408.92	1914.56
409.11	1895.83
409.30	1989.46
409.49	2015.20
409.68	2062.01
409.87	1930.94
410.07	2017.54
410.26	2054.99
410.45	2143.93
410.64	1977.75
410.83	2134.57
411.02	2218.83
411.21	2167.34
411.40	2174.36
411.59	2143.93
411.78	2153.29
411.98	2172.02
412.17	2207.13
412.36	2183.72
412.55	2267.98
412.74	2345.22
412.93	2321.81
413.12	2450.54
413.31	2394.37
413.50	2331.17
413.69	2459.90
413.88	2441.18
414.07	2548.84
414.26	2359.26
414.45	2558.21
414.64	2588.63
414.83	2544.16
415.02	2532.46
415.22	2780.56
415.41	2637.78
415.60	2663.53
415.79	2705.66
415.98	2647.15
416.17	2705.66
416.36	2637.78
416.55	2740.77
416.74	2860.13
416.93	2740.77
417.12	2794.60
417.31	2874.18
417.50	2937.37
417.69	3087.17
417.88	2902.26
418.07	3000.57
418.26	3052.06
418.45	3049.72
418.64	3012.27
418.83	3021.63
419.02	2984.18
419.21	3094.19
419.39	3145.68
419.58	3157.38
419.77	3103.55
419.96	3180.79
420.15	3206.53
420.34	3220.58
420.53	3183.13
420.72	3283.77
420.91	3262.71
421.10	3290.79
421.29	3297.81
421.48	3243.98
421.67	3279.09
421.86	3194.83
422.05	3365.69
422.24	3405.48
422.43	3414.84
422.61	3405.48
422.80	3414.84
422.99	3365.69
423.18	3344.63
423.37	3361.01
423.56	3447.61
423.75	3452.29
423.94	3286.11
424.13	3192.49
424.32	3274.41
424.50	3499.10
424.69	3569.32
424.88	3510.80
425.07	3393.78
425.26	3391.44
425.45	3379.73
425.64	3323.56
425.83	3337.60
426.01	3604.42
426.20	3382.07
426.39	3571.66
426.58	3634.85
426.77	3452.29
426.96	3618.47
427.15	3536.55
427.33	3702.73
427.52	3592.72
427.71	3627.83
427.90	3543.57
428.09	3658.26
428.28	3620.81
428.46	3606.77
428.65	3641.87
428.84	3740.18
429.03	3742.52
429.22	3646.55
429.40	3698.05
429.59	3854.86
429.78	3644.21
429.97	3747.20
430.16	3819.75
430.34	3847.84
430.53	3936.78
430.72	3784.65
430.91	3885.29
431.10	3950.82
431.28	3943.80
431.47	3929.76
431.66	3969.55
431.85	3913.38
432.03	4095.94
432.22	4337.01
432.41	4049.13
432.60	4053.81
432.79	4119.34
432.97	4088.92
433.16	4180.20
433.35	4187.22
433.54	4161.47
433.72	4095.94
433.91	4138.07
434.10	4325.31
434.28	4138.07
434.47	4337.01
434.66	4301.90
434.85	4294.88
435.03	4360.42
435.22	4297.22
435.41	4545.32
435.59	4320.63
435.78	4440.00
435.97	4397.87
436.16	4545.32
436.34	4451.70
436.53	4386.16
436.72	4554.68
436.90	4512.55
437.09	4645.96
437.28	4491.49
437.46	4432.97
437.65	4601.49
437.84	4578.09
438.02	4571.07
438.21	4664.69
438.40	4603.83
438.58	4795.76
438.77	4863.63
438.96	4697.46
439.14	4858.95
439.33	4788.74
439.52	4933.85
439.70	4952.57
439.89	5013.43
440.08	5029.81
440.26	5011.09
440.45	4983.00
440.63	5043.85
440.82	5240.46
441.01	5165.56
441.19	5247.48
441.38	5289.61
441.57	5355.15
441.75	5331.74
441.94	5467.49
442.12	5270.89
442.31	5476.85
442.50	5509.62
442.68	5451.11
442.87	5582.18
443.05	5495.58
443.24	5458.13
443.43	5610.26
443.61	5654.73
443.80	5762.40
443.98	5579.84
444.17	5320.04
444.35	5521.32
444.54	5701.54
444.73	5671.12
444.91	5696.86
445.10	5652.39
445.28	5638.35
445.47	5521.32
445.65	5729.63
445.84	5696.86
446.02	5858.36
446.21	5760.06
446.39	5570.48
446.58	5886.45
446.77	5757.72
446.95	5689.84
447.14	5673.46
447.32	5926.24
447.51	5654.73
447.69	5762.40
447.88	5738.99
448.06	5844.32
448.25	5863.04
448.43	5802.19
448.62	5703.89
448.80	5797.51
448.99	5991.77
449.17	5900.49
449.36	5912.19
449.54	5954.32
449.73	6078.37
449.91	6129.86
450.10	6064.33
450.28	6193.06
450.46	6127.52
450.65	6045.60
450.83	5994.11
451.02	6169.65
451.20	6111.14
451.39	6092.41
451.57	6019.86
451.76	6073.69
451.94	6087.73
452.13	6258.59
452.31	6368.60
452.49	6349.87
452.68	6232.85
452.86	6370.94
453.05	6417.75
453.23	6462.22
453.42	6333.49
453.60	6527.75
453.78	6455.20
453.97	6448.18
454.15	6373.28
454.34	6459.88
454.52	6583.93
454.70	6607.33
454.89	6672.87
455.07	6553.50
455.26	6729.04
455.44	6633.08
455.62	6562.86
455.81	6719.68
455.99	6848.41
456.17	6801.60
456.36	6789.89
456.54	6825.00
456.73	6871.81
456.91	6979.48
457.09	7197.15
457.28	7094.16
457.46	6848.41
457.64	7108.21
457.83	7005.22
458.01	7040.33
458.19	7272.04
458.38	7155.02
458.56	7370.35
458.74	7169.06
458.93	7150.34
459.11	7176.08
459.29	7136.29
459.48	7068.42
459.66	7220.55
459.84	7283.75
460.03	7541.21
460.21	7480.35
460.39	7566.95
460.57	7293.11
460.76	7438.22
460.94	7470.99
461.12	7440.56
461.31	7501.42
461.49	7592.70
461.67	7597.38
461.85	7597.38
462.04	7449.93
462.22	8166.13
462.40	7845.48
462.59	7740.15
462.77	7754.19
462.95	7840.79
463.13	7777.60
463.32	7819.73
463.50	7964.84
463.68	7822.07
463.86	7801.01
464.05	7932.08
464.23	7967.18
464.41	8180.17
464.59	7786.96
464.78	8290.18
464.96	7990.59
465.14	7960.16
465.32	7999.95
465.50	8133.36
465.69	8161.45
465.87	7983.57
466.05	8002.29
466.23	8116.98
466.41	8135.70
466.60	8484.44
466.78	8119.32
466.96	8013.99
467.14	8346.35
467.32	8229.32
467.51	8297.20
467.69	8226.98
467.87	8320.60
468.05	8411.89
468.23	8336.99
468.41	8353.37
468.60	8329.97
468.78	8418.91
468.96	8421.25
469.14	8659.98
469.32	8545.30
469.50	8465.72
469.69	8793.39
469.87	8652.96
470.05	8645.94
470.23	8936.17
470.41	8667.00
470.59	8945.53
470.77	8823.82
470.95	8702.11
471.14	9114.05
471.32	8699.77
471.50	9158.52
471.68	9174.90
471.86	9006.38
472.04	9107.02
472.22	9369.16
472.40	9240.44
472.58	9135.11
472.77	9074.26
472.95	9371.50
473.13	9507.26
473.31	9331.72
473.49	9427.68
473.67	9434.70
473.85	9570.45
474.03	9841.95
474.21	9631.30
474.39	9853.66
474.57	9762.37
474.75	10047.92
474.93	10097.07
475.12	9825.57
475.30	10026.86
475.48	9994.09
475.66	10125.16
475.84	10010.47
476.02	10277.29
476.20	10324.10
476.38	10445.81
476.56	10726.68
476.74	10682.20
476.92	10473.90
477.10	10413.04
477.28	10724.33
477.46	10853.06
477.64	10860.09
477.82	10995.84
478.00	11321.17
478.18	11007.54
478.36	11164.36
478.54	11248.61
478.72	11566.93
478.90	11538.84
479.08	11611.40
479.26	11672.25
479.44	11534.16
479.62	11702.68
479.80	11859.49
479.98	11955.46
480.16	12231.64
480.34	12369.73
480.52	12299.52
480.70	12304.20
480.88	12383.77
481.06	12521.87
481.24	12482.08
481.41	12671.66
481.59	12865.92
481.77	12828.48
481.95	12809.75
482.13	13060.19
482.31	13008.70
482.49	13408.93
482.67	13369.14
482.85	13561.06
483.03	13582.13
483.21	13579.79
483.39	13682.77
483.57	13689.79
483.74	13977.68
483.92	14115.77
484.10	14246.84
484.28	14291.31
484.46	14401.32
484.64	14567.49
484.82	14317.06
485.00	14736.01
485.18	14888.15
485.35	15283.70
485.53	14869.42
485.71	15140.93
485.89	15676.91
486.07	15559.88
486.25	15484.98
486.43	15880.53
486.61	15634.78
486.78	15618.39
486.96	15693.29
487.14	16376.73
487.32	16418.86
487.50	16084.16
487.68	16519.50
487.85	16503.12
488.03	16706.74
488.21	17046.12
488.39	17076.55
488.57	17310.60
488.75	17193.58
488.92	17401.88
489.10	17621.89
489.28	17769.35
489.46	17774.03
489.64	17980.00
489.81	18134.47
489.99	18167.24
490.17	18359.16
490.35	18422.36
490.53	18656.41
490.70	18974.72
490.88	18647.05
491.06	18904.51
491.24	18719.60
491.41	18815.57
491.59	19293.04
491.77	19166.65
491.95	19587.94
492.13	19587.94
492.30	19552.84
492.48	19707.31
492.66	19445.17
492.84	20056.05
493.01	19941.36
493.19	19943.70
493.37	20208.19
493.54	20374.36
493.72	20748.85
493.90	20755.87
494.08	20704.38
494.25	21149.08
494.43	21020.35
494.61	21158.44
494.79	21483.78
494.96	21193.55
495.14	21610.17
495.32	21656.98
495.49	21846.56
495.67	21869.97
495.85	21898.05
496.02	22115.72
496.20	22260.84
496.38	22419.99
496.55	22293.60
496.73	23234.50
496.91	22845.97
497.09	22967.68
497.26	22838.95
497.44	22724.26
497.62	23278.97
497.79	23506.00
497.97	23204.07
498.14	23667.50
498.32	23861.76
498.50	23866.44
498.67	23929.64
498.85	23690.90
499.03	24018.58
499.20	24273.70
499.38	24184.76
499.56	24552.22
499.73	24549.88
499.91	24369.66
500.08	24807.34
500.26	24840.11
500.44	24762.87
500.61	24779.25
500.79	24807.34
500.97	25221.61
501.14	25450.99
501.32	25081.18
501.49	25614.82
501.67	25605.46
501.84	25724.83
502.02	25298.85
502.20	25296.51
502.37	26050.16
502.55	25532.90
502.72	25942.50
502.90	25614.82
503.07	26061.87
503.25	25970.58
503.43	26237.41
503.60	26258.47
503.78	26087.61
503.95	26426.99
504.13	26621.25
504.30	26850.63
504.48	26941.91
504.65	26642.32
504.83	27082.34
505.01	27283.62
505.18	27480.23
505.36	27452.14
505.53	27634.71
505.71	27615.98
505.88	27824.29
506.06	27309.37
506.23	27365.54
506.41	27405.33
506.58	27768.12
506.76	27812.59
506.93	27768.12
507.11	28212.82
507.28	28318.14
507.46	28205.80
507.63	28568.58
507.81	28559.22
507.98	28521.77
508.16	28727.74
508.33	28205.80
508.50	29003.92
508.68	28496.02
508.85	28924.34
509.03	28811.99
509.20	29123.29
509.38	29418.19
509.55	29268.40
509.73	29481.39
509.90	29467.34
510.08	29598.41
510.25	29930.77
510.42	29628.84
510.60	29848.85
510.77	30094.61
510.95	29984.60
511.12	29785.66
511.30	30019.71
511.47	30232.70
511.64	30127.38
511.82	30185.89
511.99	30101.63
512.17	30719.53
512.34	30394.20
512.51	30693.79
512.69	30927.84
512.86	30558.03
513.04	31087.00
513.21	30967.63
513.38	31175.94
513.56	31332.75
513.73	30969.97
513.90	31512.97
514.08	31028.48
514.25	31641.70
514.43	31775.11
514.60	31732.98
514.77	31559.78
514.95	31494.25
515.12	31669.79
515.29	31709.58
515.47	32137.90
515.64	32039.59
515.81	32016.19
515.99	32203.43
516.16	32350.88
516.33	32418.76
516.51	32369.61
516.68	32304.07
516.85	32540.47
517.03	33104.54
517.20	32746.44
517.37	32781.54
517.54	32744.09
517.72	32727.71
517.89	33572.64
518.06	32858.78
518.24	33181.77
518.41	32818.99
518.58	32753.46
518.75	33039.00
518.93	33263.69
519.10	33336.25
519.27	33242.63
519.45	33497.75
519.62	33982.24
519.79	33668.61
519.96	33493.07
520.14	33860.53
520.31	33530.51
520.48	34579.07
520.65	34162.46
520.83	34480.77
521.00	34419.92
521.17	34150.76
521.34	34288.85
521.52	34356.72
521.69	34707.80
521.86	34792.06
522.03	34768.66
522.20	34705.46
522.38	35225.06
522.55	35225.06
522.72	35150.17
522.89	35473.16
523.07	35566.78
523.24	35438.05
523.41	35484.86
523.58	34916.11
523.75	35721.26
523.92	35503.59
524.10	35323.36
524.27	35454.44
524.44	35690.83
524.61	35924.88
524.78	36013.82
524.96	36254.90
525.13	36287.67
525.30	36154.26
525.47	36404.69
525.64	36107.44
525.81	36254.90
525.98	36598.96
526.16	36463.21
526.33	36201.07
526.50	36563.85
526.67	36318.09
526.84	36598.96
527.01	36643.43
527.18	36907.91
527.36	36734.71
527.53	36950.04
527.70	37479.00
527.87	37228.56
528.04	36514.70
528.21	37158.34
528.38	37216.86
528.55	37165.37
528.72	37354.95
528.89	37322.18
529.07	37528.15
529.24	37202.82
529.41	37193.45
529.58	37457.93
529.75	36886.84
529.92	37626.45
530.09	37876.89
530.26	37773.91
530.43	38047.75
530.60	37462.61
530.77	37607.73
530.94	38171.80
531.11	37572.62
531.28	38174.14
531.46	38298.19
531.63	38141.37
531.80	38162.43
531.97	38309.89
532.14	38417.55
532.31	38480.75
532.48	38548.62
532.65	38787.36
532.82	38258.40
532.99	39044.82
533.16	38679.69
533.33	38799.06
533.50	38745.23
533.67	38909.07
533.84	38632.88
534.01	39260.15
534.18	38941.83
534.35	39365.47
534.52	38869.28
534.69	39524.63
534.86	39782.09
535.03	39281.21
535.20	39756.34
535.37	39519.95
535.54	39435.69
535.71	39395.90
535.88	39328.02
536.05	39871.03
536.22	39868.69
536.38	39749.32
536.55	39363.13
536.72	39653.36
536.89	39552.71
537.06	40154.23
537.23	39922.52
537.40	39789.11
537.57	39789.11
537.74	40423.39
537.91	40128.48
538.08	40325.09
538.25	39882.73
538.42	40107.42
538.59	40381.26
538.75	40519.35
538.92	40657.45
539.09	40374.24
539.26	40664.47
539.43	40205.72
539.60	40851.71
539.77	40568.51
539.94	40973.42
540.11	41036.61
540.28	40758.09
540.44	40722.98
540.61	41038.95
540.78	41282.37
540.95	40914.90
541.12	40643.40
541.29	40858.73
541.46	41221.52
541.62	41420.46
541.79	41104.49
541.96	41088.10
542.13	41155.98
542.30	41151.30
542.47	41425.14
542.63	41443.87
542.80	41535.15
542.97	41750.48
543.14	42225.60
543.31	41612.38
543.48	41846.44
543.64	42504.13
543.81	41825.37
543.98	42239.65
544.15	42246.67
544.32	41684.94
544.48	42623.50
544.65	42396.46
544.82	42691.37
544.99	41956.44
545.16	42897.34
545.32	42256.03
545.49	42483.06
545.66	42733.50
545.83	42366.04
546.00	42462.00
546.16	42754.57
546.33	42139.00
546.50	42134.32
546.67	42724.14
546.83	42012.62
547.00	42766.27
547.17	42663.28
547.34	42593.07
547.50	42649.24
547.67	42782.65
547.84	42965.21
548.00	43283.53
548.17	43496.52
548.34	43391.19
548.51	43639.29
548.67	43356.08
548.84	42941.81
549.01	43524.60
549.18	43335.02
549.34	43288.21
549.51	43412.26
549.68	43718.87
549.84	43491.83
550.01	43285.87
550.18	43400.55
550.34	43845.26
550.51	43744.61
550.68	44158.89
550.84	43632.27
551.01	44182.29
551.18	43686.10
551.34	44128.46
551.51	43948.24
551.68	44210.38
551.84	43770.36
552.01	43606.52
552.18	44034.84
552.34	43894.41
552.51	44259.53
552.68	43929.51
552.84	43819.51
553.01	44093.35
553.18	44109.74
553.34	44311.02
553.51	44208.04
553.67	44364.85
553.84	44493.58
554.01	44392.94
554.17	44465.50
554.34	44404.64
554.51	44425.71
554.67	44751.04
554.84	44732.32
555.00	44484.22
555.17	44760.40
555.33	44980.42
555.50	44732.32
555.67	44814.24
555.83	44921.90
556.00	45319.79
556.16	45092.76
556.33	44954.67
556.50	45048.29
556.66	44818.92
556.83	44432.73
556.99	45223.83
557.16	45148.93
557.32	45118.51
557.49	45029.57
557.65	44594.23
557.82	44886.79
557.98	45059.99
558.15	45008.50
558.32	44942.97
558.48	44879.77
558.65	45296.39
558.81	45371.28
558.98	45226.17
559.14	45352.56
559.31	45125.53
559.47	45200.43
559.64	45343.20
559.80	45422.78
559.97	45778.54
560.13	45483.63
560.30	45471.93
560.46	45523.42
560.63	45921.31
560.79	45593.64
560.96	45811.31
561.12	45708.32
561.29	45621.72
561.45	45869.82
561.61	45661.51
561.78	45815.99
561.94	45811.31
562.11	45785.56
562.27	45741.09
562.44	45778.54
562.60	45902.59
562.77	45975.14
562.93	45738.75
563.10	46232.60
563.26	45577.25
563.42	46389.42
563.59	45963.44
563.75	46131.96
563.92	45834.71
564.08	46185.79
564.24	46101.53
564.41	46157.70
564.57	45963.44
564.74	46117.92
564.90	45848.75
565.07	46218.56
565.23	46293.46
565.39	45965.78
565.56	46358.99
565.72	46595.38
565.88	46225.58
566.05	46351.97
566.21	45839.39
566.38	46157.70
566.54	46452.61
566.70	46471.34
566.87	46288.77
567.03	46185.79
567.19	46766.24
567.36	46344.95
567.52	46232.60
567.68	46218.56
567.85	46763.90
568.01	46527.51
568.17	46340.27
568.34	46780.29
568.50	46934.76
568.66	46857.52
568.83	46763.90
568.99	46532.19
569.15	46880.93
569.32	46574.32
569.48	46295.80
569.64	46740.50
569.81	46117.92
569.97	46665.60
570.13	46564.96
570.30	46848.16
570.46	46548.57
570.62	46398.78
570.78	46754.54
570.95	46852.84
571.11	46906.68
571.27	46553.26
571.43	46763.90
571.60	46731.14
571.76	46726.46
571.92	46349.63
572.09	46609.43
572.25	46993.28
572.41	46705.39
572.57	47058.81
572.74	47028.38
572.90	46660.92
573.06	47019.02
573.22	46951.15
573.38	46969.87
573.55	46637.51
573.71	47412.23
573.87	47262.44
574.03	46934.76
574.20	47164.14
574.36	47063.49
574.52	47264.78
574.68	47145.41
574.84	46937.10
575.01	47327.97
575.17	47194.56
575.33	47075.19
575.49	46923.06
575.65	47311.59
575.82	47224.99
575.98	46885.61
576.14	47503.51
576.30	47117.32
576.46	47356.06
576.62	46658.58
576.79	47040.09
576.95	46602.41
577.11	46822.42
577.27	46990.94
577.43	47105.62
577.59	47030.72
577.75	46927.74
577.92	46974.55
578.08	47098.60
578.24	47117.32
578.40	47255.42
578.56	47070.51
578.72	46782.63
578.88	47356.06
579.04	47091.58
579.21	46876.25
579.37	46810.71
579.53	47487.13
579.69	46988.60
579.85	46941.78
580.01	47173.50
580.17	47143.07
580.33	47491.81
580.49	47243.71
580.65	47051.79
580.82	47206.26
580.98	47098.60
581.14	47072.85
581.30	47615.86
581.46	47330.31
581.62	47510.53
581.78	47037.75
581.94	47194.56
582.10	47119.66
582.26	47477.77
582.42	47489.47
582.58	47423.93
582.74	47372.44
582.90	47093.92
583.06	47388.83
583.22	47344.36
583.38	47569.05
583.54	47402.87
583.70	47676.71
583.86	47330.31
584.02	47086.90
584.18	47494.15
584.34	47398.19
584.50	47601.82
584.66	47529.26
584.82	47496.49
584.98	48016.09
585.14	47475.43
585.30	47229.67
585.46	47365.42
585.62	47318.61
585.78	47456.70
585.94	47164.14
586.10	47430.96
586.26	47419.25
586.42	47363.08
586.58	47538.62
586.74	47545.64
586.90	47351.38
587.06	46902.00
587.22	47868.64
587.38	47285.84
587.54	47707.14
587.70	47847.57
587.86	47540.96
588.02	47332.65
588.18	47267.12
588.34	47632.24
588.49	47625.22
588.65	47377.12
588.81	47430.96
588.97	47540.96
589.13	47866.30
589.29	47547.98
589.45	48142.48
589.61	47831.19
589.77	47887.36
589.93	47695.44
590.08	47562.03
