SpectraSuite Data File
++++++++++++++++++++++++++++++++++++
Date: Fri Oct 25 11:26:03 EDT 2013
User: price-jones
Dark Spectrum Present: No
Reference Spectrum Present: No
Number of Sampled Component Spectra: 1
Spectrometers: USB2+H05261
Integration Time (usec): 100000 (USB2+H05261)
Spectra Averaged: 1 (USB2+H05261)
Boxcar Smoothing: 0 (USB2+H05261)
Correct for Electrical Dark: No (USB2+H05261)
Strobe/Lamp Enabled: No (USB2+H05261)
Correct for Detector Non-linearity: No (USB2+H05261)
Correct for Stray Light: No (USB2+H05261)
Number of Pixels in Processed Spectrum: 2048
>>>>>Begin Processed Spectral Data<<<<<
365.73	264.48
365.92	264.48
366.12	264.48
366.32	156.82
366.52	70.22
366.72	168.52
366.91	140.43
367.11	163.84
367.31	220.01
367.51	177.88
367.70	238.73
367.90	156.82
368.10	170.86
368.30	88.94
368.49	110.01
368.69	170.86
368.89	102.98
369.09	208.31
369.28	229.37
369.48	175.54
369.68	194.26
369.87	236.39
370.07	241.08
370.27	271.50
370.47	290.23
370.66	610.88
370.86	669.39
371.06	526.62
371.25	739.61
371.45	676.41
371.65	758.33
371.84	629.60
372.04	786.42
372.24	748.97
372.44	774.72
372.63	697.48
372.83	774.72
373.03	800.46
373.22	636.63
373.42	763.01
373.62	793.44
373.81	772.38
374.01	784.08
374.21	793.44
374.40	833.23
374.60	823.87
374.79	779.40
374.99	849.61
375.19	812.17
375.38	767.70
375.58	919.83
375.78	814.51
375.97	931.53
376.17	919.83
376.37	837.91
376.56	912.81
376.76	774.72
376.95	924.51
377.15	873.02
377.35	884.72
377.54	994.73
377.74	910.47
377.93	868.34
378.13	858.98
378.33	903.45
378.52	931.53
378.72	945.58
378.91	1071.97
379.11	1039.20
379.31	922.17
379.50	971.32
379.70	999.41
379.89	1001.75
380.09	905.79
380.28	929.19
380.48	957.28
380.68	983.02
380.87	1032.18
381.07	1015.79
381.26	983.02
381.46	1006.43
381.65	1046.22
381.85	957.28
382.04	997.07
382.24	1036.86
382.43	1095.37
382.63	1086.01
382.83	1104.73
383.02	1137.50
383.22	1142.18
383.41	1062.60
383.61	1036.86
383.80	1109.41
384.00	1071.97
384.19	1060.26
384.39	1093.03
384.58	1210.06
384.78	1203.04
384.97	1142.18
385.17	1179.63
385.36	1123.46
385.56	1114.10
385.75	1207.72
385.95	1224.10
386.14	1181.97
386.34	1121.12
386.53	1179.63
386.72	1217.08
386.92	1149.20
387.11	1139.84
387.31	1198.35
387.50	1114.10
387.70	1256.87
387.89	1261.55
388.09	1294.32
388.28	1308.36
388.48	1308.36
388.67	1385.60
388.86	1226.44
389.06	1254.53
389.25	1301.34
389.45	1385.60
389.64	1284.95
389.84	1359.85
390.03	1329.42
390.22	1444.11
390.42	1441.77
390.61	1303.68
390.81	1299.00
391.00	1397.30
391.19	1441.77
391.39	1523.69
391.58	1446.45
391.78	1392.62
391.97	1554.12
392.16	1500.28
392.36	1500.28
392.55	1526.03
392.75	1516.67
392.94	1488.58
393.13	1481.56
393.33	1617.31
393.52	1570.50
393.71	1540.07
393.91	1710.93
394.10	1610.29
394.29	1647.74
394.49	1575.18
394.68	1687.53
394.88	1596.25
395.07	1633.69
395.26	1671.14
395.46	1636.03
395.65	1727.32
395.84	1645.40
396.04	1767.10
396.23	1668.80
396.42	1762.42
396.62	1799.87
396.81	1844.34
397.00	1724.97
397.19	1781.15
397.39	1809.23
397.58	1900.52
397.77	1827.96
397.97	1687.53
398.16	1874.77
398.35	1795.19
398.55	1842.00
398.74	1837.32
398.93	1921.58
399.12	1982.43
399.32	1881.79
399.51	1956.69
399.70	1928.60
399.90	1933.28
400.09	2033.93
400.28	2120.53
400.47	2043.29
400.67	2111.16
400.86	1973.07
401.05	2071.37
401.24	2062.01
401.44	2148.61
401.63	2129.89
401.82	2162.66
402.01	2120.53
402.21	2136.91
402.40	2174.36
402.59	2172.02
402.78	2272.66
402.97	2141.59
403.17	2202.44
403.36	2270.32
403.55	2223.51
403.74	2307.77
403.93	2338.20
404.13	2387.35
404.32	2457.56
404.51	2319.47
404.70	2466.92
404.89	2462.24
405.09	2495.01
405.28	2509.05
405.47	2345.22
405.66	2399.05
405.85	2450.54
406.05	2495.01
406.24	2495.01
406.43	2415.43
406.62	2553.52
406.81	2579.27
407.00	2640.12
407.20	2623.74
407.39	2651.83
407.58	2693.96
407.77	2710.34
407.96	2757.15
408.15	2736.09
408.34	2677.57
408.54	2806.30
408.73	2822.69
408.92	2825.03
409.11	2946.73
409.30	2906.95
409.49	2892.90
409.68	2869.50
409.87	3035.67
410.07	2972.48
410.26	3061.42
410.45	2956.10
410.64	2951.42
410.83	3201.85
411.02	3124.62
411.21	3143.34
411.40	3119.93
411.59	3262.71
411.78	3225.26
411.98	3236.96
412.17	3286.11
412.36	3288.45
412.55	3480.38
412.74	3316.54
412.93	3351.65
413.12	3421.86
413.31	3459.31
413.50	3447.61
413.69	3466.33
413.88	3688.68
414.07	3651.24
414.26	3531.87
414.45	3630.17
414.64	3770.60
414.83	3555.27
415.02	3595.06
415.22	3744.86
415.41	3868.91
415.60	3854.86
415.79	3822.09
415.98	3932.10
416.17	3988.27
416.36	3908.69
416.55	4049.13
416.74	4018.70
416.93	4009.34
417.12	4140.41
417.31	4063.17
417.50	4081.89
417.69	4198.92
417.88	4325.31
418.07	4301.90
418.26	4208.28
418.45	4332.33
418.64	4456.38
418.83	4344.03
419.02	4379.14
419.21	4477.44
419.39	4418.93
419.58	4423.61
419.77	4329.99
419.96	4489.15
420.15	4503.19
420.34	4592.13
420.53	4568.73
420.72	4624.90
420.91	4514.89
421.10	4774.69
421.29	4835.55
421.48	4755.97
421.67	4706.82
421.86	4699.80
422.05	4762.99
422.24	4837.89
422.43	4814.48
422.61	4786.40
422.80	4840.23
422.99	4917.47
423.18	4882.36
423.37	5093.01
423.56	4922.15
423.75	4816.82
423.94	4702.14
424.13	4564.04
424.32	4765.33
424.50	4954.91
424.69	4978.32
424.88	5100.03
425.07	5076.62
425.26	4973.64
425.45	5034.49
425.64	4961.94
425.83	4957.25
426.01	4994.70
426.20	5111.73
426.39	5186.63
426.58	5020.45
426.77	4987.68
426.96	5107.05
427.15	4971.30
427.33	5118.75
427.52	5095.35
427.71	5359.83
427.90	5039.17
428.09	5322.38
428.28	5530.69
428.46	5317.70
428.65	5310.68
428.84	5472.17
429.03	5657.07
429.22	5345.78
429.40	5390.25
429.59	5565.79
429.78	5392.59
429.97	5369.19
430.16	5446.43
430.34	5579.84
430.53	5593.88
430.72	5682.82
430.91	5664.10
431.10	5469.83
431.28	5753.04
431.47	5596.22
431.66	5942.62
431.85	5617.29
432.03	6057.31
432.22	5963.68
432.41	5895.81
432.60	6106.46
432.79	5989.43
432.97	5982.41
433.16	6061.99
433.35	6073.69
433.54	6176.67
433.72	6160.29
433.91	6073.69
434.10	6106.46
434.28	6071.35
434.47	6324.13
434.66	6171.99
434.85	6239.87
435.03	6317.11
435.22	6249.23
435.41	6532.44
435.59	6506.69
435.78	6366.26
435.97	6420.09
436.16	6396.68
436.34	6422.43
436.53	6555.84
436.72	6644.78
436.90	6483.28
437.09	6619.04
437.28	6487.96
437.46	6560.52
437.65	6614.35
437.84	6761.81
438.02	6595.63
438.21	6597.97
438.40	6703.29
438.58	7045.01
438.77	6895.22
438.96	6883.52
439.14	7150.34
439.33	7316.51
439.52	7295.45
439.70	7176.08
439.89	7185.44
440.08	7162.04
440.26	7302.47
440.45	7328.22
440.63	7557.59
440.82	7461.63
441.01	7756.54
441.19	7447.58
441.38	7534.18
441.57	7824.41
441.75	7744.83
441.94	8035.06
442.12	7880.58
442.31	7932.08
442.50	8044.42
442.68	8084.21
442.87	8182.51
443.05	8049.10
443.24	8067.83
443.43	8201.24
443.61	8093.57
443.80	8318.26
443.98	8128.68
444.17	8161.45
444.35	8187.19
444.54	8348.69
444.73	8477.42
444.91	8170.81
445.10	8409.54
445.28	8255.07
445.47	8182.51
445.65	8116.98
445.84	8526.57
446.02	8320.60
446.21	8561.68
446.39	8341.67
446.58	8538.27
446.77	8325.29
446.95	8102.93
447.14	8287.84
447.32	8538.27
447.51	8299.54
447.69	8446.99
447.88	8400.18
448.06	8393.16
448.25	8430.61
448.43	8390.82
448.62	8322.94
448.80	8439.97
448.99	8819.14
449.17	8840.20
449.36	8690.41
449.54	8758.28
449.73	9095.32
449.91	8837.86
450.10	8992.34
450.28	8980.64
450.46	9118.73
450.65	8915.10
450.83	8966.59
451.02	9076.60
451.20	9301.29
451.39	9020.42
451.57	9151.49
451.76	9048.51
451.94	9179.58
452.13	9172.56
452.31	9135.11
452.49	9123.41
452.68	9434.70
452.86	9242.78
453.05	9317.67
453.23	9486.19
453.42	9303.63
453.60	9469.81
453.78	9458.10
453.97	9282.56
454.15	9483.85
454.34	9486.19
454.52	9692.16
454.70	9441.72
454.89	9598.54
455.07	9640.67
455.26	9799.82
455.44	9813.87
455.62	9891.10
455.81	9699.18
455.99	9996.43
456.17	9933.23
456.36	10043.24
456.54	10148.56
456.73	10092.39
456.91	10354.53
457.09	10352.19
457.28	10457.51
457.46	10256.23
457.64	10408.36
457.83	10483.26
458.01	10272.61
458.19	10729.02
458.38	10434.11
458.56	10689.23
458.74	10771.15
458.93	10527.73
459.11	10780.51
459.29	10672.84
459.48	10771.15
459.66	10761.78
459.84	11052.01
460.03	11030.94
460.21	10960.73
460.39	10904.56
460.57	11236.91
460.76	11096.48
460.94	11101.16
461.12	10944.34
461.31	10916.26
461.49	11108.18
461.67	11166.70
461.85	11501.39
462.04	11375.00
462.22	11690.98
462.40	11482.67
462.59	11288.40
462.77	11339.90
462.95	11559.91
463.13	11480.33
463.32	11646.51
463.50	11716.72
463.68	11878.22
463.86	11833.75
464.05	11765.87
464.23	11625.44
464.41	12180.15
464.59	11674.59
464.78	12175.47
464.96	11896.94
465.14	11798.64
465.32	11922.69
465.50	12109.93
465.69	12407.18
465.87	12343.99
466.05	12189.51
466.23	11910.99
466.41	12114.61
466.60	12498.46
466.78	12072.48
466.96	12194.19
467.14	12053.76
467.32	12325.26
467.51	12320.58
467.69	12322.92
467.87	12524.21
468.05	12629.53
468.23	12533.57
468.41	12381.43
468.60	12552.29
468.78	12872.95
468.96	12540.59
469.14	12662.30
469.32	13018.06
469.50	12554.63
469.69	12985.29
469.87	12924.44
470.05	13352.76
470.23	13043.81
470.41	13104.66
470.59	13376.16
470.77	13221.69
470.95	13294.24
471.14	13483.83
471.32	13111.68
471.50	13621.92
471.68	13493.19
471.86	13598.51
472.04	13504.89
472.22	13961.30
472.40	13532.98
472.58	13605.53
472.77	13760.01
472.95	14237.48
473.13	14469.19
473.31	14185.99
473.49	14071.30
473.67	14115.77
473.85	14291.31
474.03	14443.45
474.21	14721.97
474.39	14663.46
474.57	14611.96
474.75	14654.09
474.93	14567.49
475.12	15091.77
475.30	15199.44
475.48	14789.85
475.66	15042.62
475.84	14913.89
476.02	15424.13
476.20	15508.39
476.38	15655.84
476.56	16023.31
476.74	16116.93
476.92	15873.51
477.10	15578.61
477.28	15967.13
477.46	16114.59
477.64	15901.60
477.82	16500.78
478.00	17050.80
478.18	16767.60
478.36	16893.99
478.54	16959.52
478.72	17184.21
478.90	17174.85
479.08	17542.32
479.26	17530.61
479.44	17439.33
479.62	17972.97
479.80	18054.89
479.98	18235.11
480.16	18387.25
480.34	18043.19
480.52	18340.44
480.70	18548.75
480.88	18459.81
481.06	18490.23
481.24	18743.01
481.41	19171.33
481.59	19405.38
481.77	19342.19
481.95	19459.21
482.13	19915.62
482.31	19653.48
482.49	20084.14
482.67	20205.84
482.85	20484.37
483.03	20563.95
483.21	20676.29
483.39	20847.15
483.57	20973.54
483.74	21233.34
483.92	21062.48
484.10	20798.00
484.28	22094.66
484.46	22204.66
484.64	22197.64
484.82	21888.69
485.00	22171.89
485.18	22513.61
485.35	22794.48
485.53	22773.41
485.71	23213.43
485.89	23243.86
486.07	23346.84
486.25	23529.41
486.43	23440.47
486.61	23742.39
486.78	24086.45
486.96	24374.34
487.14	24397.74
487.32	24730.10
487.50	24870.53
487.68	25032.03
487.85	25289.49
488.03	25366.73
488.21	25628.87
488.39	25731.85
488.57	26153.15
488.75	25991.65
488.92	26434.01
489.10	26560.40
489.28	26775.73
489.46	27115.11
489.64	27192.34
489.81	27632.36
489.99	27798.54
490.17	27824.29
490.35	28212.82
490.53	28063.02
490.70	28147.28
490.88	28121.54
491.06	28540.49
491.24	28737.10
491.41	29223.93
491.59	29205.20
491.77	28800.29
491.95	29846.51
492.13	29427.56
492.30	30099.29
492.48	29949.50
492.66	30141.42
492.84	30288.87
493.01	30810.81
493.19	30377.81
493.37	31138.49
493.54	31211.04
493.72	31440.42
493.90	31489.57
494.08	31608.93
494.25	31594.89
494.43	32032.57
494.61	31906.18
494.79	32596.64
494.96	32369.61
495.14	32821.33
495.32	33003.89
495.49	33008.58
495.67	33289.44
495.85	33460.30
496.02	33689.67
496.20	33848.83
496.38	34054.79
496.55	33935.43
496.73	34719.51
496.91	34653.97
497.09	35047.18
497.26	34668.02
497.44	34813.13
497.62	35171.23
497.79	35552.74
497.97	35580.82
498.14	36126.17
498.32	35978.72
498.50	35915.52
498.67	36280.64
498.85	36208.09
499.03	36416.40
499.20	36786.20
499.38	36725.35
499.56	36912.59
499.73	37029.62
499.91	37083.45
500.08	37397.08
500.26	37144.30
500.44	37436.87
500.61	37984.55
500.79	37642.84
500.97	37589.00
501.14	38227.97
501.32	38455.00
501.49	38293.50
501.67	38445.64
501.84	38735.87
502.02	38553.30
502.20	38829.49
502.37	39016.73
502.55	39498.88
502.72	39360.79
502.90	39505.90
503.07	39203.97
503.25	39859.32
503.43	39821.87
503.60	39899.11
503.78	39878.05
503.95	40151.89
504.13	40156.57
504.30	40769.79
504.48	40561.48
504.65	40891.50
504.83	40835.33
505.01	41083.42
505.18	41144.28
505.36	41296.41
505.53	41120.87
505.71	41486.00
505.88	41722.39
506.06	41558.55
506.23	41340.88
506.41	41532.81
506.58	41736.43
506.76	41701.32
506.93	42387.10
507.11	41996.23
507.28	42714.78
507.46	42422.21
507.63	42625.84
507.81	42997.98
507.98	42712.44
508.16	43491.83
508.33	43140.75
508.50	43353.74
508.68	43531.62
508.85	44112.08
509.03	43674.40
509.20	44011.43
509.38	44058.24
509.55	44301.66
509.73	44591.89
509.90	44619.97
510.08	44397.62
510.25	44870.41
510.42	44804.88
510.60	44687.85
510.77	44978.07
510.95	45560.87
511.12	44875.09
511.30	44837.64
511.47	45469.59
511.64	45340.86
511.82	45514.06
511.99	45624.06
512.17	45523.42
512.34	45640.45
512.51	46178.77
512.69	46576.66
512.86	45979.82
513.04	46506.44
513.21	46209.20
513.38	46714.75
513.56	46557.94
513.73	46733.48
513.90	46579.00
514.08	46630.49
514.25	47278.82
514.43	46909.02
514.60	47440.32
514.77	47288.18
514.95	47112.64
515.12	47248.39
515.29	47622.88
515.47	47665.01
515.64	47662.67
515.81	47782.04
515.99	48079.28
516.16	48339.08
516.33	47854.59
516.51	48692.50
516.68	48460.79
516.85	48013.75
517.03	48844.64
517.20	48561.44
517.37	48758.04
517.54	48425.68
517.72	48751.02
517.89	48971.03
518.06	49001.46
518.24	49184.02
518.41	49017.84
518.58	49097.42
518.75	49048.27
518.93	49977.46
519.10	49542.12
519.27	49507.01
519.45	49375.94
519.62	49394.67
519.79	49645.10
519.96	49996.18
520.14	49813.62
520.31	50038.31
520.48	50333.22
520.65	50321.52
520.83	50595.36
521.00	50937.08
521.17	50031.29
521.34	50394.07
521.52	50321.52
521.69	50586.00
521.86	50969.85
522.03	51035.38
522.20	51105.60
522.38	51119.64
522.55	51456.68
522.72	51185.18
522.89	51107.94
523.07	51557.32
523.24	51255.39
523.41	51400.50
523.58	51145.39
523.75	51660.30
523.92	51833.50
524.10	51807.76
524.27	51796.06
524.44	51721.16
524.61	51784.35
524.78	52128.41
524.96	51744.56
525.13	52198.63
525.30	52289.91
525.47	52528.64
525.64	52336.72
525.81	52545.03
525.98	52697.16
526.16	52411.62
526.33	52561.41
526.50	52743.97
526.67	52690.14
526.84	52800.15
527.01	52594.18
527.18	52807.17
527.36	52905.47
527.53	52975.69
527.70	53422.73
527.87	53120.80
528.04	53113.78
528.21	53352.51
528.38	53443.79
528.55	53301.02
528.72	53221.44
528.89	53270.59
529.07	53626.35
529.24	53183.99
529.41	53727.00
529.58	53609.97
529.75	53382.94
529.92	53741.04
530.09	53813.60
530.26	53829.98
530.43	54045.31
530.60	53614.65
530.77	53738.70
530.94	54148.29
531.11	54024.25
531.28	54057.01
531.46	54202.13
531.63	54307.45
531.80	53993.82
531.97	54302.77
532.14	54370.64
532.31	54365.96
532.48	54808.32
532.65	54291.07
532.82	54302.77
532.99	54494.69
533.16	54660.87
533.33	54717.04
533.50	54705.34
533.67	54798.96
533.84	54564.91
534.01	54532.14
534.18	55002.59
534.35	55011.95
534.52	54913.65
534.69	55086.85
534.86	54962.80
535.03	54939.39
535.20	54972.16
535.37	54827.05
535.54	55079.83
535.71	55309.20
535.88	55248.35
536.05	55433.25
536.22	55655.60
536.38	55529.21
536.55	55629.85
536.72	55348.99
536.89	55323.24
537.06	55519.85
537.23	55365.37
537.40	55608.79
537.57	55681.34
537.74	55599.43
537.91	55948.17
538.08	55704.75
538.25	55573.68
538.42	55887.31
538.59	56076.90
538.75	55835.82
538.92	55957.53
539.09	56142.43
539.26	55915.40
539.43	56224.35
539.60	56109.66
539.77	56175.20
539.94	56413.93
540.11	56264.14
540.28	56044.13
540.44	56278.18
540.61	56376.48
540.78	56128.39
540.95	56491.17
541.12	56332.01
541.29	56348.40
541.46	56324.99
541.62	56472.45
541.79	56530.96
541.96	56395.21
542.13	56477.13
542.30	56498.19
542.47	56800.12
542.63	56781.40
542.80	56999.07
542.97	57116.09
543.14	57088.01
543.31	57132.48
543.48	56914.81
543.64	57481.22
543.81	57279.93
543.98	57279.93
544.15	57230.78
544.32	57378.23
544.48	57605.26
544.65	57205.03
544.82	57247.16
544.99	57364.19
545.16	57443.77
545.32	57427.38
545.49	57696.55
545.66	57586.54
545.83	57593.56
546.00	57579.52
546.16	57565.48
546.33	57401.64
546.50	57338.44
546.67	57528.03
546.83	57401.64
547.00	57691.86
547.17	57565.48
547.34	57675.48
547.50	57790.17
547.67	57869.75
547.84	57928.26
548.00	57874.43
548.17	57944.64
548.34	58007.84
548.51	58255.93
548.67	57961.03
548.84	58017.20
549.01	57879.11
549.18	57839.32
549.34	58213.80
549.51	58024.22
549.68	58431.47
549.84	58225.51
550.01	58246.57
550.18	58035.92
550.34	58314.45
550.51	58216.14
550.68	58333.17
550.84	57996.13
551.01	58487.65
551.18	58487.65
551.34	58546.16
551.51	58609.35
551.68	58494.67
551.84	58475.94
552.01	58553.18
552.18	58567.23
552.34	58335.51
552.51	58656.17
552.68	58550.84
552.84	58670.21
553.01	58901.92
553.18	58745.11
553.34	58988.52
553.51	58684.25
553.67	58780.21
553.84	58944.05
554.01	58922.99
554.17	58944.05
554.34	58590.63
554.51	58951.07
554.67	58883.20
554.84	59042.35
555.00	59047.04
555.17	58759.15
555.33	58869.15
555.50	58960.44
555.67	59023.63
555.83	58892.56
556.00	58995.54
556.16	59238.96
556.33	59175.76
556.50	59147.68
556.66	59297.47
556.83	59044.69
556.99	59512.80
557.16	59299.81
557.32	59325.56
557.49	59498.76
557.65	59138.32
557.82	59304.49
557.98	59121.93
558.15	59180.45
558.32	59590.04
558.48	59367.69
558.65	59529.19
558.81	59323.22
558.98	59547.91
559.14	59400.46
559.31	59442.59
559.47	59510.46
559.64	59611.10
559.80	59451.95
559.97	59594.72
560.13	59512.80
560.30	59622.81
560.46	59533.87
560.63	59657.91
560.79	59920.05
560.96	59868.56
561.12	59817.07
561.29	59774.94
561.45	59784.30
561.61	59601.74
561.78	59693.02
561.94	59770.26
562.11	59889.63
562.27	59746.86
562.44	59807.71
562.60	59842.82
562.77	59845.16
562.93	59674.30
563.10	60058.15
563.26	59653.23
563.42	60259.43
563.59	59882.61
563.75	59913.03
563.92	59884.95
564.08	59969.21
564.24	59861.54
564.41	59852.18
564.57	60072.19
564.74	59952.82
564.90	60001.97
565.07	59999.63
565.23	60051.12
565.39	59868.56
565.56	60044.10
565.72	59983.25
565.88	59985.59
566.05	59908.35
566.21	60191.56
566.38	60156.45
566.54	59959.84
566.70	60491.15
566.87	60207.94
567.03	60137.72
567.19	60371.78
567.36	60135.38
567.52	60140.07
567.68	60514.55
567.85	60343.69
568.01	60406.89
568.17	60200.92
568.34	60418.59
568.50	60224.32
568.66	60329.65
568.83	60355.39
568.99	60243.05
569.15	60331.99
569.32	60240.71
569.48	60247.73
569.64	60451.36
569.81	60292.20
569.97	60259.43
570.13	60463.06
570.30	60303.90
570.46	60381.14
570.62	60310.92
570.78	60416.25
570.95	60322.63
571.11	60540.30
571.27	60296.88
571.43	60530.93
571.60	60533.28
571.76	60589.45
571.92	60257.09
572.09	60390.50
572.25	60313.26
572.41	60530.93
572.57	60453.70
572.74	60654.98
572.90	60355.39
573.06	60537.96
573.22	60425.61
573.38	60479.44
573.55	60610.51
573.71	60441.99
573.87	60573.06
574.03	60484.12
574.20	60788.39
574.36	60453.70
574.52	60509.87
574.68	60629.24
574.84	60645.62
575.01	60713.50
575.17	60760.31
575.33	60523.91
575.49	60514.55
575.65	60779.03
575.82	60554.34
575.98	60790.73
576.14	60825.84
576.30	60612.85
576.46	60453.70
576.62	60573.06
576.79	60662.00
576.95	60622.22
577.11	60699.45
577.27	60708.82
577.43	60690.09
577.59	60769.67
577.75	60645.62
577.92	60589.45
578.08	60598.81
578.24	60692.43
578.40	60917.12
578.56	60559.02
578.72	60926.49
578.88	60882.02
579.04	60896.06
579.21	60910.10
579.37	60800.10
579.53	60926.49
579.69	60512.21
579.85	60671.37
580.01	60732.22
580.17	60559.02
580.33	60793.07
580.49	61022.45
580.65	60741.58
580.82	60790.73
580.98	60809.46
581.14	60825.84
581.30	60825.84
581.46	60853.93
581.62	60741.58
581.78	60734.56
581.94	60769.67
582.10	60748.60
582.26	60645.62
582.42	60669.03
582.58	60802.44
582.74	60903.08
582.90	61003.72
583.06	60874.99
583.22	60718.18
583.38	60832.86
583.54	60767.33
583.70	60830.52
583.86	61139.47
584.02	60807.12
584.18	61013.08
584.34	61055.21
584.50	60832.86
584.66	60823.50
584.82	60652.64
584.98	60989.68
585.14	61052.87
585.30	60865.63
585.46	61020.11
585.62	60893.72
585.78	60891.38
585.94	60654.98
586.10	61029.47
586.26	60839.89
586.42	61155.86
586.58	60811.80
586.74	60896.06
586.90	61034.15
587.06	61066.92
587.22	61052.87
587.38	60977.98
587.54	61106.71
587.70	61305.65
587.86	60942.87
588.02	61073.94
588.18	61134.79
588.34	61020.11
588.49	60837.54
