SpectraSuite Data File
++++++++++++++++++++++++++++++++++++
Date: Fri Oct 25 11:25:36 EDT 2013
User: price-jones
Dark Spectrum Present: No
Reference Spectrum Present: No
Number of Sampled Component Spectra: 1
Spectrometers: USB2+H05261
Integration Time (usec): 100000 (USB2+H05261)
Spectra Averaged: 1 (USB2+H05261)
Boxcar Smoothing: 0 (USB2+H05261)
Correct for Electrical Dark: No (USB2+H05261)
Strobe/Lamp Enabled: No (USB2+H05261)
Correct for Detector Non-linearity: No (USB2+H05261)
Correct for Stray Light: No (USB2+H05261)
Number of Pixels in Processed Spectrum: 2048
>>>>>Begin Processed Spectral Data<<<<<
365.73	245.76
365.92	245.76
366.12	245.76
366.32	231.71
366.52	91.28
366.72	175.54
366.91	91.28
367.11	142.77
367.31	154.48
367.51	198.95
367.70	117.03
367.90	147.45
368.10	100.64
368.30	114.69
368.49	98.30
368.69	126.39
368.89	124.05
369.09	168.52
369.28	177.88
369.48	205.97
369.68	220.01
369.87	241.08
370.07	161.50
370.27	220.01
370.47	285.55
370.66	528.96
370.86	613.22
371.06	613.22
371.25	624.92
371.45	709.18
371.65	634.29
371.84	676.41
372.04	664.71
372.24	664.71
372.44	690.46
372.63	744.29
372.83	770.04
373.03	716.20
373.22	734.93
373.42	828.55
373.62	798.12
373.81	786.42
374.01	760.67
374.21	765.36
374.40	826.21
374.60	823.87
374.79	755.99
374.99	823.87
375.19	842.59
375.38	868.34
375.58	858.98
375.78	873.02
375.97	889.40
376.17	936.21
376.37	854.30
376.56	812.17
376.76	856.64
376.95	882.38
377.15	882.38
377.35	882.38
377.54	917.49
377.74	933.87
377.93	950.26
378.13	950.26
378.33	938.55
378.52	926.85
378.72	940.90
378.91	971.32
379.11	936.21
379.31	971.32
379.50	908.13
379.70	873.02
379.89	966.64
380.09	964.30
380.28	968.98
380.48	919.83
380.68	994.73
380.87	1006.43
381.07	950.26
381.26	1055.58
381.46	1006.43
381.65	1020.47
381.85	1034.52
382.04	973.66
382.24	1008.77
382.43	1006.43
382.63	1078.99
382.83	1004.09
383.02	978.34
383.22	1043.88
383.41	1102.39
383.61	1121.12
383.80	1121.12
384.00	1200.69
384.19	1226.44
384.39	1088.35
384.58	1102.39
384.78	1064.94
384.97	1090.69
385.17	1093.03
385.36	1121.12
385.56	1196.01
385.75	1142.18
385.95	1188.99
386.14	1217.08
386.34	1181.97
386.53	1200.69
386.72	1266.23
386.92	1259.21
387.11	1210.06
387.31	1226.44
387.50	1196.01
387.70	1221.76
387.89	1203.04
388.09	1284.95
388.28	1275.59
388.48	1247.51
388.67	1308.36
388.86	1291.98
389.06	1341.13
389.25	1338.79
389.45	1336.45
389.64	1315.38
389.84	1420.71
390.03	1348.15
390.22	1336.45
390.42	1359.85
390.61	1362.19
390.81	1434.75
391.00	1420.71
391.19	1430.07
391.39	1458.15
391.58	1394.96
391.78	1458.15
391.97	1542.41
392.16	1568.16
392.36	1509.65
392.55	1631.35
392.75	1481.56
392.94	1521.35
393.13	1502.62
393.33	1563.48
393.52	1530.71
393.71	1568.16
393.91	1612.63
394.10	1607.95
394.29	1636.03
394.49	1607.95
394.68	1685.19
394.88	1722.63
395.07	1598.59
395.26	1636.03
395.46	1619.65
395.65	1657.10
395.84	1699.23
396.04	1769.44
396.23	1757.74
396.42	1696.89
396.62	1699.23
396.81	1809.23
397.00	1781.15
397.19	1813.92
397.39	1769.44
397.58	1942.64
397.77	1802.21
397.97	1825.62
398.16	1870.09
398.35	1926.26
398.55	1863.07
398.74	1954.35
398.93	1966.05
399.12	1849.02
399.32	1937.96
399.51	1966.05
399.70	1966.05
399.90	1849.02
400.09	1888.81
400.28	2001.16
400.47	2080.74
400.67	2003.50
400.86	2029.24
401.05	2092.44
401.24	2059.67
401.44	2047.97
401.63	2195.42
401.82	2122.87
402.01	2078.40
402.21	2148.61
402.40	2136.91
402.59	2146.27
402.78	2150.95
402.97	2179.04
403.17	2265.64
403.36	2253.94
403.55	2335.85
403.74	2253.94
403.93	2354.58
404.13	2359.26
404.32	2293.72
404.51	2361.60
404.70	2363.94
404.89	2438.84
405.09	2328.83
405.28	2410.75
405.47	2431.82
405.66	2448.20
405.85	2495.01
406.05	2415.43
406.24	2504.37
406.43	2626.08
406.62	2590.97
406.81	2630.76
407.00	2544.16
407.20	2509.05
407.39	2532.46
407.58	2597.99
407.77	2810.98
407.96	2693.96
408.15	2745.45
408.34	2686.94
408.54	2761.83
408.73	2789.92
408.92	2801.62
409.11	2876.52
409.30	2799.28
409.49	2923.33
409.68	2913.97
409.87	2869.50
410.07	2958.44
410.26	3042.70
410.45	2925.67
410.64	3047.38
410.83	3009.93
411.02	2963.12
411.21	3108.23
411.40	3049.72
411.59	3246.32
411.78	3208.87
411.98	3307.18
412.17	3176.11
412.36	3344.63
412.55	3398.46
412.74	3438.25
412.93	3442.93
413.12	3276.75
413.31	3569.32
413.50	3316.54
413.69	3471.01
413.88	3534.21
414.07	3475.70
414.26	3590.38
414.45	3569.32
414.64	3702.73
414.83	3756.56
415.02	3674.64
415.22	3695.71
415.41	3749.54
415.60	3758.90
415.79	3861.88
415.98	3978.91
416.17	4011.68
416.36	3887.63
416.55	4028.06
416.74	4072.53
416.93	3997.64
417.12	4044.45
417.31	4198.92
417.50	4133.39
417.69	4355.74
417.88	4203.60
418.07	4245.73
418.26	4102.96
418.45	4283.18
418.64	4447.02
418.83	4337.01
419.02	4299.56
419.21	4390.84
419.39	4407.23
419.58	4470.42
419.77	4381.48
419.96	4531.28
420.15	4484.47
420.34	4578.09
420.53	4601.49
420.72	4676.39
420.91	4606.17
421.10	4760.65
421.29	4695.11
421.48	4603.83
421.67	4788.74
421.86	4755.97
422.05	4727.88
422.24	4767.67
422.43	4744.27
422.61	4807.46
422.80	4898.74
422.99	4851.93
423.18	5020.45
423.37	4952.57
423.56	4919.81
423.75	4870.65
423.94	4786.40
424.13	4451.70
424.32	4887.04
424.50	4856.61
424.69	5071.94
424.88	4966.62
425.07	4924.49
425.26	4905.76
425.45	5029.81
425.64	4873.00
425.83	4999.38
426.01	4975.98
426.20	5074.28
426.39	4990.02
426.58	5013.43
426.77	4994.70
426.96	5027.47
427.15	5090.67
427.33	5165.56
427.52	5228.76
427.71	5338.76
427.90	5263.86
428.09	5231.10
428.28	5270.89
428.46	5359.83
428.65	5160.88
428.84	5472.17
429.03	5411.32
429.22	5348.12
429.40	5418.34
429.59	5408.98
429.78	5296.63
429.97	5268.55
430.16	5465.15
430.34	5731.97
430.53	5621.97
430.72	5694.52
430.91	5521.32
431.10	5427.70
431.28	5624.31
431.47	5837.30
431.66	5841.98
431.85	5771.76
432.03	5956.66
432.22	6052.63
432.41	5902.83
432.60	5923.90
432.79	5954.32
432.97	5961.34
433.16	5959.00
433.35	6052.63
433.54	6094.76
433.72	6045.60
433.91	6031.56
434.10	6104.12
434.28	6118.16
434.47	6176.67
434.66	6179.01
434.85	6296.04
435.03	6286.68
435.22	6263.27
435.41	6590.95
435.59	6352.21
435.78	6310.08
435.97	6413.07
436.16	6532.44
436.34	6349.87
436.53	6619.04
436.72	6595.63
436.90	6471.58
437.09	6677.55
437.28	6548.82
437.46	6562.86
437.65	6588.61
437.84	6623.72
438.02	6731.38
438.21	6864.79
438.40	6555.84
438.58	6977.14
438.77	6972.46
438.96	6843.73
439.14	6995.86
439.33	7061.40
439.52	7208.85
439.70	7131.61
439.89	7377.37
440.08	7470.99
440.26	7288.43
440.45	7370.35
440.63	7492.05
440.82	7506.10
441.01	7527.16
441.19	7658.23
441.38	7751.85
441.57	7585.68
441.75	7672.28
441.94	7925.05
442.12	7925.05
442.31	7889.95
442.50	7971.86
442.68	7831.43
442.87	8006.97
443.05	8124.00
443.24	8138.04
443.43	8053.78
443.61	7999.95
443.80	8245.71
443.98	8175.49
444.17	7843.14
444.35	8170.81
444.54	8250.39
444.73	8322.94
444.91	8283.16
445.10	8449.33
445.28	8348.69
445.47	8465.72
445.65	8248.05
445.84	8229.32
446.02	8358.05
446.21	8489.12
446.39	8306.56
446.58	8341.67
446.77	8313.58
446.95	8351.03
447.14	8638.92
447.32	8573.38
447.51	8486.78
447.69	8449.33
447.88	8507.85
448.06	8531.25
448.25	8463.38
448.43	8589.77
448.62	8566.36
448.80	8325.29
448.99	8547.64
449.17	8596.79
449.36	8664.66
449.54	9050.85
449.73	8952.55
449.91	8954.89
450.10	8978.30
450.28	9118.73
450.46	8943.19
450.65	8992.34
450.83	9039.15
451.02	9020.42
451.20	9334.06
451.39	9076.60
451.57	9135.11
451.76	8931.48
451.94	9118.73
452.13	9214.69
452.31	9348.10
452.49	9097.66
452.68	9385.55
452.86	9605.56
453.05	9633.64
453.23	9488.53
453.42	9256.82
453.60	9214.69
453.78	9453.42
453.97	9343.42
454.15	9245.12
454.34	9348.10
454.52	9699.18
454.70	9507.26
454.89	9673.43
455.07	9561.09
455.26	9640.67
455.44	9914.51
455.62	9692.16
455.81	9888.76
455.99	9827.91
456.17	9970.68
456.36	9982.38
456.54	10143.88
456.73	10120.48
456.91	10492.62
457.09	10253.89
457.28	10530.07
457.46	10249.21
457.64	10509.01
457.83	10537.09
458.01	10305.38
458.19	10712.63
458.38	10513.69
458.56	10630.71
458.74	10717.31
458.93	10672.84
459.11	10817.96
459.29	10672.84
459.48	10794.55
459.66	10740.72
459.84	10904.56
460.03	11030.94
460.21	11009.88
460.39	11005.20
460.57	10799.23
460.76	11042.65
460.94	11227.55
461.12	10951.37
461.31	11260.32
461.49	11007.54
461.67	11140.95
461.85	11419.47
462.04	11487.35
462.22	11796.30
462.40	11515.44
462.59	11351.60
462.77	11449.90
462.95	11559.91
463.13	11576.29
463.32	11562.25
463.50	11840.77
463.68	11688.64
463.86	11901.62
464.05	11800.98
464.23	11655.87
464.41	11866.52
464.59	11611.40
464.78	12004.61
464.96	12107.59
465.14	11749.49
465.32	11875.88
465.50	12023.33
465.69	12257.39
465.87	12180.15
466.05	12086.53
466.23	12231.64
466.41	12229.30
466.60	12348.67
466.78	12222.28
466.96	12112.27
467.14	12250.36
467.32	12219.94
467.51	12524.21
467.69	12121.63
467.87	12395.48
468.05	12554.63
468.23	12453.99
468.41	12517.18
468.60	12510.16
468.78	12840.18
468.96	12592.08
469.14	12767.62
469.32	12938.48
469.50	12596.76
469.69	12884.65
469.87	12978.27
470.05	13004.02
470.23	13240.41
470.41	13195.94
470.59	13118.70
470.77	13317.65
470.95	12994.65
471.14	13413.61
471.32	13029.76
471.50	13411.27
471.68	13500.21
471.86	13816.18
472.04	13694.47
472.22	13755.33
472.40	13717.88
472.58	13757.67
472.77	13769.37
472.95	14022.15
473.13	14487.92
473.31	14073.64
473.49	14099.39
473.67	14115.77
473.85	14345.14
474.03	14384.93
474.21	14553.45
474.39	14450.47
474.57	14731.33
474.75	14553.45
474.93	14895.17
475.12	14764.10
475.30	15049.64
475.48	14871.76
475.66	15059.01
475.84	15105.82
476.02	15321.15
476.20	15372.64
476.38	15480.30
476.56	16063.10
476.74	15875.85
476.92	15882.88
477.10	15763.51
477.28	16095.86
477.46	16212.89
477.64	16070.12
477.82	16269.06
478.00	16922.07
478.18	16748.87
478.36	16844.84
478.54	17064.85
478.72	17013.35
478.90	17378.48
479.08	17591.47
479.26	17460.40
479.44	17511.89
479.62	17762.33
479.80	18003.40
479.98	18054.89
480.16	18420.02
480.34	18001.06
480.52	18459.81
480.70	18640.03
480.88	18139.15
481.06	18553.43
481.24	18834.29
481.41	18860.04
481.59	19227.50
481.77	19400.70
481.95	19384.32
482.13	19431.13
482.31	19756.46
482.49	20013.92
482.67	19803.27
482.85	20154.35
483.03	20393.09
483.21	20233.93
483.39	20788.64
483.57	20613.10
483.74	21137.38
483.92	21130.36
484.10	21069.50
484.28	21589.10
484.46	21839.54
484.64	22089.98
484.82	22047.85
485.00	22029.12
485.18	22537.02
485.35	22747.67
485.53	22869.37
485.71	22855.33
485.89	23232.16
486.07	23171.30
486.25	23187.69
486.43	23260.24
486.61	23765.80
486.78	23630.05
486.96	23892.19
487.14	24304.12
487.32	24084.11
487.50	24788.61
487.68	24987.56
487.85	25301.19
488.03	25668.66
488.21	25415.88
488.39	25493.12
488.57	25652.27
488.75	26008.03
488.92	26632.96
489.10	26511.25
489.28	26333.37
489.46	26916.16
489.64	26937.23
489.81	27400.65
489.99	27410.01
490.17	27538.74
490.35	27889.82
490.53	27906.21
490.70	28067.70
490.88	28271.33
491.06	28606.03
491.24	28816.68
491.41	28594.32
491.59	29287.12
491.77	29303.51
491.95	29315.21
492.13	29736.51
492.30	29764.59
492.48	30122.69
492.66	30342.70
492.84	29851.19
493.01	30501.86
493.19	30574.42
493.37	31058.91
493.54	31079.97
493.72	31016.78
493.90	31494.25
494.08	31454.46
494.25	32027.89
494.43	32081.72
494.61	32121.51
494.79	32219.81
494.96	32336.84
495.14	32500.68
495.32	33062.41
495.49	33003.89
495.67	33057.73
495.85	33682.65
496.02	33497.75
496.20	33525.83
496.38	33652.22
496.55	34066.50
496.73	34703.12
496.91	34230.33
497.09	34525.24
497.26	35040.16
497.44	34742.91
497.62	35246.13
497.79	35660.40
497.97	35152.51
498.14	35662.74
498.32	36006.80
498.50	35988.08
498.67	36552.15
498.85	36561.51
499.03	36151.91
499.20	36566.19
499.38	36821.31
499.56	36776.84
499.73	36512.36
499.91	37046.00
500.08	37046.00
500.26	37312.82
500.44	37638.15
500.61	37991.58
500.79	37340.91
500.97	38106.26
501.14	38628.20
501.32	38256.06
501.49	38555.64
501.67	38593.09
501.84	38803.74
502.02	38724.16
502.20	38429.26
502.37	39288.23
502.55	39175.89
502.72	39154.82
502.90	39295.25
503.07	39370.15
503.25	39461.43
503.43	39449.73
503.60	39754.00
503.78	39964.65
503.95	39966.99
504.13	40238.49
504.30	40484.25
504.48	40123.80
504.65	40502.97
504.83	40980.44
505.01	41148.96
505.18	40982.78
505.36	41383.01
505.53	40950.01
505.71	41125.55
505.88	41546.85
506.06	41244.92
506.23	41778.56
506.41	41839.42
506.58	41619.41
506.76	41621.75
506.93	42373.06
507.11	42108.58
507.28	42487.74
507.46	41827.71
507.63	42667.97
507.81	43232.04
507.98	43028.41
508.16	43119.69
508.33	43072.88
508.50	42770.95
508.68	43323.32
508.85	44032.50
509.03	43728.23
509.20	44142.50
509.38	44275.91
509.55	44149.53
509.73	44245.49
509.90	44608.27
510.08	44184.63
510.25	44109.74
510.42	44177.61
510.60	44760.40
510.77	45052.97
510.95	45230.85
511.12	44804.88
511.30	44872.75
511.47	45326.81
511.64	44966.37
511.82	45382.99
511.99	45588.95
512.17	45862.80
512.34	45415.76
512.51	45895.56
512.69	46398.78
512.86	45904.93
513.04	46667.94
513.21	46342.61
513.38	46256.01
513.56	46621.13
513.73	46181.11
513.90	47021.36
514.08	46291.12
514.25	47084.56
514.43	46887.95
514.60	47072.85
514.77	47175.84
514.95	47409.89
515.12	47290.52
515.29	47533.94
515.47	47751.61
515.64	48037.16
515.81	47971.62
515.99	47824.17
516.16	48296.95
516.33	47835.87
516.51	48605.91
516.68	48140.14
516.85	48177.59
517.03	48882.09
517.20	48781.45
517.37	48868.05
517.54	48451.43
517.72	48685.48
517.89	48999.12
518.06	48924.22
518.24	48811.87
518.41	49315.09
518.58	48961.67
518.75	49071.67
518.93	49448.50
519.10	49301.04
519.27	49375.94
519.45	49282.32
519.62	49499.99
519.79	49909.58
519.96	49720.00
520.14	50010.23
520.31	49888.52
520.48	50401.10
520.65	50026.61
520.83	50192.79
521.00	50422.16
521.17	50017.25
521.34	50850.48
521.52	50653.87
521.69	50602.38
521.86	50569.61
522.03	51014.32
522.20	51129.00
522.38	51290.50
522.55	51159.43
522.72	51129.00
522.89	51243.69
523.07	51360.72
523.24	51311.56
523.41	51517.53
523.58	51264.75
523.75	51639.24
523.92	51587.75
524.10	51765.63
524.27	51760.95
524.44	51707.12
524.61	51849.89
524.78	51791.37
524.96	51910.74
525.13	51903.72
525.30	52287.57
525.47	52236.08
525.64	52460.77
525.81	52371.83
525.98	52322.68
526.16	52285.23
526.33	52474.81
526.50	52870.36
526.67	52659.71
526.84	52687.80
527.01	52814.19
527.18	52692.48
527.36	52601.20
527.53	53151.23
527.70	53174.63
527.87	53188.67
528.04	53055.26
528.21	53268.25
528.38	53158.25
528.55	53406.34
528.72	53148.88
528.89	53380.60
529.07	53310.38
529.24	53064.63
529.41	53574.86
529.58	53504.65
529.75	53537.41
529.92	53535.07
530.09	53818.28
530.26	53954.03
530.43	53762.11
530.60	53677.85
530.77	53670.82
530.94	54021.90
531.11	53710.61
531.28	53759.76
531.46	53925.94
531.63	54255.96
531.80	54120.21
531.97	54349.58
532.14	54361.28
532.31	54337.88
532.48	54468.95
532.65	54548.53
532.82	54405.75
532.99	54195.10
533.16	54543.84
533.33	54700.66
533.50	54894.92
533.67	54424.48
533.84	54433.84
534.01	54873.86
534.18	54674.91
534.35	54885.56
534.52	54639.81
534.69	54948.76
534.86	55070.46
535.03	54986.21
535.20	55173.45
535.37	55285.79
535.54	55374.73
535.71	55227.28
535.88	55173.45
536.05	55398.14
536.22	55456.65
536.38	55309.20
536.55	55426.23
536.72	55367.71
536.89	55281.11
537.06	55330.26
537.23	55669.64
537.40	55187.49
537.57	55533.89
537.74	55451.97
537.91	55849.86
538.08	55880.29
538.25	55522.19
538.42	55789.01
538.59	56062.85
538.75	55856.88
538.92	55852.20
539.09	55969.23
539.26	55838.16
539.43	55845.18
539.60	56009.02
539.77	55987.95
539.94	56226.69
540.11	56156.47
540.28	56175.20
540.44	56296.91
540.61	56299.25
540.78	56196.26
540.95	56203.28
541.12	56320.31
541.29	56282.86
541.46	56177.54
541.62	56420.95
541.79	56683.09
541.96	56261.80
542.13	56757.99
542.30	56472.45
542.47	56697.14
542.63	56755.65
542.80	56877.36
542.97	56875.02
543.14	57064.60
543.31	56907.79
543.48	57141.84
543.64	57446.11
543.81	57237.80
543.98	57151.20
544.15	57120.77
544.32	57317.38
544.48	57556.11
544.65	57209.71
544.82	57277.59
544.99	57183.97
545.16	57406.32
545.32	57263.55
545.49	57462.49
545.66	57677.82
545.83	57766.76
546.00	57649.74
546.16	57408.66
546.33	57436.75
546.50	57270.57
546.67	57614.63
546.83	57265.89
547.00	57748.04
547.17	57729.31
547.34	57553.77
547.50	57851.02
547.67	57869.75
547.84	57804.21
548.00	57956.35
548.17	58066.35
548.34	57703.57
548.51	58035.92
548.67	57986.77
548.84	57946.98
549.01	58082.73
549.18	58035.92
549.34	58220.83
549.51	58192.74
549.68	57975.07
549.84	58129.54
550.01	58426.79
550.18	58122.52
550.34	58398.71
550.51	58464.24
550.68	58206.78
550.84	57890.81
551.01	58445.52
551.18	58274.66
551.34	58262.96
551.51	58347.21
551.68	58244.23
551.84	58445.52
552.01	58269.98
552.18	58436.16
552.34	58262.96
552.51	58642.12
552.68	58539.14
552.84	58592.97
553.01	58616.38
553.18	58635.10
553.34	58733.40
553.51	58808.30
553.67	58487.65
553.84	58864.47
554.01	58735.74
554.17	58962.78
554.34	58735.74
554.51	58817.66
554.67	58995.54
554.84	58892.56
555.00	58827.02
555.17	58892.56
555.33	58838.73
555.50	58913.62
555.67	58878.52
555.83	58979.16
556.00	59068.10
556.16	59480.03
556.33	59297.47
556.50	59353.65
556.66	59341.94
556.83	58855.11
556.99	59334.92
557.16	59402.80
557.32	59400.46
557.49	59503.44
557.65	59096.19
557.82	59152.36
557.98	59262.36
558.15	59241.30
558.32	59487.06
558.48	59316.20
558.65	59400.46
558.81	59515.14
558.98	59332.58
559.14	59522.16
559.31	59437.90
559.47	59477.69
559.64	59526.84
559.80	59620.47
559.97	59730.47
560.13	59402.80
560.30	59664.94
560.46	59671.96
560.63	59498.76
560.79	59660.26
560.96	59756.22
561.12	59494.08
561.29	59650.89
561.45	59653.23
561.61	59805.37
561.78	59688.34
561.94	59796.01
562.11	59524.50
562.27	59732.81
562.44	59709.41
562.60	59952.82
562.77	59962.18
562.93	59674.30
563.10	59999.63
563.26	59866.22
563.42	59901.33
563.59	60151.77
563.75	59922.40
563.92	59922.40
564.08	59821.75
564.24	60079.21
564.41	59985.59
564.57	59934.10
564.74	59957.50
564.90	60100.28
565.07	59884.95
565.23	59924.74
565.39	60104.96
565.56	60217.30
565.72	60048.78
565.88	60046.44
566.05	59884.95
566.21	60016.02
566.38	59980.91
566.54	60229.01
566.70	60151.77
566.87	60278.16
567.03	59920.05
567.19	60350.71
567.36	59922.40
567.52	60231.35
567.68	60486.46
567.85	60142.41
568.01	60364.76
568.17	60214.96
568.34	60402.21
568.50	60385.82
568.66	60488.80
568.83	60334.33
568.99	60072.19
569.15	60404.55
569.32	60224.32
569.48	60170.49
569.64	60313.26
569.81	60488.80
569.97	60266.45
570.13	60444.33
570.30	60250.07
570.46	60299.22
570.62	60481.78
570.78	60453.70
570.95	60322.63
571.11	60589.45
571.27	60444.33
571.43	60334.33
571.60	60631.58
571.76	60523.91
571.92	60357.74
572.09	60514.55
572.25	60617.53
572.41	60552.00
572.57	60566.04
572.74	60617.53
572.90	60491.15
573.06	60610.51
573.22	60350.71
573.38	60596.47
573.55	60449.02
573.71	60736.90
573.87	60313.26
574.03	60210.28
574.20	60467.74
574.36	60434.97
574.52	60598.81
574.68	60552.00
574.84	60669.03
575.01	60638.60
575.17	60699.45
575.33	60409.23
575.49	60547.32
575.65	60694.77
575.82	60493.49
575.98	60687.75
576.14	60966.27
576.30	60594.13
576.46	60685.41
576.62	60666.69
576.79	60367.10
576.95	60605.83
577.11	60790.73
577.27	60776.69
577.43	60802.44
577.59	60601.15
577.75	60608.17
577.92	60411.57
578.08	60575.40
578.24	60722.86
578.40	60757.97
578.56	60769.67
578.72	60893.72
578.88	60994.36
579.04	60956.91
579.21	60704.13
579.37	60809.46
579.53	60877.33
579.69	60540.30
579.85	60392.84
580.01	60683.07
580.17	60615.19
580.33	60739.24
580.49	60945.21
580.65	60860.95
580.82	60811.80
580.98	60790.73
581.14	60528.59
581.30	60704.13
581.46	60802.44
581.62	60851.59
581.78	60851.59
581.94	60692.43
582.10	60846.91
582.26	60741.58
582.42	60680.73
582.58	60528.59
582.74	60535.62
582.90	60706.47
583.06	60746.26
583.22	60540.30
583.38	60846.91
583.54	60823.50
583.70	60753.29
583.86	60992.02
584.02	60776.69
584.18	61188.63
584.34	60870.31
584.50	60907.76
584.66	60884.36
584.82	60760.31
584.98	61090.32
585.14	60935.85
585.30	60867.97
585.46	61027.13
585.62	60748.60
585.78	61015.43
585.94	60687.75
586.10	60975.64
586.26	60877.33
586.42	61050.53
586.58	60968.61
586.74	60886.70
586.90	61048.19
587.06	60748.60
587.22	61055.21
587.38	61102.03
587.54	60989.68
587.70	61141.81
587.86	60919.46
588.02	60900.74
588.18	61055.21
588.34	60849.25
588.49	60914.78
