SpectraSuite Data File
++++++++++++++++++++++++++++++++++++
Date: Fri Oct 25 11:23:12 EDT 2013
User: price-jones
Dark Spectrum Present: No
Reference Spectrum Present: No
Number of Sampled Component Spectra: 1
Spectrometers: USB2+H05261
Integration Time (usec): 100000 (USB2+H05261)
Spectra Averaged: 1 (USB2+H05261)
Boxcar Smoothing: 0 (USB2+H05261)
Correct for Electrical Dark: No (USB2+H05261)
Strobe/Lamp Enabled: No (USB2+H05261)
Correct for Detector Non-linearity: No (USB2+H05261)
Correct for Stray Light: No (USB2+H05261)
Number of Pixels in Processed Spectrum: 2048
>>>>>Begin Processed Spectral Data<<<<<
365.73	220.01
365.92	220.01
366.12	220.01
366.32	166.18
366.52	131.07
366.72	131.07
366.91	98.30
367.11	156.82
367.31	117.03
367.51	72.56
367.70	72.56
367.90	126.39
368.10	58.51
368.30	117.03
368.49	100.64
368.69	58.51
368.89	86.60
369.09	124.05
369.28	142.77
369.48	163.84
369.68	121.71
369.87	154.48
370.07	187.24
370.27	238.73
370.47	341.72
370.66	589.82
370.86	620.24
371.06	664.71
371.25	699.82
371.45	653.01
371.65	660.03
371.84	669.39
372.04	702.16
372.24	751.31
372.44	758.33
372.63	746.63
372.83	716.20
373.03	669.39
373.22	669.39
373.42	739.61
373.62	779.40
373.81	837.91
374.01	873.02
374.21	791.10
374.40	812.17
374.60	866.00
374.79	800.46
374.99	882.38
375.19	788.76
375.38	791.10
375.58	854.30
375.78	805.14
375.97	849.61
376.17	912.81
376.37	821.53
376.56	936.21
376.76	884.72
376.95	880.04
377.15	891.74
377.35	868.34
377.54	884.72
377.74	898.77
377.93	919.83
378.13	910.47
378.33	957.28
378.52	905.79
378.72	908.13
378.91	898.77
379.11	994.73
379.31	915.15
379.50	931.53
379.70	957.28
379.89	1013.45
380.09	919.83
380.28	999.41
380.48	912.81
380.68	950.26
380.87	1008.77
381.07	990.05
381.26	1048.56
381.46	983.02
381.65	931.53
381.85	1008.77
382.04	1062.60
382.24	1069.62
382.43	1107.07
382.63	1153.88
382.83	1104.73
383.02	1081.33
383.22	997.07
383.41	1196.01
383.61	1121.12
383.80	1153.88
384.00	1102.39
384.19	1111.75
384.39	1041.54
384.58	1114.10
384.78	1156.22
384.97	1116.44
385.17	1214.74
385.36	1128.14
385.56	1132.82
385.75	1172.61
385.95	1226.44
386.14	1207.72
386.34	1198.35
386.53	1210.06
386.72	1224.10
386.92	1240.48
387.11	1299.00
387.31	1174.95
387.50	1212.40
387.70	1301.34
387.89	1247.51
388.09	1282.61
388.28	1240.48
388.48	1282.61
388.67	1315.38
388.86	1303.68
389.06	1228.78
389.25	1401.98
389.45	1320.06
389.64	1373.89
389.84	1486.24
390.03	1341.13
390.22	1423.05
390.42	1369.21
390.61	1401.98
390.81	1359.85
391.00	1392.62
391.19	1432.41
391.39	1526.03
391.58	1446.45
391.78	1460.49
391.97	1476.88
392.16	1378.58
392.36	1514.33
392.55	1500.28
392.75	1556.46
392.94	1413.68
393.13	1568.16
393.33	1549.43
393.52	1551.78
393.71	1607.95
393.91	1579.86
394.10	1493.26
394.29	1472.20
394.49	1593.90
394.68	1589.22
394.88	1624.33
395.07	1586.88
395.26	1638.38
395.46	1727.32
395.65	1694.55
395.84	1633.69
396.04	1823.28
396.23	1776.47
396.42	1694.55
396.62	1743.70
396.81	1825.62
397.00	1785.83
397.19	1781.15
397.39	1736.68
397.58	1879.45
397.77	1893.49
397.97	1952.01
398.16	1893.49
398.35	1863.07
398.55	1916.90
398.74	1937.96
398.93	1980.09
399.12	1898.17
399.32	1907.54
399.51	1970.73
399.70	1942.64
399.90	1994.14
400.09	2001.16
400.28	2150.95
400.47	2036.27
400.67	2033.93
400.86	2043.29
401.05	2064.35
401.24	2214.15
401.44	2134.57
401.63	2162.66
401.82	2097.12
402.01	2204.78
402.21	2176.70
402.40	2160.31
402.59	2202.44
402.78	2300.75
402.97	2239.89
403.17	2312.45
403.36	2319.47
403.55	2342.88
403.74	2469.27
403.93	2223.51
404.13	2307.77
404.32	2356.92
404.51	2413.09
404.70	2466.92
404.89	2436.50
405.09	2480.97
405.28	2464.58
405.47	2438.84
405.66	2483.31
405.85	2555.86
406.05	2443.52
406.24	2616.72
406.43	2562.89
406.62	2595.65
406.81	2729.06
407.00	2572.25
407.20	2670.55
407.39	2745.45
407.58	2651.83
407.77	2703.32
407.96	2684.59
408.15	2834.39
408.34	2869.50
408.54	2836.73
408.73	2841.41
408.92	2892.90
409.11	2839.07
409.30	2909.29
409.49	2937.37
409.68	2923.33
409.87	3014.61
410.07	3045.04
410.26	3007.59
410.45	3215.90
410.64	3023.97
410.83	3232.28
411.02	3030.99
411.21	3122.27
411.40	3239.30
411.59	3279.09
411.78	3136.32
411.98	3262.71
412.17	3239.30
412.36	3375.05
412.55	3405.48
412.74	3499.10
412.93	3382.07
413.12	3396.12
413.31	3515.48
413.50	3700.39
413.69	3541.23
413.88	3548.25
414.07	3552.93
414.26	3662.94
414.45	3669.96
414.64	3576.34
414.83	3892.31
415.02	3836.14
415.22	3810.39
415.41	3840.82
415.60	3908.69
415.79	4025.72
415.98	3983.59
416.17	4058.49
416.36	3974.23
416.55	3953.16
416.74	4077.21
416.93	4049.13
417.12	4297.22
417.31	4341.69
417.50	4177.86
417.69	4344.03
417.88	4353.40
418.07	4152.11
418.26	4428.29
418.45	4341.69
418.64	4535.96
418.83	4243.39
419.02	4561.70
419.21	4489.15
419.39	4601.49
419.58	4470.42
419.77	4531.28
419.96	4606.17
420.15	4734.90
420.34	4681.07
420.53	4617.88
420.72	4751.29
420.91	4772.35
421.10	4842.57
421.29	4809.80
421.48	4727.88
421.67	4753.63
421.86	4823.84
422.05	4788.74
422.24	4854.27
422.43	4847.25
422.61	4931.51
422.80	4971.30
422.99	5043.85
423.18	5032.15
423.37	5085.98
423.56	4985.34
423.75	5025.13
423.94	4901.08
424.13	4657.67
424.32	4798.10
424.50	5153.86
424.69	5336.42
424.88	5151.52
425.07	4964.28
425.26	4992.36
425.45	5053.22
425.64	5069.60
425.83	5048.54
426.01	5057.90
426.20	5043.85
426.39	5163.22
426.58	5100.03
426.77	5235.78
426.96	5245.14
427.15	5210.03
427.33	5114.07
427.52	5280.25
427.71	5413.66
427.90	5151.52
428.09	5303.65
428.28	5465.15
428.46	5392.59
428.65	5514.30
428.84	5495.58
429.03	5455.79
429.22	5507.28
429.40	5542.39
429.59	5467.49
429.78	5467.49
429.97	5334.08
430.16	5537.71
430.34	5717.93
430.53	5781.12
430.72	5746.02
430.91	5661.76
431.10	5731.97
431.28	5727.29
431.47	5914.53
431.66	5916.87
431.85	5816.23
432.03	5877.09
432.22	6092.41
432.41	5966.03
432.60	5987.09
432.79	6066.67
432.97	6099.44
433.16	5947.30
433.35	6069.01
433.54	6230.51
433.72	6317.11
433.91	6143.91
434.10	6143.91
434.28	6186.04
434.47	6125.18
434.66	6174.33
434.85	6443.49
435.03	6361.58
435.22	6331.15
435.41	6663.51
435.59	6565.20
435.78	6478.60
435.97	6483.28
436.16	6420.09
436.34	6593.29
436.53	6593.29
436.72	6626.06
436.90	6612.01
437.09	6586.27
437.28	6581.59
437.46	6684.57
437.65	6846.07
437.84	6738.40
438.02	6825.00
438.21	6881.18
438.40	6775.85
438.58	7119.91
438.77	7091.82
438.96	7054.37
439.14	7122.25
439.33	7073.10
439.52	7276.73
439.70	7265.02
439.89	7428.86
440.08	7426.52
440.26	7576.31
440.45	7541.21
440.63	7377.37
440.82	7683.98
441.01	7552.91
441.19	7803.35
441.38	7815.05
441.57	7873.56
441.75	7875.90
441.94	7969.52
442.12	8105.28
442.31	8259.75
442.50	7967.18
442.68	8002.29
442.87	8131.02
443.05	8224.64
443.24	8428.27
443.43	8210.60
443.61	8238.69
443.80	8449.33
443.98	7992.93
444.17	8009.31
444.35	8198.90
444.54	8456.36
444.73	8521.89
444.91	8470.40
445.10	8421.25
445.28	8351.03
445.47	8418.91
445.65	8557.00
445.84	8568.70
446.02	8451.67
446.21	8446.99
446.39	8503.17
446.58	8667.00
446.77	8489.12
446.95	8304.22
447.14	8432.95
447.32	8561.68
447.51	8538.27
447.69	8683.39
447.88	8617.85
448.06	8503.17
448.25	8627.21
448.43	8676.37
448.62	8655.30
448.80	8547.64
448.99	8793.39
449.17	8671.68
449.36	8659.98
449.54	8814.46
449.73	9090.64
449.91	9231.07
450.10	9064.89
450.28	9100.00
450.46	9212.35
450.65	9039.15
450.83	9228.73
451.02	9011.06
451.20	9280.22
451.39	9301.29
451.57	9465.13
451.76	9165.54
451.94	9198.31
452.13	9439.38
452.31	9397.25
452.49	9221.71
452.68	9533.00
452.86	9448.74
453.05	9626.62
453.23	9579.81
453.42	9469.81
453.60	9439.38
453.78	9586.83
453.97	9643.01
454.15	9666.41
454.34	9427.68
454.52	9799.82
454.70	9879.40
454.89	10076.01
455.07	9865.36
455.26	10066.64
455.44	10031.54
455.62	10045.58
455.81	10164.95
455.99	10078.35
456.17	10186.01
456.36	10043.24
456.54	10115.80
456.73	10085.37
456.91	10630.71
457.09	10593.26
457.28	10745.40
457.46	10497.30
457.64	10810.93
457.83	10745.40
458.01	10492.62
458.19	10745.40
458.38	10862.43
458.56	10729.02
458.74	10780.51
458.93	10733.70
459.11	10705.61
459.29	10789.87
459.48	10897.53
459.66	10930.30
459.84	11002.86
460.03	11147.97
460.21	11243.93
460.39	11159.67
460.57	11101.16
460.76	11428.84
460.94	11538.84
461.12	11255.64
461.31	11400.75
461.49	11070.73
461.67	11545.86
461.85	11609.06
462.04	11438.20
462.22	11538.84
462.40	11681.61
462.59	11613.74
462.77	11470.97
462.95	11836.09
463.13	11646.51
463.32	11686.29
463.50	11960.14
463.68	11976.52
463.86	11939.07
464.05	11634.80
464.23	11957.80
464.41	12121.63
464.59	11819.71
464.78	12404.84
464.96	12353.35
465.14	11660.55
465.32	12149.72
465.50	12238.66
465.69	12383.77
465.87	12224.62
466.05	12395.48
466.23	12189.51
466.41	12189.51
466.60	12652.94
466.78	12355.69
466.96	12226.96
467.14	12571.02
467.32	12442.29
467.51	12723.15
467.69	12519.53
467.87	12477.40
468.05	12711.45
468.23	12594.42
468.41	12453.99
468.60	12601.44
468.78	12886.99
468.96	12751.24
469.14	12650.60
469.32	13242.75
469.50	13057.85
469.69	13217.01
469.87	13193.60
470.05	13338.71
470.23	13380.84
470.41	13598.51
470.59	13837.25
470.77	13621.92
470.95	13256.79
471.14	13764.69
471.32	13521.27
471.50	13561.06
471.68	13481.49
471.86	13795.12
472.04	13982.36
472.22	14284.29
472.40	13877.04
472.58	13975.34
472.77	13923.85
472.95	14265.57
473.13	14586.22
473.31	14256.20
473.49	14265.57
473.67	14169.60
473.85	14410.68
474.03	14700.90
474.21	14792.19
474.39	14897.51
474.57	15035.60
474.75	15061.35
474.93	15304.76
475.12	15220.50
475.30	15260.29
475.48	15005.17
475.66	15358.60
475.84	15201.78
476.02	15506.05
476.20	15332.85
476.38	15882.88
476.56	16479.71
476.74	16142.67
476.92	16011.60
477.10	16009.26
477.28	16018.63
477.46	16187.14
477.64	16725.47
477.82	16664.61
478.00	17165.49
478.18	17008.67
478.36	17081.23
478.54	16996.97
478.72	17476.78
478.90	17741.26
479.08	17881.69
479.26	17834.88
479.44	17951.91
479.62	18050.21
479.80	18326.39
479.98	18270.22
480.16	18621.30
480.34	18534.70
480.52	18855.36
480.70	18930.25
480.88	19084.73
481.06	19030.90
481.24	18878.76
481.41	19180.69
481.59	19683.91
481.77	19826.68
481.95	19686.25
482.13	19988.18
482.31	20233.93
482.49	20493.73
482.67	20409.47
482.85	20615.44
483.03	20959.50
483.21	21104.61
483.39	20957.16
483.57	20793.32
483.74	21429.94
483.92	21710.81
484.10	21556.33
484.28	22101.68
484.46	22136.79
484.64	22991.08
484.82	22340.41
485.00	22450.42
485.18	22948.95
485.35	23229.82
485.53	22925.55
485.71	23283.65
485.89	23873.46
486.07	23454.51
486.25	23775.16
486.43	23838.36
486.61	24198.80
486.78	24308.80
486.96	24280.72
487.14	25008.62
487.32	24879.89
487.50	24975.86
487.68	25324.60
487.85	25530.56
488.03	26115.70
488.21	26040.80
488.39	26579.12
488.57	26155.49
488.75	26862.33
488.92	26733.60
489.10	26991.06
489.28	27124.47
489.46	27255.54
489.64	26850.63
489.81	27955.36
489.99	28091.11
490.17	27723.65
490.35	28393.04
490.53	28397.72
490.70	28641.14
490.88	28811.99
491.06	29242.65
491.24	29448.62
491.41	29263.72
491.59	29521.18
491.77	29773.95
491.95	29982.26
492.13	30572.08
492.30	30354.41
492.48	30328.66
492.66	30782.73
492.84	30761.66
493.01	30906.77
493.19	31208.70
493.37	31241.47
493.54	31232.11
493.72	31775.11
493.90	31894.48
494.08	31737.66
494.25	32456.21
494.43	32533.45
494.61	32701.96
494.79	32631.75
494.96	32914.95
495.14	33092.83
495.32	33422.85
495.49	33930.75
495.67	33207.52
495.85	33963.51
496.02	34054.79
496.20	34422.26
496.38	34555.67
496.55	34504.18
496.73	34810.79
496.91	35014.41
497.09	34806.11
497.26	35311.66
497.44	35407.62
497.62	35768.07
497.79	36467.89
497.97	35981.06
498.14	36177.66
498.32	36034.89
498.50	36524.06
498.67	37296.44
498.85	37153.66
499.03	37043.66
499.20	37329.20
499.38	37345.59
499.56	37638.15
499.73	37970.51
499.91	38136.69
500.08	38082.86
500.26	37750.50
500.44	38192.86
500.61	38384.79
500.79	38202.22
500.97	38567.35
501.14	39590.16
501.32	39115.03
501.49	38796.72
501.67	39250.78
501.84	39873.37
502.02	39484.84
502.20	39454.41
502.37	39821.87
502.55	39959.97
502.72	39728.25
502.90	39966.99
503.07	39784.43
503.25	39782.09
503.43	40002.10
503.60	40538.08
503.78	40872.78
503.95	40521.69
504.13	40563.82
504.30	41127.89
504.48	41071.72
504.65	41237.90
504.83	41563.23
505.01	41708.35
505.18	41439.18
505.36	41827.71
505.53	41895.59
505.71	41968.15
505.88	42445.62
506.06	42300.50
506.23	42176.45
506.41	42581.37
506.58	42466.68
506.76	43075.22
506.93	43042.45
507.11	42974.58
507.28	43028.41
507.46	43206.29
507.63	43550.35
507.81	43859.30
507.98	43405.23
508.16	43653.33
508.33	43704.82
508.50	43880.36
508.68	44203.36
508.85	44512.31
509.03	44203.36
509.20	44671.46
509.38	44514.65
509.55	44772.11
509.73	45352.56
509.90	45048.29
510.08	45022.54
510.25	44746.36
510.42	45247.24
510.60	45549.17
510.77	45935.35
510.95	45848.75
511.12	45387.67
511.30	45799.60
511.47	46183.45
511.64	45933.01
511.82	46211.54
511.99	46148.34
512.17	46122.60
512.34	46358.99
512.51	46897.31
512.69	46941.78
512.86	46707.73
513.04	47260.10
513.21	46859.87
513.38	47213.29
513.56	47587.77
513.73	47178.18
513.90	47730.54
514.08	47318.61
514.25	47627.56
514.43	47831.19
514.60	48058.22
514.77	47873.32
514.95	48336.74
515.12	48067.58
515.29	48334.40
515.47	48584.84
515.64	48413.98
515.81	48538.03
515.99	48886.77
516.16	48802.51
516.33	48493.56
516.51	49228.49
516.68	49357.22
516.85	49127.84
517.03	49394.67
517.20	49455.52
517.37	49088.06
517.54	49518.71
517.72	49333.81
517.89	49808.94
518.06	49448.50
518.24	49607.65
518.41	49909.58
518.58	49947.03
518.75	49495.31
518.93	50241.94
519.10	50089.80
519.27	50220.87
519.45	49986.82
519.62	50452.59
519.79	50232.58
519.96	50525.14
520.14	50445.57
520.31	50635.15
520.48	50719.41
520.65	50642.17
520.83	50859.84
521.00	50916.01
521.17	50901.97
521.34	50997.93
521.52	50976.87
521.69	51405.19
521.86	51543.28
522.03	51571.36
522.20	51803.08
522.38	52053.51
522.55	51646.26
522.72	51920.10
522.89	51945.85
523.07	51952.87
523.24	51632.22
523.41	52002.02
523.58	51901.38
523.75	52025.43
523.92	52168.20
524.10	52128.41
524.27	52327.36
524.44	52282.89
524.61	52353.10
524.78	52381.19
524.96	52856.32
525.13	52704.18
525.30	52804.83
525.47	52884.40
525.64	52596.52
525.81	53141.86
525.98	53057.60
526.16	52949.94
526.33	53404.00
526.50	53120.80
526.67	53162.93
526.84	53457.84
527.01	53483.58
527.18	53169.95
527.36	53043.56
527.53	53595.93
527.70	53741.04
527.87	53745.72
528.04	53551.46
528.21	53621.67
528.38	53619.33
528.55	54092.12
528.72	53858.07
528.89	53829.98
529.07	53829.98
529.24	53851.05
529.41	53925.94
529.58	54190.42
529.75	54061.69
529.92	54073.40
530.09	54134.25
530.26	54375.33
530.43	54396.39
530.60	54188.08
530.77	54227.87
530.94	54349.58
531.11	54401.07
531.28	54415.11
531.46	54672.57
531.63	54461.93
531.80	54227.87
531.97	54850.45
532.14	54878.54
532.31	54611.72
532.48	54878.54
532.65	55021.31
532.82	54906.63
532.99	54803.64
533.16	54904.29
533.33	55164.09
533.50	55309.20
533.67	55079.83
533.84	54791.94
534.01	55318.56
534.18	55175.79
534.35	55405.16
534.52	55227.28
534.69	55639.22
534.86	55325.58
535.03	55519.85
535.20	55664.96
535.37	55503.46
535.54	55681.34
535.71	55463.67
535.88	55643.90
536.05	55824.12
536.22	55957.53
536.38	55805.39
536.55	55873.27
536.72	55917.74
536.89	55969.23
537.06	55922.42
537.23	55964.55
537.40	56140.09
537.57	55987.95
537.74	56076.90
537.91	56395.21
538.08	56004.34
538.25	55976.25
538.42	55959.87
538.59	56537.98
538.75	56163.50
538.92	56357.76
539.09	56573.09
539.26	56573.09
539.43	56189.24
539.60	56577.77
539.77	56587.13
539.94	56690.12
540.11	56762.67
540.28	56605.86
540.44	56860.97
540.61	56790.76
540.78	56650.33
540.95	56762.67
541.12	56828.21
541.29	56580.11
541.46	56863.32
541.62	56772.03
541.79	57153.54
541.96	56697.14
542.13	56853.95
542.30	56825.87
542.47	57029.49
542.63	57123.11
542.80	57118.43
542.97	57471.85
543.14	57682.50
543.31	57497.60
543.48	57415.68
543.64	57609.95
543.81	57443.77
543.98	57801.87
544.15	57722.29
544.32	57797.19
544.48	57673.14
544.65	57687.18
544.82	57808.89
544.99	57633.35
545.16	57954.00
545.32	57621.65
545.49	57986.77
545.66	58115.50
545.83	58073.37
546.00	58106.14
546.16	57944.64
546.33	57844.00
546.50	57914.22
546.67	57965.71
546.83	57766.76
547.00	57932.94
547.17	58033.58
547.34	58213.80
547.50	58356.58
547.67	58450.20
547.84	58230.19
548.00	58365.94
548.17	58445.52
548.34	58251.25
548.51	58592.97
548.67	58522.76
548.84	58466.58
549.01	58164.65
549.18	58316.79
549.34	58649.14
549.51	58501.69
549.68	58691.27
549.84	58660.85
550.01	58670.21
550.18	58405.73
550.34	58885.54
550.51	58948.73
550.68	58887.88
550.84	58665.53
551.01	58838.73
551.18	58642.12
551.34	58810.64
551.51	58660.85
551.68	58773.19
551.84	58932.35
552.01	58761.49
552.18	59035.33
552.34	58801.28
552.51	58871.49
552.68	58787.24
552.84	58962.78
553.01	59171.08
553.18	58974.48
553.34	59147.68
553.51	58894.90
553.67	59063.42
553.84	59269.39
554.01	59255.34
554.17	59355.99
554.34	58798.94
554.51	59126.61
554.67	59480.03
554.84	59245.98
555.00	59515.14
555.17	59274.07
555.33	59395.77
555.50	59105.55
555.67	59274.07
555.83	59196.83
556.00	59306.83
556.16	59634.51
556.33	59643.87
556.50	59646.21
556.66	59760.90
556.83	59416.84
556.99	59601.74
557.16	59826.43
557.32	59945.80
557.49	60004.31
557.65	59348.96
557.82	59657.91
557.98	59573.66
558.15	59859.20
558.32	59728.13
558.48	59547.91
558.65	59784.30
558.81	59854.52
558.98	59812.39
559.14	59821.75
559.31	59971.55
559.47	60016.02
559.64	59952.82
559.80	59859.20
559.97	59985.59
560.13	59821.75
560.30	59908.35
560.46	59931.76
560.63	60023.04
560.79	59973.89
560.96	60217.30
561.12	60278.16
561.29	60231.35
561.45	60069.85
561.61	60020.70
561.78	60032.40
561.94	60128.36
562.11	59997.29
562.27	60240.71
562.44	60200.92
562.60	60334.33
562.77	60198.58
562.93	60149.43
563.10	60266.45
563.26	60207.94
563.42	60317.95
563.59	60296.88
563.75	60107.30
563.92	60390.50
564.08	60507.53
564.24	60343.69
564.41	60463.06
564.57	60427.95
564.74	60561.36
564.90	60245.39
565.07	60250.07
565.23	60640.94
565.39	60495.83
565.56	60488.80
565.72	60537.96
565.88	60367.10
566.05	60441.99
566.21	60500.51
566.38	60664.35
566.54	60594.13
566.70	60568.38
566.87	60722.86
567.03	60420.93
567.19	60711.16
567.36	60685.41
567.52	60582.43
567.68	60853.93
567.85	60706.47
568.01	60554.34
568.17	60603.49
568.34	60720.52
568.50	60718.18
568.66	60662.00
568.83	60624.56
568.99	60561.36
569.15	60580.09
569.32	60851.59
569.48	60671.37
569.64	60732.22
569.81	60643.28
569.97	60701.79
570.13	60636.26
570.30	60676.05
570.46	60769.67
570.62	60844.57
570.78	60746.26
570.95	60856.27
571.11	60734.56
571.27	60514.55
571.43	60811.80
571.60	60879.67
571.76	60889.04
571.92	60884.36
572.09	60926.49
572.25	60687.75
572.41	60837.54
572.57	60795.42
572.74	61240.12
572.90	60757.97
573.06	60856.27
573.22	60687.75
573.38	60910.10
573.55	61027.13
573.71	61064.58
573.87	60818.82
574.03	60823.50
574.20	60994.36
574.36	60853.93
574.52	60919.46
574.68	61008.40
574.84	61193.31
575.01	61001.38
575.17	61160.54
575.33	60982.66
575.49	60760.31
575.65	60973.30
575.82	61048.19
575.98	60961.59
576.14	61226.07
576.30	60989.68
576.46	61076.28
576.62	60921.80
576.79	61186.28
576.95	60900.74
577.11	60914.78
577.27	61048.19
577.43	60982.66
577.59	61029.47
577.75	60683.07
577.92	61043.51
578.08	61041.17
578.24	60975.64
578.40	61347.78
578.56	61148.84
578.72	61113.73
578.88	61197.99
579.04	61233.10
579.21	61312.67
579.37	61167.56
579.53	61282.25
579.69	60828.18
579.85	61090.32
580.01	61069.26
580.17	61076.28
580.33	61183.94
580.49	61190.97
580.65	61174.58
580.82	61027.13
580.98	61036.49
581.14	60853.93
581.30	61219.05
581.46	61076.28
581.62	61160.54
581.78	61017.77
581.94	61392.25
582.10	61230.75
582.26	60882.02
582.42	61085.64
582.58	61230.75
582.74	61153.52
582.90	61256.50
583.06	61247.14
583.22	61066.92
583.38	61223.73
583.54	61293.95
583.70	61111.39
583.86	61256.50
584.02	61146.50
584.18	61247.14
584.34	61197.99
584.50	61202.67
584.66	61038.83
584.82	61104.37
584.98	61378.21
585.14	61338.42
585.30	61041.17
585.46	61375.87
585.62	61467.15
585.78	61481.19
585.94	61036.49
586.10	61188.63
586.26	61340.76
586.42	61464.81
586.58	61242.46
586.74	61315.01
586.90	61326.72
587.06	61237.78
587.22	61380.55
587.38	61333.74
587.54	61469.49
587.70	61481.19
587.86	61181.60
588.02	61396.93
588.18	61448.42
588.34	61226.07
588.49	61261.18
