SpectraSuite Data File
++++++++++++++++++++++++++++++++++++
Date: Fri Oct 25 10:47:20 EDT 2013
User: price-jones
Dark Spectrum Present: No
Reference Spectrum Present: No
Number of Sampled Component Spectra: 1
Spectrometers: USB2+H05261
Integration Time (usec): 100000 (USB2+H05261)
Spectra Averaged: 1 (USB2+H05261)
Boxcar Smoothing: 0 (USB2+H05261)
Correct for Electrical Dark: No (USB2+H05261)
Strobe/Lamp Enabled: No (USB2+H05261)
Correct for Detector Non-linearity: No (USB2+H05261)
Correct for Stray Light: No (USB2+H05261)
Number of Pixels in Processed Spectrum: 2048
>>>>>Begin Processed Spectral Data<<<<<
365.73	121.71
365.92	121.71
366.12	121.71
366.32	35.11
366.52	60.85
366.72	67.88
366.91	28.09
367.11	0.00
367.31	23.41
367.51	16.38
367.70	28.09
367.90	65.54
368.10	18.72
368.30	28.09
368.49	49.15
368.69	72.56
368.89	18.72
369.09	81.92
369.28	30.43
369.48	44.47
369.68	105.32
369.87	70.22
370.07	140.43
370.27	135.75
370.47	163.84
370.66	360.44
370.86	404.91
371.06	407.25
371.25	461.09
371.45	374.49
371.65	472.79
371.84	414.27
372.04	376.83
372.24	500.87
372.44	512.58
372.63	435.34
372.83	503.22
373.03	458.74
373.22	500.87
373.42	528.96
373.62	521.94
373.81	458.74
374.01	631.94
374.21	524.28
374.40	498.53
374.60	538.32
374.79	519.60
374.99	547.69
375.19	582.79
375.38	547.69
375.58	550.03
375.78	622.58
375.97	465.77
376.17	550.03
376.37	627.26
376.56	550.03
376.76	578.11
376.95	550.03
377.15	559.39
377.35	601.52
377.54	594.50
377.74	613.22
377.93	559.39
378.13	578.11
378.33	648.33
378.52	613.22
378.72	592.16
378.91	594.50
379.11	664.71
379.31	582.79
379.50	641.31
379.70	681.10
379.89	657.69
380.09	641.31
380.28	624.92
380.48	561.73
380.68	613.22
380.87	564.07
381.07	706.84
381.26	650.67
381.46	674.07
381.65	695.14
381.85	695.14
382.04	599.18
382.24	723.23
382.43	627.26
382.63	667.05
382.83	678.76
383.02	716.20
383.22	746.63
383.41	770.04
383.61	716.20
383.80	706.84
384.00	746.63
384.19	748.97
384.39	711.52
384.58	660.03
384.78	777.06
384.97	758.33
385.17	800.46
385.36	725.57
385.56	760.67
385.75	814.51
385.95	713.86
386.14	758.33
386.34	786.42
386.53	858.98
386.72	877.70
386.92	739.61
387.11	830.89
387.31	849.61
387.50	812.17
387.70	753.65
387.89	774.72
388.09	814.51
388.28	755.99
388.48	828.55
388.67	786.42
388.86	858.98
389.06	873.02
389.25	849.61
389.45	903.45
389.64	826.21
389.84	957.28
390.03	882.38
390.22	933.87
390.42	819.19
390.61	896.43
390.81	851.96
391.00	915.15
391.19	1013.45
391.39	940.90
391.58	952.60
391.78	840.25
391.97	917.49
392.16	861.32
392.36	950.26
392.55	924.51
392.75	947.92
392.94	957.28
393.13	950.26
393.33	922.17
393.52	1032.18
393.71	1081.33
393.91	1064.94
394.10	1013.45
394.29	1142.18
394.49	1053.24
394.68	1083.67
394.88	1071.97
395.07	1053.24
395.26	1043.88
395.46	1057.92
395.65	1200.69
395.84	1086.01
396.04	1100.05
396.23	1027.50
396.42	1118.78
396.62	1170.27
396.81	1132.82
397.00	1142.18
397.19	1107.07
397.39	1167.93
397.58	1191.33
397.77	1128.14
397.97	1198.35
398.16	1214.74
398.35	1261.55
398.55	1226.44
398.74	1259.21
398.93	1296.66
399.12	1315.38
399.32	1280.27
399.51	1214.74
399.70	1277.93
399.90	1291.98
400.09	1359.85
400.28	1315.38
400.47	1308.36
400.67	1401.98
400.86	1401.98
401.05	1446.45
401.24	1474.54
401.44	1350.49
401.63	1469.86
401.82	1460.49
402.01	1427.73
402.21	1430.07
402.40	1427.73
402.59	1488.58
402.78	1521.35
402.97	1519.01
403.17	1514.33
403.36	1528.37
403.55	1610.29
403.74	1514.33
403.93	1544.75
404.13	1572.84
404.32	1612.63
404.51	1668.80
404.70	1687.53
404.89	1577.52
405.09	1741.36
405.28	1685.19
405.47	1668.80
405.66	1682.85
405.85	1710.93
406.05	1636.03
406.24	1724.97
406.43	1802.21
406.62	1701.57
406.81	1774.13
407.00	1767.10
407.20	1827.96
407.39	1806.89
407.58	1858.39
407.77	1872.43
407.96	1870.09
408.15	1827.96
408.34	1844.34
408.54	1926.26
408.73	1926.26
408.92	1872.43
409.11	1947.33
409.30	1907.54
409.49	1935.62
409.68	2015.20
409.87	1959.03
410.07	1909.88
410.26	2064.35
410.45	2202.44
410.64	2085.42
410.83	2223.51
411.02	2197.76
411.21	2155.63
411.40	2197.76
411.59	2230.53
411.78	2249.25
411.98	2293.72
412.17	2235.21
412.36	2249.25
412.55	2347.56
412.74	2298.41
412.93	2342.88
413.12	2366.28
413.31	2366.28
413.50	2487.99
413.69	2377.98
413.88	2509.05
414.07	2497.35
414.26	2392.03
414.45	2586.29
414.64	2469.27
414.83	2658.85
415.02	2633.10
415.22	2717.36
415.41	2616.72
415.60	2729.06
415.79	2642.46
415.98	2672.89
416.17	2729.06
416.36	2661.19
416.55	2874.18
416.74	2710.34
416.93	2836.73
417.12	2871.84
417.31	2977.16
417.50	2796.94
417.69	2979.50
417.88	2963.12
418.07	2855.45
418.26	2998.23
418.45	3141.00
418.64	3056.74
418.83	3035.67
419.02	3115.25
419.21	3063.76
419.39	3115.25
419.58	3293.13
419.77	3082.49
419.96	3075.46
420.15	3192.49
420.34	3115.25
420.53	3262.71
420.72	3243.98
420.91	3288.45
421.10	3335.26
421.29	3365.69
421.48	3213.56
421.67	3281.43
421.86	3304.84
422.05	3293.13
422.24	3253.34
422.43	3384.41
422.61	3499.10
422.80	3529.53
422.99	3389.10
423.18	3365.69
423.37	3283.77
423.56	3527.19
423.75	3405.48
423.94	3442.93
424.13	3126.96
424.32	3279.09
424.50	3431.23
424.69	3571.66
424.88	3548.25
425.07	3407.82
425.26	3433.57
425.45	3522.51
425.64	3473.36
425.83	3466.33
426.01	3471.01
426.20	3461.65
426.39	3473.36
426.58	3527.19
426.77	3417.18
426.96	3482.72
427.15	3611.45
427.33	3466.33
427.52	3524.85
427.71	3571.66
427.90	3658.26
428.09	3702.73
428.28	3574.00
428.46	3613.79
428.65	3688.68
428.84	3742.52
429.03	3709.75
429.22	3693.37
429.40	3716.77
429.59	3721.45
429.78	3569.32
429.97	3597.40
430.16	3641.87
430.34	3772.94
430.53	3822.09
430.72	3737.84
430.91	3801.03
431.10	3843.16
431.28	3946.14
431.47	3976.57
431.66	4107.64
431.85	3852.52
432.03	4114.66
432.22	4131.05
432.41	3992.95
432.60	4044.45
432.79	4035.08
432.97	4198.92
433.16	4205.94
433.35	4128.70
433.54	4187.22
433.72	4168.49
433.91	4124.02
434.10	4152.11
434.28	4126.36
434.47	4271.48
434.66	4269.14
434.85	4444.68
435.03	4386.16
435.22	4318.29
435.41	4521.92
435.59	4348.72
435.78	4440.00
435.97	4287.86
436.16	4524.26
436.34	4517.23
436.53	4505.53
436.72	4617.88
436.90	4458.72
437.09	4568.73
437.28	4456.38
437.46	4470.42
437.65	4470.42
437.84	4578.09
438.02	4592.13
438.21	4533.62
438.40	4531.28
438.58	4760.65
438.77	4784.06
438.96	4660.01
439.14	4917.47
439.33	4887.04
439.52	5114.07
439.70	4873.00
439.89	5013.43
440.08	4919.81
440.26	5006.41
440.45	4990.02
440.63	5036.83
440.82	5114.07
441.01	5057.90
441.19	5224.08
441.38	5214.71
441.57	5401.96
441.75	5432.38
441.94	5411.32
442.12	5376.21
442.31	5401.96
442.50	5458.13
442.68	5483.88
442.87	5465.15
443.05	5563.45
443.24	5664.10
443.43	5652.39
443.61	5521.32
443.80	5746.02
443.98	5394.93
444.17	5530.69
444.35	5607.92
444.54	5832.62
444.73	5589.20
444.91	5633.67
445.10	5820.91
445.28	5781.12
445.47	5589.20
445.65	5638.35
445.84	5841.98
446.02	5947.30
446.21	5778.78
446.39	5654.73
446.58	5912.19
446.77	5942.62
446.95	5687.50
447.14	5968.37
447.32	5984.75
447.51	6008.16
447.69	5849.00
447.88	5942.62
448.06	5881.77
448.25	5628.99
448.43	5867.72
448.62	5984.75
448.80	5902.83
448.99	6001.13
449.17	5935.60
449.36	5940.28
449.54	6136.88
449.73	6141.57
449.91	6085.39
450.10	6150.93
450.28	6246.89
450.46	6258.59
450.65	6312.42
450.83	6216.46
451.02	6228.17
451.20	6356.90
451.39	6202.42
451.57	6317.11
451.76	6265.61
451.94	6270.30
452.13	6282.00
452.31	6427.11
452.49	6253.91
452.68	6464.56
452.86	6331.15
453.05	6218.80
453.23	6469.24
453.42	6328.81
453.60	6532.44
453.78	6434.13
453.97	6476.26
454.15	6464.56
454.34	6555.84
454.52	6607.33
454.70	6672.87
454.89	6539.46
455.07	6558.18
455.26	6630.74
455.44	6923.30
455.62	6612.01
455.81	6635.42
455.99	6817.98
456.17	6885.86
456.36	6675.21
456.54	7056.72
456.73	7047.35
456.91	7077.78
457.09	7110.55
457.28	7290.77
457.46	7133.95
457.64	7042.67
457.83	6991.18
458.01	7077.78
458.19	7206.51
458.38	7166.72
458.56	7178.42
458.74	7173.74
458.93	7213.53
459.11	7295.45
459.29	7323.54
459.48	7346.94
459.66	7321.20
459.84	7447.58
460.03	7414.82
460.21	7473.33
460.39	7379.71
460.57	7529.50
460.76	7506.10
460.94	7463.97
461.12	7583.34
461.31	7541.21
461.49	7630.15
461.67	7740.15
461.85	7742.49
462.04	7712.07
462.22	8016.33
462.40	7901.65
462.59	7836.11
462.77	7847.82
462.95	7941.44
463.13	7824.41
463.32	7873.56
463.50	7943.78
463.68	7985.91
463.86	7829.09
464.05	7623.12
464.23	8002.29
464.41	8023.36
464.59	7716.75
464.78	8159.11
464.96	7981.23
465.14	7939.10
465.32	8070.17
465.50	8065.49
465.69	8107.62
465.87	8142.72
466.05	8154.43
466.23	8128.68
466.41	8163.79
466.60	8219.96
466.78	8175.49
466.96	8147.40
467.14	8273.79
467.32	8264.43
467.51	8430.61
467.69	7990.59
467.87	8269.11
468.05	8369.76
468.23	8477.42
468.41	8276.13
468.60	8358.05
468.78	8454.02
468.96	8428.27
469.14	8503.17
469.32	8655.30
469.50	8421.25
469.69	8917.44
469.87	8732.54
470.05	8709.13
470.23	8830.84
470.41	8503.17
470.59	8730.20
470.77	8798.07
470.95	8889.35
471.14	9039.15
471.32	8805.10
471.50	8947.87
471.68	9064.89
471.86	9015.74
472.04	9212.35
472.22	9537.68
472.40	9104.68
472.58	9336.40
472.77	9254.48
472.95	9221.71
473.13	9591.52
473.31	9245.12
473.49	9427.68
473.67	9350.44
473.85	9404.27
474.03	9563.43
474.21	9818.55
474.39	9647.69
474.57	9827.91
474.75	9722.59
474.93	9949.62
475.12	9724.93
475.30	10143.88
475.48	10094.73
475.66	10080.69
475.84	10012.81
476.02	10169.63
476.20	10178.99
476.38	10340.49
476.56	10562.84
476.74	10399.00
476.92	10422.41
477.10	10509.01
477.28	10773.49
477.46	10834.34
477.64	10843.70
477.82	10939.66
478.00	11112.86
478.18	11026.26
478.36	11332.87
478.54	11239.25
478.72	11274.36
478.90	11808.00
479.08	11452.24
479.26	11716.72
479.44	11599.70
479.62	11726.08
479.80	11721.40
479.98	11754.17
480.16	12367.39
480.34	12128.66
480.52	12369.73
480.70	12322.92
480.88	12170.79
481.06	12465.69
481.24	12255.04
481.41	12793.37
481.59	12730.17
481.77	12952.52
481.95	12896.35
482.13	12767.62
482.31	12898.69
482.49	13245.09
482.67	13252.11
482.85	13261.48
483.03	13364.46
483.21	13701.50
483.39	13638.30
483.57	13619.58
483.74	13907.46
483.92	14010.45
484.10	13743.63
484.28	14010.45
484.46	14284.29
484.64	14714.95
484.82	14366.21
485.00	14721.97
485.18	14801.55
485.35	15117.52
485.53	14476.21
485.71	14668.14
485.89	15206.46
486.07	15070.71
486.25	15286.04
486.43	15218.16
486.61	15571.58
486.78	15510.73
486.96	15480.30
487.14	15946.07
487.32	15896.92
487.50	16126.29
487.68	16421.20
487.85	16320.56
488.03	16475.03
488.21	16638.87
488.39	16592.06
488.57	17034.42
488.75	16809.73
488.92	17216.98
489.10	17537.63
489.28	17315.28
489.46	17619.55
489.64	17874.67
489.81	17989.36
489.99	17951.91
490.17	18195.32
490.35	18169.58
490.53	18375.55
490.70	18452.78
490.88	18319.37
491.06	18817.91
491.24	18633.00
491.41	18609.60
491.59	19026.21
491.77	18773.44
491.95	19187.71
492.13	19482.62
492.30	19403.04
492.48	19747.10
492.66	19618.37
492.84	19660.50
493.01	19740.08
493.19	19889.87
493.37	20159.03
493.54	19957.75
493.72	20152.01
493.90	20451.60
494.08	20573.31
494.25	20493.73
494.43	20554.58
494.61	20772.25
494.79	21034.39
494.96	21116.31
495.14	21167.80
495.32	21296.53
495.49	21551.65
495.67	21436.97
495.85	21359.73
496.02	22003.38
496.20	22157.85
496.38	21919.12
496.55	22148.49
496.73	22501.91
496.91	22604.89
497.09	22281.90
497.26	22300.62
497.44	22614.26
497.62	22801.50
497.79	23016.83
497.97	23175.98
498.14	23131.51
498.32	23009.81
498.50	23250.88
498.67	23417.06
498.85	23414.72
499.03	23646.43
499.20	23726.01
499.38	23410.04
499.56	23854.74
499.73	24196.46
499.91	24006.87
500.08	24130.92
500.26	24322.85
500.44	24247.95
500.61	24332.21
500.79	24383.70
500.97	24423.49
501.14	25076.50
501.32	24879.89
501.49	24702.01
501.67	25008.62
501.84	25202.89
502.02	24954.79
502.20	24903.30
502.37	25261.40
502.55	25221.61
502.72	25120.97
502.90	25333.96
503.07	25661.63
503.25	25860.58
503.43	25448.64
503.60	25380.77
503.78	25752.91
503.95	26043.14
504.13	25940.16
504.30	26096.97
504.48	25970.58
504.65	26237.41
504.83	26316.98
505.01	26586.15
505.18	26522.95
505.36	26721.90
505.53	26719.56
505.71	26419.97
505.88	27103.40
506.06	26857.65
506.23	26813.18
506.41	26930.20
506.58	27068.30
506.76	27281.28
506.93	27309.37
507.11	27288.31
507.28	27171.28
507.46	27417.04
507.63	27428.74
507.81	27578.53
507.98	27379.59
508.16	27590.24
508.33	27718.96
508.50	27838.33
508.68	27857.06
508.85	28510.07
509.03	28540.49
509.20	28563.90
509.38	28634.11
509.55	28599.01
509.73	28994.56
509.90	28563.90
510.08	28580.28
510.25	28896.25
510.42	28716.03
510.60	29247.33
510.77	28922.00
510.95	29450.96
511.12	29015.62
511.30	29291.80
511.47	29640.54
511.64	29570.33
511.82	29661.61
511.99	29961.20
512.17	29659.27
512.34	29872.26
512.51	30057.16
512.69	30218.66
512.86	29703.74
513.04	30443.35
513.21	30223.34
513.38	29926.09
513.56	30281.85
513.73	29907.37
513.90	29940.13
514.08	30340.36
514.25	30176.53
514.43	30789.75
514.60	30719.53
514.77	30532.29
514.95	31253.17
515.12	30941.88
515.29	30700.81
515.47	30801.45
515.64	31119.76
515.81	31009.76
515.99	30972.31
516.16	31218.07
516.33	31311.69
516.51	31674.47
516.68	31278.92
516.85	31400.63
517.03	31269.56
517.20	31665.11
517.37	31962.36
517.54	31740.00
517.72	31676.81
517.89	32041.93
518.06	31461.48
518.24	31901.50
518.41	31838.31
518.58	31604.25
518.75	31960.02
518.93	32065.34
519.10	32130.87
519.27	31967.04
519.45	32685.58
519.62	32666.86
519.79	32430.46
519.96	32769.84
520.14	32929.00
520.31	32491.32
520.48	32842.40
520.65	32854.10
520.83	33586.69
521.00	32769.84
521.17	33172.41
521.34	32973.47
521.52	33221.56
521.69	33041.34
521.86	33862.87
522.03	33525.83
522.20	33188.80
522.38	33694.35
522.55	34007.98
522.72	33762.23
522.89	33933.09
523.07	34096.92
523.24	33766.91
523.41	34148.42
523.58	33745.84
523.75	34265.44
523.92	34637.59
524.10	34103.95
524.27	34426.94
524.44	34625.89
524.61	34359.06
524.78	34476.09
524.96	34841.21
525.13	34635.25
525.30	35166.55
525.47	35342.09
525.64	35196.98
525.81	34590.78
525.98	34969.94
526.16	34834.19
526.33	34859.94
526.50	35150.17
526.67	34778.02
526.84	35103.35
527.01	35260.17
527.18	35264.85
527.36	35339.75
527.53	35646.36
527.70	35639.34
527.87	35510.61
528.04	35398.26
528.21	35931.90
528.38	35344.43
528.55	35845.30
528.72	36137.87
528.89	35679.13
529.07	35725.94
529.24	35957.65
529.41	36371.92
529.58	35920.20
529.75	36273.62
529.92	36224.47
530.09	36175.32
530.26	36449.16
530.43	36374.27
530.60	36229.15
530.77	36425.76
530.94	36435.12
531.11	36491.29
531.28	36484.27
531.46	36458.52
531.63	36954.72
531.80	36477.25
531.97	36650.45
532.14	36610.66
532.31	36500.65
532.48	36924.29
532.65	37188.77
532.82	37294.10
532.99	36886.84
533.16	36734.71
533.33	37167.71
533.50	37551.56
533.67	37471.98
533.84	37457.93
534.01	37586.66
534.18	37474.32
534.35	37825.40
534.52	37528.15
534.69	37319.84
534.86	37642.84
535.03	37605.39
535.20	37439.21
535.37	37972.85
535.54	38113.28
535.71	37734.12
535.88	37673.26
536.05	37895.61
536.22	38293.50
536.38	38246.69
536.55	37820.72
536.72	38061.79
536.89	37809.01
537.06	38244.35
537.23	38417.55
537.40	37926.04
537.57	38375.42
537.74	38272.44
537.91	38609.48
538.08	38763.95
538.25	38106.26
538.42	38316.91
538.59	38501.81
538.75	38382.45
538.92	38864.60
539.09	38738.21
539.26	38766.29
539.43	38658.63
539.60	38773.31
539.77	38944.17
539.94	38742.89
540.11	39026.09
540.28	39133.76
540.44	39110.35
540.61	38588.41
540.78	38632.88
540.95	39103.33
541.12	38902.04
541.29	38831.83
541.46	38873.96
541.62	39161.84
541.79	39693.15
541.96	39035.45
542.13	39093.97
542.30	39388.88
542.47	39316.32
542.63	39271.85
542.80	39608.89
542.97	39721.23
543.14	39974.01
543.31	40210.40
543.48	40121.46
543.64	40378.92
543.81	40149.55
543.98	40158.91
544.15	40395.31
544.32	40687.87
544.48	40617.66
544.65	40554.46
544.82	40219.77
544.99	39693.15
545.16	40449.14
545.32	40231.47
545.49	40638.72
545.66	40432.75
545.83	40472.54
546.00	40479.57
546.16	41113.85
546.33	40364.88
546.50	39969.33
546.67	40655.11
546.83	40105.08
547.00	40842.35
547.17	40786.18
547.34	40898.52
547.50	40781.49
547.67	40776.81
547.84	41462.59
548.00	40849.37
548.17	41333.86
548.34	41076.40
548.51	40917.25
548.67	41120.87
548.84	41287.05
549.01	41294.07
549.18	41226.20
549.34	41776.22
549.51	41509.40
549.68	41247.26
549.84	41469.61
550.01	42019.64
550.18	41242.58
550.34	41455.57
550.51	41593.66
550.68	41331.52
550.84	41495.36
551.01	41411.10
551.18	41305.77
551.34	41558.55
551.51	41766.86
551.68	41478.97
551.84	41617.07
552.01	41909.63
552.18	42092.19
552.34	41797.29
552.51	42082.83
552.68	41778.56
552.84	42223.26
553.01	42611.79
553.18	42422.21
553.34	42139.00
553.51	41305.77
553.67	42036.02
553.84	42422.21
554.01	42384.76
554.17	42183.48
554.34	42330.93
554.51	42422.21
554.67	42293.48
554.84	42251.35
555.00	42520.51
555.17	41902.61
555.33	42487.74
555.50	42553.28
555.67	42600.09
555.83	42466.68
556.00	42754.57
556.16	42838.83
556.33	42494.77
556.50	42600.09
556.66	42799.04
556.83	42450.30
556.99	42951.17
557.16	42813.08
557.32	42937.13
557.49	42698.39
557.65	42707.76
557.82	42780.31
557.98	42604.77
558.15	42913.72
558.32	42784.99
558.48	42836.48
558.65	42937.13
558.81	42988.62
558.98	43082.24
559.14	42796.70
559.31	42635.20
559.47	42700.73
559.64	42927.77
559.80	43103.31
559.97	43423.96
560.13	42660.94
560.30	42885.64
560.46	43166.50
560.63	42859.89
560.79	42918.40
560.96	43786.74
561.12	43007.34
561.29	43412.26
561.45	43335.02
561.61	43028.41
561.78	43044.79
561.94	42904.36
562.11	43278.85
562.27	43634.61
562.44	43171.18
562.60	43512.90
562.77	43679.08
562.93	42997.98
563.10	43950.58
563.26	42934.79
563.42	43679.08
563.59	43421.62
563.75	43566.73
563.92	43536.30
564.08	43562.05
564.24	43728.23
564.41	43892.07
564.57	43339.70
564.74	43363.11
564.90	43728.23
565.07	43346.72
565.23	43470.77
565.39	43550.35
565.56	43763.34
565.72	43800.79
565.88	43543.33
566.05	43505.88
566.21	43400.55
566.38	43742.27
566.54	43543.33
566.70	43578.43
566.87	43798.44
567.03	43583.12
567.19	43414.60
567.36	43615.88
567.52	43433.32
567.68	44039.52
567.85	43466.09
568.01	43669.72
568.17	43672.06
568.34	43828.87
568.50	43744.61
568.66	43501.20
568.83	43990.37
568.99	43445.02
569.15	43255.44
569.32	43737.59
569.48	43805.47
569.64	43735.25
569.81	44016.11
569.97	43966.96
570.13	43948.24
570.30	43920.15
570.46	43281.19
570.62	43697.80
570.78	43725.89
570.95	43255.44
571.11	43833.55
571.27	43711.84
571.43	43831.21
571.60	43686.10
571.76	43803.13
571.92	43770.36
572.09	44135.48
572.25	43751.63
572.41	43938.88
572.57	44306.34
572.74	44282.94
572.90	44025.48
573.06	44144.84
573.22	44179.95
573.38	43915.47
573.55	43838.23
573.71	44009.09
573.87	43861.64
574.03	43758.66
574.20	44336.77
574.36	43971.64
574.52	44547.42
574.68	44088.67
574.84	44170.59
575.01	43892.07
575.17	44318.04
575.33	44072.29
575.49	44112.08
575.65	44247.83
575.82	44414.01
575.98	44062.93
576.14	44414.01
576.30	44308.68
576.46	43784.40
576.62	44201.02
576.79	44161.23
576.95	43931.86
577.11	44205.70
577.27	44516.99
577.43	44343.79
577.59	43894.41
577.75	44203.36
577.92	44161.23
578.08	43999.73
578.24	44060.58
578.40	43915.47
578.56	44465.50
578.72	44074.63
578.88	44343.79
579.04	43997.39
579.21	44254.85
579.37	44261.87
579.53	44107.40
579.69	43817.17
579.85	44348.47
580.01	44416.35
580.17	44210.38
580.33	44643.38
580.49	44179.95
580.65	44659.76
580.82	44584.86
580.98	44280.60
581.14	44140.16
581.30	44287.62
581.46	44116.76
581.62	44729.98
581.78	44304.00
581.94	44776.79
582.10	44046.54
582.26	44032.50
582.42	44161.23
582.58	44311.02
582.74	44025.48
582.90	44294.64
583.06	44346.13
583.22	44818.92
583.38	44488.90
583.54	44697.21
583.70	43906.11
583.86	44053.56
584.02	43943.56
584.18	44435.07
584.34	44336.77
584.50	44282.94
584.66	44229.10
584.82	44081.65
584.98	44966.37
585.14	44519.33
585.30	44549.76
585.46	44025.48
585.62	43821.85
585.78	44081.65
585.94	44341.45
586.10	44231.44
586.26	44327.41
586.42	44287.62
586.58	44486.56
586.74	44238.47
586.90	44261.87
587.06	43943.56
587.22	44432.73
587.38	44318.04
587.54	44512.31
587.70	44566.14
587.86	44325.07
588.02	44687.85
588.18	44404.64
588.34	44147.18
588.49	44182.29
588.65	44266.55
588.81	44416.35
588.97	44423.37
589.13	44346.13
589.29	44650.40
589.45	44257.19
589.61	44648.06
589.77	44266.55
589.93	44435.07
590.08	44959.35
590.24	44893.82
