SpectraSuite Data File
++++++++++++++++++++++++++++++++++++
Date: Fri Oct 25 10:47:20 EDT 2013
User: price-jones
Dark Spectrum Present: No
Reference Spectrum Present: No
Number of Sampled Component Spectra: 1
Spectrometers: USB2+H05261
Integration Time (usec): 100000 (USB2+H05261)
Spectra Averaged: 1 (USB2+H05261)
Boxcar Smoothing: 0 (USB2+H05261)
Correct for Electrical Dark: No (USB2+H05261)
Strobe/Lamp Enabled: No (USB2+H05261)
Correct for Detector Non-linearity: No (USB2+H05261)
Correct for Stray Light: No (USB2+H05261)
Number of Pixels in Processed Spectrum: 2048
>>>>>Begin Processed Spectral Data<<<<<
365.73	145.11
365.92	145.11
366.12	145.11
366.32	0.00
366.52	51.49
366.72	72.56
366.91	32.77
367.11	0.00
367.31	42.13
367.51	0.00
367.70	23.41
367.90	117.03
368.10	42.13
368.30	37.45
368.49	0.00
368.69	37.45
368.89	18.72
369.09	46.81
369.28	79.58
369.48	110.01
369.68	51.49
369.87	180.22
370.07	95.96
370.27	175.54
370.47	138.09
370.66	414.27
370.86	381.51
371.06	442.36
371.25	437.68
371.45	411.93
371.65	404.91
371.84	425.98
372.04	425.98
372.24	463.43
372.44	463.43
372.63	479.81
372.83	472.79
373.03	512.58
373.22	456.40
373.42	517.26
373.62	447.04
373.81	521.94
374.01	528.96
374.21	465.77
374.40	498.53
374.60	484.49
374.79	531.30
374.99	533.64
375.19	486.83
375.38	589.82
375.58	496.19
375.78	547.69
375.97	559.39
376.17	653.01
376.37	636.63
376.56	571.09
376.76	575.77
376.95	472.79
377.15	545.34
377.35	662.37
377.54	594.50
377.74	533.64
377.93	636.63
378.13	638.97
378.33	606.20
378.52	648.33
378.72	585.13
378.91	657.69
379.11	655.35
379.31	575.77
379.50	566.41
379.70	676.41
379.89	648.33
380.09	594.50
380.28	662.37
380.48	596.84
380.68	589.82
380.87	690.46
381.07	685.78
381.26	695.14
381.46	662.37
381.65	657.69
381.85	592.16
382.04	620.24
382.24	608.54
382.43	650.67
382.63	624.92
382.83	638.97
383.02	699.82
383.22	767.70
383.41	723.23
383.61	662.37
383.80	732.59
384.00	793.44
384.19	730.25
384.39	795.78
384.58	819.19
384.78	819.19
384.97	737.27
385.17	695.14
385.36	741.95
385.56	737.27
385.75	755.99
385.95	674.07
386.14	786.42
386.34	763.01
386.53	770.04
386.72	770.04
386.92	734.93
387.11	800.46
387.31	835.57
387.50	737.27
387.70	868.34
387.89	809.83
388.09	826.21
388.28	844.93
388.48	786.42
388.67	791.10
388.86	854.30
389.06	889.40
389.25	891.74
389.45	877.70
389.64	990.05
389.84	854.30
390.03	933.87
390.22	844.93
390.42	828.55
390.61	863.66
390.81	917.49
391.00	959.62
391.19	936.21
391.39	971.32
391.58	961.96
391.78	980.68
391.97	908.13
392.16	870.68
392.36	954.94
392.55	917.49
392.75	999.41
392.94	966.64
393.13	929.19
393.33	1029.84
393.52	987.71
393.71	1025.15
393.91	968.98
394.10	973.66
394.29	1048.56
394.49	983.02
394.68	1172.61
394.88	1053.24
395.07	1064.94
395.26	1114.10
395.46	1039.20
395.65	1144.52
395.84	1090.69
396.04	1071.97
396.23	1041.54
396.42	1039.20
396.62	1203.04
396.81	1083.67
397.00	1086.01
397.19	1174.95
397.39	1170.27
397.58	1254.53
397.77	1252.19
397.97	1196.01
398.16	1287.29
398.35	1214.74
398.55	1306.02
398.74	1259.21
398.93	1261.55
399.12	1287.29
399.32	1320.06
399.51	1275.59
399.70	1329.42
399.90	1418.36
400.09	1341.13
400.28	1336.45
400.47	1401.98
400.67	1397.30
400.86	1399.64
401.05	1420.71
401.24	1448.79
401.44	1399.64
401.63	1497.94
401.82	1392.62
402.01	1413.68
402.21	1451.13
402.40	1500.28
402.59	1434.75
402.78	1481.56
402.97	1521.35
403.17	1497.94
403.36	1551.78
403.55	1444.11
403.74	1682.85
403.93	1668.80
404.13	1605.61
404.32	1647.74
404.51	1565.82
404.70	1549.43
404.89	1621.99
405.09	1727.32
405.28	1584.54
405.47	1617.31
405.66	1713.27
405.85	1617.31
406.05	1729.66
406.24	1785.83
406.43	1727.32
406.62	1650.08
406.81	1867.75
407.00	1755.40
407.20	1706.25
407.39	1757.74
407.58	1900.52
407.77	1865.41
407.96	1837.32
408.15	1947.33
408.34	1830.30
408.54	1851.36
408.73	1937.96
408.92	2001.16
409.11	2019.88
409.30	1886.47
409.49	1982.43
409.68	2015.20
409.87	2012.86
410.07	1977.75
410.26	1996.48
410.45	2010.52
410.64	2139.25
410.83	2115.84
411.02	2190.74
411.21	2235.21
411.40	2179.04
411.59	2118.18
411.78	2193.08
411.98	2141.59
412.17	2176.70
412.36	2256.28
412.55	2272.66
412.74	2335.85
412.93	2307.77
413.12	2289.04
413.31	2424.80
413.50	2532.46
413.69	2455.22
413.88	2504.37
414.07	2466.92
414.26	2567.57
414.45	2544.16
414.64	2480.97
414.83	2434.16
415.02	2637.78
415.22	2717.36
415.41	2719.70
415.60	2759.49
415.79	2654.17
415.98	2810.98
416.17	2766.51
416.36	2740.77
416.55	2827.37
416.74	2913.97
416.93	2799.28
417.12	2848.43
417.31	2895.24
417.50	2869.50
417.69	3166.74
417.88	2923.33
418.07	2867.16
418.26	2946.73
418.45	3038.02
418.64	3143.34
418.83	3012.27
419.02	3047.38
419.21	2970.14
419.39	3096.53
419.58	3180.79
419.77	3070.78
419.96	3239.30
420.15	3253.34
420.34	3206.53
420.53	3262.71
420.72	3201.85
420.91	3297.81
421.10	3255.69
421.29	3365.69
421.48	3286.11
421.67	3372.71
421.86	3358.67
422.05	3375.05
422.24	3407.82
422.43	3314.20
422.61	3335.26
422.80	3410.16
422.99	3386.76
423.18	3328.24
423.37	3524.85
423.56	3459.31
423.75	3370.37
423.94	3417.18
424.13	3260.37
424.32	3194.83
424.50	3419.52
424.69	3508.46
424.88	3501.44
425.07	3445.27
425.26	3389.10
425.45	3499.10
425.64	3508.46
425.83	3440.59
426.01	3545.91
426.20	3496.76
426.39	3555.27
426.58	3501.44
426.77	3452.29
426.96	3543.57
427.15	3592.72
427.33	3524.85
427.52	3557.61
427.71	3595.06
427.90	3641.87
428.09	3653.58
428.28	3651.24
428.46	3538.89
428.65	3721.45
428.84	3803.37
429.03	3875.93
429.22	3672.30
429.40	3744.86
429.59	3779.97
429.78	3555.27
429.97	3632.51
430.16	3681.66
430.34	3700.39
430.53	3824.44
430.72	3934.44
430.91	3829.12
431.10	3705.07
431.28	3791.67
431.47	4053.81
431.66	4079.55
431.85	3990.61
432.03	4046.79
432.22	4053.81
432.41	4084.23
432.60	3953.16
432.79	4112.32
432.97	4147.43
433.16	4191.90
433.35	4009.34
433.54	4248.07
433.72	4168.49
433.91	4077.21
434.10	4212.96
434.28	4119.34
434.47	4173.18
434.66	4194.24
434.85	4311.27
435.03	4475.10
435.22	4381.48
435.41	4423.61
435.59	4491.49
435.78	4449.36
435.97	4458.72
436.16	4505.53
436.34	4557.02
436.53	4416.59
436.72	4615.54
436.90	4542.98
437.09	4510.21
437.28	4519.57
437.46	4615.54
437.65	4425.95
437.84	4557.02
438.02	4641.28
438.21	4531.28
438.40	4519.57
438.58	4755.97
438.77	4744.27
438.96	4737.24
439.14	4725.54
439.33	4837.89
439.52	4990.02
439.70	5067.26
439.89	5004.07
440.08	4926.83
440.26	4992.36
440.45	4980.66
440.63	4901.08
440.82	5062.58
441.01	5130.45
441.19	5268.55
441.38	5240.46
441.57	5416.00
441.75	5345.78
441.94	5497.92
442.12	5518.98
442.31	5514.30
442.50	5439.40
442.68	5432.38
442.87	5455.79
443.05	5614.95
443.24	5526.00
443.43	5673.46
443.61	5493.24
443.80	5720.27
443.98	5591.54
444.17	5441.75
444.35	5554.09
444.54	5694.52
444.73	5687.50
444.91	5675.80
445.10	5659.42
445.28	5624.31
445.47	5593.88
445.65	5617.29
445.84	5568.13
446.02	5783.46
446.21	5680.48
446.39	5731.97
446.58	5743.67
446.77	5923.90
446.95	5621.97
447.14	5738.99
447.32	5781.12
447.51	5823.25
447.69	5722.61
447.88	5748.36
448.06	5863.04
448.25	5748.36
448.43	5870.06
448.62	5804.53
448.80	5902.83
448.99	5973.05
449.17	5858.36
449.36	5909.85
449.54	6059.65
449.73	6242.21
449.91	6246.89
450.10	6118.16
450.28	6286.68
450.46	6157.95
450.65	6204.76
450.83	6338.17
451.02	6270.30
451.20	6249.23
451.39	6333.49
451.57	6132.20
451.76	5984.75
451.94	6235.19
452.13	6263.27
452.31	6431.79
452.49	6202.42
452.68	6321.79
452.86	6333.49
453.05	6422.43
453.23	6434.13
453.42	6464.56
453.60	6286.68
453.78	6473.92
453.97	6450.52
454.15	6422.43
454.34	6490.31
454.52	6565.20
454.70	6368.60
454.89	6448.18
455.07	6719.68
455.26	6686.91
455.44	6890.54
455.62	6815.64
455.81	6747.76
455.99	6820.32
456.17	6892.88
456.36	6920.96
456.54	6942.03
456.73	6806.28
456.91	7073.10
457.09	7061.40
457.28	7246.30
457.46	7162.04
457.64	7274.38
457.83	7089.48
458.01	7007.56
458.19	7213.53
458.38	7262.68
458.56	7328.22
458.74	7290.77
458.93	7272.04
459.11	7337.58
459.29	7129.27
459.48	7346.94
459.66	7499.08
459.84	7426.52
460.03	7632.49
460.21	7515.46
460.39	7386.73
460.57	7344.60
460.76	7435.88
460.94	7503.76
461.12	7630.15
461.31	7573.97
461.49	7463.97
461.67	7377.37
461.85	7623.12
462.04	7571.63
462.22	8222.30
462.40	7786.96
462.59	7796.32
462.77	7772.92
462.95	7894.63
463.13	7831.43
463.32	7981.23
463.50	7899.31
463.68	8037.40
463.86	7999.95
464.05	7868.88
464.23	7850.16
464.41	8077.19
464.59	7688.66
464.78	8138.04
464.96	8114.64
465.14	7899.31
465.32	8203.58
465.50	8086.55
465.69	8180.17
465.87	8124.00
466.05	8180.17
466.23	8325.29
466.41	8294.86
466.60	8166.13
466.78	8032.72
466.96	8142.72
467.14	8257.41
467.32	8245.71
467.51	8589.77
467.69	8229.32
467.87	8173.15
468.05	8432.95
468.23	8327.63
468.41	8423.59
468.60	8409.54
468.78	8622.53
468.96	8248.05
469.14	8517.21
469.32	8545.30
469.50	8599.13
469.69	8685.73
469.87	8777.01
470.05	8484.44
470.23	8720.84
470.41	8636.58
470.59	8709.13
470.77	8730.20
470.95	8765.31
471.14	8872.97
471.32	8582.74
471.50	8992.34
471.68	8950.21
471.86	8922.12
472.04	9069.58
472.22	9383.21
472.40	9160.86
472.58	9434.70
472.77	9277.88
472.95	9516.62
473.13	9640.67
473.31	9294.27
473.49	9509.60
473.67	9425.34
473.85	9668.75
474.03	9680.46
474.21	9755.35
474.39	9621.94
474.57	9863.02
474.75	9640.67
474.93	9799.82
475.12	10024.51
475.30	10033.88
475.48	10115.80
475.66	10200.05
475.84	10066.64
476.02	10303.04
476.20	10321.76
476.38	10363.89
476.56	10434.11
476.74	10553.48
476.92	10370.91
477.10	10436.45
477.28	10654.12
477.46	10520.71
477.64	10848.38
477.82	11047.33
478.00	11325.85
478.18	11005.20
478.36	11194.78
478.54	11276.70
478.72	11229.89
478.90	11541.18
479.08	11506.07
479.26	11515.44
479.44	11403.09
479.62	11702.68
479.80	11754.17
479.98	12030.35
480.16	12044.40
480.34	12149.72
480.52	12226.96
480.70	12084.19
480.88	12294.83
481.06	12114.61
481.24	12402.50
481.41	12711.45
481.59	12847.20
481.77	12720.81
481.95	12828.48
482.13	12982.95
482.31	12725.49
482.49	13350.42
482.67	13025.08
482.85	13048.49
483.03	13635.96
483.21	13371.48
483.39	13605.53
483.57	13661.71
483.74	13830.23
483.92	14092.37
484.10	13809.16
484.28	14244.50
484.46	14398.98
484.64	14644.73
484.82	14317.06
485.00	14480.89
485.18	14808.57
485.35	14752.40
485.53	14466.85
485.71	14820.27
485.89	15190.08
486.07	14930.28
486.25	14970.07
486.43	15433.49
486.61	15405.41
486.78	15466.26
486.96	15492.01
487.14	15915.64
487.32	16077.14
487.50	16023.31
487.68	16465.67
487.85	16681.00
488.03	16538.23
488.21	16627.17
488.39	16695.04
488.57	16650.57
488.75	17057.82
488.92	17303.58
489.10	17472.10
489.28	17193.58
489.46	17500.19
489.64	17617.21
489.81	17809.14
489.99	18157.88
490.17	18167.24
490.35	18508.96
490.53	18331.08
490.70	18534.70
490.88	18354.48
491.06	18754.71
491.24	18913.87
491.41	18710.24
491.59	18801.52
491.77	18764.07
491.95	19295.38
492.13	19178.35
492.30	19201.76
492.48	19440.49
492.66	19449.85
492.84	19779.87
493.01	19637.09
493.19	19934.34
493.37	20009.24
493.54	20294.79
493.72	20531.18
493.90	20524.16
494.08	20842.47
494.25	20744.17
494.43	20409.47
494.61	20746.51
494.79	20922.05
494.96	20739.49
495.14	21399.52
495.32	21235.68
495.49	21441.65
495.67	21549.31
495.85	21443.99
496.02	21701.45
496.20	21827.84
496.38	22143.81
496.55	21776.34
496.73	22565.10
496.91	22431.69
497.09	22644.68
497.26	22628.30
497.44	22644.68
497.62	22731.28
497.79	22948.95
497.97	23098.75
498.14	23075.34
498.32	23161.94
498.50	23178.33
498.67	23241.52
498.85	23562.17
499.03	23618.35
499.20	23927.30
499.38	23754.10
499.56	23990.49
499.73	23850.06
499.91	23812.61
500.08	24184.76
500.26	23751.76
500.44	24023.26
500.61	24196.46
500.79	24091.13
500.97	24194.12
501.14	24924.36
501.32	25081.18
501.49	24655.20
501.67	24687.97
501.84	24769.89
502.02	25132.67
502.20	25214.59
502.37	25326.94
502.55	25294.17
502.72	25488.43
502.90	25656.95
503.07	25572.69
503.25	25624.18
503.43	25469.71
503.60	25645.25
503.78	25865.26
503.95	25696.74
504.13	25930.80
504.30	26305.28
504.48	25993.99
504.65	26274.85
504.83	26471.46
505.01	26532.31
505.18	26487.84
505.36	27021.48
505.53	26859.99
505.71	26738.28
505.88	26967.65
506.06	26740.62
506.23	26984.04
506.41	26714.87
506.58	27154.90
506.76	27292.99
506.93	27271.92
507.11	27318.73
507.28	27295.33
507.46	27388.95
507.63	27559.81
507.81	27690.88
507.98	27414.69
508.16	28037.28
508.33	27400.65
508.50	27880.46
508.68	28280.69
508.85	28355.59
509.03	28177.71
509.20	28409.42
509.38	28346.23
509.55	28819.02
509.73	28720.71
509.90	28994.56
510.08	28266.65
510.25	28402.40
510.42	29193.50
510.60	29003.92
510.77	29301.17
510.95	29495.43
511.12	29385.43
511.30	29092.86
511.47	29633.52
511.64	29619.48
511.82	29675.65
511.99	29261.38
512.17	29624.16
512.34	29467.34
512.51	29893.32
512.69	30122.69
512.86	30146.10
513.04	30267.81
513.21	29958.86
513.38	30085.25
513.56	30319.30
513.73	30211.64
513.90	30316.96
514.08	30228.02
514.25	30403.56
514.43	30672.72
514.60	30546.33
514.77	30773.36
514.95	31040.18
515.12	30843.58
515.29	30768.68
515.47	31175.94
515.64	31192.32
515.81	31115.08
515.99	30946.56
516.16	31185.30
516.33	31679.15
516.51	31309.35
516.68	31051.89
516.85	31187.64
517.03	31590.21
517.20	31424.03
517.37	31756.39
517.54	32154.28
517.72	31711.92
517.89	31690.85
518.06	31878.10
518.24	31749.37
518.41	31789.16
518.58	31534.04
518.75	31632.34
518.93	32086.40
519.10	32510.04
519.27	32463.23
519.45	32582.60
519.62	32568.55
519.79	32898.57
519.96	32568.55
520.14	32884.53
520.31	32706.65
520.48	32912.61
520.65	32570.90
520.83	33385.40
521.00	33165.39
521.17	33301.14
521.34	33312.84
521.52	33483.70
521.69	33439.23
521.86	33942.45
522.03	33855.85
522.20	33633.50
522.38	33570.30
522.55	33654.56
522.72	33750.52
522.89	33457.96
523.07	34064.16
523.24	33502.43
523.41	33876.91
523.58	34005.64
523.75	34258.42
523.92	34443.32
524.10	34298.21
524.27	34536.94
524.44	34249.06
524.61	34632.91
524.78	34464.39
524.96	34696.10
525.13	35274.21
525.30	34941.86
525.47	34878.66
525.64	34511.20
525.81	34876.32
525.98	34930.16
526.16	34771.00
526.33	35213.36
526.50	34857.60
526.67	34883.34
526.84	35182.93
527.01	34778.02
527.18	35419.33
527.36	35168.89
527.53	35061.22
527.70	35833.60
527.87	35601.89
528.04	35543.38
528.21	35330.39
528.38	35981.06
528.55	36346.18
528.72	35915.52
528.89	35971.69
529.07	36168.30
529.24	35697.85
529.41	36084.04
529.58	36151.91
529.75	35913.18
529.92	35978.72
530.09	36395.33
530.26	36287.67
530.43	36458.52
530.60	36009.14
530.77	36222.13
530.94	36627.04
531.11	36538.10
531.28	36673.85
531.46	36708.96
531.63	36760.45
531.80	36217.45
531.97	36615.34
532.14	36629.38
532.31	36748.75
532.48	36671.51
532.65	36947.70
532.82	36886.84
532.99	37193.45
533.16	36912.59
533.33	37041.32
533.50	37542.19
533.67	37493.04
533.84	37064.72
534.01	37163.03
534.18	37291.76
534.35	38124.99
534.52	37497.72
534.69	37876.89
534.86	37729.44
535.03	37741.14
535.20	37301.12
535.37	38326.27
535.54	38202.22
535.71	37783.27
535.88	37652.20
536.05	38183.50
536.22	38426.92
536.38	38260.74
536.55	38014.98
536.72	38307.55
536.89	37687.31
537.06	38309.89
537.23	37912.00
537.40	37699.01
537.57	38307.55
537.74	38230.31
537.91	38803.74
538.08	38422.23
538.25	38153.07
538.42	38745.23
538.59	38569.69
538.75	38869.28
538.92	39164.18
539.09	38803.74
539.26	38536.92
539.43	38689.06
539.60	39040.14
539.77	39077.58
539.94	39199.29
540.11	38766.29
540.28	38782.68
540.44	38632.88
540.61	38637.56
540.78	39056.52
540.95	39077.58
541.12	38632.88
541.29	39171.21
541.46	38838.85
541.62	39447.39
541.79	39569.10
541.96	38714.80
542.13	39194.61
542.30	39386.54
542.47	39681.44
542.63	39739.96
542.80	39335.04
542.97	40023.16
543.14	40582.55
543.31	39842.94
543.48	40088.70
543.64	40399.99
543.81	39873.37
543.98	40161.25
544.15	39812.51
544.32	40392.97
544.48	40421.05
544.65	40245.51
544.82	39885.07
544.99	40140.19
545.16	40187.00
545.32	40126.14
545.49	40390.62
545.66	40755.75
545.83	40521.69
546.00	40498.29
546.16	40617.66
546.33	40301.68
546.50	39784.43
546.67	40498.29
546.83	40336.79
547.00	40528.72
547.17	40704.26
547.34	40491.27
547.50	40704.26
547.67	41240.24
547.84	41008.53
548.00	41020.23
548.17	41392.37
548.34	41106.83
548.51	41088.10
548.67	41502.38
548.84	41443.87
549.01	41324.50
549.18	40875.12
549.34	41544.51
549.51	41570.25
549.68	41258.96
549.84	41270.67
550.01	41572.60
550.18	41364.29
550.34	41406.42
550.51	41265.99
550.68	41184.07
550.84	41804.31
551.01	41511.74
551.18	41455.57
551.34	41897.93
551.51	41481.31
551.68	41773.88
551.84	41916.65
552.01	41748.14
552.18	41832.39
552.34	41628.77
552.51	41752.82
552.68	42073.47
552.84	41832.39
553.01	42134.32
553.18	42307.52
553.34	41745.80
553.51	42157.73
553.67	41923.68
553.84	42017.30
554.01	41741.11
554.17	42522.85
554.34	42480.72
554.51	42167.09
554.67	42539.24
554.84	42597.75
555.00	42225.60
555.17	42244.33
555.33	42429.23
555.50	42473.70
555.67	42373.06
555.83	42499.45
556.00	42731.16
556.16	42946.49
556.33	42864.57
556.50	42497.11
556.66	42614.13
556.83	42759.25
556.99	42792.01
557.16	42862.23
557.32	42466.68
557.49	42714.78
557.65	42721.80
557.82	42291.14
557.98	42747.54
558.15	42726.48
558.32	43349.06
558.48	42777.97
558.65	42824.78
558.81	43005.00
558.98	42862.23
559.14	42782.65
559.31	42630.52
559.47	42827.12
559.64	43007.34
559.80	43030.75
559.97	43344.38
560.13	43030.75
560.30	43068.20
560.46	43091.60
560.63	42941.81
560.79	43229.69
560.96	43409.92
561.12	43248.42
561.29	43147.78
561.45	42892.66
561.61	43147.78
561.78	43456.73
561.94	43210.97
562.11	43016.71
562.27	42946.49
562.44	43175.86
562.60	43576.09
562.77	43498.86
562.93	43084.58
563.10	42993.30
563.26	43030.75
563.42	43360.76
563.59	43311.61
563.75	43030.75
563.92	43501.20
564.08	43416.94
564.24	43732.91
564.41	43428.64
564.57	42934.79
564.74	43821.85
564.90	43604.18
565.07	43690.78
565.23	43845.26
565.39	43269.48
565.56	43873.34
565.72	43686.10
565.88	43625.25
566.05	43496.52
566.21	43667.37
566.38	43573.75
566.54	43412.26
566.70	43704.82
566.87	44259.53
567.03	43957.60
567.19	43906.11
567.36	43920.15
567.52	43580.78
567.68	43749.29
567.85	43683.76
568.01	43555.03
568.17	43672.06
568.34	43583.12
568.50	43669.72
568.66	43573.75
568.83	44254.85
568.99	43952.92
569.15	43828.87
569.32	43852.28
569.48	43543.33
569.64	44416.35
569.81	43751.63
569.97	43988.03
570.13	43522.26
570.30	43669.72
570.46	43718.87
570.62	43592.48
570.78	43751.63
570.95	43833.55
571.11	43964.62
571.27	43959.94
571.43	43796.10
571.60	44025.48
571.76	43810.15
571.92	43866.32
572.09	43704.82
572.25	44231.44
572.41	43552.69
572.57	43665.03
572.74	44605.93
572.90	44123.78
573.06	43931.86
573.22	44229.10
573.38	44013.77
573.55	43938.88
573.71	44437.41
573.87	44538.05
574.03	43550.35
574.20	44002.07
574.36	44079.31
574.52	44074.63
574.68	43957.60
574.84	44336.77
575.01	44158.89
575.17	43978.67
575.33	44093.35
575.49	44172.93
575.65	44580.18
575.82	44416.35
575.98	44144.84
576.14	44320.38
576.30	44144.84
576.46	44039.52
576.62	44367.20
576.79	44027.82
576.95	43847.60
577.11	44266.55
577.27	44025.48
577.43	44320.38
577.59	44179.95
577.75	44058.24
577.92	44079.31
578.08	44168.25
578.24	43887.39
578.40	44399.96
578.56	44137.82
578.72	44114.42
578.88	44430.39
579.04	44051.22
579.21	44215.06
579.37	43744.61
579.53	43950.58
579.69	43842.92
579.85	44304.00
580.01	43917.81
580.17	44205.70
580.33	44304.00
580.49	44538.05
580.65	44002.07
580.82	44444.43
580.98	44205.70
581.14	44259.53
581.30	44580.18
581.46	44512.31
581.62	44170.59
581.78	44512.31
581.94	44439.75
582.10	44261.87
582.26	44259.53
582.42	44474.86
582.58	44245.49
582.74	44252.51
582.90	44198.68
583.06	44428.05
583.22	44519.33
583.38	44491.24
583.54	44353.15
583.70	44121.44
583.86	44105.06
584.02	43456.73
584.18	44329.75
584.34	44418.69
584.50	44304.00
584.66	44484.22
584.82	44194.00
584.98	44416.35
585.14	44601.25
585.30	44196.34
585.46	44273.57
585.62	44271.23
585.78	44109.74
585.94	43985.69
586.10	44458.48
586.26	43831.21
586.42	44311.02
586.58	44484.22
586.74	44266.55
586.90	44217.40
587.06	43971.64
587.22	44472.52
587.38	43779.72
587.54	44519.33
587.70	44458.48
587.86	44751.04
588.02	44442.09
588.18	44577.84
588.34	44201.02
588.49	44587.21
588.65	44334.43
588.81	43681.42
588.97	44182.29
589.13	44278.25
589.29	44311.02
589.45	44715.93
589.61	44421.03
589.77	44472.52
589.93	44383.58
590.08	44657.42
590.24	44807.22
590.40	44205.70
