SpectraSuite Data File
++++++++++++++++++++++++++++++++++++
Date: Fri Oct 25 11:23:10 EDT 2013
User: price-jones
Dark Spectrum Present: No
Reference Spectrum Present: No
Number of Sampled Component Spectra: 1
Spectrometers: USB2+H05261
Integration Time (usec): 100000 (USB2+H05261)
Spectra Averaged: 1 (USB2+H05261)
Boxcar Smoothing: 0 (USB2+H05261)
Correct for Electrical Dark: No (USB2+H05261)
Strobe/Lamp Enabled: No (USB2+H05261)
Correct for Detector Non-linearity: No (USB2+H05261)
Correct for Stray Light: No (USB2+H05261)
Number of Pixels in Processed Spectrum: 2048
>>>>>Begin Processed Spectral Data<<<<<
365.73	250.44
365.92	250.44
366.12	250.44
366.32	170.86
366.52	117.03
366.72	159.16
366.91	126.39
367.11	142.77
367.31	91.28
367.51	156.82
367.70	39.79
367.90	201.29
368.10	135.75
368.30	175.54
368.49	91.28
368.69	114.69
368.89	114.69
369.09	105.32
369.28	194.26
369.48	170.86
369.68	142.77
369.87	175.54
370.07	168.52
370.27	236.39
370.47	311.29
370.66	641.31
370.86	538.32
371.06	617.90
371.25	702.16
371.45	671.73
371.65	704.50
371.84	723.23
372.04	681.10
372.24	685.78
372.44	706.84
372.63	727.91
372.83	763.01
373.03	730.25
373.22	704.50
373.42	699.82
373.62	770.04
373.81	889.40
374.01	779.40
374.21	727.91
374.40	835.57
374.60	882.38
374.79	849.61
374.99	830.89
375.19	821.53
375.38	791.10
375.58	819.19
375.78	863.66
375.97	868.34
376.17	898.77
376.37	835.57
376.56	854.30
376.76	919.83
376.95	833.23
377.15	866.00
377.35	861.32
377.54	896.43
377.74	894.08
377.93	887.06
378.13	854.30
378.33	910.47
378.52	887.06
378.72	908.13
378.91	943.24
379.11	905.79
379.31	1004.09
379.50	976.00
379.70	961.96
379.89	922.17
380.09	994.73
380.28	943.24
380.48	936.21
380.68	985.37
380.87	973.66
381.07	1057.92
381.26	1036.86
381.46	985.37
381.65	957.28
381.85	997.07
382.04	1090.69
382.24	1086.01
382.43	1055.58
382.63	1025.15
382.83	1055.58
383.02	1177.29
383.22	1177.29
383.41	1090.69
383.61	1109.41
383.80	1062.60
384.00	1160.91
384.19	1128.14
384.39	1146.86
384.58	1198.35
384.78	1142.18
384.97	1135.16
385.17	1090.69
385.36	1142.18
385.56	1153.88
385.75	1193.67
385.95	1151.54
386.14	1193.67
386.34	1188.99
386.53	1128.14
386.72	1219.42
386.92	1306.02
387.11	1231.12
387.31	1273.25
387.50	1219.42
387.70	1196.01
387.89	1249.85
388.09	1261.55
388.28	1277.93
388.48	1350.49
388.67	1383.26
388.86	1357.51
389.06	1327.08
389.25	1413.68
389.45	1411.34
389.64	1362.19
389.84	1315.38
390.03	1350.49
390.22	1432.41
390.42	1357.51
390.61	1296.66
390.81	1439.43
391.00	1291.98
391.19	1493.26
391.39	1448.79
391.58	1409.00
391.78	1476.88
391.97	1533.05
392.16	1537.73
392.36	1540.07
392.55	1448.79
392.75	1593.90
392.94	1535.39
393.13	1563.48
393.33	1497.94
393.52	1540.07
393.71	1657.10
393.91	1577.52
394.10	1664.12
394.29	1549.43
394.49	1678.16
394.68	1605.61
394.88	1544.75
395.07	1661.78
395.26	1652.42
395.46	1619.65
395.65	1671.14
395.84	1767.10
396.04	1879.45
396.23	1788.17
396.42	1713.27
396.62	1788.17
396.81	1818.60
397.00	1781.15
397.19	1842.00
397.39	1827.96
397.58	1830.30
397.77	1886.47
397.97	1933.28
398.16	1849.02
398.35	1893.49
398.55	1811.57
398.74	1884.13
398.93	1886.47
399.12	2003.50
399.32	1893.49
399.51	1909.88
399.70	2160.31
399.90	2029.24
400.09	2118.18
400.28	2146.27
400.47	2111.16
400.67	2111.16
400.86	2045.63
401.05	2087.76
401.24	2066.69
401.44	2139.25
401.63	2136.91
401.82	2047.97
402.01	2174.36
402.21	2218.83
402.40	2228.19
402.59	2270.32
402.78	2181.38
402.97	2232.87
403.17	2289.04
403.36	2296.07
403.55	2296.07
403.74	2387.35
403.93	2455.22
404.13	2401.39
404.32	2401.39
404.51	2401.39
404.70	2450.54
404.89	2420.11
405.09	2487.99
405.28	2431.82
405.47	2539.48
405.66	2621.40
405.85	2567.57
406.05	2485.65
406.24	2527.78
406.43	2480.97
406.62	2705.66
406.81	2670.55
407.00	2597.99
407.20	2605.02
407.39	2679.91
407.58	2803.96
407.77	2773.53
407.96	2810.98
408.15	2754.81
408.34	2796.94
408.54	2733.75
408.73	2902.26
408.92	2892.90
409.11	2935.03
409.30	2951.42
409.49	3014.61
409.68	2993.55
409.87	2937.37
410.07	2944.39
410.26	3061.42
410.45	3077.80
410.64	3176.11
410.83	3038.02
411.02	3117.59
411.21	3169.09
411.40	3197.17
411.59	3206.53
411.78	3234.62
411.98	3236.96
412.17	3356.33
412.36	3243.98
412.55	3351.65
412.74	3452.29
412.93	3487.40
413.12	3351.65
413.31	3604.42
413.50	3475.70
413.69	3590.38
413.88	3609.11
414.07	3520.17
414.26	3641.87
414.45	3761.24
414.64	3730.81
414.83	3808.05
415.02	3758.90
415.22	3803.37
415.41	4070.19
415.60	3852.52
415.79	3810.39
415.98	3971.89
416.17	3934.44
416.36	3960.19
416.55	3981.25
416.74	4154.45
416.93	4098.28
417.12	4109.98
417.31	4191.90
417.50	4241.05
417.69	4271.48
417.88	4133.39
418.07	4369.78
418.26	4311.27
418.45	4395.53
418.64	4585.11
418.83	4592.13
419.02	4531.28
419.21	4702.14
419.39	4587.45
419.58	4528.94
419.77	4615.54
419.96	4622.56
420.15	4660.01
420.34	4662.35
420.53	4667.03
420.72	4641.28
420.91	4765.33
421.10	4755.97
421.29	4905.76
421.48	4737.24
421.67	4816.82
421.86	4753.63
422.05	4772.35
422.24	4784.06
422.43	4908.10
422.61	5083.64
422.80	5022.79
422.99	4856.61
423.18	4954.91
423.37	5043.85
423.56	4912.78
423.75	4933.85
423.94	4781.71
424.13	4578.09
424.32	4828.53
424.50	5064.92
424.69	5067.26
424.88	5128.11
425.07	4971.30
425.26	4943.21
425.45	4999.38
425.64	4940.87
425.83	4964.28
426.01	4985.34
426.20	5156.20
426.39	5097.69
426.58	5097.69
426.77	5085.98
426.96	5210.03
427.15	5277.91
427.33	5331.74
427.52	5245.14
427.71	5420.68
427.90	5284.93
428.09	5359.83
428.28	5479.19
428.46	5497.92
428.65	5392.59
428.84	5636.01
429.03	5636.01
429.22	5408.98
429.40	5675.80
429.59	5579.84
429.78	5378.55
429.97	5247.48
430.16	5607.92
430.34	5750.70
430.53	5856.02
430.72	5715.59
430.91	5528.35
431.10	5755.38
431.28	5738.99
431.47	5811.55
431.66	5802.19
431.85	5849.00
432.03	5839.64
432.22	5987.09
432.41	6010.50
432.60	5987.09
432.79	5977.73
432.97	6017.52
433.16	6078.37
433.35	6148.59
433.54	6174.33
433.72	6136.88
433.91	6078.37
434.10	6214.12
434.28	6064.33
434.47	6162.63
434.66	6134.54
434.85	6340.51
435.03	6338.17
435.22	6438.81
435.41	6478.60
435.59	6534.78
435.78	6471.58
435.97	6546.48
436.16	6530.09
436.34	6389.66
436.53	6403.71
436.72	6738.40
436.90	6413.07
437.09	6761.81
437.28	6686.91
437.46	6586.27
437.65	6516.05
437.84	6834.36
438.02	6881.18
438.21	7061.40
438.40	6869.47
438.58	7021.61
438.77	7145.66
438.96	6960.75
439.14	7290.77
439.33	7293.11
439.52	7169.06
439.70	7229.91
439.89	7606.74
440.08	7595.04
440.26	7342.26
440.45	7520.14
440.63	7658.23
440.82	7660.57
441.01	7686.32
441.19	7852.50
441.38	7655.89
441.57	7695.68
441.75	8032.72
441.94	7981.23
442.12	8011.65
442.31	7939.10
442.50	8011.65
442.68	8088.89
442.87	8093.57
443.05	8102.93
443.24	8313.58
443.43	8201.24
443.61	8215.28
443.80	8428.27
443.98	8102.93
444.17	7960.16
444.35	8318.26
444.54	8500.83
444.73	8409.54
444.91	8397.84
445.10	8477.42
445.28	8451.67
445.47	8439.97
445.65	8135.70
445.84	8477.42
446.02	8617.85
446.21	8512.53
446.39	8582.74
446.58	8650.62
446.77	8559.34
446.95	8549.98
447.14	8395.50
447.32	8655.30
447.51	8503.17
447.69	8650.62
447.88	8774.67
448.06	8477.42
448.25	8624.87
448.43	8861.27
448.62	8566.36
448.80	8664.66
448.99	8856.59
449.17	8636.58
449.36	8594.45
449.54	8849.57
449.73	8980.64
449.91	9125.75
450.10	9004.04
450.28	9146.81
450.46	9357.46
450.65	9315.33
450.83	9048.51
451.02	9277.88
451.20	9397.25
451.39	9247.46
451.57	9221.71
451.76	9132.77
451.94	9434.70
452.13	9219.37
452.31	9437.04
452.49	9163.20
452.68	9631.30
452.86	9413.63
453.05	9380.87
453.23	9500.23
453.42	9530.66
453.60	9563.43
453.78	9584.49
453.97	9556.41
454.15	9479.17
454.34	9542.36
454.52	9916.85
454.70	9708.54
454.89	9717.90
455.07	9984.73
455.26	9832.59
455.44	10005.79
455.62	10150.90
455.81	10010.47
455.99	9956.64
456.17	10104.09
456.36	10101.75
456.54	10284.31
456.73	10279.63
456.91	10506.66
457.09	10562.84
457.28	10558.16
457.46	10473.90
457.64	10644.76
457.83	10562.84
458.01	10438.79
458.19	10878.81
458.38	10703.27
458.56	10850.72
458.74	10649.44
458.93	10890.51
459.11	10757.10
459.29	10810.93
459.48	10967.75
459.66	10927.96
459.84	10897.53
460.03	11253.30
460.21	10888.17
460.39	11194.78
460.57	11049.67
460.76	11304.79
460.94	11412.45
461.12	11229.89
461.31	11143.29
461.49	11384.37
461.67	11370.32
461.85	11728.42
462.04	11461.60
462.22	11693.32
462.40	11908.65
462.59	11822.05
462.77	11683.95
462.95	11850.13
463.13	11929.71
463.32	11595.01
463.50	11964.82
463.68	12006.95
463.86	11852.47
464.05	11630.12
464.23	11999.93
464.41	12032.69
464.59	11852.47
464.78	12074.82
464.96	12049.08
465.14	12025.67
465.32	12154.40
465.50	12360.37
465.69	12322.92
465.87	12283.13
466.05	12390.80
466.23	12545.27
466.41	12608.47
466.60	12683.36
466.78	12102.91
466.96	12198.87
467.14	12594.42
467.32	12444.63
467.51	12573.36
467.69	12353.35
467.87	12681.02
468.05	12671.66
468.23	12552.29
468.41	12498.46
468.60	12627.19
468.78	12734.85
468.96	12863.58
469.14	13015.72
469.32	13172.54
469.50	12503.14
469.69	13025.08
469.87	12952.52
470.05	13181.90
470.23	13476.80
470.41	13224.03
470.59	13589.15
470.77	13275.52
470.95	13305.95
471.14	13509.57
471.32	13348.08
471.50	13888.74
471.68	13556.38
471.86	13958.96
472.04	13902.78
472.22	14155.56
472.40	13617.24
472.58	13942.57
472.77	14284.29
472.95	14295.99
473.13	14420.04
473.31	14036.19
473.49	14445.79
473.67	14092.37
473.85	14644.73
474.03	15049.64
474.21	14857.72
474.39	14963.04
474.57	14860.06
474.75	15101.14
474.93	15225.18
475.12	15070.71
475.30	15307.10
475.48	15042.62
475.66	15349.23
475.84	15541.16
476.02	15545.84
476.20	15634.78
476.38	15826.70
476.56	16182.46
476.74	16175.44
476.92	16250.34
477.10	15978.84
477.28	16369.71
477.46	16152.04
477.64	16545.25
477.82	16858.88
478.00	17116.34
478.18	16875.26
478.36	17102.29
478.54	17165.49
478.72	17516.57
478.90	17687.43
479.08	17699.13
479.26	17692.11
479.44	18017.44
479.62	18073.62
479.80	18085.32
479.98	18403.63
480.16	18616.62
480.34	18728.97
480.52	18904.51
480.70	18951.32
480.88	18679.82
481.06	18909.19
481.24	19033.24
481.41	19510.71
481.59	19648.80
481.77	19562.20
481.95	19819.66
482.13	20074.77
482.31	19943.70
482.49	20397.77
482.67	20294.79
482.85	20629.48
483.03	20898.64
483.21	21064.82
483.39	21249.72
483.57	21074.18
483.74	21591.44
483.92	21568.04
484.10	21350.37
484.28	21986.99
484.46	22153.17
484.64	22953.63
484.82	22436.38
485.00	22595.53
485.18	23208.75
485.35	23349.18
485.53	23194.71
485.71	23344.50
485.89	23768.14
486.07	23882.83
486.25	23566.85
486.43	23630.05
486.61	24093.47
486.78	24407.11
486.96	24514.77
487.14	25132.67
487.32	24884.58
487.50	25289.49
487.68	25280.13
487.85	25202.89
488.03	25701.42
488.21	26001.01
488.39	26085.27
488.57	26551.04
488.75	26525.29
488.92	26799.13
489.10	26969.99
489.28	26904.46
489.46	27716.62
489.64	27562.15
489.81	27969.40
489.99	27995.15
490.17	28582.62
490.35	28643.48
490.53	28711.35
490.70	28678.58
490.88	28369.63
491.06	29149.03
491.24	29193.50
491.41	29659.27
491.59	29642.88
491.77	29619.48
491.95	29865.24
492.13	30246.74
492.30	30047.80
492.48	30511.22
492.66	30665.70
492.84	30754.64
493.01	31192.32
493.19	30738.26
493.37	31250.83
493.54	31204.02
493.72	31882.78
493.90	31798.52
494.08	31976.40
494.25	32025.55
494.43	32524.08
494.61	32449.19
494.79	32652.81
494.96	33057.73
495.14	32755.80
495.32	33446.26
495.49	33366.68
495.67	33518.81
495.85	33804.36
496.02	34295.87
496.20	34064.16
496.38	34380.13
496.55	34672.70
496.73	35346.77
496.91	35042.50
497.09	35295.28
497.26	35316.34
497.44	35449.75
497.62	35770.41
497.79	36219.79
497.97	35894.46
498.14	36259.58
498.32	36666.83
498.50	36308.73
498.67	36830.67
498.85	37050.68
499.03	37315.16
499.20	37193.45
499.38	37258.99
499.56	37156.00
499.73	37511.77
499.91	37539.85
500.08	37951.79
500.26	37801.99
500.44	38110.94
500.61	38387.13
500.79	38045.41
500.97	38389.47
501.14	38946.51
501.32	38857.57
501.49	39234.40
501.67	39185.25
501.84	39690.80
502.02	39021.41
502.20	39531.65
502.37	39674.42
502.55	39529.31
502.72	39828.90
502.90	40519.35
503.07	40133.17
503.25	40144.87
503.43	40184.66
503.60	40624.68
503.78	40683.19
503.95	40921.93
504.13	40992.14
504.30	40926.61
504.48	41064.70
504.65	41336.20
504.83	41603.02
505.01	42096.88
505.18	41769.20
505.36	42003.25
505.53	41741.11
505.71	41888.57
505.88	42218.58
506.06	41909.63
506.23	42321.57
506.41	42410.51
506.58	42794.36
506.76	42445.62
506.93	43021.39
507.11	42864.57
507.28	43068.20
507.46	43019.05
507.63	43030.75
507.81	43779.72
507.98	43435.66
508.16	43599.50
508.33	43957.60
508.50	44231.44
508.68	43849.94
508.85	44493.58
509.03	44589.55
509.20	44765.09
509.38	44938.29
509.55	44547.42
509.73	44851.69
509.90	44917.22
510.08	44488.90
510.25	45598.32
510.42	45113.83
510.60	45497.67
510.77	45830.03
510.95	45612.36
511.12	45413.41
511.30	45900.25
511.47	46010.25
511.64	45808.96
511.82	46550.91
511.99	45888.54
512.17	46330.90
512.34	46305.16
512.51	46663.26
512.69	46974.55
512.86	46710.07
513.04	46902.00
513.21	46916.04
513.38	47122.01
513.56	47618.20
513.73	47166.48
513.90	47760.97
514.08	47339.68
514.25	47870.98
514.43	47744.59
514.60	47531.60
514.77	47835.87
514.95	48259.51
515.12	48037.16
515.29	48336.74
515.47	48472.49
515.64	48399.94
515.81	48327.38
515.99	48584.84
516.16	49162.95
516.33	48823.58
516.51	49378.28
516.68	49001.46
516.85	49041.24
517.03	49574.89
517.20	49291.68
517.37	48971.03
517.54	49333.81
517.72	49411.05
517.89	49460.20
518.06	49675.53
518.24	49542.12
518.41	49792.56
518.58	49516.37
518.75	49881.50
518.93	50358.97
519.10	49940.01
519.27	50452.59
519.45	50096.83
519.62	50426.84
519.79	50475.99
519.96	50347.26
520.14	50740.47
520.31	50527.48
520.48	51201.56
520.65	50766.22
520.83	51215.60
521.00	51332.63
521.17	50948.78
521.34	51077.51
521.52	51098.58
521.69	51344.33
521.86	51412.21
522.03	51910.74
522.20	51672.01
522.38	51950.53
522.55	51854.57
522.72	51868.61
522.89	51845.21
523.07	52025.43
523.24	51840.53
523.41	52186.92
523.58	52016.07
523.75	52481.83
523.92	52266.50
524.10	52334.38
524.27	52507.58
524.44	52299.27
524.61	52079.26
524.78	52502.90
524.96	52594.18
525.13	52875.04
525.30	52715.89
525.47	52750.99
525.64	53071.65
525.81	53148.88
525.98	53160.59
526.16	52851.64
526.33	53155.91
526.50	53286.98
526.67	52973.34
526.84	53392.30
527.01	53282.30
527.18	53296.34
527.36	53638.06
527.53	53495.28
527.70	53970.41
527.87	53766.79
528.04	53338.47
528.21	53670.82
528.38	53619.33
528.55	54115.53
528.72	53642.74
528.89	53874.45
529.07	53879.13
529.24	53970.41
529.41	53893.18
529.58	54052.33
529.75	54028.93
529.92	54328.52
530.09	54356.60
530.26	54265.32
530.43	54155.32
530.60	54019.56
530.77	54197.44
530.94	54169.36
531.11	54066.38
531.28	54674.91
531.46	54485.33
531.63	54901.95
531.80	54691.30
531.97	54588.31
532.14	54866.84
532.31	54468.95
532.48	54894.92
532.65	54915.99
532.82	54822.37
532.99	54997.91
533.16	55084.51
533.33	55288.13
533.50	55356.01
533.67	55262.39
533.84	55164.09
534.01	55103.23
534.18	55372.39
534.35	55604.11
534.52	55442.61
534.69	55646.24
534.86	55449.63
535.03	55393.46
535.20	55498.78
535.37	55625.17
535.54	55798.37
535.71	55629.85
535.88	55772.63
536.05	55849.86
536.22	55856.88
536.38	56048.81
536.55	55915.40
536.72	56165.84
536.89	55980.93
537.06	55999.66
537.23	55973.91
537.40	55641.56
537.57	56147.11
537.74	56090.94
537.91	56207.97
538.08	56079.24
538.25	56109.66
538.42	56226.69
538.59	56353.08
538.75	56198.60
538.92	56264.14
539.09	56523.94
539.26	56395.21
539.43	56474.79
539.60	56580.11
539.77	56392.87
539.94	56956.94
540.11	56687.78
540.28	56706.50
540.44	56685.43
540.61	56849.27
540.78	56687.78
540.95	56685.43
541.12	56418.61
541.29	56779.06
541.46	56853.95
541.62	56949.92
541.79	57043.54
541.96	56673.73
542.13	57027.15
542.30	57092.69
542.47	57006.09
542.63	56994.39
542.80	57322.06
542.97	57392.28
543.14	57471.85
543.31	57378.23
543.48	57429.72
543.64	57808.89
543.81	57708.25
543.98	57556.11
544.15	57532.71
544.32	57935.28
544.48	57902.51
544.65	57790.17
544.82	57696.55
544.99	57471.85
545.16	57652.08
545.32	57867.40
545.49	58085.07
545.66	58031.24
545.83	57853.36
546.00	57986.77
546.16	57928.26
546.33	57900.17
546.50	57935.28
546.67	57911.88
546.83	57673.14
547.00	58141.25
547.17	58183.38
547.34	58087.42
547.50	58028.90
547.67	58333.17
547.84	58234.87
548.00	58361.26
548.17	58738.08
548.34	58410.41
548.51	58602.33
548.67	58499.35
548.84	58585.95
549.01	58504.03
549.18	58468.92
549.34	58473.60
549.51	58459.56
549.68	58660.85
549.84	58541.48
550.01	58927.67
550.18	58635.10
550.34	58693.61
550.51	58717.02
550.68	58805.96
550.84	58592.97
551.01	59028.31
551.18	58915.96
551.34	58913.62
551.51	58756.81
551.68	58925.33
551.84	58810.64
552.01	58731.06
552.18	59049.38
552.34	58927.67
552.51	59257.68
552.68	58789.58
552.84	58920.65
553.01	59231.94
553.18	58965.12
553.34	59203.85
553.51	59011.93
553.67	59187.47
553.84	59306.83
554.01	59164.06
554.17	59295.13
554.34	59405.14
554.51	59194.49
554.67	59243.64
554.84	59264.70
555.00	59465.99
555.17	59206.19
555.33	59348.96
555.50	59245.98
555.67	59100.87
555.83	59332.58
556.00	59346.62
556.16	59803.03
556.33	59590.04
556.50	59505.78
556.66	59772.60
556.83	59363.01
556.99	59735.15
557.16	59756.22
557.32	59735.15
557.49	59959.84
557.65	59590.04
557.82	59515.14
557.98	59711.75
558.15	59643.87
558.32	59725.79
558.48	59781.96
558.65	59767.92
558.81	59676.64
558.98	59938.78
559.14	59852.18
559.31	60025.38
559.47	59997.29
559.64	60037.08
559.80	59917.71
559.97	59948.14
560.13	59924.74
560.30	59941.12
560.46	60041.76
560.63	59999.63
560.79	60217.30
560.96	60245.39
561.12	59910.69
561.29	59994.95
561.45	60144.75
561.61	60156.45
561.78	60025.38
561.94	60016.02
562.11	60058.15
562.27	60266.45
562.44	60182.19
562.60	60231.35
562.77	60367.10
562.93	60135.38
563.10	60308.58
563.26	60095.60
563.42	60516.89
563.59	60233.69
563.75	60320.29
563.92	60390.50
564.08	60224.32
564.24	60458.38
564.41	60423.27
564.57	60530.93
564.74	60245.39
564.90	60446.68
565.07	60439.65
565.23	60477.10
565.39	60535.62
565.56	60603.49
565.72	60287.52
565.88	60502.85
566.05	60301.56
566.21	60444.33
566.38	60631.58
566.54	60697.11
566.70	60715.84
566.87	60615.19
567.03	60430.29
567.19	60750.94
567.36	60486.46
567.52	60481.78
567.68	60750.94
567.85	60711.16
568.01	60645.62
568.17	60568.38
568.34	60776.69
568.50	60650.30
568.66	60603.49
568.83	60608.17
568.99	60507.53
569.15	60617.53
569.32	60521.57
569.48	60669.03
569.64	60795.42
569.81	60669.03
569.97	60622.22
570.13	60647.96
570.30	60339.01
570.46	60807.12
570.62	60999.04
570.78	60580.09
570.95	60823.50
571.11	61078.62
571.27	60769.67
571.43	60938.19
571.60	60935.85
571.76	60842.23
571.92	60764.99
572.09	60697.11
572.25	60933.51
572.41	60720.52
572.57	60886.70
572.74	60905.42
572.90	60802.44
573.06	60828.18
573.22	60779.03
573.38	61069.26
573.55	60865.63
573.71	61207.35
573.87	60863.29
574.03	60708.82
574.20	60889.04
574.36	60938.19
574.52	61027.13
574.68	60905.42
574.84	61066.92
575.01	61144.16
575.17	61071.60
575.33	60970.96
575.49	61073.94
575.65	61186.28
575.82	61315.01
575.98	61038.83
576.14	61139.47
576.30	61137.13
576.46	61031.81
576.62	61092.66
576.79	61073.94
576.95	60830.52
577.11	60968.61
577.27	61237.78
577.43	60905.42
577.59	61069.26
577.75	61043.51
577.92	60985.00
578.08	61017.77
578.24	61230.75
578.40	61144.16
578.56	61249.48
578.72	61155.86
578.88	61244.80
579.04	61364.17
579.21	61293.95
579.37	61258.84
579.53	61261.18
579.69	60963.93
579.85	61078.62
580.01	61263.52
580.17	60954.57
580.33	61148.84
580.49	61158.20
580.65	61291.61
580.82	61172.24
580.98	61022.45
581.14	61099.68
581.30	61305.65
581.46	61020.11
581.62	61010.74
581.78	61216.71
581.94	61127.77
582.10	61188.63
582.26	61066.92
582.42	61179.26
582.58	61275.22
582.74	61165.22
582.90	61265.86
583.06	61090.32
583.22	61080.96
583.38	61106.71
583.54	61214.37
583.70	61212.03
583.86	61385.23
584.02	61020.11
584.18	61319.70
584.34	61219.05
584.50	61350.12
584.66	61155.86
584.82	60947.55
584.98	61462.47
585.14	61378.21
585.30	61116.07
585.46	61169.90
585.62	61282.25
585.78	61354.80
585.94	61408.64
586.10	61357.14
586.26	61284.59
586.42	61371.19
586.58	61310.33
586.74	61125.43
586.90	61275.22
587.06	61158.20
587.22	61509.28
587.38	61399.27
587.54	61733.97
587.70	61457.79
587.86	61389.91
588.02	61406.30
588.18	61385.23
588.34	61263.52
588.49	61331.40
