SpectraSuite Data File
++++++++++++++++++++++++++++++++++++
Date: Fri Oct 25 11:33:38 EDT 2013
User: price-jones
Dark Spectrum Present: No
Reference Spectrum Present: No
Number of Sampled Component Spectra: 1
Spectrometers: USB2+H05261
Integration Time (usec): 100000 (USB2+H05261)
Spectra Averaged: 1 (USB2+H05261)
Boxcar Smoothing: 0 (USB2+H05261)
Correct for Electrical Dark: No (USB2+H05261)
Strobe/Lamp Enabled: No (USB2+H05261)
Correct for Detector Non-linearity: No (USB2+H05261)
Correct for Stray Light: No (USB2+H05261)
Number of Pixels in Processed Spectrum: 2048
>>>>>Begin Processed Spectral Data<<<<<
365.73	315.97
365.92	315.97
366.12	315.97
366.32	212.99
366.52	227.03
366.72	276.18
366.91	189.58
367.11	217.67
367.31	173.20
367.51	175.54
367.70	145.11
367.90	241.08
368.10	173.20
368.30	163.84
368.49	156.82
368.69	229.37
368.89	194.26
369.09	177.88
369.28	234.05
369.48	168.52
369.68	250.44
369.87	259.80
370.07	271.50
370.27	217.67
370.47	278.52
370.66	428.32
370.86	557.05
371.06	594.50
371.25	550.03
371.45	472.79
371.65	592.16
371.84	594.50
372.04	566.41
372.24	533.64
372.44	606.20
372.63	596.84
372.83	620.24
373.03	585.13
373.22	585.13
373.42	674.07
373.62	641.31
373.81	667.05
374.01	678.76
374.21	610.88
374.40	676.41
374.60	638.97
374.79	678.76
374.99	688.12
375.19	655.35
375.38	634.29
375.58	706.84
375.78	599.18
375.97	627.26
376.17	772.38
376.37	674.07
376.56	620.24
376.76	631.94
376.95	725.57
377.15	765.36
377.35	669.39
377.54	725.57
377.74	681.10
377.93	711.52
378.13	739.61
378.33	648.33
378.52	697.48
378.72	676.41
378.91	727.91
379.11	650.67
379.31	683.44
379.50	678.76
379.70	732.59
379.89	702.16
380.09	727.91
380.28	706.84
380.48	699.82
380.68	816.85
380.87	779.40
381.07	716.20
381.26	744.29
381.46	748.97
381.65	791.10
381.85	788.76
382.04	730.25
382.24	744.29
382.43	781.74
382.63	779.40
382.83	791.10
383.02	779.40
383.22	730.25
383.41	821.53
383.61	779.40
383.80	795.78
384.00	807.48
384.19	706.84
384.39	777.06
384.58	802.80
384.78	873.02
384.97	870.68
385.17	805.14
385.36	931.53
385.56	863.66
385.75	842.59
385.95	898.77
386.14	896.43
386.34	835.57
386.53	851.96
386.72	851.96
386.92	854.30
387.11	915.15
387.31	922.17
387.50	912.81
387.70	868.34
387.89	931.53
388.09	959.62
388.28	898.77
388.48	929.19
388.67	992.39
388.86	990.05
389.06	983.02
389.25	847.27
389.45	901.11
389.64	938.55
389.84	983.02
390.03	873.02
390.22	954.94
390.42	973.66
390.61	908.13
390.81	952.60
391.00	1039.20
391.19	1022.81
391.39	912.81
391.58	1104.73
391.78	971.32
391.97	1060.26
392.16	940.90
392.36	1039.20
392.55	1067.28
392.75	1022.81
392.94	1006.43
393.13	961.96
393.33	1104.73
393.52	1057.92
393.71	1107.07
393.91	1109.41
394.10	1095.37
394.29	1174.95
394.49	1116.44
394.68	1151.54
394.88	1074.31
395.07	1219.42
395.26	1153.88
395.46	1076.65
395.65	1135.16
395.84	1181.97
396.04	1235.80
396.23	1203.04
396.42	1188.99
396.62	1219.42
396.81	1210.06
397.00	1287.29
397.19	1299.00
397.39	1263.89
397.58	1181.97
397.77	1193.67
397.97	1287.29
398.16	1301.34
398.35	1263.89
398.55	1224.10
398.74	1247.51
398.93	1348.15
399.12	1266.23
399.32	1296.66
399.51	1378.58
399.70	1401.98
399.90	1338.79
400.09	1364.53
400.28	1427.73
400.47	1373.89
400.67	1378.58
400.86	1371.55
401.05	1404.32
401.24	1460.49
401.44	1441.77
401.63	1472.20
401.82	1418.36
402.01	1420.71
402.21	1451.13
402.40	1502.62
402.59	1504.96
402.78	1495.60
402.97	1500.28
403.17	1533.05
403.36	1570.50
403.55	1540.07
403.74	1558.80
403.93	1612.63
404.13	1633.69
404.32	1654.76
404.51	1575.18
404.70	1551.78
404.89	1668.80
405.09	1785.83
405.28	1776.47
405.47	1673.48
405.66	1729.66
405.85	1804.55
406.05	1732.00
406.24	1755.40
406.43	1680.50
406.62	1802.21
406.81	1823.28
407.00	1757.74
407.20	1729.66
407.39	1881.79
407.58	1799.87
407.77	1877.11
407.96	1804.55
408.15	1966.05
408.34	1898.17
408.54	1989.46
408.73	1949.67
408.92	1902.86
409.11	2017.54
409.30	2071.37
409.49	2050.31
409.68	1984.77
409.87	1998.82
410.07	2015.20
410.26	2092.44
410.45	1963.71
410.64	2080.74
410.83	2155.63
411.02	2139.25
411.21	2174.36
411.40	2186.06
411.59	2143.93
411.78	2118.18
411.98	2225.85
412.17	2197.76
412.36	2279.68
412.55	2286.70
412.74	2406.07
412.93	2387.35
413.12	2263.30
413.31	2352.24
413.50	2392.03
413.69	2499.69
413.88	2445.86
414.07	2408.41
414.26	2497.35
414.45	2588.63
414.64	2581.61
414.83	2635.44
415.02	2619.06
415.22	2621.40
415.41	2717.36
415.60	2569.91
415.79	2712.68
415.98	2679.91
416.17	2640.12
416.36	2712.68
416.55	2684.59
416.74	2775.88
416.93	2876.52
417.12	2864.82
417.31	2822.69
417.50	2935.03
417.69	2972.48
417.88	2953.76
418.07	2913.97
418.26	2956.10
418.45	2949.08
418.64	3122.27
418.83	3030.99
419.02	3185.47
419.21	3094.19
419.39	3145.68
419.58	3075.46
419.77	3141.00
419.96	3176.11
420.15	3103.55
420.34	3185.47
420.53	3232.28
420.72	3260.37
420.91	3356.33
421.10	3171.43
421.29	3297.81
421.48	3349.31
421.67	3323.56
421.86	3274.41
422.05	3403.14
422.24	3276.75
422.43	3386.76
422.61	3368.03
422.80	3529.53
422.99	3487.40
423.18	3398.46
423.37	3494.42
423.56	3417.18
423.75	3368.03
423.94	3485.06
424.13	3155.04
424.32	3159.72
424.50	3660.60
424.69	3618.47
424.88	3492.08
425.07	3370.37
425.26	3419.52
425.45	3311.86
425.64	3431.23
425.83	3358.67
426.01	3609.11
426.20	3485.06
426.39	3391.44
426.58	3424.20
426.77	3545.91
426.96	3454.63
427.15	3445.27
427.33	3503.78
427.52	3590.38
427.71	3709.75
427.90	3588.04
428.09	3726.13
428.28	3676.98
428.46	3658.26
428.65	3616.13
428.84	3742.52
429.03	3768.26
429.22	3702.73
429.40	3733.15
429.59	3777.62
429.78	3646.55
429.97	3658.26
430.16	3852.52
430.34	3971.89
430.53	3960.19
430.72	3857.20
430.91	3850.18
431.10	3749.54
431.28	3948.48
431.47	3974.23
431.66	3920.40
431.85	3971.89
432.03	4037.42
432.22	4021.04
432.41	4037.42
432.60	4025.72
432.79	4131.05
432.97	4011.68
433.16	4156.79
433.35	4095.94
433.54	4215.30
433.72	4187.22
433.91	4126.36
434.10	4215.30
434.28	4189.56
434.47	4173.18
434.66	4208.28
434.85	4292.54
435.03	4294.88
435.22	4283.18
435.41	4379.14
435.59	4447.02
435.78	4447.02
435.97	4479.79
436.16	4430.63
436.34	4421.27
436.53	4547.66
436.72	4418.93
436.90	4479.79
437.09	4587.45
437.28	4526.60
437.46	4531.28
437.65	4531.28
437.84	4638.94
438.02	4650.64
438.21	4615.54
438.40	4676.39
438.58	4734.90
438.77	4873.00
438.96	4741.93
439.14	4788.74
439.33	4793.42
439.52	4870.65
439.70	5027.47
439.89	5008.75
440.08	5027.47
440.26	4985.34
440.45	4971.30
440.63	5064.92
440.82	5149.18
441.01	5121.09
441.19	5256.84
441.38	5320.04
441.57	5266.21
441.75	5249.82
441.94	5432.38
442.12	5404.30
442.31	5432.38
442.50	5584.52
442.68	5357.49
442.87	5350.46
443.05	5636.01
443.24	5607.92
443.43	5533.03
443.61	5542.39
443.80	5771.76
443.98	5385.57
444.17	5331.74
444.35	5577.50
444.54	5724.95
444.73	5509.62
444.91	5830.27
445.10	5596.22
445.28	5612.60
445.47	5504.94
445.65	5621.97
445.84	5797.51
446.02	5687.50
446.21	5689.84
446.39	5654.73
446.58	5825.59
446.77	5776.44
446.95	5549.41
447.14	5767.08
447.32	5783.46
447.51	5724.95
447.69	5804.53
447.88	5579.84
448.06	5802.19
448.25	5713.25
448.43	5767.08
448.62	5905.17
448.80	5792.83
448.99	5788.14
449.17	5956.66
449.36	5783.46
449.54	5933.26
449.73	5970.71
449.91	6242.21
450.10	6029.22
450.28	6010.50
450.46	6237.53
450.65	6108.80
450.83	6230.51
451.02	6073.69
451.20	6326.47
451.39	6228.17
451.57	6211.78
451.76	5966.03
451.94	6181.35
452.13	6415.41
452.31	6265.61
452.49	6148.59
452.68	6207.10
452.86	6298.38
453.05	6509.03
453.23	6537.12
453.42	6399.02
453.60	6141.57
453.78	6555.84
453.97	6445.84
454.15	6520.73
454.34	6305.40
454.52	6487.96
454.70	6686.91
454.89	6513.71
455.07	6661.16
455.26	6363.92
455.44	6640.10
455.62	6583.93
455.81	6731.38
455.99	6647.12
456.17	6862.45
456.36	6789.89
456.54	6890.54
456.73	6850.75
456.91	7028.63
457.09	7021.61
457.28	7119.91
457.46	6923.30
457.64	7155.02
457.83	7091.82
458.01	6972.46
458.19	7274.38
458.38	7194.81
458.56	7253.32
458.74	7131.61
458.93	7171.40
459.11	7211.19
459.29	7241.62
459.48	7332.90
459.66	7276.73
459.84	7225.23
460.03	7531.84
460.21	7426.52
460.39	7456.95
460.57	7349.28
460.76	7597.38
460.94	7442.90
461.12	7681.64
461.31	7344.60
461.49	7557.59
461.67	7627.81
461.85	7473.33
462.04	7468.65
462.22	8074.85
462.40	7803.35
462.59	7681.64
462.77	7658.23
462.95	7761.22
463.13	7751.85
463.32	7894.63
463.50	7892.29
463.68	7932.08
463.86	7990.59
464.05	7885.26
464.23	7932.08
464.41	7920.37
464.59	7906.33
464.78	7988.25
464.96	7831.43
465.14	7887.61
465.32	7971.86
465.50	8025.70
465.69	8226.98
465.87	8205.92
466.05	8098.25
466.23	8121.66
466.41	8280.82
466.60	8393.16
466.78	8329.97
466.96	8168.47
467.14	8128.68
467.32	8308.90
467.51	8472.74
467.69	8177.83
467.87	8489.12
468.05	8437.63
468.23	8180.17
468.41	8407.20
468.60	8592.11
468.78	8685.73
468.96	8463.38
469.14	8571.04
469.32	8667.00
469.50	8454.02
469.69	8692.75
469.87	8772.33
470.05	8685.73
470.23	8741.90
470.41	8814.46
470.59	8997.02
470.77	8840.20
470.95	9006.38
471.14	8990.00
471.32	8887.01
471.50	8954.89
471.68	9219.37
471.86	9210.01
472.04	9252.14
472.22	9362.14
472.40	9320.01
472.58	9109.36
472.77	9231.07
472.95	9415.98
473.13	9745.99
473.31	9362.14
473.49	9324.69
473.67	9614.92
473.85	9537.68
474.03	9722.59
474.21	9863.02
474.39	9806.84
474.57	9926.21
474.75	9863.02
474.93	9928.55
475.12	9991.75
475.30	9888.76
475.48	10076.01
475.66	10190.69
475.84	10342.83
476.02	10377.94
476.20	10246.87
476.38	10361.55
476.56	10743.06
476.74	10665.82
476.92	10443.47
477.10	10637.73
477.28	10707.95
477.46	10682.20
477.64	10782.85
477.82	10815.62
478.00	11250.96
478.18	11220.53
478.36	11246.27
478.54	11215.85
478.72	11412.45
478.90	11433.52
479.08	11688.64
479.26	11824.39
479.44	11768.21
479.62	11873.54
479.80	11800.98
479.98	11864.18
480.16	12322.92
480.34	12058.44
480.52	12285.47
480.70	12439.95
480.88	12163.76
481.06	12250.36
481.24	12428.24
481.41	12496.12
481.59	12624.85
481.77	12739.54
481.95	13025.08
482.13	13193.60
482.31	12964.23
482.49	13341.05
482.67	13460.42
482.85	13483.83
483.03	13575.11
483.21	13834.91
483.39	13809.16
483.57	13710.86
483.74	13977.68
483.92	13956.61
484.10	14075.98
484.28	14384.93
484.46	14530.05
484.64	14581.54
484.82	14595.58
485.00	14892.83
485.18	15108.16
485.35	15279.02
485.53	15250.93
485.71	15112.84
485.89	15487.32
486.07	15393.70
486.25	15651.16
486.43	15573.92
486.61	15838.41
486.78	15693.29
486.96	15917.98
487.14	16259.70
487.32	16067.78
487.50	16496.10
487.68	16446.94
487.85	16744.19
488.03	16875.26
488.21	17151.45
488.39	17209.96
488.57	17245.07
488.75	17099.95
488.92	17467.42
489.10	17755.30
489.28	17802.11
489.46	17741.26
489.64	17968.29
489.81	18267.88
489.99	18321.71
490.17	18218.73
490.35	18417.68
490.53	18265.54
490.70	18724.29
490.88	18593.22
491.06	18834.29
491.24	18974.72
491.41	18960.68
491.59	19037.92
491.77	19374.95
491.95	19328.14
492.13	19868.81
492.30	19929.66
492.48	19779.87
492.66	19866.47
492.84	20039.67
493.01	20091.16
493.19	20262.02
493.37	20350.96
493.54	20423.51
493.72	20713.74
493.90	20350.96
494.08	20912.69
494.25	20900.98
494.43	20924.39
494.61	21067.16
494.79	21542.29
494.96	21371.43
495.14	21439.31
495.32	21598.46
495.49	21715.49
495.67	21851.24
495.85	21855.92
496.02	22127.42
496.20	22527.66
496.38	22345.09
496.55	22438.72
496.73	23129.17
496.91	22672.77
497.09	22970.02
497.26	23356.21
497.44	22864.69
497.62	23058.96
497.79	23503.66
497.97	23030.87
498.14	23831.33
498.32	23814.95
498.50	23484.94
498.67	24091.13
498.85	24133.26
499.03	24201.14
499.20	24453.92
499.38	23976.45
499.56	24322.85
499.73	24327.53
499.91	24664.57
500.08	24931.39
500.26	24692.65
500.44	24961.81
500.61	24861.17
500.79	24858.83
500.97	25123.31
501.14	25738.87
501.32	25546.95
501.49	25497.80
501.67	25397.15
501.84	25638.23
502.02	25326.94
502.20	25336.30
502.37	25514.18
502.55	25853.56
502.72	25963.56
502.90	26066.55
503.07	26099.31
503.25	26160.17
503.43	26087.61
503.60	26417.63
503.78	26389.54
503.95	26682.11
504.13	26611.89
504.30	26462.10
504.48	26899.78
504.65	27049.57
504.83	26932.54
505.01	27236.81
505.18	27388.95
505.36	27442.78
505.53	27250.86
505.71	27463.85
505.88	27447.46
506.06	27510.66
506.23	27807.90
506.41	27651.09
506.58	27632.36
506.76	27697.90
506.93	28067.70
507.11	28278.35
507.28	28065.36
507.46	27887.48
507.63	28203.46
507.81	28734.76
507.98	28027.92
508.16	28369.63
508.33	28559.22
508.50	29099.88
508.68	28830.72
508.85	29060.09
509.03	28844.76
509.20	29186.48
509.38	29132.65
509.55	29493.09
509.73	29710.76
509.90	29228.61
510.08	29226.27
510.25	29603.10
510.42	29312.87
510.60	29898.00
510.77	30000.99
510.95	30366.11
511.12	30019.71
511.30	30235.04
511.47	30251.42
511.64	30291.21
511.82	30387.18
511.99	30333.34
512.17	30794.43
512.34	30721.87
512.51	30696.13
512.69	30911.46
512.86	30976.99
513.04	30848.26
513.21	30808.47
513.38	31227.43
513.56	31222.75
513.73	31182.96
513.90	30934.86
514.08	31208.70
514.25	31512.97
514.43	31655.75
514.60	31543.40
514.77	31859.37
514.95	31566.81
515.12	31475.52
515.29	31747.03
515.47	31892.14
515.64	32112.15
515.81	31945.97
515.99	32573.24
516.16	32385.99
516.33	32498.34
516.51	32446.85
516.68	32191.73
516.85	32910.27
517.03	32528.77
517.20	33186.46
517.37	32252.58
517.54	32947.72
517.72	33090.49
517.89	33277.74
518.06	33280.08
518.24	33287.10
518.41	32774.52
518.58	32987.51
518.75	32730.05
518.93	33331.57
519.10	33383.06
519.27	33511.79
519.45	33420.51
519.62	33900.32
519.79	33680.31
519.96	33689.67
520.14	33876.91
520.31	33670.95
520.48	33921.38
520.65	34452.69
520.83	34405.88
521.00	34586.10
521.17	34604.82
521.34	34492.47
521.52	34724.19
521.69	34808.45
521.86	34499.50
522.03	34684.40
522.20	35346.77
522.38	35339.75
522.55	34862.28
522.72	35129.10
522.89	35126.76
523.07	35702.53
523.24	35306.98
523.41	35463.80
523.58	35644.02
523.75	35536.35
523.92	35365.49
524.10	35531.67
524.27	35828.92
524.44	35564.44
524.61	35761.05
524.78	35882.75
524.96	36119.15
525.13	35772.75
525.30	36318.09
525.47	36395.33
525.64	36189.36
525.81	36627.04
525.98	36533.42
526.16	36477.25
526.33	36285.33
526.50	36713.64
526.67	36294.69
526.84	36842.37
527.01	36807.26
527.18	36933.65
527.36	36863.44
527.53	37359.63
527.70	36802.58
527.87	37628.79
528.04	36994.51
528.21	36978.12
528.38	37507.08
528.55	37237.92
528.72	37151.32
528.89	37200.47
529.07	37256.65
529.24	36989.83
529.41	37773.91
529.58	37640.50
529.75	37830.08
529.92	38014.98
530.09	37738.80
530.26	37778.59
530.43	37949.45
530.60	37937.74
530.77	38050.09
530.94	38045.41
531.11	37862.85
531.28	37933.06
531.46	37675.60
531.63	38490.11
531.80	38401.17
531.97	38602.46
532.14	38363.72
532.31	38265.42
532.48	38581.39
532.65	38845.87
532.82	38153.07
532.99	38731.18
533.16	38838.85
533.33	39115.03
533.50	39297.59
533.67	39040.14
533.84	39007.37
534.01	39206.31
534.18	39208.65
534.35	39056.52
534.52	39281.21
534.69	39641.65
534.86	39412.28
535.03	39395.90
535.20	39442.71
535.37	39721.23
535.54	39693.15
535.71	39332.70
535.88	39611.23
536.05	39590.16
536.22	39718.89
536.38	39793.79
536.55	39517.60
536.72	39903.79
536.89	40095.72
537.06	39938.90
537.23	40009.12
537.40	39922.52
537.57	39838.26
537.74	39969.33
537.91	40425.73
538.08	39896.77
538.25	40079.33
538.42	40278.28
538.59	40439.78
538.75	40395.31
538.92	40212.74
539.09	40751.07
539.26	40418.71
539.43	40404.67
539.60	40289.98
539.77	40650.42
539.94	41163.00
540.11	40650.42
540.28	40507.65
540.44	40893.84
540.61	41078.74
540.78	40648.08
540.95	40800.22
541.12	41132.57
541.29	40954.69
541.46	41029.59
541.62	41130.23
541.79	41067.04
541.96	40861.07
542.13	40854.05
542.30	41312.80
542.47	41368.97
542.63	41542.17
542.80	41724.73
542.97	41619.41
543.14	42101.56
543.31	41890.91
543.48	41890.91
543.64	42412.85
543.81	42445.62
543.98	42038.36
544.15	41921.34
544.32	42349.65
544.48	42635.20
544.65	42326.25
544.82	42518.17
544.99	42061.77
545.16	42459.66
545.32	42525.19
545.49	42663.28
545.66	42859.89
545.83	42782.65
546.00	42611.79
546.16	42342.63
546.33	42464.34
546.50	42555.62
546.67	42637.54
546.83	42431.57
547.00	42796.70
547.17	42520.51
547.34	42639.88
547.50	43133.73
547.67	43159.48
547.84	42939.47
548.00	43068.20
548.17	42976.92
548.34	43344.38
548.51	43360.76
548.67	43173.52
548.84	43517.58
549.01	43634.61
549.18	43707.16
549.34	43372.47
549.51	43604.18
549.68	43725.89
549.84	42838.83
550.01	43941.22
550.18	43606.52
550.34	43070.54
550.51	44170.59
550.68	44271.23
550.84	43510.56
551.01	44215.06
551.18	43330.34
551.34	43824.19
551.51	43777.38
551.68	44060.58
551.84	44091.01
552.01	43550.35
552.18	44254.85
552.34	43969.30
552.51	44296.98
552.68	43922.49
552.84	44348.47
553.01	44121.44
553.18	44332.09
553.34	44339.11
553.51	44304.00
553.67	44495.92
553.84	44882.11
554.01	44533.37
554.17	44311.02
554.34	44994.46
554.51	45010.84
554.67	44802.53
554.84	44746.36
555.00	44069.95
555.17	44847.00
555.33	44814.24
555.50	44591.89
555.67	45272.98
555.83	44863.39
556.00	44942.97
556.16	45467.25
556.33	45137.23
556.50	44814.24
556.66	45027.23
556.83	44781.47
556.99	45235.53
557.16	45207.45
557.32	44982.76
557.49	45570.23
557.65	44449.11
557.82	45191.06
557.98	45118.51
558.15	45404.05
558.32	45059.99
558.48	45045.95
558.65	45361.92
558.81	45074.04
558.98	45113.83
559.14	45308.09
559.31	45102.12
559.47	45177.02
559.64	45247.24
559.80	45563.21
559.97	45535.12
560.13	45628.74
560.30	45368.94
560.46	45488.31
560.63	46047.70
560.79	45965.78
560.96	45727.05
561.12	45794.92
561.29	45663.85
561.45	46103.87
561.61	45914.29
561.78	45846.41
561.94	45858.12
562.11	45858.12
562.27	45663.85
562.44	45539.80
562.60	45904.93
562.77	45996.21
562.93	46312.18
563.10	46335.59
563.26	45680.24
563.42	46174.09
563.59	46265.37
563.75	45949.40
563.92	46192.81
564.08	45731.73
564.24	46038.34
564.41	46106.21
564.57	46038.34
564.74	46078.13
564.90	46103.87
565.07	46143.66
565.23	46108.55
565.39	46323.88
565.56	46433.89
565.72	45954.08
565.88	46258.35
566.05	46225.58
566.21	46040.68
566.38	46054.72
566.54	46527.51
566.70	46253.67
566.87	46370.69
567.03	46300.48
567.19	46630.49
567.36	46408.14
567.52	46504.10
567.68	46361.33
567.85	46770.93
568.01	46768.58
568.17	46389.42
568.34	46239.62
568.50	46564.96
568.66	46473.68
568.83	46923.06
568.99	46389.42
569.15	46560.28
569.32	46333.24
569.48	46368.35
569.64	46817.74
569.81	46663.26
569.97	46787.31
570.13	46848.16
570.30	46609.43
570.46	46576.66
570.62	46714.75
570.78	46543.89
570.95	46742.84
571.11	47136.05
571.27	46574.32
571.43	46986.25
571.60	46728.80
571.76	46705.39
571.92	46560.28
572.09	47030.72
572.25	46473.68
572.41	46974.55
572.57	46972.21
572.74	47166.48
572.90	46740.50
573.06	46981.57
573.22	47452.02
573.38	46944.12
573.55	47414.57
573.71	47260.10
573.87	46887.95
574.03	46930.08
574.20	47227.33
574.36	46616.45
574.52	46681.98
574.68	46789.65
574.84	46806.03
575.01	46958.17
575.17	46962.85
575.33	46995.62
575.49	47313.93
575.65	47196.90
575.82	47386.49
575.98	47224.99
576.14	47250.74
576.30	47306.91
576.46	47093.92
576.62	46796.67
576.79	47196.90
576.95	46548.57
577.11	46588.36
577.27	47196.90
577.43	46770.93
577.59	47077.54
577.75	47353.72
577.92	46494.74
578.08	46976.89
578.24	47269.46
578.40	47892.04
578.56	47395.85
578.72	46990.94
578.88	47519.90
579.04	47180.52
579.21	46766.24
579.37	47098.60
579.53	47484.79
579.69	47110.30
579.85	47178.18
580.01	47302.23
580.17	47426.28
580.33	47665.01
580.49	47323.29
580.65	47632.24
580.82	46979.23
580.98	47281.16
581.14	47264.78
581.30	47320.95
581.46	47283.50
581.62	47166.48
581.78	46862.21
581.94	47515.22
582.10	47367.76
582.26	47648.63
582.42	47416.91
582.58	47480.11
582.74	47302.23
582.90	47241.37
583.06	47510.53
583.22	47304.57
583.38	47145.41
583.54	47606.50
583.70	47180.52
583.86	47540.96
584.02	47091.58
584.18	47608.84
584.34	47805.44
584.50	47639.26
584.66	47615.86
584.82	47430.96
584.98	47576.07
585.14	47618.20
585.30	47311.59
585.46	47470.75
585.62	47800.76
585.78	47683.73
585.94	47318.61
586.10	47311.59
586.26	47545.64
586.42	47196.90
586.58	47412.23
586.74	47461.38
586.90	47367.76
587.06	47407.55
587.22	47751.61
587.38	47405.21
587.54	47803.10
587.70	47868.64
587.86	47629.90
588.02	47311.59
588.18	47400.53
588.34	47517.56
588.49	47484.79
588.65	47381.80
588.81	47487.13
588.97	47536.28
589.13	47875.66
589.29	47765.65
589.45	47751.61
589.61	47625.22
589.77	47665.01
589.93	47622.88
590.08	47927.15
