SpectraSuite Data File
++++++++++++++++++++++++++++++++++++
Date: Fri Oct 25 10:43:33 EDT 2013
User: price-jones
Dark Spectrum Present: No
Reference Spectrum Present: No
Number of Sampled Component Spectra: 1
Spectrometers: USB2+H05261
Integration Time (usec): 100000 (USB2+H05261)
Spectra Averaged: 1 (USB2+H05261)
Boxcar Smoothing: 0 (USB2+H05261)
Correct for Electrical Dark: No (USB2+H05261)
Strobe/Lamp Enabled: No (USB2+H05261)
Correct for Detector Non-linearity: No (USB2+H05261)
Correct for Stray Light: No (USB2+H05261)
Number of Pixels in Processed Spectrum: 2048
>>>>>Begin Processed Spectral Data<<<<<
365.73	91.28
365.92	91.28
366.12	91.28
366.32	46.81
366.52	84.26
366.72	4.68
366.91	25.75
367.11	16.38
367.31	0.00
367.51	0.00
367.70	14.04
367.90	51.49
368.10	30.43
368.30	30.43
368.49	0.00
368.69	53.83
368.89	37.45
369.09	67.88
369.28	42.13
369.48	51.49
369.68	42.13
369.87	53.83
370.07	93.62
370.27	88.94
370.47	128.73
370.66	306.61
370.86	353.42
371.06	444.70
371.25	437.68
371.45	512.58
371.65	528.96
371.84	486.83
372.04	472.79
372.24	498.53
372.44	454.06
372.63	528.96
372.83	559.39
373.03	517.26
373.22	489.17
373.42	470.45
373.62	528.96
373.81	507.90
374.01	573.43
374.21	610.88
374.40	477.47
374.60	603.86
374.79	573.43
374.99	587.47
375.19	629.60
375.38	524.28
375.58	622.58
375.78	608.54
375.97	578.11
376.17	669.39
376.37	543.00
376.56	641.31
376.76	589.82
376.95	606.20
377.15	622.58
377.35	655.35
377.54	606.20
377.74	653.01
377.93	657.69
378.13	763.01
378.33	655.35
378.52	582.79
378.72	699.82
378.91	631.94
379.11	674.07
379.31	648.33
379.50	662.37
379.70	641.31
379.89	645.99
380.09	648.33
380.28	702.16
380.48	671.73
380.68	660.03
380.87	667.05
381.07	751.31
381.26	718.54
381.46	753.65
381.65	706.84
381.85	709.18
382.04	725.57
382.24	688.12
382.43	690.46
382.63	758.33
382.83	641.31
383.02	725.57
383.22	763.01
383.41	711.52
383.61	732.59
383.80	807.48
384.00	751.31
384.19	798.12
384.39	772.38
384.58	821.53
384.78	798.12
384.97	758.33
385.17	854.30
385.36	805.14
385.56	828.55
385.75	720.88
385.95	777.06
386.14	887.06
386.34	889.40
386.53	908.13
386.72	826.21
386.92	849.61
387.11	819.19
387.31	877.70
387.50	875.36
387.70	821.53
387.89	800.46
388.09	877.70
388.28	786.42
388.48	805.14
388.67	940.90
388.86	999.41
389.06	947.92
389.25	957.28
389.45	1039.20
389.64	971.32
389.84	990.05
390.03	1067.28
390.22	1034.52
390.42	997.07
390.61	985.37
390.81	1053.24
391.00	1067.28
391.19	1095.37
391.39	1015.79
391.58	1111.75
391.78	1076.65
391.97	1074.31
392.16	994.73
392.36	1104.73
392.55	992.39
392.75	926.85
392.94	1008.77
393.13	1053.24
393.33	990.05
393.52	985.37
393.71	1139.84
393.91	1004.09
394.10	1116.44
394.29	1238.14
394.49	1109.41
394.68	1137.50
394.88	1170.27
395.07	1266.23
395.26	1142.18
395.46	1228.78
395.65	1226.44
395.84	1146.86
396.04	1329.42
396.23	1214.74
396.42	1200.69
396.62	1224.10
396.81	1198.35
397.00	1186.65
397.19	1266.23
397.39	1310.70
397.58	1383.26
397.77	1404.32
397.97	1432.41
398.16	1448.79
398.35	1427.73
398.55	1502.62
398.74	1514.33
398.93	1577.52
399.12	1521.35
399.32	1458.15
399.51	1497.94
399.70	1575.18
399.90	1565.82
400.09	1617.31
400.28	1570.50
400.47	1626.67
400.67	1624.33
400.86	1617.31
401.05	1579.86
401.24	1734.34
401.44	1720.29
401.63	1687.53
401.82	1703.91
402.01	1694.55
402.21	1692.21
402.40	1685.19
402.59	1762.42
402.78	1778.81
402.97	1870.09
403.17	1816.26
403.36	1816.26
403.55	1842.00
403.74	1914.56
403.93	1851.36
404.13	1923.92
404.32	1767.10
404.51	1820.94
404.70	1893.49
404.89	1900.52
405.09	2019.88
405.28	1902.86
405.47	1954.35
405.66	1933.28
405.85	1975.41
406.05	1937.96
406.24	1905.20
406.43	2083.08
406.62	2125.21
406.81	2139.25
407.00	2120.53
407.20	2038.61
407.39	2101.80
407.58	2162.66
407.77	2239.89
407.96	2279.68
408.15	2176.70
408.34	2296.07
408.54	2279.68
408.73	2239.89
408.92	2356.92
409.11	2363.94
409.30	2282.02
409.49	2239.89
409.68	2403.73
409.87	2286.70
410.07	2239.89
410.26	2300.75
410.45	2335.85
410.64	2401.39
410.83	2530.12
411.02	2597.99
411.21	2562.89
411.40	2555.86
411.59	2537.14
411.78	2668.21
411.98	2708.00
412.17	2616.72
412.36	2630.76
412.55	2719.70
412.74	2693.96
412.93	2679.91
413.12	2761.83
413.31	2972.48
413.50	2935.03
413.69	2810.98
413.88	2949.08
414.07	2928.01
414.26	2949.08
414.45	2988.86
414.64	2946.73
414.83	3002.91
415.02	2944.39
415.22	3124.62
415.41	3105.89
415.60	3040.36
415.79	3138.66
415.98	3349.31
416.17	3220.58
416.36	3178.45
416.55	3335.26
416.74	3251.00
416.93	3251.00
417.12	3363.35
417.31	3365.69
417.50	3253.34
417.69	3417.18
417.88	3403.14
418.07	3361.01
418.26	3494.42
418.45	3492.08
418.64	3674.64
418.83	3552.93
419.02	3691.02
419.21	3578.68
419.39	3651.24
419.58	3463.99
419.77	3478.04
419.96	3456.97
420.15	3588.04
420.34	3719.11
420.53	3681.66
420.72	3836.14
420.91	3899.33
421.10	3782.31
421.29	3978.91
421.48	3726.13
421.67	3946.14
421.86	3920.40
422.05	3875.93
422.24	3796.35
422.43	3815.07
422.61	3873.59
422.80	4037.42
422.99	3899.33
423.18	3988.27
423.37	4049.13
423.56	4002.32
423.75	3857.20
423.94	3824.44
424.13	3735.50
424.32	3751.88
424.50	4070.19
424.69	3934.44
424.88	3911.04
425.07	3873.59
425.26	3922.74
425.45	3796.35
425.64	4016.36
425.83	3899.33
426.01	3969.55
426.20	3964.87
426.39	4095.94
426.58	3901.67
426.77	3906.35
426.96	4023.38
427.15	4044.45
427.33	4107.64
427.52	4149.77
427.71	4159.13
427.90	4250.41
428.09	4304.25
428.28	4217.65
428.46	4079.55
428.65	4042.11
428.84	4212.96
429.03	4248.07
429.22	4088.92
429.40	4093.60
429.59	3964.87
429.78	3992.95
429.97	3908.69
430.16	3915.72
430.34	4044.45
430.53	4208.28
430.72	4299.56
430.91	4227.01
431.10	4348.72
431.28	4561.70
431.47	4660.01
431.66	4681.07
431.85	4414.25
432.03	4664.69
432.22	4652.98
432.41	4638.94
432.60	4606.17
432.79	4924.49
432.97	4631.92
433.16	4636.60
433.35	4491.49
433.54	4674.05
433.72	4674.05
433.91	4613.20
434.10	4671.71
434.28	4767.67
434.47	4961.94
434.66	4758.31
434.85	4943.21
435.03	4901.08
435.22	4971.30
435.41	5142.16
435.59	5048.54
435.78	5088.32
435.97	5254.50
436.16	5198.33
436.34	5210.03
436.53	5184.29
436.72	5345.78
436.90	5163.22
437.09	5207.69
437.28	4938.53
437.46	5085.98
437.65	5380.89
437.84	5116.41
438.02	5064.92
438.21	5055.56
438.40	5085.98
438.58	5188.97
438.77	5280.25
438.96	5373.87
439.14	5605.58
439.33	5589.20
439.52	5589.20
439.70	5652.39
439.89	5717.93
440.08	5619.63
440.26	5778.78
440.45	5767.08
440.63	5968.37
440.82	6043.26
441.01	6031.56
441.19	5830.27
441.38	6164.97
441.57	6078.37
441.75	6214.12
441.94	6193.06
442.12	6258.59
442.31	6349.87
442.50	6235.19
442.68	6277.32
442.87	6532.44
443.05	6548.82
443.24	6443.49
443.43	6534.78
443.61	6445.84
443.80	6602.65
443.98	6326.47
444.17	6200.08
444.35	6363.92
444.54	6658.82
444.73	6649.46
444.91	6445.84
445.10	6609.67
445.28	6424.77
445.47	6424.77
445.65	6537.12
445.84	6630.74
446.02	6665.85
446.21	6539.46
446.39	6581.59
446.58	6848.41
446.77	6775.85
446.95	6541.80
447.14	6759.47
447.32	6935.01
447.51	6724.36
447.69	6630.74
447.88	6686.91
448.06	6586.27
448.25	6607.33
448.43	6553.50
448.62	6761.81
448.80	6614.35
448.99	6757.13
449.17	6923.30
449.36	6906.92
449.54	7030.97
449.73	7150.34
449.91	7248.64
450.10	7304.81
450.28	7351.62
450.46	7215.87
450.65	7192.47
450.83	7236.94
451.02	7281.41
451.20	7227.57
451.39	7110.55
451.57	7302.47
451.76	7150.34
451.94	7150.34
452.13	7258.00
452.31	7258.00
452.49	6930.33
452.68	7288.43
452.86	7314.17
453.05	7173.74
453.23	7389.07
453.42	7192.47
453.60	7377.37
453.78	7428.86
453.97	7311.83
454.15	7405.46
454.34	7461.63
454.52	7595.04
454.70	7461.63
454.89	7564.61
455.07	7456.95
455.26	7651.21
455.44	7683.98
455.62	7688.66
455.81	7592.70
455.99	7927.39
456.17	7688.66
456.36	7985.91
456.54	8025.70
456.73	7864.20
456.91	8138.04
457.09	8098.25
457.28	8198.90
457.46	7934.42
457.64	7964.84
457.83	8259.75
458.01	8009.31
458.19	8269.11
458.38	8109.96
458.56	8313.58
458.74	8329.97
458.93	8362.73
459.11	8093.57
459.29	8306.56
459.48	8198.90
459.66	8175.49
459.84	8458.70
460.03	8690.41
460.21	8290.18
460.39	8500.83
460.57	8517.21
460.76	8566.36
460.94	8496.14
461.12	8636.58
461.31	8587.43
461.49	8667.00
461.67	8706.79
461.85	9027.45
462.04	8748.92
462.22	9334.06
462.40	8858.93
462.59	8889.35
462.77	8812.12
462.95	8847.22
463.13	8872.97
463.32	8973.61
463.50	8767.65
463.68	9280.22
463.86	9107.02
464.05	8891.70
464.23	8861.27
464.41	8931.48
464.59	8978.30
464.78	9221.71
464.96	9067.24
465.14	9085.96
465.32	9240.44
465.50	9404.27
465.69	9366.82
465.87	9170.22
466.05	9034.47
466.23	9205.33
466.41	9195.96
466.60	9544.70
466.78	9043.83
466.96	9240.44
467.14	9380.87
467.32	9373.85
467.51	9186.60
467.69	9263.84
467.87	9610.24
468.05	9481.51
468.23	9493.21
468.41	9488.53
468.60	9685.14
468.78	9797.48
468.96	9554.07
469.14	9736.63
469.32	9797.48
469.50	9521.30
469.69	9666.41
469.87	9788.12
470.05	9741.31
470.23	9935.57
470.41	9851.31
470.59	9954.30
470.77	10064.30
470.95	9898.13
471.14	10031.54
471.32	9774.08
471.50	10239.84
471.68	10162.61
471.86	10417.72
472.04	10349.85
472.22	10513.69
472.40	10483.26
472.58	10197.71
472.77	10501.98
472.95	10611.99
473.13	11049.67
473.31	10576.88
473.49	10469.22
473.67	10703.27
473.85	10670.50
474.03	10942.00
474.21	10986.47
474.39	11169.04
474.57	11077.76
474.75	11225.21
474.93	11056.69
475.12	11059.03
475.30	11393.73
475.48	11286.06
475.66	11220.53
475.84	11180.74
476.02	11290.74
476.20	11412.45
476.38	11693.32
476.56	11772.89
476.74	11728.42
476.92	11960.14
477.10	11999.93
477.28	12170.79
477.46	12170.79
477.64	12437.61
477.82	12365.05
478.00	12676.34
478.18	12741.88
478.36	12753.58
478.54	12762.94
478.72	12858.90
478.90	12999.34
479.08	12936.14
479.26	13114.02
479.44	13308.29
479.62	13301.26
479.80	13226.37
479.98	13586.81
480.16	13783.41
480.34	13369.14
480.52	13853.63
480.70	13748.31
480.88	13717.88
481.06	13898.10
481.24	14286.63
481.41	14265.57
481.59	14258.54
481.77	14434.08
481.95	14644.73
482.13	14668.14
482.31	14691.54
482.49	14843.68
482.67	14839.00
482.85	15042.62
483.03	15204.12
483.21	15393.70
483.39	15470.94
483.57	15566.90
483.74	15648.82
483.92	15651.16
484.10	15590.31
484.28	15880.53
484.46	15967.13
484.64	16451.63
484.82	16081.82
485.00	15873.51
485.18	16411.84
485.35	16531.20
485.53	16030.33
485.71	15983.52
485.89	16311.19
486.07	16498.44
486.25	16631.85
486.43	16741.85
486.61	17003.99
486.78	17488.48
486.96	17603.17
487.14	17603.17
487.32	17664.02
487.50	18015.10
487.68	18129.79
487.85	18181.28
488.03	18312.35
488.21	18649.39
488.39	18504.28
488.57	18668.11
488.75	18824.93
488.92	19016.85
489.10	19213.46
489.28	19239.20
489.46	19939.02
489.64	19609.01
489.81	20105.20
489.99	20112.22
490.17	20123.93
490.35	20470.33
490.53	20411.81
490.70	20741.83
490.88	20444.58
491.06	20903.32
491.24	20533.52
491.41	20629.48
491.59	21008.65
491.77	20617.78
491.95	21097.59
492.13	21057.80
492.30	21490.80
492.48	21675.70
492.66	21696.77
492.84	21912.10
493.01	21968.27
493.19	22352.12
493.37	22047.85
493.54	22391.91
493.72	22464.46
493.90	22602.55
494.08	22595.53
494.25	23136.20
494.43	23269.61
494.61	23433.44
494.79	23131.51
494.96	23414.72
495.14	23545.79
495.32	23655.79
495.49	23639.41
495.67	23983.47
495.85	24004.53
496.02	24095.82
496.20	24196.46
496.38	24301.78
496.55	24577.97
496.73	25230.98
496.91	24603.71
497.09	24893.94
497.26	24903.30
497.44	24973.52
497.62	25252.04
497.79	25214.59
497.97	24779.25
498.14	25135.01
498.32	25472.05
498.50	25671.00
498.67	25972.92
498.85	26235.06
499.03	25909.73
499.20	26403.58
499.38	26218.68
499.56	26305.28
499.73	26363.79
499.91	26675.09
500.08	26373.16
500.26	26155.49
500.44	26834.24
500.61	27110.43
500.79	26480.82
500.97	26831.90
501.14	27040.21
501.32	26967.65
501.49	27353.84
501.67	27264.90
501.84	26852.97
502.02	27634.71
502.20	27428.74
502.37	27744.71
502.55	27850.03
502.72	28079.41
502.90	28236.22
503.07	28044.30
503.25	28025.57
503.43	28107.49
503.60	28318.14
503.78	28264.31
503.95	28446.87
504.13	28278.35
504.30	28606.03
504.48	28821.36
504.65	28758.16
504.83	28950.09
505.01	29268.40
505.18	29106.90
505.36	29582.03
505.53	29605.44
505.71	29429.90
505.88	29727.14
506.06	29298.83
506.23	29617.14
506.41	29179.46
506.58	29745.87
506.76	29869.92
506.93	29881.62
507.11	29432.24
507.28	30277.17
507.46	30265.47
507.63	29607.78
507.81	30190.57
507.98	30387.18
508.16	30298.23
508.33	30654.00
508.50	30562.72
508.68	30834.22
508.85	31023.80
509.03	31061.25
509.20	30862.30
509.38	31468.50
509.55	31332.75
509.73	31068.27
509.90	31433.39
510.08	31482.55
510.25	31372.54
510.42	31480.21
510.60	31564.46
510.77	31976.40
510.95	31758.73
511.12	31732.98
511.30	32109.81
511.47	32318.12
511.64	32112.15
511.82	32320.46
511.99	32486.64
512.17	32318.12
512.34	32222.16
512.51	32259.60
512.69	32711.33
512.86	32886.87
513.04	32884.53
513.21	32891.55
513.38	32919.63
513.56	32802.61
513.73	32788.56
513.90	33048.36
514.08	32821.33
514.25	33057.73
514.43	33111.56
514.60	33390.08
514.77	33177.09
514.95	33495.41
515.12	33251.99
515.29	33572.64
515.47	34080.54
515.64	34066.50
515.81	33860.53
515.99	33689.67
516.16	33883.94
516.33	33631.16
516.51	33556.26
516.68	33083.47
516.85	33460.30
517.03	33464.98
517.20	34031.39
517.37	34108.63
517.54	34066.50
517.72	34073.52
517.89	34162.46
518.06	33834.78
518.24	33926.07
518.41	34274.80
518.58	34433.96
518.75	34714.83
518.93	34890.37
519.10	34590.78
519.27	35189.95
519.45	35253.15
519.62	35065.91
519.79	35606.57
519.96	35608.91
520.14	35562.10
520.31	35192.30
520.48	35578.48
520.65	35606.57
520.83	35552.74
521.00	35861.69
521.17	35707.21
521.34	36212.77
521.52	35990.42
521.69	36362.56
521.86	36561.51
522.03	36194.04
522.20	36016.16
522.38	36645.77
522.55	36226.81
522.72	36311.07
522.89	36528.74
523.07	36435.12
523.24	36231.49
523.41	36996.85
523.58	36835.35
523.75	37179.41
523.92	37233.24
524.10	37516.45
524.27	37174.73
524.44	37024.93
524.61	37408.78
524.78	37071.75
524.96	37109.19
525.13	37752.84
525.30	37633.47
525.47	37497.72
525.64	37563.26
525.81	37862.85
525.98	37352.61
526.16	36872.80
526.33	36854.08
526.50	37043.66
526.67	37682.62
526.84	37090.47
527.01	37479.00
527.18	37745.82
527.36	38274.78
527.53	37996.26
527.70	38103.92
527.87	38052.43
528.04	38347.34
528.21	38492.45
528.38	38625.86
528.55	39054.18
528.72	38658.63
528.89	38749.91
529.07	38677.35
529.24	38148.39
529.41	38483.09
529.58	38518.20
529.75	38628.20
529.92	39096.31
530.09	39210.99
530.26	39152.48
530.43	39257.81
530.60	38815.44
530.77	39075.24
530.94	39339.72
531.11	39028.43
531.28	39370.15
531.46	39316.32
531.63	39218.02
531.80	39227.38
531.97	38927.79
532.14	39166.52
532.31	39257.81
532.48	39328.02
532.65	39419.30
532.82	39253.12
532.99	39622.93
533.16	39269.51
533.33	39838.26
533.50	40325.09
533.67	40002.10
533.84	39693.15
534.01	39833.58
534.18	39817.19
534.35	40023.16
534.52	39756.34
534.69	40315.73
534.86	40615.32
535.03	40428.07
535.20	40655.11
535.37	40910.22
535.54	40861.07
535.71	40643.40
535.88	40453.82
536.05	40730.00
536.22	40458.50
536.38	40732.34
536.55	40933.63
536.72	40910.22
536.89	40091.04
537.06	40594.25
537.23	41853.46
537.40	40720.64
537.57	40751.07
537.74	40921.93
537.91	41212.15
538.08	41034.27
538.25	41029.59
538.42	40741.71
538.59	41483.66
538.75	40758.09
538.92	41359.61
539.09	41287.05
539.26	41303.43
539.43	41134.92
539.60	41230.88
539.77	40985.12
539.94	41380.67
540.11	41275.35
540.28	41350.24
540.44	41429.82
540.61	41565.57
540.78	41425.14
540.95	41441.53
541.12	41085.76
541.29	41717.71
541.46	41766.86
541.62	41588.98
541.79	42047.72
541.96	41867.50
542.13	41783.24
542.30	41823.03
542.47	41450.89
542.63	41642.81
542.80	42251.35
542.97	41823.03
543.14	42335.61
543.31	42202.20
543.48	42642.22
543.64	42731.16
543.81	42775.63
543.98	42679.67
544.15	43407.58
544.32	43227.35
544.48	42831.80
544.65	43236.72
544.82	42981.60
544.99	42295.82
545.16	42735.84
545.32	42300.50
545.49	43079.90
545.66	42955.85
545.83	43414.60
546.00	43215.65
546.16	42988.62
546.33	42431.57
546.50	42593.07
546.67	42684.35
546.83	42597.75
547.00	43299.91
547.17	43503.54
547.34	42859.89
547.50	42962.87
547.67	43615.88
547.84	43597.16
548.00	43629.93
548.17	44023.14
548.34	43454.39
548.51	43576.09
548.67	43662.69
548.84	43739.93
549.01	43269.48
549.18	44002.07
549.34	43878.02
549.51	43962.28
549.68	43346.72
549.84	44102.71
550.01	43643.97
550.18	43524.60
550.34	43599.50
550.51	43784.40
550.68	43751.63
550.84	43629.93
551.01	44205.70
551.18	43332.68
551.34	44053.56
551.51	44210.38
551.68	44392.94
551.84	43997.39
552.01	44142.50
552.18	44240.81
552.34	43737.59
552.51	44505.29
552.68	44086.33
552.84	44116.76
553.01	44177.61
553.18	44172.93
553.34	44369.54
553.51	43901.43
553.67	44402.30
553.84	44680.83
554.01	44823.60
554.17	44889.13
554.34	44568.48
554.51	44346.13
554.67	44659.76
554.84	44399.96
555.00	44449.11
555.17	44236.12
555.33	44624.65
555.50	44615.29
555.67	44863.39
555.83	44835.30
556.00	44505.29
556.16	45249.58
556.33	44629.34
556.50	45310.43
556.66	44772.11
556.83	44638.70
556.99	44889.13
557.16	44772.11
557.32	44456.14
557.49	44914.88
557.65	44732.32
557.82	45415.76
557.98	44954.67
558.15	44706.57
558.32	44940.63
558.48	44587.21
558.65	44673.81
558.81	44804.88
558.98	44547.42
559.14	44774.45
559.31	44781.47
559.47	45184.04
559.64	45237.87
559.80	44898.50
559.97	44825.94
560.13	45083.40
560.30	45757.47
560.46	44898.50
560.63	45701.30
560.79	45532.78
560.96	45331.50
561.12	45340.86
561.29	44952.33
561.45	45289.37
561.61	44978.07
561.78	45237.87
561.94	44935.95
562.11	44992.12
562.27	45226.17
562.44	45464.91
562.60	45869.82
562.77	45099.78
562.93	45144.25
563.10	45790.24
563.26	45200.43
563.42	45656.83
563.59	45462.57
563.75	45488.31
563.92	45373.63
564.08	45731.73
564.24	45399.37
564.41	45834.71
564.57	45361.92
564.74	45731.73
564.90	44919.56
565.07	45361.92
565.23	45928.33
565.39	45469.59
565.56	45390.01
565.72	45256.60
565.88	45202.77
566.05	45621.72
566.21	45340.86
566.38	45551.51
566.54	45624.06
566.70	45741.09
566.87	46045.36
567.03	45560.87
567.19	46136.64
567.36	46279.41
567.52	45385.33
567.68	45942.38
567.85	46038.34
568.01	45455.54
568.17	45439.16
568.34	46204.52
568.50	45918.97
568.66	45741.09
568.83	45317.45
568.99	44980.42
569.15	45593.64
569.32	45603.00
569.48	45462.57
569.64	46195.15
569.81	45778.54
569.97	45738.75
570.13	45907.27
570.30	45572.57
570.46	45312.77
570.62	45076.38
570.78	45244.90
570.95	45125.53
571.11	45661.51
571.27	45392.35
571.43	45492.99
571.60	45841.73
571.76	45677.90
571.92	45797.26
572.09	45607.68
572.25	46031.32
572.41	45556.19
572.57	46197.49
572.74	46373.03
572.90	45834.71
573.06	46314.52
573.22	45752.79
573.38	45937.69
573.55	45474.27
573.71	45834.71
573.87	45956.42
574.03	45773.86
574.20	45914.29
574.36	45553.85
574.52	45911.95
574.68	46012.59
574.84	45855.78
575.01	45752.79
575.17	45860.46
575.33	45591.30
575.49	45605.34
575.65	46124.94
575.82	45961.10
575.98	45598.32
576.14	45923.65
576.30	45998.55
576.46	45729.39
576.62	45677.90
576.79	45743.43
576.95	45729.39
577.11	46141.32
577.27	45872.16
577.43	45865.14
577.59	45750.45
577.75	45476.61
577.92	44931.26
578.08	45207.45
578.24	45720.02
578.40	45759.81
578.56	45675.55
578.72	45834.71
578.88	46223.24
579.04	46199.83
579.21	45626.40
579.37	45820.67
579.53	45895.56
579.69	45371.28
579.85	45881.52
580.01	45624.06
580.17	46043.02
580.33	46185.79
580.49	45778.54
580.65	45951.74
580.82	45797.26
580.98	45872.16
581.14	45724.71
581.30	46260.69
581.46	45722.37
581.62	46344.95
581.78	45841.73
581.94	46167.07
582.10	46192.81
582.26	45963.44
582.42	46263.03
582.58	46059.40
582.74	45911.95
582.90	45991.53
583.06	46017.27
583.22	46066.42
583.38	46213.88
583.54	46574.32
583.70	46183.45
583.86	46305.16
584.02	45738.75
584.18	45956.42
584.34	46225.58
584.50	45991.53
584.66	45869.82
584.82	45588.95
584.98	46157.70
585.14	46265.37
585.30	45897.91
585.46	45925.99
585.62	45574.91
585.78	46089.83
585.94	45668.53
586.10	45993.87
586.26	45663.85
586.42	45661.51
586.58	46361.33
586.74	45916.63
586.90	45752.79
587.06	45909.61
587.22	46195.15
587.38	46225.58
587.54	46148.34
587.70	46660.92
587.86	45921.31
588.02	45670.87
588.18	46279.41
588.34	45743.43
588.49	45736.41
588.65	45645.13
588.81	45581.93
588.97	45586.61
589.13	45502.35
589.29	45034.25
589.45	45516.40
589.61	45806.62
589.77	45975.14
589.93	46019.61
590.08	45855.78
