SpectraSuite Data File
++++++++++++++++++++++++++++++++++++
Date: Fri Oct 25 11:26:40 EDT 2013
User: price-jones
Dark Spectrum Present: No
Reference Spectrum Present: No
Number of Sampled Component Spectra: 1
Spectrometers: USB2+H05261
Integration Time (usec): 100000 (USB2+H05261)
Spectra Averaged: 1 (USB2+H05261)
Boxcar Smoothing: 0 (USB2+H05261)
Correct for Electrical Dark: No (USB2+H05261)
Strobe/Lamp Enabled: No (USB2+H05261)
Correct for Detector Non-linearity: No (USB2+H05261)
Correct for Stray Light: No (USB2+H05261)
Number of Pixels in Processed Spectrum: 2048
>>>>>Begin Processed Spectral Data<<<<<
365.73	250.44
365.92	250.44
366.12	250.44
366.32	154.48
366.52	166.18
366.72	168.52
366.91	105.32
367.11	138.09
367.31	189.58
367.51	145.11
367.70	140.43
367.90	126.39
368.10	110.01
368.30	126.39
368.49	102.98
368.69	156.82
368.89	149.79
369.09	117.03
369.28	173.20
369.48	182.56
369.68	184.90
369.87	238.73
370.07	224.69
370.27	283.20
370.47	327.68
370.66	589.82
370.86	697.48
371.06	662.37
371.25	746.63
371.45	629.60
371.65	723.23
371.84	688.12
372.04	645.99
372.24	704.50
372.44	720.88
372.63	791.10
372.83	774.72
373.03	669.39
373.22	758.33
373.42	709.18
373.62	805.14
373.81	751.31
374.01	781.74
374.21	802.80
374.40	791.10
374.60	858.98
374.79	798.12
374.99	856.64
375.19	791.10
375.38	929.19
375.58	938.55
375.78	861.32
375.97	805.14
376.17	877.70
376.37	884.72
376.56	866.00
376.76	828.55
376.95	903.45
377.15	901.11
377.35	873.02
377.54	968.98
377.74	884.72
377.93	1001.75
378.13	877.70
378.33	1043.88
378.52	908.13
378.72	990.05
378.91	915.15
379.11	901.11
379.31	952.60
379.50	950.26
379.70	959.62
379.89	999.41
380.09	1006.43
380.28	1032.18
380.48	983.02
380.68	1071.97
380.87	973.66
381.07	1013.45
381.26	1001.75
381.46	1109.41
381.65	940.90
381.85	1100.05
382.04	1006.43
382.24	1081.33
382.43	1076.65
382.63	1125.80
382.83	1121.12
383.02	1156.22
383.22	1114.10
383.41	1041.54
383.61	1039.20
383.80	1156.22
384.00	1109.41
384.19	1102.39
384.39	1095.37
384.58	1186.65
384.78	1210.06
384.97	1193.67
385.17	1156.22
385.36	1118.78
385.56	1090.69
385.75	1240.48
385.95	1165.59
386.14	1291.98
386.34	1247.51
386.53	1261.55
386.72	1217.08
386.92	1200.69
387.11	1268.57
387.31	1299.00
387.50	1284.95
387.70	1254.53
387.89	1270.91
388.09	1371.55
388.28	1371.55
388.48	1252.19
388.67	1327.08
388.86	1280.27
389.06	1385.60
389.25	1406.66
389.45	1355.17
389.64	1378.58
389.84	1348.15
390.03	1373.89
390.22	1380.92
390.42	1416.02
390.61	1401.98
390.81	1310.70
391.00	1509.65
391.19	1483.90
391.39	1345.81
391.58	1511.99
391.78	1561.14
391.97	1523.69
392.16	1495.60
392.36	1577.52
392.55	1605.61
392.75	1589.22
392.94	1495.60
393.13	1507.30
393.33	1575.18
393.52	1540.07
393.71	1624.33
393.91	1556.46
394.10	1652.42
394.29	1598.59
394.49	1584.54
394.68	1549.43
394.88	1659.44
395.07	1673.48
395.26	1643.06
395.46	1748.38
395.65	1825.62
395.84	1816.26
396.04	1804.55
396.23	1708.59
396.42	1818.60
396.62	1823.28
396.81	1750.72
397.00	1837.32
397.19	1830.30
397.39	1778.81
397.58	1806.89
397.77	1750.72
397.97	1912.22
398.16	1874.77
398.35	1921.58
398.55	1877.11
398.74	1940.30
398.93	1928.60
399.12	1944.99
399.32	1928.60
399.51	1902.86
399.70	2001.16
399.90	1942.64
400.09	1970.73
400.28	2008.18
400.47	2200.10
400.67	2122.87
400.86	2005.84
401.05	2120.53
401.24	2083.08
401.44	2160.31
401.63	2190.74
401.82	2251.60
402.01	2150.95
402.21	2155.63
402.40	2134.57
402.59	2275.00
402.78	2197.76
402.97	2279.68
403.17	2230.53
403.36	2167.34
403.55	2289.04
403.74	2385.01
403.93	2443.52
404.13	2352.24
404.32	2373.30
404.51	2345.22
404.70	2476.29
404.89	2422.45
405.09	2420.11
405.28	2490.33
405.47	2452.88
405.66	2586.29
405.85	2506.71
406.05	2464.58
406.24	2605.02
406.43	2649.49
406.62	2642.46
406.81	2745.45
407.00	2619.06
407.20	2635.44
407.39	2649.49
407.58	2555.86
407.77	2693.96
407.96	2773.53
408.15	2693.96
408.34	2841.41
408.54	2822.69
408.73	2733.75
408.92	2747.79
409.11	2892.90
409.30	2909.29
409.49	2932.69
409.68	2871.84
409.87	2899.92
410.07	3040.36
410.26	2988.86
410.45	3014.61
410.64	3115.25
410.83	3187.81
411.02	3178.45
411.21	3133.98
411.40	3180.79
411.59	3131.64
411.78	3136.32
411.98	3166.74
412.17	3267.39
412.36	3286.11
412.55	3372.71
412.74	3501.44
412.93	3480.38
413.12	3269.73
413.31	3520.17
413.50	3426.54
413.69	3473.36
413.88	3574.00
414.07	3473.36
414.26	3726.13
414.45	3620.81
414.64	3684.00
414.83	3747.20
415.02	3817.41
415.22	3815.07
415.41	3936.78
415.60	3878.27
415.79	3939.12
415.98	3974.23
416.17	4037.42
416.36	3857.20
416.55	4046.79
416.74	4124.02
416.93	3974.23
417.12	4142.75
417.31	4222.33
417.50	4196.58
417.69	4315.95
417.88	4320.63
418.07	4365.10
418.26	4416.59
418.45	4428.29
418.64	4482.13
418.83	4358.08
419.02	4390.84
419.21	4596.81
419.39	4550.00
419.58	4407.23
419.77	4458.72
419.96	4564.04
420.15	4559.36
420.34	4491.49
420.53	4702.14
420.72	4741.93
420.91	4833.21
421.10	4683.41
421.29	4739.58
421.48	4767.67
421.67	4851.93
421.86	4802.78
422.05	4915.12
422.24	4868.31
422.43	4809.80
422.61	5025.13
422.80	4894.06
422.99	4950.23
423.18	4954.91
423.37	4961.94
423.56	4919.81
423.75	4854.27
423.94	5034.49
424.13	4713.84
424.32	4978.32
424.50	4938.53
424.69	5165.56
424.88	4980.66
425.07	4999.38
425.26	4947.89
425.45	5048.54
425.64	4994.70
425.83	4943.21
426.01	5090.67
426.20	5050.88
426.39	5121.09
426.58	4994.70
426.77	4999.38
426.96	5109.39
427.15	5174.92
427.33	5142.16
427.52	5198.33
427.71	5277.91
427.90	5294.29
428.09	5408.98
428.28	5406.64
428.46	5500.26
428.65	5252.16
428.84	5430.04
429.03	5509.62
429.22	5289.61
429.40	5474.51
429.59	5518.98
429.78	5313.02
429.97	5273.23
430.16	5530.69
430.34	5530.69
430.53	5593.88
430.72	5605.58
430.91	5640.69
431.10	5551.75
431.28	5748.36
431.47	5743.67
431.66	5963.68
431.85	5785.80
432.03	5949.64
432.22	6059.65
432.41	5933.26
432.60	5806.87
432.79	5909.85
432.97	6017.52
433.16	6040.92
433.35	5942.62
433.54	6017.52
433.72	6162.63
433.91	6214.12
434.10	6314.77
434.28	6069.01
434.47	6179.01
434.66	6218.80
434.85	6352.21
435.03	6347.53
435.22	6361.58
435.41	6328.81
435.59	6326.47
435.78	6370.94
435.97	6497.33
436.16	6373.28
436.34	6516.05
436.53	6363.92
436.72	6539.46
436.90	6438.81
437.09	6860.11
437.28	6544.14
437.46	6656.48
437.65	6764.15
437.84	6848.41
438.02	6626.06
438.21	6740.74
438.40	6733.72
438.58	6979.48
438.77	7091.82
438.96	7117.57
439.14	7162.04
439.33	7250.98
439.52	7119.91
439.70	7218.21
439.89	7438.22
440.08	7265.02
440.26	7368.01
440.45	7499.08
440.63	7543.55
440.82	7761.22
441.01	7606.74
441.19	7665.25
441.38	7833.77
441.57	7758.88
441.75	7932.08
441.94	8032.72
442.12	7934.42
442.31	8194.22
442.50	8131.02
442.68	7868.88
442.87	7971.86
443.05	8210.60
443.24	8173.15
443.43	8142.72
443.61	8042.08
443.80	8645.94
443.98	8107.62
444.17	7906.33
444.35	8297.20
444.54	8439.97
444.73	8575.72
444.91	8454.02
445.10	8229.32
445.28	8451.67
445.47	8278.47
445.65	8571.04
445.84	8627.21
446.02	8376.78
446.21	8435.29
446.39	8383.80
446.58	8652.96
446.77	8468.06
446.95	8601.47
447.14	8372.10
447.32	8594.45
447.51	8631.90
447.69	8407.20
447.88	8379.12
448.06	8456.36
448.25	8667.00
448.43	8716.16
448.62	8634.24
448.80	8718.50
448.99	8615.51
449.17	8678.71
449.36	8713.81
449.54	8959.57
449.73	9097.66
449.91	8879.99
450.10	8950.21
450.28	9303.63
450.46	9090.64
450.65	9114.05
450.83	9043.83
451.02	8990.00
451.20	9202.99
451.39	9090.64
451.57	9348.10
451.76	9287.25
451.94	9226.39
452.13	9174.90
452.31	9275.54
452.49	9224.05
452.68	9308.31
452.86	9394.91
453.05	9472.15
453.23	9767.06
453.42	9451.08
453.60	9329.38
453.78	9495.55
453.97	9570.45
454.15	9408.95
454.34	9483.85
454.52	9734.29
454.70	9685.14
454.89	9820.89
455.07	9867.70
455.26	9912.17
455.44	9989.41
455.62	9816.21
455.81	9973.02
455.99	10118.14
456.17	9963.66
456.36	10059.62
456.54	10300.70
456.73	10347.51
456.91	10565.18
457.09	10532.41
457.28	10553.48
457.46	10518.37
457.64	10452.83
457.83	10436.45
458.01	10476.24
458.19	10785.19
458.38	10394.32
458.56	10731.36
458.74	10640.08
458.93	10628.37
459.11	10789.87
459.29	10654.12
459.48	11019.24
459.66	10843.70
459.84	10794.55
460.03	11070.73
460.21	10881.15
460.39	10775.83
460.57	11190.10
460.76	11049.67
460.94	11239.25
461.12	11375.00
461.31	11157.33
461.49	11056.69
461.67	11180.74
461.85	11705.02
462.04	11222.87
462.22	11669.91
462.40	11754.17
462.59	11690.98
462.77	11524.80
462.95	11630.12
463.13	11667.57
463.32	11882.90
463.50	11698.00
463.68	11850.13
463.86	12145.04
464.05	11529.48
464.23	11658.21
464.41	11882.90
464.59	11978.86
464.78	12105.25
464.96	11873.54
465.14	11880.56
465.32	11889.92
465.50	12477.40
465.69	12100.57
465.87	12304.20
466.05	12482.08
466.23	12369.73
466.41	12229.30
466.60	12526.55
466.78	12102.91
466.96	12072.48
467.14	12486.76
467.32	12243.34
467.51	12622.51
467.69	12332.28
467.87	12573.36
468.05	12758.26
468.23	12549.95
468.41	12496.12
468.60	12683.36
468.78	12826.14
468.96	12540.59
469.14	12964.23
469.32	13090.62
469.50	12587.40
469.69	13174.88
469.87	13324.67
470.05	13142.11
470.23	13348.08
470.41	13170.19
470.59	13497.87
470.77	13369.14
470.95	13343.39
471.14	13404.25
471.32	13219.35
471.50	13640.64
471.68	13898.10
471.86	13823.20
472.04	14012.79
472.22	14244.50
472.40	13855.97
472.58	13940.23
472.77	13877.04
472.95	14286.63
473.13	14726.65
473.31	14274.93
473.49	14303.01
473.67	14108.75
473.85	14298.33
474.03	14988.79
474.21	14743.03
474.39	14555.79
474.57	14717.29
474.75	15000.49
474.93	14951.34
475.12	15033.26
475.30	15178.37
475.48	15089.43
475.66	15358.60
475.84	15377.32
476.02	15529.45
476.20	15253.27
476.38	15522.43
476.56	16212.89
476.74	16184.80
476.92	15932.03
477.10	16079.48
477.28	16294.81
477.46	16224.59
477.64	16404.81
477.82	16622.48
478.00	16973.56
478.18	16929.09
478.36	17167.83
478.54	17362.09
478.72	17212.30
478.90	17511.89
479.08	17453.37
479.26	17975.31
479.44	17717.86
479.62	17905.10
479.80	18237.45
479.98	18338.10
480.16	18684.50
480.34	18876.42
480.52	18719.60
480.70	18691.52
480.88	18396.61
481.06	18724.29
481.24	18728.97
481.41	18845.99
481.59	19262.61
481.77	19524.75
481.95	19557.52
482.13	19814.98
482.31	19761.14
482.49	20470.33
482.67	20240.95
482.85	20486.71
483.03	20716.08
483.21	21043.76
483.39	21312.92
483.57	21085.89
483.74	21394.84
483.92	21537.61
484.10	21128.02
484.28	21788.05
484.46	22015.08
484.64	22256.15
484.82	22111.04
485.00	22478.50
485.18	22747.67
485.35	23065.98
485.53	22932.57
485.71	23058.96
485.89	23620.69
486.07	23480.25
486.25	23585.58
486.43	23356.21
486.61	24191.78
486.78	24119.22
486.96	24474.98
487.14	24849.47
487.32	24938.41
487.50	25057.78
487.68	24767.55
487.85	25757.60
488.03	25647.59
488.21	25827.81
488.39	25680.36
488.57	26183.57
488.75	26228.04
488.92	26249.11
489.10	26443.37
489.28	26843.60
489.46	26988.72
489.64	27089.36
489.81	27641.73
489.99	27601.94
490.17	27833.65
490.35	28170.69
490.53	28453.89
490.70	28123.88
490.88	28231.54
491.06	29340.96
491.24	29252.02
491.41	29053.07
491.59	29392.45
491.77	29277.76
491.95	29708.42
492.13	30033.75
492.30	30047.80
492.48	30263.13
492.66	30314.62
492.84	30827.20
493.01	30787.41
493.19	30864.64
493.37	30749.96
493.54	31283.60
493.72	31791.50
493.90	31494.25
494.08	31833.63
494.25	32393.01
494.43	31901.50
494.61	32563.87
494.79	32252.58
494.96	32404.72
495.14	32627.07
495.32	33237.95
495.49	33200.50
495.67	33553.92
495.85	33682.65
496.02	33802.02
496.20	33949.47
496.38	33659.24
496.55	34286.51
496.73	35220.38
496.91	35049.52
497.09	34965.26
497.26	34925.47
497.44	35239.11
497.62	35611.25
497.79	35924.88
497.97	35955.31
498.14	36261.92
498.32	36070.00
498.50	36140.21
498.67	36428.10
498.85	36664.49
499.03	36737.05
499.20	36978.12
499.38	36737.05
499.56	37064.72
499.73	37397.08
499.91	37703.69
500.08	37691.99
500.26	37563.26
500.44	37710.71
500.61	37944.76
500.79	37804.33
500.97	38370.74
501.14	38539.26
501.32	38724.16
501.49	38766.29
501.67	38731.18
501.84	39285.89
502.02	39161.84
502.20	39426.32
502.37	39569.10
502.55	39576.12
502.72	39576.12
502.90	39924.86
503.07	39423.98
503.25	40133.17
503.43	39859.32
503.60	40322.75
503.78	40327.43
503.95	40407.01
504.13	40680.85
504.30	40755.75
504.48	40524.04
504.65	41092.79
504.83	41237.90
505.01	41787.92
505.18	41242.58
505.36	41626.43
505.53	41427.48
505.71	41808.99
505.88	41881.55
506.06	41357.27
506.23	42256.03
506.41	42157.73
506.58	42087.51
506.76	42438.59
506.93	42918.40
507.11	42382.42
507.28	42904.36
507.46	42946.49
507.63	43372.47
507.81	43110.33
507.98	42848.19
508.16	43309.27
508.33	43496.52
508.50	43779.72
508.68	43725.89
508.85	44128.46
509.03	43828.87
509.20	44072.29
509.38	44666.78
509.55	44205.70
509.73	44336.77
509.90	44767.43
510.08	44996.80
510.25	44753.38
510.42	44938.29
510.60	45469.59
510.77	45893.22
510.95	45574.91
511.12	45378.31
511.30	45441.50
511.47	45670.87
511.64	45965.78
511.82	46059.40
511.99	46068.76
512.17	46291.12
512.34	45862.80
512.51	46653.90
512.69	46277.07
512.86	46677.30
513.04	47107.96
513.21	46815.40
513.38	47096.26
513.56	46754.54
513.73	47194.56
513.90	46817.74
514.08	47239.03
514.25	47522.24
514.43	47398.19
514.60	47775.02
514.77	47587.77
514.95	47646.29
515.12	47744.59
515.29	47707.14
515.47	48172.91
515.64	47945.87
515.81	47950.56
515.99	48360.15
516.16	48437.39
516.33	48650.38
516.51	48465.47
516.68	48898.47
516.85	48296.95
517.03	49081.03
517.20	49247.21
517.37	49141.89
517.54	48905.49
517.72	49008.48
517.89	49141.89
518.06	49352.54
518.24	49340.83
518.41	49289.34
518.58	49205.08
518.75	49579.57
518.93	49301.04
519.10	49830.01
519.27	49947.03
519.45	49628.72
519.62	50312.16
519.79	50050.02
519.96	50284.07
520.14	50773.24
520.31	50115.55
520.48	50513.44
520.65	50248.96
520.83	50681.96
521.00	50930.06
521.17	50829.41
521.34	50696.00
521.52	50997.93
521.69	50923.04
521.86	51208.58
522.03	51351.35
522.20	51365.40
522.38	51501.15
522.55	51498.81
522.72	51430.93
522.89	51407.53
523.07	51716.48
523.24	51744.56
523.41	52130.75
523.58	51784.35
523.75	51793.71
523.92	51959.89
524.10	52245.44
524.27	52165.86
524.44	51995.00
524.61	52285.23
524.78	52608.22
524.96	52406.94
525.13	52399.91
525.30	52666.73
525.47	52617.58
525.64	52622.26
525.81	52486.51
525.98	52774.40
526.16	52741.63
526.33	52704.18
526.50	53120.80
526.67	52790.78
526.84	53219.10
527.01	53216.76
527.18	52732.27
527.36	53116.12
527.53	53095.05
527.70	53521.03
527.87	53579.54
528.04	53066.97
528.21	53411.02
528.38	53511.67
528.55	53801.89
528.72	53326.77
528.89	53476.56
529.07	53415.71
529.24	53684.87
529.41	54054.67
529.58	53993.82
529.75	53832.32
529.92	53853.39
530.09	53961.05
530.26	53993.82
530.43	54555.55
530.60	53736.36
530.77	53907.22
530.94	54167.02
531.11	54160.00
531.28	54426.82
531.46	54415.11
531.63	54445.54
531.80	54223.19
531.97	54637.47
532.14	54749.81
532.31	54539.16
532.48	54693.64
532.65	54923.01
532.82	54433.84
532.99	54719.38
533.16	54646.83
533.33	54796.62
533.50	55112.59
533.67	54981.52
533.84	54777.90
534.01	55215.58
534.18	55063.44
534.35	55409.84
534.52	55311.54
534.69	55437.93
534.86	55304.52
535.03	55185.15
535.20	55370.05
535.37	55414.52
535.54	55496.44
535.71	55323.24
535.88	55604.11
536.05	55419.20
536.22	55676.66
536.38	55774.97
536.55	55807.73
536.72	55899.01
536.89	55578.36
537.06	55924.76
537.23	55767.94
537.40	55784.33
537.57	55842.84
537.74	55824.12
537.91	56147.11
538.08	55980.93
538.25	55894.33
538.42	56060.51
538.59	56254.78
538.75	55884.97
538.92	56130.73
539.09	56310.95
539.26	56186.90
539.43	56055.83
539.60	56229.03
539.77	56446.70
539.94	56561.39
540.11	56530.96
540.28	56701.82
540.44	56549.68
540.61	56381.16
540.78	56500.53
540.95	56687.78
541.12	56615.22
541.29	56526.28
541.46	56566.07
541.62	56734.59
541.79	56701.82
541.96	56383.51
542.13	56725.22
542.30	56779.06
542.47	57045.88
542.63	56978.00
542.80	57010.77
542.97	57134.82
543.14	57102.05
543.31	57106.73
543.48	57359.51
543.64	57560.79
543.81	57525.69
543.98	57521.01
544.15	57481.22
544.32	57446.11
544.48	57530.37
544.65	57516.32
544.82	57455.47
544.99	57439.09
545.16	57497.60
545.32	57443.77
545.49	57928.26
545.66	57785.49
545.83	57722.29
546.00	57670.80
546.16	57766.76
546.33	57635.69
546.50	57511.64
546.67	58028.90
546.83	57403.98
547.00	57764.42
547.17	58000.82
547.34	57853.36
547.50	58054.65
547.67	58269.98
547.84	58033.58
548.00	57972.73
548.17	58333.17
548.34	58269.98
548.51	58239.55
548.67	58419.77
548.84	58372.96
549.01	58152.95
549.18	58225.51
549.34	58506.37
549.51	58513.39
549.68	58518.07
549.84	58328.49
550.01	58571.91
550.18	58267.64
550.34	58532.12
550.51	58623.40
550.68	58504.03
550.84	58295.72
551.01	58621.06
551.18	58466.58
551.34	58536.80
551.51	58651.48
551.68	58576.59
551.84	58464.24
552.01	58518.07
552.18	58768.51
552.34	58536.80
552.51	58979.16
552.68	58623.40
552.84	58864.47
553.01	58922.99
553.18	58906.60
553.34	59119.59
553.51	58763.83
553.67	58901.92
553.84	59068.10
554.01	59009.59
554.17	59157.04
554.34	59145.34
554.51	59171.08
554.67	59114.91
554.84	59086.82
555.00	58967.46
555.17	59119.59
555.33	59072.78
555.50	58932.35
555.67	59152.36
555.83	59063.42
556.00	59140.66
556.16	59433.22
556.33	59330.24
556.50	59384.07
556.66	59339.60
556.83	59049.38
556.99	59526.84
557.16	59444.93
557.32	59285.77
557.49	59870.90
557.65	59526.84
557.82	59449.61
557.98	59487.06
558.15	59444.93
558.32	59648.55
558.48	59475.35
558.65	59613.44
558.81	59664.94
558.98	59674.30
559.14	59704.73
559.31	59676.64
559.47	59739.83
559.64	59709.41
559.80	59728.13
559.97	59934.10
560.13	59540.89
560.30	59760.90
560.46	59674.30
560.63	59882.61
560.79	59955.16
560.96	60062.83
561.12	59838.14
561.29	60072.19
561.45	59842.82
561.61	59931.76
561.78	59788.98
561.94	59908.35
562.11	59702.38
562.27	60013.68
562.44	60093.25
562.60	60142.41
562.77	60104.96
562.93	59856.86
563.10	59966.87
563.26	59980.91
563.42	60327.31
563.59	60126.02
563.75	60226.66
563.92	60006.65
564.08	60154.11
564.24	60282.84
564.41	60343.69
564.57	60135.38
564.74	60093.25
564.90	60257.09
565.07	60214.96
565.23	60154.11
565.39	60149.43
565.56	60313.26
565.72	60289.86
565.88	60296.88
566.05	60306.24
566.21	60313.26
566.38	60219.64
566.54	60334.33
566.70	60402.21
566.87	60495.83
567.03	60200.92
567.19	60404.55
567.36	60287.52
567.52	60392.84
567.68	60762.65
567.85	60512.21
568.01	60608.17
568.17	60151.77
568.34	60584.77
568.50	60324.97
568.66	60402.21
568.83	60584.77
568.99	60420.93
569.15	60570.72
569.32	60685.41
569.48	60285.18
569.64	60577.75
569.81	60521.57
569.97	60544.98
570.13	60598.81
570.30	60409.23
570.46	60619.88
570.62	60645.62
570.78	60465.40
570.95	60486.46
571.11	60456.04
571.27	60505.19
571.43	60669.03
571.60	60685.41
571.76	60615.19
571.92	60853.93
572.09	60383.48
572.25	60523.91
572.41	60612.85
572.57	60781.37
572.74	60640.94
572.90	60591.79
573.06	60423.27
573.22	60732.22
573.38	60533.28
573.55	60713.50
573.71	60858.61
573.87	60942.87
574.03	60573.06
574.20	60732.22
574.36	60793.07
574.52	60830.52
574.68	60762.65
574.84	60872.65
575.01	60839.89
575.17	60800.10
575.33	60942.87
575.49	60612.85
575.65	60772.01
575.82	60999.04
575.98	60889.04
576.14	61132.45
576.30	60996.70
576.46	60961.59
576.62	60846.91
576.79	60926.49
576.95	60786.05
577.11	60947.55
577.27	60886.70
577.43	60816.48
577.59	60811.80
577.75	60802.44
577.92	60793.07
578.08	60725.20
578.24	60982.66
578.40	61275.22
578.56	61123.09
578.72	60762.65
578.88	60994.36
579.04	61176.92
579.21	61050.53
579.37	61113.73
579.53	60994.36
579.69	60783.71
579.85	60849.25
580.01	60678.39
580.17	60573.06
580.33	60999.04
580.49	61059.90
580.65	60851.59
580.82	61052.87
580.98	60835.20
581.14	60832.86
581.30	60898.40
581.46	60961.59
581.62	60940.53
581.78	60870.31
581.94	61214.37
582.10	61064.58
582.26	60931.17
582.42	60825.84
582.58	61045.85
582.74	61052.87
582.90	61041.17
583.06	61055.21
583.22	60891.38
583.38	60903.08
583.54	60945.21
583.70	60966.27
583.86	61106.71
584.02	60935.85
584.18	61006.06
584.34	61137.13
584.50	61212.03
584.66	61006.06
584.82	60732.22
584.98	61106.71
585.14	61158.20
585.30	61127.77
585.46	61282.25
585.62	60893.72
585.78	61382.89
585.94	60973.30
586.10	61186.28
586.26	61123.09
586.42	61207.35
586.58	61214.37
586.74	61038.83
586.90	61017.77
587.06	60896.06
587.22	61216.71
587.38	61181.60
587.54	61205.01
587.70	61403.95
587.86	61188.63
588.02	60867.97
588.18	61237.78
588.34	60980.32
