SpectraSuite Data File
++++++++++++++++++++++++++++++++++++
Date: Fri Oct 25 11:23:35 EDT 2013
User: price-jones
Dark Spectrum Present: No
Reference Spectrum Present: No
Number of Sampled Component Spectra: 1
Spectrometers: USB2+H05261
Integration Time (usec): 100000 (USB2+H05261)
Spectra Averaged: 1 (USB2+H05261)
Boxcar Smoothing: 0 (USB2+H05261)
Correct for Electrical Dark: No (USB2+H05261)
Strobe/Lamp Enabled: No (USB2+H05261)
Correct for Detector Non-linearity: No (USB2+H05261)
Correct for Stray Light: No (USB2+H05261)
Number of Pixels in Processed Spectrum: 2048
>>>>>Begin Processed Spectral Data<<<<<
365.73	187.24
365.92	187.24
366.12	187.24
366.32	187.24
366.52	100.64
366.72	231.71
366.91	67.88
367.11	65.54
367.31	180.22
367.51	147.45
367.70	86.60
367.90	117.03
368.10	140.43
368.30	147.45
368.49	119.37
368.69	175.54
368.89	145.11
369.09	98.30
369.28	170.86
369.48	105.32
369.68	161.50
369.87	227.03
370.07	175.54
370.27	175.54
370.47	379.17
370.66	643.65
370.86	631.94
371.06	629.60
371.25	688.12
371.45	636.63
371.65	592.16
371.84	676.41
372.04	751.31
372.24	727.91
372.44	706.84
372.63	732.59
372.83	744.29
373.03	798.12
373.22	723.23
373.42	786.42
373.62	723.23
373.81	786.42
374.01	896.43
374.21	809.83
374.40	809.83
374.60	793.44
374.79	788.76
374.99	854.30
375.19	814.51
375.38	866.00
375.58	870.68
375.78	964.30
375.97	851.96
376.17	868.34
376.37	868.34
376.56	915.15
376.76	858.98
376.95	858.98
377.15	884.72
377.35	847.27
377.54	884.72
377.74	915.15
377.93	828.55
378.13	933.87
378.33	884.72
378.52	919.83
378.72	978.34
378.91	964.30
379.11	856.64
379.31	901.11
379.50	882.38
379.70	908.13
379.89	985.37
380.09	896.43
380.28	1048.56
380.48	961.96
380.68	926.85
380.87	933.87
381.07	1029.84
381.26	1036.86
381.46	1107.07
381.65	1025.15
381.85	1060.26
382.04	1027.50
382.24	1015.79
382.43	1114.10
382.63	1081.33
382.83	1083.67
383.02	1097.71
383.22	1069.62
383.41	1048.56
383.61	1043.88
383.80	1078.99
384.00	1090.69
384.19	1130.48
384.39	1167.93
384.58	1128.14
384.78	1118.78
384.97	1177.29
385.17	1188.99
385.36	1219.42
385.56	1242.82
385.75	1160.91
385.95	1158.57
386.14	1261.55
386.34	1196.01
386.53	1233.46
386.72	1128.14
386.92	1338.79
387.11	1240.48
387.31	1275.59
387.50	1235.80
387.70	1128.14
387.89	1193.67
388.09	1231.12
388.28	1242.82
388.48	1247.51
388.67	1217.08
388.86	1315.38
389.06	1310.70
389.25	1322.40
389.45	1322.40
389.64	1406.66
389.84	1401.98
390.03	1399.64
390.22	1383.26
390.42	1432.41
390.61	1303.68
390.81	1444.11
391.00	1373.89
391.19	1416.02
391.39	1394.96
391.58	1511.99
391.78	1465.18
391.97	1636.03
392.16	1348.15
392.36	1547.09
392.55	1495.60
392.75	1563.48
392.94	1448.79
393.13	1481.56
393.33	1509.65
393.52	1593.90
393.71	1563.48
393.91	1591.56
394.10	1586.88
394.29	1535.39
394.49	1640.72
394.68	1556.46
394.88	1652.42
395.07	1678.16
395.26	1717.95
395.46	1689.87
395.65	1764.76
395.84	1682.85
396.04	1811.57
396.23	1680.50
396.42	1774.13
396.62	1755.40
396.81	1818.60
397.00	1720.29
397.19	1844.34
397.39	1741.36
397.58	1867.75
397.77	1816.26
397.97	1849.02
398.16	1825.62
398.35	1823.28
398.55	1827.96
398.74	1935.62
398.93	1991.80
399.12	1940.30
399.32	1884.13
399.51	1827.96
399.70	1987.11
399.90	1959.03
400.09	1989.46
400.28	2026.90
400.47	2026.90
400.67	2120.53
400.86	2059.67
401.05	2062.01
401.24	2122.87
401.44	2153.29
401.63	2120.53
401.82	2094.78
402.01	2120.53
402.21	2155.63
402.40	2181.38
402.59	2228.19
402.78	2267.98
402.97	2408.41
403.17	2270.32
403.36	2307.77
403.55	2298.41
403.74	2296.07
403.93	2340.54
404.13	2408.41
404.32	2380.32
404.51	2305.43
404.70	2429.48
404.89	2485.65
405.09	2450.54
405.28	2576.93
405.47	2537.14
405.66	2476.29
405.85	2427.14
406.05	2532.46
406.24	2546.50
406.43	2555.86
406.62	2656.51
406.81	2682.25
407.00	2590.97
407.20	2684.59
407.39	2663.53
407.58	2731.41
407.77	2764.17
407.96	2715.02
408.15	2731.41
408.34	2773.53
408.54	2864.82
408.73	2829.71
408.92	2810.98
409.11	2895.24
409.30	2967.80
409.49	2958.44
409.68	2911.63
409.87	2946.73
410.07	2956.10
410.26	3045.04
410.45	2956.10
410.64	3023.97
410.83	3159.72
411.02	3222.92
411.21	3232.28
411.40	3286.11
411.59	3325.90
411.78	3251.00
411.98	3185.47
412.17	3288.45
412.36	3283.77
412.55	3295.47
412.74	3424.20
412.93	3426.54
413.12	3400.80
413.31	3592.72
413.50	3492.08
413.69	3501.44
413.88	3634.85
414.07	3492.08
414.26	3691.02
414.45	3679.32
414.64	3658.26
414.83	3700.39
415.02	3763.58
415.22	3861.88
415.41	3899.33
415.60	3889.97
415.79	3901.67
415.98	3955.51
416.17	4074.87
416.36	4011.68
416.55	4037.42
416.74	3995.29
416.93	4095.94
417.12	4121.68
417.31	4189.56
417.50	4198.92
417.69	4395.53
417.88	4360.42
418.07	4227.01
418.26	4395.53
418.45	4229.35
418.64	4454.04
418.83	4339.35
419.02	4461.06
419.21	4491.49
419.39	4510.21
419.58	4423.61
419.77	4479.79
419.96	4550.00
420.15	4550.00
420.34	4547.66
420.53	4573.41
420.72	4676.39
420.91	4685.75
421.10	4695.11
421.29	4873.00
421.48	4636.60
421.67	4851.93
421.86	4739.58
422.05	4751.29
422.24	4732.56
422.43	4784.06
422.61	5041.51
422.80	4922.15
422.99	4964.28
423.18	4891.72
423.37	4877.68
423.56	4919.81
423.75	4882.36
423.94	4924.49
424.13	4706.82
424.32	4720.86
424.50	4922.15
424.69	5184.29
424.88	5195.99
425.07	5015.77
425.26	4894.06
425.45	5018.11
425.64	4889.38
425.83	4968.96
426.01	5144.50
426.20	4854.27
426.39	5151.52
426.58	5027.47
426.77	5100.03
426.96	5203.01
427.15	5240.46
427.33	5195.99
427.52	5198.33
427.71	5364.51
427.90	5228.76
428.09	5186.63
428.28	5338.76
428.46	5305.99
428.65	5301.31
428.84	5416.00
429.03	5589.20
429.22	5418.34
429.40	5631.33
429.59	5530.69
429.78	5203.01
429.97	5137.48
430.16	5612.60
430.34	5640.69
430.53	5664.10
430.72	5549.41
430.91	5472.17
431.10	5556.43
431.28	5825.59
431.47	5715.59
431.66	5867.72
431.85	5708.57
432.03	5858.36
432.22	5982.41
432.41	5963.68
432.60	5916.87
432.79	5881.77
432.97	6001.13
433.16	6141.57
433.35	6080.71
433.54	6015.18
433.72	6171.99
433.91	6141.57
434.10	6073.69
434.28	6076.03
434.47	6171.99
434.66	6244.55
434.85	6232.85
435.03	6289.02
435.22	6265.61
435.41	6408.39
435.59	6541.80
435.78	6553.50
435.97	6333.49
436.16	6523.07
436.34	6546.48
436.53	6413.07
436.72	6672.87
436.90	6511.37
437.09	6581.59
437.28	6628.40
437.46	6677.55
437.65	6689.25
437.84	6707.98
438.02	6796.92
438.21	6679.89
438.40	6792.23
438.58	7089.48
438.77	7068.42
438.96	7070.76
439.14	7126.93
439.33	7311.83
439.52	7204.17
439.70	7119.91
439.89	7412.48
440.08	7426.52
440.26	7342.26
440.45	7332.90
440.63	7468.65
440.82	7581.00
441.01	7447.58
441.19	7667.60
441.38	7723.77
441.57	7421.84
441.75	7707.38
441.94	7803.35
442.12	7903.99
442.31	8030.38
442.50	8028.04
442.68	8018.68
442.87	7943.78
443.05	8044.42
443.24	8149.75
443.43	8273.79
443.61	8074.85
443.80	8407.20
443.98	7988.25
444.17	7999.95
444.35	8177.83
444.54	8603.81
444.73	8367.42
444.91	8224.64
445.10	8456.36
445.28	8325.29
445.47	8203.58
445.65	8348.69
445.84	8395.50
446.02	8439.97
446.21	8402.52
446.39	8585.08
446.58	8727.86
446.77	8470.40
446.95	8526.57
447.14	8554.66
447.32	8557.00
447.51	8613.17
447.69	8662.32
447.88	8439.97
448.06	8465.72
448.25	8418.91
448.43	8669.34
448.62	8617.85
448.80	8692.75
448.99	8643.60
449.17	8561.68
449.36	8774.67
449.54	8805.10
449.73	9043.83
449.91	9032.13
450.10	9022.77
450.28	9235.75
450.46	9142.13
450.65	9057.87
450.83	9210.01
451.02	8992.34
451.20	9071.92
451.39	9329.38
451.57	9240.44
451.76	8950.21
451.94	9151.49
452.13	9308.31
452.31	9268.52
452.49	9291.93
452.68	9188.94
452.86	9076.60
453.05	9423.00
453.23	9598.54
453.42	9423.00
453.60	9212.35
453.78	9603.22
453.97	9432.36
454.15	9533.00
454.34	9420.66
454.52	9650.03
454.70	9811.53
454.89	9940.26
455.07	9600.88
455.26	9788.12
455.44	10146.22
455.62	9914.51
455.81	9954.30
455.99	9991.75
456.17	10101.75
456.36	10036.22
456.54	10195.37
456.73	10366.23
456.91	10450.49
457.09	10464.54
457.28	10611.99
457.46	10108.77
457.64	10574.54
457.83	10420.06
458.01	10623.69
458.19	10771.15
458.38	10494.96
458.56	10909.24
458.74	10588.58
458.93	10794.55
459.11	10850.72
459.29	10724.33
459.48	10747.74
459.66	11052.01
459.84	10937.32
460.03	11229.89
460.21	10974.77
460.39	11009.88
460.57	10970.09
460.76	11143.29
460.94	11044.99
461.12	11286.06
461.31	11213.51
461.49	11192.44
461.67	11213.51
461.85	11522.46
462.04	11358.62
462.22	11557.57
462.40	11698.00
462.59	11473.31
462.77	11454.58
462.95	11723.74
463.13	11520.12
463.32	11597.35
463.50	11864.18
463.68	11639.48
463.86	11843.11
464.05	11768.21
464.23	11728.42
464.41	11819.71
464.59	11641.82
464.78	12056.10
464.96	12166.10
465.14	11810.34
465.32	12138.02
465.50	12175.47
465.69	12074.82
465.87	12231.64
466.05	12257.39
466.23	12266.75
466.41	12236.32
466.60	12379.09
466.78	12351.01
466.96	12376.75
467.14	12489.10
467.32	12470.37
467.51	12725.49
467.69	12154.40
467.87	12353.35
468.05	12674.00
468.23	12416.54
468.41	12418.88
468.60	12549.95
468.78	12692.73
468.96	12538.25
469.14	12608.47
469.32	13088.28
469.50	12545.27
469.69	13179.56
469.87	13191.26
470.05	13305.95
470.23	13231.05
470.41	13170.19
470.59	13261.48
470.77	13364.46
470.95	13280.20
471.14	13542.34
471.32	13167.85
471.50	13650.00
471.68	13610.22
471.86	13628.94
472.04	13694.47
472.22	14003.43
472.40	13776.39
472.58	13855.97
472.77	13916.83
472.95	14139.18
473.13	14352.16
473.31	14230.46
473.49	14251.52
473.67	14155.56
473.85	14480.89
474.03	14743.03
474.21	14665.80
474.39	14963.04
474.57	14707.93
474.75	15019.22
474.93	15042.62
475.12	14937.30
475.30	15176.03
475.48	15066.03
475.66	15012.20
475.84	15089.43
476.02	15279.02
476.20	15295.40
476.38	15894.58
476.56	16049.05
476.74	16147.36
476.92	16130.97
477.10	15882.88
477.28	16226.93
477.46	16318.22
477.64	16334.60
477.82	16755.90
478.00	16919.73
478.18	16816.75
478.36	16964.20
478.54	16858.88
478.72	17312.94
478.90	17376.14
479.08	17600.83
479.26	17647.64
479.44	17600.83
479.62	17748.28
479.80	18047.87
479.98	18188.30
480.16	18759.39
480.34	18291.29
480.52	18595.56
480.70	18806.20
480.88	18520.66
481.06	18860.04
481.24	18944.30
481.41	18932.59
481.59	19290.70
481.77	19403.04
481.95	19669.86
482.13	20016.26
482.31	19449.85
482.49	20266.70
482.67	20159.03
482.85	20423.51
483.03	20589.69
483.21	20648.21
483.39	20900.98
483.57	20896.30
483.74	21179.51
483.92	21432.29
484.10	21113.97
484.28	21586.76
484.46	22033.80
484.64	22284.24
484.82	22195.30
485.00	22539.36
485.18	22998.10
485.35	22850.65
485.53	22960.66
485.71	23040.23
485.89	23506.00
486.07	23440.47
486.25	23381.95
486.43	23751.76
486.61	23894.53
486.78	23798.57
486.96	23828.99
487.14	24746.48
487.32	24531.15
487.50	24767.55
487.68	24830.74
487.85	25465.03
488.03	25240.34
488.21	25860.58
488.39	25773.98
488.57	26246.77
488.75	26279.54
488.92	26340.39
489.10	26518.27
489.28	27040.21
489.46	27180.64
489.64	27110.43
489.81	27744.71
489.99	28041.96
490.17	27730.67
490.35	28182.39
490.53	28285.37
490.70	28369.63
490.88	28568.58
491.06	29020.30
491.24	28865.83
491.41	29034.35
491.59	29605.44
491.77	29181.80
491.95	29755.23
492.13	30022.05
492.30	30092.27
492.48	30256.11
492.66	30265.47
492.84	30286.53
493.01	30768.68
493.19	30483.14
493.37	31321.05
493.54	31206.36
493.72	31515.31
493.90	31414.67
494.08	31632.34
494.25	32098.11
494.43	32425.78
494.61	32180.03
494.79	32699.62
494.96	32428.12
495.14	32687.92
495.32	33003.89
495.49	33137.30
495.67	33020.28
495.85	33738.82
496.02	33558.60
496.20	34087.56
496.38	33867.55
496.55	34555.67
496.73	34899.73
496.91	34653.97
497.09	35068.25
497.26	35332.73
497.44	34862.28
497.62	35276.55
497.79	35941.27
497.97	35711.89
498.14	35868.71
498.32	36481.93
498.50	36290.01
498.67	36725.35
498.85	36383.63
499.03	37001.53
499.20	36924.29
499.38	36830.67
499.56	36966.42
499.73	37195.79
499.91	37493.04
500.08	37773.91
500.26	37605.39
500.44	38188.18
500.61	37851.14
500.79	37771.57
500.97	38204.56
501.14	38391.81
501.32	38778.00
501.49	38483.09
501.67	38782.68
501.84	39194.61
502.02	39098.65
502.20	39091.63
502.37	39271.85
502.55	38906.73
502.72	39711.87
502.90	39323.34
503.07	39318.66
503.25	39452.07
503.43	39646.33
503.60	40105.08
503.78	40472.54
503.95	40746.39
504.13	40645.74
504.30	40591.91
504.48	40596.59
504.65	40863.41
504.83	40999.16
505.01	41628.77
505.18	41333.86
505.36	41804.31
505.53	41408.76
505.71	41724.73
505.88	41654.51
506.06	41633.45
506.23	42115.60
506.41	41841.76
506.58	42349.65
506.76	42398.80
506.93	42719.46
507.11	42515.83
507.28	42546.26
507.46	42574.34
507.63	43445.02
507.81	43395.87
507.98	42831.80
508.16	43367.79
508.33	43056.50
508.50	43746.95
508.68	43732.91
508.85	43885.04
509.03	43824.19
509.20	44112.08
509.38	44327.41
509.55	44739.34
509.73	44516.99
509.90	44566.14
510.08	44634.02
510.25	44992.12
510.42	44999.14
510.60	45118.51
510.77	45296.39
510.95	45738.75
511.12	45242.56
511.30	45387.67
511.47	45584.27
511.64	45652.15
511.82	45769.18
511.99	45617.04
512.17	46183.45
512.34	46080.47
512.51	46473.68
512.69	46403.46
512.86	46443.25
513.04	46845.82
513.21	46927.74
513.38	46581.34
513.56	46857.52
513.73	46930.08
513.90	47133.71
514.08	47054.13
514.25	47323.29
514.43	47449.68
514.60	47505.85
514.77	47189.88
514.95	47648.63
515.12	47421.59
515.29	47650.97
515.47	47798.42
515.64	48397.60
515.81	47988.00
515.99	48374.19
516.16	48797.83
516.33	48603.56
516.51	48996.77
516.68	48231.42
516.85	48846.98
517.03	49059.97
517.20	48657.40
517.37	48495.90
517.54	49249.55
517.72	48821.23
517.89	49085.72
518.06	49162.95
518.24	49397.01
518.41	49118.48
518.58	49593.61
518.75	49448.50
518.93	49507.01
519.10	49602.97
519.27	50014.91
519.45	49900.22
519.62	50026.61
519.79	50270.03
519.96	49872.14
520.14	50342.58
520.31	50314.50
520.48	50494.72
520.65	50410.46
520.83	50586.00
521.00	50637.49
521.17	50813.03
521.34	50522.80
521.52	50848.14
521.69	51093.89
521.86	50976.87
522.03	51447.32
522.20	51468.38
522.38	51648.60
522.55	51341.99
522.72	51498.81
522.89	51414.55
523.07	51662.64
523.24	51494.13
523.41	52032.45
523.58	51625.20
523.75	52114.37
523.92	51835.84
524.10	52266.50
524.27	52144.80
524.44	51952.87
524.61	52458.43
524.78	52416.30
524.96	52549.71
525.13	52296.93
525.30	52680.78
525.47	52767.38
525.64	52640.99
525.81	52708.86
525.98	53111.44
526.16	52863.34
526.33	52753.33
526.50	52935.90
526.67	53001.43
526.84	53057.60
527.01	52776.74
527.18	52971.00
527.36	53240.17
527.53	53172.29
527.70	53429.75
527.87	53530.39
528.04	53373.58
528.21	53574.86
528.38	53649.76
528.55	53624.01
528.72	53581.88
528.89	53523.37
529.07	53542.10
529.24	53499.97
529.41	53918.92
529.58	53811.26
529.75	53663.80
529.92	53790.19
530.09	53902.54
530.26	54066.38
530.43	54169.36
530.60	54110.85
530.77	53872.11
530.94	54223.19
531.11	54312.13
531.28	54398.73
531.46	54361.28
531.63	54478.31
531.80	54335.54
531.97	54447.88
532.14	54492.35
532.31	54497.03
532.48	54595.34
532.65	54934.71
532.82	54520.44
532.99	54801.30
533.16	54501.71
533.33	54805.98
533.50	55096.21
533.67	54794.28
533.84	54703.00
534.01	55037.70
534.18	55030.68
534.35	55271.75
534.52	55175.79
534.69	55365.37
534.86	55353.67
535.03	54988.55
535.20	55529.21
535.37	55625.17
535.54	55592.40
535.71	55400.48
535.88	55393.46
536.05	55615.81
536.22	55931.78
536.38	55800.71
536.55	55576.02
536.72	55751.56
536.89	55545.59
537.06	55810.07
537.23	56060.51
537.40	55561.98
537.57	55718.79
537.74	55686.03
537.91	56121.37
538.08	55908.38
538.25	55781.99
538.42	55856.88
538.59	56025.40
538.75	55870.93
538.92	56051.15
539.09	56252.44
539.26	56350.74
539.43	56374.14
539.60	56095.62
539.77	56409.25
539.94	56552.02
540.11	56563.73
540.28	56591.81
540.44	56530.96
540.61	56430.32
540.78	56591.81
540.95	56554.36
541.12	56385.85
541.29	56596.49
541.46	56474.79
541.62	56556.70
541.79	56858.63
541.96	56584.79
542.13	56750.97
542.30	56851.61
542.47	56818.84
542.63	56956.94
542.80	57268.23
542.97	57045.88
543.14	57249.50
543.31	57153.54
543.48	57392.28
543.64	57663.78
543.81	57602.92
543.98	57453.13
544.15	57284.61
544.32	57682.50
544.48	57666.12
544.65	57296.31
544.82	57675.48
544.99	57425.04
545.16	57513.98
545.32	57661.44
545.49	57633.35
545.66	57982.09
545.83	57560.79
546.00	57893.15
546.16	57647.39
546.33	57628.67
546.50	57481.22
546.67	57771.44
546.83	57382.91
547.00	57874.43
547.17	57888.47
547.34	57897.83
547.50	58075.71
547.67	58115.50
547.84	58117.84
548.00	58450.20
548.17	58225.51
548.34	58239.55
548.51	58136.57
548.67	58150.61
548.84	58232.53
549.01	58319.13
549.18	58244.23
549.34	58426.79
549.51	58255.93
549.68	58602.33
549.84	58592.97
550.01	58426.79
550.18	58473.60
550.34	58578.93
550.51	58724.04
550.68	58625.74
550.84	58279.34
551.01	58546.16
551.18	58546.16
551.34	58557.86
551.51	58679.57
551.68	58674.89
551.84	58651.48
552.01	58408.07
552.18	58976.82
552.34	58560.20
552.51	58618.72
552.68	58651.48
552.84	58571.91
553.01	59065.76
553.18	58866.81
553.34	58932.35
553.51	58719.36
553.67	58871.49
553.84	58838.73
554.01	59000.22
554.17	58997.88
554.34	58918.31
554.51	58988.52
554.67	59339.60
554.84	59035.33
555.00	59154.70
555.17	59030.65
555.33	59276.41
555.50	59035.33
555.67	59077.46
555.83	59236.62
556.00	59103.21
556.16	59402.80
556.33	59302.15
556.50	59346.62
556.66	59236.62
556.83	59302.15
556.99	59615.79
557.16	59697.70
557.32	59526.84
557.49	59664.94
557.65	59377.05
557.82	59447.27
557.98	59388.75
558.15	59491.74
558.32	59522.16
558.48	59278.75
558.65	59409.82
558.81	59625.15
558.98	59704.73
559.14	59693.02
559.31	59788.98
559.47	59599.40
559.64	59700.04
559.80	59807.71
559.97	59711.75
560.13	59625.15
560.30	59711.75
560.46	59770.26
560.63	59901.33
560.79	59913.03
560.96	59868.56
561.12	59810.05
561.29	59985.59
561.45	59990.27
561.61	59903.67
561.78	59770.26
561.94	59877.93
562.11	60072.19
562.27	59742.17
562.44	60037.08
562.60	60144.75
562.77	59999.63
562.93	59838.14
563.10	60123.68
563.26	60114.32
563.42	60109.64
563.59	60104.96
563.75	60184.54
563.92	60065.17
564.08	60121.34
564.24	60161.13
564.41	60299.22
564.57	60264.11
564.74	60205.60
564.90	60062.83
565.07	60186.88
565.23	60416.25
565.39	60247.73
565.56	60402.21
565.72	60282.84
565.88	60320.29
566.05	60081.55
566.21	60252.41
566.38	60402.21
566.54	60247.73
566.70	60371.78
566.87	60664.35
567.03	60264.11
567.19	60505.19
567.36	60680.73
567.52	60416.25
567.68	60669.03
567.85	60374.12
568.01	60339.01
568.17	60378.80
568.34	60432.63
568.50	60573.06
568.66	60329.65
568.83	60395.18
568.99	60427.95
569.15	60598.81
569.32	60589.45
569.48	60388.16
569.64	60549.66
569.81	60610.51
569.97	60420.93
570.13	60561.36
570.30	60100.28
570.46	60678.39
570.62	60643.28
570.78	60640.94
570.95	60596.47
571.11	60671.37
571.27	60659.66
571.43	60713.50
571.60	60844.57
571.76	60654.98
571.92	60638.60
572.09	60734.56
572.25	60444.33
572.41	60680.73
572.57	60914.78
572.74	61020.11
572.90	60795.42
573.06	60729.88
573.22	60748.60
573.38	60823.50
573.55	60669.03
573.71	60694.77
573.87	60823.50
574.03	60451.36
574.20	60825.84
574.36	60673.71
574.52	60975.64
574.68	61095.00
574.84	60889.04
575.01	60835.20
575.17	60608.17
575.33	60718.18
575.49	60748.60
575.65	60741.58
575.82	60882.02
575.98	60921.80
576.14	61127.77
576.30	60959.25
576.46	60760.31
576.62	60783.71
576.79	60849.25
576.95	60811.80
577.11	60912.44
577.27	60741.58
577.43	60704.13
577.59	60790.73
577.75	60863.29
577.92	60830.52
578.08	60954.57
578.24	60992.02
578.40	60959.25
578.56	60933.51
578.72	60907.76
578.88	60952.23
579.04	61132.45
579.21	61024.79
579.37	61059.90
579.53	61228.41
579.69	60793.07
579.85	60884.36
580.01	61202.67
580.17	60882.02
580.33	61087.98
580.49	61228.41
580.65	60952.23
580.82	61052.87
580.98	60851.59
581.14	60970.96
581.30	61069.26
581.46	60956.91
581.62	60912.44
581.78	60917.12
581.94	61099.68
582.10	60931.17
582.26	61055.21
582.42	60977.98
582.58	60879.67
582.74	61057.56
582.90	61031.81
583.06	60980.32
583.22	60952.23
583.38	61076.28
583.54	60917.12
583.70	61186.28
583.86	61221.39
584.02	61038.83
584.18	61183.94
584.34	60980.32
584.50	61024.79
584.66	61031.81
584.82	60828.18
584.98	61254.16
585.14	61188.63
585.30	61076.28
585.46	61111.39
585.62	60987.34
585.78	61160.54
585.94	61031.81
586.10	61095.00
586.26	61090.32
586.42	61167.56
586.58	61249.48
586.74	61207.35
586.90	61104.37
587.06	61090.32
587.22	61183.94
587.38	61183.94
587.54	61125.43
587.70	61310.33
587.86	61151.18
588.02	61406.30
588.18	61249.48
588.34	60992.02
588.49	60985.00
