SpectraSuite Data File
++++++++++++++++++++++++++++++++++++
Date: Fri Oct 25 11:33:57 EDT 2013
User: price-jones
Dark Spectrum Present: No
Reference Spectrum Present: No
Number of Sampled Component Spectra: 1
Spectrometers: USB2+H05261
Integration Time (usec): 100000 (USB2+H05261)
Spectra Averaged: 1 (USB2+H05261)
Boxcar Smoothing: 0 (USB2+H05261)
Correct for Electrical Dark: No (USB2+H05261)
Strobe/Lamp Enabled: No (USB2+H05261)
Correct for Detector Non-linearity: No (USB2+H05261)
Correct for Stray Light: No (USB2+H05261)
Number of Pixels in Processed Spectrum: 2048
>>>>>Begin Processed Spectral Data<<<<<
365.73	243.42
365.92	243.42
366.12	243.42
366.32	205.97
366.52	203.63
366.72	177.88
366.91	212.99
367.11	161.50
367.31	208.31
367.51	114.69
367.70	156.82
367.90	203.63
368.10	147.45
368.30	262.14
368.49	175.54
368.69	201.29
368.89	184.90
369.09	168.52
369.28	255.12
369.48	194.26
369.68	229.37
369.87	217.67
370.07	283.20
370.27	285.55
370.47	360.44
370.66	475.13
370.86	531.30
371.06	528.96
371.25	528.96
371.45	587.47
371.65	524.28
371.84	582.79
372.04	517.26
372.24	629.60
372.44	575.77
372.63	533.64
372.83	519.60
373.03	608.54
373.22	641.31
373.42	566.41
373.62	608.54
373.81	636.63
374.01	622.58
374.21	636.63
374.40	631.94
374.60	699.82
374.79	657.69
374.99	627.26
375.19	580.45
375.38	596.84
375.58	723.23
375.78	678.76
375.97	638.97
376.17	685.78
376.37	643.65
376.56	748.97
376.76	622.58
376.95	615.56
377.15	699.82
377.35	732.59
377.54	650.67
377.74	627.26
377.93	720.88
378.13	688.12
378.33	758.33
378.52	643.65
378.72	793.44
378.91	833.23
379.11	671.73
379.31	699.82
379.50	702.16
379.70	755.99
379.89	730.25
380.09	613.22
380.28	732.59
380.48	706.84
380.68	713.86
380.87	763.01
381.07	835.57
381.26	744.29
381.46	734.93
381.65	767.70
381.85	774.72
382.04	786.42
382.24	744.29
382.43	716.20
382.63	681.10
382.83	741.95
383.02	725.57
383.22	791.10
383.41	795.78
383.61	814.51
383.80	894.08
384.00	866.00
384.19	793.44
384.39	856.64
384.58	779.40
384.78	847.27
384.97	812.17
385.17	809.83
385.36	840.25
385.56	774.72
385.75	816.85
385.95	805.14
386.14	945.58
386.34	849.61
386.53	840.25
386.72	823.87
386.92	919.83
387.11	821.53
387.31	915.15
387.50	807.48
387.70	870.68
387.89	830.89
388.09	908.13
388.28	943.24
388.48	856.64
388.67	882.38
388.86	940.90
389.06	812.17
389.25	917.49
389.45	1020.47
389.64	945.58
389.84	940.90
390.03	936.21
390.22	959.62
390.42	992.39
390.61	947.92
390.81	896.43
391.00	980.68
391.19	952.60
391.39	1039.20
391.58	983.02
391.78	1071.97
391.97	1018.13
392.16	940.90
392.36	1081.33
392.55	1008.77
392.75	1032.18
392.94	1086.01
393.13	1029.84
393.33	1062.60
393.52	1097.71
393.71	1137.50
393.91	1078.99
394.10	1135.16
394.29	1142.18
394.49	1050.90
394.68	1071.97
394.88	1114.10
395.07	1184.31
395.26	1048.56
395.46	1109.41
395.65	1156.22
395.84	1144.52
396.04	1266.23
396.23	1151.54
396.42	1123.46
396.62	1210.06
396.81	1231.12
397.00	1203.04
397.19	1247.51
397.39	1263.89
397.58	1287.29
397.77	1217.08
397.97	1289.64
398.16	1205.38
398.35	1231.12
398.55	1256.87
398.74	1273.25
398.93	1282.61
399.12	1240.48
399.32	1299.00
399.51	1291.98
399.70	1387.94
399.90	1289.64
400.09	1256.87
400.28	1413.68
400.47	1385.60
400.67	1355.17
400.86	1409.00
401.05	1317.72
401.24	1423.05
401.44	1439.43
401.63	1486.24
401.82	1441.77
402.01	1430.07
402.21	1446.45
402.40	1479.22
402.59	1404.32
402.78	1486.24
402.97	1556.46
403.17	1582.20
403.36	1607.95
403.55	1549.43
403.74	1629.01
403.93	1579.86
404.13	1689.87
404.32	1586.88
404.51	1582.20
404.70	1652.42
404.89	1500.28
405.09	1650.08
405.28	1682.85
405.47	1659.44
405.66	1708.59
405.85	1729.66
406.05	1687.53
406.24	1736.68
406.43	1771.79
406.62	1764.76
406.81	1820.94
407.00	1661.78
407.20	1692.21
407.39	1776.47
407.58	1694.55
407.77	1713.27
407.96	1952.01
408.15	1865.41
408.34	1886.47
408.54	1928.60
408.73	1851.36
408.92	1991.80
409.11	1860.73
409.30	1893.49
409.49	2064.35
409.68	1930.94
409.87	1912.22
410.07	2026.90
410.26	2019.88
410.45	2073.71
410.64	2188.40
410.83	1975.41
411.02	2141.59
411.21	2207.13
411.40	2090.10
411.59	2160.31
411.78	2186.06
411.98	2216.49
412.17	2200.10
412.36	2218.83
412.55	2335.85
412.74	2326.49
412.93	2326.49
413.12	2253.94
413.31	2476.29
413.50	2387.35
413.69	2335.85
413.88	2448.20
414.07	2438.84
414.26	2513.74
414.45	2487.99
414.64	2642.46
414.83	2588.63
415.02	2490.33
415.22	2590.97
415.41	2640.12
415.60	2623.74
415.79	2677.57
415.98	2696.30
416.17	2630.76
416.36	2551.18
416.55	2780.56
416.74	2708.00
416.93	2661.19
417.12	2829.71
417.31	2832.05
417.50	2867.16
417.69	2984.18
417.88	2979.50
418.07	2981.84
418.26	2825.03
418.45	3059.08
418.64	3190.15
418.83	3075.46
419.02	3016.95
419.21	3049.72
419.39	3063.76
419.58	2897.58
419.77	3005.25
419.96	3054.40
420.15	3201.85
420.34	3126.96
420.53	3101.21
420.72	3197.17
420.91	3173.77
421.10	3283.77
421.29	3236.96
421.48	3241.64
421.67	3143.34
421.86	3258.03
422.05	3368.03
422.24	3426.54
422.43	3382.07
422.61	3267.39
422.80	3253.34
422.99	3176.11
423.18	3424.20
423.37	3363.35
423.56	3349.31
423.75	3272.07
423.94	3358.67
424.13	3112.91
424.32	3274.41
424.50	3398.46
424.69	3545.91
424.88	3466.33
425.07	3412.50
425.26	3283.77
425.45	3375.05
425.64	3424.20
425.83	3445.27
426.01	3431.23
426.20	3485.06
426.39	3412.50
426.58	3412.50
426.77	3473.36
426.96	3517.83
427.15	3475.70
427.33	3433.57
427.52	3410.16
427.71	3543.57
427.90	3618.47
428.09	3520.17
428.28	3641.87
428.46	3529.53
428.65	3630.17
428.84	3791.67
429.03	3723.79
429.22	3620.81
429.40	3695.71
429.59	3709.75
429.78	3595.06
429.97	3585.70
430.16	3627.83
430.34	3819.75
430.53	3805.71
430.72	3922.74
430.91	3749.54
431.10	3995.29
431.28	3941.46
431.47	3950.82
431.66	3997.64
431.85	3831.46
432.03	3932.10
432.22	4095.94
432.41	4088.92
432.60	3978.91
432.79	4119.34
432.97	4070.19
433.16	4156.79
433.35	4215.30
433.54	4119.34
433.72	4250.41
433.91	4072.53
434.10	4145.09
434.28	4255.09
434.47	4243.39
434.66	4283.18
434.85	4198.92
435.03	4121.68
435.22	4128.70
435.41	4409.57
435.59	4250.41
435.78	4411.91
435.97	4290.20
436.16	4440.00
436.34	4327.65
436.53	4397.87
436.72	4582.77
436.90	4290.20
437.09	4578.09
437.28	4315.95
437.46	4521.92
437.65	4341.69
437.84	4486.81
438.02	4774.69
438.21	4461.06
438.40	4470.42
438.58	4741.93
438.77	4873.00
438.96	4681.07
439.14	4858.95
439.33	5097.69
439.52	4901.08
439.70	5004.07
439.89	4975.98
440.08	4868.31
440.26	4851.93
440.45	4851.93
440.63	4968.96
440.82	4992.36
441.01	5055.56
441.19	5177.26
441.38	5270.89
441.57	5235.78
441.75	5273.23
441.94	5254.50
442.12	5261.52
442.31	5399.62
442.50	5282.59
442.68	5338.76
442.87	5497.92
443.05	5444.09
443.24	5551.75
443.43	5540.05
443.61	5565.79
443.80	5706.23
443.98	5448.77
444.17	5156.20
444.35	5401.96
444.54	5565.79
444.73	5401.96
444.91	5722.61
445.10	5659.42
445.28	5563.45
445.47	5584.52
445.65	5654.73
445.84	5816.23
446.02	5720.27
446.21	5621.97
446.39	5600.90
446.58	5870.06
446.77	5689.84
446.95	5495.58
447.14	5626.65
447.32	5785.80
447.51	5727.29
447.69	5731.97
447.88	5628.99
448.06	5675.80
448.25	5851.34
448.43	5776.44
448.62	5657.07
448.80	5795.17
448.99	5844.32
449.17	5776.44
449.36	5792.83
449.54	5846.66
449.73	6033.90
449.91	5743.67
450.10	6064.33
450.28	6132.20
450.46	6029.22
450.65	5909.85
450.83	6085.39
451.02	6108.80
451.20	6146.25
451.39	6122.84
451.57	6129.86
451.76	5989.43
451.94	6024.54
452.13	6286.68
452.31	6253.91
452.49	6094.76
452.68	6179.01
452.86	6125.18
453.05	6342.85
453.23	6429.45
453.42	6251.57
453.60	6296.04
453.78	6427.11
453.97	6340.51
454.15	6169.65
454.34	6427.11
454.52	6452.86
454.70	6349.87
454.89	6469.24
455.07	6509.03
455.26	6373.28
455.44	6593.29
455.62	6698.61
455.81	6696.27
455.99	6511.37
456.17	6696.27
456.36	6621.38
456.54	6867.13
456.73	6855.43
456.91	6871.81
457.09	7000.54
457.28	7049.69
457.46	6827.34
457.64	7155.02
457.83	7105.87
458.01	7061.40
458.19	7204.17
458.38	6979.48
458.56	7171.40
458.74	6993.52
458.93	7091.82
459.11	7129.27
459.29	7229.91
459.48	7152.68
459.66	7211.19
459.84	7290.77
460.03	7442.90
460.21	7239.28
460.39	7344.60
460.57	7279.07
460.76	7204.17
460.94	7482.69
461.12	7440.56
461.31	7459.29
461.49	7473.33
461.67	7353.96
461.85	7646.53
462.04	7447.58
462.22	8056.12
462.40	7728.45
462.59	7693.34
462.77	7620.78
462.95	7698.02
463.13	7833.77
463.32	7531.84
463.50	7751.85
463.68	7674.62
463.86	7801.01
464.05	7875.90
464.23	7852.50
464.41	7920.37
464.59	7798.66
464.78	7906.33
464.96	8028.04
465.14	7854.84
465.32	7978.89
465.50	7969.52
465.69	8009.31
465.87	8168.47
466.05	7946.12
466.23	8180.17
466.41	8044.42
466.60	8238.69
466.78	8217.62
466.96	8032.72
467.14	8315.92
467.32	8138.04
467.51	8322.94
467.69	8191.88
467.87	8259.75
468.05	8205.92
468.23	8255.07
468.41	8177.83
468.60	8243.37
468.78	8484.44
468.96	8344.01
469.14	8449.33
469.32	8568.70
469.50	8573.38
469.69	8458.70
469.87	8800.41
470.05	8557.00
470.23	8762.97
470.41	8896.38
470.59	8697.43
470.77	8840.20
470.95	8784.03
471.14	8840.20
471.32	8711.47
471.50	8952.55
471.68	9046.17
471.86	8992.34
472.04	9008.72
472.22	9202.99
472.40	8971.27
472.58	9008.72
472.77	8990.00
472.95	9198.31
473.13	9661.73
473.31	9142.13
473.49	9371.50
473.67	9298.95
473.85	9394.91
474.03	9530.66
474.21	9610.24
474.39	9699.18
474.57	9731.95
474.75	9731.95
474.93	9893.44
475.12	9827.91
475.30	9708.54
475.48	9860.68
475.66	10010.47
475.84	9678.12
476.02	10127.50
476.20	10071.33
476.38	10235.16
476.56	10501.98
476.74	10523.05
476.92	10560.50
477.10	10434.11
477.28	10572.20
477.46	10553.48
477.64	10738.38
477.82	10808.59
478.00	11035.63
478.18	10911.58
478.36	11183.08
478.54	11307.13
478.72	11342.24
478.90	11241.59
479.08	11641.82
479.26	11641.82
479.44	11646.51
479.62	11712.04
479.80	11786.94
479.98	11763.53
480.16	12168.45
480.34	11997.59
480.52	12002.27
480.70	12046.74
480.88	12159.08
481.06	12233.98
481.24	12351.01
481.41	12292.49
481.59	12456.33
481.77	12922.10
481.95	12744.22
482.13	12886.99
482.31	12908.05
482.49	13238.07
482.67	13200.62
482.85	13352.76
483.03	13528.30
483.21	13549.36
483.39	13848.95
483.57	13797.46
483.74	13767.03
483.92	13907.46
484.10	13907.46
484.28	14143.86
484.46	14345.14
484.64	14534.73
484.82	14537.07
485.00	14338.12
485.18	14761.76
485.35	15108.16
485.53	14822.61
485.71	14963.04
485.89	15236.89
486.07	15269.66
486.25	15201.78
486.43	15468.60
486.61	15374.98
486.78	15824.36
486.96	15777.55
487.14	15969.48
487.32	15927.35
487.50	16252.68
487.68	16336.94
487.85	16505.46
488.03	16786.32
488.21	16861.22
488.39	16861.22
488.57	16905.69
488.75	17041.44
488.92	16999.31
489.10	17167.83
489.28	17109.32
489.46	17607.85
489.64	17816.16
489.81	18031.49
489.99	18272.56
490.17	18101.70
490.35	18246.82
490.53	18382.57
490.70	18642.37
490.88	18237.45
491.06	18714.92
491.24	18665.77
491.41	18508.96
491.59	18867.06
491.77	19063.66
491.95	19302.40
492.13	19178.35
492.30	19344.53
492.48	19405.38
492.66	19690.93
492.84	19770.51
493.01	20180.10
493.19	19721.35
493.37	20072.43
493.54	20114.56
493.72	20500.75
493.90	20280.74
494.08	20512.46
494.25	20360.32
494.43	20940.77
494.61	20985.24
494.79	20814.38
494.96	21200.57
495.14	21177.17
495.32	21252.06
495.49	21364.41
495.67	21460.37
495.85	21769.32
496.02	22068.91
496.20	21937.84
496.38	22183.60
496.55	22073.59
496.73	22721.92
496.91	22382.54
497.09	22480.85
497.26	22721.92
497.44	22499.57
497.62	23094.07
497.79	23108.11
497.97	23145.56
498.14	23283.65
498.32	23548.13
498.50	23246.20
498.67	23892.19
498.85	23651.11
499.03	23976.45
499.20	23910.91
499.38	24161.35
499.56	24304.12
499.73	24173.05
499.91	24292.42
500.08	24769.89
500.26	24545.20
500.44	24217.52
500.61	24425.83
500.79	24376.68
500.97	24915.00
501.14	24844.79
501.32	25006.28
501.49	24964.15
501.67	25008.62
501.84	25502.48
502.02	25191.19
502.20	25432.26
502.37	25596.10
502.55	25493.12
502.72	25944.84
502.90	25715.47
503.07	25436.94
503.25	25860.58
503.43	25963.56
503.60	26300.60
503.78	26160.17
503.95	26026.76
504.13	26291.24
504.30	26508.91
504.48	26403.58
504.65	26574.44
504.83	26761.69
505.01	27035.53
505.18	26906.80
505.36	27445.12
505.53	27175.96
505.71	27405.33
505.88	27190.00
506.06	27325.75
506.23	27339.80
506.41	27260.22
506.58	27395.97
506.76	27491.93
506.93	28074.73
507.11	27674.49
507.28	27756.41
507.46	28189.41
507.63	28016.21
507.81	28339.21
507.98	27782.16
508.16	28308.78
508.33	28355.59
508.50	28446.87
508.68	28444.53
508.85	28517.09
509.03	28580.28
509.20	28678.58
509.38	29116.26
509.55	29139.67
509.73	29326.91
509.90	29294.14
510.08	28938.38
510.25	29397.13
510.42	29252.02
510.60	29785.66
510.77	29689.70
510.95	29879.28
511.12	29575.01
511.30	29350.32
511.47	29830.13
511.64	29930.77
511.82	30073.54
511.99	29986.94
512.17	29886.30
512.34	29984.60
512.51	30293.55
512.69	30941.88
512.86	30492.50
513.04	30604.84
513.21	30326.32
513.38	30780.39
513.56	30941.88
513.73	30719.53
513.90	30689.10
514.08	31047.21
514.25	31274.24
514.43	31005.08
514.60	31112.74
514.77	31042.53
514.95	31573.83
515.12	31365.52
515.29	31335.09
515.47	31353.82
515.64	31903.84
515.81	30906.77
515.99	31646.38
516.16	32301.73
516.33	31864.05
516.51	31887.46
516.68	31503.61
516.85	31929.59
517.03	32156.62
517.20	32460.89
517.37	32278.33
517.54	32201.09
517.72	32142.58
517.89	32879.85
518.06	32685.58
518.24	32772.18
518.41	32739.41
518.58	32809.63
518.75	32744.09
518.93	33137.30
519.10	32793.25
519.27	33397.10
519.45	33460.30
519.62	33240.29
519.79	33954.15
519.96	33694.35
520.14	33589.03
520.31	33233.27
520.48	33755.21
520.65	33518.81
520.83	34497.16
521.00	34206.93
521.17	33886.28
521.34	34237.36
521.52	33975.22
521.69	33951.81
521.86	34380.13
522.03	34249.06
522.20	34457.37
522.38	34499.50
522.55	34513.54
522.72	34300.55
522.89	34646.95
523.07	34991.01
523.24	34899.73
523.41	34974.63
523.58	34789.72
523.75	35431.03
523.92	35330.39
524.10	35180.59
524.27	35220.38
524.44	35498.91
524.61	35346.77
524.78	35608.91
524.96	35721.26
525.13	35732.96
525.30	35569.12
525.47	35805.52
525.64	36109.78
525.81	35948.29
525.98	36172.98
526.16	36093.40
526.33	36142.55
526.50	36491.29
526.67	36264.26
526.84	35857.01
527.01	36383.63
527.18	36051.27
527.36	36409.37
527.53	36807.26
527.70	36917.27
527.87	36673.85
528.04	36905.57
528.21	36486.61
528.38	36755.77
528.55	36992.17
528.72	36767.48
528.89	36708.96
529.07	37013.23
529.24	36772.16
529.41	37603.05
529.58	37177.07
529.75	36994.51
529.92	37296.44
530.09	37427.51
530.26	37380.70
530.43	37280.05
530.60	37102.17
530.77	37170.05
530.94	37537.51
531.11	37928.38
531.28	37589.00
531.46	37418.14
531.63	37855.82
531.80	37724.75
531.97	38164.78
532.14	38113.28
532.31	37647.52
532.48	37919.02
532.65	38185.84
532.82	38211.59
532.99	38326.27
533.16	38059.45
533.33	38382.45
533.50	38485.43
533.67	38649.27
533.84	38436.28
534.01	38478.41
534.18	38455.00
534.35	38958.22
534.52	39398.24
534.69	38885.66
534.86	39129.08
535.03	39157.16
535.20	38806.08
535.37	38983.96
535.54	39363.13
535.71	39014.39
535.88	39512.92
536.05	39082.27
536.22	39622.93
536.38	39098.65
536.55	38885.66
536.72	39325.68
536.89	39391.22
537.06	39325.68
537.23	39533.99
537.40	39604.20
537.57	39112.69
537.74	39100.99
537.91	39859.32
538.08	39615.91
538.25	39288.23
538.42	39866.34
538.59	40245.51
538.75	39566.76
538.92	39903.79
539.09	40084.01
539.26	40318.07
539.43	40081.67
539.60	39868.69
539.77	40205.72
539.94	40638.72
540.11	40292.32
540.28	40517.01
540.44	40233.81
540.61	40439.78
540.78	40517.01
540.95	40587.23
541.12	40348.50
541.29	40402.33
541.46	40617.66
541.62	40865.75
541.79	40950.01
541.96	40041.88
542.13	40542.76
542.30	40627.02
542.47	40641.06
542.63	40985.12
542.80	41151.30
542.97	41174.70
543.14	41584.30
543.31	41184.07
543.48	41490.68
543.64	41710.69
543.81	41897.93
543.98	41827.71
544.15	41741.11
544.32	41284.71
544.48	41724.73
544.65	41633.45
544.82	41530.47
544.99	41223.86
545.16	41544.51
545.32	41579.62
545.49	42347.31
545.66	42281.78
545.83	42316.89
546.00	42593.07
546.16	42349.65
546.33	42021.98
546.50	41923.68
546.67	42658.60
546.83	42094.53
547.00	42190.50
547.17	42267.73
547.34	42721.80
547.50	42609.45
547.67	42904.36
547.84	42106.24
548.00	42462.00
548.17	43145.44
548.34	42897.34
548.51	42632.86
548.67	43393.53
548.84	42740.52
549.01	42784.99
549.18	42946.49
549.34	43264.80
549.51	42948.83
549.68	43339.70
549.84	42445.62
550.01	43339.70
550.18	42714.78
550.34	43189.91
550.51	43452.05
550.68	43225.01
550.84	43105.65
551.01	43859.30
551.18	43026.07
551.34	43157.14
551.51	43608.86
551.68	43178.20
551.84	43320.98
552.01	43236.72
552.18	43812.49
552.34	43466.09
552.51	43650.99
552.68	43175.86
552.84	43152.46
553.01	43487.15
553.18	43590.14
553.34	44083.99
553.51	43421.62
553.67	43629.93
553.84	43957.60
554.01	43758.66
554.17	44018.46
554.34	43868.66
554.51	43955.26
554.67	44165.91
554.84	44100.37
555.00	43880.36
555.17	43908.45
555.33	44582.52
555.50	44083.99
555.67	44217.40
555.83	44109.74
556.00	43899.09
556.16	44774.45
556.33	44311.02
556.50	44849.35
556.66	44629.34
556.83	44222.08
556.99	44807.22
557.16	44680.83
557.32	44945.31
557.49	44800.19
557.65	44779.13
557.82	44526.35
557.98	44849.35
558.15	44861.05
558.32	44624.65
558.48	44823.60
558.65	44617.63
558.81	44767.43
558.98	45059.99
559.14	44514.65
559.31	44559.12
559.47	45071.70
559.64	44940.63
559.80	45097.44
559.97	45226.17
560.13	44608.27
560.30	44870.41
560.46	45439.16
560.63	45010.84
560.79	45453.20
560.96	45275.32
561.12	45380.65
561.29	45340.86
561.45	45249.58
561.61	45184.04
561.78	45434.48
561.94	45296.39
562.11	44971.05
562.27	45303.41
562.44	45198.09
562.60	45371.28
562.77	45715.34
562.93	45102.12
563.10	45195.74
563.26	45111.49
563.42	45834.71
563.59	45628.74
563.75	45474.27
563.92	45331.50
564.08	45703.64
564.24	45177.02
564.41	45027.23
564.57	45659.17
564.74	45439.16
564.90	45570.23
565.07	45368.94
565.23	45270.64
565.39	45921.31
565.56	45823.01
565.72	45579.59
565.88	45399.37
566.05	45680.24
566.21	45565.55
566.38	45776.20
566.54	46085.15
566.70	45921.31
566.87	46127.28
567.03	45638.11
567.19	45911.95
567.36	45963.44
567.52	45797.26
567.68	45848.75
567.85	45893.22
568.01	46101.53
568.17	45595.98
568.34	46153.02
568.50	46094.51
568.66	45780.88
568.83	46171.75
568.99	45968.12
569.15	46115.58
569.32	45694.28
569.48	45757.47
569.64	46279.41
569.81	46267.71
569.97	45982.16
570.13	46384.74
570.30	45968.12
570.46	46382.40
570.62	46396.44
570.78	46155.36
570.95	45808.96
571.11	46429.21
571.27	46146.00
571.43	46064.08
571.60	46356.65
571.76	46349.63
571.92	46344.95
572.09	46485.38
572.25	46054.72
572.41	46122.60
572.57	46073.45
572.74	46527.51
572.90	46007.91
573.06	46478.36
573.22	46499.42
573.38	46775.61
573.55	46639.86
573.71	46810.71
573.87	46220.90
574.03	46515.81
574.20	46375.37
574.36	46511.13
574.52	46569.64
574.68	46614.11
574.84	46609.43
575.01	46864.55
575.17	47075.19
575.33	46906.68
575.49	46305.16
575.65	46513.47
575.82	46646.88
575.98	46698.37
576.14	46827.10
576.30	46696.03
576.46	46546.23
576.62	46789.65
576.79	46717.09
576.95	46150.68
577.11	46415.16
577.27	46625.81
577.43	46597.73
577.59	46768.58
577.75	46101.53
577.92	46450.27
578.08	46777.95
578.24	46721.77
578.40	46607.09
578.56	46646.88
578.72	46522.83
578.88	46892.63
579.04	46520.49
579.21	46571.98
579.37	46880.93
579.53	46738.16
579.69	46398.78
579.85	46677.30
580.01	46511.13
580.17	46644.54
580.33	46965.19
580.49	46674.96
580.65	47210.95
580.82	46548.57
580.98	46604.75
581.14	46454.95
581.30	47028.38
581.46	46698.37
581.62	46897.31
581.78	46501.76
581.94	46909.02
582.10	46822.42
582.26	46904.34
582.42	46787.31
582.58	46827.10
582.74	47093.92
582.90	46621.13
583.06	46721.77
583.22	46670.28
583.38	46806.03
583.54	46855.18
583.70	47023.70
583.86	47241.37
584.02	46724.11
584.18	47381.80
584.34	46745.18
584.50	47103.28
584.66	46808.37
584.82	46880.93
584.98	47161.79
585.14	46494.74
585.30	46876.25
585.46	46871.57
585.62	46684.33
585.78	46733.48
585.94	46937.10
586.10	47084.56
586.26	46766.24
586.42	46784.97
586.58	47318.61
586.74	46864.55
586.90	46787.31
587.06	46787.31
587.22	47185.20
587.38	46696.03
587.54	47325.63
587.70	47365.42
587.86	47058.81
588.02	47208.61
588.18	46754.54
588.34	47292.86
588.49	47147.75
588.65	46553.26
588.81	46976.89
588.97	47452.02
589.13	47023.70
589.29	46923.06
589.45	46951.15
589.61	47311.59
589.77	47449.68
589.93	46883.27
590.08	47131.37
