SpectraSuite Data File
++++++++++++++++++++++++++++++++++++
Date: Fri Oct 25 11:23:36 EDT 2013
User: price-jones
Dark Spectrum Present: No
Reference Spectrum Present: No
Number of Sampled Component Spectra: 1
Spectrometers: USB2+H05261
Integration Time (usec): 100000 (USB2+H05261)
Spectra Averaged: 1 (USB2+H05261)
Boxcar Smoothing: 0 (USB2+H05261)
Correct for Electrical Dark: No (USB2+H05261)
Strobe/Lamp Enabled: No (USB2+H05261)
Correct for Detector Non-linearity: No (USB2+H05261)
Correct for Stray Light: No (USB2+H05261)
Number of Pixels in Processed Spectrum: 2048
>>>>>Begin Processed Spectral Data<<<<<
365.73	220.01
365.92	220.01
366.12	220.01
366.32	152.13
366.52	170.86
366.72	107.66
366.91	152.13
367.11	152.13
367.31	0.00
367.51	138.09
367.70	135.75
367.90	124.05
368.10	142.77
368.30	91.28
368.49	128.73
368.69	147.45
368.89	170.86
369.09	142.77
369.28	156.82
369.48	98.30
369.68	177.88
369.87	152.13
370.07	208.31
370.27	222.35
370.47	292.57
370.66	592.16
370.86	634.29
371.06	706.84
371.25	711.52
371.45	657.69
371.65	655.35
371.84	692.80
372.04	690.46
372.24	741.95
372.44	720.88
372.63	720.88
372.83	692.80
373.03	674.07
373.22	746.63
373.42	812.17
373.62	819.19
373.81	777.06
374.01	877.70
374.21	819.19
374.40	856.64
374.60	781.74
374.79	760.67
374.99	807.48
375.19	809.83
375.38	863.66
375.58	784.08
375.78	894.08
375.97	861.32
376.17	896.43
376.37	784.08
376.56	877.70
376.76	861.32
376.95	905.79
377.15	837.91
377.35	882.38
377.54	898.77
377.74	858.98
377.93	866.00
378.13	858.98
378.33	875.36
378.52	926.85
378.72	959.62
378.91	929.19
379.11	1032.18
379.31	938.55
379.50	936.21
379.70	950.26
379.89	1050.90
380.09	931.53
380.28	924.51
380.48	978.34
380.68	910.47
380.87	990.05
381.07	985.37
381.26	992.39
381.46	1034.52
381.65	999.41
381.85	1048.56
382.04	1029.84
382.24	1093.03
382.43	1069.62
382.63	1025.15
382.83	1004.09
383.02	1149.20
383.22	1069.62
383.41	1069.62
383.61	1114.10
383.80	1156.22
384.00	1111.75
384.19	1088.35
384.39	1121.12
384.58	1118.78
384.78	1235.80
384.97	1151.54
385.17	1172.61
385.36	1160.91
385.56	1184.31
385.75	1153.88
385.95	1193.67
386.14	1153.88
386.34	1165.59
386.53	1196.01
386.72	1207.72
386.92	1240.48
387.11	1228.78
387.31	1207.72
387.50	1179.63
387.70	1214.74
387.89	1228.78
388.09	1277.93
388.28	1280.27
388.48	1315.38
388.67	1249.85
388.86	1301.34
389.06	1336.45
389.25	1315.38
389.45	1294.32
389.64	1338.79
389.84	1320.06
390.03	1299.00
390.22	1364.53
390.42	1383.26
390.61	1387.94
390.81	1345.81
391.00	1359.85
391.19	1504.96
391.39	1416.02
391.58	1432.41
391.78	1570.50
391.97	1437.09
392.16	1432.41
392.36	1526.03
392.55	1406.66
392.75	1521.35
392.94	1519.01
393.13	1528.37
393.33	1582.20
393.52	1568.16
393.71	1549.43
393.91	1577.52
394.10	1561.14
394.29	1519.01
394.49	1600.93
394.68	1591.56
394.88	1626.67
395.07	1621.99
395.26	1514.33
395.46	1673.48
395.65	1675.82
395.84	1781.15
396.04	1741.36
396.23	1877.11
396.42	1839.66
396.62	1820.94
396.81	1739.02
397.00	1788.17
397.19	1760.08
397.39	1825.62
397.58	1846.68
397.77	1799.87
397.97	1884.13
398.16	1781.15
398.35	1930.94
398.55	1919.24
398.74	1858.39
398.93	1954.35
399.12	1930.94
399.32	1935.62
399.51	2017.54
399.70	1975.41
399.90	1977.75
400.09	1968.39
400.28	2111.16
400.47	2017.54
400.67	2066.69
400.86	2054.99
401.05	2090.10
401.24	2069.03
401.44	2153.29
401.63	2071.37
401.82	2239.89
402.01	2157.97
402.21	2076.06
402.40	2176.70
402.59	2228.19
402.78	2225.85
402.97	2197.76
403.17	2186.06
403.36	2267.98
403.55	2260.96
403.74	2356.92
403.93	2363.94
404.13	2312.45
404.32	2422.45
404.51	2392.03
404.70	2392.03
404.89	2282.02
405.09	2562.89
405.28	2513.74
405.47	2499.69
405.66	2626.08
405.85	2506.71
406.05	2499.69
406.24	2469.27
406.43	2581.61
406.62	2668.21
406.81	2640.12
407.00	2668.21
407.20	2534.80
407.39	2628.42
407.58	2780.56
407.77	2853.11
407.96	2761.83
408.15	2848.43
408.34	2745.45
408.54	2733.75
408.73	2867.16
408.92	2658.85
409.11	2881.20
409.30	2881.20
409.49	2888.22
409.68	2991.20
409.87	2857.79
410.07	2958.44
410.26	2930.35
410.45	2967.80
410.64	2995.89
410.83	3016.95
411.02	3162.06
411.21	3227.60
411.40	3117.59
411.59	3297.81
411.78	3105.89
411.98	3236.96
412.17	3442.93
412.36	3353.99
412.55	3452.29
412.74	3452.29
412.93	3496.76
413.12	3314.20
413.31	3660.60
413.50	3456.97
413.69	3489.74
413.88	3604.42
414.07	3557.61
414.26	3611.45
414.45	3698.05
414.64	3688.68
414.83	3843.16
415.02	3901.67
415.22	3889.97
415.41	3756.56
415.60	4011.68
415.79	3854.86
415.98	3836.14
416.17	4037.42
416.36	3850.18
416.55	3948.48
416.74	4098.28
416.93	3927.42
417.12	4131.05
417.31	4241.05
417.50	4252.75
417.69	4250.41
417.88	4278.50
418.07	4229.35
418.26	4271.48
418.45	4362.76
418.64	4535.96
418.83	4425.95
419.02	4428.29
419.21	4461.06
419.39	4477.44
419.58	4395.53
419.77	4444.68
419.96	4671.71
420.15	4674.05
420.34	4606.17
420.53	4671.71
420.72	4760.65
420.91	4631.92
421.10	4770.01
421.29	4648.30
421.48	4695.11
421.67	4856.61
421.86	4849.59
422.05	4765.33
422.24	4887.04
422.43	4905.76
422.61	4971.30
422.80	4980.66
422.99	4987.68
423.18	5064.92
423.37	5048.54
423.56	4901.08
423.75	5025.13
423.94	4758.31
424.13	4533.62
424.32	4779.37
424.50	5001.72
424.69	5111.73
424.88	4997.04
425.07	4943.21
425.26	4898.74
425.45	5093.01
425.64	4912.78
425.83	5095.35
426.01	5076.62
426.20	5104.71
426.39	5027.47
426.58	4959.60
426.77	4924.49
426.96	5097.69
427.15	4912.78
427.33	5275.57
427.52	5121.09
427.71	5261.52
427.90	5188.97
428.09	5479.19
428.28	5366.85
428.46	5294.29
428.65	5350.46
428.84	5472.17
429.03	5582.18
429.22	5301.31
429.40	5359.83
429.59	5509.62
429.78	5320.04
429.97	5317.70
430.16	5439.40
430.34	5488.56
430.53	5724.95
430.72	5743.67
430.91	5600.90
431.10	5596.22
431.28	5619.63
431.47	5713.25
431.66	5818.57
431.85	5710.91
432.03	5846.66
432.22	5930.92
432.41	5877.09
432.60	5811.55
432.79	5776.44
432.97	6073.69
433.16	6120.50
433.35	6054.97
433.54	5989.43
433.72	6143.91
433.91	6157.95
434.10	6057.31
434.28	6244.55
434.47	6139.23
434.66	6193.06
434.85	6066.67
435.03	6300.72
435.22	6221.14
435.41	6448.18
435.59	6647.12
435.78	6504.35
435.97	6399.02
436.16	6497.33
436.34	6487.96
436.53	6602.65
436.72	6534.78
436.90	6452.86
437.09	6654.14
437.28	6441.15
437.46	6782.87
437.65	6633.08
437.84	6778.19
438.02	6665.85
438.21	6773.51
438.40	6670.53
438.58	7162.04
438.77	7087.14
438.96	7014.59
439.14	7136.29
439.33	7152.68
439.52	7178.42
439.70	7157.36
439.89	7396.09
440.08	7421.84
440.26	7307.15
440.45	7337.58
440.63	7665.25
440.82	7566.95
441.01	7405.46
441.19	7566.95
441.38	7407.80
441.57	7590.36
441.75	7789.30
441.94	7934.42
442.12	7840.79
442.31	8131.02
442.50	8072.51
442.68	7999.95
442.87	7964.84
443.05	8100.59
443.24	8046.76
443.43	8177.83
443.61	8168.47
443.80	8547.64
443.98	8046.76
444.17	7808.03
444.35	8329.97
444.54	8318.26
444.73	8285.50
444.91	8458.70
445.10	8393.16
445.28	8114.64
445.47	8390.82
445.65	8463.38
445.84	8444.65
446.02	8472.74
446.21	8528.91
446.39	8470.40
446.58	8430.61
446.77	8505.51
446.95	8273.79
447.14	8465.72
447.32	8493.80
447.51	8421.25
447.69	8400.18
447.88	8400.18
448.06	8393.16
448.25	8524.23
448.43	8695.09
448.62	8393.16
448.80	8643.60
448.99	8732.54
449.17	8933.82
449.36	8683.39
449.54	8861.27
449.73	9025.11
449.91	8992.34
450.10	8856.59
450.28	9001.70
450.46	9100.00
450.65	9057.87
450.83	9102.34
451.02	9172.56
451.20	9172.56
451.39	9207.67
451.57	9156.18
451.76	9123.41
451.94	9177.24
452.13	9280.22
452.31	9434.70
452.49	9181.92
452.68	9310.65
452.86	9228.73
453.05	9420.66
453.23	9504.92
453.42	9399.59
453.60	9392.57
453.78	9549.39
453.97	9598.54
454.15	9446.40
454.34	9357.46
454.52	9462.79
454.70	9678.12
454.89	9706.20
455.07	9984.73
455.26	9949.62
455.44	10083.03
455.62	9958.98
455.81	9874.72
455.99	10019.83
456.17	9935.57
456.36	10174.31
456.54	10225.80
456.73	10176.65
456.91	10527.73
457.09	10359.21
457.28	10799.23
457.46	10305.38
457.64	10555.82
457.83	10420.06
458.01	10562.84
458.19	10846.04
458.38	10757.10
458.56	10663.48
458.74	10565.18
458.93	10574.54
459.11	10668.16
459.29	10853.06
459.48	10710.29
459.66	10930.30
459.84	11014.56
460.03	11089.46
460.21	11164.36
460.39	10981.79
460.57	11091.80
460.76	11164.36
460.94	11145.63
461.12	11241.59
461.31	11356.28
461.49	11040.31
461.67	11047.33
461.85	11262.66
462.04	11140.95
462.22	11634.80
462.40	11583.31
462.59	11543.52
462.77	11421.81
462.95	11630.12
463.13	11524.80
463.32	11627.78
463.50	11889.92
463.68	11698.00
463.86	11960.14
464.05	11819.71
464.23	11843.11
464.41	12079.50
464.59	11552.88
464.78	12030.35
464.96	12053.76
465.14	11967.16
465.32	11850.13
465.50	12243.34
465.69	12304.20
465.87	12180.15
466.05	12081.85
466.23	12095.89
466.41	12198.87
466.60	12636.55
466.78	11960.14
466.96	11915.67
467.14	12301.86
467.32	12362.71
467.51	12697.41
467.69	12156.74
467.87	12376.75
468.05	12739.54
468.23	12306.54
468.41	12372.07
468.60	12840.18
468.78	12585.06
468.96	12678.68
469.14	12840.18
469.32	12898.69
469.50	12695.07
469.69	13013.38
469.87	12950.18
470.05	13085.94
470.23	13415.95
470.41	13083.59
470.59	13195.94
470.77	13266.16
470.95	13221.69
471.14	13568.09
471.32	13191.26
471.50	13593.83
471.68	13605.53
471.86	13685.11
472.04	13514.25
472.22	14066.62
472.40	13865.33
472.58	13731.92
472.77	13965.98
472.95	14118.11
473.13	14569.83
473.31	13970.66
473.49	14406.00
473.67	13954.27
473.85	14434.08
474.03	14808.57
474.21	14757.08
474.39	14604.94
474.57	14808.57
474.75	14623.67
474.93	15419.45
475.12	14717.29
475.30	15274.34
475.48	15197.10
475.66	15220.50
475.84	15176.03
476.02	15665.21
476.20	15594.99
476.38	15522.43
476.56	15971.82
476.74	15772.87
476.92	15915.64
477.10	15840.75
477.28	16257.36
477.46	16159.06
477.64	16365.03
477.82	16283.11
478.00	16835.47
478.18	16917.39
478.36	17039.10
478.54	17394.86
478.72	17298.90
478.90	17439.33
479.08	17764.67
479.26	17797.43
479.44	17682.75
479.62	17675.73
479.80	18221.07
479.98	18317.03
480.16	18370.86
480.34	18127.45
480.52	18574.49
480.70	18567.47
480.88	18520.66
481.06	18857.70
481.24	18663.43
481.41	19281.33
481.59	19112.81
481.77	19452.19
481.95	19548.15
482.13	19833.70
482.31	19541.13
482.49	20521.82
482.67	20374.36
482.85	20659.91
483.03	20608.42
483.21	20737.15
483.39	20655.23
483.57	21165.46
483.74	21109.29
483.92	21380.79
484.10	21092.91
484.28	21832.52
484.46	21827.84
484.64	22286.58
484.82	22089.98
485.00	22295.94
485.18	22822.56
485.35	23201.73
485.53	22651.70
485.71	22944.27
485.89	23459.19
486.07	23381.95
486.25	23204.07
486.43	23896.87
486.61	24210.50
486.78	23976.45
486.96	24065.39
487.14	24521.79
487.32	24449.24
487.50	24582.65
487.68	24739.46
487.85	25205.23
488.03	25434.60
488.21	26045.48
488.39	25642.91
488.57	26047.82
488.75	26199.96
488.92	26504.23
489.10	26675.09
489.28	26876.37
489.46	27082.34
489.64	27115.11
489.81	27894.50
489.99	27749.39
490.17	27819.61
490.35	28161.33
490.53	28013.87
490.70	28753.48
490.88	28608.37
491.06	28594.32
491.24	28952.43
491.41	29111.58
491.59	29450.96
491.77	29287.12
491.95	29565.65
492.13	29809.06
492.30	30178.87
492.48	30029.07
492.66	30169.51
492.84	30050.14
493.01	30810.81
493.19	30661.02
493.37	30859.96
493.54	31346.79
493.72	31498.93
493.90	31374.88
494.08	31917.89
494.25	31983.42
494.43	32137.90
494.61	32334.50
494.79	32378.97
494.96	32786.22
495.14	32788.56
495.32	33385.40
495.49	33151.35
495.67	33415.83
495.85	33282.42
496.02	34061.82
496.20	34068.84
496.38	34237.36
496.55	34178.84
496.73	34749.93
496.91	34773.34
497.09	34756.96
497.26	35012.07
497.44	34944.20
497.62	35175.91
497.79	36313.41
497.97	35517.63
498.14	35885.09
498.32	36062.97
498.50	36348.52
498.67	36615.34
498.85	36573.21
499.03	37074.09
499.20	36268.94
499.38	37022.59
499.56	37050.68
499.73	37064.72
499.91	37631.13
500.08	38099.24
500.26	37633.47
500.44	37523.47
500.61	38171.80
500.79	38080.52
500.97	38412.87
501.14	38567.35
501.32	38686.71
501.49	38333.29
501.67	38909.07
501.84	39051.84
502.02	38990.98
502.20	39290.57
502.37	38986.30
502.55	39227.38
502.72	39398.24
502.90	40013.80
503.07	39648.68
503.25	40112.10
503.43	39765.70
503.60	40079.33
503.78	39910.82
503.95	40289.98
504.13	40353.18
504.30	41078.74
504.48	40758.09
504.65	40985.12
504.83	41294.07
505.01	41682.60
505.18	41294.07
505.36	41783.24
505.53	41647.49
505.71	41427.48
505.88	42230.29
506.06	41820.69
506.23	42157.73
506.41	42106.24
506.58	42239.65
506.76	42288.80
506.93	42857.55
507.11	42499.45
507.28	42506.47
507.46	42707.76
507.63	43054.15
507.81	43543.33
507.98	43005.00
508.16	42923.08
508.33	43337.36
508.50	43672.06
508.68	43878.02
508.85	43833.55
509.03	43810.15
509.20	44004.41
509.38	44477.20
509.55	44634.02
509.73	44538.05
509.90	44734.66
510.08	44409.32
510.25	44931.26
510.42	44734.66
510.60	45144.25
510.77	45411.07
510.95	45668.53
511.12	45104.46
511.30	44935.95
511.47	45530.44
511.64	45769.18
511.82	45804.28
511.99	45689.60
512.17	45858.12
512.34	46047.70
512.51	46384.74
512.69	46279.41
512.86	46770.93
513.04	46777.95
513.21	46581.34
513.38	46707.73
513.56	46897.31
513.73	46873.91
513.90	47173.50
514.08	47072.85
514.25	47552.66
514.43	47295.21
514.60	47316.27
514.77	47283.50
514.95	47744.59
515.12	47641.60
515.29	47866.30
515.47	47906.08
515.64	48505.26
515.81	48137.80
515.99	48177.59
516.16	48301.64
516.33	48474.84
516.51	48699.53
516.68	48573.14
516.85	48533.35
517.03	48734.63
517.20	48680.80
517.37	49097.42
517.54	49141.89
517.72	49003.80
517.89	49303.38
518.06	49336.15
518.24	49050.61
518.41	49275.30
518.58	49499.99
518.75	49162.95
518.93	49925.97
519.10	50024.27
519.27	49677.87
519.45	50110.87
519.62	50019.59
519.79	50230.24
519.96	50384.71
520.14	50106.19
520.31	50153.00
520.48	50258.32
520.65	50227.90
520.83	50703.03
521.00	50712.39
521.17	50520.46
521.34	50817.71
521.52	50658.56
521.69	50990.91
521.86	51131.34
522.03	51140.71
522.20	51466.04
522.38	51590.09
522.55	51377.10
522.72	51290.50
522.89	51491.79
523.07	51856.91
523.24	51676.69
523.41	51662.64
523.58	51292.84
523.75	51824.14
523.92	51800.74
524.10	52018.41
524.27	51934.15
524.44	52186.92
524.61	52259.48
524.78	52306.29
524.96	52219.69
525.13	52320.34
525.30	52397.57
525.47	52481.83
525.64	52491.19
525.81	52732.27
525.98	53151.23
526.16	52598.86
526.33	52980.37
526.50	53305.70
526.67	52956.96
526.84	52868.02
527.01	52928.87
527.18	52809.51
527.36	53179.31
527.53	53104.41
527.70	53251.87
527.87	53535.07
528.04	53151.23
528.21	53394.64
528.38	53663.80
528.55	53708.27
528.72	53457.84
528.89	53605.29
529.07	53654.44
529.24	53626.35
529.41	53942.33
529.58	53773.81
529.75	53567.84
529.92	53888.49
530.09	53881.47
530.26	54136.59
530.43	53794.87
530.60	53659.12
530.77	54122.55
530.94	54113.19
531.11	54075.74
531.28	54220.85
531.46	54241.92
531.63	54150.63
531.80	54298.09
531.97	54279.36
532.14	54721.72
532.31	54564.91
532.48	54820.03
532.65	54412.77
532.82	54466.61
532.99	54649.17
533.16	54962.80
533.33	54855.14
533.50	55056.42
533.67	55208.56
533.84	54740.45
534.01	55098.55
534.18	54871.52
534.35	55234.30
534.52	55281.11
534.69	55295.16
534.86	55213.24
535.03	55004.93
535.20	55264.73
535.37	55351.33
535.54	55379.42
535.71	55131.32
535.88	55330.26
536.05	55309.20
536.22	55770.28
536.38	55763.26
536.55	55482.40
536.72	55711.77
536.89	55744.54
537.06	55842.84
537.23	55882.63
537.40	55655.60
537.57	55615.81
537.74	55597.09
537.91	56034.77
538.08	56037.11
538.25	55707.09
538.42	55969.23
538.59	56128.39
538.75	56083.92
538.92	56058.17
539.09	56470.11
539.26	56163.50
539.43	56149.45
539.60	56170.52
539.77	56369.46
539.94	56601.18
540.11	56573.09
540.28	56505.21
540.44	56573.09
540.61	56425.64
540.78	56463.08
540.95	56463.08
541.12	56542.66
541.29	56425.64
541.46	56793.10
541.62	56647.99
541.79	56425.64
541.96	56170.52
542.13	56617.56
542.30	56839.91
542.47	56893.74
542.63	57111.41
542.80	56926.51
542.97	57181.63
543.14	57179.29
543.31	57048.22
543.48	57165.24
543.64	57778.46
543.81	57394.62
543.98	57366.53
544.15	57265.89
544.32	57631.01
544.48	57605.26
544.65	57474.20
544.82	57389.94
544.99	57322.06
545.16	57663.78
545.32	57298.65
545.49	57708.25
545.66	57598.24
545.83	57689.52
546.00	57708.25
546.16	57741.02
546.33	57542.07
546.50	57607.61
546.67	57708.25
546.83	57422.70
547.00	57895.49
547.17	57832.30
547.34	57869.75
547.50	57876.77
547.67	58129.54
547.84	58115.50
548.00	58108.48
548.17	58379.98
548.34	58003.16
548.51	58351.90
548.67	58258.27
548.84	58286.36
549.01	58253.59
549.18	58286.36
549.34	58342.53
549.51	58166.99
549.68	58457.22
549.84	58370.62
550.01	58485.31
550.18	58595.31
550.34	58494.67
550.51	58396.37
550.68	58309.77
550.84	58319.13
551.01	58873.84
551.18	58599.99
551.34	58754.47
551.51	58475.94
551.68	58670.21
551.84	58440.84
552.01	58489.99
552.18	58808.30
552.34	58595.31
552.51	58768.51
552.68	58607.01
552.84	58742.77
553.01	58873.84
553.18	59100.87
553.34	59119.59
553.51	58754.47
553.67	58873.84
553.84	59044.69
554.01	58993.20
554.17	58993.20
554.34	58841.07
554.51	58911.28
554.67	59178.10
554.84	59014.27
555.00	59063.42
555.17	58894.90
555.33	59208.53
555.50	58864.47
555.67	59058.74
555.83	59199.17
556.00	59386.41
556.16	59468.33
556.33	59323.22
556.50	59236.62
556.66	59196.83
556.83	59203.85
556.99	59337.26
557.16	59414.50
557.32	59458.97
557.49	59681.32
557.65	59257.68
557.82	59276.41
557.98	59355.99
558.15	59433.22
558.32	59470.67
558.48	59449.61
558.65	59407.48
558.81	59536.21
558.98	59646.21
559.14	59730.47
559.31	59470.67
559.47	59632.17
559.64	59784.30
559.80	59814.73
559.97	59852.18
560.13	59674.30
560.30	59620.47
560.46	59678.98
560.63	59765.58
560.79	59725.79
560.96	59901.33
561.12	60039.42
561.29	59721.11
561.45	59870.90
561.61	59700.04
561.78	59901.33
561.94	59863.88
562.11	59861.54
562.27	60018.36
562.44	59941.12
562.60	59849.84
562.77	60179.85
562.93	59882.61
563.10	60093.25
563.26	59800.69
563.42	60219.64
563.59	60177.51
563.75	59898.99
563.92	60130.70
564.08	60097.94
564.24	60081.55
564.41	60360.08
564.57	60128.36
564.74	60280.50
564.90	60275.82
565.07	60229.01
565.23	60130.70
565.39	60165.81
565.56	60238.37
565.72	60119.00
565.88	60285.18
566.05	60177.51
566.21	60437.31
566.38	60369.44
566.54	60331.99
566.70	60390.50
566.87	60275.82
567.03	60427.95
567.19	60465.40
567.36	60271.14
567.52	60430.29
567.68	60654.98
567.85	60542.64
568.01	60474.76
568.17	60371.78
568.34	60566.04
568.50	60313.26
568.66	60374.12
568.83	60385.82
568.99	60390.50
569.15	60163.47
569.32	60360.08
569.48	60367.10
569.64	60692.43
569.81	60580.09
569.97	60371.78
570.13	60449.02
570.30	60458.38
570.46	60498.17
570.62	60381.14
570.78	60612.85
570.95	60530.93
571.11	60734.56
571.27	60718.18
571.43	60587.11
571.60	60814.14
571.76	60566.04
571.92	60743.92
572.09	60610.51
572.25	60692.43
572.41	60577.75
572.57	60587.11
572.74	60727.54
572.90	60512.21
573.06	60640.94
573.22	60654.98
573.38	60706.47
573.55	60563.70
573.71	61041.17
573.87	61038.83
574.03	60662.00
574.20	60701.79
574.36	60650.30
574.52	60797.76
574.68	60825.84
574.84	60781.37
575.01	60739.24
575.17	60690.09
575.33	60790.73
575.49	60643.28
575.65	61010.74
575.82	60776.69
575.98	60776.69
576.14	61064.58
576.30	60879.67
576.46	60877.33
576.62	60835.20
576.79	60722.86
576.95	60713.50
577.11	60809.46
577.27	60996.70
577.43	61029.47
577.59	60643.28
577.75	60776.69
577.92	60664.35
578.08	60973.30
578.24	60945.21
578.40	61153.52
578.56	61031.81
578.72	61050.53
578.88	61073.94
579.04	60963.93
579.21	60757.97
579.37	61041.17
579.53	61080.96
579.69	60914.78
579.85	60748.60
580.01	60860.95
580.17	60750.94
580.33	61038.83
580.49	61095.00
580.65	60903.08
580.82	60959.25
580.98	60804.78
581.14	60800.10
581.30	61073.94
581.46	60910.10
581.62	61162.88
581.78	60963.93
581.94	60793.07
582.10	60966.27
582.26	61057.56
582.42	61045.85
582.58	61045.85
582.74	60994.36
582.90	60896.06
583.06	60846.91
583.22	60760.31
583.38	60874.99
583.54	60968.61
583.70	61055.21
583.86	61109.05
584.02	60687.75
584.18	61195.65
584.34	61095.00
584.50	61160.54
584.66	60788.39
584.82	60636.26
584.98	61134.79
585.14	61109.05
585.30	60924.14
585.46	61059.90
585.62	60959.25
585.78	61174.58
585.94	60966.27
586.10	61111.39
586.26	61151.18
586.42	61134.79
586.58	61240.12
586.74	61076.28
586.90	60945.21
587.06	61008.40
587.22	61268.20
587.38	61254.16
587.54	61420.34
587.70	61307.99
587.86	61284.59
588.02	61130.11
588.18	61343.10
588.34	61254.16
588.49	61104.37
