SpectraSuite Data File
++++++++++++++++++++++++++++++++++++
Date: Fri Oct 25 10:43:46 EDT 2013
User: price-jones
Dark Spectrum Present: No
Reference Spectrum Present: No
Number of Sampled Component Spectra: 1
Spectrometers: USB2+H05261
Integration Time (usec): 100000 (USB2+H05261)
Spectra Averaged: 1 (USB2+H05261)
Boxcar Smoothing: 0 (USB2+H05261)
Correct for Electrical Dark: No (USB2+H05261)
Strobe/Lamp Enabled: No (USB2+H05261)
Correct for Detector Non-linearity: No (USB2+H05261)
Correct for Stray Light: No (USB2+H05261)
Number of Pixels in Processed Spectrum: 2048
>>>>>Begin Processed Spectral Data<<<<<
365.73	105.32
365.92	105.32
366.12	105.32
366.32	0.00
366.52	42.13
366.72	65.54
366.91	11.70
367.11	0.00
367.31	18.72
367.51	77.24
367.70	0.00
367.90	32.77
368.10	0.00
368.30	0.00
368.49	51.49
368.69	2.34
368.89	0.00
369.09	4.68
369.28	65.54
369.48	70.22
369.68	81.92
369.87	135.75
370.07	86.60
370.27	156.82
370.47	215.33
370.66	348.74
370.86	404.91
371.06	510.24
371.25	521.94
371.45	430.66
371.65	390.87
371.84	449.38
372.04	440.02
372.24	461.09
372.44	484.49
372.63	458.74
372.83	479.81
373.03	521.94
373.22	449.38
373.42	470.45
373.62	566.41
373.81	578.11
374.01	552.37
374.21	561.73
374.40	538.32
374.60	585.13
374.79	559.39
374.99	610.88
375.19	613.22
375.38	620.24
375.58	519.60
375.78	653.01
375.97	603.86
376.17	667.05
376.37	580.45
376.56	622.58
376.76	655.35
376.95	657.69
377.15	643.65
377.35	617.90
377.54	648.33
377.74	596.84
377.93	596.84
378.13	664.71
378.33	608.54
378.52	603.86
378.72	657.69
378.91	622.58
379.11	648.33
379.31	690.46
379.50	662.37
379.70	702.16
379.89	692.80
380.09	699.82
380.28	678.76
380.48	681.10
380.68	653.01
380.87	620.24
381.07	791.10
381.26	748.97
381.46	727.91
381.65	746.63
381.85	601.52
382.04	669.39
382.24	685.78
382.43	697.48
382.63	669.39
382.83	699.82
383.02	788.76
383.22	681.10
383.41	748.97
383.61	725.57
383.80	765.36
384.00	727.91
384.19	795.78
384.39	770.04
384.58	798.12
384.78	842.59
384.97	765.36
385.17	734.93
385.36	807.48
385.56	795.78
385.75	744.29
385.95	816.85
386.14	763.01
386.34	760.67
386.53	788.76
386.72	809.83
386.92	926.85
387.11	870.68
387.31	844.93
387.50	882.38
387.70	868.34
387.89	933.87
388.09	919.83
388.28	875.36
388.48	901.11
388.67	940.90
388.86	788.76
389.06	1039.20
389.25	1069.62
389.45	1015.79
389.64	887.06
389.84	877.70
390.03	889.40
390.22	999.41
390.42	1046.22
390.61	1011.11
390.81	959.62
391.00	1137.50
391.19	1025.15
391.39	1027.50
391.58	973.66
391.78	976.00
391.97	1083.67
392.16	957.28
392.36	1067.28
392.55	987.71
392.75	1032.18
392.94	1001.75
393.13	968.98
393.33	961.96
393.52	1048.56
393.71	1046.22
393.91	1057.92
394.10	1114.10
394.29	1090.69
394.49	1135.16
394.68	1217.08
394.88	1181.97
395.07	1261.55
395.26	1193.67
395.46	1231.12
395.65	1156.22
395.84	1186.65
396.04	1193.67
396.23	1233.46
396.42	1252.19
396.62	1200.69
396.81	1247.51
397.00	1198.35
397.19	1277.93
397.39	1247.51
397.58	1282.61
397.77	1306.02
397.97	1490.92
398.16	1362.19
398.35	1352.83
398.55	1387.94
398.74	1348.15
398.93	1434.75
399.12	1465.18
399.32	1483.90
399.51	1476.88
399.70	1528.37
399.90	1502.62
400.09	1568.16
400.28	1596.25
400.47	1600.93
400.67	1640.72
400.86	1610.29
401.05	1636.03
401.24	1607.95
401.44	1757.74
401.63	1661.78
401.82	1750.72
402.01	1661.78
402.21	1816.26
402.40	1661.78
402.59	1699.23
402.78	1736.68
402.97	1797.53
403.17	1748.38
403.36	1790.51
403.55	1902.86
403.74	1902.86
403.93	1781.15
404.13	1907.54
404.32	1837.32
404.51	1764.76
404.70	1842.00
404.89	1898.17
405.09	2005.84
405.28	1907.54
405.47	1879.45
405.66	1909.88
405.85	1973.07
406.05	1923.92
406.24	1959.03
406.43	1853.70
406.62	2040.95
406.81	2146.27
407.00	1947.33
407.20	2024.56
407.39	2143.93
407.58	2115.84
407.77	2122.87
407.96	2181.38
408.15	2239.89
408.34	2146.27
408.54	2277.34
408.73	2165.00
408.92	2099.46
409.11	2314.79
409.30	2359.26
409.49	2363.94
409.68	2277.34
409.87	2244.57
410.07	2319.47
410.26	2389.69
410.45	2256.28
410.64	2375.64
410.83	2413.09
411.02	2506.71
411.21	2551.18
411.40	2569.91
411.59	2562.89
411.78	2574.59
411.98	2576.93
412.17	2558.21
412.36	2607.36
412.55	2567.57
412.74	2635.44
412.93	2747.79
413.12	2621.40
413.31	2766.51
413.50	2686.94
413.69	2750.13
413.88	2871.84
414.07	2925.67
414.26	2923.33
414.45	2853.11
414.64	2832.05
414.83	2911.63
415.02	2981.84
415.22	3091.85
415.41	3023.97
415.60	3045.04
415.79	3108.23
415.98	3187.81
416.17	3119.93
416.36	3213.56
416.55	3213.56
416.74	3150.36
416.93	3255.69
417.12	3176.11
417.31	3281.43
417.50	3255.69
417.69	3435.91
417.88	3478.04
418.07	3389.10
418.26	3351.65
418.45	3379.73
418.64	3597.40
418.83	3471.01
419.02	3522.51
419.21	3564.64
419.39	3520.17
419.58	3545.91
419.77	3412.50
419.96	3517.83
420.15	3684.00
420.34	3557.61
420.53	3695.71
420.72	3796.35
420.91	3812.73
421.10	3688.68
421.29	3901.67
421.48	3674.64
421.67	3681.66
421.86	3754.22
422.05	3702.73
422.24	3798.69
422.43	3705.07
422.61	3733.15
422.80	3871.25
422.99	3899.33
423.18	3798.69
423.37	3953.16
423.56	3899.33
423.75	3859.54
423.94	3836.14
424.13	3543.57
424.32	3684.00
424.50	3845.50
424.69	3988.27
424.88	3904.01
425.07	3791.67
425.26	3840.82
425.45	3803.37
425.64	3782.31
425.83	3875.93
426.01	3967.21
426.20	3967.21
426.39	3882.95
426.58	3765.92
426.77	3882.95
426.96	3838.48
427.15	3824.44
427.33	3960.19
427.52	4014.02
427.71	4065.51
427.90	4016.36
428.09	4121.68
428.28	4224.67
428.46	4222.33
428.65	4119.34
428.84	4236.37
429.03	4229.35
429.22	3955.51
429.40	4196.58
429.59	4112.32
429.78	3852.52
429.97	3779.97
430.16	3925.08
430.34	3964.87
430.53	4098.28
430.72	4060.83
430.91	3967.21
431.10	4166.15
431.28	4365.10
431.47	4517.23
431.66	4519.57
431.85	4557.02
432.03	4468.08
432.22	4526.60
432.41	4447.02
432.60	4660.01
432.79	4692.77
432.97	4681.07
433.16	4681.07
433.35	4468.08
433.54	4491.49
433.72	4589.79
433.91	4652.98
434.10	4662.35
434.28	4755.97
434.47	4758.31
434.66	4716.18
434.85	4887.04
435.03	4931.51
435.22	4950.23
435.41	4968.96
435.59	5123.43
435.78	4943.21
435.97	4975.98
436.16	4964.28
436.34	5020.45
436.53	5041.51
436.72	4968.96
436.90	4945.55
437.09	5083.64
437.28	5118.75
437.46	4978.32
437.65	5114.07
437.84	5132.79
438.02	5118.75
438.21	5184.29
438.40	4947.89
438.58	5207.69
438.77	5315.36
438.96	5210.03
439.14	5472.17
439.33	5451.11
439.52	5600.90
439.70	5638.35
439.89	5563.45
440.08	5357.49
440.26	5605.58
440.45	5631.33
440.63	5823.25
440.82	5902.83
441.01	5849.00
441.19	5893.47
441.38	5984.75
441.57	6057.31
441.75	6174.33
441.94	6202.42
442.12	6080.71
442.31	6305.40
442.50	6239.87
442.68	6253.91
442.87	6230.51
443.05	6207.10
443.24	6396.68
443.43	6267.95
443.61	6422.43
443.80	6523.07
443.98	6207.10
444.17	6157.95
444.35	6258.59
444.54	6537.12
444.73	6422.43
444.91	6314.77
445.10	6317.11
445.28	6443.49
445.47	6314.77
445.65	6389.66
445.84	6321.79
446.02	6602.65
446.21	6335.83
446.39	6293.70
446.58	6548.82
446.77	6558.18
446.95	6427.11
447.14	6530.09
447.32	6668.19
447.51	6506.69
447.69	6715.00
447.88	6551.16
448.06	6487.96
448.25	6722.02
448.43	6717.34
448.62	6532.44
448.80	6576.91
448.99	6752.45
449.17	6663.51
449.36	6693.93
449.54	6853.09
449.73	6846.07
449.91	6834.36
450.10	6918.62
450.28	6970.12
450.46	7037.99
450.65	6904.58
450.83	6986.50
451.02	6970.12
451.20	6956.07
451.39	7169.06
451.57	7014.59
451.76	7185.44
451.94	7007.56
452.13	7155.02
452.31	7068.42
452.49	7073.10
452.68	6960.75
452.86	7026.29
453.05	7077.78
453.23	7197.15
453.42	7201.83
453.60	7143.32
453.78	7342.26
453.97	7059.06
454.15	7323.54
454.34	7091.82
454.52	7480.35
454.70	7382.05
454.89	7194.81
455.07	7414.82
455.26	7372.69
455.44	7590.36
455.62	7583.34
455.81	7473.33
455.99	7651.21
456.17	7658.23
456.36	7627.81
456.54	7854.84
456.73	7854.84
456.91	7948.46
457.09	7793.98
457.28	8205.92
457.46	7831.43
457.64	8072.51
457.83	8058.46
458.01	7969.52
458.19	8170.81
458.38	8049.10
458.56	7927.39
458.74	8109.96
458.93	8109.96
459.11	8184.85
459.29	8222.30
459.48	8215.28
459.66	8070.17
459.84	8304.22
460.03	8269.11
460.21	8402.52
460.39	8383.80
460.57	8322.94
460.76	8388.48
460.94	8334.65
461.12	8276.13
461.31	8505.51
461.49	8407.20
461.67	8812.12
461.85	8823.82
462.04	8709.13
462.22	9137.45
462.40	8793.39
462.59	8692.75
462.77	8617.85
462.95	8842.54
463.13	8872.97
463.32	8884.67
463.50	8940.85
463.68	9046.17
463.86	8744.24
464.05	8833.18
464.23	8737.22
464.41	8917.44
464.59	8667.00
464.78	9001.70
464.96	8968.93
465.14	8891.70
465.32	9179.58
465.50	9214.69
465.69	9156.18
465.87	9015.74
466.05	9116.39
466.23	8926.80
466.41	9085.96
466.60	9132.77
466.78	8929.14
466.96	9247.46
467.14	9050.85
467.32	9137.45
467.51	9160.86
467.69	9144.47
467.87	9144.47
468.05	9530.66
468.23	9327.03
468.41	9343.42
468.60	9408.95
468.78	9261.50
468.96	9504.92
469.14	9458.10
469.32	9610.24
469.50	9378.53
469.69	9540.02
469.87	9774.08
470.05	9715.56
470.23	9792.80
470.41	9591.52
470.59	9687.48
470.77	9872.38
470.95	9900.47
471.14	9867.70
471.32	9657.05
471.50	9982.38
471.68	10085.37
471.86	10218.78
472.04	10001.11
472.22	10420.06
472.40	10176.65
472.58	10209.42
472.77	10333.47
472.95	10384.96
473.13	10726.68
473.31	10494.96
473.49	10331.12
473.67	10310.06
473.85	10459.85
474.03	10890.51
474.21	10771.15
474.39	10633.05
474.57	10946.69
474.75	11009.88
474.93	10862.43
475.12	10902.22
475.30	10958.39
475.48	11108.18
475.66	11412.45
475.84	11133.93
476.02	11222.87
476.20	11363.30
476.38	11257.98
476.56	11655.87
476.74	11627.78
476.92	11384.37
477.10	11669.91
477.28	11681.61
477.46	12013.97
477.64	11761.19
477.82	12163.76
478.00	12367.39
478.18	12198.87
478.36	12280.79
478.54	12430.59
478.72	12573.36
478.90	12568.68
479.08	13020.40
479.26	12936.14
479.44	13006.36
479.62	13179.56
479.80	13107.00
479.98	13104.66
480.16	13453.40
480.34	13341.05
480.52	13429.99
480.70	13579.79
480.88	13509.57
481.06	13685.11
481.24	13982.36
481.41	13916.83
481.59	14160.24
481.77	13961.30
481.95	14251.52
482.13	14298.33
482.31	14288.97
482.49	14712.61
482.67	14682.18
482.85	14728.99
483.03	14789.85
483.21	14824.95
483.39	15096.46
483.57	15154.97
483.74	15169.01
483.92	15257.95
484.10	15360.94
484.28	15398.38
484.46	15702.65
484.64	16006.92
484.82	15892.24
485.00	15803.30
485.18	15819.68
485.35	16154.38
485.53	15880.53
485.71	15910.96
485.89	16093.52
486.07	15920.32
486.25	16287.79
486.43	16858.88
486.61	16872.92
486.78	16910.37
486.96	17142.08
487.14	17429.97
487.32	17748.28
487.50	18052.55
487.68	17900.42
487.85	18352.14
488.03	18040.85
488.21	18237.45
488.39	18387.25
488.57	18293.63
488.75	18427.04
488.92	18822.59
489.10	18820.25
489.28	19105.79
489.46	19356.23
489.64	19248.57
489.81	19723.69
489.99	19625.39
490.17	19941.36
490.35	20201.16
490.53	19704.97
490.70	20238.61
490.88	20292.44
491.06	20332.23
491.24	20533.52
491.41	20575.65
491.59	20386.07
491.77	20573.31
491.95	20610.76
492.13	20968.86
492.30	21188.87
492.48	21270.79
492.66	21151.42
492.84	21633.57
493.01	21607.83
493.19	21642.93
493.37	21825.50
493.54	22066.57
493.72	22253.81
493.90	22302.96
494.08	22443.40
494.25	22560.42
494.43	22813.20
494.61	23276.63
494.79	23342.16
494.96	22874.06
495.14	23037.89
495.32	23372.59
495.49	23311.74
495.67	23480.25
495.85	23660.48
496.02	23491.96
496.20	24334.55
496.38	23974.11
496.55	24247.95
496.73	24917.34
496.91	24360.30
497.09	24561.58
497.26	24952.45
497.44	24823.72
497.62	25202.89
497.79	24893.94
497.97	24751.17
498.14	25046.07
498.32	25289.49
498.50	25584.40
498.67	25762.28
498.85	25642.91
499.03	25656.95
499.20	25766.96
499.38	25788.02
499.56	25933.14
499.73	26017.40
499.91	26024.42
500.08	25919.09
500.26	25947.18
500.44	26211.66
500.61	26326.35
500.79	26164.85
500.97	26139.10
501.14	26579.12
501.32	26637.64
501.49	26834.24
501.67	26909.14
501.84	26876.37
502.02	27145.53
502.20	27075.32
502.37	27414.69
502.55	27292.99
502.72	27772.80
502.90	27655.77
503.07	27604.28
503.25	27697.90
503.43	27695.56
503.60	27742.37
503.78	27962.38
503.95	27742.37
504.13	27931.95
504.30	28044.30
504.48	28201.11
504.65	28460.91
504.83	28835.40
505.01	28975.83
505.18	28884.55
505.36	28964.13
505.53	28811.99
505.71	29277.76
505.88	29567.99
506.06	29001.58
506.23	29106.90
506.41	28985.19
506.58	29317.55
506.76	29256.70
506.93	30279.51
507.11	29336.27
507.28	29816.08
507.46	29649.91
507.63	29942.47
507.81	29888.64
507.98	29832.47
508.16	30010.35
508.33	30595.48
508.50	29935.45
508.68	30401.22
508.85	30590.80
509.03	30429.30
509.20	30771.02
509.38	30817.83
509.55	30616.55
509.73	31213.38
509.90	30909.11
510.08	31182.96
510.25	30962.95
510.42	31161.89
510.60	31255.51
510.77	31295.30
510.95	31538.72
511.12	31285.94
511.30	31529.36
511.47	31889.80
511.64	31913.20
511.82	32006.83
511.99	31438.08
512.17	31742.35
512.34	31901.50
512.51	32053.64
512.69	31924.91
512.86	32236.20
513.04	32648.13
513.21	32196.41
513.38	32215.13
513.56	32624.73
513.73	32212.79
513.90	32292.37
514.08	32629.41
514.25	32945.38
514.43	32615.37
514.60	32552.17
514.77	32779.20
514.95	33385.40
515.12	33067.09
515.29	33202.84
515.47	33392.42
515.64	33282.42
515.81	33532.86
515.99	33434.55
516.16	33413.49
516.33	32945.38
516.51	33329.23
516.68	32856.44
516.85	33223.90
517.03	33380.72
517.20	33390.08
517.37	34068.84
517.54	34328.64
517.72	33900.32
517.89	33699.03
518.06	33968.19
518.24	33675.63
518.41	33869.89
518.58	34106.29
518.75	34403.53
518.93	34178.84
519.10	34347.36
519.27	34122.67
519.45	34698.44
519.62	34763.98
519.79	35269.53
519.96	35243.79
520.14	35459.12
520.31	34660.99
520.48	35065.91
520.65	34932.50
520.83	35541.03
521.00	35407.62
521.17	35262.51
521.34	35695.51
521.52	35651.04
521.69	35564.44
521.86	36149.57
522.03	35864.03
522.20	35758.70
522.38	36044.25
522.55	35952.97
522.72	36084.04
522.89	35620.61
523.07	36081.70
523.24	35899.14
523.41	36505.34
523.58	36051.27
523.75	36652.79
523.92	36896.20
524.10	36842.37
524.27	36510.02
524.44	36830.67
524.61	37102.17
524.78	37078.77
524.96	36800.24
525.13	36753.43
525.30	37191.11
525.47	37294.10
525.64	37205.16
525.81	37500.06
525.98	37209.84
526.16	37036.64
526.33	36788.54
526.50	36669.17
526.67	36992.17
526.84	37139.62
527.01	36842.37
527.18	37361.97
527.36	37432.19
527.53	38139.03
527.70	38108.60
527.87	37481.34
528.04	37486.02
528.21	37771.57
528.38	38234.99
528.55	38630.54
528.72	38316.91
528.89	38864.60
529.07	38384.79
529.24	38110.94
529.41	38169.46
529.58	38450.32
529.75	38590.75
529.92	38267.76
530.09	38625.86
530.26	38382.45
530.43	38857.57
530.60	38300.53
530.77	38904.38
530.94	38934.81
531.11	38651.61
531.28	38794.38
531.46	39023.75
531.63	39246.10
531.80	38969.92
531.97	38911.41
532.14	38749.91
532.31	38899.70
532.48	39105.67
532.65	39194.61
532.82	38946.51
532.99	39433.35
533.16	39304.62
533.33	40020.82
533.50	39522.29
533.67	39482.50
533.84	39047.16
534.01	39426.32
534.18	39491.86
534.35	40177.64
534.52	39538.67
534.69	40027.84
534.86	40327.43
535.03	39739.96
535.20	39978.69
535.37	40435.10
535.54	40444.46
535.71	40140.19
535.88	40430.41
536.05	39899.11
536.22	40182.32
536.38	40378.92
536.55	40430.41
536.72	40016.14
536.89	40093.38
537.06	40140.19
537.23	40542.76
537.40	40847.03
537.57	40678.51
537.74	40793.20
537.91	40872.78
538.08	41132.57
538.25	40545.10
538.42	40535.74
538.59	40786.18
538.75	40552.12
538.92	40938.31
539.09	40769.79
539.26	41017.89
539.43	41085.76
539.60	40907.88
539.77	40912.56
539.94	40809.58
540.11	40423.39
540.28	41455.57
540.44	41029.59
540.61	40636.38
540.78	40907.88
540.95	41273.01
541.12	41029.59
541.29	41359.61
541.46	41383.01
541.62	41507.06
541.79	41603.02
541.96	41308.11
542.13	41055.34
542.30	41642.81
542.47	41748.14
542.63	41853.46
542.80	41404.08
542.97	42466.68
543.14	42089.85
543.31	42279.44
543.48	41949.42
543.64	42464.34
543.81	42473.70
543.98	42483.06
544.15	42326.25
544.32	42384.76
544.48	42520.51
544.65	42305.18
544.82	42572.00
544.99	42251.35
545.16	42515.83
545.32	42185.82
545.49	42733.50
545.66	42841.17
545.83	42401.14
546.00	42993.30
546.16	42979.26
546.33	42562.64
546.50	42635.20
546.67	42859.89
546.83	42300.50
547.00	42871.59
547.17	43201.61
547.34	42738.18
547.50	42904.36
547.67	42838.83
547.84	42892.66
548.00	43208.63
548.17	43571.41
548.34	43150.12
548.51	43548.01
548.67	43543.33
548.84	43557.37
549.01	43084.58
549.18	43452.05
549.34	43358.42
549.51	43454.39
549.68	43487.15
549.84	43484.81
550.01	43943.56
550.18	43466.09
550.34	43559.71
550.51	43262.46
550.68	43470.77
550.84	43091.60
551.01	43873.34
551.18	43407.58
551.34	43779.72
551.51	43672.06
551.68	44079.31
551.84	43819.51
552.01	43594.82
552.18	43384.17
552.34	43648.65
552.51	43910.79
552.68	43477.79
552.84	43973.98
553.01	44233.78
553.18	43927.17
553.34	43927.17
553.51	43842.92
553.67	44208.04
553.84	44083.99
554.01	44502.95
554.17	44191.65
554.34	44252.51
554.51	44098.03
554.67	44320.38
554.84	44327.41
555.00	43859.30
555.17	43915.47
555.33	44727.64
555.50	44285.28
555.67	44659.76
555.83	44346.13
556.00	44573.16
556.16	44479.54
556.33	44215.06
556.50	44552.10
556.66	44622.31
556.83	44261.87
556.99	44509.97
557.16	44397.62
557.32	44495.92
557.49	44594.23
557.65	44397.62
557.82	44442.09
557.98	44802.53
558.15	44589.55
558.32	44896.16
558.48	44397.62
558.65	44488.90
558.81	44931.26
558.98	44877.43
559.14	44411.67
559.31	44844.66
559.47	44570.82
559.64	44456.14
559.80	45052.97
559.97	44690.19
560.13	44662.10
560.30	44973.39
560.46	45003.82
560.63	44500.61
560.79	45319.79
560.96	45280.00
561.12	45069.36
561.29	45055.31
561.45	44797.85
561.61	45043.61
561.78	44357.83
561.94	44861.05
562.11	44809.56
562.27	45193.40
562.44	44533.37
562.60	45167.66
562.77	45336.18
562.93	44828.28
563.10	45378.31
563.26	45254.26
563.42	45125.53
563.59	44788.49
563.75	44905.52
563.92	45340.86
564.08	45460.23
564.24	45343.20
564.41	45251.92
564.57	45097.44
564.74	45022.54
564.90	45415.76
565.07	44917.22
565.23	45361.92
565.39	45209.79
565.56	45134.89
565.72	44776.79
565.88	45097.44
566.05	45448.52
566.21	45385.33
566.38	45132.55
566.54	45436.82
566.70	45361.92
566.87	45397.03
567.03	45755.13
567.19	45972.80
567.36	45565.55
567.52	45361.92
567.68	45808.96
567.85	44795.51
568.01	45418.10
568.17	45600.66
568.34	45670.87
568.50	45413.41
568.66	45373.63
568.83	45715.34
568.99	44891.48
569.15	45345.54
569.32	45521.08
569.48	45331.50
569.64	45717.68
569.81	45684.92
569.97	45188.72
570.13	45497.67
570.30	45375.97
570.46	45158.30
570.62	45495.33
570.78	45083.40
570.95	45233.19
571.11	45425.12
571.27	45549.17
571.43	45263.62
571.60	45736.41
571.76	45350.22
571.92	45588.95
572.09	45720.02
572.25	45497.67
572.41	45745.77
572.57	45820.67
572.74	45942.38
572.90	45689.60
573.06	45839.39
573.22	45429.80
573.38	45579.59
573.55	45308.09
573.71	45724.71
573.87	45738.75
574.03	45448.52
574.20	45834.71
574.36	45500.01
574.52	45750.45
574.68	45647.47
574.84	45734.07
575.01	45619.38
575.17	45759.81
575.33	45296.39
575.49	45787.90
575.65	45874.50
575.82	45427.46
575.98	45481.29
576.14	45741.09
576.30	45794.92
576.46	46234.94
576.62	45420.44
576.79	45397.03
576.95	44903.18
577.11	45766.84
577.27	45607.68
577.43	45544.48
577.59	45464.91
577.75	45448.52
577.92	45195.74
578.08	45198.09
578.24	44947.65
578.40	45404.05
578.56	45628.74
578.72	45544.48
578.88	45837.05
579.04	45855.78
579.21	45429.80
579.37	45570.23
579.53	45883.86
579.69	45551.51
579.85	45830.03
580.01	45799.60
580.17	45696.62
580.33	45504.70
580.49	46045.36
580.65	45689.60
580.82	45944.72
580.98	45624.06
581.14	45485.97
581.30	45727.05
581.46	45514.06
581.62	45713.00
581.78	45521.08
581.94	45984.51
582.10	46192.81
582.26	45972.80
582.42	46073.45
582.58	45715.34
582.74	45663.85
582.90	45867.48
583.06	45900.25
583.22	45626.40
583.38	45911.95
583.54	46412.82
583.70	46197.49
583.86	46010.25
584.02	45855.78
584.18	45872.16
584.34	45715.34
584.50	45937.69
584.66	45460.23
584.82	45893.22
584.98	45883.86
585.14	45876.84
585.30	45972.80
585.46	45827.69
585.62	45462.57
585.78	45752.79
585.94	45528.10
586.10	45579.59
586.26	45743.43
586.42	46246.65
586.58	45834.71
586.74	46176.43
586.90	45736.41
587.06	45631.08
587.22	46026.63
587.38	45553.85
587.54	45970.46
587.70	46108.55
587.86	45694.28
588.02	45970.46
588.18	45958.76
588.34	45713.00
588.49	45457.88
588.65	45319.79
588.81	45787.90
588.97	45645.13
589.13	45457.88
589.29	45420.44
589.45	45572.57
589.61	45909.61
589.77	45900.25
589.93	45965.78
590.08	45490.65
