SpectraSuite Data File
++++++++++++++++++++++++++++++++++++
Date: Fri Oct 25 11:24:06 EDT 2013
User: price-jones
Dark Spectrum Present: No
Reference Spectrum Present: No
Number of Sampled Component Spectra: 1
Spectrometers: USB2+H05261
Integration Time (usec): 100000 (USB2+H05261)
Spectra Averaged: 1 (USB2+H05261)
Boxcar Smoothing: 0 (USB2+H05261)
Correct for Electrical Dark: No (USB2+H05261)
Strobe/Lamp Enabled: No (USB2+H05261)
Correct for Detector Non-linearity: No (USB2+H05261)
Correct for Stray Light: No (USB2+H05261)
Number of Pixels in Processed Spectrum: 2048
>>>>>Begin Processed Spectral Data<<<<<
365.73	252.78
365.92	252.78
366.12	252.78
366.32	79.58
366.52	128.73
366.72	198.95
366.91	121.71
367.11	131.07
367.31	117.03
367.51	138.09
367.70	196.60
367.90	187.24
368.10	205.97
368.30	142.77
368.49	105.32
368.69	149.79
368.89	161.50
369.09	152.13
369.28	180.22
369.48	161.50
369.68	114.69
369.87	180.22
370.07	262.14
370.27	236.39
370.47	348.74
370.66	552.37
370.86	627.26
371.06	685.78
371.25	758.33
371.45	641.31
371.65	688.12
371.84	678.76
372.04	727.91
372.24	697.48
372.44	671.73
372.63	755.99
372.83	699.82
373.03	753.65
373.22	746.63
373.42	706.84
373.62	767.70
373.81	795.78
374.01	779.40
374.21	905.79
374.40	774.72
374.60	844.93
374.79	837.91
374.99	835.57
375.19	828.55
375.38	849.61
375.58	908.13
375.78	809.83
375.97	940.90
376.17	1029.84
376.37	901.11
376.56	795.78
376.76	844.93
376.95	809.83
377.15	910.47
377.35	861.32
377.54	819.19
377.74	931.53
377.93	887.06
378.13	884.72
378.33	922.17
378.52	952.60
378.72	959.62
378.91	908.13
379.11	847.27
379.31	938.55
379.50	950.26
379.70	978.34
379.89	980.68
380.09	973.66
380.28	903.45
380.48	1001.75
380.68	898.77
380.87	884.72
381.07	926.85
381.26	1036.86
381.46	985.37
381.65	1050.90
381.85	1088.35
382.04	1053.24
382.24	1086.01
382.43	994.73
382.63	1109.41
382.83	1039.20
383.02	1100.05
383.22	1167.93
383.41	983.02
383.61	1172.61
383.80	1097.71
384.00	1086.01
384.19	1083.67
384.39	1130.48
384.58	1086.01
384.78	1137.50
384.97	1207.72
385.17	1104.73
385.36	1196.01
385.56	1188.99
385.75	1132.82
385.95	1214.74
386.14	1226.44
386.34	1121.12
386.53	1200.69
386.72	1224.10
386.92	1315.38
387.11	1235.80
387.31	1153.88
387.50	1315.38
387.70	1128.14
387.89	1249.85
388.09	1179.63
388.28	1296.66
388.48	1245.16
388.67	1226.44
388.86	1266.23
389.06	1228.78
389.25	1380.92
389.45	1359.85
389.64	1310.70
389.84	1430.07
390.03	1472.20
390.22	1423.05
390.42	1275.59
390.61	1383.26
390.81	1338.79
391.00	1432.41
391.19	1430.07
391.39	1462.83
391.58	1516.67
391.78	1465.18
391.97	1444.11
392.16	1446.45
392.36	1437.09
392.55	1565.82
392.75	1584.54
392.94	1511.99
393.13	1589.22
393.33	1448.79
393.52	1483.90
393.71	1561.14
393.91	1584.54
394.10	1544.75
394.29	1605.61
394.49	1575.18
394.68	1680.50
394.88	1647.74
395.07	1563.48
395.26	1650.08
395.46	1748.38
395.65	1633.69
395.84	1753.06
396.04	1830.30
396.23	1774.13
396.42	1755.40
396.62	1809.23
396.81	1750.72
397.00	1816.26
397.19	1844.34
397.39	1778.81
397.58	1799.87
397.77	1762.42
397.97	1884.13
398.16	1818.60
398.35	1870.09
398.55	1860.73
398.74	1898.17
398.93	1991.80
399.12	1947.33
399.32	1961.37
399.51	1937.96
399.70	2073.71
399.90	1905.20
400.09	2001.16
400.28	2076.06
400.47	2101.80
400.67	2104.14
400.86	2040.95
401.05	2174.36
401.24	2057.33
401.44	2230.53
401.63	2148.61
401.82	2165.00
402.01	2017.54
402.21	2129.89
402.40	2150.95
402.59	2157.97
402.78	2260.96
402.97	2265.64
403.17	2267.98
403.36	2181.38
403.55	2267.98
403.74	2321.81
403.93	2342.88
404.13	2429.48
404.32	2282.02
404.51	2387.35
404.70	2504.37
404.89	2459.90
405.09	2527.78
405.28	2457.56
405.47	2452.88
405.66	2553.52
405.85	2525.44
406.05	2476.29
406.24	2511.39
406.43	2630.76
406.62	2729.06
406.81	2708.00
407.00	2691.62
407.20	2553.52
407.39	2649.49
407.58	2693.96
407.77	2740.77
407.96	2757.15
408.15	2801.62
408.34	2717.36
408.54	2848.43
408.73	2757.15
408.92	2834.39
409.11	2813.32
409.30	2932.69
409.49	2874.18
409.68	2988.86
409.87	2944.39
410.07	2991.20
410.26	2878.86
410.45	2953.76
410.64	3030.99
410.83	3049.72
411.02	3068.44
411.21	3211.22
411.40	3178.45
411.59	3220.58
411.78	3171.43
411.98	3171.43
412.17	3197.17
412.36	3232.28
412.55	3234.62
412.74	3412.50
412.93	3506.12
413.12	3302.50
413.31	3445.27
413.50	3475.70
413.69	3548.25
413.88	3478.04
414.07	3559.95
414.26	3524.85
414.45	3688.68
414.64	3700.39
414.83	3744.86
415.02	3765.92
415.22	3763.58
415.41	3765.92
415.60	3756.56
415.79	3918.06
415.98	3911.04
416.17	4039.76
416.36	3852.52
416.55	3934.44
416.74	4037.42
416.93	4184.88
417.12	4070.19
417.31	3999.98
417.50	4138.07
417.69	4344.03
417.88	4119.34
418.07	4283.18
418.26	4276.16
418.45	4243.39
418.64	4557.02
418.83	4341.69
419.02	4519.57
419.21	4507.87
419.39	4367.44
419.58	4320.63
419.77	4418.93
419.96	4638.94
420.15	4615.54
420.34	4557.02
420.53	4606.17
420.72	4835.55
420.91	4720.86
421.10	4770.01
421.29	4851.93
421.48	4589.79
421.67	4849.59
421.86	4765.33
422.05	4791.08
422.24	4901.08
422.43	4784.06
422.61	4870.65
422.80	5050.88
422.99	4945.55
423.18	4919.81
423.37	4975.98
423.56	4908.10
423.75	4898.74
423.94	4854.27
424.13	4575.75
424.32	4795.76
424.50	5043.85
424.69	5282.59
424.88	5011.09
425.07	5107.05
425.26	4884.70
425.45	4966.62
425.64	4802.78
425.83	4870.65
426.01	5130.45
426.20	5011.09
426.39	4961.94
426.58	5095.35
426.77	5050.88
426.96	5130.45
427.15	5097.69
427.33	5043.85
427.52	5095.35
427.71	5121.09
427.90	5195.99
428.09	5170.24
428.28	5294.29
428.46	5291.95
428.65	5352.81
428.84	5607.92
429.03	5423.02
429.22	5446.43
429.40	5465.15
429.59	5584.52
429.78	5329.40
429.97	5270.89
430.16	5383.23
430.34	5624.31
430.53	5731.97
430.72	5783.46
430.91	5612.60
431.10	5715.59
431.28	5612.60
431.47	5722.61
431.66	5813.89
431.85	5907.51
432.03	6003.47
432.22	6150.93
432.41	5895.81
432.60	5940.28
432.79	5734.31
432.97	6066.67
433.16	6061.99
433.35	6157.95
433.54	6115.82
433.72	6106.46
433.91	6080.71
434.10	6141.57
434.28	6267.95
434.47	6431.79
434.66	6225.82
434.85	6321.79
435.03	6260.93
435.22	6366.26
435.41	6574.56
435.59	6242.21
435.78	6399.02
435.97	6654.14
436.16	6436.47
436.34	6436.47
436.53	6469.24
436.72	6691.59
436.90	6628.40
437.09	6567.54
437.28	6415.41
437.46	6651.80
437.65	6544.14
437.84	6635.42
438.02	6712.66
438.21	6703.29
438.40	6817.98
438.58	6881.18
438.77	7005.22
438.96	7119.91
439.14	7098.84
439.33	7096.50
439.52	7290.77
439.70	7073.10
439.89	7391.41
440.08	7400.77
440.26	7269.70
440.45	7405.46
440.63	7447.58
440.82	7630.15
441.01	7573.97
441.19	7611.42
441.38	7730.79
441.57	7665.25
441.75	7726.11
441.94	7873.56
442.12	8067.83
442.31	7939.10
442.50	8032.72
442.68	8009.31
442.87	8021.02
443.05	8208.26
443.24	8374.44
443.43	8081.87
443.61	8145.06
443.80	8608.49
443.98	8056.12
444.17	7887.61
444.35	8126.34
444.54	8360.39
444.73	8454.02
444.91	8290.18
445.10	8348.69
445.28	8325.29
445.47	8278.47
445.65	8276.13
445.84	8524.23
446.02	8449.33
446.21	8386.14
446.39	8397.84
446.58	8624.87
446.77	8468.06
446.95	8128.68
447.14	8348.69
447.32	8580.40
447.51	8634.24
447.69	8484.44
447.88	8404.86
448.06	8521.89
448.25	8528.91
448.43	8575.72
448.62	8624.87
448.80	8606.15
448.99	8704.45
449.17	8816.80
449.36	8620.19
449.54	8910.42
449.73	8966.59
449.91	8971.27
450.10	9029.79
450.28	9158.52
450.46	8982.98
450.65	9011.06
450.83	8884.67
451.02	9095.32
451.20	9317.67
451.39	9259.16
451.57	9139.79
451.76	9067.24
451.94	9142.13
452.13	9362.14
452.31	9343.42
452.49	9256.82
452.68	9518.96
452.86	9500.23
453.05	9291.93
453.23	9540.02
453.42	9490.87
453.60	9329.38
453.78	9633.64
453.97	9397.25
454.15	9514.28
454.34	9458.10
454.52	9717.90
454.70	9624.28
454.89	9886.42
455.07	9926.21
455.26	9905.15
455.44	9963.66
455.62	9921.53
455.81	10003.45
455.99	9853.66
456.17	10394.32
456.36	9912.17
456.54	9853.66
456.73	10387.30
456.91	10338.15
457.09	10504.32
457.28	10516.03
457.46	10279.63
457.64	10504.32
457.83	10443.47
458.01	10478.58
458.19	10892.85
458.38	10707.95
458.56	10501.98
458.74	10691.57
458.93	10736.04
459.11	10965.41
459.29	10775.83
459.48	10806.25
459.66	10817.96
459.84	10853.06
460.03	11082.44
460.21	11122.23
460.39	11075.42
460.57	10899.87
460.76	11173.72
460.94	11377.34
461.12	11365.64
461.31	11229.89
461.49	11363.30
461.67	11363.30
461.85	11531.82
462.04	11307.13
462.22	11529.48
462.40	11548.20
462.59	11386.71
462.77	11573.95
462.95	11623.10
463.13	11412.45
463.32	11538.84
463.50	11686.29
463.68	11798.64
463.86	12147.38
464.05	11644.17
464.23	11910.99
464.41	12079.50
464.59	11487.35
464.78	12269.09
464.96	11800.98
465.14	11763.53
465.32	11899.28
465.50	12175.47
465.69	12107.59
465.87	12133.34
466.05	12042.06
466.23	12271.43
466.41	12315.90
466.60	12358.03
466.78	12280.79
466.96	12283.13
467.14	12386.12
467.32	12358.03
467.51	12854.22
467.69	12407.18
467.87	12587.40
468.05	12549.95
468.23	12496.12
468.41	12514.84
468.60	12676.34
468.78	12943.16
468.96	12507.82
469.14	12812.09
469.32	12917.42
469.50	12620.17
469.69	12894.01
469.87	13104.66
470.05	13226.37
470.23	13331.69
470.41	13104.66
470.59	13228.71
470.77	13104.66
470.95	13287.22
471.14	13549.36
471.32	13266.16
471.50	13209.98
471.68	13540.00
471.86	13467.44
472.04	13902.78
472.22	14148.54
472.40	13657.03
472.58	13727.24
472.77	13951.93
472.95	14176.62
473.13	14494.94
473.31	14111.09
473.49	14218.75
473.67	14347.48
473.85	14059.60
474.03	14745.38
474.21	14551.11
474.39	14864.74
474.57	14771.12
474.75	14941.98
474.93	14927.94
475.12	14991.13
475.30	15028.58
475.48	14958.36
475.66	15405.41
475.84	15073.05
476.02	15428.81
476.20	15199.44
476.38	15702.65
476.56	15873.51
476.74	15903.94
476.92	15903.94
477.10	15800.96
477.28	16147.36
477.46	16100.55
477.64	16592.06
477.82	16549.93
478.00	16936.12
478.18	16931.44
478.36	16940.80
478.54	17469.76
478.72	17259.11
478.90	17315.28
479.08	17352.73
479.26	17530.61
479.44	17577.42
479.62	17965.95
479.80	18073.62
479.98	18394.27
480.16	18721.95
480.34	18366.18
480.52	18473.85
480.70	18654.07
480.88	18457.46
481.06	18647.05
481.24	19063.66
481.41	19360.91
481.59	19389.00
481.77	19218.14
481.95	19573.90
482.13	19768.16
482.31	19552.84
482.49	20332.23
482.67	20355.64
482.85	20360.32
483.03	20575.65
483.21	20858.85
483.39	20975.88
483.57	21032.05
483.74	21170.15
483.92	21333.98
484.10	21317.60
484.28	21729.53
484.46	21958.91
484.64	22097.00
484.82	21986.99
485.00	22471.48
485.18	22979.38
485.35	22815.54
485.53	22902.14
485.71	22855.33
485.89	23548.13
486.07	23208.75
486.25	23435.78
486.43	23711.97
486.61	24140.29
486.78	24041.98
486.96	24252.63
487.14	24533.50
487.32	24720.74
487.50	24741.80
487.68	25118.63
487.85	25439.28
488.03	25614.82
488.21	25937.82
488.39	25769.30
488.57	26064.21
488.75	26288.90
488.92	26565.08
489.10	26888.07
489.28	26785.09
489.46	27222.77
489.64	27035.53
489.81	27894.50
489.99	27967.06
490.17	27737.69
490.35	28119.20
490.53	28287.71
490.70	28189.41
490.88	28535.81
491.06	28816.68
491.24	29226.27
491.41	29111.58
491.59	29163.08
491.77	29441.60
491.95	29446.28
492.13	30019.71
492.30	30363.77
492.48	30122.69
492.66	30312.28
492.84	30312.28
493.01	30892.73
493.19	30646.97
493.37	31126.78
493.54	31260.20
493.72	31482.55
493.90	31426.37
494.08	31796.18
494.25	32055.98
494.43	31995.12
494.61	32559.19
494.79	32437.48
494.96	32678.56
495.14	33076.45
495.32	33315.19
495.49	33310.50
495.67	33404.13
495.85	33493.07
496.02	34066.50
496.20	33848.83
496.38	34007.98
496.55	34284.17
496.73	34939.52
496.91	34487.79
497.09	34682.06
497.26	35194.64
497.44	34876.32
497.62	35409.96
497.79	35899.14
497.97	35903.82
498.14	36067.66
498.32	36325.11
498.50	36196.38
498.67	36781.52
498.85	36861.10
499.03	36233.83
499.20	36744.07
499.38	37153.66
499.56	36994.51
499.73	37500.06
499.91	38066.47
500.08	38017.32
500.26	37619.43
500.44	37556.24
500.61	38110.94
500.79	37565.60
500.97	38302.87
501.14	38770.97
501.32	38443.30
501.49	38520.54
501.67	39035.45
501.84	39016.73
502.02	39253.12
502.20	38986.30
502.37	39524.63
502.55	39035.45
502.72	39196.95
502.90	39812.51
503.07	39831.24
503.25	39800.81
503.43	39803.15
503.60	40076.99
503.78	40088.70
503.95	40348.50
504.13	40460.84
504.30	40673.83
504.48	40769.79
504.65	40856.39
504.83	41364.29
505.01	41525.78
505.18	41186.41
505.36	41394.71
505.53	41160.66
505.71	41865.16
505.88	42108.58
506.06	41591.32
506.23	42230.29
506.41	41888.57
506.58	42295.82
506.76	42494.77
506.93	42347.31
507.11	42543.92
507.28	42424.55
507.46	42660.94
507.63	42705.41
507.81	43646.31
507.98	42988.62
508.16	43349.06
508.33	43650.99
508.50	43372.47
508.68	43763.34
508.85	43487.15
509.03	43981.01
509.20	43997.39
509.38	44533.37
509.55	44451.45
509.73	44568.48
509.90	44622.31
510.08	44938.29
510.25	45160.64
510.42	44744.02
510.60	44987.44
510.77	45230.85
510.95	45984.51
511.12	45455.54
511.30	45249.58
511.47	45427.46
511.64	45507.04
511.82	46082.81
511.99	45869.82
512.17	45471.93
512.34	45792.58
512.51	46703.05
512.69	46871.57
512.86	46351.97
513.04	47070.51
513.21	46628.15
513.38	46953.49
513.56	47143.07
513.73	46550.91
513.90	47379.46
514.08	46749.86
514.25	47360.74
514.43	47501.17
514.60	47901.40
514.77	47540.96
514.95	47824.17
515.12	47608.84
515.29	47950.56
515.47	47889.70
515.64	48238.44
515.81	47807.78
515.99	48509.94
516.16	48383.55
516.33	48746.34
516.51	48975.71
516.68	48774.42
516.85	48708.89
517.03	48629.31
517.20	49020.18
517.37	48877.41
517.54	48697.19
517.72	49209.76
517.89	49359.56
518.06	49518.71
518.24	49076.35
518.41	49099.76
518.58	49408.71
518.75	49193.38
518.93	49736.38
519.10	49303.38
519.27	49986.82
519.45	49787.88
519.62	50211.51
519.79	50108.53
519.96	50040.65
520.14	49925.97
520.31	50124.91
520.48	50483.01
520.65	50129.59
520.83	50738.13
521.00	50302.79
521.17	50468.97
521.34	50560.25
521.52	51227.31
521.69	50885.59
521.86	51206.24
522.03	51400.50
522.20	51454.34
522.38	51709.46
522.55	51196.88
522.72	51288.16
522.89	51444.98
523.07	51437.95
523.24	51566.68
523.41	51896.70
523.58	51554.98
523.75	52133.09
523.92	51763.29
524.10	51901.38
524.27	52144.80
524.44	52168.20
524.61	52170.54
524.78	52348.42
524.96	52502.90
525.13	52219.69
525.30	52329.70
525.47	52619.92
525.64	52512.26
525.81	52587.16
525.98	52914.83
526.16	52591.84
526.33	52851.64
526.50	53071.65
526.67	52868.02
526.84	52889.09
527.01	52999.09
527.18	52863.34
527.36	53120.80
527.53	53396.98
527.70	53495.28
527.87	53661.46
528.04	53125.48
528.21	53396.98
528.38	53357.19
528.55	53509.33
528.72	53415.71
528.89	53354.85
529.07	53680.19
529.24	53427.41
529.41	53925.94
529.58	53666.14
529.75	53734.02
529.92	53675.51
530.09	53869.77
530.26	54014.88
530.43	53844.02
530.60	53956.37
530.77	53813.60
530.94	54202.13
531.11	53886.15
531.28	54218.51
531.46	54279.36
531.63	54396.39
531.80	54286.39
531.97	54672.57
532.14	54707.68
532.31	54665.55
532.48	54775.56
532.65	54864.50
532.82	54396.39
532.99	54859.82
533.16	54614.06
533.33	54691.30
533.50	55004.93
533.67	54691.30
533.84	54946.42
534.01	55068.12
534.18	55103.23
534.35	55271.75
534.52	55175.79
534.69	55000.25
534.86	55440.27
535.03	55316.22
535.20	55316.22
535.37	55346.65
535.54	55407.50
535.71	55145.36
535.88	55650.92
536.05	55466.02
536.22	55688.37
536.38	55711.77
536.55	55561.98
536.72	55611.13
536.89	55592.40
537.06	55505.80
537.23	55819.44
537.40	55590.06
537.57	56055.83
537.74	55664.96
537.91	55997.32
538.08	56207.97
538.25	55852.20
538.42	55866.25
538.59	56533.30
538.75	55863.91
538.92	56179.88
539.09	56128.39
539.26	56329.67
539.43	56505.21
539.60	56299.25
539.77	56149.45
539.94	56509.89
540.11	56526.28
540.28	56559.05
540.44	56821.19
540.61	56313.29
540.78	56458.40
540.95	56535.64
541.12	56409.25
541.29	56563.73
541.46	56844.59
541.62	56711.18
541.79	56545.00
541.96	56427.98
542.13	56835.23
542.30	56760.33
542.47	56940.55
542.63	56865.66
542.80	56952.26
542.97	57256.53
543.14	57345.47
543.31	57359.51
543.48	57331.42
543.64	57366.53
543.81	57439.09
543.98	57403.98
544.15	57403.98
544.32	57570.16
544.48	57595.90
544.65	57581.86
544.82	57532.71
544.99	57415.68
545.16	57476.54
545.32	57492.92
545.49	57595.90
545.66	57764.42
545.83	57773.78
546.00	57708.25
546.16	57822.93
546.33	57790.17
546.50	57579.52
546.67	57895.49
546.83	57726.97
547.00	57928.26
547.17	57935.28
547.34	57916.56
547.50	57883.79
547.67	58087.42
547.84	57970.39
548.00	58014.86
548.17	58166.99
548.34	58323.81
548.51	58277.00
548.67	58333.17
548.84	58202.10
549.01	57979.75
549.18	58419.77
549.34	58291.04
549.51	58316.79
549.68	58590.63
549.84	58433.81
550.01	58583.61
550.18	58356.58
550.34	58534.46
550.51	58632.76
550.68	58731.06
550.84	58291.04
551.01	58815.32
551.18	58742.77
551.34	58595.31
551.51	58553.18
551.68	58604.67
551.84	58564.88
552.01	58574.25
552.18	58787.24
552.34	58504.03
552.51	58993.20
552.68	58576.59
552.84	58798.94
553.01	59119.59
553.18	58555.52
553.34	58986.18
553.51	58969.80
553.67	58791.92
553.84	58915.96
554.01	59180.45
554.17	59117.25
554.34	59175.76
554.51	58864.47
554.67	59358.33
554.84	58944.05
555.00	59091.51
555.17	59068.10
555.33	59138.32
555.50	59051.72
555.67	59185.13
555.83	58885.54
556.00	59194.49
556.16	59561.95
556.33	59477.69
556.50	59236.62
556.66	59351.30
556.83	59187.47
556.99	59482.37
557.16	59501.10
557.32	59522.16
557.49	59707.07
557.65	59416.84
557.82	59545.57
557.98	59355.99
558.15	59517.48
558.32	59536.21
558.48	59339.60
558.65	59517.48
558.81	59550.25
558.98	59648.55
559.14	59592.38
559.31	59812.39
559.47	59664.94
559.64	59866.22
559.80	59927.08
559.97	59861.54
560.13	59576.00
560.30	59945.80
560.46	59861.54
560.63	59641.53
560.79	59948.14
560.96	59915.37
561.12	59924.74
561.29	59884.95
561.45	60020.70
561.61	60102.62
561.78	59973.89
561.94	59922.40
562.11	59791.33
562.27	60034.74
562.44	59999.63
562.60	60102.62
562.77	59906.01
562.93	59868.56
563.10	60177.51
563.26	59896.65
563.42	60231.35
563.59	60109.64
563.75	60069.85
563.92	60264.11
564.08	59962.18
564.24	60137.72
564.41	60236.03
564.57	60119.00
564.74	60133.04
564.90	60261.77
565.07	60088.57
565.23	60177.51
565.39	60257.09
565.56	60383.48
565.72	60275.82
565.88	60170.49
566.05	60130.70
566.21	60322.63
566.38	60282.84
566.54	60364.76
566.70	60451.36
566.87	60488.80
567.03	60313.26
567.19	60460.72
567.36	60364.76
567.52	60397.52
567.68	60917.12
567.85	60533.28
568.01	60577.75
568.17	60275.82
568.34	60493.49
568.50	60444.33
568.66	60463.06
568.83	60486.46
568.99	60320.29
569.15	60411.57
569.32	60528.59
569.48	60502.85
569.64	60650.30
569.81	60477.10
569.97	60402.21
570.13	60598.81
570.30	60528.59
570.46	60580.09
570.62	60739.24
570.78	60502.85
570.95	60512.21
571.11	60746.26
571.27	60509.87
571.43	60664.35
571.60	60776.69
571.76	60666.69
571.92	60575.40
572.09	60500.51
572.25	60706.47
572.41	60603.49
572.57	60666.69
572.74	60713.50
572.90	60746.26
573.06	60563.70
573.22	60828.18
573.38	60561.36
573.55	60657.32
573.71	60900.74
573.87	60823.50
574.03	60498.17
574.20	60711.16
574.36	60612.85
574.52	60870.31
574.68	60877.33
574.84	60924.14
575.01	60767.33
575.17	60746.26
575.33	60783.71
575.49	60701.79
575.65	60764.99
575.82	61062.24
575.98	60713.50
576.14	61183.94
576.30	60772.01
576.46	60797.76
576.62	60844.57
576.79	60727.54
576.95	60687.75
577.11	60807.12
577.27	60809.46
577.43	60989.68
577.59	60694.77
577.75	60809.46
577.92	60654.98
578.08	60821.16
578.24	60793.07
578.40	61144.16
578.56	61024.79
578.72	60877.33
578.88	60959.25
579.04	60928.83
579.21	60856.27
579.37	60921.80
579.53	61116.07
579.69	60746.26
579.85	60912.44
580.01	60886.70
580.17	60779.03
580.33	61020.11
580.49	60921.80
580.65	61069.26
580.82	60898.40
580.98	60882.02
581.14	60882.02
581.30	60973.30
581.46	61127.77
581.62	60954.57
581.78	60893.72
581.94	61141.81
582.10	60734.56
582.26	60818.82
582.42	61090.32
582.58	61078.62
582.74	60760.31
582.90	61165.22
583.06	61013.08
583.22	60874.99
583.38	61095.00
583.54	60889.04
583.70	61188.63
583.86	61087.98
584.02	60858.61
584.18	61214.37
584.34	60949.89
584.50	60999.04
584.66	60816.48
584.82	60755.63
584.98	61251.82
585.14	60966.27
585.30	61010.74
585.46	61120.75
585.62	61071.60
585.78	61125.43
585.94	60851.59
586.10	61200.33
586.26	61144.16
586.42	61254.16
586.58	61174.58
586.74	61062.24
586.90	60926.49
587.06	60977.98
587.22	61071.60
587.38	61214.37
587.54	61357.14
587.70	61270.54
587.86	61087.98
588.02	61148.84
588.18	61289.27
588.34	61158.20
588.49	60963.93
