SpectraSuite Data File
++++++++++++++++++++++++++++++++++++
Date: Fri Oct 25 10:44:43 EDT 2013
User: price-jones
Dark Spectrum Present: No
Reference Spectrum Present: No
Number of Sampled Component Spectra: 1
Spectrometers: USB2+H05261
Integration Time (usec): 100000 (USB2+H05261)
Spectra Averaged: 1 (USB2+H05261)
Boxcar Smoothing: 0 (USB2+H05261)
Correct for Electrical Dark: No (USB2+H05261)
Strobe/Lamp Enabled: No (USB2+H05261)
Correct for Detector Non-linearity: No (USB2+H05261)
Correct for Stray Light: No (USB2+H05261)
Number of Pixels in Processed Spectrum: 2048
>>>>>Begin Processed Spectral Data<<<<<
365.73	145.11
365.92	145.11
366.12	145.11
366.32	11.70
366.52	0.00
366.72	135.75
366.91	35.11
367.11	0.00
367.31	0.00
367.51	0.00
367.70	44.47
367.90	56.17
368.10	37.45
368.30	16.38
368.49	4.68
368.69	72.56
368.89	28.09
369.09	53.83
369.28	0.00
369.48	16.38
369.68	142.77
369.87	175.54
370.07	152.13
370.27	159.16
370.47	196.60
370.66	341.72
370.86	461.09
371.06	435.34
371.25	510.24
371.45	510.24
371.65	444.70
371.84	493.85
372.04	411.93
372.24	491.51
372.44	472.79
372.63	514.92
372.83	418.96
373.03	463.43
373.22	456.40
373.42	514.92
373.62	557.05
373.81	503.22
374.01	519.60
374.21	535.98
374.40	468.11
374.60	533.64
374.79	575.77
374.99	538.32
375.19	603.86
375.38	533.64
375.58	526.62
375.78	559.39
375.97	571.09
376.17	655.35
376.37	538.32
376.56	559.39
376.76	461.09
376.95	526.62
377.15	540.66
377.35	585.13
377.54	550.03
377.74	540.66
377.93	568.75
378.13	601.52
378.33	664.71
378.52	613.22
378.72	585.13
378.91	681.10
379.11	610.88
379.31	594.50
379.50	603.86
379.70	592.16
379.89	645.99
380.09	617.90
380.28	648.33
380.48	603.86
380.68	587.47
380.87	624.92
381.07	674.07
381.26	692.80
381.46	681.10
381.65	636.63
381.85	608.54
382.04	624.92
382.24	615.56
382.43	653.01
382.63	608.54
382.83	629.60
383.02	685.78
383.22	720.88
383.41	695.14
383.61	603.86
383.80	683.44
384.00	702.16
384.19	615.56
384.39	753.65
384.58	798.12
384.78	770.04
384.97	791.10
385.17	791.10
385.36	690.46
385.56	772.38
385.75	690.46
385.95	800.46
386.14	814.51
386.34	809.83
386.53	802.80
386.72	730.25
386.92	781.74
387.11	842.59
387.31	795.78
387.50	802.80
387.70	739.61
387.89	767.70
388.09	807.48
388.28	791.10
388.48	814.51
388.67	868.34
388.86	968.98
389.06	931.53
389.25	954.94
389.45	971.32
389.64	849.61
389.84	931.53
390.03	924.51
390.22	940.90
390.42	873.02
390.61	896.43
390.81	1013.45
391.00	950.26
391.19	1036.86
391.39	952.60
391.58	1013.45
391.78	870.68
391.97	952.60
392.16	901.11
392.36	997.07
392.55	1015.79
392.75	1048.56
392.94	964.30
393.13	952.60
393.33	889.40
393.52	968.98
393.71	999.41
393.91	1032.18
394.10	1015.79
394.29	1041.54
394.49	994.73
394.68	1053.24
394.88	1083.67
395.07	1074.31
395.26	1177.29
395.46	1067.28
395.65	1172.61
395.84	1015.79
396.04	1107.07
396.23	1055.58
396.42	997.07
396.62	1144.52
396.81	1100.05
397.00	1144.52
397.19	1158.57
397.39	1214.74
397.58	1212.40
397.77	1270.91
397.97	1245.16
398.16	1196.01
398.35	1359.85
398.55	1338.79
398.74	1313.04
398.93	1348.15
399.12	1320.06
399.32	1198.35
399.51	1273.25
399.70	1329.42
399.90	1369.21
400.09	1455.81
400.28	1390.28
400.47	1387.94
400.67	1364.53
400.86	1416.02
401.05	1439.43
401.24	1528.37
401.44	1493.26
401.63	1434.75
401.82	1446.45
402.01	1465.18
402.21	1551.78
402.40	1474.54
402.59	1511.99
402.78	1448.79
402.97	1537.73
403.17	1462.83
403.36	1645.40
403.55	1507.30
403.74	1680.50
403.93	1638.38
404.13	1603.27
404.32	1685.19
404.51	1577.52
404.70	1739.02
404.89	1673.48
405.09	1774.13
405.28	1673.48
405.47	1757.74
405.66	1792.85
405.85	1636.03
406.05	1790.51
406.24	1895.83
406.43	1785.83
406.62	1802.21
406.81	1963.71
407.00	1788.17
407.20	1736.68
407.39	1842.00
407.58	1839.66
407.77	1874.77
407.96	1898.17
408.15	1968.39
408.34	1973.07
408.54	2092.44
408.73	2071.37
408.92	2111.16
409.11	2052.65
409.30	1968.39
409.49	2066.69
409.68	2043.29
409.87	2146.27
410.07	2069.03
410.26	2127.55
410.45	2125.21
410.64	2118.18
410.83	2146.27
411.02	2174.36
411.21	2406.07
411.40	2239.89
411.59	2277.34
411.78	2181.38
411.98	2253.94
412.17	2363.94
412.36	2408.41
412.55	2436.50
412.74	2499.69
412.93	2516.08
413.12	2469.27
413.31	2513.74
413.50	2523.10
413.69	2537.14
413.88	2630.76
414.07	2649.49
414.26	2567.57
414.45	2623.74
414.64	2644.81
414.83	2689.28
415.02	2729.06
415.22	2703.32
415.41	2813.32
415.60	2820.35
415.79	2705.66
415.98	2869.50
416.17	2857.79
416.36	2864.82
416.55	2899.92
416.74	2857.79
416.93	2895.24
417.12	3066.10
417.31	2986.52
417.50	2970.14
417.69	3131.64
417.88	2958.44
418.07	3028.65
418.26	3119.93
418.45	2981.84
418.64	3213.56
418.83	3098.87
419.02	3138.66
419.21	3133.98
419.39	3353.99
419.58	3243.98
419.77	3220.58
419.96	3171.43
420.15	3269.73
420.34	3377.39
420.53	3421.86
420.72	3541.23
420.91	3435.91
421.10	3531.87
421.29	3588.04
421.48	3396.12
421.67	3651.24
421.86	3487.40
422.05	3433.57
422.24	3522.51
422.43	3363.35
422.61	3466.33
422.80	3499.10
422.99	3590.38
423.18	3342.28
423.37	3588.04
423.56	3461.65
423.75	3583.36
423.94	3503.78
424.13	3316.54
424.32	3314.20
424.50	3478.04
424.69	3744.86
424.88	3627.83
425.07	3496.76
425.26	3445.27
425.45	3431.23
425.64	3552.93
425.83	3576.34
426.01	3583.36
426.20	3555.27
426.39	3660.60
426.58	3557.61
426.77	3461.65
426.96	3728.47
427.15	3578.68
427.33	3733.15
427.52	3702.73
427.71	3794.01
427.90	3625.49
428.09	3740.18
428.28	3698.05
428.46	3850.18
428.65	3831.46
428.84	3854.86
429.03	3723.79
429.22	3630.17
429.40	3845.50
429.59	3758.90
429.78	3637.19
429.97	3772.94
430.16	3719.11
430.34	3904.01
430.53	3971.89
430.72	3950.82
430.91	3950.82
431.10	4100.62
431.28	3962.53
431.47	4166.15
431.66	4194.24
431.85	3964.87
432.03	4250.41
432.22	4255.09
432.41	4212.96
432.60	4205.94
432.79	4152.11
432.97	4353.40
433.16	4435.32
433.35	4238.71
433.54	4262.12
433.72	4358.08
433.91	4243.39
434.10	4421.27
434.28	4402.55
434.47	4322.97
434.66	4386.16
434.85	4435.32
435.03	4573.41
435.22	4372.12
435.41	4732.56
435.59	4627.24
435.78	4629.58
435.97	4432.97
436.16	4587.45
436.34	4573.41
436.53	4697.46
436.72	4629.58
436.90	4603.83
437.09	4706.82
437.28	4716.18
437.46	4643.62
437.65	4676.39
437.84	4702.14
438.02	4681.07
438.21	4718.52
438.40	4617.88
438.58	4854.27
438.77	4868.31
438.96	5043.85
439.14	4910.44
439.33	4968.96
439.52	5093.01
439.70	5219.39
439.89	5130.45
440.08	5221.74
440.26	5298.97
440.45	5179.61
440.63	5411.32
440.82	5474.51
441.01	5439.40
441.19	5371.53
441.38	5479.19
441.57	5334.08
441.75	5537.71
441.94	5722.61
442.12	5605.58
442.31	5788.14
442.50	5724.95
442.68	5717.93
442.87	5626.65
443.05	5675.80
443.24	5865.38
443.43	5874.74
443.61	5846.66
443.80	5968.37
443.98	5717.93
444.17	5504.94
444.35	5916.87
444.54	6003.47
444.73	5933.26
444.91	5771.76
445.10	5825.59
445.28	5863.04
445.47	5727.29
445.65	5774.10
445.84	5884.11
446.02	5963.68
446.21	5884.11
446.39	5900.49
446.58	6071.35
446.77	6076.03
446.95	5867.72
447.14	6043.26
447.32	6099.44
447.51	6193.06
447.69	6057.31
447.88	5966.03
448.06	6010.50
448.25	5898.15
448.43	6139.23
448.62	5989.43
448.80	5954.32
448.99	6197.74
449.17	6061.99
449.36	6080.71
449.54	6333.49
449.73	6272.64
449.91	6347.53
450.10	6331.15
450.28	6471.58
450.46	6487.96
450.65	6384.98
450.83	6497.33
451.02	6403.71
451.20	6560.52
451.39	6441.15
451.57	6445.84
451.76	6368.60
451.94	6567.54
452.13	6731.38
452.31	6562.86
452.49	6567.54
452.68	6544.14
452.86	6473.92
453.05	6497.33
453.23	6511.37
453.42	6436.47
453.60	6722.02
453.78	6736.06
453.97	6729.04
454.15	6827.34
454.34	6705.63
454.52	6984.16
454.70	6825.00
454.89	6794.58
455.07	6731.38
455.26	6789.89
455.44	7087.14
455.62	6963.09
455.81	7091.82
455.99	6967.77
456.17	6916.28
456.36	7138.63
456.54	7185.44
456.73	7171.40
456.91	7232.26
457.09	7398.43
457.28	7552.91
457.46	7204.17
457.64	7517.80
457.83	7290.77
458.01	7243.96
458.19	7449.93
458.38	7290.77
458.56	7536.52
458.74	7372.69
458.93	7384.39
459.11	7342.26
459.29	7499.08
459.48	7651.21
459.66	7637.17
459.84	7470.99
460.03	7901.65
460.21	7606.74
460.39	7801.01
460.57	7850.16
460.76	7833.77
460.94	7861.86
461.12	7784.62
461.31	7840.79
461.49	7693.34
461.67	7838.45
461.85	7983.57
462.04	7988.25
462.22	8236.35
462.40	7915.69
462.59	8018.68
462.77	8313.58
462.95	8126.34
463.13	8002.29
463.32	8107.62
463.50	8109.96
463.68	8198.90
463.86	8196.56
464.05	8100.59
464.23	8067.83
464.41	8234.00
464.59	8037.40
464.78	8149.75
464.96	8170.81
465.14	8269.11
465.32	8304.22
465.50	8290.18
465.69	8624.87
465.87	8418.91
466.05	8313.58
466.23	8341.67
466.41	8266.77
466.60	8624.87
466.78	8234.00
466.96	8252.73
467.14	8500.83
467.32	8465.72
467.51	8706.79
467.69	8407.20
467.87	8294.86
468.05	8496.14
468.23	8557.00
468.41	8404.86
468.60	8475.08
468.78	8922.12
468.96	8826.16
469.14	8702.11
469.32	8938.51
469.50	8634.24
469.69	8809.78
469.87	9090.64
470.05	8865.95
470.23	8945.53
470.41	8833.18
470.59	9114.05
470.77	8968.93
470.95	9085.96
471.14	9221.71
471.32	9088.30
471.50	8997.02
471.68	9256.82
471.86	9320.01
472.04	9535.34
472.22	9675.77
472.40	9249.80
472.58	9366.82
472.77	9451.08
472.95	9568.11
473.13	9956.64
473.31	9542.36
473.49	9729.61
473.67	9664.07
473.85	9570.45
474.03	10024.51
474.21	9951.96
474.39	9977.70
474.57	9940.26
474.75	10171.97
474.93	9968.34
475.12	10010.47
475.30	10204.74
475.48	10284.31
475.66	10249.21
475.84	10169.63
476.02	10331.12
476.20	10328.78
476.38	10579.22
476.56	10649.44
476.74	10782.85
476.92	10614.33
477.10	11049.67
477.28	10883.49
477.46	11082.44
477.64	11131.59
477.82	11248.61
478.00	11269.68
478.18	11403.09
478.36	11323.51
478.54	11384.37
478.72	11470.97
478.90	11808.00
479.08	11934.39
479.26	12035.03
479.44	11864.18
479.62	11992.90
479.80	12290.15
479.98	12037.38
480.16	12285.47
480.34	12339.30
480.52	12587.40
480.70	12549.95
480.88	12435.27
481.06	12662.30
481.24	12732.51
481.41	13160.83
481.59	13144.45
481.77	13263.82
481.95	13132.75
482.13	13509.57
482.31	13383.18
482.49	13788.10
482.67	13411.27
482.85	13797.46
483.03	13958.96
483.21	14080.66
483.39	14136.84
483.57	14001.08
483.74	14242.16
483.92	14211.73
484.10	14064.28
484.28	14487.92
484.46	14911.55
484.64	14909.21
484.82	14773.46
485.00	14787.50
485.18	15194.76
485.35	15309.44
485.53	15105.82
485.71	14923.26
485.89	15082.41
486.07	15323.49
486.25	15716.70
486.43	15215.82
486.61	15740.10
486.78	16273.74
486.96	15798.62
487.14	16280.77
487.32	16299.49
487.50	16615.46
487.68	16556.95
487.85	16730.15
488.03	16966.54
488.21	17097.61
488.39	17008.67
488.57	17451.03
488.75	17383.16
488.92	17633.60
489.10	17809.14
489.28	17804.46
489.46	17989.36
489.64	18272.56
489.81	18415.34
489.99	18441.08
490.17	18464.49
490.35	18778.12
490.53	18794.50
490.70	18845.99
490.88	18874.08
491.06	19304.74
491.24	19288.35
491.41	19161.97
491.59	19152.60
491.77	19398.36
491.95	19243.88
492.13	19487.30
492.30	19878.17
492.48	19932.00
492.66	20002.22
492.84	19768.16
493.01	19906.26
493.19	20217.55
493.37	20404.79
493.54	20360.32
493.72	20854.17
493.90	20676.29
494.08	21172.49
494.25	21172.49
494.43	21467.39
494.61	21469.73
494.79	21656.98
494.96	21366.75
495.14	21788.05
495.32	21802.09
495.49	22221.05
495.67	21701.45
495.85	22080.61
496.02	22267.86
496.20	22338.07
496.38	22665.75
496.55	22342.75
496.73	23098.75
496.91	22520.63
497.09	22904.48
497.26	23110.45
497.44	22871.72
497.62	23304.71
497.79	23318.76
497.97	23241.52
498.14	23637.07
498.32	23681.54
498.50	23828.99
498.67	24484.34
498.85	24009.22
499.03	24304.12
499.20	24470.30
499.38	24205.82
499.56	24229.23
499.73	24484.34
499.91	24666.91
500.08	24905.64
500.26	24273.70
500.44	24589.67
500.61	24580.31
500.79	24521.79
500.97	24966.49
501.14	25245.02
501.32	25509.50
501.49	25301.19
501.67	25081.18
501.84	25422.90
502.02	25301.19
502.20	25420.56
502.37	26129.74
502.55	25507.16
502.72	25851.22
502.90	26026.76
503.07	26251.45
503.25	25860.58
503.43	25947.18
503.60	26206.98
503.78	26148.46
503.95	26082.93
504.13	26476.14
504.30	26724.24
504.48	26658.70
504.65	26878.71
504.83	26607.21
505.01	27122.13
505.18	26782.75
505.36	27405.33
505.53	27110.43
505.71	27482.57
505.88	27812.59
506.06	27133.83
506.23	27868.76
506.41	27578.53
506.58	27847.69
506.76	28208.14
506.93	28034.94
507.11	27967.06
507.28	27805.56
507.46	28215.16
507.63	28067.70
507.81	27901.53
507.98	28056.00
508.16	28371.97
508.33	28844.76
508.50	28280.69
508.68	28575.60
508.85	29032.00
509.03	28556.88
509.20	28706.67
509.38	29142.01
509.55	29310.53
509.73	29254.36
509.90	29181.80
510.08	28931.36
510.25	29181.80
510.42	29333.93
510.60	29460.32
510.77	29490.75
510.95	29462.66
511.12	29820.77
511.30	30094.61
511.47	30518.25
511.64	30103.97
511.82	30164.82
511.99	29865.24
512.17	30141.42
512.34	29965.88
512.51	30452.71
512.69	30962.95
512.86	30483.14
513.04	30883.37
513.21	30742.94
513.38	30719.53
513.56	30953.58
513.73	30494.84
513.90	30742.94
514.08	30843.58
514.25	30843.58
514.43	31089.34
514.60	31021.46
514.77	31084.65
514.95	31189.98
515.12	31119.76
515.29	31536.38
515.47	31627.66
515.64	31709.58
515.81	31468.50
515.99	31761.07
516.16	31702.56
516.33	31456.80
516.51	31740.00
516.68	31583.19
516.85	31847.67
517.03	31711.92
517.20	31931.93
517.37	31894.48
517.54	32517.06
517.72	31908.52
517.89	32032.57
518.06	31716.60
518.24	32266.63
518.41	32465.57
518.58	32439.82
518.75	32540.47
518.93	33106.88
519.10	32306.41
519.27	32713.67
519.45	32723.03
519.62	32943.04
519.79	33209.86
519.96	33109.22
520.14	33247.31
520.31	33001.55
520.48	33130.28
520.65	33305.82
520.83	33633.50
521.00	33535.20
521.17	33855.85
521.34	33881.60
521.52	33659.24
521.69	34096.92
521.86	33900.32
522.03	34518.22
522.20	33823.08
522.38	34319.28
522.55	34153.10
522.72	33989.26
522.89	34483.11
523.07	34623.54
523.24	34157.78
523.41	34464.39
523.58	34380.13
523.75	34717.17
523.92	35129.10
524.10	35068.25
524.27	34859.94
524.44	35344.43
524.61	34829.51
524.78	35316.34
524.96	35152.51
525.13	35257.83
525.30	35271.87
525.47	35445.07
525.64	35655.72
525.81	35583.16
525.98	35374.86
526.16	35454.44
526.33	35234.42
526.50	35557.42
526.67	34927.81
526.84	35288.26
527.01	35374.86
527.18	35583.16
527.36	35999.78
527.53	35857.01
527.70	36107.44
527.87	36460.87
528.04	36194.04
528.21	36102.76
528.38	35927.22
528.55	37062.38
528.72	36128.51
528.89	36472.57
529.07	36587.25
529.24	36327.45
529.41	36596.62
529.58	36624.70
529.75	36680.88
529.92	36697.26
530.09	36575.55
530.26	36737.05
530.43	37146.64
530.60	36741.73
530.77	37109.19
530.94	37085.79
531.11	36840.03
531.28	37092.81
531.46	37158.34
531.63	37198.13
531.80	36978.12
531.97	36856.42
532.14	37361.97
532.31	37038.98
532.48	37160.69
532.65	37298.78
532.82	37633.47
532.99	37631.13
533.16	37467.30
533.33	37743.48
533.50	38132.01
533.67	37357.29
533.84	37989.24
534.01	37752.84
534.18	37624.11
534.35	38211.59
534.52	37823.06
534.69	37921.36
534.86	38050.09
535.03	38419.89
535.20	38614.16
535.37	38333.29
535.54	38515.86
535.71	37741.14
535.88	38686.71
536.05	38216.27
536.22	38518.20
536.38	38469.04
536.55	38408.19
536.72	38646.93
536.89	38651.61
537.06	38892.68
537.23	38670.33
537.40	38670.33
537.57	38899.70
537.74	39110.35
537.91	38941.83
538.08	38557.99
538.25	38632.88
538.42	38768.63
538.59	39194.61
538.75	38731.18
538.92	38773.31
539.09	39281.21
539.26	39171.21
539.43	39718.89
539.60	39313.98
539.77	39276.53
539.94	39026.09
540.11	39503.56
540.28	39119.71
540.44	39311.64
540.61	38883.32
540.78	39604.20
540.95	38789.70
541.12	39290.57
541.29	39562.08
541.46	39384.19
541.62	39587.82
541.79	39646.33
541.96	39606.55
542.13	39274.19
542.30	39906.13
542.47	39985.71
542.63	39608.89
542.80	39901.45
542.97	40456.16
543.14	40392.97
543.31	40191.68
543.48	40287.64
543.64	40926.61
543.81	40935.97
543.98	40671.49
544.15	40737.02
544.32	40390.62
544.48	40935.97
544.65	40500.63
544.82	40938.31
544.99	40416.37
545.16	40758.09
545.32	40774.47
545.49	41167.68
545.66	40746.39
545.83	41331.52
546.00	41509.40
546.16	41432.16
546.33	41139.60
546.50	40669.15
546.67	40706.60
546.83	41041.29
547.00	41038.95
547.17	41085.76
547.34	41015.55
547.50	41418.12
547.67	41036.61
547.84	41521.10
548.00	41696.64
548.17	41717.71
548.34	41170.02
548.51	41631.11
548.67	41514.08
548.84	41663.88
549.01	41268.33
549.18	41659.20
549.34	41698.98
549.51	41764.52
549.68	41387.69
549.84	41904.95
550.01	42045.38
550.18	41928.36
550.34	41951.76
550.51	41710.69
550.68	41928.36
550.84	41813.67
551.01	42066.45
551.18	41968.15
551.34	41523.44
551.51	41996.23
551.68	42265.39
551.84	42267.73
552.01	41823.03
552.18	42478.38
552.34	42036.02
552.51	42316.89
552.68	42117.94
552.84	42714.78
553.01	42806.06
553.18	42628.18
553.34	41975.17
553.51	41904.95
553.67	42663.28
553.84	42939.47
554.01	42436.25
554.17	42876.27
554.34	43159.48
554.51	42602.43
554.67	42651.58
554.84	42665.63
555.00	42328.59
555.17	42845.85
555.33	42452.64
555.50	42234.97
555.67	42794.36
555.83	42557.96
556.00	42667.97
556.16	43208.63
556.33	42602.43
556.50	43089.26
556.66	42803.72
556.83	42848.19
556.99	43225.01
557.16	43260.12
557.32	42717.12
557.49	43194.59
557.65	42710.10
557.82	43161.82
557.98	43377.15
558.15	42794.36
558.32	43409.92
558.48	43098.62
558.65	43313.95
558.81	43049.47
558.98	43089.26
559.14	43517.58
559.31	43021.39
559.47	43005.00
559.64	43470.77
559.80	43562.05
559.97	43065.86
560.13	43002.66
560.30	43381.83
560.46	43264.80
560.63	43311.61
560.79	43564.39
560.96	43435.66
561.12	43807.81
561.29	43557.37
561.45	43416.94
561.61	43409.92
561.78	43360.76
561.94	43342.04
562.11	43545.67
562.27	43395.87
562.44	43559.71
562.60	43812.49
562.77	43449.70
562.93	43618.22
563.10	43873.34
563.26	43440.34
563.42	43737.59
563.59	43564.39
563.75	43416.94
563.92	43863.98
564.08	43814.83
564.24	44098.03
564.41	44128.46
564.57	43730.57
564.74	43653.33
564.90	43711.84
565.07	43803.13
565.23	43653.33
565.39	43468.43
565.56	44009.09
565.72	43590.14
565.88	44055.90
566.05	43611.20
566.21	44179.95
566.38	43711.84
566.54	44058.24
566.70	43985.69
566.87	44428.05
567.03	43859.30
567.19	44425.71
567.36	44271.23
567.52	43648.65
567.68	44275.91
567.85	43922.49
568.01	44060.58
568.17	43608.86
568.34	43992.71
568.50	43863.98
568.66	43775.04
568.83	43983.35
568.99	43316.29
569.15	44091.01
569.32	44011.43
569.48	43969.30
569.64	44311.02
569.81	43838.23
569.97	43969.30
570.13	43650.99
570.30	43910.79
570.46	43793.76
570.62	43683.76
570.78	43856.96
570.95	44079.31
571.11	44278.25
571.27	43763.34
571.43	44140.16
571.60	44109.74
571.76	43779.72
571.92	44205.70
572.09	44369.54
572.25	44032.50
572.41	44381.24
572.57	44612.95
572.74	44795.51
572.90	43973.98
573.06	44701.89
573.22	44030.16
573.38	44343.79
573.55	43880.36
573.71	44430.39
573.87	44404.64
574.03	44395.28
574.20	44421.03
574.36	44294.64
574.52	44240.81
574.68	44325.07
574.84	44179.95
575.01	44259.53
575.17	44158.89
575.33	43973.98
575.49	44179.95
575.65	44421.03
575.82	44474.86
575.98	44299.32
576.14	44622.31
576.30	44807.22
576.46	44177.61
576.62	43981.01
576.79	44215.06
576.95	43653.33
577.11	44339.11
577.27	44437.41
577.43	44189.31
577.59	44156.55
577.75	44128.46
577.92	43730.57
578.08	44011.43
578.24	43756.32
578.40	44334.43
578.56	44418.69
578.72	44383.58
578.88	44360.17
579.04	44294.64
579.21	43903.77
579.37	44093.35
579.53	44273.57
579.69	44016.11
579.85	44676.15
580.01	44439.75
580.17	44165.91
580.33	44809.56
580.49	44385.92
580.65	44861.05
580.82	44760.40
580.98	44259.53
581.14	44236.12
581.30	44711.25
581.46	44533.37
581.62	44734.66
581.78	44100.37
581.94	44690.19
582.10	44304.00
582.26	44313.36
582.42	44720.62
582.58	44367.20
582.74	44240.81
582.90	44657.42
583.06	45113.83
583.22	44376.56
583.38	44364.85
583.54	44652.74
583.70	44549.76
583.86	44446.77
584.02	44046.54
584.18	44392.94
584.34	44500.61
584.50	44254.85
584.66	44336.77
584.82	44430.39
584.98	44521.67
585.14	44704.23
585.30	44547.42
585.46	44746.36
585.62	44477.20
585.78	44465.50
585.94	44563.80
586.10	44165.91
586.26	44428.05
586.42	44652.74
586.58	44229.10
586.74	44521.67
586.90	44488.90
587.06	44573.16
587.22	44683.17
587.38	44273.57
587.54	44538.05
587.70	44428.05
587.86	44868.07
588.02	44292.30
588.18	44694.87
588.34	44865.73
588.49	43985.69
588.65	43826.53
588.81	44123.78
588.97	44549.76
589.13	44215.06
589.29	44594.23
589.45	44788.49
589.61	44575.50
589.77	44505.29
589.93	45184.04
590.08	44435.07
590.24	44980.42
