SpectraSuite Data File
++++++++++++++++++++++++++++++++++++
Date: Fri Oct 25 11:23:06 EDT 2013
User: price-jones
Dark Spectrum Present: No
Reference Spectrum Present: No
Number of Sampled Component Spectra: 1
Spectrometers: USB2+H05261
Integration Time (usec): 100000 (USB2+H05261)
Spectra Averaged: 1 (USB2+H05261)
Boxcar Smoothing: 0 (USB2+H05261)
Correct for Electrical Dark: No (USB2+H05261)
Strobe/Lamp Enabled: No (USB2+H05261)
Correct for Detector Non-linearity: No (USB2+H05261)
Correct for Stray Light: No (USB2+H05261)
Number of Pixels in Processed Spectrum: 2048
>>>>>Begin Processed Spectral Data<<<<<
365.73	222.35
365.92	222.35
366.12	222.35
366.32	170.86
366.52	117.03
366.72	203.63
366.91	168.52
367.11	105.32
367.31	191.92
367.51	191.92
367.70	152.13
367.90	166.18
368.10	112.35
368.30	105.32
368.49	154.48
368.69	168.52
368.89	194.26
369.09	166.18
369.28	107.66
369.48	124.05
369.68	138.09
369.87	201.29
370.07	170.86
370.27	264.48
370.47	339.38
370.66	533.64
370.86	606.20
371.06	660.03
371.25	758.33
371.45	580.45
371.65	699.82
371.84	702.16
372.04	662.37
372.24	681.10
372.44	723.23
372.63	699.82
372.83	697.48
373.03	723.23
373.22	770.04
373.42	753.65
373.62	755.99
373.81	830.89
374.01	702.16
374.21	802.80
374.40	805.14
374.60	828.55
374.79	793.44
374.99	765.36
375.19	837.91
375.38	866.00
375.58	851.96
375.78	854.30
375.97	863.66
376.17	870.68
376.37	835.57
376.56	751.31
376.76	887.06
376.95	891.74
377.15	926.85
377.35	819.19
377.54	889.40
377.74	835.57
377.93	849.61
378.13	971.32
378.33	903.45
378.52	950.26
378.72	954.94
378.91	858.98
379.11	952.60
379.31	919.83
379.50	940.90
379.70	1020.47
379.89	908.13
380.09	992.39
380.28	978.34
380.48	1004.09
380.68	997.07
380.87	987.71
381.07	1078.99
381.26	950.26
381.46	1046.22
381.65	1032.18
381.85	1043.88
382.04	1109.41
382.24	1081.33
382.43	1118.78
382.63	1018.13
382.83	1088.35
383.02	1144.52
383.22	1146.86
383.41	1116.44
383.61	1128.14
383.80	1217.08
384.00	1158.57
384.19	1135.16
384.39	1081.33
384.58	1039.20
384.78	1083.67
384.97	1132.82
385.17	1121.12
385.36	1116.44
385.56	1086.01
385.75	1128.14
385.95	1139.84
386.14	1289.64
386.34	1245.16
386.53	1238.14
386.72	1207.72
386.92	1231.12
387.11	1280.27
387.31	1259.21
387.50	1207.72
387.70	1240.48
387.89	1268.57
388.09	1378.58
388.28	1277.93
388.48	1256.87
388.67	1383.26
388.86	1317.72
389.06	1327.08
389.25	1385.60
389.45	1320.06
389.64	1345.81
389.84	1416.02
390.03	1256.87
390.22	1348.15
390.42	1376.24
390.61	1409.00
390.81	1406.66
391.00	1451.13
391.19	1448.79
391.39	1444.11
391.58	1511.99
391.78	1420.71
391.97	1509.65
392.16	1451.13
392.36	1511.99
392.55	1577.52
392.75	1511.99
392.94	1540.07
393.13	1607.95
393.33	1476.88
393.52	1540.07
393.71	1591.56
393.91	1535.39
394.10	1563.48
394.29	1629.01
394.49	1636.03
394.68	1636.03
394.88	1629.01
395.07	1675.82
395.26	1612.63
395.46	1673.48
395.65	1809.23
395.84	1739.02
396.04	1858.39
396.23	1746.04
396.42	1743.70
396.62	1720.29
396.81	1722.63
397.00	1802.21
397.19	1746.04
397.39	1755.40
397.58	1884.13
397.77	1806.89
397.97	1832.64
398.16	1884.13
398.35	1867.75
398.55	1865.41
398.74	1858.39
398.93	1996.48
399.12	1923.92
399.32	1881.79
399.51	1963.71
399.70	1937.96
399.90	1902.86
400.09	2038.61
400.28	2101.80
400.47	2104.14
400.67	2031.58
400.86	2115.84
401.05	2143.93
401.24	2083.08
401.44	2106.48
401.63	2141.59
401.82	2242.23
402.01	2029.24
402.21	2239.89
402.40	2317.13
402.59	2113.50
402.78	2324.15
402.97	2260.96
403.17	2300.75
403.36	2307.77
403.55	2328.83
403.74	2312.45
403.93	2317.13
404.13	2490.33
404.32	2359.26
404.51	2434.16
404.70	2455.22
404.89	2314.79
405.09	2546.50
405.28	2490.33
405.47	2452.88
405.66	2452.88
405.85	2668.21
406.05	2562.89
406.24	2691.62
406.43	2485.65
406.62	2597.99
406.81	2808.64
407.00	2569.91
407.20	2642.46
407.39	2661.19
407.58	2640.12
407.77	2731.41
407.96	2808.64
408.15	2789.92
408.34	2738.43
408.54	2810.98
408.73	2792.26
408.92	2803.96
409.11	2958.44
409.30	2869.50
409.49	3007.59
409.68	2895.24
409.87	2874.18
410.07	3035.67
410.26	3082.49
410.45	3019.29
410.64	3012.27
410.83	3171.43
411.02	3178.45
411.21	3183.13
411.40	3045.04
411.59	3265.05
411.78	3208.87
411.98	3281.43
412.17	3314.20
412.36	3407.82
412.55	3513.14
412.74	3473.36
412.93	3323.56
413.12	3365.69
413.31	3536.55
413.50	3496.76
413.69	3463.99
413.88	3632.51
414.07	3590.38
414.26	3754.22
414.45	3712.09
414.64	3679.32
414.83	3772.94
415.02	3836.14
415.22	3915.72
415.41	3864.22
415.60	3948.48
415.79	3936.78
415.98	4058.49
416.17	4016.36
416.36	3953.16
416.55	4063.17
416.74	4243.39
416.93	4147.43
417.12	4072.53
417.31	4320.63
417.50	4327.65
417.69	4423.61
417.88	4308.93
418.07	4428.29
418.26	4444.68
418.45	4449.36
418.64	4451.70
418.83	4531.28
419.02	4514.89
419.21	4475.10
419.39	4648.30
419.58	4568.73
419.77	4437.66
419.96	4648.30
420.15	4678.73
420.34	4580.43
420.53	4683.41
420.72	4774.69
420.91	4924.49
421.10	4847.25
421.29	4821.50
421.48	4685.75
421.67	4854.27
421.86	4826.18
422.05	4805.12
422.24	4812.14
422.43	4877.68
422.61	5020.45
422.80	4898.74
422.99	5046.20
423.18	4938.53
423.37	5102.37
423.56	4985.34
423.75	4910.44
423.94	4868.31
424.13	4730.22
424.32	4821.50
424.50	4943.21
424.69	5142.16
424.88	5172.58
425.07	4978.32
425.26	4851.93
425.45	5158.54
425.64	4917.47
425.83	4943.21
426.01	5020.45
426.20	4999.38
426.39	5217.05
426.58	5078.96
426.77	5132.79
426.96	5137.48
427.15	5193.65
427.33	5076.62
427.52	5256.84
427.71	5238.12
427.90	5242.80
428.09	5313.02
428.28	5366.85
428.46	5275.57
428.65	5345.78
428.84	5626.65
429.03	5626.65
429.22	5434.72
429.40	5441.75
429.59	5626.65
429.78	5350.46
429.97	5291.95
430.16	5673.46
430.34	5774.10
430.53	5841.98
430.72	5816.23
430.91	5624.31
431.10	5694.52
431.28	5832.62
431.47	5834.96
431.66	6090.07
431.85	5914.53
432.03	5834.96
432.22	6146.25
432.41	6183.70
432.60	5982.41
432.79	5949.64
432.97	6064.33
433.16	6101.78
433.35	5954.32
433.54	6160.29
433.72	6008.16
433.91	6143.91
434.10	6057.31
434.28	6078.37
434.47	6150.93
434.66	6228.17
434.85	6342.85
435.03	6441.15
435.22	6300.72
435.41	6623.72
435.59	6476.26
435.78	6583.93
435.97	6567.54
436.16	6459.88
436.34	6546.48
436.53	6642.44
436.72	6794.58
436.90	6623.72
437.09	6780.53
437.28	6520.73
437.46	6607.33
437.65	6668.19
437.84	6693.93
438.02	6773.51
438.21	6846.07
438.40	6862.45
438.58	7068.42
438.77	7150.34
438.96	7028.63
439.14	7241.62
439.33	7152.68
439.52	7290.77
439.70	7283.75
439.89	7513.12
440.08	7524.82
440.26	7482.69
440.45	7487.37
440.63	7651.21
440.82	7744.83
441.01	7686.32
441.19	7571.63
441.38	7915.69
441.57	7896.97
441.75	7812.71
441.94	7922.71
442.12	8053.78
442.31	8126.34
442.50	8311.24
442.68	8025.70
442.87	8109.96
443.05	8334.65
443.24	8142.72
443.43	8374.44
443.61	8114.64
443.80	8315.92
443.98	8259.75
444.17	7946.12
444.35	8283.16
444.54	8545.30
444.73	8327.63
444.91	8283.16
445.10	8514.87
445.28	8554.66
445.47	8374.44
445.65	8479.76
445.84	8463.38
446.02	8606.15
446.21	8526.57
446.39	8348.69
446.58	8599.13
446.77	8442.31
446.95	8432.95
447.14	8542.96
447.32	8622.53
447.51	8615.51
447.69	8638.92
447.88	8393.16
448.06	8533.59
448.25	8664.66
448.43	8683.39
448.62	8753.60
448.80	8608.49
448.99	8769.99
449.17	8802.75
449.36	8688.07
449.54	8755.94
449.73	9069.58
449.91	8947.87
450.10	9144.47
450.28	9174.90
450.46	9001.70
450.65	9310.65
450.83	9104.68
451.02	9320.01
451.20	9268.52
451.39	9011.06
451.57	9224.05
451.76	9172.56
451.94	9359.80
452.13	9439.38
452.31	9451.08
452.49	9247.46
452.68	9453.42
452.86	9348.10
453.05	9460.45
453.23	9680.46
453.42	9476.83
453.60	9481.51
453.78	9600.88
453.97	9577.47
454.15	9551.73
454.34	9628.96
454.52	9930.89
454.70	9944.94
454.89	9930.89
455.07	9940.26
455.26	9987.07
455.44	10038.56
455.62	10176.65
455.81	10279.63
455.99	10202.40
456.17	10087.71
456.36	10260.91
456.54	10497.30
456.73	10340.49
456.91	10569.86
457.09	10471.56
457.28	10682.20
457.46	10361.55
457.64	10516.03
457.83	10555.82
458.01	10583.90
458.19	10832.00
458.38	10824.98
458.56	10714.97
458.74	10787.53
458.93	10827.32
459.11	10740.72
459.29	10836.68
459.48	10930.30
459.66	10843.70
459.84	10970.09
460.03	11082.44
460.21	11108.18
460.39	11087.12
460.57	11154.99
460.76	11393.73
460.94	11442.88
461.12	11119.89
461.31	11267.34
461.49	11201.80
461.67	11199.46
461.85	11569.27
462.04	11403.09
462.22	11602.04
462.40	11625.44
462.59	11747.15
462.77	11538.84
462.95	11726.08
463.13	11672.25
463.32	11770.55
463.50	11995.25
463.68	11903.96
463.86	12159.08
464.05	11861.84
464.23	11819.71
464.41	12046.74
464.59	11758.85
464.78	12276.11
464.96	12196.53
465.14	12063.12
465.32	12276.11
465.50	12322.92
465.69	12205.89
465.87	12166.10
466.05	12287.81
466.23	12290.15
466.41	12423.56
466.60	12601.44
466.78	12229.30
466.96	12498.46
467.14	12421.22
467.32	12643.57
467.51	12716.13
467.69	12351.01
467.87	12629.53
468.05	12730.17
468.23	12503.14
468.41	12617.83
468.60	12833.16
468.78	12877.63
468.96	12695.07
469.14	12926.78
469.32	13296.58
469.50	12772.30
469.69	13004.02
469.87	13415.95
470.05	13099.98
470.23	13158.49
470.41	13247.43
470.59	13399.57
470.77	13331.69
470.95	13418.29
471.14	13652.34
471.32	13259.13
471.50	13554.04
471.68	13673.41
471.86	13731.92
472.04	13919.17
472.22	14071.30
472.40	13731.92
472.58	13855.97
472.77	14052.58
472.95	14394.29
473.13	14501.96
473.31	14260.88
473.49	14455.15
473.67	14384.93
473.85	14525.36
474.03	14752.40
474.21	14829.63
474.39	14738.35
474.57	14871.76
474.75	14956.02
474.93	15421.79
475.12	15300.08
475.30	15122.20
475.48	15035.60
475.66	15124.54
475.84	15344.55
476.02	15468.60
476.20	15885.22
476.38	15845.43
476.56	16222.25
476.74	16046.71
476.92	15903.94
477.10	16063.10
477.28	16105.23
477.46	16411.84
477.64	16362.69
477.82	16704.40
478.00	17008.67
478.18	16936.12
478.36	17205.28
478.54	17467.42
478.72	17483.80
478.90	17453.37
479.08	17790.41
479.26	17713.17
479.44	18066.60
479.62	18047.87
479.80	17994.04
479.98	18059.57
480.16	18607.26
480.34	18682.16
480.52	18642.37
480.70	19178.35
480.88	18328.74
481.06	19145.58
481.24	18895.14
481.41	19253.25
481.59	19314.10
481.77	19555.18
481.95	19896.89
482.13	19910.94
482.31	20168.40
482.49	20390.75
482.67	20432.88
482.85	20718.42
483.03	20613.10
483.21	21036.74
483.39	21483.78
483.57	21135.04
483.74	21640.59
483.92	21867.63
484.10	21443.99
484.28	21970.61
484.46	22242.11
484.64	22705.54
484.82	22104.02
485.00	22630.64
485.18	23211.09
485.35	23278.97
485.53	23372.59
485.71	23293.01
485.89	24027.94
486.07	23623.03
486.25	23836.02
486.43	23864.10
486.61	24629.46
486.78	24620.10
486.96	24411.79
487.14	25146.72
487.32	24879.89
487.50	25373.75
487.68	25280.13
487.85	25916.75
488.03	25633.55
488.21	26054.84
488.39	26047.82
488.57	26618.91
488.75	26164.85
488.92	26792.11
489.10	27075.32
489.28	27019.14
489.46	27410.01
489.64	27543.42
489.81	28198.77
489.99	27843.01
490.17	28161.33
490.35	28348.57
490.53	28481.98
490.70	28945.41
490.88	28556.88
491.06	28854.12
491.24	29209.89
491.41	29483.73
491.59	29647.57
491.77	29553.94
491.95	30036.09
492.13	29972.90
492.30	30487.82
492.48	30735.92
492.66	30639.95
492.84	30960.61
493.01	31136.15
493.19	31035.50
493.37	31747.03
493.54	31548.08
493.72	31660.43
493.90	31791.50
494.08	31983.42
494.25	32177.68
494.43	32404.72
494.61	32851.76
494.79	32982.83
494.96	32912.61
495.14	33481.36
495.32	33607.75
495.49	33570.30
495.67	33425.19
495.85	34342.68
496.02	33860.53
496.20	34469.07
496.38	33888.62
496.55	34405.88
496.73	35009.73
496.91	34962.92
497.09	35620.61
497.26	34848.24
497.44	35512.95
497.62	35831.26
497.79	36055.95
497.97	35730.62
498.14	36297.03
498.32	36861.10
498.50	36584.91
498.67	37038.98
498.85	36933.65
499.03	37095.15
499.20	36992.17
499.38	37165.37
499.56	37469.64
499.73	37553.90
499.91	37530.49
500.08	37860.51
500.26	37876.89
500.44	38389.47
500.61	38646.93
500.79	38415.21
500.97	38291.16
501.14	38667.99
501.32	38822.47
501.49	39089.29
501.67	39325.68
501.84	39164.18
502.02	39344.41
502.20	39325.68
502.37	39711.87
502.55	39746.98
502.72	39896.77
502.90	39915.50
503.07	40009.12
503.25	39988.05
503.43	40545.10
503.60	40470.20
503.78	40776.81
503.95	41060.02
504.13	41153.64
504.30	41270.67
504.48	40832.99
504.65	41097.47
504.83	41581.96
505.01	41518.76
505.18	41558.55
505.36	41940.06
505.53	41509.40
505.71	42089.85
505.88	42391.78
506.06	41839.42
506.23	42398.80
506.41	42241.99
506.58	42548.60
506.76	42602.43
506.93	43309.27
507.11	42710.10
507.28	43070.54
507.46	43349.06
507.63	43337.36
507.81	43697.80
507.98	43068.20
508.16	43463.75
508.33	44130.80
508.50	43906.11
508.68	44245.49
508.85	44498.26
509.03	44641.04
509.20	44072.29
509.38	44760.40
509.55	44388.26
509.73	44992.12
509.90	45167.66
510.08	44947.65
510.25	45059.99
510.42	45205.11
510.60	45804.28
510.77	45918.97
510.95	45881.52
511.12	45595.98
511.30	45750.45
511.47	45813.65
511.64	46066.42
511.82	46384.74
511.99	46174.09
512.17	46358.99
512.34	46155.36
512.51	46506.44
512.69	46314.52
512.86	46731.14
513.04	47065.83
513.21	47159.45
513.38	47164.14
513.56	47428.62
513.73	47157.11
513.90	47681.39
514.08	47400.53
514.25	47936.51
514.43	47812.46
514.60	47929.49
514.77	47636.92
514.95	48322.70
515.12	48247.80
515.29	47957.58
515.47	48367.17
515.64	48704.21
515.81	48355.47
515.99	48535.69
516.16	49020.18
516.33	49069.33
516.51	49158.27
516.68	48837.62
516.85	49127.84
517.03	48790.81
517.20	49338.49
517.37	49572.55
517.54	49404.03
517.72	49448.50
517.89	49619.36
518.06	50106.19
518.24	49600.63
518.41	49958.73
518.58	49808.94
518.75	50052.36
518.93	49881.50
519.10	49844.05
519.27	50071.08
519.45	50164.70
519.62	50326.20
519.79	50616.43
519.96	50632.81
520.14	50377.69
520.31	50461.95
520.48	50440.89
520.65	50845.80
520.83	51161.77
521.00	50852.82
521.17	50932.40
521.34	51187.52
521.52	50829.41
521.69	51016.66
521.86	51639.24
522.03	51587.75
522.20	51817.12
522.38	51718.82
522.55	51697.75
522.72	51840.53
522.89	51753.93
523.07	52151.82
523.24	52062.88
523.41	51856.91
523.58	51910.74
523.75	52530.98
523.92	52409.28
524.10	52339.06
524.27	52247.78
524.44	52175.22
524.61	52575.45
524.78	52505.24
524.96	52629.29
525.13	52603.54
525.30	52612.90
525.47	52846.96
525.64	52523.96
525.81	52802.49
525.98	52980.37
526.16	53125.48
526.33	53010.79
526.50	53361.87
526.67	53399.32
526.84	53125.48
527.01	52807.17
527.18	53382.94
527.36	53375.92
527.53	53633.38
527.70	53680.19
527.87	53598.27
528.04	53347.83
528.21	53748.06
528.38	53769.13
528.55	53703.59
528.72	53656.78
528.89	53853.39
529.07	53478.90
529.24	53820.62
529.41	54192.76
529.58	54152.97
529.75	53794.87
529.92	54152.97
530.09	54143.61
530.26	54218.51
530.43	54152.97
530.60	54169.36
530.77	54117.87
530.94	54761.51
531.11	54223.19
531.28	54518.10
531.46	54813.01
531.63	54674.91
531.80	54698.32
531.97	54766.20
532.14	54813.01
532.31	54780.24
532.48	54721.72
532.65	54813.01
532.82	55164.09
532.99	55253.03
533.16	55091.53
533.33	55299.84
533.50	55238.98
533.67	55222.60
533.84	54976.84
534.01	55107.91
534.18	55154.72
534.35	55356.01
534.52	55405.16
534.69	55554.96
534.86	55447.29
535.03	55365.37
535.20	55466.02
535.37	55693.05
535.54	55545.59
535.71	55386.44
535.88	55884.97
536.05	55849.86
536.22	55767.94
536.38	55882.63
536.55	55896.67
536.72	55744.54
536.89	55770.28
537.06	55934.12
537.23	55950.51
537.40	55863.91
537.57	56044.13
537.74	55990.30
537.91	56451.38
538.08	56299.25
538.25	56023.06
538.42	56355.42
538.59	56589.47
538.75	56336.69
538.92	56491.17
539.09	56495.85
539.26	56523.94
539.43	56444.36
539.60	56631.60
539.77	56629.26
539.94	56900.76
540.11	56636.28
540.28	56786.08
540.44	56938.21
540.61	56652.67
540.78	56552.02
540.95	56797.78
541.12	56617.56
541.29	56856.29
541.46	56961.62
541.62	56807.14
541.79	56931.19
541.96	56900.76
542.13	56573.09
542.30	56884.38
542.47	56999.07
542.63	56893.74
542.80	57167.58
542.97	57448.45
543.14	57336.10
543.31	57329.08
543.48	57628.67
543.64	57736.34
543.81	57733.99
543.98	57764.42
544.15	57528.03
544.32	57785.49
544.48	58014.86
544.65	57434.41
544.82	57820.59
544.99	57556.11
545.16	57811.23
545.32	57773.78
545.49	58174.02
545.66	58082.73
545.83	58075.71
546.00	57932.94
546.16	58262.96
546.33	57766.76
546.50	57785.49
546.67	57794.85
546.83	57968.05
547.00	57982.09
547.17	58005.50
547.34	58159.97
547.50	58110.82
547.67	58190.40
547.84	58340.19
548.00	58372.96
548.17	58513.39
548.34	58501.69
548.51	58539.14
548.67	58728.72
548.84	58585.95
549.01	58504.03
549.18	58504.03
549.34	58489.99
549.51	58473.60
549.68	58747.45
549.84	58607.01
550.01	58663.19
550.18	58562.54
550.34	58794.26
550.51	58717.02
550.68	58705.32
550.84	58319.13
551.01	58930.01
551.18	58850.43
551.34	58890.22
551.51	58944.05
551.68	58972.14
551.84	58906.60
552.01	58827.02
552.18	59032.99
552.34	58766.17
552.51	59215.55
552.68	58852.77
552.84	58817.66
553.01	59222.58
553.18	59150.02
553.34	59189.81
553.51	58955.75
553.67	59227.26
553.84	59185.13
554.01	59374.71
554.17	59257.68
554.34	59231.94
554.51	59264.70
554.67	59421.52
554.84	59260.02
555.00	59433.22
555.17	59299.81
555.33	59363.01
555.50	59215.55
555.67	59325.56
555.83	59360.67
556.00	59477.69
556.16	59803.03
556.33	59676.64
556.50	59475.35
556.66	59634.51
556.83	59318.54
556.99	59725.79
557.16	59730.47
557.32	59863.88
557.49	59964.52
557.65	59606.42
557.82	59686.00
557.98	59566.63
558.15	59774.94
558.32	59840.48
558.48	59711.75
558.65	59767.92
558.81	59702.38
558.98	59910.69
559.14	59831.11
559.31	60018.36
559.47	59950.48
559.64	60032.40
559.80	60093.25
559.97	60037.08
560.13	59929.42
560.30	59903.67
560.46	59868.56
560.63	60055.81
560.79	60009.00
560.96	60170.49
561.12	59938.78
561.29	60114.32
561.45	60100.28
561.61	60097.94
561.78	60114.32
561.94	60074.53
562.11	60086.23
562.27	60128.36
562.44	60217.30
562.60	60210.28
562.77	60367.10
562.93	60076.87
563.10	60301.56
563.26	60074.53
563.42	60420.93
563.59	60339.01
563.75	60168.15
563.92	60205.60
564.08	60144.75
564.24	60549.66
564.41	60339.01
564.57	60343.69
564.74	60378.80
564.90	60467.74
565.07	60285.18
565.23	60467.74
565.39	60280.50
565.56	60647.96
565.72	60596.47
565.88	60516.89
566.05	60416.25
566.21	60420.93
566.38	60423.27
566.54	60701.79
566.70	60598.81
566.87	60795.42
567.03	60411.57
567.19	60566.04
567.36	60537.96
567.52	60596.47
567.68	60697.11
567.85	60755.63
568.01	60755.63
568.17	60346.03
568.34	60711.16
568.50	60549.66
568.66	60430.29
568.83	60626.90
568.99	60547.32
569.15	60603.49
569.32	60846.91
569.48	60596.47
569.64	60547.32
569.81	60690.09
569.97	60535.62
570.13	60889.04
570.30	60736.90
570.46	60725.20
570.62	60795.42
570.78	60865.63
570.95	60610.51
571.11	60818.82
571.27	60818.82
571.43	60640.94
571.60	60959.25
571.76	60900.74
571.92	60872.65
572.09	60947.55
572.25	60949.89
572.41	60860.95
572.57	60741.58
572.74	60914.78
572.90	60762.65
573.06	60982.66
573.22	60860.95
573.38	61055.21
573.55	60898.40
573.71	60931.17
573.87	61071.60
574.03	60889.04
574.20	60884.36
574.36	60975.64
574.52	60935.85
574.68	60982.66
574.84	61176.92
575.01	61029.47
575.17	61024.79
575.33	61006.06
575.49	60947.55
575.65	61027.13
575.82	61080.96
575.98	61071.60
576.14	61111.39
576.30	61109.05
576.46	60954.57
576.62	61001.38
576.79	60961.59
576.95	60970.96
577.11	61099.68
577.27	61043.51
577.43	61113.73
577.59	61080.96
577.75	60938.19
577.92	60882.02
578.08	61249.48
578.24	61043.51
578.40	61347.78
578.56	61233.10
578.72	61109.05
578.88	61481.19
579.04	61263.52
579.21	60963.93
579.37	61116.07
579.53	61223.73
579.69	61097.34
579.85	61099.68
580.01	61013.08
580.17	61071.60
580.33	61130.11
580.49	61083.30
580.65	61305.65
580.82	61134.79
580.98	61095.00
581.14	60891.38
581.30	61076.28
581.46	61282.25
581.62	61132.45
581.78	61258.84
581.94	61282.25
582.10	61212.03
582.26	61113.73
582.42	61095.00
582.58	61134.79
582.74	61207.35
582.90	61279.91
583.06	61102.03
583.22	61059.90
583.38	61179.26
583.54	61233.10
583.70	61282.25
583.86	61249.48
584.02	61109.05
584.18	61413.32
584.34	61230.75
584.50	61249.48
584.66	61282.25
584.82	60961.59
584.98	61190.97
585.14	61525.66
585.30	61141.81
585.46	61305.65
585.62	61195.65
585.78	61446.08
585.94	61160.54
586.10	61167.56
586.26	61251.82
586.42	61403.95
586.58	61415.66
586.74	61123.09
586.90	61144.16
587.06	61160.54
587.22	61434.38
587.38	61289.27
587.54	61670.78
587.70	61385.23
587.86	61272.88
588.02	61380.55
588.18	61446.08
588.34	61263.52
