SpectraSuite Data File
++++++++++++++++++++++++++++++++++++
Date: Fri Oct 25 11:26:28 EDT 2013
User: price-jones
Dark Spectrum Present: No
Reference Spectrum Present: No
Number of Sampled Component Spectra: 1
Spectrometers: USB2+H05261
Integration Time (usec): 100000 (USB2+H05261)
Spectra Averaged: 1 (USB2+H05261)
Boxcar Smoothing: 0 (USB2+H05261)
Correct for Electrical Dark: No (USB2+H05261)
Strobe/Lamp Enabled: No (USB2+H05261)
Correct for Detector Non-linearity: No (USB2+H05261)
Correct for Stray Light: No (USB2+H05261)
Number of Pixels in Processed Spectrum: 2048
>>>>>Begin Processed Spectral Data<<<<<
365.73	210.65
365.92	210.65
366.12	210.65
366.32	138.09
366.52	138.09
366.72	187.24
366.91	149.79
367.11	149.79
367.31	91.28
367.51	149.79
367.70	168.52
367.90	133.41
368.10	126.39
368.30	243.42
368.49	51.49
368.69	203.63
368.89	201.29
369.09	189.58
369.28	210.65
369.48	198.95
369.68	168.52
369.87	210.65
370.07	248.10
370.27	248.10
370.47	215.33
370.66	594.50
370.86	638.97
371.06	704.50
371.25	739.61
371.45	655.35
371.65	608.54
371.84	664.71
372.04	709.18
372.24	723.23
372.44	688.12
372.63	791.10
372.83	713.86
373.03	809.83
373.22	819.19
373.42	725.57
373.62	702.16
373.81	788.76
374.01	875.36
374.21	795.78
374.40	823.87
374.60	837.91
374.79	774.72
374.99	793.44
375.19	830.89
375.38	847.27
375.58	821.53
375.78	835.57
375.97	840.25
376.17	943.24
376.37	903.45
376.56	922.17
376.76	873.02
376.95	873.02
377.15	936.21
377.35	898.77
377.54	922.17
377.74	882.38
377.93	884.72
378.13	968.98
378.33	875.36
378.52	983.02
378.72	891.74
378.91	917.49
379.11	968.98
379.31	966.64
379.50	987.71
379.70	880.04
379.89	964.30
380.09	894.08
380.28	1001.75
380.48	950.26
380.68	1041.54
380.87	1020.47
381.07	987.71
381.26	994.73
381.46	1041.54
381.65	943.24
381.85	1081.33
382.04	1039.20
382.24	1193.67
382.43	1057.92
382.63	1015.79
382.83	1050.90
383.02	1086.01
383.22	1116.44
383.41	1200.69
383.61	1167.93
383.80	1149.20
384.00	1036.86
384.19	1104.73
384.39	1116.44
384.58	1109.41
384.78	1102.39
384.97	1118.78
385.17	1198.35
385.36	1088.35
385.56	1146.86
385.75	1139.84
385.95	1224.10
386.14	1224.10
386.34	1172.61
386.53	1196.01
386.72	1226.44
386.92	1294.32
387.11	1261.55
387.31	1277.93
387.50	1186.65
387.70	1254.53
387.89	1301.34
388.09	1343.47
388.28	1336.45
388.48	1383.26
388.67	1345.81
388.86	1509.65
389.06	1289.64
389.25	1284.95
389.45	1437.09
389.64	1343.47
389.84	1394.96
390.03	1385.60
390.22	1352.83
390.42	1364.53
390.61	1359.85
390.81	1497.94
391.00	1404.32
391.19	1488.58
391.39	1425.39
391.58	1406.66
391.78	1427.73
391.97	1462.83
392.16	1416.02
392.36	1582.20
392.55	1462.83
392.75	1483.90
392.94	1437.09
393.13	1575.18
393.33	1563.48
393.52	1486.24
393.71	1486.24
393.91	1605.61
394.10	1563.48
394.29	1516.67
394.49	1547.09
394.68	1579.86
394.88	1654.76
395.07	1650.08
395.26	1666.46
395.46	1647.74
395.65	1802.21
395.84	1678.16
396.04	1788.17
396.23	1760.08
396.42	1633.69
396.62	1699.23
396.81	1717.95
397.00	1675.82
397.19	1710.93
397.39	1799.87
397.58	1856.04
397.77	1830.30
397.97	1837.32
398.16	1877.11
398.35	1867.75
398.55	1888.81
398.74	1813.92
398.93	1963.71
399.12	2033.93
399.32	1888.81
399.51	1977.75
399.70	2003.50
399.90	1987.11
400.09	2022.22
400.28	1942.64
400.47	1923.92
400.67	2040.95
400.86	2036.27
401.05	1959.03
401.24	2106.48
401.44	2115.84
401.63	2221.17
401.82	2165.00
402.01	2118.18
402.21	2026.90
402.40	2167.34
402.59	2263.30
402.78	2153.29
402.97	2207.13
403.17	2359.26
403.36	2286.70
403.55	2216.49
403.74	2209.47
403.93	2282.02
404.13	2436.50
404.32	2385.01
404.51	2380.32
404.70	2438.84
404.89	2380.32
405.09	2431.82
405.28	2436.50
405.47	2434.16
405.66	2518.42
405.85	2485.65
406.05	2406.07
406.24	2490.33
406.43	2551.18
406.62	2490.33
406.81	2621.40
407.00	2663.53
407.20	2497.35
407.39	2719.70
407.58	2626.08
407.77	2658.85
407.96	2747.79
408.15	2747.79
408.34	2726.72
408.54	2752.47
408.73	2792.26
408.92	2722.04
409.11	2822.69
409.30	2839.07
409.49	2906.95
409.68	2871.84
409.87	3021.63
410.07	3030.99
410.26	2906.95
410.45	3070.78
410.64	2981.84
410.83	3080.14
411.02	3070.78
411.21	3178.45
411.40	3131.64
411.59	3243.98
411.78	3248.66
411.98	3162.06
412.17	3162.06
412.36	3447.61
412.55	3286.11
412.74	3328.24
412.93	3438.25
413.12	3391.44
413.31	3492.08
413.50	3302.50
413.69	3548.25
413.88	3588.04
414.07	3517.83
414.26	3534.21
414.45	3627.83
414.64	3618.47
414.83	3740.18
415.02	3641.87
415.22	3936.78
415.41	3866.56
415.60	3878.27
415.79	3805.71
415.98	3864.22
416.17	3990.61
416.36	3819.75
416.55	3927.42
416.74	4058.49
416.93	4037.42
417.12	4105.30
417.31	4081.89
417.50	4224.67
417.69	4269.14
417.88	4397.87
418.07	4287.86
418.26	4388.50
418.45	4262.12
418.64	4533.62
418.83	4285.52
419.02	4425.95
419.21	4489.15
419.39	4540.64
419.58	4463.40
419.77	4402.55
419.96	4498.51
420.15	4667.03
420.34	4472.76
420.53	4545.32
420.72	4681.07
420.91	4615.54
421.10	4674.05
421.29	4816.82
421.48	4744.27
421.67	4833.21
421.86	4821.50
422.05	4809.80
422.24	4807.46
422.43	4830.87
422.61	4765.33
422.80	4882.36
422.99	4940.87
423.18	4971.30
423.37	5006.41
423.56	4966.62
423.75	4917.47
423.94	4936.19
424.13	4575.75
424.32	4734.90
424.50	4978.32
424.69	5207.69
424.88	5071.94
425.07	4954.91
425.26	4884.70
425.45	5025.13
425.64	4975.98
425.83	5006.41
426.01	5116.41
426.20	4901.08
426.39	5036.83
426.58	4983.00
426.77	5067.26
426.96	5125.77
427.15	4959.60
427.33	5308.34
427.52	5277.91
427.71	5268.55
427.90	5186.63
428.09	5233.44
428.28	5336.42
428.46	5233.44
428.65	5261.52
428.84	5551.75
429.03	5572.82
429.22	5345.78
429.40	5453.45
429.59	5460.47
429.78	5366.85
429.97	5373.87
430.16	5458.13
430.34	5647.71
430.53	5523.66
430.72	5638.35
430.91	5481.53
431.10	5638.35
431.28	5724.95
431.47	5582.18
431.66	5753.04
431.85	5769.42
432.03	6043.26
432.22	6017.52
432.41	5858.36
432.60	5935.60
432.79	6029.22
432.97	5973.05
433.16	6080.71
433.35	6047.94
433.54	6076.03
433.72	6061.99
433.91	6176.67
434.10	5987.09
434.28	6003.47
434.47	6363.92
434.66	6136.88
434.85	6307.74
435.03	6317.11
435.22	6356.90
435.41	6471.58
435.59	6347.53
435.78	6230.51
435.97	6356.90
436.16	6317.11
436.34	6382.64
436.53	6546.48
436.72	6750.10
436.90	6282.00
437.09	6712.66
437.28	6417.75
437.46	6544.14
437.65	6761.81
437.84	6806.28
438.02	6806.28
438.21	6754.79
438.40	6717.34
438.58	6855.43
438.77	6909.26
438.96	6766.49
439.14	7098.84
439.33	7028.63
439.52	7239.28
439.70	7192.47
439.89	7447.58
440.08	7211.19
440.26	7382.05
440.45	7419.50
440.63	7384.39
440.82	7456.95
441.01	7524.82
441.19	7625.47
441.38	7669.94
441.57	7756.54
441.75	7728.45
441.94	7798.66
442.12	8107.62
442.31	7985.91
442.50	7971.86
442.68	7969.52
442.87	8142.72
443.05	8016.33
443.24	8084.21
443.43	8210.60
443.61	8119.32
443.80	8641.26
443.98	8018.68
444.17	7805.69
444.35	8262.09
444.54	8198.90
444.73	8248.05
444.91	8369.76
445.10	8243.37
445.28	8283.16
445.47	8325.29
445.65	8311.24
445.84	8461.04
446.02	8484.44
446.21	8304.22
446.39	8248.05
446.58	8470.40
446.77	8446.99
446.95	8353.37
447.14	8369.76
447.32	8461.04
447.51	8416.57
447.69	8318.26
447.88	8592.11
448.06	8468.06
448.25	8446.99
448.43	8496.14
448.62	8580.40
448.80	8468.06
448.99	8599.13
449.17	8840.20
449.36	8559.34
449.54	8966.59
449.73	8950.21
449.91	8912.76
450.10	8805.10
450.28	8896.38
450.46	9100.00
450.65	8683.39
450.83	8905.74
451.02	9200.65
451.20	9219.37
451.39	8966.59
451.57	9135.11
451.76	9100.00
451.94	9074.26
452.13	9195.96
452.31	9345.76
452.49	9118.73
452.68	9497.89
452.86	9249.80
453.05	9432.36
453.23	9383.21
453.42	9322.35
453.60	9217.03
453.78	9474.49
453.97	9401.93
454.15	9324.69
454.34	9392.57
454.52	9659.39
454.70	9771.74
454.89	9736.63
455.07	9694.50
455.26	9785.78
455.44	9916.85
455.62	9909.83
455.81	9895.78
455.99	10176.65
456.17	9884.08
456.36	9888.76
456.54	10235.16
456.73	10272.61
456.91	10345.17
457.09	10328.78
457.28	10611.99
457.46	10249.21
457.64	10595.61
457.83	10583.90
458.01	10499.64
458.19	10476.24
458.38	10616.67
458.56	10679.86
458.74	10518.37
458.93	10597.95
459.11	10607.31
459.29	10785.19
459.48	10649.44
459.66	10867.11
459.84	10794.55
460.03	11204.14
460.21	11140.95
460.39	10895.19
460.57	10848.38
460.76	11194.78
460.94	11154.99
461.12	11239.25
461.31	11166.70
461.49	11222.87
461.67	10946.69
461.85	11485.01
462.04	11328.19
462.22	11957.80
462.40	11606.72
462.59	11506.07
462.77	11405.43
462.95	11370.32
463.13	11482.67
463.32	11583.31
463.50	11545.86
463.68	11522.46
463.86	11880.56
464.05	11627.78
464.23	11747.15
464.41	11878.22
464.59	11751.83
464.78	12131.00
464.96	11761.19
465.14	11726.08
465.32	11974.18
465.50	12105.25
465.69	12212.92
465.87	12037.38
466.05	11861.84
466.23	11997.59
466.41	12329.94
466.60	12388.46
466.78	12203.55
466.96	12229.30
467.14	12376.75
467.32	12327.60
467.51	12718.47
467.69	11943.75
467.87	12465.69
468.05	12655.28
468.23	12238.66
468.41	12367.39
468.60	12416.54
468.78	12849.54
468.96	12444.63
469.14	12788.69
469.32	12872.95
469.50	12601.44
469.69	12908.05
469.87	12957.21
470.05	12746.56
470.23	13102.32
470.41	13266.16
470.59	13245.09
470.77	12842.52
470.95	13067.21
471.14	13451.06
471.32	13004.02
471.50	13558.72
471.68	13710.86
471.86	13614.90
472.04	13919.17
472.22	13968.32
472.40	13582.13
472.58	13820.86
472.77	13888.74
472.95	14111.09
473.13	14387.27
473.31	14017.47
473.49	14136.84
473.67	13872.36
473.85	13975.34
474.03	14333.44
474.21	14394.29
474.39	14794.53
474.57	14640.05
474.75	14700.90
474.93	14984.11
475.12	15101.14
475.30	15063.69
475.48	14956.02
475.66	15161.99
475.84	15087.09
476.02	15393.70
476.20	15183.06
476.38	15374.98
476.56	15932.03
476.74	16051.39
476.92	15695.63
477.10	15948.41
477.28	16023.31
477.46	15974.16
477.64	16156.72
477.82	16610.78
478.00	16889.31
478.18	16779.30
478.36	17071.87
478.54	16947.82
478.72	16924.41
478.90	17334.01
479.08	17781.05
479.26	17593.81
479.44	17834.88
479.62	17848.93
479.80	18223.41
479.98	18164.90
480.16	18216.39
480.34	18068.94
480.52	18640.03
480.70	18141.49
480.88	18448.10
481.06	18689.18
481.24	18766.42
481.41	18939.62
481.59	19267.29
481.77	19396.02
481.95	19529.43
482.13	19683.91
482.31	19583.26
482.49	20416.49
482.67	19934.34
482.85	20339.26
483.03	20449.26
483.21	20657.57
483.39	20945.45
483.57	20631.82
483.74	21153.76
483.92	21387.82
484.10	21095.25
484.28	21558.67
484.46	21942.52
484.64	22148.49
484.82	21979.97
485.00	22225.73
485.18	22628.30
485.35	22843.63
485.53	22813.20
485.71	22616.60
485.89	23690.90
486.07	23061.30
486.25	23262.58
486.43	23440.47
486.61	23625.37
486.78	23910.91
486.96	24123.90
487.14	24458.60
487.32	24503.07
487.50	24849.47
487.68	24828.40
487.85	25184.16
488.03	25425.24
488.21	25830.15
488.39	25579.71
488.57	25841.85
488.75	25813.77
488.92	26436.35
489.10	26487.84
489.28	26661.04
489.46	27087.02
489.64	26883.39
489.81	27578.53
489.99	27278.94
490.17	27487.25
490.35	27882.80
490.53	28081.75
490.70	28072.39
490.88	28056.00
491.06	28627.09
491.24	28835.40
491.41	28912.64
491.59	29188.82
491.77	28765.18
491.95	29273.08
492.13	29923.75
492.30	29773.95
492.48	29778.64
492.66	30183.55
492.84	29944.81
493.01	30373.13
493.19	30375.47
493.37	30843.58
493.54	31009.76
493.72	31557.44
493.90	31634.68
494.08	31524.68
494.25	31927.25
494.43	31992.78
494.61	31777.45
494.79	32283.01
494.96	32254.92
495.14	32947.72
495.32	33357.32
495.49	33244.97
495.67	33055.39
495.85	33216.88
496.02	33741.16
496.20	33497.75
496.38	33827.76
496.55	33893.30
496.73	34630.57
496.91	34424.60
497.09	34590.78
497.26	34955.90
497.44	34731.21
497.62	35159.53
497.79	35800.83
497.97	35625.29
498.14	35573.80
498.32	35945.95
498.50	36046.59
498.67	36196.38
498.85	36362.56
499.03	36463.21
499.20	36776.84
499.38	36671.51
499.56	36720.66
499.73	36816.63
499.91	37139.62
500.08	37191.11
500.26	37006.21
500.44	36875.14
500.61	37743.48
500.79	37586.66
500.97	38092.22
501.14	38256.06
501.32	38057.11
501.49	38068.81
501.67	38667.99
501.84	38335.63
502.02	38742.89
502.20	39037.80
502.37	39152.48
502.55	38927.79
502.72	39386.54
502.90	39693.15
503.07	39536.33
503.25	39571.44
503.43	39798.47
503.60	40215.08
503.78	40084.01
503.95	40397.65
504.13	40315.73
504.30	40292.32
504.48	40250.19
504.65	40355.52
504.83	40917.25
505.01	40912.56
505.18	41146.62
505.36	41329.18
505.53	41118.53
505.71	41628.77
505.88	41549.19
506.06	41490.68
506.23	41977.51
506.41	41942.40
506.58	42220.92
506.76	41914.31
506.93	42466.68
507.11	42223.26
507.28	42553.28
507.46	42433.91
507.63	42756.91
507.81	43248.42
507.98	42621.16
508.16	42953.51
508.33	43152.46
508.50	43166.50
508.68	43742.27
508.85	43819.51
509.03	43643.97
509.20	43817.17
509.38	43749.29
509.55	44126.12
509.73	44332.09
509.90	44456.14
510.08	44421.03
510.25	44376.56
510.42	44446.77
510.60	44940.63
510.77	45282.34
510.95	45345.54
511.12	44809.56
511.30	45242.56
511.47	45422.78
511.64	45411.07
511.82	45701.30
511.99	45471.93
512.17	45661.51
512.34	45783.22
512.51	46031.32
512.69	46319.20
512.86	46319.20
513.04	46656.24
513.21	46768.58
513.38	46726.46
513.56	46265.37
513.73	46328.56
513.90	46941.78
514.08	46611.77
514.25	47215.63
514.43	46986.25
514.60	47412.23
514.77	47182.86
514.95	47650.97
515.12	47330.31
515.29	47332.65
515.47	47498.83
515.64	47929.49
515.81	47906.08
515.99	47922.47
516.16	48299.30
516.33	47952.90
516.51	48409.30
516.68	48282.91
516.85	48177.59
517.03	48598.88
517.20	48727.61
517.37	48816.55
517.54	48669.10
517.72	48701.87
517.89	48706.55
518.06	49078.69
518.24	49191.04
518.41	49017.84
518.58	49099.76
518.75	49464.88
518.93	49600.63
519.10	49357.22
519.27	49853.41
519.45	49584.25
519.62	49839.37
519.79	49932.99
519.96	49668.51
520.14	49954.05
520.31	50047.68
520.48	50389.39
520.65	50281.73
520.83	50171.72
521.00	50773.24
521.17	50539.19
521.34	50766.22
521.52	50969.85
521.69	50937.08
521.86	50934.74
522.03	50791.97
522.20	51325.61
522.38	51224.96
522.55	51079.85
522.72	50997.93
522.89	51178.15
523.07	51515.19
523.24	51316.25
523.41	51669.67
523.58	51147.73
523.75	51536.26
523.92	51437.95
524.10	51714.14
524.27	51983.30
524.44	51810.10
524.61	51849.89
524.78	52172.88
524.96	51938.83
525.13	52069.90
525.30	52088.62
525.47	52364.81
525.64	52463.11
525.81	52236.08
525.98	52334.38
526.16	52477.15
526.33	52640.99
526.50	52921.85
526.67	52505.24
526.84	52793.12
527.01	52474.81
527.18	52610.56
527.36	52889.09
527.53	52889.09
527.70	53200.38
527.87	53329.11
528.04	52907.81
528.21	53235.48
528.38	53394.64
528.55	53385.28
528.72	53298.68
528.89	53305.70
529.07	53183.99
529.24	53537.41
529.41	53448.47
529.58	53670.82
529.75	53504.65
529.92	53160.59
530.09	53579.54
530.26	53998.50
530.43	53932.96
530.60	53734.02
530.77	53727.00
530.94	54115.53
531.11	53890.83
531.28	54115.53
531.46	54113.19
531.63	54052.33
531.80	54225.53
531.97	54057.01
532.14	54382.35
532.31	54382.35
532.48	54475.97
532.65	54639.81
532.82	54230.21
532.99	54506.40
533.16	54319.15
533.33	54979.18
533.50	54864.50
533.67	54780.24
533.84	54459.58
534.01	54836.41
534.18	54710.02
534.35	55253.03
534.52	54813.01
534.69	54857.48
534.86	55117.28
535.03	54794.28
535.20	54740.45
535.37	55004.93
535.54	55466.02
535.71	55185.15
535.88	55269.41
536.05	55400.48
536.22	55377.08
536.38	55405.16
536.55	55313.88
536.72	55372.39
536.89	55126.64
537.06	55405.16
537.23	55718.79
537.40	55405.16
537.57	55739.86
537.74	55585.38
537.91	55964.55
538.08	55679.00
538.25	55618.15
538.42	55847.52
538.59	56154.13
538.75	55590.06
538.92	55824.12
539.09	56018.38
539.26	55835.82
539.43	55971.57
539.60	56308.61
539.77	56231.37
539.94	56364.78
540.11	56310.95
540.28	56210.31
540.44	56322.65
540.61	56140.09
540.78	56217.33
540.95	56427.98
541.12	56374.14
541.29	56320.31
541.46	56250.09
541.62	56519.26
541.79	56638.62
541.96	56214.99
542.13	56472.45
542.30	56463.08
542.47	56912.47
542.63	57069.28
542.80	56757.99
542.97	57010.77
543.14	57315.04
543.31	56947.57
543.48	56980.34
543.64	57418.02
543.81	57141.84
543.98	57080.98
544.15	57340.78
544.32	57464.83
544.48	57308.02
544.65	57331.42
544.82	57432.07
544.99	57174.61
545.16	57368.87
545.32	57268.23
545.49	57495.26
545.66	57631.01
545.83	57586.54
546.00	57450.79
546.16	57394.62
546.33	57827.62
546.50	57357.17
546.67	57675.48
546.83	57331.42
547.00	57462.49
547.17	57565.48
547.34	57528.03
547.50	57841.66
547.67	57883.79
547.84	58024.22
548.00	57991.45
548.17	58115.50
548.34	58085.07
548.51	58443.18
548.67	58064.01
548.84	57944.64
549.01	58005.50
549.18	58075.71
549.34	58024.22
549.51	58298.06
549.68	58230.19
549.84	58368.28
550.01	58145.93
550.18	58087.42
550.34	58267.64
550.51	58354.24
550.68	58323.81
550.84	58141.25
551.01	58328.49
551.18	58356.58
551.34	58258.27
551.51	58445.52
551.68	58560.20
551.84	58314.45
552.01	58298.06
552.18	58513.39
552.34	58279.34
552.51	58756.81
552.68	58211.46
552.84	58555.52
553.01	58639.78
553.18	58482.97
553.34	58777.87
553.51	58513.39
553.67	58937.03
553.84	58688.93
554.01	58834.05
554.17	58784.90
554.34	58969.80
554.51	58789.58
554.67	58880.86
554.84	58834.05
555.00	58805.96
555.17	59121.93
555.33	59011.93
555.50	58920.65
555.67	58859.79
555.83	58841.07
556.00	59037.67
556.16	59316.20
556.33	59089.16
556.50	58983.84
556.66	59173.42
556.83	58794.26
556.99	59185.13
557.16	59377.05
557.32	59561.95
557.49	59590.04
557.65	59278.75
557.82	59302.15
557.98	59330.24
558.15	59119.59
558.32	59320.88
558.48	59501.10
558.65	59437.90
558.81	59398.12
558.98	59494.08
559.14	59332.58
559.31	59667.28
559.47	59377.05
559.64	59552.59
559.80	59543.23
559.97	59751.54
560.13	59545.57
560.30	59519.82
560.46	59618.13
560.63	59779.62
560.79	59732.81
560.96	59966.87
561.12	59686.00
561.29	59739.83
561.45	59725.79
561.61	59756.22
561.78	59561.95
561.94	59765.58
562.11	59796.01
562.27	59877.93
562.44	59725.79
562.60	60011.34
562.77	59894.31
562.93	59730.47
563.10	60006.65
563.26	59760.90
563.42	60250.07
563.59	59969.21
563.75	59718.77
563.92	59901.33
564.08	59952.82
564.24	60126.02
564.41	59941.12
564.57	59983.25
564.74	60137.72
564.90	60245.39
565.07	60004.31
565.23	59950.48
565.39	60041.76
565.56	60037.08
565.72	60053.47
565.88	60079.21
566.05	59924.74
566.21	59969.21
566.38	60074.53
566.54	60018.36
566.70	60158.79
566.87	60498.17
567.03	59920.05
567.19	60441.99
567.36	60243.05
567.52	60128.36
567.68	60486.46
567.85	60390.50
568.01	60376.46
568.17	60219.64
568.34	60348.37
568.50	60135.38
568.66	60229.01
568.83	60247.73
568.99	60243.05
569.15	60355.39
569.32	60353.05
569.48	60221.98
569.64	60554.34
569.81	60193.90
569.97	60289.86
570.13	60317.95
570.30	60229.01
570.46	60116.66
570.62	60493.49
570.78	60310.92
570.95	60383.48
571.11	60544.98
571.27	60331.99
571.43	60193.90
571.60	60547.32
571.76	60622.22
571.92	60451.36
572.09	60547.32
572.25	60540.30
572.41	60406.89
572.57	60446.68
572.74	60666.69
572.90	60404.55
573.06	60638.60
573.22	60437.31
573.38	60434.97
573.55	60477.10
573.71	60779.03
573.87	60647.96
574.03	60697.11
574.20	60690.09
574.36	60507.53
574.52	60832.86
574.68	60556.68
574.84	60652.64
575.01	60690.09
575.17	60638.60
575.33	60643.28
575.49	60552.00
575.65	60313.26
575.82	60636.26
575.98	60814.14
576.14	60938.19
576.30	60814.14
576.46	60678.39
576.62	60701.79
576.79	60795.42
576.95	60472.42
577.11	60690.09
577.27	60671.37
577.43	60704.13
577.59	60582.43
577.75	60729.88
577.92	60594.13
578.08	60605.83
578.24	60732.22
578.40	60977.98
578.56	60818.82
578.72	60844.57
578.88	60982.66
579.04	60832.86
579.21	60940.53
579.37	60741.58
579.53	60736.90
579.69	60732.22
579.85	60568.38
580.01	60802.44
580.17	60575.40
580.33	60764.99
580.49	60832.86
580.65	60928.83
580.82	60846.91
580.98	60903.08
581.14	60734.56
581.30	60865.63
581.46	60783.71
581.62	60889.04
581.78	60615.19
581.94	60757.97
582.10	60739.24
582.26	60860.95
582.42	60757.97
582.58	60886.70
582.74	60856.27
582.90	60816.48
583.06	61029.47
583.22	60774.35
583.38	60907.76
583.54	60647.96
583.70	60811.80
583.86	60786.05
584.02	60776.69
584.18	61113.73
584.34	60907.76
584.50	60903.08
584.66	60772.01
584.82	60563.70
584.98	61104.37
585.14	61045.85
585.30	60678.39
585.46	60825.84
585.62	60874.99
585.78	60975.64
585.94	60722.86
586.10	60832.86
586.26	60949.89
586.42	60903.08
586.58	61048.19
586.74	60790.73
586.90	60816.48
587.06	60736.90
587.22	61146.50
587.38	60994.36
587.54	60919.46
587.70	61155.86
587.86	61223.73
588.02	60931.17
588.18	61099.68
588.34	60954.57
588.49	61071.60
