SpectraSuite Data File
++++++++++++++++++++++++++++++++++++
Date: Fri Oct 25 10:43:28 EDT 2013
User: price-jones
Dark Spectrum Present: No
Reference Spectrum Present: No
Number of Sampled Component Spectra: 1
Spectrometers: USB2+H05261
Integration Time (usec): 100000 (USB2+H05261)
Spectra Averaged: 1 (USB2+H05261)
Boxcar Smoothing: 0 (USB2+H05261)
Correct for Electrical Dark: No (USB2+H05261)
Strobe/Lamp Enabled: No (USB2+H05261)
Correct for Detector Non-linearity: No (USB2+H05261)
Correct for Stray Light: No (USB2+H05261)
Number of Pixels in Processed Spectrum: 2048
>>>>>Begin Processed Spectral Data<<<<<
365.73	145.11
365.92	145.11
366.12	145.11
366.32	72.56
366.52	63.19
366.72	88.94
366.91	0.00
367.11	42.13
367.31	0.00
367.51	18.72
367.70	28.09
367.90	0.00
368.10	0.00
368.30	51.49
368.49	0.00
368.69	42.13
368.89	72.56
369.09	4.68
369.28	56.17
369.48	39.79
369.68	121.71
369.87	84.26
370.07	91.28
370.27	81.92
370.47	149.79
370.66	393.21
370.86	341.72
371.06	500.87
371.25	526.62
371.45	404.91
371.65	482.15
371.84	468.11
372.04	362.78
372.24	468.11
372.44	484.49
372.63	564.07
372.83	528.96
373.03	564.07
373.22	500.87
373.42	475.13
373.62	477.47
373.81	535.98
374.01	531.30
374.21	543.00
374.40	479.81
374.60	596.84
374.79	482.15
374.99	594.50
375.19	538.32
375.38	587.47
375.58	505.56
375.78	557.05
375.97	615.56
376.17	573.43
376.37	561.73
376.56	615.56
376.76	608.54
376.95	519.60
377.15	671.73
377.35	592.16
377.54	676.41
377.74	566.41
377.93	650.67
378.13	660.03
378.33	676.41
378.52	730.25
378.72	681.10
378.91	624.92
379.11	608.54
379.31	624.92
379.50	615.56
379.70	657.69
379.89	692.80
380.09	706.84
380.28	638.97
380.48	695.14
380.68	748.97
380.87	667.05
381.07	692.80
381.26	734.93
381.46	685.78
381.65	655.35
381.85	702.16
382.04	699.82
382.24	596.84
382.43	746.63
382.63	746.63
382.83	681.10
383.02	758.33
383.22	727.91
383.41	720.88
383.61	716.20
383.80	763.01
384.00	760.67
384.19	709.18
384.39	856.64
384.58	807.48
384.78	847.27
384.97	770.04
385.17	821.53
385.36	807.48
385.56	746.63
385.75	816.85
385.95	805.14
386.14	837.91
386.34	807.48
386.53	866.00
386.72	746.63
386.92	772.38
387.11	868.34
387.31	887.06
387.50	854.30
387.70	798.12
387.89	882.38
388.09	849.61
388.28	833.23
388.48	800.46
388.67	1015.79
388.86	940.90
389.06	957.28
389.25	992.39
389.45	931.53
389.64	894.08
389.84	987.71
390.03	1034.52
390.22	987.71
390.42	926.85
390.61	945.58
390.81	1025.15
391.00	1046.22
391.19	961.96
391.39	980.68
391.58	1008.77
391.78	997.07
391.97	1018.13
392.16	1027.50
392.36	1109.41
392.55	1022.81
392.75	1069.62
392.94	926.85
393.13	992.39
393.33	1011.11
393.52	971.32
393.71	1102.39
393.91	1170.27
394.10	1121.12
394.29	1076.65
394.49	1153.88
394.68	1198.35
394.88	1268.57
395.07	1132.82
395.26	1181.97
395.46	1259.21
395.65	1266.23
395.84	1256.87
396.04	1116.44
396.23	1165.59
396.42	1151.54
396.62	1198.35
396.81	1181.97
397.00	1249.85
397.19	1235.80
397.39	1228.78
397.58	1320.06
397.77	1394.96
397.97	1413.68
398.16	1401.98
398.35	1416.02
398.55	1404.32
398.74	1404.32
398.93	1380.92
399.12	1504.96
399.32	1416.02
399.51	1430.07
399.70	1610.29
399.90	1469.86
400.09	1563.48
400.28	1521.35
400.47	1591.56
400.67	1579.86
400.86	1661.78
401.05	1589.22
401.24	1621.99
401.44	1638.38
401.63	1671.14
401.82	1678.16
402.01	1685.19
402.21	1652.42
402.40	1781.15
402.59	1680.50
402.78	1753.06
402.97	1720.29
403.17	1914.56
403.36	1804.55
403.55	1872.43
403.74	1809.23
403.93	1757.74
404.13	1743.70
404.32	1834.98
404.51	1858.39
404.70	1928.60
404.89	1839.66
405.09	1912.22
405.28	1788.17
405.47	1963.71
405.66	1942.64
405.85	2043.29
406.05	1956.69
406.24	1956.69
406.43	1973.07
406.62	2043.29
406.81	2038.61
407.00	2040.95
407.20	1968.39
407.39	1987.11
407.58	2059.67
407.77	2108.82
407.96	2167.34
408.15	2183.72
408.34	2099.46
408.54	2298.41
408.73	2200.10
408.92	2172.02
409.11	2225.85
409.30	2326.49
409.49	2246.91
409.68	2235.21
409.87	2190.74
410.07	2253.94
410.26	2270.32
410.45	2342.88
410.64	2413.09
410.83	2445.86
411.02	2469.27
411.21	2633.10
411.40	2525.44
411.59	2530.12
411.78	2537.14
411.98	2551.18
412.17	2654.17
412.36	2612.04
412.55	2654.17
412.74	2689.28
412.93	2670.55
413.12	2754.81
413.31	2752.47
413.50	2895.24
413.69	2801.62
413.88	2813.32
414.07	2787.58
414.26	2789.92
414.45	2883.54
414.64	3019.29
414.83	3009.93
415.02	2869.50
415.22	3070.78
415.41	3054.40
415.60	3068.44
415.79	3002.91
415.98	3131.64
416.17	3059.08
416.36	3236.96
416.55	3150.36
416.74	3206.53
416.93	3269.73
417.12	3246.32
417.31	3220.58
417.50	3382.07
417.69	3646.55
417.88	3424.20
418.07	3421.86
418.26	3368.03
418.45	3447.61
418.64	3522.51
418.83	3581.02
419.02	3403.14
419.21	3459.31
419.39	3548.25
419.58	3545.91
419.77	3480.38
419.96	3676.98
420.15	3618.47
420.34	3662.94
420.53	3744.86
420.72	3667.62
420.91	3552.93
421.10	3782.31
421.29	3805.71
421.48	3709.75
421.67	3791.67
421.86	3655.92
422.05	3707.41
422.24	3707.41
422.43	3742.52
422.61	3854.86
422.80	3784.65
422.99	3934.44
423.18	4016.36
423.37	4058.49
423.56	3957.85
423.75	3801.03
423.94	3803.37
424.13	3583.36
424.32	3740.18
424.50	3901.67
424.69	3985.93
424.88	3927.42
425.07	3913.38
425.26	3763.58
425.45	3901.67
425.64	3833.80
425.83	3992.95
426.01	4032.74
426.20	4018.70
426.39	3967.21
426.58	3878.27
426.77	3957.85
426.96	4002.32
427.15	3932.10
427.33	3880.61
427.52	4114.66
427.71	4138.07
427.90	4070.19
428.09	4007.00
428.28	4077.21
428.46	4121.68
428.65	4177.86
428.84	4156.79
429.03	4131.05
429.22	4081.89
429.40	4021.04
429.59	3934.44
429.78	3911.04
429.97	3782.31
430.16	3932.10
430.34	4051.47
430.53	4065.51
430.72	4065.51
430.91	4124.02
431.10	4222.33
431.28	4400.21
431.47	4465.74
431.66	4489.15
431.85	4517.23
432.03	4489.15
432.22	4725.54
432.41	4690.43
432.60	4575.75
432.79	4711.50
432.97	4737.24
433.16	4472.76
433.35	4610.86
433.54	4498.51
433.72	4615.54
433.91	4550.00
434.10	4671.71
434.28	4772.35
434.47	4891.72
434.66	4842.57
434.85	4835.55
435.03	4823.84
435.22	4849.59
435.41	4997.04
435.59	4922.15
435.78	5036.83
435.97	4910.44
436.16	5006.41
436.34	4894.06
436.53	4945.55
436.72	5277.91
436.90	5011.09
437.09	5109.39
437.28	5135.14
437.46	5336.42
437.65	5146.84
437.84	5135.14
438.02	5184.29
438.21	5186.63
438.40	5039.17
438.58	5198.33
438.77	5277.91
438.96	5259.18
439.14	5593.88
439.33	5497.92
439.52	5535.37
439.70	5497.92
439.89	5614.95
440.08	5706.23
440.26	5668.78
440.45	5682.82
440.63	5708.57
440.82	6040.92
441.01	5795.17
441.19	5870.06
441.38	5877.09
441.57	6207.10
441.75	6127.52
441.94	6242.21
442.12	6057.31
442.31	6195.40
442.50	6181.35
442.68	6092.41
442.87	6328.81
443.05	6305.40
443.24	6389.66
443.43	6436.47
443.61	6497.33
443.80	6459.88
443.98	6326.47
444.17	6251.57
444.35	6298.38
444.54	6518.39
444.73	6487.96
444.91	6431.79
445.10	6340.51
445.28	6296.04
445.47	6328.81
445.65	6548.82
445.84	6487.96
446.02	6593.29
446.21	6340.51
446.39	6509.03
446.58	6492.65
446.77	6434.13
446.95	6511.37
447.14	6516.05
447.32	6778.19
447.51	6548.82
447.69	6567.54
447.88	6745.42
448.06	6710.32
448.25	6633.08
448.43	6700.95
448.62	6700.95
448.80	6593.29
448.99	6796.92
449.17	6801.60
449.36	6764.15
449.54	6867.13
449.73	7037.99
449.91	7080.12
450.10	6932.67
450.28	7110.55
450.46	7236.94
450.65	7145.66
450.83	7148.00
451.02	6867.13
451.20	7152.68
451.39	6970.12
451.57	7131.61
451.76	6949.05
451.94	6953.73
452.13	7197.15
452.31	7129.27
452.49	7049.69
452.68	7054.37
452.86	7049.69
453.05	7339.92
453.23	7274.38
453.42	7246.30
453.60	7265.02
453.78	7190.13
453.97	7232.26
454.15	7248.64
454.34	7129.27
454.52	7384.39
454.70	7573.97
454.89	7506.10
455.07	7473.33
455.26	7611.42
455.44	7735.47
455.62	7487.37
455.81	7765.90
455.99	7648.87
456.17	7714.41
456.36	7737.81
456.54	7763.56
456.73	7793.98
456.91	8140.38
457.09	7950.80
457.28	7918.03
457.46	7885.26
457.64	8035.06
457.83	7915.69
458.01	7906.33
458.19	8236.35
458.38	8079.53
458.56	8166.13
458.74	8285.50
458.93	8234.00
459.11	8210.60
459.29	8280.82
459.48	8084.21
459.66	8112.30
459.84	8458.70
460.03	8374.44
460.21	8610.83
460.39	8425.93
460.57	8540.61
460.76	8329.97
460.94	8297.20
461.12	8465.72
461.31	8472.74
461.49	8531.25
461.67	8617.85
461.85	8772.33
462.04	8533.59
462.22	9123.41
462.40	8795.73
462.59	8774.67
462.77	8676.37
462.95	8777.01
463.13	8730.20
463.32	8737.22
463.50	8786.37
463.68	8898.72
463.86	8772.33
464.05	8713.81
464.23	8734.88
464.41	8968.93
464.59	8767.65
464.78	9001.70
464.96	9128.09
465.14	8929.14
465.32	9107.02
465.50	8910.42
465.69	9092.98
465.87	8957.23
466.05	8905.74
466.23	9167.88
466.41	8872.97
466.60	9296.61
466.78	9048.51
466.96	8987.66
467.14	9118.73
467.32	9139.79
467.51	9310.65
467.69	9291.93
467.87	9296.61
468.05	9631.30
468.23	9453.42
468.41	9191.28
468.60	9181.92
468.78	9430.02
468.96	9348.10
469.14	9631.30
469.32	9542.36
469.50	9418.32
469.69	9621.94
469.87	9755.35
470.05	9738.97
470.23	9816.21
470.41	9668.75
470.59	9673.43
470.77	9846.63
470.95	9898.13
471.14	9860.68
471.32	9888.76
471.50	10115.80
471.68	9973.02
471.86	10195.37
472.04	10246.87
472.22	10541.77
472.40	10085.37
472.58	10303.04
472.77	10303.04
472.95	10574.54
473.13	10654.12
473.31	10359.21
473.49	10202.40
473.67	10565.18
473.85	10434.11
474.03	10885.83
474.21	10806.25
474.39	10906.90
474.57	10949.03
474.75	10757.10
474.93	11225.21
475.12	10871.79
475.30	11281.38
475.48	10890.51
475.66	11002.86
475.84	11307.13
476.02	11087.12
476.20	11047.33
476.38	11279.04
476.56	11679.27
476.74	11669.91
476.92	11730.76
477.10	11669.91
477.28	11859.49
477.46	11721.40
477.64	12100.57
477.82	12196.53
478.00	12465.69
478.18	12222.28
478.36	12299.52
478.54	12428.24
478.72	12439.95
478.90	12826.14
479.08	12875.29
479.26	12896.35
479.44	12807.41
479.62	12915.08
479.80	13224.03
479.98	13296.58
480.16	13331.69
480.34	13376.16
480.52	13511.91
480.70	13549.36
480.88	13589.15
481.06	13848.95
481.24	13797.46
481.41	13963.64
481.59	14101.73
481.77	14251.52
481.95	14171.94
482.13	14373.23
482.31	14462.17
482.49	14733.67
482.67	14710.27
482.85	14707.93
483.03	14984.11
483.21	15180.71
483.39	15126.88
483.57	15307.10
483.74	15281.36
483.92	15372.64
484.10	15318.81
484.28	15763.51
484.46	15964.79
484.64	16205.87
484.82	15721.38
485.00	15782.23
485.18	16444.60
485.35	16273.74
485.53	16063.10
485.71	16070.12
485.89	16245.66
486.07	16238.64
486.25	16168.42
486.43	16451.63
486.61	16730.15
486.78	16931.44
486.96	16980.59
487.14	17502.53
487.32	17610.19
487.50	17593.81
487.68	17832.54
487.85	17937.87
488.03	18242.14
488.21	18459.81
488.39	18274.90
488.57	18513.64
488.75	18370.86
488.92	18864.72
489.10	19073.03
489.28	18796.84
489.46	19194.73
489.64	19309.42
489.81	19885.19
489.99	19941.36
490.17	19716.67
490.35	19964.77
490.53	20276.06
490.70	20217.55
490.88	20196.48
491.06	20875.24
491.24	20664.59
491.41	20456.28
491.59	20353.30
491.77	20510.11
491.95	20753.53
492.13	20830.77
492.30	21188.87
492.48	21443.99
492.66	21385.47
492.84	21429.94
493.01	21654.64
493.19	21811.45
493.37	21862.94
493.54	22087.64
493.72	22054.87
493.90	22328.71
494.08	22506.59
494.25	22675.11
494.43	22668.09
494.61	22911.50
494.79	22979.38
494.96	23180.67
495.14	23222.80
495.32	23243.86
495.49	23356.21
495.67	23393.65
495.85	23969.43
496.02	23796.23
496.20	24135.60
496.38	24009.22
496.55	24388.38
496.73	24673.93
496.91	24575.62
497.09	24795.64
497.26	24730.10
497.44	24369.66
497.62	24760.53
497.79	25092.88
497.97	24706.70
498.14	25041.39
498.32	25439.28
498.50	25378.43
498.67	25876.96
498.85	25439.28
499.03	26155.49
499.20	25954.20
499.38	25776.32
499.56	25682.70
499.73	26054.84
499.91	26181.23
500.08	26169.53
500.26	25956.54
500.44	26129.74
500.61	26373.16
500.79	26127.40
500.97	26363.79
501.14	27072.98
501.32	26960.63
501.49	26579.12
501.67	26911.48
501.84	26698.49
502.02	27082.34
502.20	27192.34
502.37	27325.75
502.55	27281.28
502.72	27601.94
502.90	27714.28
503.07	27749.39
503.25	28006.85
503.43	27681.52
503.60	28044.30
503.78	27571.51
503.95	27798.54
504.13	28025.57
504.30	28390.70
504.48	28250.27
504.65	28404.74
504.83	28734.76
505.01	28786.25
505.18	28999.24
505.36	29113.92
505.53	29062.43
505.71	29462.66
505.88	29235.63
506.06	29111.58
506.23	29549.26
506.41	29317.55
506.58	29713.10
506.76	29577.35
506.93	29572.67
507.11	29598.41
507.28	29567.99
507.46	29633.52
507.63	29408.83
507.81	29558.63
507.98	29535.22
508.16	29743.53
508.33	29940.13
508.50	30450.37
508.68	30419.94
508.85	30661.02
509.03	30316.96
509.20	30403.56
509.38	30820.17
509.55	30820.17
509.73	31103.38
509.90	31136.15
510.08	31019.12
510.25	31061.25
510.42	30923.16
510.60	31639.36
510.77	31063.59
510.95	31391.26
511.12	31377.22
511.30	31536.38
511.47	31964.70
511.64	31758.73
511.82	32261.94
511.99	31604.25
512.17	32023.21
512.34	31842.99
512.51	32437.48
512.69	32432.80
512.86	32107.47
513.04	32488.98
513.21	32163.64
513.38	32629.41
513.56	32158.96
513.73	32292.37
513.90	32692.60
514.08	32538.13
514.25	32797.93
514.43	32788.56
514.60	32975.81
514.77	32929.00
514.95	32905.59
515.12	33502.43
515.29	33055.39
515.47	33495.41
515.64	33596.05
515.81	33223.90
515.99	33287.10
516.16	33289.44
516.33	33188.80
516.51	32800.27
516.68	33160.71
516.85	32992.19
517.03	33123.26
517.20	33504.77
517.37	33933.09
517.54	34333.32
517.72	34015.01
517.89	33612.43
518.06	33703.71
518.24	33680.31
518.41	34017.35
518.58	33912.02
518.75	34000.96
518.93	34253.74
519.10	34384.81
519.27	34520.56
519.45	34548.65
519.62	34815.47
519.79	35204.00
519.96	34909.09
520.14	35002.71
520.31	34813.13
520.48	35328.05
520.65	35005.05
520.83	35211.02
521.00	35573.80
521.17	35496.56
521.34	35536.35
521.52	35573.80
521.69	35690.83
521.86	35641.68
522.03	35819.56
522.20	36062.97
522.38	35644.02
522.55	35957.65
522.72	36098.08
522.89	35475.50
523.07	36421.08
523.24	36128.51
523.41	36510.02
523.58	35915.52
523.75	37041.32
523.92	36568.53
524.10	36814.29
524.27	36589.59
524.44	36772.16
524.61	36975.78
524.78	36825.99
524.96	37022.59
525.13	36842.37
525.30	37511.77
525.47	37043.66
525.64	36954.72
525.81	37088.13
525.98	36706.62
526.16	36793.22
526.33	37118.56
526.50	37198.13
526.67	36362.56
526.84	37090.47
527.01	37373.67
527.18	37212.18
527.36	37385.38
527.53	37984.55
527.70	37914.34
527.87	37574.96
528.04	37963.49
528.21	38124.99
528.38	38085.20
528.55	38349.68
528.72	38398.83
528.89	38756.93
529.07	38216.27
529.24	38073.49
529.41	38328.61
529.58	38171.80
529.75	38679.69
529.92	38831.83
530.09	38946.51
530.26	39178.23
530.43	38834.17
530.60	38808.42
530.77	38705.44
530.94	38707.78
531.11	38948.85
531.28	39140.78
531.46	39173.55
531.63	39321.00
531.80	38548.62
531.97	38796.72
532.14	38721.82
532.31	38740.55
532.48	39468.45
532.65	39009.71
532.82	39180.57
532.99	39082.27
533.16	39658.04
533.33	39613.57
533.50	39674.42
533.67	39505.90
533.84	39391.22
534.01	39438.03
534.18	39756.34
534.35	39845.28
534.52	39484.84
534.69	39688.46
534.86	40142.53
535.03	39484.84
535.20	40079.33
535.37	40053.59
535.54	40900.86
535.71	40222.11
535.88	40467.86
536.05	40203.38
536.22	40498.29
536.38	39927.20
536.55	40502.97
536.72	39915.50
536.89	39966.99
537.06	40205.72
537.23	40596.59
537.40	40620.00
537.57	40954.69
537.74	40250.19
537.91	40718.30
538.08	40687.87
538.25	40463.18
538.42	40769.79
538.59	40762.77
538.75	40594.25
538.92	41329.18
539.09	40643.40
539.26	40828.30
539.43	40924.27
539.60	40582.55
539.77	40715.96
539.94	40931.29
540.11	40928.95
540.28	41153.64
540.44	41024.91
540.61	41624.09
540.78	40463.18
540.95	40875.12
541.12	41198.11
541.29	41076.40
541.46	41155.98
541.62	41469.61
541.79	41689.62
541.96	40751.07
542.13	41174.70
542.30	41425.14
542.47	41277.69
542.63	41273.01
542.80	41418.12
542.97	41724.73
543.14	42274.76
543.31	42239.65
543.48	41986.87
543.64	42515.83
543.81	42080.49
543.98	42431.57
544.15	42581.37
544.32	42518.17
544.48	42548.60
544.65	42433.91
544.82	42333.27
544.99	42501.79
545.16	42227.95
545.32	42124.96
545.49	42784.99
545.66	42906.70
545.83	42784.99
546.00	42740.52
546.16	42639.88
546.33	42588.39
546.50	42464.34
546.67	43152.46
546.83	42181.13
547.00	42534.56
547.17	42892.66
547.34	42499.45
547.50	42586.05
547.67	43246.08
547.84	43030.75
548.00	43037.77
548.17	43152.46
548.34	43208.63
548.51	43758.66
548.67	43658.01
548.84	43283.53
549.01	42674.99
549.18	43274.16
549.34	43054.15
549.51	43501.20
549.68	43356.08
549.84	43295.23
550.01	43302.25
550.18	43337.36
550.34	43166.50
550.51	43096.28
550.68	43180.54
550.84	42986.28
551.01	43723.55
551.18	43728.23
551.34	43295.23
551.51	43636.95
551.68	43976.33
551.84	44151.87
552.01	43849.94
552.18	43784.40
552.34	43508.22
552.51	43636.95
552.68	43812.49
552.84	43910.79
553.01	44336.77
553.18	43756.32
553.34	43866.32
553.51	43976.33
553.67	43885.04
553.84	44268.89
554.01	44425.71
554.17	44594.23
554.34	44502.95
554.51	43999.73
554.67	44315.70
554.84	44201.02
555.00	43761.00
555.17	44027.82
555.33	44589.55
555.50	44243.15
555.67	44226.76
555.83	44306.34
556.00	44432.73
556.16	44603.59
556.33	44325.07
556.50	44367.20
556.66	44397.62
556.83	44322.72
556.99	44664.44
557.16	44252.51
557.32	44428.05
557.49	44554.44
557.65	44465.50
557.82	44355.49
557.98	44456.14
558.15	44589.55
558.32	44671.46
558.48	44128.46
558.65	44767.43
558.81	44863.39
558.98	44453.79
559.14	44149.53
559.31	44563.80
559.47	44666.78
559.64	44729.98
559.80	44816.58
559.97	44683.17
560.13	44643.38
560.30	44854.03
560.46	44945.31
560.63	44638.70
560.79	45017.86
560.96	45263.62
561.12	45031.91
561.29	45017.86
561.45	44966.37
561.61	45116.17
561.78	44903.18
561.94	44708.91
562.11	44835.30
562.27	44568.48
562.44	44985.10
562.60	44554.44
562.77	45481.29
562.93	44978.07
563.10	45148.93
563.26	44811.90
563.42	45485.97
563.59	44971.05
563.75	45003.82
563.92	45382.99
564.08	45230.85
564.24	44868.07
564.41	45504.70
564.57	45249.58
564.74	44935.95
564.90	44957.01
565.07	44971.05
565.23	45069.36
565.39	44793.17
565.56	45226.17
565.72	44954.67
565.88	44865.73
566.05	44772.11
566.21	45221.49
566.38	45048.29
566.54	45390.01
566.70	45303.41
566.87	45734.07
567.03	45209.79
567.19	45434.48
567.36	45628.74
567.52	45125.53
567.68	44884.45
567.85	45242.56
568.01	45282.34
568.17	45116.17
568.34	45247.24
568.50	44879.77
568.66	44879.77
568.83	45158.30
568.99	44954.67
569.15	45193.40
569.32	44999.14
569.48	45422.78
569.64	45375.97
569.81	45635.77
569.97	45174.68
570.13	45521.08
570.30	44905.52
570.46	45083.40
570.62	45116.17
570.78	45322.13
570.95	45282.34
571.11	45158.30
571.27	45165.32
571.43	45455.54
571.60	45642.79
571.76	45427.46
571.92	45209.79
572.09	45305.75
572.25	45343.20
572.41	45642.79
572.57	45778.54
572.74	45848.75
572.90	45736.41
573.06	45684.92
573.22	45535.12
573.38	45205.11
573.55	45357.24
573.71	45825.35
573.87	45684.92
574.03	45256.60
574.20	45418.10
574.36	45333.84
574.52	45638.11
574.68	45647.47
574.84	45272.98
575.01	45317.45
575.17	45631.08
575.33	45354.90
575.49	45146.59
575.65	45214.47
575.82	45537.46
575.98	45247.24
576.14	45918.97
576.30	45298.73
576.46	45933.01
576.62	45464.91
576.79	45425.12
576.95	45385.33
577.11	45947.06
577.27	45729.39
577.43	45546.82
577.59	45195.74
577.75	45511.72
577.92	45701.30
578.08	45137.23
578.24	44912.54
578.40	45485.97
578.56	45783.22
578.72	45823.01
578.88	46021.95
579.04	45710.66
579.21	45500.01
579.37	45469.59
579.53	45677.90
579.69	44957.01
579.85	45525.76
580.01	45682.58
580.17	45535.12
580.33	45488.31
580.49	45614.70
580.65	45577.25
580.82	45420.44
580.98	45469.59
581.14	45507.04
581.30	45743.43
581.46	45298.73
581.62	45883.86
581.78	45710.66
581.94	46131.96
582.10	45986.85
582.26	45610.02
582.42	45612.36
582.58	45509.38
582.74	45694.28
582.90	45605.34
583.06	45879.18
583.22	45354.90
583.38	46045.36
583.54	46120.26
583.70	45745.77
583.86	46017.27
584.02	45439.16
584.18	45982.16
584.34	45375.97
584.50	45661.51
584.66	45696.62
584.82	45134.89
584.98	45544.48
585.14	45769.18
585.30	45565.55
585.46	45642.79
585.62	45331.50
585.78	45228.51
585.94	45406.39
586.10	45228.51
586.26	45588.95
586.42	45532.78
586.58	45942.38
586.74	45579.59
586.90	45778.54
587.06	45607.68
587.22	45467.25
587.38	45443.84
587.54	45830.03
587.70	45993.87
587.86	45617.04
588.02	45415.76
588.18	45682.58
588.34	45591.30
588.49	45247.24
588.65	45031.91
588.81	44844.66
588.97	45610.02
589.13	44928.92
589.29	45237.87
589.45	45249.58
589.61	45488.31
589.77	45860.46
589.93	45914.29
590.08	45790.24
