SpectraSuite Data File
++++++++++++++++++++++++++++++++++++
Date: Fri Oct 25 11:25:11 EDT 2013
User: price-jones
Dark Spectrum Present: No
Reference Spectrum Present: No
Number of Sampled Component Spectra: 1
Spectrometers: USB2+H05261
Integration Time (usec): 100000 (USB2+H05261)
Spectra Averaged: 1 (USB2+H05261)
Boxcar Smoothing: 0 (USB2+H05261)
Correct for Electrical Dark: No (USB2+H05261)
Strobe/Lamp Enabled: No (USB2+H05261)
Correct for Detector Non-linearity: No (USB2+H05261)
Correct for Stray Light: No (USB2+H05261)
Number of Pixels in Processed Spectrum: 2048
>>>>>Begin Processed Spectral Data<<<<<
365.73	266.82
365.92	266.82
366.12	266.82
366.32	152.13
366.52	88.94
366.72	180.22
366.91	159.16
367.11	182.56
367.31	159.16
367.51	140.43
367.70	95.96
367.90	138.09
368.10	98.30
368.30	205.97
368.49	142.77
368.69	107.66
368.89	168.52
369.09	119.37
369.28	170.86
369.48	105.32
369.68	212.99
369.87	220.01
370.07	212.99
370.27	292.57
370.47	266.82
370.66	519.60
370.86	732.59
371.06	681.10
371.25	706.84
371.45	662.37
371.65	697.48
371.84	711.52
372.04	711.52
372.24	697.48
372.44	772.38
372.63	709.18
372.83	791.10
373.03	805.14
373.22	664.71
373.42	847.27
373.62	866.00
373.81	711.52
374.01	809.83
374.21	847.27
374.40	763.01
374.60	816.85
374.79	800.46
374.99	777.06
375.19	835.57
375.38	816.85
375.58	847.27
375.78	812.17
375.97	917.49
376.17	894.08
376.37	863.66
376.56	884.72
376.76	945.58
376.95	795.78
377.15	821.53
377.35	870.68
377.54	875.36
377.74	910.47
377.93	959.62
378.13	903.45
378.33	1001.75
378.52	917.49
378.72	957.28
378.91	985.37
379.11	938.55
379.31	901.11
379.50	997.07
379.70	1029.84
379.89	954.94
380.09	964.30
380.28	903.45
380.48	945.58
380.68	966.64
380.87	1025.15
381.07	1015.79
381.26	1055.58
381.46	1008.77
381.65	1018.13
381.85	912.81
382.04	1053.24
382.24	1078.99
382.43	1090.69
382.63	945.58
382.83	1109.41
383.02	1097.71
383.22	1081.33
383.41	922.17
383.61	1034.52
383.80	1219.42
384.00	1135.16
384.19	1090.69
384.39	1081.33
384.58	1057.92
384.78	1114.10
384.97	1086.01
385.17	1203.04
385.36	1137.50
385.56	1104.73
385.75	1219.42
385.95	1261.55
386.14	1172.61
386.34	1198.35
386.53	1214.74
386.72	1153.88
386.92	1200.69
387.11	1156.22
387.31	1200.69
387.50	1205.38
387.70	1233.46
387.89	1291.98
388.09	1186.65
388.28	1308.36
388.48	1303.68
388.67	1345.81
388.86	1341.13
389.06	1277.93
389.25	1317.72
389.45	1455.81
389.64	1287.29
389.84	1322.40
390.03	1465.18
390.22	1284.95
390.42	1392.62
390.61	1364.53
390.81	1369.21
391.00	1362.19
391.19	1526.03
391.39	1472.20
391.58	1486.24
391.78	1486.24
391.97	1418.36
392.16	1451.13
392.36	1575.18
392.55	1521.35
392.75	1586.88
392.94	1453.47
393.13	1533.05
393.33	1563.48
393.52	1497.94
393.71	1558.80
393.91	1572.84
394.10	1551.78
394.29	1598.59
394.49	1631.35
394.68	1654.76
394.88	1647.74
395.07	1603.27
395.26	1671.14
395.46	1575.18
395.65	1603.27
395.84	1750.72
396.04	1774.13
396.23	1820.94
396.42	1673.48
396.62	1692.21
396.81	1802.21
397.00	1771.79
397.19	1827.96
397.39	1827.96
397.58	1849.02
397.77	1877.11
397.97	1788.17
398.16	1757.74
398.35	1837.32
398.55	1863.07
398.74	1914.56
398.93	1921.58
399.12	1825.62
399.32	1937.96
399.51	1977.75
399.70	2001.16
399.90	1884.13
400.09	1968.39
400.28	2090.10
400.47	2045.63
400.67	2115.84
400.86	2165.00
401.05	2050.31
401.24	2174.36
401.44	2111.16
401.63	2029.24
401.82	2256.28
402.01	2076.06
402.21	2195.42
402.40	2181.38
402.59	2214.15
402.78	2207.13
402.97	2228.19
403.17	2289.04
403.36	2312.45
403.55	2120.53
403.74	2321.81
403.93	2366.28
404.13	2298.41
404.32	2303.09
404.51	2239.89
404.70	2455.22
404.89	2338.20
405.09	2558.21
405.28	2434.16
405.47	2504.37
405.66	2459.90
405.85	2513.74
406.05	2392.03
406.24	2495.01
406.43	2408.41
406.62	2534.80
406.81	2661.19
407.00	2499.69
407.20	2626.08
407.39	2635.44
407.58	2747.79
407.77	2729.06
407.96	2689.28
408.15	2672.89
408.34	2684.59
408.54	2698.64
408.73	2738.43
408.92	2808.64
409.11	2740.77
409.30	2913.97
409.49	2892.90
409.68	2970.14
409.87	2874.18
410.07	2972.48
410.26	2918.65
410.45	2988.86
410.64	2951.42
410.83	3056.74
411.02	3105.89
411.21	3098.87
411.40	3176.11
411.59	3133.98
411.78	3089.51
411.98	3052.06
412.17	3316.54
412.36	3138.66
412.55	3283.77
412.74	3309.52
412.93	3384.41
413.12	3332.92
413.31	3463.99
413.50	3431.23
413.69	3400.80
413.88	3562.30
414.07	3461.65
414.26	3478.04
414.45	3719.11
414.64	3599.74
414.83	3726.13
415.02	3794.01
415.22	3880.61
415.41	3911.04
415.60	3794.01
415.79	3784.65
415.98	3925.08
416.17	3964.87
416.36	3922.74
416.55	3840.82
416.74	3960.19
416.93	4067.85
417.12	4009.34
417.31	4095.94
417.50	4177.86
417.69	4044.45
417.88	4222.33
418.07	4159.13
418.26	4344.03
418.45	4287.86
418.64	4271.48
418.83	4360.42
419.02	4355.74
419.21	4517.23
419.39	4444.68
419.58	4306.59
419.77	4311.27
419.96	4489.15
420.15	4500.85
420.34	4496.17
420.53	4631.92
420.72	4580.43
420.91	4596.81
421.10	4699.80
421.29	4727.88
421.48	4533.62
421.67	4823.84
421.86	4692.77
422.05	4891.72
422.24	4758.31
422.43	4819.16
422.61	4861.29
422.80	5011.09
422.99	4936.19
423.18	4842.57
423.37	4985.34
423.56	5011.09
423.75	4912.78
423.94	4894.06
424.13	4479.79
424.32	4760.65
424.50	4915.12
424.69	5032.15
424.88	5123.43
425.07	5004.07
425.26	5018.11
425.45	4947.89
425.64	5029.81
425.83	4975.98
426.01	5125.77
426.20	4987.68
426.39	5088.32
426.58	5032.15
426.77	5053.22
426.96	5057.90
427.15	5104.71
427.33	5207.69
427.52	5135.14
427.71	5132.79
427.90	5226.42
428.09	5338.76
428.28	5242.80
428.46	5329.40
428.65	5317.70
428.84	5621.97
429.03	5390.25
429.22	5259.18
429.40	5455.79
429.59	5549.41
429.78	5322.38
429.97	5200.67
430.16	5481.53
430.34	5528.35
430.53	5626.65
430.72	5418.34
430.91	5493.24
431.10	5530.69
431.28	5708.57
431.47	5605.58
431.66	5710.91
431.85	5830.27
432.03	5851.34
432.22	6012.84
432.41	5933.26
432.60	5783.46
432.79	5809.21
432.97	5935.60
433.16	6108.80
433.35	5830.27
433.54	6066.67
433.72	6186.04
433.91	6080.71
434.10	5982.41
434.28	6090.07
434.47	6076.03
434.66	6246.89
434.85	6429.45
435.03	6389.66
435.22	6225.82
435.41	6431.79
435.59	6340.51
435.78	6445.84
435.97	6544.14
436.16	6504.35
436.34	6319.45
436.53	6593.29
436.72	6583.93
436.90	6406.05
437.09	6738.40
437.28	6438.81
437.46	6459.88
437.65	6478.60
437.84	6810.96
438.02	6604.99
438.21	6736.06
438.40	6630.74
438.58	6993.52
438.77	6958.41
438.96	6911.60
439.14	6995.86
439.33	7155.02
439.52	7243.96
439.70	7190.13
439.89	7321.20
440.08	7346.94
440.26	7105.87
440.45	7248.64
440.63	7552.91
440.82	7595.04
441.01	7440.56
441.19	7485.03
441.38	7524.82
441.57	7758.88
441.75	7648.87
441.94	7896.97
442.12	7817.39
442.31	7838.45
442.50	7962.50
442.68	7887.61
442.87	7915.69
443.05	8072.51
443.24	8147.40
443.43	8156.77
443.61	8203.58
443.80	8535.93
443.98	7946.12
444.17	7803.35
444.35	8170.81
444.54	8257.41
444.73	8154.43
444.91	8308.90
445.10	8135.70
445.28	8245.71
445.47	8100.59
445.65	8306.56
445.84	8542.96
446.02	8346.35
446.21	8280.82
446.39	8355.71
446.58	8608.49
446.77	8496.14
446.95	8194.22
447.14	8411.89
447.32	8643.60
447.51	8393.16
447.69	8276.13
447.88	8409.54
448.06	8393.16
448.25	8519.55
448.43	8493.80
448.62	8379.12
448.80	8477.42
448.99	8542.96
449.17	8847.22
449.36	8636.58
449.54	8636.58
449.73	8779.35
449.91	8905.74
450.10	8910.42
450.28	9121.07
450.46	9153.84
450.65	8924.46
450.83	9062.55
451.02	9107.02
451.20	9210.01
451.39	9060.21
451.57	8908.08
451.76	8982.98
451.94	9041.49
452.13	9329.38
452.31	9027.45
452.49	9114.05
452.68	9231.07
452.86	9334.06
453.05	9341.08
453.23	9383.21
453.42	9373.85
453.60	9390.23
453.78	9439.38
453.97	9366.82
454.15	9343.42
454.34	9535.34
454.52	9617.26
454.70	9521.30
454.89	9628.96
455.07	9715.56
455.26	9736.63
455.44	9858.34
455.62	9703.86
455.81	10024.51
455.99	9905.15
456.17	10132.18
456.36	10033.88
456.54	10076.01
456.73	10017.49
456.91	10410.70
457.09	10499.64
457.28	10466.88
457.46	10338.15
457.64	10436.45
457.83	10345.17
458.01	10427.09
458.19	10656.46
458.38	10539.43
458.56	10541.77
458.74	10822.64
458.93	10705.61
459.11	10745.40
459.29	10867.11
459.48	10689.23
459.66	10714.97
459.84	10848.38
460.03	10977.11
460.21	10827.32
460.39	10839.02
460.57	10773.49
460.76	11283.72
460.94	11087.12
461.12	11101.16
461.31	11169.04
461.49	11169.04
461.67	11265.00
461.85	11314.15
462.04	11164.36
462.22	11768.21
462.40	11508.41
462.59	11529.48
462.77	11337.56
462.95	11587.99
463.13	11442.88
463.32	11403.09
463.50	11585.65
463.68	11609.06
463.86	11918.01
464.05	11375.00
464.23	11646.51
464.41	11910.99
464.59	11494.37
464.78	12147.38
464.96	12133.34
465.14	11597.35
465.32	11981.20
465.50	12016.31
465.69	12018.65
465.87	11960.14
466.05	11857.15
466.23	11829.07
466.41	12079.50
466.60	12524.21
466.78	12161.42
466.96	12187.17
467.14	11960.14
467.32	12294.83
467.51	12374.41
467.69	11894.60
467.87	12430.59
468.05	12489.10
468.23	12390.80
468.41	12299.52
468.60	12711.45
468.78	12533.57
468.96	12299.52
469.14	12753.58
469.32	12992.31
469.50	12287.81
469.69	12678.68
469.87	12975.93
470.05	12961.89
470.23	12865.92
470.41	13121.04
470.59	13390.20
470.77	12910.40
470.95	13231.05
471.14	13577.45
471.32	13184.24
471.50	13284.88
471.68	13729.58
471.86	13558.72
472.04	13816.18
472.22	13912.14
472.40	13638.30
472.58	13729.58
472.77	13804.48
472.95	13905.12
473.13	14338.12
473.31	13975.34
473.49	14134.50
473.67	14083.00
473.85	14244.50
474.03	14452.81
474.21	14534.73
474.39	14640.05
474.57	14410.68
474.75	14700.90
474.93	14871.76
475.12	14817.93
475.30	14991.13
475.48	14981.77
475.66	15028.58
475.84	14918.57
476.02	15194.76
476.20	15255.61
476.38	15487.32
476.56	15936.71
476.74	15903.94
476.92	15740.10
477.10	15702.65
477.28	16163.74
477.46	16152.04
477.64	16224.59
477.82	16613.12
478.00	16919.73
478.18	16641.21
478.36	17174.85
478.54	16996.97
478.72	17224.00
478.90	17153.79
479.08	17214.64
479.26	17649.98
479.44	17748.28
479.62	17848.93
479.80	17771.69
479.98	17935.53
480.16	18476.19
480.34	18218.73
480.52	18380.23
480.70	18562.79
480.88	18232.77
481.06	18630.66
481.24	18476.19
481.41	18841.31
481.59	18906.85
481.77	19297.72
481.95	19278.99
482.13	19910.94
482.31	19440.49
482.49	20177.76
482.67	20262.02
482.85	20343.94
483.03	20348.62
483.21	20388.41
483.39	20926.73
483.57	20627.14
483.74	20877.58
483.92	21015.67
484.10	21249.72
484.28	21710.81
484.46	21696.77
484.64	22010.40
484.82	22183.60
485.00	22382.54
485.18	22452.76
485.35	22726.60
485.53	22710.22
485.71	23058.96
485.89	23154.92
486.07	23150.24
486.25	23274.29
486.43	23337.48
486.61	23686.22
486.78	23995.17
486.96	24016.24
487.14	24264.33
487.32	24362.64
487.50	24879.89
487.68	25149.06
487.85	25221.61
488.03	25312.89
488.21	25755.26
488.39	25605.46
488.57	25797.38
488.75	26057.18
488.92	26370.82
489.10	26611.89
489.28	26483.16
489.46	27391.29
489.64	26801.47
489.81	27400.65
489.99	27569.17
490.17	27571.51
490.35	28149.62
490.53	27721.30
490.70	28701.99
490.88	28435.17
491.06	28767.52
491.24	28582.62
491.41	28950.09
491.59	29200.52
491.77	29027.32
491.95	29469.69
492.13	29364.36
492.30	30155.46
492.48	30071.20
492.66	30520.59
492.84	30092.27
493.01	30239.72
493.19	30216.32
493.37	30663.36
493.54	30738.26
493.72	31023.80
493.90	31007.42
494.08	31772.77
494.25	31707.24
494.43	32037.25
494.61	31983.42
494.79	32173.00
494.96	32416.42
495.14	32606.00
495.32	32779.20
495.49	33010.92
495.67	32940.70
495.85	33439.23
496.02	33333.91
496.20	33851.17
496.38	34232.68
496.55	33579.67
496.73	34754.61
496.91	33984.58
497.09	34340.34
497.26	34401.19
497.44	34632.91
497.62	35131.44
497.79	35557.42
497.97	35541.03
498.14	35508.27
498.32	36048.93
498.50	35931.90
498.67	36079.36
498.85	36114.47
499.03	36456.18
499.20	36552.15
499.38	36788.54
499.56	36751.09
499.73	37017.91
499.91	37207.50
500.08	37539.85
500.26	37326.86
500.44	37195.79
500.61	37900.29
500.79	37930.72
500.97	37881.57
501.14	38052.43
501.32	38333.29
501.49	38422.23
501.67	38625.86
501.84	38515.86
502.02	38801.40
502.20	38380.10
502.37	38773.31
502.55	39166.52
502.72	39466.11
502.90	39194.61
503.07	38857.57
503.25	39110.35
503.43	39381.85
503.60	39817.19
503.78	39959.97
503.95	39615.91
504.13	40275.94
504.30	40062.95
504.48	40545.10
504.65	40645.74
504.83	40861.07
505.01	40975.76
505.18	40673.83
505.36	41034.27
505.53	40877.46
505.71	41392.37
505.88	41537.49
506.06	41228.54
506.23	41862.82
506.41	41570.25
506.58	41846.44
506.76	41907.29
506.93	42548.60
507.11	42045.38
507.28	42288.80
507.46	42513.49
507.63	42347.31
507.81	43178.20
507.98	42829.46
508.16	43026.07
508.33	42932.45
508.50	43248.42
508.68	43253.10
508.85	43655.67
509.03	43714.19
509.20	43913.13
509.38	44100.37
509.55	44229.10
509.73	44664.44
509.90	44259.53
510.08	44353.15
510.25	44521.67
510.42	44940.63
510.60	44460.82
510.77	45008.50
510.95	45155.96
511.12	45130.21
511.30	44828.28
511.47	45141.91
511.64	45233.19
511.82	45734.07
511.99	45497.67
512.17	45537.46
512.34	45830.03
512.51	46190.47
512.69	46073.45
512.86	45869.82
513.04	46543.89
513.21	46529.85
513.38	46361.33
513.56	46461.97
513.73	46550.91
513.90	46986.25
514.08	46579.00
514.25	46649.22
514.43	47035.41
514.60	47440.32
514.77	46864.55
514.95	47306.91
515.12	47370.10
515.29	47239.03
515.47	47814.80
515.64	47896.72
515.81	47852.25
515.99	48076.94
516.16	48278.23
516.33	48271.21
516.51	48741.66
516.68	48126.10
516.85	48348.45
517.03	48800.17
517.20	48409.30
517.37	48591.86
517.54	48697.19
517.72	48594.20
517.89	48926.56
518.06	49301.04
518.24	48779.10
518.41	49333.81
518.58	49015.50
518.75	48947.62
518.93	49263.60
519.10	49317.43
519.27	49448.50
519.45	49766.81
519.62	49815.96
519.79	49947.03
519.96	49865.11
520.14	49830.01
520.31	49790.22
520.48	49956.39
520.65	50050.02
520.83	50384.71
521.00	50206.83
521.17	50394.07
521.34	50684.30
521.52	50398.76
521.69	50651.53
521.86	50515.78
522.03	51007.29
522.20	51243.69
522.38	51246.03
522.55	50934.74
522.72	51070.49
522.89	51166.45
523.07	51601.79
523.24	51269.43
523.41	51700.09
523.58	51337.31
523.75	51721.16
523.92	51239.01
524.10	51819.46
524.27	51948.19
524.44	51751.59
524.61	52217.35
524.78	51980.96
524.96	52090.96
525.13	51861.59
525.30	52273.52
525.47	52547.37
525.64	52315.65
525.81	52711.20
525.98	52528.64
526.16	52404.59
526.33	52341.40
526.50	52949.94
526.67	52772.06
526.84	52910.15
527.01	52830.57
527.18	52474.81
527.36	52650.35
527.53	52926.53
527.70	53387.62
527.87	53017.82
528.04	52790.78
528.21	53263.57
528.38	52945.26
528.55	53104.41
528.72	52898.45
528.89	53326.77
529.07	53134.84
529.24	53048.24
529.41	53516.35
529.58	53741.04
529.75	53860.41
529.92	53404.00
530.09	53684.87
530.26	53652.10
530.43	53783.17
530.60	53633.38
530.77	53921.26
530.94	54181.06
531.11	53972.75
531.28	54066.38
531.46	54162.34
531.63	54052.33
531.80	54129.57
531.97	54342.56
532.14	54347.24
532.31	54185.74
532.48	54368.30
532.65	54578.95
532.82	54419.80
532.99	54691.30
533.16	54323.83
533.33	54805.98
533.50	54672.57
533.67	54387.03
533.84	54429.16
534.01	54595.34
534.18	54630.44
534.35	55061.10
534.52	54742.79
534.69	55033.02
534.86	55199.19
535.03	54880.88
535.20	55082.17
535.37	55194.51
535.54	55229.62
535.71	55040.04
535.88	55267.07
536.05	55128.98
536.22	55508.14
536.38	55576.02
536.55	55367.71
536.72	55339.63
536.89	55405.16
537.06	55540.91
537.23	55646.24
537.40	55360.69
537.57	55620.49
537.74	55634.53
537.91	55423.89
538.08	55760.92
538.25	55674.32
538.42	55810.07
538.59	55973.91
538.75	55934.12
538.92	56051.15
539.09	55828.80
539.26	55906.04
539.43	56030.08
539.60	56114.34
539.77	56261.80
539.94	56301.59
540.11	56240.73
540.28	56107.32
540.44	56289.88
540.61	56399.89
540.78	56329.67
540.95	56032.42
541.12	56217.33
541.29	56154.13
541.46	56296.91
541.62	56413.93
541.79	56456.06
541.96	56257.12
542.13	56322.65
542.30	56622.24
542.47	56411.59
542.63	56818.84
542.80	56713.52
542.97	56797.78
543.14	56875.02
543.31	56989.70
543.48	56975.66
543.64	57293.97
543.81	57097.37
543.98	56961.62
544.15	57382.91
544.32	57226.10
544.48	57364.19
544.65	57228.44
544.82	57237.80
544.99	57090.35
545.16	57338.44
545.32	57027.15
545.49	57439.09
545.66	57748.04
545.83	57523.35
546.00	57626.33
546.16	57411.00
546.33	57401.64
546.50	57471.85
546.67	57876.77
546.83	57364.19
547.00	57413.34
547.17	57436.75
547.34	57698.89
547.50	57867.40
547.67	57872.09
547.84	57989.11
548.00	57806.55
548.17	58005.50
548.34	57928.26
548.51	58047.63
548.67	58012.52
548.84	57862.72
549.01	57832.30
549.18	57848.68
549.34	57946.98
549.51	58117.84
549.68	58166.99
549.84	58199.76
550.01	58185.72
550.18	58117.84
550.34	58138.91
550.51	58171.67
550.68	58368.28
550.84	58103.80
551.01	58436.16
551.18	58337.85
551.34	58337.85
551.51	58391.68
551.68	58497.01
551.84	58557.86
552.01	58309.77
552.18	58621.06
552.34	58370.62
552.51	58454.88
552.68	58197.42
552.84	58555.52
553.01	58796.60
553.18	58667.87
553.34	58759.15
553.51	58630.42
553.67	58534.46
553.84	58777.87
554.01	58841.07
554.17	59042.35
554.34	58789.58
554.51	58817.66
554.67	58953.41
554.84	58897.24
555.00	58815.32
555.17	58862.13
555.33	59143.00
555.50	58698.30
555.67	58892.56
555.83	58838.73
556.00	58953.41
556.16	59119.59
556.33	59068.10
556.50	59185.13
556.66	59248.32
556.83	59166.40
556.99	59245.98
557.16	59299.81
557.32	59491.74
557.49	59552.59
557.65	59114.91
557.82	59290.45
557.98	59393.43
558.15	59381.73
558.32	59147.68
558.48	59358.33
558.65	59203.85
558.81	59388.75
558.98	59290.45
559.14	59531.53
559.31	59365.35
559.47	59470.67
559.64	59592.38
559.80	59444.93
559.97	59524.50
560.13	59573.66
560.30	59421.52
560.46	59798.35
560.63	59653.23
560.79	59765.58
560.96	59751.54
561.12	59564.29
561.29	59688.34
561.45	59718.77
561.61	59505.78
561.78	59667.28
561.94	59620.47
562.11	59592.38
562.27	59627.49
562.44	59716.43
562.60	59833.46
562.77	59856.86
562.93	59519.82
563.10	59945.80
563.26	59831.11
563.42	59927.08
563.59	59941.12
563.75	59969.21
563.92	60006.65
564.08	59676.64
564.24	60076.87
564.41	60135.38
564.57	60004.31
564.74	59831.11
564.90	60023.04
565.07	59938.78
565.23	60114.32
565.39	59990.27
565.56	60041.76
565.72	60128.36
565.88	60172.83
566.05	59898.99
566.21	59770.26
566.38	60037.08
566.54	60149.43
566.70	60250.07
566.87	60224.32
567.03	60048.78
567.19	60039.42
567.36	59976.23
567.52	60282.84
567.68	60390.50
567.85	60322.63
568.01	60264.11
568.17	60268.79
568.34	60392.84
568.50	60423.27
568.66	60285.18
568.83	60163.47
568.99	60357.74
569.15	60236.03
569.32	60308.58
569.48	60264.11
569.64	60348.37
569.81	60369.44
569.97	60182.19
570.13	60236.03
570.30	60154.11
570.46	60420.93
570.62	60275.82
570.78	60404.55
570.95	60441.99
571.11	60336.67
571.27	60413.91
571.43	60465.40
571.60	60519.23
571.76	60350.71
571.92	60526.25
572.09	60512.21
572.25	60505.19
572.41	60303.90
572.57	60491.15
572.74	60474.76
572.90	60547.32
573.06	60505.19
573.22	60383.48
573.38	60425.61
573.55	60666.69
573.71	60844.57
573.87	60439.65
574.03	60488.80
574.20	60596.47
574.36	60409.23
574.52	60530.93
574.68	60858.61
574.84	60530.93
575.01	60694.77
575.17	60690.09
575.33	60561.36
575.49	60388.16
575.65	60596.47
575.82	60619.88
575.98	60622.22
576.14	60715.84
576.30	60645.62
576.46	60654.98
576.62	60488.80
576.79	60575.40
576.95	60451.36
577.11	60596.47
577.27	60610.51
577.43	60762.65
577.59	60561.36
577.75	60718.18
577.92	60584.77
578.08	60463.06
578.24	60844.57
578.40	60970.96
578.56	60797.76
578.72	60692.43
578.88	60907.76
579.04	61059.90
579.21	60872.65
579.37	60877.33
579.53	60912.44
579.69	60432.63
579.85	60800.10
580.01	60568.38
580.17	60692.43
580.33	60767.33
580.49	60903.08
580.65	60804.78
580.82	60802.44
580.98	60603.49
581.14	60598.81
581.30	60870.31
581.46	60652.64
581.62	60673.71
581.78	60666.69
581.94	60919.46
582.10	60753.29
582.26	60825.84
582.42	60795.42
582.58	60769.67
582.74	60781.37
582.90	60725.20
583.06	60692.43
583.22	60514.55
583.38	60924.14
583.54	60828.18
583.70	60933.51
583.86	60753.29
584.02	60746.26
584.18	60886.70
584.34	60617.53
584.50	60736.90
584.66	60949.89
584.82	60746.26
584.98	60863.29
585.14	60898.40
585.30	60711.16
585.46	60914.78
585.62	60818.82
585.78	61183.94
585.94	60748.60
586.10	60767.33
586.26	61099.68
586.42	60828.18
586.58	60977.98
586.74	61073.94
586.90	60739.24
587.06	61036.49
587.22	61099.68
587.38	60865.63
587.54	61015.43
587.70	61062.24
587.86	60832.86
588.02	60954.57
588.18	61153.52
588.34	60844.57
588.49	61001.38
