SpectraSuite Data File
++++++++++++++++++++++++++++++++++++
Date: Fri Oct 25 10:47:05 EDT 2013
User: price-jones
Dark Spectrum Present: No
Reference Spectrum Present: No
Number of Sampled Component Spectra: 1
Spectrometers: USB2+H05261
Integration Time (usec): 100000 (USB2+H05261)
Spectra Averaged: 1 (USB2+H05261)
Boxcar Smoothing: 0 (USB2+H05261)
Correct for Electrical Dark: No (USB2+H05261)
Strobe/Lamp Enabled: No (USB2+H05261)
Correct for Detector Non-linearity: No (USB2+H05261)
Correct for Stray Light: No (USB2+H05261)
Number of Pixels in Processed Spectrum: 2048
>>>>>Begin Processed Spectral Data<<<<<
365.73	156.82
365.92	156.82
366.12	156.82
366.32	35.11
366.52	0.00
366.72	100.64
366.91	11.70
367.11	16.38
367.31	60.85
367.51	46.81
367.70	4.68
367.90	16.38
368.10	2.34
368.30	49.15
368.49	11.70
368.69	91.28
368.89	77.24
369.09	51.49
369.28	107.66
369.48	30.43
369.68	131.07
369.87	53.83
370.07	42.13
370.27	117.03
370.47	177.88
370.66	372.15
370.86	381.51
371.06	381.51
371.25	486.83
371.45	465.77
371.65	402.57
371.84	404.91
372.04	514.92
372.24	447.04
372.44	500.87
372.63	526.62
372.83	461.09
373.03	468.11
373.22	468.11
373.42	479.81
373.62	524.28
373.81	554.71
374.01	503.22
374.21	550.03
374.40	465.77
374.60	526.62
374.79	472.79
374.99	554.71
375.19	512.58
375.38	484.49
375.58	571.09
375.78	566.41
375.97	552.37
376.17	617.90
376.37	564.07
376.56	627.26
376.76	521.94
376.95	517.26
377.15	655.35
377.35	575.77
377.54	578.11
377.74	606.20
377.93	622.58
378.13	568.75
378.33	624.92
378.52	568.75
378.72	741.95
378.91	608.54
379.11	725.57
379.31	575.77
379.50	554.71
379.70	674.07
379.89	690.46
380.09	631.94
380.28	645.99
380.48	667.05
380.68	592.16
380.87	629.60
381.07	657.69
381.26	699.82
381.46	746.63
381.65	660.03
381.85	645.99
382.04	669.39
382.24	629.60
382.43	755.99
382.63	641.31
382.83	723.23
383.02	777.06
383.22	709.18
383.41	650.67
383.61	730.25
383.80	772.38
384.00	727.91
384.19	753.65
384.39	720.88
384.58	732.59
384.78	800.46
384.97	791.10
385.17	791.10
385.36	758.33
385.56	777.06
385.75	657.69
385.95	760.67
386.14	798.12
386.34	802.80
386.53	854.30
386.72	795.78
386.92	894.08
387.11	873.02
387.31	770.04
387.50	833.23
387.70	770.04
387.89	788.76
388.09	774.72
388.28	863.66
388.48	777.06
388.67	816.85
388.86	875.36
389.06	805.14
389.25	931.53
389.45	903.45
389.64	903.45
389.84	898.77
390.03	931.53
390.22	922.17
390.42	945.58
390.61	912.81
390.81	924.51
391.00	908.13
391.19	910.47
391.39	1039.20
391.58	938.55
391.78	1053.24
391.97	1046.22
392.16	849.61
392.36	987.71
392.55	1015.79
392.75	940.90
392.94	994.73
393.13	1032.18
393.33	985.37
393.52	1001.75
393.71	992.39
393.91	1057.92
394.10	950.26
394.29	1139.84
394.49	1102.39
394.68	1142.18
394.88	997.07
395.07	1137.50
395.26	1111.75
395.46	1156.22
395.65	1224.10
395.84	1137.50
396.04	1196.01
396.23	1109.41
396.42	1170.27
396.62	1188.99
396.81	1137.50
397.00	1160.91
397.19	1224.10
397.39	1247.51
397.58	1263.89
397.77	1259.21
397.97	1308.36
398.16	1331.76
398.35	1324.74
398.55	1343.47
398.74	1320.06
398.93	1352.83
399.12	1371.55
399.32	1350.49
399.51	1369.21
399.70	1385.60
399.90	1401.98
400.09	1434.75
400.28	1458.15
400.47	1420.71
400.67	1465.18
400.86	1432.41
401.05	1507.30
401.24	1530.71
401.44	1469.86
401.63	1533.05
401.82	1643.06
402.01	1519.01
402.21	1645.40
402.40	1472.20
402.59	1629.01
402.78	1572.84
402.97	1591.56
403.17	1509.65
403.36	1624.33
403.55	1584.54
403.74	1600.93
403.93	1614.97
404.13	1614.97
404.32	1710.93
404.51	1643.06
404.70	1706.25
404.89	1708.59
405.09	1717.95
405.28	1816.26
405.47	1783.49
405.66	1834.98
405.85	1888.81
406.05	1757.74
406.24	1816.26
406.43	1832.64
406.62	1811.57
406.81	1916.90
407.00	1912.22
407.20	1813.92
407.39	1912.22
407.58	1820.94
407.77	1884.13
407.96	1952.01
408.15	1987.11
408.34	1968.39
408.54	1942.64
408.73	2078.40
408.92	2104.14
409.11	2024.56
409.30	2139.25
409.49	2045.63
409.68	2066.69
409.87	2073.71
410.07	2104.14
410.26	2237.55
410.45	2104.14
410.64	2155.63
410.83	2275.00
411.02	2211.81
411.21	2342.88
411.40	2359.26
411.59	2359.26
411.78	2272.66
411.98	2244.57
412.17	2483.31
412.36	2415.43
412.55	2462.24
412.74	2485.65
412.93	2424.80
413.12	2525.44
413.31	2588.63
413.50	2562.89
413.69	2590.97
413.88	2626.08
414.07	2600.34
414.26	2621.40
414.45	2677.57
414.64	2633.10
414.83	2747.79
415.02	2684.59
415.22	2731.41
415.41	2871.84
415.60	2724.38
415.79	2820.35
415.98	2876.52
416.17	2822.69
416.36	2864.82
416.55	2885.88
416.74	2956.10
416.93	2930.35
417.12	3070.78
417.31	3000.57
417.50	3035.67
417.69	3183.13
417.88	3082.49
418.07	3248.66
418.26	3049.72
418.45	3220.58
418.64	3243.98
418.83	3253.34
419.02	3258.03
419.21	3297.81
419.39	3234.62
419.58	3258.03
419.77	3346.97
419.96	3283.77
420.15	3400.80
420.34	3307.18
420.53	3332.92
420.72	3342.28
420.91	3520.17
421.10	3400.80
421.29	3489.74
421.48	3339.94
421.67	3569.32
421.86	3410.16
422.05	3410.16
422.24	3449.95
422.43	3510.80
422.61	3398.46
422.80	3531.87
422.99	3562.30
423.18	3616.13
423.37	3641.87
423.56	3506.12
423.75	3590.38
423.94	3438.25
424.13	3332.92
424.32	3454.63
424.50	3590.38
424.69	3705.07
424.88	3618.47
425.07	3679.32
425.26	3494.42
425.45	3574.00
425.64	3524.85
425.83	3588.04
426.01	3845.50
426.20	3681.66
426.39	3648.90
426.58	3644.21
426.77	3541.23
426.96	3620.81
427.15	3695.71
427.33	3714.43
427.52	3637.19
427.71	3772.94
427.90	3658.26
428.09	3730.81
428.28	3815.07
428.46	3915.72
428.65	3754.22
428.84	3943.80
429.03	3943.80
429.22	3684.00
429.40	3794.01
429.59	3700.39
429.78	3672.30
429.97	3597.40
430.16	3784.65
430.34	3978.91
430.53	3985.93
430.72	3911.04
430.91	3983.59
431.10	3955.51
431.28	3992.95
431.47	4212.96
431.66	4152.11
431.85	4117.00
432.03	4217.65
432.22	4262.12
432.41	4346.37
432.60	4367.44
432.79	4166.15
432.97	4215.30
433.16	4248.07
433.35	4100.62
433.54	4229.35
433.72	4285.52
433.91	4339.35
434.10	4496.17
434.28	4456.38
434.47	4454.04
434.66	4315.95
434.85	4535.96
435.03	4496.17
435.22	4255.09
435.41	4739.58
435.59	4582.77
435.78	4454.04
435.97	4601.49
436.16	4753.63
436.34	4652.98
436.53	4561.70
436.72	4648.30
436.90	4571.07
437.09	4828.53
437.28	4685.75
437.46	4725.54
437.65	4793.42
437.84	4781.71
438.02	4702.14
438.21	4800.44
438.40	4645.96
438.58	4861.29
438.77	5093.01
438.96	4875.34
439.14	5093.01
439.33	5102.37
439.52	5032.15
439.70	5102.37
439.89	5186.63
440.08	5270.89
440.26	5231.10
440.45	5294.29
440.63	5301.31
440.82	5385.57
441.01	5217.05
441.19	5401.96
441.38	5518.98
441.57	5462.81
441.75	5638.35
441.94	5762.40
442.12	5540.05
442.31	5659.42
442.50	5680.48
442.68	5659.42
442.87	5785.80
443.05	5778.78
443.24	5900.49
443.43	5820.91
443.61	5809.21
443.80	5954.32
443.98	5755.38
444.17	5650.05
444.35	5891.13
444.54	6033.90
444.73	5975.39
444.91	5907.51
445.10	5813.89
445.28	5926.24
445.47	5865.38
445.65	5795.17
445.84	6029.22
446.02	6008.16
446.21	6008.16
446.39	6066.67
446.58	6164.97
446.77	5977.73
446.95	6059.65
447.14	6010.50
447.32	6183.70
447.51	6232.85
447.69	6111.14
447.88	6061.99
448.06	6078.37
448.25	6083.05
448.43	6122.84
448.62	6085.39
448.80	6087.73
448.99	6134.54
449.17	6251.57
449.36	6097.10
449.54	6286.68
449.73	6492.65
449.91	6455.20
450.10	6478.60
450.28	6450.52
450.46	6471.58
450.65	6583.93
450.83	6436.47
451.02	6483.28
451.20	6609.67
451.39	6600.31
451.57	6583.93
451.76	6349.87
451.94	6492.65
452.13	6640.10
452.31	6558.18
452.49	6436.47
452.68	6525.41
452.86	6574.56
453.05	6668.19
453.23	6670.53
453.42	6698.61
453.60	6782.87
453.78	6820.32
453.97	6628.40
454.15	6799.26
454.34	6686.91
454.52	6729.04
454.70	6836.70
454.89	6619.04
455.07	6691.59
455.26	6670.53
455.44	7005.22
455.62	7019.27
455.81	6981.82
455.99	7094.16
456.17	6932.67
456.36	6977.14
456.54	7115.23
456.73	7386.73
456.91	7255.66
457.09	7286.09
457.28	7531.84
457.46	7267.36
457.64	7424.18
457.83	7414.82
458.01	7534.18
458.19	7407.80
458.38	7456.95
458.56	7461.63
458.74	7468.65
458.93	7400.77
459.11	7517.80
459.29	7655.89
459.48	7555.25
459.66	7698.02
459.84	7630.15
460.03	7611.42
460.21	7747.17
460.39	7688.66
460.57	7735.47
460.76	7707.38
460.94	7815.05
461.12	7761.22
461.31	7922.71
461.49	7714.41
461.67	7702.70
461.85	7885.26
462.04	8037.40
462.22	8446.99
462.40	8046.76
462.59	8166.13
462.77	7967.18
462.95	8175.49
463.13	7864.20
463.32	8166.13
463.50	8332.31
463.68	8348.69
463.86	8248.05
464.05	8009.31
464.23	8074.85
464.41	8243.37
464.59	8074.85
464.78	8379.12
464.96	8360.39
465.14	8336.99
465.32	8421.25
465.50	8374.44
465.69	8500.83
465.87	8327.63
466.05	8414.23
466.23	8409.54
466.41	8557.00
466.60	8676.37
466.78	8475.08
466.96	8498.49
467.14	8650.62
467.32	8575.72
467.51	8638.92
467.69	8369.76
467.87	8564.02
468.05	8608.49
468.23	8641.26
468.41	8746.58
468.60	8730.20
468.78	9083.62
468.96	8926.80
469.14	8901.06
469.32	9004.04
469.50	8847.22
469.69	9142.13
469.87	8940.85
470.05	9245.12
470.23	9018.08
470.41	9008.72
470.59	9142.13
470.77	9165.54
470.95	9219.37
471.14	9444.06
471.32	9242.78
471.50	9525.98
471.68	9444.06
471.86	9423.00
472.04	9320.01
472.22	9628.96
472.40	9291.93
472.58	9418.32
472.77	9668.75
472.95	9582.15
473.13	10029.20
473.31	9497.89
473.49	9853.66
473.67	9610.24
473.85	9668.75
474.03	9884.08
474.21	9846.63
474.39	10139.20
474.57	10200.05
474.75	10061.96
474.93	10274.95
475.12	10078.35
475.30	10401.34
475.48	10427.09
475.66	10483.26
475.84	10150.90
476.02	10291.34
476.20	10541.77
476.38	10658.80
476.56	10892.85
476.74	10768.80
476.92	10658.80
477.10	10874.13
477.28	11054.35
477.46	10965.41
477.64	11337.56
477.82	11101.16
478.00	11473.31
478.18	11438.20
478.36	11749.49
478.54	11798.64
478.72	11585.65
478.90	11826.73
479.08	11969.50
479.26	12086.53
479.44	12093.55
479.62	12175.47
479.80	12266.75
479.98	12084.19
480.16	12751.24
480.34	12446.97
480.52	12828.48
480.70	12500.80
480.88	12524.21
481.06	12849.54
481.24	12812.09
481.41	12971.25
481.59	13160.83
481.77	13312.97
481.95	13249.77
482.13	13561.06
482.31	13238.07
482.49	13413.61
482.67	13584.47
482.85	13797.46
483.03	13736.60
483.21	13886.40
483.39	14150.88
483.57	14075.98
483.74	14356.85
483.92	14670.48
484.10	14469.19
484.28	14621.33
484.46	14923.26
484.64	14855.38
484.82	14888.15
485.00	15084.75
485.18	15260.29
485.35	15367.96
485.53	15126.88
485.71	14951.34
485.89	15681.59
486.07	15562.22
486.25	15548.18
486.43	15564.56
486.61	15822.02
486.78	16053.73
486.96	16107.57
487.14	16341.62
487.32	16332.26
487.50	16559.29
487.68	16594.40
487.85	17046.12
488.03	17284.86
488.21	17055.48
488.39	17193.58
488.57	17390.18
488.75	17415.93
488.92	17436.99
489.10	17926.16
489.28	18223.41
489.46	18120.43
489.64	18012.76
489.81	18298.31
489.99	18780.46
490.17	18551.09
490.35	18820.25
490.53	18689.18
490.70	19288.35
490.88	19161.97
491.06	19236.86
491.24	19379.64
491.41	19234.52
491.59	19346.87
491.77	19536.45
491.95	19737.74
492.13	19873.49
492.30	20306.49
492.48	20098.18
492.66	20250.32
492.84	19903.92
493.01	20624.80
493.19	20666.93
493.37	20617.78
493.54	20706.72
493.72	20753.53
493.90	20870.56
494.08	20926.73
494.25	21263.77
494.43	21273.13
494.61	21544.63
494.79	21802.09
494.96	21635.91
495.14	21596.12
495.32	21928.48
495.49	22153.17
495.67	22017.42
495.85	22518.29
496.02	22368.50
496.20	22670.43
496.38	22731.28
496.55	22628.30
496.73	23316.42
496.91	23026.19
497.09	23239.18
497.26	23461.53
497.44	23234.50
497.62	23063.64
497.79	23653.45
497.97	23480.25
498.14	23770.48
498.32	24067.73
498.50	23915.59
498.67	24278.38
498.85	24116.88
499.03	24395.40
499.20	24528.81
499.38	24437.53
499.56	24559.24
499.73	24444.56
499.91	24669.25
500.08	24851.81
500.26	24741.80
500.44	25160.76
500.61	25149.06
500.79	25142.03
500.97	25130.33
501.14	25277.79
501.32	25230.98
501.49	25502.48
501.67	25575.03
501.84	25804.41
502.02	25682.70
502.20	26043.14
502.37	25982.29
502.55	26125.06
502.72	25879.30
502.90	26169.53
503.07	26010.37
503.25	26298.26
503.43	26169.53
503.60	26312.30
503.78	26375.50
503.95	26387.20
504.13	26419.97
504.30	27021.48
504.48	26965.31
504.65	27166.60
504.83	27316.39
505.01	27145.53
505.18	26857.65
505.36	27367.88
505.53	27391.29
505.71	27414.69
505.88	27608.96
506.06	27461.51
506.23	27744.71
506.41	27611.30
506.58	28091.11
506.76	28189.41
506.93	28173.03
507.11	27992.81
507.28	28226.86
507.46	27831.31
507.63	27978.76
507.81	28617.73
507.98	28250.27
508.16	28641.14
508.33	28765.18
508.50	28484.32
508.68	28886.89
508.85	29301.17
509.03	29050.73
509.20	28830.72
509.38	29057.75
509.55	29516.50
509.73	29338.62
509.90	29338.62
510.08	29312.87
510.25	29481.39
510.42	29589.05
510.60	29675.65
510.77	29888.64
510.95	30080.56
511.12	30073.54
511.30	30328.66
511.47	30066.52
511.64	30326.32
511.82	30536.97
511.99	30169.51
512.17	30340.36
512.34	30618.89
512.51	30508.88
512.69	30562.72
512.86	30771.02
513.04	31229.77
513.21	30745.28
513.38	31096.36
513.56	30969.97
513.73	30876.35
513.90	31028.48
514.08	31398.29
514.25	31264.88
514.43	31541.06
514.60	31145.51
514.77	31367.86
514.95	31309.35
515.12	31793.84
515.29	31552.76
515.47	31934.27
515.64	32133.21
515.81	31807.88
515.99	31810.22
516.16	32016.19
516.33	32041.93
516.51	32519.40
516.68	31761.07
516.85	31599.57
517.03	32250.24
517.20	31983.42
517.37	32793.25
517.54	32570.90
517.72	32472.59
517.89	32407.06
518.06	32779.20
518.24	32493.66
518.41	32793.25
518.58	32556.85
518.75	32320.46
518.93	33134.96
519.10	33113.90
519.27	33277.74
519.45	33209.86
519.62	33432.21
519.79	33270.72
519.96	33755.21
520.14	33684.99
520.31	33282.42
520.48	33787.97
520.65	33806.70
520.83	33858.19
521.00	34010.32
521.17	33998.62
521.34	33897.98
521.52	34366.09
521.69	34019.69
521.86	34300.55
522.03	34558.01
522.20	34550.99
522.38	34302.89
522.55	34562.69
522.72	34302.89
522.89	34609.50
523.07	34637.59
523.24	34485.45
523.41	34754.61
523.58	34377.79
523.75	35398.26
523.92	35122.08
524.10	35323.36
524.27	35215.70
524.44	35189.95
524.61	35501.25
524.78	35220.38
524.96	35419.33
525.13	35601.89
525.30	35866.37
525.47	35786.79
525.64	35686.15
525.81	35730.62
525.98	35952.97
526.16	35639.34
526.33	35400.60
526.50	35491.88
526.67	35477.84
526.84	35892.12
527.01	35318.68
527.18	35889.77
527.36	36360.22
527.53	36404.69
527.70	36833.01
527.87	36613.00
528.04	36495.97
528.21	36367.24
528.38	36304.05
528.55	36631.72
528.72	36907.91
528.89	36854.08
529.07	36580.23
529.24	36816.63
529.41	36833.01
529.58	36854.08
529.75	36947.70
529.92	37338.57
530.09	37010.89
530.26	37500.06
530.43	37376.01
530.60	36889.18
530.77	37074.09
530.94	37291.76
531.11	36935.99
531.28	37488.36
531.46	37593.68
531.63	37691.99
531.80	37823.06
531.97	37736.46
532.14	37614.75
532.31	37312.82
532.48	37668.58
532.65	38099.24
532.82	37701.35
532.99	37635.81
533.16	37556.24
533.33	37748.16
533.50	38157.75
533.67	38024.34
533.84	37961.15
534.01	38068.81
534.18	38209.25
534.35	38412.87
534.52	38600.12
534.69	38604.80
534.86	38401.17
535.03	38330.95
535.20	38560.33
535.37	39040.14
535.54	38841.19
535.71	38483.09
535.88	38471.39
536.05	39140.78
536.22	39384.19
536.38	39042.48
536.55	39115.03
536.72	38553.30
536.89	39201.63
537.06	39000.35
537.23	38958.22
537.40	38600.12
537.57	39012.05
537.74	38897.36
537.91	39299.94
538.08	39618.25
538.25	39166.52
538.42	39089.29
538.59	39225.04
538.75	39311.64
538.92	39831.24
539.09	39786.77
539.26	39683.78
539.43	39552.71
539.60	39037.80
539.77	39672.08
539.94	40013.80
540.11	39337.38
540.28	39920.18
540.44	40179.98
540.61	39739.96
540.78	39573.78
540.95	39772.72
541.12	39913.16
541.29	39557.39
541.46	39718.89
541.62	40231.47
541.79	40177.64
541.96	39442.71
542.13	39878.05
542.30	40751.07
542.47	40329.77
542.63	40198.70
542.80	40568.51
542.97	40863.41
543.14	41233.22
543.31	40858.73
543.48	40910.22
543.64	41186.41
543.81	40823.62
543.98	41315.14
544.15	40823.62
544.32	41277.69
544.48	41088.10
544.65	40844.69
544.82	41481.31
544.99	40884.48
545.16	41113.85
545.32	40685.53
545.49	41387.69
545.66	41495.36
545.83	41443.87
546.00	41523.44
546.16	41095.13
546.33	41247.26
546.50	40966.40
546.67	40926.61
546.83	41354.93
547.00	41827.71
547.17	41504.72
547.34	41308.11
547.50	41645.15
547.67	41858.14
547.84	41474.29
548.00	42045.38
548.17	41759.84
548.34	41429.82
548.51	42579.03
548.67	41909.63
548.84	41776.22
549.01	41813.67
549.18	42024.32
549.34	41993.89
549.51	42614.13
549.68	42260.71
549.84	42092.19
550.01	42316.89
550.18	42480.72
550.34	41916.65
550.51	41944.74
550.68	42106.24
550.84	42195.18
551.01	42415.19
551.18	42375.40
551.34	42511.15
551.51	42553.28
551.68	42586.05
551.84	42288.80
552.01	42244.33
552.18	42511.15
552.34	42288.80
552.51	42883.30
552.68	42586.05
552.84	42600.09
553.01	43161.82
553.18	42312.20
553.34	42745.20
553.51	42515.83
553.67	42930.11
553.84	43189.91
554.01	42944.15
554.17	43000.32
554.34	43255.44
554.51	42855.21
554.67	43161.82
554.84	43143.09
555.00	43318.64
555.17	43229.69
555.33	43264.80
555.50	43012.02
555.67	43171.18
555.83	42937.13
556.00	43515.24
556.16	43475.45
556.33	42972.24
556.50	43524.60
556.66	43423.96
556.83	43133.73
556.99	43515.24
557.16	43845.26
557.32	43241.40
557.49	43746.95
557.65	43175.86
557.82	43669.72
557.98	43461.41
558.15	43398.21
558.32	43777.38
558.48	43885.04
558.65	43564.39
558.81	43524.60
558.98	43892.07
559.14	43538.65
559.31	43770.36
559.47	43454.39
559.64	43962.28
559.80	43936.54
559.97	43906.11
560.13	43658.01
560.30	43569.07
560.46	43899.09
560.63	43686.10
560.79	44210.38
560.96	44011.43
561.12	43522.26
561.29	44196.34
561.45	43562.05
561.61	43868.66
561.78	44081.65
561.94	43531.62
562.11	44093.35
562.27	44304.00
562.44	44147.18
562.60	43971.64
562.77	44409.32
562.93	43768.02
563.10	44311.02
563.26	43466.09
563.42	44076.97
563.59	44062.93
563.75	44158.89
563.92	44811.90
564.08	44280.60
564.24	44500.61
564.41	44205.70
564.57	43922.49
564.74	44311.02
564.90	43976.33
565.07	44222.08
565.23	44133.14
565.39	44186.97
565.56	44568.48
565.72	44093.35
565.88	44210.38
566.05	44065.27
566.21	44559.12
566.38	44170.59
566.54	44465.50
566.70	44783.81
566.87	44624.65
567.03	44612.95
567.19	44552.10
567.36	44884.45
567.52	44655.08
567.68	44341.45
567.85	44163.57
568.01	44811.90
568.17	44369.54
568.34	44542.74
568.50	44360.17
568.66	44423.37
568.83	44425.71
568.99	44521.67
569.15	44186.97
569.32	44196.34
569.48	44409.32
569.64	44636.36
569.81	44446.77
569.97	44554.44
570.13	44617.63
570.30	44280.60
570.46	44467.84
570.62	44095.69
570.78	44540.39
570.95	44287.62
571.11	45083.40
571.27	44767.43
571.43	44355.49
571.60	44392.94
571.76	44638.70
571.92	44423.37
572.09	44603.59
572.25	44343.79
572.41	44589.55
572.57	45261.28
572.74	44865.73
572.90	44669.12
573.06	44788.49
573.22	44790.83
573.38	44856.37
573.55	44058.24
573.71	45118.51
573.87	44460.82
574.03	44758.06
574.20	44554.44
574.36	44584.86
574.52	44823.60
574.68	45085.74
574.84	44830.62
575.01	44718.28
575.17	44875.09
575.33	44734.66
575.49	44697.21
575.65	45165.32
575.82	45464.91
575.98	44903.18
576.14	45254.26
576.30	44610.61
576.46	44704.23
576.62	44229.10
576.79	44626.99
576.95	44250.17
577.11	45071.70
577.27	44720.62
577.43	44720.62
577.59	45359.58
577.75	44772.11
577.92	44264.21
578.08	44252.51
578.24	44634.02
578.40	44610.61
578.56	44996.80
578.72	44928.92
578.88	45102.12
579.04	45083.40
579.21	44849.35
579.37	44589.55
579.53	44488.90
579.69	44685.51
579.85	44477.20
580.01	44903.18
580.17	45455.54
580.33	45013.18
580.49	44521.67
580.65	44751.04
580.82	44870.41
580.98	45029.57
581.14	44694.87
581.30	44706.57
581.46	44797.85
581.62	44893.82
581.78	45048.29
581.94	45542.14
582.10	45263.62
582.26	44985.10
582.42	44949.99
582.58	45102.12
582.74	45111.49
582.90	45048.29
583.06	45336.18
583.22	44921.90
583.38	45170.00
583.54	44786.15
583.70	44371.88
583.86	44577.84
584.02	44584.86
584.18	44830.62
584.34	45062.33
584.50	45043.61
584.66	44814.24
584.82	44648.06
584.98	45184.04
585.14	45099.78
585.30	44765.09
585.46	45235.53
585.62	44849.35
585.78	44720.62
585.94	44292.30
586.10	45191.06
586.26	44800.19
586.42	45244.90
586.58	45401.71
586.74	45186.38
586.90	45017.86
587.06	44849.35
587.22	45179.36
587.38	44598.91
587.54	45392.35
587.70	45404.05
587.86	45076.38
588.02	45132.55
588.18	45446.18
588.34	44816.58
588.49	44727.64
588.65	44559.12
588.81	44610.61
588.97	44741.68
589.13	44657.42
589.29	44825.94
589.45	45111.49
589.61	44861.05
589.77	45373.63
589.93	45329.16
590.08	45027.23
590.24	45045.95
