SpectraSuite Data File
++++++++++++++++++++++++++++++++++++
Date: Fri Oct 25 11:34:38 EDT 2013
User: price-jones
Dark Spectrum Present: No
Reference Spectrum Present: No
Number of Sampled Component Spectra: 1
Spectrometers: USB2+H05261
Integration Time (usec): 100000 (USB2+H05261)
Spectra Averaged: 1 (USB2+H05261)
Boxcar Smoothing: 0 (USB2+H05261)
Correct for Electrical Dark: No (USB2+H05261)
Strobe/Lamp Enabled: No (USB2+H05261)
Correct for Detector Non-linearity: No (USB2+H05261)
Correct for Stray Light: No (USB2+H05261)
Number of Pixels in Processed Spectrum: 2048
>>>>>Begin Processed Spectral Data<<<<<
365.73	187.24
365.92	187.24
366.12	187.24
366.32	187.24
366.52	147.45
366.72	189.58
366.91	210.65
367.11	93.62
367.31	234.05
367.51	107.66
367.70	224.69
367.90	191.92
368.10	245.76
368.30	201.29
368.49	173.20
368.69	250.44
368.89	187.24
369.09	191.92
369.28	184.90
369.48	208.31
369.68	301.93
369.87	234.05
370.07	273.84
370.27	250.44
370.47	287.89
370.66	386.19
370.86	503.22
371.06	451.72
371.25	517.26
371.45	578.11
371.65	580.45
371.84	521.94
372.04	440.02
372.24	594.50
372.44	519.60
372.63	587.47
372.83	580.45
373.03	573.43
373.22	594.50
373.42	636.63
373.62	631.94
373.81	617.90
374.01	660.03
374.21	662.37
374.40	636.63
374.60	716.20
374.79	730.25
374.99	610.88
375.19	671.73
375.38	631.94
375.58	571.09
375.78	664.71
375.97	702.16
376.17	674.07
376.37	645.99
376.56	692.80
376.76	730.25
376.95	709.18
377.15	645.99
377.35	671.73
377.54	734.93
377.74	748.97
377.93	674.07
378.13	688.12
378.33	723.23
378.52	741.95
378.72	709.18
378.91	685.78
379.11	702.16
379.31	685.78
379.50	702.16
379.70	739.61
379.89	681.10
380.09	723.23
380.28	770.04
380.48	800.46
380.68	692.80
380.87	755.99
381.07	706.84
381.26	765.36
381.46	748.97
381.65	758.33
381.85	699.82
382.04	716.20
382.24	739.61
382.43	718.54
382.63	685.78
382.83	744.29
383.02	849.61
383.22	777.06
383.41	779.40
383.61	858.98
383.80	821.53
384.00	802.80
384.19	819.19
384.39	821.53
384.58	788.76
384.78	763.01
384.97	842.59
385.17	816.85
385.36	854.30
385.56	711.52
385.75	767.70
385.95	861.32
386.14	866.00
386.34	891.74
386.53	840.25
386.72	875.36
386.92	950.26
387.11	891.74
387.31	760.67
387.50	828.55
387.70	887.06
387.89	861.32
388.09	1004.09
388.28	910.47
388.48	910.47
388.67	894.08
388.86	957.28
389.06	870.68
389.25	961.96
389.45	917.49
389.64	873.02
389.84	929.19
390.03	950.26
390.22	978.34
390.42	940.90
390.61	922.17
390.81	938.55
391.00	915.15
391.19	983.02
391.39	938.55
391.58	1011.11
391.78	929.19
391.97	1004.09
392.16	971.32
392.36	1006.43
392.55	1107.07
392.75	947.92
392.94	1008.77
393.13	1018.13
393.33	994.73
393.52	1069.62
393.71	1048.56
393.91	987.71
394.10	1081.33
394.29	1100.05
394.49	1062.60
394.68	1111.75
394.88	1083.67
395.07	1135.16
395.26	1043.88
395.46	1093.03
395.65	1109.41
395.84	1198.35
396.04	1123.46
396.23	1172.61
396.42	1128.14
396.62	1109.41
396.81	1256.87
397.00	1137.50
397.19	1196.01
397.39	1128.14
397.58	1207.72
397.77	1205.38
397.97	1217.08
398.16	1184.31
398.35	1259.21
398.55	1177.29
398.74	1277.93
398.93	1373.89
399.12	1242.82
399.32	1231.12
399.51	1322.40
399.70	1296.66
399.90	1212.40
400.09	1287.29
400.28	1387.94
400.47	1345.81
400.67	1380.92
400.86	1203.04
401.05	1453.47
401.24	1371.55
401.44	1317.72
401.63	1378.58
401.82	1404.32
402.01	1371.55
402.21	1434.75
402.40	1404.32
402.59	1458.15
402.78	1460.49
402.97	1462.83
403.17	1404.32
403.36	1406.66
403.55	1444.11
403.74	1516.67
403.93	1526.03
404.13	1504.96
404.32	1544.75
404.51	1537.73
404.70	1514.33
404.89	1579.86
405.09	1614.97
405.28	1701.57
405.47	1626.67
405.66	1636.03
405.85	1682.85
406.05	1497.94
406.24	1673.48
406.43	1687.53
406.62	1699.23
406.81	1750.72
407.00	1685.19
407.20	1710.93
407.39	1696.89
407.58	1764.76
407.77	1764.76
407.96	1834.98
408.15	1858.39
408.34	1739.02
408.54	1820.94
408.73	1804.55
408.92	1722.63
409.11	1851.36
409.30	1891.15
409.49	1898.17
409.68	1863.07
409.87	1900.52
410.07	1959.03
410.26	1984.77
410.45	1884.13
410.64	1935.62
410.83	2050.31
411.02	1942.64
411.21	2069.03
411.40	2001.16
411.59	2132.23
411.78	2024.56
411.98	2078.40
412.17	2069.03
412.36	2076.06
412.55	2085.42
412.74	2221.17
412.93	2242.23
413.12	2303.09
413.31	2328.83
413.50	2258.62
413.69	2373.30
413.88	2401.39
414.07	2373.30
414.26	2335.85
414.45	2406.07
414.64	2448.20
414.83	2499.69
415.02	2366.28
415.22	2600.34
415.41	2525.44
415.60	2588.63
415.79	2605.02
415.98	2605.02
416.17	2651.83
416.36	2633.10
416.55	2630.76
416.74	2572.25
416.93	2637.78
417.12	2757.15
417.31	2743.11
417.50	2822.69
417.69	2834.39
417.88	2822.69
418.07	2829.71
418.26	2764.17
418.45	2932.69
418.64	2972.48
418.83	2899.92
419.02	2967.80
419.21	2899.92
419.39	2913.97
419.58	2867.16
419.77	2885.88
419.96	2972.48
420.15	3007.59
420.34	3101.21
420.53	2963.12
420.72	3098.87
420.91	2984.18
421.10	3098.87
421.29	3068.44
421.48	3030.99
421.67	3047.38
421.86	3148.02
422.05	3009.93
422.24	3141.00
422.43	3124.62
422.61	3075.46
422.80	3232.28
422.99	3304.84
423.18	3206.53
423.37	3265.05
423.56	3361.01
423.75	3159.72
423.94	3211.22
424.13	3084.83
424.32	3028.65
424.50	3262.71
424.69	3239.30
424.88	3445.27
425.07	3143.34
425.26	3318.88
425.45	3236.96
425.64	3300.16
425.83	3232.28
426.01	3330.58
426.20	3349.31
426.39	3501.44
426.58	3269.73
426.77	3281.43
426.96	3328.24
427.15	3321.22
427.33	3452.29
427.52	3435.91
427.71	3428.88
427.90	3279.09
428.09	3545.91
428.28	3559.95
428.46	3463.99
428.65	3590.38
428.84	3571.66
429.03	3627.83
429.22	3574.00
429.40	3623.15
429.59	3536.55
429.78	3445.27
429.97	3531.87
430.16	3672.30
430.34	3658.26
430.53	3852.52
430.72	3684.00
430.91	3765.92
431.10	3625.49
431.28	3712.09
431.47	3875.93
431.66	3836.14
431.85	3651.24
432.03	3936.78
432.22	3859.54
432.41	3974.23
432.60	3964.87
432.79	3915.72
432.97	3859.54
433.16	3918.06
433.35	3789.33
433.54	4009.34
433.72	4037.42
433.91	4117.00
434.10	3934.44
434.28	4044.45
434.47	4147.43
434.66	4133.39
434.85	4147.43
435.03	4131.05
435.22	4114.66
435.41	4301.90
435.59	4100.62
435.78	4088.92
435.97	4177.86
436.16	4145.09
436.34	4210.62
436.53	4170.83
436.72	4372.12
436.90	4133.39
437.09	4161.47
437.28	4248.07
437.46	4208.28
437.65	4217.65
437.84	4294.88
438.02	4379.14
438.21	4351.06
438.40	4372.12
438.58	4589.79
438.77	4650.64
438.96	4606.17
439.14	4732.56
439.33	4660.01
439.52	4603.83
439.70	4662.35
439.89	4903.42
440.08	4758.31
440.26	4854.27
440.45	4727.88
440.63	4816.82
440.82	4924.49
441.01	4931.51
441.19	4746.61
441.38	4938.53
441.57	5043.85
441.75	5078.96
441.94	5085.98
442.12	5123.43
442.31	5205.35
442.50	5214.71
442.68	5083.64
442.87	5219.39
443.05	5385.57
443.24	5376.21
443.43	5212.37
443.61	5240.46
443.80	5322.38
443.98	5207.69
444.17	5029.81
444.35	5301.31
444.54	5425.36
444.73	5350.46
444.91	5310.68
445.10	5437.06
445.28	5341.10
445.47	5369.19
445.65	5383.23
445.84	5495.58
446.02	5458.13
446.21	5387.91
446.39	5364.51
446.58	5547.07
446.77	5542.39
446.95	5383.23
447.14	5610.26
447.32	5479.19
447.51	5366.85
447.69	5404.30
447.88	5572.82
448.06	5462.81
448.25	5392.59
448.43	5533.03
448.62	5502.60
448.80	5556.43
448.99	5675.80
449.17	5636.01
449.36	5439.40
449.54	5603.24
449.73	5589.20
449.91	5900.49
450.10	5830.27
450.28	5888.79
450.46	5893.47
450.65	5858.36
450.83	5912.19
451.02	5788.14
451.20	5907.51
451.39	5713.25
451.57	6022.20
451.76	5694.52
451.94	5844.32
452.13	5914.53
452.31	5977.73
452.49	5839.64
452.68	5933.26
452.86	6010.50
453.05	5961.34
453.23	6038.58
453.42	5954.32
453.60	6087.73
453.78	6101.78
453.97	6179.01
454.15	6312.42
454.34	6099.44
454.52	6289.02
454.70	6321.79
454.89	6237.53
455.07	6167.31
455.26	6363.92
455.44	6377.96
455.62	6249.23
455.81	6384.98
455.99	6448.18
456.17	6338.17
456.36	6366.26
456.54	6621.38
456.73	6497.33
456.91	6743.08
457.09	6722.02
457.28	6731.38
457.46	6623.72
457.64	6658.82
457.83	6778.19
458.01	6630.74
458.19	6911.60
458.38	6686.91
458.56	6832.02
458.74	6750.10
458.93	6862.45
459.11	6869.47
459.29	6965.43
459.48	6862.45
459.66	6916.28
459.84	6855.43
460.03	7063.74
460.21	7030.97
460.39	6780.53
460.57	7108.21
460.76	7148.00
460.94	6991.18
461.12	7227.57
461.31	7112.89
461.49	6984.16
461.67	7126.93
461.85	7204.17
462.04	7309.49
462.22	7658.23
462.40	7398.43
462.59	7138.63
462.77	7339.92
462.95	7442.90
463.13	7529.50
463.32	7459.29
463.50	7440.56
463.68	7417.16
463.86	7573.97
464.05	7375.03
464.23	7356.30
464.41	7599.72
464.59	7527.16
464.78	7751.85
464.96	7531.84
465.14	7389.07
465.32	7611.42
465.50	7686.32
465.69	7658.23
465.87	7812.71
466.05	7651.21
466.23	7691.00
466.41	7775.26
466.60	7880.58
466.78	7733.13
466.96	7920.37
467.14	7878.24
467.32	7852.50
467.51	8037.40
467.69	7786.96
467.87	7939.10
468.05	7779.94
468.23	7908.67
468.41	7934.42
468.60	7901.65
468.78	8088.89
468.96	7925.05
469.14	8133.36
469.32	8063.15
469.50	8067.83
469.69	8002.29
469.87	8344.01
470.05	8210.60
470.23	8344.01
470.41	8334.65
470.59	8348.69
470.77	8402.52
470.95	8418.91
471.14	8496.14
471.32	8325.29
471.50	8603.81
471.68	8711.47
471.86	8683.39
472.04	8493.80
472.22	8954.89
472.40	8493.80
472.58	8615.51
472.77	8793.39
472.95	9088.30
473.13	9085.96
473.31	8793.39
473.49	8849.57
473.67	9006.38
473.85	9034.47
474.03	9153.84
474.21	9142.13
474.39	9376.19
474.57	9263.84
474.75	9329.38
474.93	9423.00
475.12	9352.78
475.30	9446.40
475.48	9533.00
475.66	9727.27
475.84	9523.64
476.02	9710.88
476.20	9659.39
476.38	9984.73
476.56	9837.27
476.74	10045.58
476.92	9825.57
477.10	9926.21
477.28	10090.05
477.46	10242.18
477.64	10391.98
477.82	10366.23
478.00	10724.33
478.18	10293.68
478.36	10686.89
478.54	10752.42
478.72	10979.45
478.90	10979.45
479.08	11073.07
479.26	11007.54
479.44	11335.21
479.62	11052.01
479.80	11145.63
479.98	11391.39
480.16	11620.76
480.34	11485.01
480.52	11461.60
480.70	11506.07
480.88	11552.88
481.06	11709.70
481.24	11880.56
481.41	11903.96
481.59	12109.93
481.77	12180.15
481.95	12049.08
482.13	12418.88
482.31	12435.27
482.49	12538.25
482.67	12648.26
482.85	12695.07
483.03	12765.28
483.21	13062.53
483.39	12964.23
483.57	13149.13
483.74	13123.38
483.92	13408.93
484.10	13041.46
484.28	13706.18
484.46	13797.46
484.64	13994.06
484.82	13642.98
485.00	13738.94
485.18	14059.60
485.35	14118.11
485.53	14321.74
485.71	14438.76
485.89	14754.74
486.07	14406.00
486.25	14501.96
486.43	14724.31
486.61	14761.76
486.78	15164.33
486.96	14618.99
487.14	15384.34
487.32	15428.81
487.50	15316.47
487.68	15571.58
487.85	15594.99
488.03	15864.15
488.21	15847.77
488.39	16208.21
488.57	16285.45
488.75	16217.57
488.92	16531.20
489.10	16718.45
489.28	16524.18
489.46	16716.11
489.64	16938.46
489.81	17064.85
489.99	17305.92
490.17	17537.63
490.35	17376.14
490.53	17427.63
490.70	17612.53
490.88	17530.61
491.06	17701.47
491.24	18101.70
491.41	17841.90
491.59	18157.88
491.77	18192.98
491.95	18438.74
492.13	18665.77
492.30	18677.48
492.48	18628.32
492.66	18937.27
492.84	18698.54
493.01	19290.70
493.19	19042.60
493.37	19208.78
493.54	19227.50
493.72	19721.35
493.90	19431.13
494.08	19580.92
494.25	19812.63
494.43	19885.19
494.61	19943.70
494.79	20130.95
494.96	20205.84
495.14	20336.91
495.32	20477.35
495.49	20198.82
495.67	20484.37
495.85	20664.59
496.02	20744.17
496.20	21238.02
496.38	21095.25
496.55	21174.83
496.73	21825.50
496.91	21603.14
497.09	21614.85
497.26	21811.45
497.44	21781.03
497.62	21689.74
497.79	22087.64
497.97	22054.87
498.14	22331.05
498.32	22443.40
498.50	22396.59
498.67	22794.48
498.85	22508.93
499.03	22932.57
499.20	23056.62
499.38	22941.93
499.56	22778.09
499.73	23082.36
499.91	23309.40
500.08	23101.09
500.26	23098.75
500.44	23704.95
500.61	23709.63
500.79	23269.61
500.97	23768.14
501.14	23864.10
501.32	23887.51
501.49	23859.42
501.67	23971.77
501.84	24072.41
502.02	24173.05
502.20	24224.54
502.37	24156.67
502.55	24507.75
502.72	24575.62
502.90	24395.40
503.07	24524.13
503.25	24636.48
503.43	24451.58
503.60	25010.96
503.78	24699.67
503.95	24900.96
504.13	24861.17
504.30	25160.76
504.48	25233.32
504.65	25408.86
504.83	25481.41
505.01	25745.89
505.18	25816.11
505.36	26015.05
505.53	25668.66
505.71	26150.81
505.88	26008.03
506.06	25661.63
506.23	26150.81
506.41	26057.18
506.58	26118.04
506.76	26143.78
506.93	26462.10
507.11	26281.88
507.28	26349.75
507.46	26888.07
507.63	26869.35
507.81	27133.83
507.98	26668.06
508.16	27190.00
508.33	26878.71
508.50	27360.86
508.68	26986.38
508.85	27545.76
509.03	27199.37
509.20	27487.25
509.38	27686.20
509.55	27477.89
509.73	27597.26
509.90	27882.80
510.08	27737.69
510.25	28161.33
510.42	27861.74
510.60	28271.33
510.77	28313.46
510.95	28393.04
511.12	28203.46
511.30	28463.25
511.47	28226.86
511.64	28425.81
511.82	28680.92
511.99	28666.88
512.17	28552.20
512.34	28849.44
512.51	28854.12
512.69	29134.99
512.86	28973.49
513.04	29343.30
513.21	29249.67
513.38	29228.61
513.56	29654.59
513.73	29418.19
513.90	29675.65
514.08	29675.65
514.25	29769.27
514.43	29661.61
514.60	29511.81
514.77	29982.26
514.95	30541.65
515.12	30101.63
515.29	30235.04
515.47	30579.10
515.64	30401.22
515.81	29937.79
515.99	30543.99
516.16	30878.69
516.33	30920.82
516.51	30693.79
516.68	30595.48
516.85	30850.60
517.03	31096.36
517.20	31152.53
517.37	30827.20
517.54	30955.93
517.72	31374.88
517.89	31122.10
518.06	31197.00
518.24	31789.16
518.41	31215.72
518.58	31068.27
518.75	31061.25
518.93	31639.36
519.10	31166.57
519.27	31700.22
519.45	31735.32
519.62	32102.79
519.79	32072.36
519.96	31838.31
520.14	32070.02
520.31	31552.76
520.48	32095.77
520.65	32116.83
520.83	32591.96
521.00	32678.56
521.17	32292.37
521.34	32547.49
521.52	32531.11
521.69	32837.72
521.86	33111.56
522.03	32856.44
522.20	33235.61
522.38	33055.39
522.55	33179.43
522.72	32666.86
522.89	33266.03
523.07	33371.36
523.24	33420.51
523.41	33624.14
523.58	33212.20
523.75	33233.27
523.92	33511.79
524.10	33326.89
524.27	34026.71
524.44	33689.67
524.61	34249.06
524.78	33776.27
524.96	34073.52
525.13	34015.01
525.30	34244.38
525.47	33996.28
525.64	34263.10
525.81	34476.09
525.98	34663.33
526.16	34312.25
526.33	34539.29
526.50	34756.96
526.67	34529.92
526.84	34527.58
527.01	34384.81
527.18	34686.74
527.36	34611.84
527.53	34213.95
527.70	35342.09
527.87	34801.43
528.04	34986.33
528.21	35007.39
528.38	35030.80
528.55	35248.47
528.72	35454.44
528.89	35304.64
529.07	35440.39
529.24	35187.61
529.41	35625.29
529.58	34862.28
529.75	35220.38
529.92	35306.98
530.09	35452.09
530.26	35562.10
530.43	36137.87
530.60	35580.82
530.77	35613.59
530.94	36046.59
531.11	35840.62
531.28	35887.43
531.46	36158.94
531.63	35903.82
531.80	36016.16
531.97	36282.98
532.14	36184.68
532.31	36023.19
532.48	36538.10
532.65	36451.50
532.82	36341.50
532.99	36779.18
533.16	36355.54
533.33	36442.14
533.50	36783.86
533.67	36730.03
533.84	36463.21
534.01	36957.06
534.18	36629.38
534.35	37034.30
534.52	37125.58
534.69	36856.42
534.86	37322.18
535.03	36987.49
535.20	37471.98
535.37	37172.39
535.54	37413.46
535.71	37099.83
535.88	37717.73
536.05	37532.83
536.22	37832.42
536.38	37628.79
536.55	37446.23
536.72	37750.50
536.89	37734.12
537.06	37724.75
537.23	37876.89
537.40	37797.31
537.57	37715.39
537.74	37900.29
537.91	37869.87
538.08	37940.08
538.25	37895.61
538.42	37895.61
538.59	38330.95
538.75	37972.85
538.92	38368.40
539.09	38513.52
539.26	38242.01
539.43	37986.89
539.60	38202.22
539.77	38426.92
539.94	39304.62
540.11	38639.90
540.28	38864.60
540.44	38890.34
540.61	38644.59
540.78	38532.24
540.95	38536.92
541.12	38618.84
541.29	38469.04
541.46	38534.58
541.62	38785.02
541.79	39061.20
541.96	38789.70
542.13	38937.15
542.30	38745.23
542.47	38930.13
542.63	39236.74
542.80	39395.90
542.97	39597.18
543.14	39697.83
543.31	39255.46
543.48	39407.60
543.64	39847.62
543.81	39974.01
543.98	39856.98
544.15	39966.99
544.32	40233.81
544.48	40144.87
544.65	39903.79
544.82	40034.86
544.99	39878.05
545.16	39924.86
545.32	40034.86
545.49	40664.47
545.66	40697.24
545.83	40196.36
546.00	40158.91
546.16	40589.57
546.33	40009.12
546.50	40048.91
546.67	40987.46
546.83	39964.65
547.00	40734.68
547.17	40065.29
547.34	40212.74
547.50	40910.22
547.67	40818.94
547.84	40746.39
548.00	41144.28
548.17	41378.33
548.34	40966.40
548.51	41277.69
548.67	40994.48
548.84	41027.25
549.01	40905.54
549.18	40872.78
549.34	40928.95
549.51	41486.00
549.68	40762.77
549.84	41151.30
550.01	41345.56
550.18	41104.49
550.34	41088.10
550.51	41024.91
550.68	41614.72
550.84	41148.96
551.01	41722.39
551.18	41099.81
551.34	41675.58
551.51	41598.34
551.68	41434.50
551.84	41443.87
552.01	41624.09
552.18	41757.50
552.34	41558.55
552.51	41752.82
552.68	41471.95
552.84	41907.29
553.01	41965.81
553.18	41911.97
553.34	41495.36
553.51	41511.74
553.67	42082.83
553.84	41998.57
554.01	42368.38
554.17	42129.64
554.34	42113.26
554.51	42384.76
554.67	42323.91
554.84	42487.74
555.00	42614.13
555.17	41617.07
555.33	42131.98
555.50	42520.51
555.67	42689.03
555.83	42307.52
556.00	42724.14
556.16	42569.66
556.33	42691.37
556.50	42749.88
556.66	42801.38
556.83	42473.70
556.99	42560.30
557.16	43016.71
557.32	42398.80
557.49	43082.24
557.65	42593.07
557.82	42658.60
557.98	42787.33
558.15	42452.64
558.32	42773.29
558.48	42679.67
558.65	43079.90
558.81	42693.71
558.98	42546.26
559.14	42733.50
559.31	43100.97
559.47	42646.90
559.64	42997.98
559.80	43138.41
559.97	43150.12
560.13	42848.19
560.30	43330.34
560.46	43082.24
560.63	43297.57
560.79	43143.09
560.96	43463.75
561.12	43299.91
561.29	43744.61
561.45	43042.45
561.61	43297.57
561.78	43119.69
561.94	43372.47
562.11	43325.66
562.27	43543.33
562.44	43042.45
562.60	43461.41
562.77	43587.80
562.93	43833.55
563.10	43636.95
563.26	43566.73
563.42	43639.29
563.59	43360.76
563.75	43463.75
563.92	43639.29
564.08	43302.25
564.24	43618.22
564.41	43702.48
564.57	44002.07
564.74	43709.50
564.90	43662.69
565.07	43540.99
565.23	43381.83
565.39	43412.26
565.56	44215.06
565.72	43931.86
565.88	44428.05
566.05	43990.37
566.21	43625.25
566.38	43772.70
566.54	43861.64
566.70	44198.68
566.87	43878.02
567.03	44020.80
567.19	44147.18
567.36	43859.30
567.52	43690.78
567.68	44002.07
567.85	44100.37
568.01	44215.06
568.17	44210.38
568.34	44449.11
568.50	43803.13
568.66	44093.35
568.83	44004.41
568.99	43978.67
569.15	44086.33
569.32	44179.95
569.48	44247.83
569.64	44271.23
569.81	44472.52
569.97	44474.86
570.13	44322.72
570.30	44006.75
570.46	44243.15
570.62	44168.25
570.78	44619.97
570.95	44184.63
571.11	44304.00
571.27	44247.83
571.43	44376.56
571.60	44243.15
571.76	44252.51
571.92	44116.76
572.09	44285.28
572.25	44509.97
572.41	44353.15
572.57	44524.01
572.74	44816.58
572.90	44533.37
573.06	44280.60
573.22	44935.95
573.38	44409.32
573.55	44313.36
573.71	44638.70
573.87	44547.42
574.03	44837.64
574.20	44758.06
574.36	44343.79
574.52	44397.62
574.68	44519.33
574.84	44722.96
575.01	44748.70
575.17	44919.56
575.33	44844.66
575.49	44545.08
575.65	44854.03
575.82	44748.70
575.98	44591.89
576.14	45069.36
576.30	44884.45
576.46	44645.72
576.62	44619.97
576.79	44603.59
576.95	44130.80
577.11	44737.00
577.27	44949.99
577.43	44641.04
577.59	44769.77
577.75	44666.78
577.92	44294.64
578.08	44605.93
578.24	45010.84
578.40	44779.13
578.56	44844.66
578.72	45059.99
578.88	44580.18
579.04	44884.45
579.21	44842.32
579.37	44877.43
579.53	45230.85
579.69	44744.02
579.85	44655.08
580.01	44870.41
580.17	44849.35
580.33	44659.76
580.49	45062.33
580.65	44545.08
580.82	44980.42
580.98	44617.63
581.14	44301.66
581.30	45031.91
581.46	44491.24
581.62	44947.65
581.78	44781.47
581.94	44952.33
582.10	44741.68
582.26	44996.80
582.42	44636.36
582.58	44973.39
582.74	44886.79
582.90	45488.31
583.06	45195.74
583.22	45097.44
583.38	44598.91
583.54	44987.44
583.70	45326.81
583.86	45057.65
584.02	44928.92
584.18	44978.07
584.34	44886.79
584.50	45148.93
584.66	44959.35
584.82	45036.59
584.98	45450.86
585.14	44790.83
585.30	45118.51
585.46	44797.85
585.62	45111.49
585.78	45282.34
585.94	44919.56
586.10	44814.24
586.26	44903.18
586.42	44739.34
586.58	45062.33
586.74	44917.22
586.90	45219.15
587.06	45071.70
587.22	45310.43
587.38	44842.32
587.54	45354.90
587.70	45572.57
587.86	44910.20
588.02	44856.37
588.18	45188.72
588.34	44992.12
588.49	44973.39
588.65	44751.04
588.81	45436.82
588.97	45092.76
589.13	45158.30
589.29	44985.10
589.45	45331.50
589.61	45549.17
589.77	45230.85
589.93	45483.63
590.08	45294.05
590.24	45605.34
