SpectraSuite Data File
++++++++++++++++++++++++++++++++++++
Date: Fri Oct 25 11:34:26 EDT 2013
User: price-jones
Dark Spectrum Present: No
Reference Spectrum Present: No
Number of Sampled Component Spectra: 1
Spectrometers: USB2+H05261
Integration Time (usec): 100000 (USB2+H05261)
Spectra Averaged: 1 (USB2+H05261)
Boxcar Smoothing: 0 (USB2+H05261)
Correct for Electrical Dark: No (USB2+H05261)
Strobe/Lamp Enabled: No (USB2+H05261)
Correct for Detector Non-linearity: No (USB2+H05261)
Correct for Stray Light: No (USB2+H05261)
Number of Pixels in Processed Spectrum: 2048
>>>>>Begin Processed Spectral Data<<<<<
365.73	262.14
365.92	262.14
366.12	262.14
366.32	175.54
366.52	173.20
366.72	227.03
366.91	201.29
367.11	196.60
367.31	107.66
367.51	198.95
367.70	203.63
367.90	173.20
368.10	189.58
368.30	152.13
368.49	147.45
368.69	203.63
368.89	224.69
369.09	208.31
369.28	184.90
369.48	194.26
369.68	173.20
369.87	362.78
370.07	250.44
370.27	325.33
370.47	222.35
370.66	500.87
370.86	489.17
371.06	512.58
371.25	519.60
371.45	472.79
371.65	564.07
371.84	498.53
372.04	578.11
372.24	524.28
372.44	585.13
372.63	594.50
372.83	683.44
373.03	660.03
373.22	657.69
373.42	613.22
373.62	585.13
373.81	601.52
374.01	638.97
374.21	662.37
374.40	505.56
374.60	676.41
374.79	601.52
374.99	716.20
375.19	709.18
375.38	650.67
375.58	702.16
375.78	629.60
375.97	702.16
376.17	685.78
376.37	636.63
376.56	622.58
376.76	709.18
376.95	674.07
377.15	716.20
377.35	716.20
377.54	791.10
377.74	678.76
377.93	578.11
378.13	720.88
378.33	692.80
378.52	685.78
378.72	720.88
378.91	690.46
379.11	631.94
379.31	737.27
379.50	692.80
379.70	706.84
379.89	718.54
380.09	692.80
380.28	716.20
380.48	725.57
380.68	725.57
380.87	741.95
381.07	727.91
381.26	774.72
381.46	805.14
381.65	734.93
381.85	758.33
382.04	734.93
382.24	739.61
382.43	826.21
382.63	699.82
382.83	758.33
383.02	777.06
383.22	784.08
383.41	786.42
383.61	807.48
383.80	882.38
384.00	814.51
384.19	812.17
384.39	720.88
384.58	767.70
384.78	751.31
384.97	734.93
385.17	760.67
385.36	873.02
385.56	812.17
385.75	856.64
385.95	861.32
386.14	840.25
386.34	809.83
386.53	826.21
386.72	809.83
386.92	901.11
387.11	978.34
387.31	894.08
387.50	884.72
387.70	798.12
387.89	875.36
388.09	898.77
388.28	828.55
388.48	926.85
388.67	896.43
388.86	805.14
389.06	863.66
389.25	973.66
389.45	908.13
389.64	968.98
389.84	961.96
390.03	894.08
390.22	891.74
390.42	901.11
390.61	966.64
390.81	943.24
391.00	992.39
391.19	992.39
391.39	922.17
391.58	905.79
391.78	1095.37
391.97	1025.15
392.16	1020.47
392.36	1001.75
392.55	978.34
392.75	1069.62
392.94	1027.50
393.13	1060.26
393.33	980.68
393.52	1116.44
393.71	1135.16
393.91	1090.69
394.10	1067.28
394.29	1132.82
394.49	1095.37
394.68	1081.33
394.88	1078.99
395.07	1100.05
395.26	1123.46
395.46	1142.18
395.65	1111.75
395.84	1214.74
396.04	1172.61
396.23	1217.08
396.42	1135.16
396.62	1184.31
396.81	1224.10
397.00	1163.25
397.19	1191.33
397.39	1130.48
397.58	1238.14
397.77	1226.44
397.97	1205.38
398.16	1214.74
398.35	1280.27
398.55	1259.21
398.74	1270.91
398.93	1203.04
399.12	1266.23
399.32	1291.98
399.51	1284.95
399.70	1273.25
399.90	1245.16
400.09	1336.45
400.28	1348.15
400.47	1301.34
400.67	1329.42
400.86	1373.89
401.05	1317.72
401.24	1437.09
401.44	1280.27
401.63	1420.71
401.82	1345.81
402.01	1371.55
402.21	1399.64
402.40	1432.41
402.59	1376.24
402.78	1404.32
402.97	1500.28
403.17	1469.86
403.36	1511.99
403.55	1563.48
403.74	1614.97
403.93	1476.88
404.13	1586.88
404.32	1633.69
404.51	1502.62
404.70	1612.63
404.89	1476.88
405.09	1668.80
405.28	1657.10
405.47	1657.10
405.66	1748.38
405.85	1621.99
406.05	1652.42
406.24	1586.88
406.43	1746.04
406.62	1715.61
406.81	1790.51
407.00	1736.68
407.20	1675.82
407.39	1750.72
407.58	1860.73
407.77	1806.89
407.96	1846.68
408.15	1863.07
408.34	1717.95
408.54	1860.73
408.73	1755.40
408.92	1839.66
409.11	1863.07
409.30	1874.77
409.49	1973.07
409.68	1959.03
409.87	2059.67
410.07	2008.18
410.26	1959.03
410.45	1994.14
410.64	2108.82
410.83	1989.46
411.02	2078.40
411.21	2134.57
411.40	2094.78
411.59	2169.68
411.78	2279.68
411.98	2097.12
412.17	2132.23
412.36	2139.25
412.55	2190.74
412.74	2162.66
412.93	2246.91
413.12	2193.08
413.31	2223.51
413.50	2230.53
413.69	2370.96
413.88	2443.52
414.07	2235.21
414.26	2373.30
414.45	2434.16
414.64	2338.20
414.83	2401.39
415.02	2459.90
415.22	2595.65
415.41	2682.25
415.60	2630.76
415.79	2555.86
415.98	2565.23
416.17	2630.76
416.36	2576.93
416.55	2665.87
416.74	2597.99
416.93	2675.23
417.12	2815.66
417.31	2757.15
417.50	2644.81
417.69	2810.98
417.88	2801.62
418.07	2806.30
418.26	2836.73
418.45	2841.41
418.64	2928.01
418.83	2932.69
419.02	3005.25
419.21	3040.36
419.39	3030.99
419.58	3063.76
419.77	3002.91
419.96	3023.97
420.15	3063.76
420.34	3066.10
420.53	3023.97
420.72	3089.51
420.91	3145.68
421.10	3091.85
421.29	3126.96
421.48	3077.80
421.67	3178.45
421.86	3021.63
422.05	3201.85
422.24	3068.44
422.43	3269.73
422.61	3229.94
422.80	3243.98
422.99	3215.90
423.18	3260.37
423.37	3281.43
423.56	3330.58
423.75	3361.01
423.94	3180.79
424.13	3000.57
424.32	3218.24
424.50	3368.03
424.69	3482.72
424.88	3410.16
425.07	3307.18
425.26	3318.88
425.45	3269.73
425.64	3243.98
425.83	3332.92
426.01	3274.41
426.20	3452.29
426.39	3461.65
426.58	3234.62
426.77	3288.45
426.96	3365.69
427.15	3375.05
427.33	3506.12
427.52	3520.17
427.71	3627.83
427.90	3508.46
428.09	3358.67
428.28	3637.19
428.46	3627.83
428.65	3410.16
428.84	3684.00
429.03	3548.25
429.22	3461.65
429.40	3548.25
429.59	3564.64
429.78	3496.76
429.97	3576.34
430.16	3721.45
430.34	3653.58
430.53	3660.60
430.72	3684.00
430.91	3723.79
431.10	3653.58
431.28	3740.18
431.47	3770.60
431.66	3838.48
431.85	3829.12
432.03	3878.27
432.22	4098.28
432.41	3906.35
432.60	3955.51
432.79	3997.64
432.97	3920.40
433.16	4091.26
433.35	4109.98
433.54	3953.16
433.72	4065.51
433.91	4056.15
434.10	3934.44
434.28	4007.00
434.47	4140.41
434.66	4166.15
434.85	4173.18
435.03	4109.98
435.22	4100.62
435.41	4248.07
435.59	4217.65
435.78	4248.07
435.97	4100.62
436.16	4215.30
436.34	4292.54
436.53	4191.90
436.72	4465.74
436.90	4416.59
437.09	4360.42
437.28	4290.20
437.46	4290.20
437.65	4411.91
437.84	4418.93
438.02	4404.89
438.21	4484.47
438.40	4437.66
438.58	4664.69
438.77	4550.00
438.96	4634.26
439.14	4655.33
439.33	4678.73
439.52	4580.43
439.70	4767.67
439.89	4924.49
440.08	4830.87
440.26	4823.84
440.45	4877.68
440.63	4727.88
440.82	5090.67
441.01	4966.62
441.19	4936.19
441.38	5050.88
441.57	5090.67
441.75	4992.36
441.94	5305.99
442.12	5282.59
442.31	5142.16
442.50	5472.17
442.68	5359.83
442.87	5107.05
443.05	5191.31
443.24	5383.23
443.43	5350.46
443.61	5373.87
443.80	5308.34
443.98	5219.39
444.17	5093.01
444.35	5373.87
444.54	5378.55
444.73	5294.29
444.91	5343.44
445.10	5394.93
445.28	5509.62
445.47	5320.04
445.65	5310.68
445.84	5371.53
446.02	5605.58
446.21	5427.70
446.39	5430.04
446.58	5547.07
446.77	5633.67
446.95	5371.53
447.14	5504.94
447.32	5547.07
447.51	5397.28
447.69	5652.39
447.88	5605.58
448.06	5636.01
448.25	5577.50
448.43	5556.43
448.62	5689.84
448.80	5572.82
448.99	5731.97
449.17	5603.24
449.36	5544.73
449.54	5699.20
449.73	5804.53
449.91	5825.59
450.10	5678.14
450.28	5804.53
450.46	5963.68
450.65	5853.68
450.83	6012.84
451.02	5973.05
451.20	5951.98
451.39	5984.75
451.57	5907.51
451.76	5879.43
451.94	5991.77
452.13	6024.54
452.31	6092.41
452.49	5991.77
452.68	5998.79
452.86	6230.51
453.05	6162.63
453.23	6197.74
453.42	6141.57
453.60	6132.20
453.78	6127.52
453.97	6106.46
454.15	6195.40
454.34	6097.10
454.52	6190.72
454.70	6279.66
454.89	6305.40
455.07	6279.66
455.26	6296.04
455.44	6375.62
455.62	6541.80
455.81	6471.58
455.99	6396.68
456.17	6761.81
456.36	6476.26
456.54	6637.76
456.73	6740.74
456.91	6803.94
457.09	6633.08
457.28	6829.68
457.46	6780.53
457.64	6775.85
457.83	6862.45
458.01	6593.29
458.19	6834.36
458.38	6850.75
458.56	6981.82
458.74	6937.35
458.93	6883.52
459.11	6916.28
459.29	7042.67
459.48	7028.63
459.66	6970.12
459.84	7061.40
460.03	7101.19
460.21	7176.08
460.39	7190.13
460.57	7204.17
460.76	7140.97
460.94	7061.40
461.12	7140.97
461.31	7248.64
461.49	7178.42
461.67	7075.44
461.85	7470.99
462.04	7433.54
462.22	7763.56
462.40	7330.56
462.59	7442.90
462.77	7379.71
462.95	7417.16
463.13	7346.94
463.32	7482.69
463.50	7487.37
463.68	7660.57
463.86	7599.72
464.05	7463.97
464.23	7496.74
464.41	7588.02
464.59	7665.25
464.78	7803.35
464.96	7616.10
465.14	7632.49
465.32	7784.62
465.50	7805.69
465.69	7990.59
465.87	7840.79
466.05	7723.77
466.23	7901.65
466.41	7735.47
466.60	7981.23
466.78	7819.73
466.96	7920.37
467.14	7878.24
467.32	7999.95
467.51	8072.51
467.69	7777.60
467.87	7903.99
468.05	8046.76
468.23	7981.23
468.41	8025.70
468.60	8051.44
468.78	8140.38
468.96	8116.98
469.14	8269.11
469.32	8189.53
469.50	8119.32
469.69	8142.72
469.87	8549.98
470.05	8454.02
470.23	8362.73
470.41	8402.52
470.59	8547.64
470.77	8461.04
470.95	8472.74
471.14	8573.38
471.32	8510.19
471.50	8573.38
471.68	8557.00
471.86	8791.05
472.04	8730.20
472.22	9109.36
472.40	8800.41
472.58	8821.48
472.77	8861.27
472.95	8950.21
473.13	9015.74
473.31	9046.17
473.49	9160.86
473.67	9057.87
473.85	9123.41
474.03	9242.78
474.21	9137.45
474.39	9460.45
474.57	9408.95
474.75	9664.07
474.93	9640.67
475.12	9544.70
475.30	9643.01
475.48	9640.67
475.66	9633.64
475.84	9720.24
476.02	9502.58
476.20	9797.48
476.38	10024.51
476.56	10097.07
476.74	10141.54
476.92	9982.38
477.10	10104.09
477.28	10167.29
477.46	10441.13
477.64	10246.87
477.82	10567.52
478.00	10855.40
478.18	10516.03
478.36	10579.22
478.54	11133.93
478.72	10829.66
478.90	11169.04
479.08	10979.45
479.26	11098.82
479.44	11269.68
479.62	11225.21
479.80	11197.12
479.98	11410.11
480.16	11555.22
480.34	11367.98
480.52	11882.90
480.70	11716.72
480.88	11632.46
481.06	12102.91
481.24	11990.56
481.41	11957.80
481.59	12189.51
481.77	12182.49
481.95	12145.04
482.13	12339.30
482.31	12624.85
482.49	12629.53
482.67	12882.31
482.85	12931.46
483.03	13004.02
483.21	13298.92
483.39	13165.51
483.57	13298.92
483.74	13401.91
483.92	13434.68
484.10	13296.58
484.28	13734.26
484.46	13877.04
484.64	13914.48
484.82	13558.72
485.00	14012.79
485.18	14359.19
485.35	14567.49
485.53	14368.55
485.71	14487.92
485.89	14817.93
486.07	14714.95
486.25	14817.93
486.43	15068.37
486.61	15180.71
486.78	15056.67
486.96	15389.02
487.14	15421.79
487.32	15452.22
487.50	15786.91
487.68	15688.61
487.85	16095.86
488.03	16159.06
488.21	16189.49
488.39	16276.09
488.57	16535.88
488.75	16755.90
488.92	16800.37
489.10	16791.00
489.28	17001.65
489.46	17036.76
489.64	16957.18
489.81	17420.61
489.99	17341.03
490.17	17514.23
490.35	17858.29
490.53	17626.57
490.70	17858.29
490.88	17811.48
491.06	17968.29
491.24	18066.60
491.41	18485.55
491.59	18436.40
491.77	18541.72
491.95	18766.42
492.13	18654.07
492.30	19005.15
492.48	18707.90
492.66	19073.03
492.84	19389.00
493.01	19391.34
493.19	19178.35
493.37	19410.06
493.54	19807.95
493.72	19618.37
493.90	19658.16
494.08	19922.64
494.25	20002.22
494.43	20030.30
494.61	20397.77
494.79	20552.24
494.96	20432.88
495.14	20751.19
495.32	20685.65
495.49	20842.47
495.67	20966.52
495.85	20891.62
496.02	21118.65
496.20	21612.51
496.38	21226.32
496.55	21202.91
496.73	21940.18
496.91	21811.45
497.09	21738.90
497.26	21963.59
497.44	22094.66
497.62	21905.07
497.79	22670.43
497.97	22277.22
498.14	22277.22
498.32	22628.30
498.50	22838.95
498.67	22981.72
498.85	23094.07
499.03	23089.38
499.20	23040.23
499.38	23213.43
499.56	23016.83
499.73	23215.77
499.91	23552.81
500.08	23742.39
500.26	23281.31
500.44	23711.97
500.61	23934.32
500.79	23618.35
500.97	23910.91
501.14	24252.63
501.32	24116.88
501.49	24226.89
501.67	24151.99
501.84	24404.77
502.02	24437.53
502.20	24414.13
502.37	24521.79
502.55	25055.43
502.72	24678.61
502.90	24809.68
503.07	24737.12
503.25	24702.01
503.43	24842.45
503.60	25219.27
503.78	25378.43
503.95	25254.38
504.13	25383.11
504.30	25862.92
504.48	25893.35
504.65	25628.87
504.83	25729.51
505.01	26192.94
505.18	26064.21
505.36	26176.55
505.53	25986.97
505.71	26106.34
505.88	26176.55
506.06	26045.48
506.23	26623.59
506.41	26457.42
506.58	26473.80
506.76	26335.71
506.93	26799.13
507.11	26899.78
507.28	26679.77
507.46	26969.99
507.63	27166.60
507.81	27325.75
507.98	26693.81
508.16	27257.88
508.33	27538.74
508.50	27489.59
508.68	27686.20
508.85	27632.36
509.03	27814.93
509.20	27793.86
509.38	27688.54
509.55	28048.98
509.73	28107.49
509.90	28107.49
510.08	28259.63
510.25	28236.22
510.42	28474.96
510.60	28547.51
510.77	28599.01
510.95	29134.99
511.12	28273.67
511.30	28844.76
511.47	28589.64
511.64	28931.36
511.82	28907.96
511.99	28772.21
512.17	28975.83
512.34	29139.67
512.51	29685.01
512.69	29530.54
512.86	29682.67
513.04	30164.82
513.21	29432.24
513.38	29621.82
513.56	29809.06
513.73	29872.26
513.90	29947.15
514.08	29596.07
514.25	29846.51
514.43	30267.81
514.60	30263.13
514.77	30691.44
514.95	30738.26
515.12	30586.12
515.29	30504.20
515.47	30836.56
515.64	30628.25
515.81	30291.21
515.99	30665.70
516.16	31180.62
516.33	30583.78
516.51	31087.00
516.68	30614.21
516.85	30955.93
517.03	31419.35
517.20	31295.30
517.37	31564.46
517.54	31510.63
517.72	31571.49
517.89	31414.67
518.06	31648.72
518.24	31957.67
518.41	31550.42
518.58	31817.24
518.75	31587.87
518.93	32006.83
519.10	31798.52
519.27	31763.41
519.45	32187.05
519.62	32318.12
519.79	32491.32
519.96	32435.14
520.14	32360.25
520.31	32402.38
520.48	32374.29
520.65	32589.62
520.83	33043.68
521.00	32996.87
521.17	33017.94
521.34	33244.97
521.52	33029.64
521.69	32884.53
521.86	32872.82
522.03	33259.01
522.20	33200.50
522.38	33479.02
522.55	33415.83
522.72	33799.68
522.89	33738.82
523.07	33818.40
523.24	33535.20
523.41	33755.21
523.58	33682.65
523.75	33902.66
523.92	33986.92
524.10	34150.76
524.27	34040.75
524.44	34227.99
524.61	34529.92
524.78	34614.18
524.96	34682.06
525.13	34295.87
525.30	34370.77
525.47	34794.40
525.64	34588.44
525.81	34684.40
525.98	34686.74
526.16	34941.86
526.33	35047.18
526.50	35103.35
526.67	34817.81
526.84	35171.23
527.01	34976.97
527.18	34988.67
527.36	35061.22
527.53	35316.34
527.70	35725.94
527.87	35534.01
528.04	35285.92
528.21	35414.65
528.38	35353.79
528.55	35941.27
528.72	35552.74
528.89	35503.59
529.07	35646.36
529.24	36329.80
529.41	36369.58
529.58	35779.77
529.75	35974.03
529.92	36048.93
530.09	35775.09
530.26	36189.36
530.43	36128.51
530.60	35896.80
530.77	36219.79
530.94	36458.52
531.11	35992.76
531.28	36634.06
531.46	36648.11
531.63	37067.06
531.80	36481.93
531.97	36877.48
532.14	36863.44
532.31	36416.40
532.48	37125.58
532.65	37223.88
532.82	36549.81
532.99	36943.02
533.16	36718.32
533.33	37635.81
533.50	36809.61
533.67	37322.18
533.84	37020.25
534.01	37127.92
534.18	37322.18
534.35	37656.88
534.52	37357.29
534.69	37851.14
534.86	37563.26
535.03	38024.34
535.20	37612.41
535.37	37703.69
535.54	38155.41
535.71	37462.61
535.88	38036.05
536.05	37956.47
536.22	38043.07
536.38	38328.61
536.55	37790.29
536.72	38543.94
536.89	38309.89
537.06	38169.46
537.23	38684.37
537.40	38298.19
537.57	38043.07
537.74	38291.16
537.91	38834.17
538.08	38660.97
538.25	38249.03
538.42	38497.13
538.59	39084.61
538.75	38593.09
538.92	39023.75
539.09	38904.38
539.26	38871.62
539.43	38859.91
539.60	39189.93
539.77	38892.68
539.94	39122.05
540.11	39192.27
540.28	39175.89
540.44	38738.21
540.61	39356.11
540.78	38649.27
540.95	39002.69
541.12	39159.50
541.29	39079.92
541.46	39072.90
541.62	39379.51
541.79	39384.19
541.96	39047.16
542.13	39145.46
542.30	39236.74
542.47	39328.02
542.63	39789.11
542.80	39367.81
542.97	40346.15
543.14	40163.59
543.31	40128.48
543.48	40509.99
543.64	40126.14
543.81	39889.75
543.98	40575.53
544.15	40201.04
544.32	40236.15
544.48	40832.99
544.65	40900.86
544.82	40580.21
544.99	40507.65
545.16	40648.08
545.32	40521.69
545.49	40795.54
545.66	40973.42
545.83	40648.08
546.00	40779.15
546.16	40545.10
546.33	40847.03
546.50	40610.64
546.67	41214.49
546.83	40488.93
547.00	40795.54
547.17	40767.45
547.34	40903.20
547.50	41207.47
547.67	41502.38
547.84	40879.80
548.00	40884.48
548.17	41469.61
548.34	41270.67
548.51	41497.70
548.67	41537.49
548.84	41434.50
549.01	41277.69
549.18	41577.28
549.34	41748.14
549.51	42019.64
549.68	41677.92
549.84	41769.20
550.01	41745.80
550.18	41544.51
550.34	41762.18
550.51	41642.81
550.68	41876.86
550.84	41446.21
551.01	42279.44
551.18	41514.08
551.34	41851.12
551.51	42188.16
551.68	41654.51
551.84	42314.55
552.01	41984.53
552.18	42029.00
552.34	41916.65
552.51	41926.02
552.68	41762.18
552.84	42541.58
553.01	42696.05
553.18	42391.78
553.34	42127.30
553.51	42548.60
553.67	42246.67
553.84	42263.05
554.01	42490.09
554.17	42366.04
554.34	42911.38
554.51	42609.45
554.67	42904.36
554.84	42686.69
555.00	42436.25
555.17	42356.67
555.33	42995.64
555.50	42742.86
555.67	43084.58
555.83	42497.11
556.00	43105.65
556.16	43683.76
556.33	42813.08
556.50	43110.33
556.66	42735.84
556.83	42745.20
556.99	43175.86
557.16	43285.87
557.32	43213.31
557.49	43065.86
557.65	42726.48
557.82	43000.32
557.98	43503.54
558.15	43737.59
558.32	43316.29
558.48	43091.60
558.65	43007.34
558.81	43543.33
558.98	42969.90
559.14	43529.28
559.31	43667.37
559.47	43756.32
559.64	43292.89
559.80	43473.11
559.97	43709.50
560.13	43288.21
560.30	43718.87
560.46	44018.46
560.63	43529.28
560.79	43543.33
560.96	44582.52
561.12	44062.93
561.29	43262.46
561.45	43735.25
561.61	43983.35
561.78	43901.43
561.94	44072.29
562.11	43548.01
562.27	43971.64
562.44	44032.50
562.60	44041.86
562.77	43894.41
562.93	43910.79
563.10	44240.81
563.26	44051.22
563.42	44704.23
563.59	44027.82
563.75	44278.25
563.92	44385.92
564.08	44271.23
564.24	44034.84
564.41	44179.95
564.57	43777.38
564.74	43889.73
564.90	43800.79
565.07	43899.09
565.23	44257.19
565.39	44542.74
565.56	44449.11
565.72	44341.45
565.88	44722.96
566.05	44582.52
566.21	44495.92
566.38	44371.88
566.54	44327.41
566.70	44570.82
566.87	44364.85
567.03	44512.31
567.19	44825.94
567.36	44486.56
567.52	44032.50
567.68	45006.16
567.85	44488.90
568.01	45085.74
568.17	44374.22
568.34	44708.91
568.50	45102.12
568.66	44582.52
568.83	44467.84
568.99	44624.65
569.15	44711.25
569.32	44795.51
569.48	44589.55
569.64	44713.59
569.81	44795.51
569.97	44865.73
570.13	45006.16
570.30	44942.97
570.46	44460.82
570.62	44816.58
570.78	44821.26
570.95	45074.04
571.11	44919.56
571.27	44783.81
571.43	44739.34
571.60	44783.81
571.76	44807.22
571.92	44870.41
572.09	45233.19
572.25	44692.53
572.41	44851.69
572.57	44664.44
572.74	45378.31
572.90	44875.09
573.06	45216.81
573.22	44980.42
573.38	45008.50
573.55	44940.63
573.71	45216.81
573.87	45146.59
574.03	44814.24
574.20	44973.39
574.36	45151.27
574.52	45258.94
574.68	45441.50
574.84	45429.80
575.01	45567.89
575.17	45205.11
575.33	45181.70
575.49	45148.93
575.65	45404.05
575.82	45509.38
575.98	44760.40
576.14	45406.39
576.30	45539.80
576.46	45542.14
576.62	45469.59
576.79	45036.59
576.95	45195.74
577.11	45038.93
577.27	45193.40
577.43	45404.05
577.59	45289.37
577.75	44783.81
577.92	44996.80
578.08	45324.47
578.24	45429.80
578.40	45345.54
578.56	45230.85
578.72	45223.83
578.88	45193.40
579.04	45205.11
579.21	45296.39
579.37	45256.60
579.53	45310.43
579.69	45139.57
579.85	45200.43
580.01	45048.29
580.17	45158.30
580.33	45139.57
580.49	45542.14
580.65	45198.09
580.82	45085.74
580.98	45233.19
581.14	45139.57
581.30	45202.77
581.46	45319.79
581.62	44896.16
581.78	45280.00
581.94	45502.35
582.10	45469.59
582.26	45352.56
582.42	45556.19
582.58	45345.54
582.74	45528.10
582.90	45560.87
583.06	45525.76
583.22	45137.23
583.38	45614.70
583.54	45600.66
583.70	45385.33
583.86	45556.19
584.02	45329.16
584.18	45848.75
584.34	45425.12
584.50	45701.30
584.66	45521.08
584.82	45703.64
584.98	45808.96
585.14	45710.66
585.30	45713.00
585.46	45542.14
585.62	45392.35
585.78	45565.55
585.94	45324.47
586.10	45317.45
586.26	45228.51
586.42	45350.22
586.58	45553.85
586.74	45668.53
586.90	45467.25
587.06	45577.25
587.22	45528.10
587.38	45375.97
587.54	45572.57
587.70	46188.13
587.86	45425.12
588.02	45198.09
588.18	45532.78
588.34	45691.94
588.49	45642.79
588.65	45689.60
588.81	45612.36
588.97	45635.77
589.13	45691.94
589.29	45869.82
589.45	45998.55
589.61	45577.25
589.77	45820.67
589.93	45638.11
590.08	45504.70
