SpectraSuite Data File
++++++++++++++++++++++++++++++++++++
Date: Fri Oct 25 11:22:29 EDT 2013
User: price-jones
Dark Spectrum Present: No
Reference Spectrum Present: No
Number of Sampled Component Spectra: 1
Spectrometers: USB2+H05261
Integration Time (usec): 100000 (USB2+H05261)
Spectra Averaged: 1 (USB2+H05261)
Boxcar Smoothing: 0 (USB2+H05261)
Correct for Electrical Dark: No (USB2+H05261)
Strobe/Lamp Enabled: No (USB2+H05261)
Correct for Detector Non-linearity: No (USB2+H05261)
Correct for Stray Light: No (USB2+H05261)
Number of Pixels in Processed Spectrum: 2048
>>>>>Begin Processed Spectral Data<<<<<
365.73	205.97
365.92	205.97
366.12	205.97
366.32	105.32
366.52	159.16
366.72	149.79
366.91	86.60
367.11	91.28
367.31	63.19
367.51	119.37
367.70	154.48
367.90	156.82
368.10	56.17
368.30	119.37
368.49	173.20
368.69	198.95
368.89	184.90
369.09	145.11
369.28	208.31
369.48	191.92
369.68	131.07
369.87	215.33
370.07	135.75
370.27	238.73
370.47	339.38
370.66	599.18
370.86	627.26
371.06	582.79
371.25	634.29
371.45	594.50
371.65	653.01
371.84	730.25
372.04	685.78
372.24	741.95
372.44	676.41
372.63	744.29
372.83	704.50
373.03	669.39
373.22	751.31
373.42	746.63
373.62	819.19
373.81	767.70
374.01	840.25
374.21	774.72
374.40	821.53
374.60	896.43
374.79	816.85
374.99	821.53
375.19	866.00
375.38	856.64
375.58	812.17
375.78	924.51
375.97	875.36
376.17	889.40
376.37	781.74
376.56	851.96
376.76	826.21
376.95	837.91
377.15	844.93
377.35	880.04
377.54	954.94
377.74	837.91
377.93	894.08
378.13	919.83
378.33	950.26
378.52	851.96
378.72	950.26
378.91	945.58
379.11	992.39
379.31	882.38
379.50	933.87
379.70	992.39
379.89	1050.90
380.09	968.98
380.28	1018.13
380.48	992.39
380.68	943.24
380.87	971.32
381.07	968.98
381.26	1097.71
381.46	992.39
381.65	1046.22
381.85	1149.20
382.04	1011.11
382.24	1057.92
382.43	1064.94
382.63	1088.35
382.83	1139.84
383.02	1067.28
383.22	1100.05
383.41	1149.20
383.61	1104.73
383.80	1123.46
384.00	1057.92
384.19	1226.44
384.39	1156.22
384.58	1135.16
384.78	1128.14
384.97	1132.82
385.17	1128.14
385.36	1200.69
385.56	1263.89
385.75	1245.16
385.95	1277.93
386.14	1224.10
386.34	1247.51
386.53	1193.67
386.72	1221.76
386.92	1322.40
387.11	1270.91
387.31	1263.89
387.50	1207.72
387.70	1203.04
387.89	1280.27
388.09	1259.21
388.28	1263.89
388.48	1322.40
388.67	1277.93
388.86	1315.38
389.06	1289.64
389.25	1352.83
389.45	1273.25
389.64	1394.96
389.84	1366.87
390.03	1451.13
390.22	1418.36
390.42	1418.36
390.61	1336.45
390.81	1404.32
391.00	1495.60
391.19	1495.60
391.39	1451.13
391.58	1488.58
391.78	1514.33
391.97	1509.65
392.16	1535.39
392.36	1537.73
392.55	1509.65
392.75	1516.67
392.94	1476.88
393.13	1647.74
393.33	1486.24
393.52	1612.63
393.71	1568.16
393.91	1678.16
394.10	1643.06
394.29	1673.48
394.49	1652.42
394.68	1561.14
394.88	1614.97
395.07	1713.27
395.26	1685.19
395.46	1741.36
395.65	1727.32
395.84	1748.38
396.04	1764.76
396.23	1748.38
396.42	1856.04
396.62	1816.26
396.81	1825.62
397.00	1856.04
397.19	1863.07
397.39	1788.17
397.58	1849.02
397.77	1769.44
397.97	1912.22
398.16	1877.11
398.35	1839.66
398.55	1830.30
398.74	2001.16
398.93	1970.73
399.12	2001.16
399.32	1879.45
399.51	2040.95
399.70	2062.01
399.90	1956.69
400.09	1987.11
400.28	2108.82
400.47	2045.63
400.67	2136.91
400.86	2076.06
401.05	2127.55
401.24	2120.53
401.44	1998.82
401.63	2113.50
401.82	2029.24
402.01	2132.23
402.21	2183.72
402.40	2237.55
402.59	2282.02
402.78	2193.08
402.97	2272.66
403.17	2347.56
403.36	2214.15
403.55	2284.36
403.74	2410.75
403.93	2410.75
404.13	2324.15
404.32	2406.07
404.51	2410.75
404.70	2403.73
404.89	2452.88
405.09	2375.64
405.28	2452.88
405.47	2436.50
405.66	2558.21
405.85	2511.39
406.05	2410.75
406.24	2661.19
406.43	2621.40
406.62	2616.72
406.81	2630.76
407.00	2626.08
407.20	2640.12
407.39	2654.17
407.58	2696.30
407.77	2745.45
407.96	2752.47
408.15	2803.96
408.34	2750.13
408.54	2846.09
408.73	2785.24
408.92	2862.48
409.11	2995.89
409.30	2920.99
409.49	2946.73
409.68	3038.02
409.87	2885.88
410.07	3052.06
410.26	3052.06
410.45	3094.19
410.64	3122.27
410.83	3129.30
411.02	3112.91
411.21	3187.81
411.40	3098.87
411.59	3241.64
411.78	3138.66
411.98	3131.64
412.17	3234.62
412.36	3377.39
412.55	3370.37
412.74	3368.03
412.93	3541.23
413.12	3492.08
413.31	3623.15
413.50	3370.37
413.69	3508.46
413.88	3665.28
414.07	3646.55
414.26	3756.56
414.45	3634.85
414.64	3669.96
414.83	3808.05
415.02	3843.16
415.22	3969.55
415.41	3953.16
415.60	4004.66
415.79	4028.06
415.98	3950.82
416.17	3995.29
416.36	3988.27
416.55	4028.06
416.74	4189.56
416.93	4325.31
417.12	4100.62
417.31	4196.58
417.50	4182.54
417.69	4332.33
417.88	4365.10
418.07	4386.16
418.26	4416.59
418.45	4435.32
418.64	4550.00
418.83	4393.19
419.02	4367.44
419.21	4456.38
419.39	4629.58
419.58	4596.81
419.77	4573.41
419.96	4624.90
420.15	4702.14
420.34	4582.77
420.53	4660.01
420.72	4774.69
420.91	4652.98
421.10	4858.95
421.29	4723.20
421.48	4741.93
421.67	4713.84
421.86	4730.22
422.05	4880.02
422.24	4840.23
422.43	4915.12
422.61	4983.00
422.80	5053.22
422.99	5111.73
423.18	4966.62
423.37	4997.04
423.56	4973.64
423.75	4919.81
423.94	4755.97
424.13	4741.93
424.32	4875.34
424.50	5011.09
424.69	5025.13
424.88	5146.84
425.07	5020.45
425.26	5008.75
425.45	5001.72
425.64	4997.04
425.83	5050.88
426.01	4973.64
426.20	5069.60
426.39	5238.12
426.58	5144.50
426.77	5167.90
426.96	5186.63
427.15	5383.23
427.33	5256.84
427.52	5188.97
427.71	5401.96
427.90	5242.80
428.09	5404.30
428.28	5420.68
428.46	5369.19
428.65	5341.10
428.84	5603.24
429.03	5570.48
429.22	5343.44
429.40	5652.39
429.59	5729.63
429.78	5378.55
429.97	5387.91
430.16	5621.97
430.34	5628.99
430.53	5647.71
430.72	5668.78
430.91	5720.27
431.10	5694.52
431.28	5820.91
431.47	5736.65
431.66	5923.90
431.85	5659.42
432.03	5949.64
432.22	6043.26
432.41	5865.38
432.60	6101.78
432.79	6036.24
432.97	5916.87
433.16	6094.76
433.35	6115.82
433.54	6181.35
433.72	6160.29
433.91	6225.82
434.10	6118.16
434.28	6045.60
434.47	6331.15
434.66	6349.87
434.85	6490.31
435.03	6537.12
435.22	6310.08
435.41	6520.73
435.59	6307.74
435.78	6586.27
435.97	6668.19
436.16	6626.06
436.34	6534.78
436.53	6604.99
436.72	6719.68
436.90	6534.78
437.09	6616.69
437.28	6579.25
437.46	6640.10
437.65	6738.40
437.84	6862.45
438.02	6738.40
438.21	6801.60
438.40	6747.76
438.58	6967.77
438.77	7166.72
438.96	7019.27
439.14	7068.42
439.33	7262.68
439.52	7314.17
439.70	7468.65
439.89	7470.99
440.08	7339.92
440.26	7332.90
440.45	7211.19
440.63	7330.56
440.82	7637.17
441.01	7508.44
441.19	7686.32
441.38	7880.58
441.57	7719.09
441.75	7903.99
441.94	8187.19
442.12	8002.29
442.31	8058.46
442.50	8116.98
442.68	8226.98
442.87	8119.32
443.05	8191.88
443.24	8248.05
443.43	8355.71
443.61	8301.88
443.80	8652.96
443.98	8163.79
444.17	7964.84
444.35	8259.75
444.54	8451.67
444.73	8365.07
444.91	8414.23
445.10	8306.56
445.28	8482.10
445.47	8297.20
445.65	8315.92
445.84	8636.58
446.02	8365.07
446.21	8613.17
446.39	8589.77
446.58	8662.32
446.77	8484.44
446.95	8301.88
447.14	8533.59
447.32	8667.00
447.51	8573.38
447.69	8435.29
447.88	8659.98
448.06	8439.97
448.25	8683.39
448.43	8650.62
448.62	8589.77
448.80	8821.48
448.99	8667.00
449.17	8858.93
449.36	8924.46
449.54	8903.40
449.73	9057.87
449.91	9205.33
450.10	8936.17
450.28	9039.15
450.46	9334.06
450.65	9191.28
450.83	9144.47
451.02	9214.69
451.20	9247.46
451.39	9228.73
451.57	9214.69
451.76	9053.19
451.94	9481.51
452.13	9568.11
452.31	9413.63
452.49	9254.48
452.68	9523.64
452.86	9474.49
453.05	9439.38
453.23	9535.34
453.42	9511.94
453.60	9582.15
453.78	9638.33
453.97	9563.43
454.15	9621.94
454.34	9600.88
454.52	9757.69
454.70	9762.37
454.89	9757.69
455.07	9944.94
455.26	9795.14
455.44	9738.97
455.62	9940.26
455.81	9954.30
455.99	10171.97
456.17	10300.70
456.36	10377.94
456.54	10396.66
456.73	10335.81
456.91	10684.55
457.09	10422.41
457.28	10607.31
457.46	10516.03
457.64	10654.12
457.83	10473.90
458.01	10602.63
458.19	10733.70
458.38	10817.96
458.56	10822.64
458.74	10832.00
458.93	10785.19
459.11	10988.82
459.29	11112.86
459.48	10864.77
459.66	11033.29
459.84	10761.78
460.03	11309.47
460.21	11180.74
460.39	11052.01
460.57	11096.48
460.76	11066.05
460.94	11375.00
461.12	11295.43
461.31	11288.40
461.49	11459.26
461.67	11428.84
461.85	11487.35
462.04	11346.92
462.22	11274.36
462.40	11513.10
462.59	11700.34
462.77	11786.94
462.95	11817.36
463.13	11637.14
463.32	12147.38
463.50	11894.60
463.68	11903.96
463.86	11892.26
464.05	11929.71
464.23	11857.15
464.41	12084.19
464.59	11765.87
464.78	12121.63
464.96	12133.34
465.14	12009.29
465.32	12210.57
465.50	12386.12
465.69	12346.33
465.87	12210.57
466.05	12173.13
466.23	12304.20
466.41	12320.58
466.60	12549.95
466.78	12463.35
466.96	12278.45
467.14	12528.89
467.32	12486.76
467.51	12788.69
467.69	12416.54
467.87	12823.80
468.05	12702.09
468.23	12650.60
468.41	12809.75
468.60	12774.64
468.78	12950.18
468.96	12699.75
469.14	12886.99
469.32	13135.09
469.50	12606.13
469.69	13130.41
469.87	13441.70
470.05	13399.57
470.23	13554.04
470.41	13165.51
470.59	13497.87
470.77	13429.99
470.95	13589.15
471.14	13626.60
471.32	13327.01
471.50	13661.71
471.68	13706.18
471.86	13853.63
472.04	13713.20
472.22	14272.59
472.40	13795.12
472.58	13942.57
472.77	14176.62
472.95	14295.99
473.13	14792.19
473.31	14120.45
473.49	14342.80
473.67	14293.65
473.85	14513.66
474.03	14635.37
474.21	15110.50
474.39	15037.94
474.57	14956.02
474.75	14963.04
474.93	15154.97
475.12	15176.03
475.30	15077.73
475.48	15374.98
475.66	15618.39
475.84	15428.81
476.02	15496.69
476.20	15557.54
476.38	15763.51
476.56	16248.00
476.74	16257.36
476.92	16025.65
477.10	15978.84
477.28	16491.41
477.46	16423.54
477.64	16496.10
477.82	16716.11
478.00	16947.82
478.18	16926.75
478.36	17088.25
478.54	17221.66
478.72	17083.57
478.90	17617.21
479.08	17823.18
479.26	17898.08
479.44	17713.17
479.62	18139.15
479.80	18310.01
479.98	18431.72
480.16	18562.79
480.34	18878.76
480.52	18595.56
480.70	18986.43
480.88	18740.67
481.06	19051.96
481.24	19152.60
481.41	19433.47
481.59	19330.48
481.77	19768.16
481.95	20039.67
482.13	19864.13
482.31	20020.94
482.49	20245.63
482.67	20758.21
482.85	20655.23
483.03	20774.60
483.21	21158.44
483.39	21041.42
483.57	21369.09
483.74	21432.29
483.92	21631.23
484.10	21383.13
484.28	21921.46
484.46	22455.10
484.64	22389.56
484.82	22197.64
485.00	22911.50
485.18	23009.81
485.35	23133.86
485.53	23194.71
485.71	23550.47
485.89	23742.39
486.07	23679.20
486.25	23765.80
486.43	24147.31
486.61	24180.07
486.78	24592.01
486.96	24369.66
487.14	24879.89
487.32	25008.62
487.50	25120.97
487.68	25425.24
487.85	25823.13
488.03	25965.90
488.21	26300.60
488.39	26068.89
488.57	26628.27
488.75	26684.45
488.92	26593.17
489.10	27150.21
489.28	27145.53
489.46	27360.86
489.64	27459.16
489.81	28226.86
489.99	28130.90
490.17	28156.64
490.35	28622.41
490.53	28254.95
490.70	29130.31
490.88	28645.82
491.06	29034.35
491.24	29158.39
491.41	29338.62
491.59	29731.83
491.77	29799.70
491.95	29755.23
492.13	30043.12
492.30	30586.12
492.48	30448.03
492.66	30775.70
492.84	30735.92
493.01	31044.87
493.19	31026.14
493.37	31229.77
493.54	31496.59
493.72	32030.23
493.90	32177.68
494.08	31999.80
494.25	32442.17
494.43	32493.66
494.61	32884.53
494.79	33207.52
494.96	32973.47
495.14	33251.99
495.32	33556.26
495.49	33598.39
495.67	33670.95
495.85	33912.02
496.02	34387.15
496.20	34422.26
496.38	34209.27
496.55	34532.26
496.73	35133.78
496.91	35199.32
497.09	35227.40
497.26	35597.21
497.44	35653.38
497.62	35522.31
497.79	36058.29
497.97	36231.49
498.14	36465.55
498.32	36847.05
498.50	36582.57
498.67	36858.76
498.85	36746.41
499.03	37069.40
499.20	37394.74
499.38	37282.39
499.56	37336.23
499.73	37766.88
499.91	37855.82
500.08	38321.59
500.26	37958.81
500.44	37928.38
500.61	38307.55
500.79	38120.31
500.97	38499.47
501.14	39461.43
501.32	38752.25
501.49	39035.45
501.67	38923.11
501.84	39763.36
502.02	39433.35
502.20	39475.48
502.37	39929.54
502.55	40048.91
502.72	39859.32
502.90	40308.71
503.07	39885.07
503.25	40287.64
503.43	40194.02
503.60	40423.39
503.78	40837.67
503.95	40636.38
504.13	40807.24
504.30	41493.02
504.48	41022.57
504.65	40978.10
504.83	41303.43
505.01	41947.08
505.18	41478.97
505.36	42021.98
505.53	41968.15
505.71	41965.81
505.88	42394.12
506.06	42302.84
506.23	42473.70
506.41	42351.99
506.58	42555.62
506.76	42405.83
506.93	42871.59
507.11	42857.55
507.28	43583.12
507.46	43349.06
507.63	43405.23
507.81	43992.71
507.98	43739.93
508.16	43643.97
508.33	44205.70
508.50	43952.92
508.68	43828.87
508.85	44453.79
509.03	44598.91
509.20	44772.11
509.38	44605.93
509.55	45031.91
509.73	45148.93
509.90	44889.13
510.08	45212.13
510.25	44940.63
510.42	45626.40
510.60	45277.66
510.77	45670.87
510.95	45930.67
511.12	45631.08
511.30	45944.72
511.47	46223.24
511.64	46096.85
511.82	46309.84
511.99	46080.47
512.17	46506.44
512.34	46295.80
512.51	47033.07
512.69	46841.14
512.86	46670.28
513.04	47381.80
513.21	46913.70
513.38	47285.84
513.56	47292.86
513.73	47473.09
513.90	47519.90
514.08	47590.11
514.25	47580.75
514.43	47901.40
514.60	48156.52
514.77	47737.57
514.95	48156.52
515.12	47849.91
515.29	48032.47
515.47	48526.33
515.64	49052.95
515.81	48540.37
515.99	49052.95
516.16	49106.78
516.33	49242.53
516.51	49069.33
516.68	48952.30
516.85	48926.56
517.03	49347.86
517.20	49389.98
517.37	49457.86
517.54	49743.41
517.72	49375.94
517.89	49752.77
518.06	49333.81
518.24	49844.05
518.41	49549.14
518.58	49862.77
518.75	49586.59
518.93	49977.46
519.10	49698.94
519.27	50319.18
519.45	49851.07
519.62	50557.91
519.79	50504.08
519.96	50534.51
520.14	50497.06
520.31	50798.99
520.48	50981.55
520.65	50843.46
520.83	51002.61
521.00	51054.11
521.17	50983.89
521.34	50850.48
521.52	51459.02
521.69	50955.80
521.86	51264.75
522.03	51615.83
522.20	51515.19
522.38	51730.52
522.55	51817.12
522.72	51777.33
522.89	51777.33
523.07	52367.15
523.24	51976.28
523.41	52086.28
523.58	51887.34
523.75	52303.95
523.92	52076.92
524.10	52278.21
524.27	52453.75
524.44	52399.91
524.61	52758.02
524.78	52428.00
524.96	52781.42
525.13	53050.58
525.30	52811.85
525.47	52994.41
525.64	52727.59
525.81	52863.34
525.98	53286.98
526.16	53165.27
526.33	52889.09
526.50	53598.27
526.67	53331.45
526.84	53286.98
527.01	53343.15
527.18	53179.31
527.36	53352.51
527.53	53588.91
527.70	53900.20
527.87	53921.26
528.04	53530.39
528.21	53689.55
528.38	53956.37
528.55	54019.56
528.72	53764.45
528.89	54014.88
529.07	53963.39
529.24	53869.77
529.41	53991.48
529.58	54049.99
529.75	53930.62
529.92	54305.11
530.09	54209.15
530.26	54438.52
530.43	54384.69
530.60	54251.28
530.77	54319.15
530.94	54499.37
531.11	54466.61
531.28	54604.70
531.46	54836.41
531.63	54714.70
531.80	54644.49
531.97	54883.22
532.14	54955.78
532.31	54934.71
532.48	55033.02
532.65	55070.46
532.82	54642.15
532.99	55164.09
533.16	55033.02
533.33	55187.49
533.50	55405.16
533.67	55213.24
533.84	55077.49
534.01	55447.29
534.18	55192.17
534.35	55533.89
534.52	55503.46
534.69	55655.60
534.86	55480.06
535.03	55299.84
535.20	55463.67
535.37	55526.87
535.54	55863.91
535.71	55414.52
535.88	55749.22
536.05	55657.94
536.22	56200.94
536.38	55875.61
536.55	55985.61
536.72	55973.91
536.89	55913.06
537.06	55859.23
537.23	56107.32
537.40	55868.59
537.57	55971.57
537.74	56278.18
537.91	56388.19
538.08	56425.64
538.25	55866.25
538.42	56329.67
538.59	56493.51
538.75	56126.05
538.92	56507.55
539.09	56577.77
539.26	56528.62
539.43	56383.51
539.60	56680.75
539.77	56376.48
539.94	56900.76
540.11	56481.81
540.28	56790.76
540.44	56711.18
540.61	56633.94
540.78	56596.49
540.95	56856.29
541.12	56750.97
541.29	56741.61
541.46	56926.51
541.62	56860.97
541.79	57055.24
541.96	56753.31
542.13	56896.08
542.30	56999.07
542.47	57069.28
542.63	57027.15
542.80	57153.54
542.97	57319.72
543.14	57595.90
543.31	57607.61
543.48	57567.82
543.64	57726.97
543.81	57668.46
543.98	57396.96
544.15	57586.54
544.32	57820.59
544.48	57757.40
544.65	57621.65
544.82	57944.64
544.99	57570.16
545.16	57626.33
545.32	57799.53
545.49	58085.07
545.66	58010.18
545.83	57918.90
546.00	58213.80
546.16	57946.98
546.33	57998.48
546.50	57909.53
546.67	58059.33
546.83	58028.90
547.00	57991.45
547.17	58211.46
547.34	57818.25
547.50	58272.32
547.67	58436.16
547.84	58216.14
548.00	58475.94
548.17	58464.24
548.34	58426.79
548.51	58707.66
548.67	58417.43
548.84	58447.86
549.01	58396.37
549.18	58473.60
549.34	58305.09
549.51	58550.84
549.68	58848.09
549.84	58637.44
550.01	58585.95
550.18	58508.71
550.34	58820.00
550.51	58885.54
550.68	58749.79
550.84	58419.77
551.01	58789.58
551.18	58798.94
551.34	58721.70
551.51	58944.05
551.68	58946.39
551.84	58944.05
552.01	58688.93
552.18	58962.78
552.34	58726.38
552.51	59082.14
552.68	58859.79
552.84	59260.02
553.01	59461.31
553.18	59068.10
553.34	59056.40
553.51	59178.10
553.67	59133.63
553.84	59292.79
554.01	59065.76
554.17	59339.60
554.34	59320.88
554.51	59299.81
554.67	59407.48
554.84	59386.41
555.00	59360.67
555.17	59426.20
555.33	59292.79
555.50	59217.89
555.67	59405.14
555.83	59552.59
556.00	59433.22
556.16	59868.56
556.33	59587.70
556.50	59517.48
556.66	59594.72
556.83	59339.60
556.99	59898.99
557.16	59826.43
557.32	59758.56
557.49	59812.39
557.65	59742.17
557.82	59669.62
557.98	59681.32
558.15	59849.84
558.32	59845.16
558.48	59533.87
558.65	59723.45
558.81	59901.33
558.98	59742.17
559.14	59896.65
559.31	59917.71
559.47	59941.12
559.64	59817.07
559.80	59791.33
559.97	60076.87
560.13	60004.31
560.30	60065.17
560.46	59948.14
560.63	60142.41
560.79	60013.68
560.96	60299.22
561.12	60046.44
561.29	60037.08
561.45	60006.65
561.61	60116.66
561.78	60383.48
561.94	60163.47
562.11	60046.44
562.27	60074.53
562.44	60353.05
562.60	60317.95
562.77	60299.22
562.93	60282.84
563.10	60374.12
563.26	60416.25
563.42	60528.59
563.59	60423.27
563.75	60264.11
563.92	60378.80
564.08	60123.68
564.24	60474.76
564.41	60453.70
564.57	60385.82
564.74	60441.99
564.90	60336.67
565.07	60259.43
565.23	60430.29
565.39	60369.44
565.56	60601.15
565.72	60502.85
565.88	60617.53
566.05	60392.84
566.21	60463.06
566.38	60762.65
566.54	60783.71
566.70	60699.45
566.87	60736.90
567.03	60406.89
567.19	60708.82
567.36	60753.29
567.52	60594.13
567.68	60919.46
567.85	60844.57
568.01	60629.24
568.17	60631.58
568.34	60954.57
568.50	60842.23
568.66	60772.01
568.83	60786.05
568.99	60701.79
569.15	60584.77
569.32	60701.79
569.48	60594.13
569.64	60762.65
569.81	60626.90
569.97	60715.84
570.13	60666.69
570.30	60605.83
570.46	60753.29
570.62	60788.39
570.78	60828.18
570.95	60839.89
571.11	60846.91
571.27	60755.63
571.43	60671.37
571.60	60800.10
571.76	61052.87
571.92	60905.42
572.09	60874.99
572.25	60879.67
572.41	61022.45
572.57	60891.38
572.74	61118.41
572.90	60980.32
573.06	60893.72
573.22	61015.43
573.38	61097.34
573.55	60844.57
573.71	60975.64
573.87	60999.04
574.03	60722.86
574.20	61003.72
574.36	60842.23
574.52	61141.81
574.68	61073.94
574.84	61226.07
575.01	60956.91
575.17	60963.93
575.33	60931.17
575.49	60870.31
575.65	61104.37
575.82	61020.11
575.98	61209.69
576.14	61207.35
576.30	61212.03
576.46	61137.13
576.62	60989.68
576.79	61120.75
576.95	61130.11
577.11	61048.19
577.27	61190.97
577.43	60954.57
577.59	61027.13
577.75	61169.90
577.92	60945.21
578.08	61106.71
578.24	60926.49
578.40	61055.21
578.56	61139.47
578.72	61137.13
578.88	61261.18
579.04	61322.04
579.21	61230.75
579.37	61324.38
579.53	61478.85
579.69	60982.66
579.85	61221.39
580.01	61085.64
580.17	61111.39
580.33	61148.84
580.49	61382.89
580.65	61113.73
580.82	61097.34
580.98	61120.75
581.14	61076.28
581.30	61345.44
581.46	61244.80
581.62	61181.60
581.78	61176.92
581.94	61403.95
582.10	61137.13
582.26	61375.87
582.42	61277.57
582.58	61116.07
582.74	61153.52
582.90	61296.29
583.06	61268.20
583.22	61247.14
583.38	61350.12
583.54	61141.81
583.70	61401.61
583.86	61331.40
584.02	61048.19
584.18	61467.15
584.34	61305.65
584.50	61361.82
584.66	61130.11
584.82	61050.53
584.98	61244.80
585.14	61315.01
585.30	61307.99
585.46	61310.33
585.62	61307.99
585.78	61495.24
585.94	61190.97
586.10	61268.20
586.26	61155.86
586.42	61361.82
586.58	61385.23
586.74	61195.65
586.90	61242.46
587.06	61235.44
587.22	61333.74
587.38	61183.94
587.54	61645.03
587.70	61511.62
587.86	61399.27
588.02	61233.10
588.18	61602.90
588.34	61439.06
588.49	61385.23
