SpectraSuite Data File
++++++++++++++++++++++++++++++++++++
Date: Fri Oct 25 10:44:50 EDT 2013
User: price-jones
Dark Spectrum Present: No
Reference Spectrum Present: No
Number of Sampled Component Spectra: 1
Spectrometers: USB2+H05261
Integration Time (usec): 100000 (USB2+H05261)
Spectra Averaged: 1 (USB2+H05261)
Boxcar Smoothing: 0 (USB2+H05261)
Correct for Electrical Dark: No (USB2+H05261)
Strobe/Lamp Enabled: No (USB2+H05261)
Correct for Detector Non-linearity: No (USB2+H05261)
Correct for Stray Light: No (USB2+H05261)
Number of Pixels in Processed Spectrum: 2048
>>>>>Begin Processed Spectral Data<<<<<
365.73	161.50
365.92	161.50
366.12	161.50
366.32	102.98
366.52	0.00
366.72	65.54
366.91	35.11
367.11	16.38
367.31	37.45
367.51	25.75
367.70	25.75
367.90	51.49
368.10	18.72
368.30	42.13
368.49	23.41
368.69	32.77
368.89	51.49
369.09	49.15
369.28	58.51
369.48	28.09
369.68	0.00
369.87	72.56
370.07	124.05
370.27	147.45
370.47	257.46
370.66	327.68
370.86	442.36
371.06	409.59
371.25	484.49
371.45	395.55
371.65	486.83
371.84	407.25
372.04	393.21
372.24	430.66
372.44	482.15
372.63	533.64
372.83	517.26
373.03	540.66
373.22	456.40
373.42	543.00
373.62	533.64
373.81	444.70
374.01	519.60
374.21	535.98
374.40	463.43
374.60	489.17
374.79	538.32
374.99	505.56
375.19	524.28
375.38	615.56
375.58	507.90
375.78	559.39
375.97	587.47
376.17	599.18
376.37	566.41
376.56	580.45
376.76	592.16
376.95	613.22
377.15	596.84
377.35	589.82
377.54	573.43
377.74	547.69
377.93	601.52
378.13	543.00
378.33	641.31
378.52	641.31
378.72	608.54
378.91	638.97
379.11	596.84
379.31	655.35
379.50	653.01
379.70	599.18
379.89	667.05
380.09	692.80
380.28	603.86
380.48	634.29
380.68	587.47
380.87	617.90
381.07	667.05
381.26	704.50
381.46	648.33
381.65	699.82
381.85	631.94
382.04	676.41
382.24	669.39
382.43	634.29
382.63	688.12
382.83	676.41
383.02	692.80
383.22	744.29
383.41	704.50
383.61	753.65
383.80	765.36
384.00	739.61
384.19	772.38
384.39	763.01
384.58	784.08
384.78	737.27
384.97	842.59
385.17	763.01
385.36	737.27
385.56	676.41
385.75	793.44
385.95	760.67
386.14	774.72
386.34	795.78
386.53	816.85
386.72	758.33
386.92	882.38
387.11	816.85
387.31	828.55
387.50	795.78
387.70	814.51
387.89	826.21
388.09	828.55
388.28	791.10
388.48	791.10
388.67	903.45
388.86	842.59
389.06	873.02
389.25	901.11
389.45	950.26
389.64	795.78
389.84	842.59
390.03	936.21
390.22	887.06
390.42	929.19
390.61	884.72
390.81	830.89
391.00	936.21
391.19	936.21
391.39	973.66
391.58	936.21
391.78	1020.47
391.97	894.08
392.16	964.30
392.36	952.60
392.55	1018.13
392.75	990.05
392.94	910.47
393.13	870.68
393.33	931.53
393.52	1041.54
393.71	1053.24
393.91	964.30
394.10	980.68
394.29	1020.47
394.49	1034.52
394.68	1062.60
394.88	1074.31
395.07	1163.25
395.26	1118.78
395.46	1114.10
395.65	1203.04
395.84	1198.35
396.04	1142.18
396.23	1029.84
396.42	1095.37
396.62	1167.93
396.81	1153.88
397.00	1174.95
397.19	1135.16
397.39	1214.74
397.58	1179.63
397.77	1191.33
397.97	1306.02
398.16	1270.91
398.35	1327.08
398.55	1334.11
398.74	1350.49
398.93	1334.11
399.12	1369.21
399.32	1266.23
399.51	1256.87
399.70	1355.17
399.90	1341.13
400.09	1369.21
400.28	1462.83
400.47	1441.77
400.67	1378.58
400.86	1397.30
401.05	1439.43
401.24	1500.28
401.44	1413.68
401.63	1486.24
401.82	1502.62
402.01	1469.86
402.21	1591.56
402.40	1598.59
402.59	1582.20
402.78	1526.03
402.97	1502.62
403.17	1591.56
403.36	1542.41
403.55	1619.65
403.74	1743.70
403.93	1666.46
404.13	1748.38
404.32	1689.87
404.51	1577.52
404.70	1734.34
404.89	1753.06
405.09	1757.74
405.28	1750.72
405.47	1703.91
405.66	1710.93
405.85	1727.32
406.05	1778.81
406.24	1771.79
406.43	1790.51
406.62	1830.30
406.81	1905.20
407.00	1750.72
407.20	1818.60
407.39	1893.49
407.58	1834.98
407.77	1914.56
407.96	1954.35
408.15	2015.20
408.34	1996.48
408.54	1996.48
408.73	2094.78
408.92	2043.29
409.11	2085.42
409.30	2045.63
409.49	2066.69
409.68	2024.56
409.87	2019.88
410.07	2076.06
410.26	2094.78
410.45	2169.68
410.64	2139.25
410.83	2270.32
411.02	2207.13
411.21	2366.28
411.40	2251.60
411.59	2328.83
411.78	2275.00
411.98	2291.38
412.17	2377.98
412.36	2324.15
412.55	2342.88
412.74	2394.37
412.93	2377.98
413.12	2485.65
413.31	2558.21
413.50	2485.65
413.69	2583.95
413.88	2724.38
414.07	2607.36
414.26	2518.42
414.45	2696.30
414.64	2782.90
414.83	2689.28
415.02	2726.72
415.22	2848.43
415.41	2848.43
415.60	2918.65
415.79	2843.75
415.98	2918.65
416.17	2909.29
416.36	3023.97
416.55	2754.81
416.74	2834.39
416.93	2878.86
417.12	2935.03
417.31	3052.06
417.50	2984.18
417.69	3208.87
417.88	3026.31
418.07	3089.51
418.26	3213.56
418.45	3068.44
418.64	3194.83
418.83	3152.70
419.02	3131.64
419.21	3030.99
419.39	3206.53
419.58	3133.98
419.77	3169.09
419.96	3225.26
420.15	3349.31
420.34	3342.28
420.53	3372.71
420.72	3515.48
420.91	3421.86
421.10	3454.63
421.29	3499.10
421.48	3339.94
421.67	3496.76
421.86	3461.65
422.05	3452.29
422.24	3309.52
422.43	3552.93
422.61	3494.42
422.80	3396.12
422.99	3522.51
423.18	3557.61
423.37	3684.00
423.56	3517.83
423.75	3478.04
423.94	3513.14
424.13	3361.01
424.32	3520.17
424.50	3492.08
424.69	3562.30
424.88	3658.26
425.07	3686.34
425.26	3606.77
425.45	3499.10
425.64	3550.59
425.83	3634.85
426.01	3588.04
426.20	3665.28
426.39	3716.77
426.58	3541.23
426.77	3730.81
426.96	3791.67
427.15	3662.94
427.33	3681.66
427.52	3779.97
427.71	3803.37
427.90	3758.90
428.09	3592.72
428.28	3740.18
428.46	3819.75
428.65	3733.15
428.84	3896.99
429.03	3866.56
429.22	3700.39
429.40	3702.73
429.59	3754.22
429.78	3492.08
429.97	3679.32
430.16	3700.39
430.34	3899.33
430.53	3896.99
430.72	3831.46
430.91	4009.34
431.10	4042.11
431.28	4196.58
431.47	4236.37
431.66	4159.13
431.85	4128.70
432.03	4241.05
432.22	4278.50
432.41	4168.49
432.60	4259.78
432.79	4252.75
432.97	4140.41
433.16	4304.25
433.35	4292.54
433.54	4320.63
433.72	4351.06
433.91	4285.52
434.10	4294.88
434.28	4358.08
434.47	4245.73
434.66	4440.00
434.85	4571.07
435.03	4440.00
435.22	4545.32
435.41	4521.92
435.59	4580.43
435.78	4631.92
435.97	4648.30
436.16	4571.07
436.34	4657.67
436.53	4552.34
436.72	4620.22
436.90	4622.56
437.09	4784.06
437.28	4674.05
437.46	4723.20
437.65	4610.86
437.84	4762.99
438.02	4678.73
438.21	4674.05
438.40	4681.07
438.58	4870.65
438.77	4919.81
438.96	4868.31
439.14	4868.31
439.33	5090.67
439.52	5046.20
439.70	4990.02
439.89	5261.52
440.08	5158.54
440.26	5048.54
440.45	5294.29
440.63	5289.61
440.82	5476.85
441.01	5427.70
441.19	5359.83
441.38	5331.74
441.57	5460.47
441.75	5771.76
441.94	5547.07
442.12	5659.42
442.31	5767.08
442.50	5706.23
442.68	5858.36
442.87	5591.54
443.05	5757.72
443.24	5989.43
443.43	5685.16
443.61	5767.08
443.80	5987.09
443.98	5809.21
444.17	5481.53
444.35	5982.41
444.54	5909.85
444.73	5968.37
444.91	5708.57
445.10	6022.20
445.28	5741.33
445.47	5790.49
445.65	5795.17
445.84	5937.94
446.02	6052.63
446.21	5975.39
446.39	5926.24
446.58	5947.30
446.77	5921.56
446.95	5853.68
447.14	5926.24
447.32	6104.12
447.51	5975.39
447.69	5961.34
447.88	6029.22
448.06	5982.41
448.25	6033.90
448.43	6080.71
448.62	6108.80
448.80	6038.58
448.99	6225.82
449.17	6230.51
449.36	6162.63
449.54	6286.68
449.73	6427.11
449.91	6490.31
450.10	6321.79
450.28	6408.39
450.46	6359.24
450.65	6509.03
450.83	6415.41
451.02	6354.55
451.20	6693.93
451.39	6539.46
451.57	6647.12
451.76	6434.13
451.94	6576.91
452.13	6616.69
452.31	6324.13
452.49	6349.87
452.68	6633.08
452.86	6551.16
453.05	6710.32
453.23	6710.32
453.42	6513.71
453.60	6750.10
453.78	6614.35
453.97	6544.14
454.15	6560.52
454.34	6717.34
454.52	6761.81
454.70	6729.04
454.89	6743.08
455.07	6832.02
455.26	6850.75
455.44	6857.77
455.62	7129.27
455.81	7075.44
455.99	7234.60
456.17	7016.93
456.36	7016.93
456.54	7206.51
456.73	7283.75
456.91	7232.26
457.09	7325.88
457.28	7325.88
457.46	7281.41
457.64	7550.57
457.83	7316.51
458.01	7199.49
458.19	7428.86
458.38	7199.49
458.56	7449.93
458.74	7288.43
458.93	7433.54
459.11	7489.71
459.29	7346.94
459.48	7545.89
459.66	7377.37
459.84	7454.61
460.03	7709.72
460.21	7702.70
460.39	7566.95
460.57	7847.82
460.76	7686.32
460.94	7885.26
461.12	7868.88
461.31	7754.19
461.49	7754.19
461.67	7772.92
461.85	8042.08
462.04	7763.56
462.22	8013.99
462.40	8149.75
462.59	8028.04
462.77	7953.14
462.95	8058.46
463.13	8056.12
463.32	8067.83
463.50	8224.64
463.68	8292.52
463.86	8400.18
464.05	8065.49
464.23	8032.72
464.41	8138.04
464.59	8044.42
464.78	8521.89
464.96	8252.73
465.14	8191.88
465.32	8243.37
465.50	8346.35
465.69	8540.61
465.87	8351.03
466.05	8407.20
466.23	8503.17
466.41	8348.69
466.60	8786.37
466.78	8444.65
466.96	8493.80
467.14	8355.71
467.32	8423.59
467.51	8685.73
467.69	8400.18
467.87	8533.59
468.05	8692.75
468.23	8510.19
468.41	8535.93
468.60	8538.27
468.78	8830.84
468.96	8592.11
469.14	8812.12
469.32	8985.32
469.50	8734.88
469.69	9036.81
469.87	9022.77
470.05	9060.21
470.23	8908.08
470.41	8978.30
470.59	9004.04
470.77	9034.47
470.95	9020.42
471.14	9219.37
471.32	8943.19
471.50	9217.03
471.68	9338.74
471.86	9324.69
472.04	9521.30
472.22	9451.08
472.40	9193.62
472.58	9448.74
472.77	9425.34
472.95	9376.19
473.13	9717.90
473.31	9640.67
473.49	9448.74
473.67	9682.80
473.85	9699.18
474.03	9958.98
474.21	10031.54
474.39	9954.30
474.57	10118.14
474.75	10080.69
474.93	10169.63
475.12	10127.50
475.30	10181.33
475.48	10197.71
475.66	10361.55
475.84	10286.65
476.02	10469.22
476.20	10415.38
476.38	10658.80
476.56	11007.54
476.74	10750.08
476.92	10703.27
477.10	10827.32
477.28	11145.63
477.46	10993.50
477.64	11023.92
477.82	11187.76
478.00	11325.85
478.18	11508.41
478.36	11304.79
478.54	11709.70
478.72	11754.17
478.90	11903.96
479.08	11695.66
479.26	12006.95
479.44	12238.66
479.62	12109.93
479.80	12149.72
479.98	12313.56
480.16	12475.06
480.34	12430.59
480.52	12360.37
480.70	12727.83
480.88	12255.04
481.06	12613.15
481.24	12819.11
481.41	12854.22
481.59	13085.94
481.77	12877.63
481.95	13053.17
482.13	13228.71
482.31	13448.72
482.49	13687.45
482.67	13666.39
482.85	13565.74
483.03	13965.98
483.21	14094.71
483.39	14092.37
483.57	13994.06
483.74	14389.61
483.92	14312.38
484.10	14059.60
484.28	14452.81
484.46	14871.76
484.64	15140.93
484.82	14668.14
485.00	15075.39
485.18	15274.34
485.35	15484.98
485.53	14897.51
485.71	15309.44
485.89	15257.95
486.07	15321.15
486.25	15564.56
486.43	15562.22
486.61	15852.45
486.78	15852.45
486.96	15845.43
487.14	16533.54
487.32	16215.23
487.50	16601.42
487.68	16739.51
487.85	16898.67
488.03	16996.97
488.21	17200.60
488.39	17050.80
488.57	17319.96
488.75	17444.01
488.92	17589.13
489.10	17823.18
489.28	17734.24
489.46	18068.94
489.64	18141.49
489.81	18567.47
489.99	18672.79
490.17	18448.10
490.35	18977.06
490.53	18714.92
490.70	18876.42
490.88	18897.49
491.06	19243.88
491.24	19311.76
491.41	19278.99
491.59	19241.54
491.77	19140.90
491.95	19555.18
492.13	19571.56
492.30	19892.21
492.48	19831.36
492.66	20144.99
492.84	19798.59
493.01	20119.24
493.19	20166.06
493.37	20636.50
493.54	20325.21
493.72	20861.19
493.90	20769.91
494.08	21322.28
494.25	21018.01
494.43	21455.69
494.61	21303.56
494.79	21701.45
494.96	21633.57
495.14	21661.66
495.32	21820.81
495.49	21741.24
495.67	21926.14
495.85	22347.44
496.02	22260.84
496.20	22347.44
496.38	22436.38
496.55	22768.73
496.73	23070.66
496.91	22759.37
497.09	23173.64
497.26	22707.88
497.44	22979.38
497.62	23185.35
497.79	23667.50
497.97	23262.58
498.14	23601.96
498.32	23798.57
498.50	23885.17
498.67	23880.49
498.85	24102.84
499.03	24226.89
499.20	24123.90
499.38	24208.16
499.56	24372.00
499.73	24479.66
499.91	24725.42
500.08	24376.68
500.26	24760.53
500.44	24702.01
500.61	24797.98
500.79	24900.96
500.97	24957.13
501.14	25385.45
501.32	25645.25
501.49	25146.72
501.67	25125.65
501.84	25296.51
502.02	25329.28
502.20	26057.18
502.37	25745.89
502.55	25752.91
502.72	25401.83
502.90	26024.42
503.07	25867.60
503.25	26050.16
503.43	26122.72
503.60	26319.32
503.78	26349.75
503.95	26476.14
504.13	26656.36
504.30	26586.15
504.48	26455.08
504.65	26834.24
504.83	27005.10
505.01	27012.12
505.18	26857.65
505.36	27077.66
505.53	27407.67
505.71	27445.12
505.88	27658.11
506.06	27557.47
506.23	27805.56
506.41	27428.74
506.58	27728.33
506.76	27953.02
506.93	28025.57
507.11	28170.69
507.28	27749.39
507.46	27660.45
507.63	28013.87
507.81	28367.29
507.98	28123.88
508.16	28346.23
508.33	28549.85
508.50	28720.71
508.68	28875.19
508.85	29282.44
509.03	28865.83
509.20	28987.53
509.38	28837.74
509.55	29490.75
509.73	29127.97
509.90	29081.16
510.08	29277.76
510.25	29237.97
510.42	29411.17
510.60	29734.17
510.77	30265.47
510.95	29879.28
511.12	29345.64
511.30	29961.20
511.47	30064.18
511.64	30562.72
511.82	30174.19
511.99	30249.08
512.17	30256.11
512.34	29991.62
512.51	30391.86
512.69	30494.84
512.86	30546.33
513.04	30527.61
513.21	30731.23
513.38	30686.76
513.56	30850.60
513.73	30696.13
513.90	30976.99
514.08	30808.47
514.25	31058.91
514.43	31304.67
514.60	31384.24
514.77	31110.40
514.95	31400.63
515.12	31576.17
515.29	31175.94
515.47	31873.42
515.64	31592.55
515.81	31489.57
515.99	31810.22
516.16	32011.51
516.33	31814.90
516.51	31571.49
516.68	31599.57
516.85	31447.44
517.03	31634.68
517.20	32266.63
517.37	32168.32
517.54	32371.95
517.72	32081.72
517.89	32121.51
518.06	32072.36
518.24	32350.88
518.41	31948.31
518.58	32346.20
518.75	32552.17
518.93	32807.29
519.10	32973.47
519.27	33046.02
519.45	33001.55
519.62	33184.12
519.79	33251.99
519.96	33202.84
520.14	33598.39
520.31	33352.63
520.48	33191.14
520.65	33268.37
520.83	33560.94
521.00	33652.22
521.17	33574.98
521.34	34022.03
521.52	33926.07
521.69	33961.17
521.86	34071.18
522.03	33825.42
522.20	34267.78
522.38	34410.56
522.55	34246.72
522.72	34146.08
522.89	34279.49
523.07	34600.14
523.24	34022.03
523.41	34553.33
523.58	34590.78
523.75	35356.13
523.92	35351.45
524.10	35072.93
524.27	34953.56
524.44	35084.63
524.61	35005.05
524.78	35522.31
524.96	35573.80
525.13	35370.18
525.30	35306.98
525.47	35887.43
525.64	35615.93
525.81	35363.15
525.98	35384.22
526.16	35159.53
526.33	35367.84
526.50	35737.64
526.67	34974.63
526.84	35220.38
527.01	35412.31
527.18	35812.54
527.36	36037.23
527.53	36095.74
527.70	36313.41
527.87	36411.71
528.04	36084.04
528.21	36442.14
528.38	36018.50
528.55	36655.13
528.72	36463.21
528.89	36620.02
529.07	36589.59
529.24	36320.43
529.41	36725.35
529.58	36444.48
529.75	36804.92
529.92	36503.00
530.09	36741.73
530.26	36851.73
530.43	37125.58
530.60	36460.87
530.77	37050.68
530.94	37331.54
531.11	37106.85
531.28	37284.73
531.46	37233.24
531.63	37537.51
531.80	37502.40
531.97	37310.48
532.14	37806.67
532.31	36982.80
532.48	37633.47
532.65	37280.05
532.82	37443.89
532.99	37797.31
533.16	37701.35
533.33	37748.16
533.50	37848.80
533.67	37900.29
533.84	37699.01
534.01	38059.45
534.18	37928.38
534.35	38113.28
534.52	37825.40
534.69	38117.96
534.86	38455.00
535.03	38305.21
535.20	38321.59
535.37	38445.64
535.54	38850.55
535.71	38471.39
535.88	38249.03
536.05	38649.27
536.22	38543.94
536.38	38323.93
536.55	38534.58
536.72	38630.54
536.89	38345.00
537.06	38623.52
537.23	39075.24
537.40	38625.86
537.57	38773.31
537.74	39103.33
537.91	39295.25
538.08	39110.35
538.25	38983.96
538.42	39044.82
538.59	39285.89
538.75	39091.63
538.92	39325.68
539.09	38983.96
539.26	39431.01
539.43	39463.77
539.60	39761.02
539.77	39194.61
539.94	39248.44
540.11	39054.18
540.28	39332.70
540.44	39449.73
540.61	39557.39
540.78	39494.20
540.95	39407.60
541.12	39531.65
541.29	39704.85
541.46	39173.55
541.62	39899.11
541.79	39959.97
541.96	39936.56
542.13	39571.44
542.30	40226.79
542.47	40203.38
542.63	40065.29
542.80	40439.78
542.97	40226.79
543.14	40755.75
543.31	40561.48
543.48	40797.88
543.64	40631.70
543.81	40914.90
543.98	41003.85
544.15	40638.72
544.32	40816.60
544.48	41038.95
544.65	40655.11
544.82	40926.61
544.99	40561.48
545.16	41191.09
545.32	41048.32
545.49	41076.40
545.66	41514.08
545.83	41507.06
546.00	41879.21
546.16	41500.04
546.33	40765.11
546.50	41170.02
546.67	41090.44
546.83	40505.31
547.00	41429.82
547.17	41441.53
547.34	41151.30
547.50	41251.94
547.67	41832.39
547.84	41741.11
548.00	42029.00
548.17	41806.65
548.34	41361.95
548.51	42007.94
548.67	42223.26
548.84	41806.65
549.01	41680.26
549.18	41340.88
549.34	41975.17
549.51	41722.39
549.68	41797.29
549.84	42071.13
550.01	42270.08
550.18	41713.03
550.34	41961.12
550.51	41916.65
550.68	42120.28
550.84	41584.30
551.01	41897.93
551.18	42043.04
551.34	42099.22
551.51	42431.57
551.68	41914.31
551.84	42787.33
552.01	42337.95
552.18	42387.10
552.34	42007.94
552.51	42239.65
552.68	42045.38
552.84	42897.34
553.01	42391.78
553.18	42726.48
553.34	42312.20
553.51	42515.83
553.67	42469.02
553.84	42887.98
554.01	42672.65
554.17	42756.91
554.34	42501.79
554.51	42674.99
554.67	42525.19
554.84	42253.69
555.00	42843.51
555.17	42380.08
555.33	42677.33
555.50	42761.59
555.67	42820.10
555.83	43072.88
556.00	42969.90
556.16	43220.33
556.33	42773.29
556.50	43084.58
556.66	43253.10
556.83	42974.58
556.99	43613.54
557.16	43246.08
557.32	43079.90
557.49	43538.65
557.65	43051.81
557.82	43091.60
557.98	43445.02
558.15	43264.80
558.32	43468.43
558.48	43285.87
558.65	43564.39
558.81	42902.02
558.98	43248.42
559.14	43545.67
559.31	43391.19
559.47	43274.16
559.64	43629.93
559.80	43501.20
559.97	43667.37
560.13	43131.39
560.30	43119.69
560.46	43203.95
560.63	43356.08
560.79	43732.91
560.96	44163.57
561.12	44025.48
561.29	43555.03
561.45	43669.72
561.61	43828.87
561.78	43503.54
561.94	43433.32
562.11	43739.93
562.27	43793.76
562.44	43597.16
562.60	44156.55
562.77	43777.38
562.93	43854.62
563.10	43910.79
563.26	43566.73
563.42	43892.07
563.59	43578.43
563.75	43798.44
563.92	43934.20
564.08	44128.46
564.24	44004.41
564.41	43571.41
564.57	43725.89
564.74	44107.40
564.90	43800.79
565.07	43845.26
565.23	44144.84
565.39	44144.84
565.56	44280.60
565.72	43597.16
565.88	43966.96
566.05	43983.35
566.21	44011.43
566.38	43636.95
566.54	44062.93
566.70	43934.20
566.87	44259.53
567.03	43938.88
567.19	44339.11
567.36	44081.65
567.52	44116.76
567.68	44399.96
567.85	44580.18
568.01	44369.54
568.17	43697.80
568.34	44437.41
568.50	43929.51
568.66	44023.14
568.83	44332.09
568.99	43730.57
569.15	43873.34
569.32	44189.31
569.48	44004.41
569.64	44912.54
569.81	43948.24
569.97	44439.75
570.13	44327.41
570.30	43863.98
570.46	44201.02
570.62	43917.81
570.78	44100.37
570.95	43983.35
571.11	44406.98
571.27	44161.23
571.43	43981.01
571.60	44411.67
571.76	43988.03
571.92	44224.42
572.09	44189.31
572.25	44322.72
572.41	44238.47
572.57	44397.62
572.74	45097.44
572.90	45024.89
573.06	44189.31
573.22	44519.33
573.38	44563.80
573.55	43777.38
573.71	44584.86
573.87	44299.32
574.03	44299.32
574.20	44378.90
574.36	44552.10
574.52	44421.03
574.68	44556.78
574.84	44446.77
575.01	44191.65
575.17	44320.38
575.33	44060.58
575.49	44198.68
575.65	44423.37
575.82	44795.51
575.98	44388.26
576.14	44765.09
576.30	44643.38
576.46	44212.72
576.62	44542.74
576.79	44547.42
576.95	44196.34
577.11	44470.18
577.27	44762.75
577.43	44547.42
577.59	44626.99
577.75	44402.30
577.92	44252.51
578.08	44341.45
578.24	44514.65
578.40	44722.96
578.56	43992.71
578.72	44247.83
578.88	44769.77
579.04	44781.47
579.21	44711.25
579.37	44374.22
579.53	44488.90
579.69	44495.92
579.85	44446.77
580.01	44439.75
580.17	44294.64
580.33	44224.42
580.49	44641.04
580.65	44842.32
580.82	44676.15
580.98	44402.30
581.14	44423.37
581.30	44842.32
581.46	44774.45
581.62	44748.70
581.78	44872.75
581.94	44612.95
582.10	44488.90
582.26	44479.54
582.42	44467.84
582.58	44369.54
582.74	44500.61
582.90	44725.30
583.06	44949.99
583.22	44762.75
583.38	44900.84
583.54	44818.92
583.70	44980.42
583.86	44842.32
584.02	44311.02
584.18	44470.18
584.34	44783.81
584.50	44516.99
584.66	44385.92
584.82	44182.29
584.98	45118.51
585.14	44765.09
585.30	44650.40
585.46	44610.61
585.62	44629.34
585.78	44624.65
585.94	44322.72
586.10	44779.13
586.26	44275.91
586.42	44774.45
586.58	44741.68
586.74	44741.68
586.90	44430.39
587.06	44357.83
587.22	44809.56
587.38	44456.14
587.54	44797.85
587.70	44526.35
587.86	44912.54
588.02	45003.82
588.18	44631.68
588.34	44568.48
588.49	44760.40
588.65	44334.43
588.81	43959.94
588.97	44495.92
589.13	44030.16
589.29	44762.75
589.45	44626.99
589.61	44608.27
589.77	45074.04
589.93	45172.34
590.08	45275.32
590.24	44697.21
