SpectraSuite Data File
++++++++++++++++++++++++++++++++++++
Date: Fri Oct 25 11:23:32 EDT 2013
User: price-jones
Dark Spectrum Present: No
Reference Spectrum Present: No
Number of Sampled Component Spectra: 1
Spectrometers: USB2+H05261
Integration Time (usec): 100000 (USB2+H05261)
Spectra Averaged: 1 (USB2+H05261)
Boxcar Smoothing: 0 (USB2+H05261)
Correct for Electrical Dark: No (USB2+H05261)
Strobe/Lamp Enabled: No (USB2+H05261)
Correct for Detector Non-linearity: No (USB2+H05261)
Correct for Stray Light: No (USB2+H05261)
Number of Pixels in Processed Spectrum: 2048
>>>>>Begin Processed Spectral Data<<<<<
365.73	201.29
365.92	201.29
366.12	201.29
366.32	156.82
366.52	93.62
366.72	140.43
366.91	145.11
367.11	93.62
367.31	60.85
367.51	145.11
367.70	121.71
367.90	163.84
368.10	166.18
368.30	166.18
368.49	138.09
368.69	196.60
368.89	138.09
369.09	166.18
369.28	95.96
369.48	198.95
369.68	205.97
369.87	163.84
370.07	227.03
370.27	175.54
370.47	407.25
370.66	512.58
370.86	528.96
371.06	622.58
371.25	671.73
371.45	678.76
371.65	692.80
371.84	695.14
372.04	631.94
372.24	671.73
372.44	683.44
372.63	720.88
372.83	645.99
373.03	772.38
373.22	723.23
373.42	814.51
373.62	748.97
373.81	760.67
374.01	746.63
374.21	805.14
374.40	842.59
374.60	847.27
374.79	866.00
374.99	821.53
375.19	851.96
375.38	856.64
375.58	821.53
375.78	821.53
375.97	837.91
376.17	908.13
376.37	849.61
376.56	919.83
376.76	873.02
376.95	807.48
377.15	863.66
377.35	891.74
377.54	884.72
377.74	940.90
377.93	847.27
378.13	863.66
378.33	868.34
378.52	887.06
378.72	994.73
378.91	964.30
379.11	936.21
379.31	898.77
379.50	823.87
379.70	908.13
379.89	978.34
380.09	1013.45
380.28	1011.11
380.48	985.37
380.68	999.41
380.87	880.04
381.07	1025.15
381.26	994.73
381.46	1008.77
381.65	994.73
381.85	1064.94
382.04	1057.92
382.24	1039.20
382.43	1123.46
382.63	1121.12
382.83	1074.31
383.02	1125.80
383.22	1081.33
383.41	1078.99
383.61	1046.22
383.80	1121.12
384.00	1067.28
384.19	1116.44
384.39	1083.67
384.58	1142.18
384.78	1219.42
384.97	1158.57
385.17	1158.57
385.36	1149.20
385.56	1151.54
385.75	1128.14
385.95	1083.67
386.14	1165.59
386.34	1259.21
386.53	1299.00
386.72	1252.19
386.92	1270.91
387.11	1196.01
387.31	1256.87
387.50	1259.21
387.70	1212.40
387.89	1235.80
388.09	1313.04
388.28	1256.87
388.48	1350.49
388.67	1331.76
388.86	1294.32
389.06	1284.95
389.25	1324.74
389.45	1348.15
389.64	1301.34
389.84	1448.79
390.03	1399.64
390.22	1378.58
390.42	1357.51
390.61	1366.87
390.81	1343.47
391.00	1341.13
391.19	1453.47
391.39	1486.24
391.58	1453.47
391.78	1406.66
391.97	1537.73
392.16	1401.98
392.36	1507.30
392.55	1521.35
392.75	1448.79
392.94	1495.60
393.13	1561.14
393.33	1481.56
393.52	1582.20
393.71	1568.16
393.91	1558.80
394.10	1589.22
394.29	1621.99
394.49	1682.85
394.68	1668.80
394.88	1589.22
395.07	1699.23
395.26	1631.35
395.46	1638.38
395.65	1781.15
395.84	1692.21
396.04	1785.83
396.23	1767.10
396.42	1823.28
396.62	1764.76
396.81	1809.23
397.00	1706.25
397.19	1813.92
397.39	1727.32
397.58	1825.62
397.77	1774.13
397.97	1788.17
398.16	1902.86
398.35	1923.92
398.55	1937.96
398.74	1947.33
398.93	1940.30
399.12	1895.83
399.32	1856.04
399.51	1827.96
399.70	1916.90
399.90	1954.35
400.09	2143.93
400.28	2073.71
400.47	2001.16
400.67	2029.24
400.86	2157.97
401.05	2064.35
401.24	2038.61
401.44	2097.12
401.63	2104.14
401.82	2040.95
402.01	2043.29
402.21	2204.78
402.40	2207.13
402.59	2160.31
402.78	2251.60
402.97	2263.30
403.17	2293.72
403.36	2307.77
403.55	2293.72
403.74	2293.72
403.93	2366.28
404.13	2389.69
404.32	2359.26
404.51	2487.99
404.70	2471.61
404.89	2420.11
405.09	2583.95
405.28	2396.71
405.47	2427.14
405.66	2590.97
405.85	2548.84
406.05	2462.24
406.24	2469.27
406.43	2462.24
406.62	2605.02
406.81	2686.94
407.00	2654.17
407.20	2551.18
407.39	2562.89
407.58	2736.09
407.77	2693.96
407.96	2626.08
408.15	2864.82
408.34	2740.77
408.54	2850.77
408.73	2729.06
408.92	2801.62
409.11	2789.92
409.30	2885.88
409.49	2860.13
409.68	2895.24
409.87	2888.22
410.07	3014.61
410.26	2963.12
410.45	2932.69
410.64	3066.10
410.83	3028.65
411.02	3084.83
411.21	3148.02
411.40	3176.11
411.59	3173.77
411.78	3218.24
411.98	3243.98
412.17	3323.56
412.36	3297.81
412.55	3208.87
412.74	3377.39
412.93	3438.25
413.12	3372.71
413.31	3590.38
413.50	3501.44
413.69	3515.48
413.88	3583.36
414.07	3618.47
414.26	3590.38
414.45	3625.49
414.64	3824.44
414.83	3826.78
415.02	3784.65
415.22	3791.67
415.41	3871.25
415.60	3899.33
415.79	3794.01
415.98	3953.16
416.17	3948.48
416.36	3925.08
416.55	3936.78
416.74	4046.79
416.93	4065.51
417.12	4259.78
417.31	4032.74
417.50	4245.73
417.69	4280.84
417.88	4168.49
418.07	4290.20
418.26	4327.65
418.45	4308.93
418.64	4486.81
418.83	4505.53
419.02	4484.47
419.21	4592.13
419.39	4468.08
419.58	4418.93
419.77	4498.51
419.96	4528.94
420.15	4592.13
420.34	4573.41
420.53	4519.57
420.72	4657.67
420.91	4620.22
421.10	4559.36
421.29	4884.70
421.48	4795.76
421.67	4723.20
421.86	4760.65
422.05	4858.95
422.24	5004.07
422.43	4954.91
422.61	4905.76
422.80	4978.32
422.99	4875.34
423.18	4959.60
423.37	4887.04
423.56	4933.85
423.75	4837.89
423.94	4816.82
424.13	4662.35
424.32	4777.03
424.50	4992.36
424.69	5060.24
424.88	5245.14
425.07	4964.28
425.26	5006.41
425.45	4854.27
425.64	4952.57
425.83	4959.60
426.01	5064.92
426.20	5060.24
426.39	5224.08
426.58	5135.14
426.77	5039.17
426.96	5071.94
427.15	5088.32
427.33	5144.50
427.52	5170.24
427.71	5366.85
427.90	5118.75
428.09	5380.89
428.28	5369.19
428.46	5444.09
428.65	5451.11
428.84	5521.32
429.03	5401.96
429.22	5530.69
429.40	5458.13
429.59	5472.17
429.78	5334.08
429.97	5275.57
430.16	5563.45
430.34	5434.72
430.53	5661.76
430.72	5624.31
430.91	5652.39
431.10	5563.45
431.28	5687.50
431.47	5795.17
431.66	5851.34
431.85	5799.85
432.03	5856.02
432.22	6066.67
432.41	5940.28
432.60	5778.78
432.79	5846.66
432.97	5954.32
433.16	6052.63
433.35	6022.20
433.54	6094.76
433.72	6207.10
433.91	6150.93
434.10	6195.40
434.28	6153.27
434.47	6307.74
434.66	6230.51
434.85	6340.51
435.03	6368.60
435.22	6331.15
435.41	6370.94
435.59	6511.37
435.78	6427.11
435.97	6333.49
436.16	6492.65
436.34	6321.79
436.53	6424.77
436.72	6616.69
436.90	6476.26
437.09	6693.93
437.28	6516.05
437.46	6630.74
437.65	6609.67
437.84	6963.09
438.02	6675.21
438.21	6801.60
438.40	6731.38
438.58	7000.54
438.77	6988.84
438.96	7005.22
439.14	6967.77
439.33	7157.36
439.52	7274.38
439.70	7178.42
439.89	7424.18
440.08	7499.08
440.26	7492.05
440.45	7363.33
440.63	7463.97
440.82	7562.27
441.01	7501.42
441.19	7468.65
441.38	7831.43
441.57	7866.54
441.75	7791.64
441.94	7969.52
442.12	7779.94
442.31	8095.91
442.50	8063.15
442.68	7854.84
442.87	7896.97
443.05	8095.91
443.24	8208.26
443.43	8203.58
443.61	8241.03
443.80	8458.70
443.98	8013.99
444.17	7915.69
444.35	8250.39
444.54	8435.29
444.73	8336.99
444.91	8444.65
445.10	8482.10
445.28	8166.13
445.47	8393.16
445.65	8306.56
445.84	8557.00
446.02	8514.87
446.21	8416.57
446.39	8451.67
446.58	8554.66
446.77	8514.87
446.95	8374.44
447.14	8475.08
447.32	8528.91
447.51	8498.49
447.69	8465.72
447.88	8643.60
448.06	8346.35
448.25	8276.13
448.43	8575.72
448.62	8554.66
448.80	8521.89
448.99	8819.14
449.17	8655.30
449.36	8643.60
449.54	8978.30
449.73	8950.21
449.91	9088.30
450.10	8741.90
450.28	9144.47
450.46	9078.94
450.65	8931.48
450.83	9055.53
451.02	9158.52
451.20	8929.14
451.39	9217.03
451.57	9107.02
451.76	9195.96
451.94	9270.86
452.13	9399.59
452.31	9149.15
452.49	9130.43
452.68	9394.91
452.86	9111.71
453.05	9350.44
453.23	9479.17
453.42	9245.12
453.60	9481.51
453.78	9680.46
453.97	9589.17
454.15	9549.39
454.34	9661.73
454.52	9671.09
454.70	9806.84
454.89	9839.61
455.07	9860.68
455.26	9926.21
455.44	9930.89
455.62	9797.48
455.81	10005.79
455.99	9975.36
456.17	9980.04
456.36	10157.92
456.54	10230.48
456.73	10331.12
456.91	10448.15
457.09	10473.90
457.28	10555.82
457.46	10448.15
457.64	10611.99
457.83	10403.68
458.01	10312.40
458.19	10668.16
458.38	10757.10
458.56	10888.17
458.74	10635.39
458.93	10649.44
459.11	10731.36
459.29	10787.53
459.48	10808.59
459.66	10719.65
459.84	10988.82
460.03	11047.33
460.21	11056.69
460.39	11042.65
460.57	10885.83
460.76	11243.93
460.94	11253.30
461.12	11066.05
461.31	11056.69
461.49	11164.36
461.67	11077.76
461.85	11765.87
462.04	11377.34
462.22	11810.34
462.40	11695.66
462.59	11522.46
462.77	11321.17
462.95	11761.19
463.13	11634.80
463.32	11646.51
463.50	11763.53
463.68	11665.23
463.86	11878.22
464.05	11655.87
464.23	11555.22
464.41	11894.60
464.59	11705.02
464.78	12299.52
464.96	11971.84
465.14	12058.44
465.32	12131.00
465.50	12278.45
465.69	12252.70
465.87	12219.94
466.05	12018.65
466.23	12355.69
466.41	12196.53
466.60	12446.97
466.78	12273.77
466.96	12257.39
467.14	12212.92
467.32	12334.62
467.51	12358.03
467.69	12294.83
467.87	12215.26
468.05	12690.38
468.23	12411.86
468.41	12549.95
468.60	12802.73
468.78	12697.41
468.96	12631.87
469.14	12908.05
469.32	13125.72
469.50	12765.28
469.69	13116.36
469.87	13153.81
470.05	13032.10
470.23	13235.73
470.41	13275.52
470.59	13486.17
470.77	13296.58
470.95	13317.65
471.14	13558.72
471.32	13242.75
471.50	13621.92
471.68	13654.69
471.86	13778.73
472.04	13778.73
472.22	14033.85
472.40	13813.84
472.58	13731.92
472.77	14010.45
472.95	13998.74
473.13	14558.13
473.31	14211.73
473.49	14001.08
473.67	14223.44
473.85	14448.13
474.03	14925.60
474.21	14370.89
474.39	14867.08
474.57	14644.73
474.75	15033.26
474.93	14881.13
475.12	14932.62
475.30	15215.82
475.48	15382.00
475.66	15314.13
475.84	15250.93
476.02	15274.34
476.20	15414.77
476.38	15623.08
476.56	16112.25
476.74	16105.23
476.92	15943.73
477.10	15927.35
477.28	15857.13
477.46	16350.98
477.64	16641.21
477.82	16812.07
478.00	17130.38
478.18	17003.99
478.36	16730.15
478.54	17172.51
478.72	17411.25
478.90	17235.70
479.08	17369.12
479.26	17717.86
479.44	17862.97
479.62	17717.86
479.80	18115.75
479.98	18176.60
480.16	18693.86
480.34	18356.82
480.52	18679.82
480.70	19087.07
480.88	18443.42
481.06	18640.03
481.24	18787.48
481.41	19255.59
481.59	19477.94
481.77	19531.77
481.95	19424.11
482.13	19784.55
482.31	19840.72
482.49	20311.17
482.67	20203.50
482.85	20390.75
483.03	20650.55
483.21	20940.77
483.39	20910.35
483.57	21039.08
483.74	21008.65
483.92	21518.89
484.10	21242.70
484.28	21853.58
484.46	21912.10
484.64	22672.77
484.82	21762.30
485.00	22548.72
485.18	22705.54
485.35	23009.81
485.53	23103.43
485.71	22981.72
485.89	23625.37
486.07	23262.58
486.25	23440.47
486.43	23342.16
486.61	23885.17
486.78	24081.77
486.96	24493.71
487.14	24451.58
487.32	24673.93
487.50	24907.98
487.68	25273.10
487.85	25301.19
488.03	25502.48
488.21	26214.00
488.39	26429.33
488.57	26298.26
488.75	26242.09
488.92	26672.74
489.10	26604.87
489.28	26593.17
489.46	27108.08
489.64	27206.39
489.81	28023.23
489.99	27648.75
490.17	27962.38
490.35	28376.66
490.53	28414.10
490.70	28739.44
490.88	28479.64
491.06	28615.39
491.24	28847.10
491.41	29551.60
491.59	29546.92
491.77	29397.13
491.95	29528.20
492.13	29909.71
492.30	30125.04
492.48	30022.05
492.66	30347.39
492.84	30073.54
493.01	30696.13
493.19	30988.69
493.37	30892.73
493.54	31321.05
493.72	31412.33
493.90	31487.23
494.08	31466.16
494.25	32238.54
494.43	31597.23
494.61	32617.71
494.79	32666.86
494.96	32198.75
495.14	33083.47
495.32	33301.14
495.49	33326.89
495.67	33326.89
495.85	33731.80
496.02	33703.71
496.20	34160.12
496.38	34197.57
496.55	34352.04
496.73	35075.27
496.91	34485.45
497.09	35063.57
497.26	34831.85
497.44	35260.17
497.62	35637.00
497.79	36222.13
497.97	35480.18
498.14	36285.33
498.32	36381.29
498.50	36435.12
498.67	36481.93
498.85	36730.03
499.03	37151.32
499.20	36914.93
499.38	36622.36
499.56	37181.75
499.73	37312.82
499.91	37455.59
500.08	37797.31
500.26	37511.77
500.44	38019.66
500.61	38082.86
500.79	38141.37
500.97	38394.15
501.14	38632.88
501.32	38590.75
501.49	38469.04
501.67	38829.49
501.84	39077.58
502.02	38429.26
502.20	38998.01
502.37	39061.20
502.55	39522.29
502.72	39831.24
502.90	39356.11
503.07	39868.69
503.25	39882.73
503.43	39974.01
503.60	39988.05
503.78	40011.46
503.95	40367.22
504.13	40201.04
504.30	40994.48
504.48	40790.86
504.65	40793.20
504.83	41003.85
505.01	41572.60
505.18	41612.38
505.36	41691.96
505.53	41336.20
505.71	42040.70
505.88	42174.11
506.06	41612.38
506.23	42288.80
506.41	41420.46
506.58	42218.58
506.76	42359.02
506.93	42164.75
507.11	42422.21
507.28	42784.99
507.46	43189.91
507.63	43466.09
507.81	43229.69
507.98	43075.22
508.16	43557.37
508.33	43440.34
508.50	43557.37
508.68	43683.76
508.85	44135.48
509.03	43929.51
509.20	44196.34
509.38	44910.20
509.55	44399.96
509.73	44392.94
509.90	45038.93
510.08	44720.62
510.25	44875.09
510.42	44701.89
510.60	45352.56
510.77	45394.69
510.95	45331.50
511.12	45301.07
511.30	45492.99
511.47	45329.16
511.64	45296.39
511.82	45996.21
511.99	45958.76
512.17	46085.15
512.34	45778.54
512.51	46651.56
512.69	46218.56
512.86	46361.33
513.04	46995.62
513.21	46733.48
513.38	46733.48
513.56	47208.61
513.73	46543.89
513.90	46962.85
514.08	46979.23
514.25	47269.46
514.43	47487.13
514.60	47873.32
514.77	47107.96
514.95	48004.39
515.12	47693.10
515.29	47831.19
515.47	48172.91
515.64	48334.40
515.81	48219.72
515.99	48432.71
516.16	48481.86
516.33	48842.30
516.51	48512.28
516.68	48547.39
516.85	48825.92
517.03	48748.68
517.20	49132.53
517.37	48734.63
517.54	49125.50
517.72	49106.78
517.89	49455.52
518.06	49345.51
518.24	49298.70
518.41	48928.90
518.58	49684.89
518.75	49514.03
518.93	49916.61
519.10	49698.94
519.27	49680.21
519.45	49752.77
519.62	50239.60
519.79	50295.77
519.96	50113.21
520.14	50059.38
520.31	49979.80
520.48	50667.92
520.65	50780.26
520.83	50602.38
521.00	50944.10
521.17	50724.09
521.34	50719.41
521.52	50794.31
521.69	50450.25
521.86	51393.48
522.03	51131.34
522.20	51442.63
522.38	51536.26
522.55	51187.52
522.72	51194.54
522.89	51583.07
523.07	51903.72
523.24	51491.79
523.41	51587.75
523.58	51297.52
523.75	52083.94
523.92	51796.06
524.10	52229.05
524.27	51959.89
524.44	52079.26
524.61	51793.71
524.78	52275.87
524.96	52282.89
525.13	52652.69
525.30	52640.99
525.47	52655.03
525.64	52629.29
525.81	52781.42
525.98	52736.95
526.16	52428.00
526.33	52769.72
526.50	52671.42
526.67	52821.21
526.84	52839.93
527.01	52961.64
527.18	53125.48
527.36	53230.80
527.53	52893.77
527.70	53727.00
527.87	53764.45
528.04	53036.54
528.21	53303.36
528.38	53354.85
528.55	53773.81
528.72	53495.28
528.89	53635.72
529.07	53811.26
529.24	53497.62
529.41	53846.36
529.58	53829.98
529.75	53633.38
529.92	53815.94
530.09	53792.53
530.26	53963.39
530.43	54120.21
530.60	53984.46
530.77	53853.39
530.94	54007.86
531.11	54092.12
531.28	54099.14
531.46	54251.28
531.63	54277.02
531.80	54417.46
531.97	54429.16
532.14	54609.38
532.31	54557.89
532.48	54656.19
532.65	54831.73
532.82	54417.46
532.99	54604.70
533.16	54714.70
533.33	54834.07
533.50	54787.26
533.67	54990.89
533.84	54698.32
534.01	55049.40
534.18	54925.35
534.35	55330.26
534.52	55348.99
534.69	55199.19
534.86	55346.65
535.03	55103.23
535.20	55063.44
535.37	55470.70
535.54	55505.80
535.71	55444.95
535.88	55302.18
536.05	55388.78
536.22	55669.64
536.38	55838.16
536.55	55770.28
536.72	55545.59
536.89	55583.04
537.06	55730.50
537.23	55746.88
537.40	55594.74
537.57	55969.23
537.74	55987.95
537.91	56065.19
538.08	55929.44
538.25	55709.43
538.42	55922.42
538.59	56016.04
538.75	56090.94
538.92	56247.75
539.09	56196.26
539.26	56362.44
539.43	56245.41
539.60	56189.24
539.77	56231.37
539.94	56622.24
540.11	56243.07
540.28	56666.71
540.44	56507.55
540.61	56554.36
540.78	56463.08
540.95	56481.81
541.12	56488.83
541.29	56662.03
541.46	56652.67
541.62	56875.02
541.79	56741.61
541.96	56509.89
542.13	56474.79
542.30	56652.67
542.47	56647.99
542.63	57003.75
542.80	56952.26
542.97	57073.96
543.14	57308.02
543.31	57392.28
543.48	57324.40
543.64	57425.04
543.81	57521.01
543.98	57460.15
544.15	57247.16
544.32	57441.43
544.48	57525.69
544.65	57338.44
544.82	57425.04
544.99	57403.98
545.16	57677.82
545.32	57549.09
545.49	57811.23
545.66	57687.18
545.83	57879.11
546.00	57710.59
546.16	57588.88
546.33	57698.89
546.50	57661.44
546.67	57932.94
546.83	57623.99
547.00	57785.49
547.17	57673.14
547.34	57869.75
547.50	57888.47
547.67	58031.24
547.84	58117.84
548.00	58152.95
548.17	58365.94
548.34	58010.18
548.51	58422.11
548.67	58405.73
548.84	58312.11
549.01	58272.32
549.18	58117.84
549.34	58328.49
549.51	58244.23
549.68	58293.38
549.84	58410.41
550.01	58363.60
550.18	58379.98
550.34	58494.67
550.51	58527.44
550.68	58532.12
550.84	58298.06
551.01	58534.46
551.18	58581.27
551.34	58412.75
551.51	58742.77
551.68	58724.04
551.84	58646.80
552.01	58520.41
552.18	58653.82
552.34	58585.95
552.51	58782.55
552.68	58656.17
552.84	58885.54
553.01	58922.99
553.18	58742.77
553.34	58953.41
553.51	58726.38
553.67	58822.34
553.84	58960.44
554.01	58876.18
554.17	58962.78
554.34	59098.53
554.51	59084.48
554.67	59035.33
554.84	58946.39
555.00	58848.09
555.17	59091.51
555.33	59203.85
555.50	59147.68
555.67	59042.35
555.83	59135.98
556.00	59238.96
556.16	59512.80
556.33	59358.33
556.50	59262.36
556.66	59531.53
556.83	59107.89
556.99	59442.59
557.16	59533.87
557.32	59594.72
557.49	59477.69
557.65	59384.07
557.82	59400.46
557.98	59501.10
558.15	59456.63
558.32	59566.63
558.48	59491.74
558.65	59526.84
558.81	59545.57
558.98	59765.58
559.14	59615.79
559.31	59758.56
559.47	59826.43
559.64	59781.96
559.80	59966.87
559.97	60018.36
560.13	59667.28
560.30	59770.26
560.46	59826.43
560.63	59906.01
560.79	59653.23
560.96	59906.01
561.12	59938.78
561.29	59910.69
561.45	59854.52
561.61	60051.12
561.78	59955.16
561.94	59938.78
562.11	59798.35
562.27	59966.87
562.44	59831.11
562.60	60259.43
562.77	59964.52
562.93	59997.29
563.10	59868.56
563.26	59922.40
563.42	60189.22
563.59	59863.88
563.75	60168.15
563.92	60093.25
564.08	60161.13
564.24	60214.96
564.41	60186.88
564.57	60240.71
564.74	60121.34
564.90	60402.21
565.07	60339.01
565.23	60229.01
565.39	60233.69
565.56	60217.30
565.72	60097.94
565.88	60231.35
566.05	60313.26
566.21	60275.82
566.38	60229.01
566.54	60374.12
566.70	60523.91
566.87	60425.61
567.03	60090.91
567.19	60540.30
567.36	60472.42
567.52	60362.42
567.68	60509.87
567.85	60346.03
568.01	60315.61
568.17	60360.08
568.34	60587.11
568.50	60170.49
568.66	60399.86
568.83	60505.19
568.99	60502.85
569.15	60711.16
569.32	60456.04
569.48	60474.76
569.64	60727.54
569.81	60449.02
569.97	60413.91
570.13	60570.72
570.30	60544.98
570.46	60472.42
570.62	60580.09
570.78	60601.15
570.95	60587.11
571.11	60975.64
571.27	60542.64
571.43	60481.78
571.60	60755.63
571.76	60605.83
571.92	60577.75
572.09	60685.41
572.25	60573.06
572.41	60837.54
572.57	60610.51
572.74	60786.05
572.90	60601.15
573.06	60804.78
573.22	60640.94
573.38	60498.17
573.55	60587.11
573.71	60874.99
573.87	60804.78
574.03	60552.00
574.20	60619.88
574.36	60669.03
574.52	60926.49
574.68	60898.40
574.84	60926.49
575.01	60996.70
575.17	60750.94
575.33	60781.37
575.49	60474.76
575.65	60947.55
575.82	60804.78
575.98	60994.36
576.14	60886.70
576.30	61097.34
576.46	61013.08
576.62	60701.79
576.79	60727.54
576.95	60713.50
577.11	60832.86
577.27	60860.95
577.43	60797.76
577.59	60867.97
577.75	60835.20
577.92	60692.43
578.08	60884.36
578.24	60973.30
578.40	61090.32
578.56	60980.32
578.72	60952.23
578.88	60985.00
579.04	61092.66
579.21	60992.02
579.37	61123.09
579.53	61216.71
579.69	60818.82
579.85	60793.07
580.01	60884.36
580.17	60891.38
580.33	60977.98
580.49	60779.03
580.65	60975.64
580.82	61043.51
580.98	60938.19
581.14	60874.99
581.30	61008.40
581.46	60793.07
581.62	61090.32
581.78	61087.98
581.94	61001.38
582.10	61109.05
582.26	60989.68
582.42	60987.34
582.58	61116.07
582.74	61073.94
582.90	61003.72
583.06	60994.36
583.22	60807.12
583.38	61172.24
583.54	61076.28
583.70	61190.97
583.86	61013.08
584.02	61015.43
584.18	61092.66
584.34	61024.79
584.50	61071.60
584.66	60708.82
584.82	60898.40
584.98	61244.80
585.14	61214.37
585.30	61010.74
585.46	61134.79
585.62	61001.38
585.78	61120.75
585.94	60839.89
586.10	60970.96
586.26	61003.72
586.42	61272.88
586.58	61193.31
586.74	60973.30
586.90	61202.67
587.06	61066.92
587.22	61205.01
587.38	61090.32
587.54	61275.22
587.70	61240.12
587.86	61097.34
588.02	61069.26
588.18	61228.41
588.34	61237.78
588.49	61155.86
