SpectraSuite Data File
++++++++++++++++++++++++++++++++++++
Date: Fri Oct 25 11:23:59 EDT 2013
User: price-jones
Dark Spectrum Present: No
Reference Spectrum Present: No
Number of Sampled Component Spectra: 1
Spectrometers: USB2+H05261
Integration Time (usec): 100000 (USB2+H05261)
Spectra Averaged: 1 (USB2+H05261)
Boxcar Smoothing: 0 (USB2+H05261)
Correct for Electrical Dark: No (USB2+H05261)
Strobe/Lamp Enabled: No (USB2+H05261)
Correct for Detector Non-linearity: No (USB2+H05261)
Correct for Stray Light: No (USB2+H05261)
Number of Pixels in Processed Spectrum: 2048
>>>>>Begin Processed Spectral Data<<<<<
365.73	175.54
365.92	175.54
366.12	175.54
366.32	156.82
366.52	145.11
366.72	161.50
366.91	98.30
367.11	128.73
367.31	126.39
367.51	173.20
367.70	79.58
367.90	102.98
368.10	138.09
368.30	210.65
368.49	126.39
368.69	138.09
368.89	182.56
369.09	100.64
369.28	168.52
369.48	149.79
369.68	170.86
369.87	203.63
370.07	189.58
370.27	236.39
370.47	273.84
370.66	622.58
370.86	690.46
371.06	699.82
371.25	720.88
371.45	636.63
371.65	716.20
371.84	739.61
372.04	624.92
372.24	685.78
372.44	716.20
372.63	791.10
372.83	723.23
373.03	690.46
373.22	755.99
373.42	741.95
373.62	819.19
373.81	741.95
374.01	760.67
374.21	819.19
374.40	870.68
374.60	826.21
374.79	807.48
374.99	755.99
375.19	802.80
375.38	933.87
375.58	889.40
375.78	950.26
375.97	936.21
376.17	884.72
376.37	805.14
376.56	851.96
376.76	791.10
376.95	819.19
377.15	856.64
377.35	844.93
377.54	791.10
377.74	891.74
377.93	877.70
378.13	940.90
378.33	964.30
378.52	978.34
378.72	912.81
378.91	980.68
379.11	983.02
379.31	936.21
379.50	919.83
379.70	1013.45
379.89	999.41
380.09	863.66
380.28	966.64
380.48	990.05
380.68	997.07
380.87	968.98
381.07	1029.84
381.26	1116.44
381.46	1057.92
381.65	1055.58
381.85	1013.45
382.04	1025.15
382.24	1149.20
382.43	1118.78
382.63	1034.52
382.83	1046.22
383.02	1006.43
383.22	1090.69
383.41	1027.50
383.61	1114.10
383.80	1165.59
384.00	1111.75
384.19	1100.05
384.39	1165.59
384.58	1217.08
384.78	1071.97
384.97	1142.18
385.17	1167.93
385.36	1142.18
385.56	1193.67
385.75	1252.19
385.95	1217.08
386.14	1156.22
386.34	1219.42
386.53	1306.02
386.72	1254.53
386.92	1238.14
387.11	1212.40
387.31	1238.14
387.50	1238.14
387.70	1203.04
387.89	1228.78
388.09	1266.23
388.28	1294.32
388.48	1219.42
388.67	1219.42
388.86	1224.10
389.06	1261.55
389.25	1371.55
389.45	1357.51
389.64	1355.17
389.84	1406.66
390.03	1397.30
390.22	1306.02
390.42	1280.27
390.61	1310.70
390.81	1425.39
391.00	1404.32
391.19	1362.19
391.39	1437.09
391.58	1413.68
391.78	1334.11
391.97	1556.46
392.16	1519.01
392.36	1451.13
392.55	1535.39
392.75	1568.16
392.94	1535.39
393.13	1514.33
393.33	1460.49
393.52	1540.07
393.71	1570.50
393.91	1570.50
394.10	1605.61
394.29	1551.78
394.49	1582.20
394.68	1680.50
394.88	1734.34
395.07	1729.66
395.26	1652.42
395.46	1647.74
395.65	1790.51
395.84	1687.53
396.04	1804.55
396.23	1832.64
396.42	1652.42
396.62	1891.15
396.81	1837.32
397.00	1736.68
397.19	1811.57
397.39	1788.17
397.58	1816.26
397.77	1872.43
397.97	1832.64
398.16	1820.94
398.35	1937.96
398.55	1813.92
398.74	1926.26
398.93	2005.84
399.12	1865.41
399.32	1926.26
399.51	1996.48
399.70	1984.77
399.90	1930.94
400.09	1982.43
400.28	1975.41
400.47	2005.84
400.67	2176.70
400.86	2033.93
401.05	1961.37
401.24	2139.25
401.44	2122.87
401.63	2237.55
401.82	2146.27
402.01	2069.03
402.21	2143.93
402.40	2179.04
402.59	2298.41
402.78	2183.72
402.97	2127.55
403.17	2251.60
403.36	2195.42
403.55	2282.02
403.74	2253.94
403.93	2422.45
404.13	2361.60
404.32	2277.34
404.51	2363.94
404.70	2410.75
404.89	2399.05
405.09	2579.27
405.28	2541.82
405.47	2429.48
405.66	2675.23
405.85	2626.08
406.05	2544.16
406.24	2560.55
406.43	2661.19
406.62	2600.34
406.81	2651.83
407.00	2511.39
407.20	2635.44
407.39	2581.61
407.58	2766.51
407.77	2752.47
407.96	2686.94
408.15	2738.43
408.34	2691.62
408.54	2876.52
408.73	2864.82
408.92	2836.73
409.11	2878.86
409.30	2911.63
409.49	2930.35
409.68	2960.78
409.87	2918.65
410.07	3000.57
410.26	3110.57
410.45	2998.23
410.64	3052.06
410.83	3080.14
411.02	3101.21
411.21	3098.87
411.40	2958.44
411.59	3218.24
411.78	3204.19
411.98	3096.53
412.17	3225.26
412.36	3267.39
412.55	3286.11
412.74	3384.41
412.93	3398.46
413.12	3356.33
413.31	3623.15
413.50	3475.70
413.69	3552.93
413.88	3583.36
414.07	3599.74
414.26	3758.90
414.45	3658.26
414.64	3620.81
414.83	3644.21
415.02	3805.71
415.22	3728.47
415.41	3913.38
415.60	3922.74
415.79	3990.61
415.98	4084.23
416.17	4124.02
416.36	3927.42
416.55	4030.40
416.74	4102.96
416.93	4117.00
417.12	4236.37
417.31	4168.49
417.50	4170.83
417.69	4390.84
417.88	4381.48
418.07	4465.74
418.26	4299.56
418.45	4337.01
418.64	4393.19
418.83	4458.72
419.02	4477.44
419.21	4561.70
419.39	4477.44
419.58	4559.36
419.77	4512.55
419.96	4468.08
420.15	4524.26
420.34	4461.06
420.53	4770.01
420.72	4802.78
420.91	4561.70
421.10	4774.69
421.29	4823.84
421.48	4681.07
421.67	4784.06
421.86	4723.20
422.05	4908.10
422.24	4748.95
422.43	4908.10
422.61	4919.81
422.80	4882.36
422.99	4983.00
423.18	5022.79
423.37	5104.71
423.56	4875.34
423.75	4968.96
423.94	4844.91
424.13	4596.81
424.32	4870.65
424.50	5025.13
424.69	5245.14
424.88	5308.34
425.07	4973.64
425.26	4954.91
425.45	4903.42
425.64	5034.49
425.83	5036.83
426.01	5198.33
426.20	5069.60
426.39	5050.88
426.58	5191.31
426.77	5085.98
426.96	5130.45
427.15	5142.16
427.33	5364.51
427.52	5282.59
427.71	5296.63
427.90	5203.01
428.09	5301.31
428.28	5310.68
428.46	5387.91
428.65	5345.78
428.84	5558.77
429.03	5504.94
429.22	5427.70
429.40	5643.03
429.59	5483.88
429.78	5441.75
429.97	5366.85
430.16	5430.04
430.34	5666.44
430.53	5813.89
430.72	5724.95
430.91	5628.99
431.10	5516.64
431.28	5776.44
431.47	5687.50
431.66	5757.72
431.85	5827.93
432.03	6071.35
432.22	5926.24
432.41	5956.66
432.60	5909.85
432.79	5940.28
432.97	6026.88
433.16	6155.61
433.35	6015.18
433.54	6097.10
433.72	6108.80
433.91	6237.53
434.10	6193.06
434.28	6134.54
434.47	6200.08
434.66	6188.38
434.85	6387.32
435.03	6282.00
435.22	6387.32
435.41	6502.01
435.59	6394.34
435.78	6455.20
435.97	6558.18
436.16	6511.37
436.34	6506.69
436.53	6541.80
436.72	6499.67
436.90	6438.81
437.09	6534.78
437.28	6546.48
437.46	6668.19
437.65	6633.08
437.84	6778.19
438.02	6698.61
438.21	6906.92
438.40	6590.95
438.58	7164.38
438.77	7157.36
438.96	6967.77
439.14	7215.87
439.33	7274.38
439.52	7115.23
439.70	7344.60
439.89	7360.98
440.08	7428.86
440.26	7508.44
440.45	7405.46
440.63	7520.14
440.82	7637.17
441.01	7527.16
441.19	7571.63
441.38	7758.88
441.57	7723.77
441.75	7836.11
441.94	7950.80
442.12	7889.95
442.31	7911.01
442.50	8056.12
442.68	7953.14
442.87	7995.27
443.05	8173.15
443.24	8248.05
443.43	8182.51
443.61	8374.44
443.80	8524.23
443.98	8135.70
444.17	7953.14
444.35	8184.85
444.54	8313.58
444.73	8437.63
444.91	8334.65
445.10	8409.54
445.28	8294.86
445.47	8262.09
445.65	8166.13
445.84	8369.76
446.02	8376.78
446.21	8524.23
446.39	8463.38
446.58	8524.23
446.77	8486.78
446.95	8278.47
447.14	8390.82
447.32	8503.17
447.51	8627.21
447.69	8549.98
447.88	8407.20
448.06	8461.04
448.25	8610.83
448.43	8730.20
448.62	8486.78
448.80	8446.99
448.99	8788.71
449.17	8819.14
449.36	8800.41
449.54	8992.34
449.73	9020.42
449.91	9081.28
450.10	8896.38
450.28	9111.71
450.46	9109.36
450.65	9177.24
450.83	9184.26
451.02	8901.06
451.20	9350.44
451.39	9114.05
451.57	9418.32
451.76	8959.57
451.94	9446.40
452.13	9217.03
452.31	9284.91
452.49	9376.19
452.68	9565.77
452.86	9514.28
453.05	9500.23
453.23	9729.61
453.42	9423.00
453.60	9275.54
453.78	9666.41
453.97	9500.23
454.15	9460.45
454.34	9624.28
454.52	9914.51
454.70	9839.61
454.89	9804.50
455.07	9598.54
455.26	9937.91
455.44	9994.09
455.62	10104.09
455.81	9930.89
455.99	10054.94
456.17	10022.17
456.36	10085.37
456.54	10331.12
456.73	10094.73
456.91	10422.41
457.09	10340.49
457.28	10492.62
457.46	10494.96
457.64	10363.89
457.83	10626.03
458.01	10384.96
458.19	10677.52
458.38	10581.56
458.56	10747.74
458.74	10740.72
458.93	10696.25
459.11	10782.85
459.29	11035.63
459.48	11152.65
459.66	10698.59
459.84	10871.79
460.03	11073.07
460.21	11122.23
460.39	10977.11
460.57	11014.56
460.76	11063.71
460.94	10995.84
461.12	11477.99
461.31	11030.94
461.49	10897.53
461.67	11066.05
461.85	11421.81
462.04	11274.36
462.22	11489.69
462.40	11777.58
462.59	11667.57
462.77	11318.83
462.95	11592.67
463.13	11534.16
463.32	11576.29
463.50	11770.55
463.68	11747.15
463.86	11915.67
464.05	11812.68
464.23	11782.26
464.41	12135.68
464.59	11978.86
464.78	12255.04
464.96	12039.72
465.14	11978.86
465.32	12046.74
465.50	12107.59
465.69	12341.64
465.87	12203.55
466.05	12222.28
466.23	12088.87
466.41	12212.92
466.60	12580.38
466.78	12205.89
466.96	12194.19
467.14	12262.07
467.32	12334.62
467.51	12734.85
467.69	12369.73
467.87	12517.18
468.05	12821.45
468.23	12528.89
468.41	12414.20
468.60	12655.28
468.78	12919.76
468.96	12643.57
469.14	12999.34
469.32	13334.03
469.50	12851.88
469.69	12996.99
469.87	13214.66
470.05	13191.26
470.23	13064.87
470.41	13095.30
470.59	13338.71
470.77	13327.01
470.95	13359.78
471.14	13502.55
471.32	13451.06
471.50	13568.09
471.68	13518.93
471.86	13664.05
472.04	13722.56
472.22	14202.37
472.40	13734.26
472.58	13867.67
472.77	14139.18
472.95	14132.15
473.13	14637.71
473.31	14270.25
473.49	14387.27
473.67	14340.46
473.85	14516.00
474.03	14703.25
474.21	14654.09
474.39	14869.42
474.57	14743.03
474.75	14630.69
474.93	15218.16
475.12	15089.43
475.30	15325.83
475.48	15164.33
475.66	15367.96
475.84	15084.75
476.02	15587.97
476.20	15405.41
476.38	15939.05
476.56	16042.03
476.74	16006.92
476.92	16079.48
477.10	15901.60
477.28	16259.70
477.46	16051.39
477.64	16416.52
477.82	16449.28
478.00	17067.19
478.18	16776.96
478.36	16952.50
478.54	17156.13
478.72	17462.74
478.90	17399.54
479.08	17778.71
479.26	17853.61
479.44	17692.11
479.62	17846.58
479.80	18286.61
479.98	18637.69
480.16	18930.25
480.34	18335.76
480.52	18845.99
480.70	18899.83
480.88	18225.75
481.06	18897.49
481.24	19176.01
481.41	19187.71
481.59	19267.29
481.77	19597.31
481.95	19812.63
482.13	19850.08
482.31	19812.63
482.49	19983.49
482.67	20308.83
482.85	20758.21
483.03	20877.58
483.21	20851.83
483.39	21177.17
483.57	20793.32
483.74	21209.93
483.92	21345.69
484.10	21301.22
484.28	21792.73
484.46	22064.23
484.64	22319.35
484.82	22342.75
485.00	22525.32
485.18	22834.27
485.35	23002.78
485.53	22918.53
485.71	22829.59
485.89	23466.21
486.07	23452.17
486.25	23426.42
486.43	23616.01
486.61	23931.98
486.78	24116.88
486.96	24084.11
487.14	24685.63
487.32	24648.18
487.50	25191.19
487.68	24950.11
487.85	25439.28
488.03	25708.44
488.21	25926.11
488.39	26033.78
488.57	26342.73
488.75	26558.06
488.92	26735.94
489.10	26965.31
489.28	26995.74
489.46	27204.05
489.64	27269.58
489.81	27854.72
489.99	28156.64
490.17	27880.46
490.35	28423.47
490.53	28528.79
490.70	28788.59
490.88	28835.40
491.06	28872.85
491.24	29132.65
491.41	29371.38
491.59	29362.02
491.77	29860.55
491.95	29872.26
492.13	30075.88
492.30	30115.67
492.48	30237.38
492.66	30335.68
492.84	30845.92
493.01	30639.95
493.19	30684.42
493.37	31182.96
493.54	31573.83
493.72	31955.33
493.90	31796.18
494.08	31756.39
494.25	32327.48
494.43	32025.55
494.61	32542.81
494.79	32767.50
494.96	32938.36
495.14	32978.15
495.32	33284.76
495.49	33439.23
495.67	33408.81
495.85	33560.94
496.02	33617.11
496.20	34115.65
496.38	34375.45
496.55	33947.13
496.73	35126.76
496.91	34501.84
497.09	34960.58
497.26	35075.27
497.44	35281.24
497.62	35491.88
497.79	36119.15
497.97	35269.53
498.14	36119.15
498.32	36062.97
498.50	36463.21
498.67	36629.38
498.85	36388.31
499.03	37282.39
499.20	36996.85
499.38	37420.48
499.56	37338.57
499.73	37385.38
499.91	37771.57
500.08	37970.51
500.26	37715.39
500.44	37710.71
500.61	37982.21
500.79	37902.64
500.97	38185.84
501.14	38803.74
501.32	38555.64
501.49	38969.92
501.67	38834.17
501.84	39473.13
502.02	39108.01
502.20	39199.29
502.37	39180.57
502.55	39882.73
502.72	39597.18
502.90	39695.49
503.07	39725.91
503.25	40076.99
503.43	39622.93
503.60	40224.45
503.78	40184.66
503.95	40549.78
504.13	40545.10
504.30	40666.81
504.48	40825.96
504.65	40891.50
504.83	41352.58
505.01	41621.75
505.18	41668.56
505.36	41965.81
505.53	41195.77
505.71	41816.01
505.88	41965.81
506.06	41827.71
506.23	42380.08
506.41	42000.91
506.58	42518.17
506.76	42632.86
506.93	42927.77
507.11	42454.98
507.28	42887.98
507.46	43320.98
507.63	43012.02
507.81	43260.12
507.98	43365.45
508.16	43370.13
508.33	43723.55
508.50	43648.65
508.68	43782.06
508.85	44360.17
509.03	44383.58
509.20	44261.87
509.38	44690.19
509.55	44612.95
509.73	44718.28
509.90	45296.39
510.08	44622.31
510.25	45015.52
510.42	44751.04
510.60	44788.49
510.77	45301.07
510.95	46024.29
511.12	45670.87
511.30	45553.85
511.47	45893.22
511.64	45537.46
511.82	46370.69
511.99	45830.03
512.17	46333.24
512.34	46040.68
512.51	46632.83
512.69	47159.45
512.86	46946.47
513.04	46745.18
513.21	47054.13
513.38	46953.49
513.56	47484.79
513.73	47000.30
513.90	47318.61
514.08	47147.75
514.25	47414.57
514.43	47515.22
514.60	47718.84
514.77	47480.11
514.95	47978.64
515.12	47789.06
515.29	47435.64
515.47	48428.02
515.64	48512.28
515.81	47995.03
515.99	48598.88
516.16	48633.99
516.33	48587.18
516.51	48914.86
516.68	48741.66
516.85	48318.02
517.03	48959.33
517.20	49301.04
517.37	48978.05
517.54	49251.89
517.72	49366.58
517.89	49085.72
518.06	49429.77
518.24	49558.50
518.41	49240.19
518.58	49598.29
518.75	49602.97
518.93	49794.90
519.10	49633.40
519.27	50087.46
519.45	50237.26
519.62	50160.02
519.79	50363.65
519.96	50094.49
520.14	50724.09
520.31	50625.79
520.48	50316.84
520.65	50745.15
520.83	50927.72
521.00	50941.76
521.17	50941.76
521.34	50934.74
521.52	51138.36
521.69	51112.62
521.86	51269.43
522.03	51372.42
522.20	51452.00
522.38	51576.04
522.55	51700.09
522.72	51437.95
522.89	51774.99
523.07	51746.90
523.24	51526.89
523.41	51952.87
523.58	51870.95
523.75	52481.83
523.92	52058.20
524.10	52350.76
524.27	52107.35
524.44	52175.22
524.61	52170.54
524.78	52388.21
524.96	52261.82
525.13	52671.42
525.30	52516.94
525.47	52463.11
525.64	52734.61
525.81	52851.64
525.98	52507.58
526.16	52758.02
526.33	52736.95
526.50	53113.78
526.67	52877.38
526.84	53001.43
527.01	53118.46
527.18	53029.52
527.36	53088.03
527.53	53294.00
527.70	53499.97
527.87	53577.20
528.04	53570.18
528.21	53741.04
528.38	53748.06
528.55	53750.40
528.72	53525.71
528.89	53558.48
529.07	53558.48
529.24	53474.22
529.41	54089.78
529.58	53890.83
529.75	53879.13
529.92	53921.26
530.09	54054.67
530.26	54199.79
530.43	54183.40
530.60	54049.99
530.77	53925.94
530.94	54365.96
531.11	54232.55
531.28	54241.92
531.46	54471.29
531.63	54372.99
531.80	54546.18
531.97	54398.73
532.14	54789.60
532.31	54752.15
532.48	54635.13
532.65	54848.11
532.82	54798.96
532.99	55047.06
533.16	54866.84
533.33	54815.35
533.50	54848.11
533.67	54791.94
533.84	54522.78
534.01	55203.88
534.18	55262.39
534.35	55515.17
534.52	55306.86
534.69	55402.82
534.86	55299.84
535.03	55224.94
535.20	55199.19
535.37	55620.49
535.54	55688.37
535.71	55269.41
535.88	55585.38
536.05	55789.01
536.22	55842.84
536.38	55618.15
536.55	55735.18
536.72	55807.73
536.89	55831.14
537.06	55697.73
537.23	55884.97
537.40	55856.88
537.57	55817.10
537.74	56025.40
537.91	56196.26
538.08	55994.98
538.25	55735.18
538.42	56046.47
538.59	56229.03
538.75	56062.85
538.92	56282.86
539.09	56348.40
539.26	56332.01
539.43	56409.25
539.60	56254.78
539.77	56315.63
539.94	56608.20
540.11	56568.41
540.28	56619.90
540.44	56762.67
540.61	56666.71
540.78	56458.40
540.95	56523.94
541.12	56484.15
541.29	56563.73
541.46	56877.36
541.62	56811.82
541.79	56807.14
541.96	56554.36
542.13	56823.53
542.30	56772.03
542.47	56825.87
542.63	57263.55
542.80	57088.01
542.97	57233.12
543.14	57469.51
543.31	57518.67
543.48	57415.68
543.64	57368.87
543.81	57513.98
543.98	57684.84
544.15	57506.96
544.32	57736.34
544.48	57712.93
544.65	57776.12
544.82	57509.30
544.99	57455.47
545.16	57663.78
545.32	57600.58
545.49	57827.62
545.66	57855.70
545.83	57993.79
546.00	57921.24
546.16	57946.98
546.33	57607.61
546.50	57797.19
546.67	57836.98
546.83	57602.92
547.00	58061.67
547.17	57961.03
547.34	57937.62
547.50	58056.99
547.67	58269.98
547.84	57977.41
548.00	58412.75
548.17	58391.68
548.34	58312.11
548.51	58351.90
548.67	58281.68
548.84	58403.39
549.01	58232.53
549.18	58101.46
549.34	58319.13
549.51	58461.90
549.68	58520.41
549.84	58398.71
550.01	58630.42
550.18	58305.09
550.34	58609.35
550.51	58784.90
550.68	58747.45
550.84	58440.84
551.01	58625.74
551.18	58466.58
551.34	58485.31
551.51	58838.73
551.68	58534.46
551.84	58763.83
552.01	58810.64
552.18	58911.28
552.34	58677.23
552.51	58742.77
552.68	58745.11
552.84	58836.39
553.01	59138.32
553.18	58885.54
553.34	59157.04
553.51	58993.20
553.67	59030.65
553.84	59018.95
554.01	59173.42
554.17	59224.92
554.34	59143.00
554.51	59241.30
554.67	59016.61
554.84	59203.85
555.00	58960.44
555.17	59166.40
555.33	59220.23
555.50	59171.08
555.67	58932.35
555.83	59107.89
556.00	59297.47
556.16	59512.80
556.33	59412.16
556.50	59316.20
556.66	59587.70
556.83	59323.22
556.99	59566.63
557.16	59564.29
557.32	59458.97
557.49	59702.38
557.65	59421.52
557.82	59524.50
557.98	59456.63
558.15	59737.49
558.32	59737.49
558.48	59470.67
558.65	59664.94
558.81	59524.50
558.98	59828.77
559.14	59732.81
559.31	59709.41
559.47	59695.36
559.64	59875.58
559.80	59732.81
559.97	59849.84
560.13	59756.22
560.30	59887.29
560.46	59936.44
560.63	59767.92
560.79	59966.87
560.96	60196.24
561.12	60037.08
561.29	59943.46
561.45	59856.86
561.61	59922.40
561.78	59962.18
561.94	59875.58
562.11	60144.75
562.27	60264.11
562.44	60315.61
562.60	60212.62
562.77	60268.79
562.93	59788.98
563.10	60210.28
563.26	60083.89
563.42	60289.86
563.59	60168.15
563.75	60238.37
563.92	60336.67
564.08	60186.88
564.24	60299.22
564.41	60306.24
564.57	60287.52
564.74	60350.71
564.90	60285.18
565.07	60406.89
565.23	60032.40
565.39	60236.03
565.56	60402.21
565.72	60280.50
565.88	60259.43
566.05	60182.19
566.21	60130.70
566.38	60423.27
566.54	60397.52
566.70	60645.62
566.87	60406.89
567.03	60294.54
567.19	60729.88
567.36	60465.40
567.52	60341.35
567.68	60652.64
567.85	60498.17
568.01	60559.02
568.17	60470.08
568.34	60509.87
568.50	60587.11
568.66	60402.21
568.83	60484.12
568.99	60566.04
569.15	60610.51
569.32	60608.17
569.48	60680.73
569.64	60399.86
569.81	60458.38
569.97	60537.96
570.13	60580.09
570.30	60477.10
570.46	60722.86
570.62	60793.07
570.78	60662.00
570.95	60554.34
571.11	60825.84
571.27	60561.36
571.43	60678.39
571.60	60680.73
571.76	60678.39
571.92	60748.60
572.09	60807.12
572.25	60851.59
572.41	60552.00
572.57	60631.58
572.74	60863.29
572.90	60608.17
573.06	60856.27
573.22	60851.59
573.38	60788.39
573.55	60858.61
573.71	60973.30
573.87	60743.92
574.03	60762.65
574.20	60905.42
574.36	60786.05
574.52	60877.33
574.68	60970.96
574.84	60896.06
575.01	60900.74
575.17	60928.83
575.33	60809.46
575.49	60788.39
575.65	60767.33
575.82	61029.47
575.98	61006.06
576.14	61207.35
576.30	60921.80
576.46	60797.76
576.62	60867.97
576.79	60788.39
576.95	60608.17
577.11	60931.17
577.27	61106.71
577.43	60921.80
577.59	60977.98
577.75	60835.20
577.92	60856.27
578.08	60942.87
578.24	61015.43
578.40	61169.90
578.56	60963.93
578.72	60898.40
578.88	61329.06
579.04	61155.86
579.21	61076.28
579.37	61200.33
579.53	61099.68
579.69	60910.10
579.85	60882.02
580.01	61071.60
580.17	61038.83
580.33	61031.81
580.49	61066.92
580.65	61095.00
580.82	60952.23
580.98	60996.70
581.14	60956.91
581.30	61188.63
581.46	61146.50
581.62	61106.71
581.78	60823.50
581.94	61127.77
582.10	61223.73
582.26	61141.81
582.42	60933.51
582.58	61160.54
582.74	60889.04
582.90	61123.09
583.06	61020.11
583.22	60903.08
583.38	60968.61
583.54	61062.24
583.70	61247.14
583.86	61118.41
584.02	60973.30
584.18	61235.44
584.34	61109.05
584.50	61085.64
584.66	61027.13
584.82	60870.31
584.98	61186.28
585.14	61261.18
585.30	61097.34
585.46	61141.81
585.62	61329.06
585.78	61382.89
585.94	61090.32
586.10	61087.98
586.26	61097.34
586.42	61221.39
586.58	61219.05
586.74	61202.67
586.90	60992.02
587.06	61113.73
587.22	61083.30
587.38	61104.37
587.54	61284.59
587.70	61338.42
587.86	61300.97
588.02	61153.52
588.18	61352.46
588.34	61322.04
588.49	61055.21
