SpectraSuite Data File
++++++++++++++++++++++++++++++++++++
Date: Fri Oct 25 11:25:16 EDT 2013
User: price-jones
Dark Spectrum Present: No
Reference Spectrum Present: No
Number of Sampled Component Spectra: 1
Spectrometers: USB2+H05261
Integration Time (usec): 100000 (USB2+H05261)
Spectra Averaged: 1 (USB2+H05261)
Boxcar Smoothing: 0 (USB2+H05261)
Correct for Electrical Dark: No (USB2+H05261)
Strobe/Lamp Enabled: No (USB2+H05261)
Correct for Detector Non-linearity: No (USB2+H05261)
Correct for Stray Light: No (USB2+H05261)
Number of Pixels in Processed Spectrum: 2048
>>>>>Begin Processed Spectral Data<<<<<
365.73	238.73
365.92	238.73
366.12	238.73
366.32	175.54
366.52	138.09
366.72	208.31
366.91	234.05
367.11	93.62
367.31	67.88
367.51	175.54
367.70	149.79
367.90	163.84
368.10	100.64
368.30	133.41
368.49	72.56
368.69	110.01
368.89	145.11
369.09	156.82
369.28	177.88
369.48	173.20
369.68	191.92
369.87	250.44
370.07	159.16
370.27	252.78
370.47	285.55
370.66	594.50
370.86	662.37
371.06	674.07
371.25	702.16
371.45	657.69
371.65	603.86
371.84	631.94
372.04	676.41
372.24	688.12
372.44	676.41
372.63	664.71
372.83	821.53
373.03	727.91
373.22	784.08
373.42	758.33
373.62	777.06
373.81	741.95
374.01	802.80
374.21	798.12
374.40	779.40
374.60	910.47
374.79	835.57
374.99	870.68
375.19	767.70
375.38	887.06
375.58	884.72
375.78	821.53
375.97	819.19
376.17	910.47
376.37	814.51
376.56	858.98
376.76	851.96
376.95	779.40
377.15	915.15
377.35	828.55
377.54	854.30
377.74	891.74
377.93	966.64
378.13	985.37
378.33	971.32
378.52	816.85
378.72	959.62
378.91	1008.77
379.11	1015.79
379.31	936.21
379.50	922.17
379.70	950.26
379.89	961.96
380.09	884.72
380.28	943.24
380.48	973.66
380.68	987.71
380.87	1001.75
381.07	1029.84
381.26	1027.50
381.46	990.05
381.65	1041.54
381.85	964.30
382.04	1100.05
382.24	1093.03
382.43	976.00
382.63	1111.75
382.83	1078.99
383.02	1057.92
383.22	1139.84
383.41	1018.13
383.61	1111.75
383.80	1118.78
384.00	1144.52
384.19	1086.01
384.39	1078.99
384.58	1203.04
384.78	1111.75
384.97	1156.22
385.17	1086.01
385.36	1116.44
385.56	1191.33
385.75	1188.99
385.95	1172.61
386.14	1259.21
386.34	1219.42
386.53	1207.72
386.72	1188.99
386.92	1322.40
387.11	1219.42
387.31	1179.63
387.50	1289.64
387.70	1259.21
387.89	1245.16
388.09	1277.93
388.28	1299.00
388.48	1362.19
388.67	1247.51
388.86	1266.23
389.06	1299.00
389.25	1327.08
389.45	1352.83
389.64	1366.87
389.84	1324.74
390.03	1385.60
390.22	1411.34
390.42	1327.08
390.61	1401.98
390.81	1416.02
391.00	1425.39
391.19	1448.79
391.39	1362.19
391.58	1493.26
391.78	1481.56
391.97	1455.81
392.16	1413.68
392.36	1467.52
392.55	1490.92
392.75	1479.22
392.94	1401.98
393.13	1488.58
393.33	1610.29
393.52	1537.73
393.71	1565.82
393.91	1472.20
394.10	1607.95
394.29	1577.52
394.49	1673.48
394.68	1621.99
394.88	1589.22
395.07	1680.50
395.26	1661.78
395.46	1671.14
395.65	1696.89
395.84	1654.76
396.04	1750.72
396.23	1743.70
396.42	1767.10
396.62	1762.42
396.81	1867.75
397.00	1811.57
397.19	1760.08
397.39	1722.63
397.58	1839.66
397.77	1853.70
397.97	1846.68
398.16	1776.47
398.35	1937.96
398.55	1811.57
398.74	1942.64
398.93	1966.05
399.12	1968.39
399.32	1916.90
399.51	1823.28
399.70	1921.58
399.90	1921.58
400.09	1959.03
400.28	2059.67
400.47	2038.61
400.67	1994.14
400.86	1987.11
401.05	2038.61
401.24	2076.06
401.44	2047.97
401.63	2172.02
401.82	2120.53
402.01	2209.47
402.21	2157.97
402.40	2200.10
402.59	2207.13
402.78	2172.02
402.97	2221.17
403.17	2200.10
403.36	2193.08
403.55	2214.15
403.74	2326.49
403.93	2452.88
404.13	2406.07
404.32	2356.92
404.51	2408.41
404.70	2352.24
404.89	2375.64
405.09	2377.98
405.28	2448.20
405.47	2480.97
405.66	2483.31
405.85	2443.52
406.05	2537.14
406.24	2499.69
406.43	2658.85
406.62	2579.27
406.81	2733.75
407.00	2586.29
407.20	2668.21
407.39	2583.95
407.58	2698.64
407.77	2796.94
407.96	2787.58
408.15	2757.15
408.34	2703.32
408.54	2705.66
408.73	2726.72
408.92	2801.62
409.11	2834.39
409.30	2970.14
409.49	2857.79
409.68	2888.22
409.87	2911.63
410.07	2970.14
410.26	2953.76
410.45	2991.20
410.64	2974.82
410.83	3084.83
411.02	2981.84
411.21	3243.98
411.40	3023.97
411.59	3176.11
411.78	3124.62
411.98	3171.43
412.17	3215.90
412.36	3243.98
412.55	3272.07
412.74	3337.60
412.93	3255.69
413.12	3311.86
413.31	3571.66
413.50	3396.12
413.69	3438.25
413.88	3522.51
414.07	3569.32
414.26	3707.41
414.45	3602.08
414.64	3658.26
414.83	3672.30
415.02	3784.65
415.22	3698.05
415.41	3885.29
415.60	3847.84
415.79	3868.91
415.98	3918.06
416.17	4053.81
416.36	4002.32
416.55	4018.70
416.74	4147.43
416.93	4105.30
417.12	4072.53
417.31	4070.19
417.50	4184.88
417.69	4369.78
417.88	4255.09
418.07	4119.34
418.26	4318.29
418.45	4262.12
418.64	4440.00
418.83	4341.69
419.02	4367.44
419.21	4554.68
419.39	4531.28
419.58	4521.92
419.77	4542.98
419.96	4517.23
420.15	4613.20
420.34	4465.74
420.53	4620.22
420.72	4580.43
420.91	4557.02
421.10	4690.43
421.29	4718.52
421.48	4620.22
421.67	4699.80
421.86	4702.14
422.05	4744.27
422.24	4770.01
422.43	4924.49
422.61	4856.61
422.80	4905.76
422.99	4793.42
423.18	4877.68
423.37	5093.01
423.56	4931.51
423.75	4968.96
423.94	4734.90
424.13	4667.03
424.32	4641.28
424.50	5032.15
424.69	4954.91
424.88	5067.26
425.07	5043.85
425.26	4807.46
425.45	4905.76
425.64	5069.60
425.83	4945.55
426.01	5053.22
426.20	4968.96
426.39	4943.21
426.58	4985.34
426.77	4992.36
426.96	5053.22
427.15	5102.37
427.33	5064.92
427.52	5100.03
427.71	5170.24
427.90	5259.18
428.09	5383.23
428.28	5451.11
428.46	5296.63
428.65	5331.74
428.84	5481.53
429.03	5380.89
429.22	5355.15
429.40	5483.88
429.59	5516.64
429.78	5212.37
429.97	5296.63
430.16	5406.64
430.34	5526.00
430.53	5722.61
430.72	5668.78
430.91	5673.46
431.10	5547.07
431.28	5818.57
431.47	5703.89
431.66	5928.58
431.85	5727.29
432.03	5774.10
432.22	5865.38
432.41	5809.21
432.60	5942.62
432.79	5902.83
432.97	6157.95
433.16	5998.79
433.35	5797.51
433.54	5991.77
433.72	6038.58
433.91	6113.48
434.10	6143.91
434.28	6073.69
434.47	6237.53
434.66	6272.64
434.85	6267.95
435.03	6186.04
435.22	6204.76
435.41	6375.62
435.59	6345.19
435.78	6506.69
435.97	6487.96
436.16	6321.79
436.34	6270.30
436.53	6328.81
436.72	6806.28
436.90	6413.07
437.09	6403.71
437.28	6427.11
437.46	6590.95
437.65	6689.25
437.84	6696.27
438.02	6679.89
438.21	6799.26
438.40	6740.74
438.58	6951.39
438.77	6815.64
438.96	6902.24
439.14	6927.99
439.33	7201.83
439.52	7218.21
439.70	7180.76
439.89	7311.83
440.08	7293.11
440.26	7185.44
440.45	7489.71
440.63	7522.48
440.82	7499.08
441.01	7300.13
441.19	7501.42
441.38	7709.72
441.57	7651.21
441.75	7648.87
441.94	7772.92
442.12	7899.31
442.31	7779.94
442.50	7833.77
442.68	8074.85
442.87	8283.16
443.05	8107.62
443.24	8299.54
443.43	7981.23
443.61	8236.35
443.80	8313.58
443.98	7957.82
444.17	7836.11
444.35	7920.37
444.54	8400.18
444.73	8135.70
444.91	8285.50
445.10	8468.06
445.28	8498.49
445.47	7985.91
445.65	8224.64
445.84	8194.22
446.02	8568.70
446.21	8245.71
446.39	8294.86
446.58	8437.63
446.77	8580.40
446.95	8283.16
447.14	8388.48
447.32	8477.42
447.51	8334.65
447.69	8557.00
447.88	8446.99
448.06	8301.88
448.25	8353.37
448.43	8486.78
448.62	8549.98
448.80	8425.93
448.99	8533.59
449.17	8634.24
449.36	8636.58
449.54	8879.99
449.73	9011.06
449.91	8819.14
450.10	8765.31
450.28	9011.06
450.46	8982.98
450.65	8697.43
450.83	9029.79
451.02	8997.02
451.20	9200.65
451.39	9078.94
451.57	9022.77
451.76	9036.81
451.94	9252.14
452.13	9401.93
452.31	9228.73
452.49	9249.80
452.68	9315.33
452.86	9245.12
453.05	9392.57
453.23	9540.02
453.42	9149.15
453.60	9181.92
453.78	9364.48
453.97	9366.82
454.15	9301.29
454.34	9525.98
454.52	9504.92
454.70	9631.30
454.89	9703.86
455.07	9549.39
455.26	9893.44
455.44	9792.80
455.62	9851.31
455.81	9867.70
455.99	9966.00
456.17	9933.23
456.36	9998.77
456.54	10054.94
456.73	9884.08
456.91	10413.04
457.09	10352.19
457.28	10590.92
457.46	10349.85
457.64	10483.26
457.83	10281.97
458.01	10303.04
458.19	10691.57
458.38	10532.41
458.56	10576.88
458.74	10738.38
458.93	10614.33
459.11	10586.24
459.29	10560.50
459.48	10558.16
459.66	10686.89
459.84	10977.11
460.03	10792.21
460.21	10927.96
460.39	11044.99
460.57	10757.10
460.76	11023.92
460.94	10923.28
461.12	11211.17
461.31	10986.47
461.49	10771.15
461.67	11222.87
461.85	11337.56
462.04	11316.49
462.22	11789.28
462.40	11716.72
462.59	11527.14
462.77	11213.51
462.95	11543.52
463.13	11580.97
463.32	11700.34
463.50	11580.97
463.68	11833.75
463.86	11522.46
464.05	11482.67
464.23	11412.45
464.41	11854.81
464.59	11758.85
464.78	12072.48
464.96	11920.35
465.14	11824.39
465.32	11936.73
465.50	11871.20
465.69	11990.56
465.87	12184.83
466.05	12016.31
466.23	12013.97
466.41	11946.09
466.60	12271.43
466.78	11988.22
466.96	12198.87
467.14	12329.94
467.32	12343.99
467.51	12486.76
467.69	12023.33
467.87	12292.49
468.05	12519.53
468.23	12538.25
468.41	12418.88
468.60	12428.24
468.78	12606.13
468.96	12367.39
469.14	12592.08
469.32	12945.50
469.50	12685.70
469.69	12802.73
469.87	12978.27
470.05	13050.83
470.23	13242.75
470.41	12894.01
470.59	13156.15
470.77	13004.02
470.95	12978.27
471.14	13364.46
471.32	13020.40
471.50	13755.33
471.68	13448.72
471.86	13385.52
472.04	13369.14
472.22	13919.17
472.40	13647.66
472.58	13568.09
472.77	13870.01
472.95	14274.93
473.13	14508.98
473.31	13977.68
473.49	14017.47
473.67	14003.43
473.85	14438.76
474.03	14413.02
474.21	14307.69
474.39	14626.01
474.57	14733.67
474.75	14679.84
474.93	14759.42
475.12	14841.34
475.30	14960.70
475.48	14944.32
475.66	14888.15
475.84	14977.09
476.02	15014.54
476.20	15332.85
476.38	15695.63
476.56	16070.12
476.74	15796.28
476.92	15765.85
477.10	15630.10
477.28	15999.90
477.46	15920.32
477.64	16226.93
477.82	16706.74
478.00	16994.63
478.18	16479.71
478.36	16659.93
478.54	16886.97
478.72	16807.39
478.90	17355.07
479.08	17418.27
479.26	17631.26
479.44	17408.90
479.62	17628.92
479.80	17975.31
479.98	17891.06
480.16	18441.08
480.34	18132.13
480.52	18279.58
480.70	18415.34
480.88	18352.14
481.06	18651.73
481.24	18256.18
481.41	19171.33
481.59	19066.00
481.77	19585.60
481.95	19445.17
482.13	19616.03
482.31	19513.05
482.49	19985.83
482.67	19829.02
482.85	20137.97
483.03	20685.65
483.21	20702.04
483.39	20893.96
483.57	21048.44
483.74	21170.15
483.92	21319.94
484.10	21280.15
484.28	21270.79
484.46	21785.71
484.64	22335.73
484.82	21664.00
485.00	22071.25
485.18	22822.56
485.35	23056.62
485.53	22862.35
485.71	22834.27
485.89	23035.55
486.07	23049.60
486.25	23047.26
486.43	23613.66
486.61	23620.69
486.78	23934.32
486.96	23964.75
487.14	24671.59
487.32	24278.38
487.50	24678.61
487.68	24877.55
487.85	25022.67
488.03	25308.21
488.21	25748.23
488.39	25790.36
488.57	25638.23
488.75	26127.40
488.92	26338.05
489.10	26679.77
489.28	26651.68
489.46	26977.01
489.64	27098.72
489.81	27058.93
489.99	27513.00
490.17	27585.55
490.35	27545.76
490.53	27899.19
490.70	28201.11
490.88	28201.11
491.06	28458.57
491.24	28500.70
491.41	28512.41
491.59	29053.07
491.77	28819.02
491.95	29596.07
492.13	29518.84
492.30	29390.11
492.48	29453.30
492.66	29940.13
492.84	30164.82
493.01	30857.62
493.19	30192.91
493.37	30712.51
493.54	30642.29
493.72	31197.00
493.90	31351.48
494.08	31243.81
494.25	31859.37
494.43	31913.20
494.61	32264.28
494.79	32287.69
494.96	32128.53
495.14	32353.23
495.32	33415.83
495.49	32856.44
495.67	32954.74
495.85	33200.50
496.02	33462.64
496.20	33750.52
496.38	33954.15
496.55	33914.36
496.73	34333.32
496.91	34338.00
497.09	34464.39
497.26	34450.35
497.44	34745.25
497.62	34869.30
497.79	35730.62
497.97	35023.78
498.14	35718.92
498.32	35674.45
498.50	36037.23
498.67	36091.06
498.85	35927.22
499.03	36760.45
499.20	36208.09
499.38	36804.92
499.56	36634.06
499.73	37120.90
499.91	36793.22
500.08	37530.49
500.26	37071.75
500.44	37214.52
500.61	37607.73
500.79	37453.25
500.97	37581.98
501.14	38005.62
501.32	38260.74
501.49	38450.32
501.67	38288.82
501.84	38691.40
502.02	38951.20
502.20	38843.53
502.37	38986.30
502.55	38871.62
502.72	39335.04
502.90	39210.99
503.07	39379.51
503.25	39716.55
503.43	39667.40
503.60	40025.50
503.78	39679.10
503.95	39995.07
504.13	40149.55
504.30	40151.89
504.48	40388.28
504.65	40514.67
504.83	40765.11
505.01	40921.93
505.18	41172.36
505.36	41160.66
505.53	41085.76
505.71	41212.15
505.88	41474.29
506.06	41151.30
506.23	41567.91
506.41	41312.80
506.58	41944.74
506.76	42197.52
506.93	42351.99
507.11	42206.88
507.28	42307.52
507.46	42464.34
507.63	42850.53
507.81	42646.90
507.98	42703.07
508.16	42560.30
508.33	42876.27
508.50	43150.12
508.68	43014.37
508.85	43395.87
509.03	43660.35
509.20	43728.23
509.38	43852.28
509.55	44456.14
509.73	44168.25
509.90	44313.36
510.08	44322.72
510.25	44474.86
510.42	44624.65
510.60	44875.09
510.77	45153.62
510.95	45151.27
511.12	44636.36
511.30	44914.88
511.47	45177.02
511.64	45289.37
511.82	45977.48
511.99	45698.96
512.17	45703.64
512.34	45514.06
512.51	46216.22
512.69	46305.16
512.86	45961.10
513.04	46106.21
513.21	46326.22
513.38	46754.54
513.56	46597.73
513.73	46595.38
513.90	46913.70
514.08	46754.54
514.25	47084.56
514.43	46740.50
514.60	47512.88
514.77	47152.43
514.95	47224.99
515.12	47072.85
515.29	47166.48
515.47	47887.36
515.64	47922.47
515.81	47501.17
515.99	48149.50
516.16	48098.01
516.33	48053.54
516.51	48577.82
516.68	48399.94
516.85	47899.06
517.03	48781.45
517.20	48868.05
517.37	48526.33
517.54	48421.00
517.72	48655.06
517.89	48629.31
518.06	48877.41
518.24	49029.54
518.41	49006.14
518.58	48746.34
518.75	48893.79
518.93	49441.48
519.10	48952.30
519.27	49738.72
519.45	49394.67
519.62	49521.05
519.79	49682.55
519.96	49720.00
520.14	49729.36
520.31	50096.83
520.48	50300.45
520.65	50028.95
520.83	50485.36
521.00	50590.68
521.17	50092.15
521.34	50415.14
521.52	50604.72
521.69	50176.40
521.86	50873.88
522.03	50754.52
522.20	51370.08
522.38	51304.54
522.55	51166.45
522.72	51435.61
522.89	50848.14
523.07	51543.28
523.24	51194.54
523.41	51751.59
523.58	51124.32
523.75	51700.09
523.92	51295.18
524.10	51564.34
524.27	51882.66
524.44	51798.40
524.61	52037.13
524.78	52023.09
524.96	52060.54
525.13	52067.56
525.30	52189.27
525.47	52247.78
525.64	52388.21
525.81	52313.31
525.98	52336.72
526.16	52172.88
526.33	52385.87
526.50	52818.87
526.67	52519.28
526.84	52570.77
527.01	52402.25
527.18	52846.96
527.36	52750.99
527.53	52755.68
527.70	53132.50
527.87	53130.16
528.04	52945.26
528.21	53298.68
528.38	53062.29
528.55	53368.90
528.72	53137.18
528.89	53195.70
529.07	52947.60
529.24	53251.87
529.41	53406.34
529.58	53385.28
529.75	53399.32
529.92	53490.60
530.09	53837.00
530.26	53544.44
530.43	53822.96
530.60	53638.06
530.77	53778.49
530.94	53925.94
531.11	53787.85
531.28	54033.61
531.46	54188.08
531.63	53942.33
531.80	53886.15
531.97	54157.66
532.14	54300.43
532.31	54185.74
532.48	54185.74
532.65	54403.41
532.82	54295.75
532.99	54756.83
533.16	54164.68
533.33	54679.60
533.50	54803.64
533.67	54632.78
533.84	54295.75
534.01	54478.31
534.18	54487.67
534.35	54962.80
534.52	55098.55
534.69	54848.11
534.86	55203.88
535.03	54803.64
535.20	54958.12
535.37	54997.91
535.54	55267.07
535.71	54976.84
535.88	55543.25
536.05	55412.18
536.22	55367.71
536.38	55461.33
536.55	55332.60
536.72	55451.97
536.89	55339.63
537.06	55423.89
537.23	55463.67
537.40	55201.53
537.57	55646.24
537.74	55873.27
537.91	55751.56
538.08	55538.57
538.25	55522.19
538.42	55627.51
538.59	55997.32
538.75	55529.21
538.92	55522.19
539.09	55880.29
539.26	55810.07
539.43	55896.67
539.60	55962.21
539.77	56051.15
539.94	56294.56
540.11	56238.39
540.28	56420.95
540.44	56353.08
540.61	56097.96
540.78	56254.78
540.95	56313.29
541.12	56119.02
541.29	56418.61
541.46	56226.69
541.62	56374.14
541.79	56549.68
541.96	56257.12
542.13	56507.55
542.30	56533.30
542.47	56757.99
542.63	56467.76
542.80	56612.88
542.97	56882.04
543.14	56919.49
543.31	56884.38
543.48	56999.07
543.64	57221.42
543.81	57310.36
543.98	57160.56
544.15	56982.68
544.32	57174.61
544.48	57312.70
544.65	57167.58
544.82	57151.20
544.99	57064.60
545.16	57043.54
545.32	57045.88
545.49	57556.11
545.66	57607.61
545.83	57429.72
546.00	57513.98
546.16	57319.72
546.33	57148.86
546.50	57289.29
546.67	57619.31
546.83	57055.24
547.00	57710.59
547.17	57509.30
547.34	57609.95
547.50	57925.92
547.67	58246.57
547.84	57677.82
548.00	57911.88
548.17	58152.95
548.34	57696.55
548.51	58157.63
548.67	57942.30
548.84	57808.89
549.01	57876.77
549.18	58010.18
549.34	57925.92
549.51	57935.28
549.68	58197.42
549.84	58028.90
550.01	58068.69
550.18	58089.76
550.34	58218.49
550.51	58234.87
550.68	58134.23
550.84	57998.48
551.01	58396.37
551.18	58277.00
551.34	58122.52
551.51	58309.77
551.68	58447.86
551.84	58440.84
552.01	58302.74
552.18	58724.04
552.34	58216.14
552.51	58487.65
552.68	58284.02
552.84	58489.99
553.01	58775.53
553.18	59004.91
553.34	58890.22
553.51	58607.01
553.67	58667.87
553.84	58773.19
554.01	58887.88
554.17	58967.46
554.34	58897.24
554.51	58822.34
554.67	58925.33
554.84	58855.11
555.00	58862.13
555.17	59016.61
555.33	59061.08
555.50	58869.15
555.67	58887.88
555.83	58876.18
556.00	59105.55
556.16	58904.26
556.33	59201.51
556.50	59093.85
556.66	59231.94
556.83	58908.94
556.99	59147.68
557.16	59238.96
557.32	59250.66
557.49	59491.74
557.65	59126.61
557.82	59072.78
557.98	59278.75
558.15	59276.41
558.32	59409.82
558.48	59297.47
558.65	59337.26
558.81	59234.28
558.98	59250.66
559.14	59421.52
559.31	59458.97
559.47	59430.88
559.64	59576.00
559.80	59487.06
559.97	59508.12
560.13	59468.33
560.30	59571.32
560.46	59405.14
560.63	59522.16
560.79	59597.06
560.96	59760.90
561.12	59718.77
561.29	59576.00
561.45	59484.72
561.61	59414.50
561.78	59634.51
561.94	59639.19
562.11	59667.28
562.27	59671.96
562.44	59746.86
562.60	59957.50
562.77	59718.77
562.93	59704.73
563.10	59847.50
563.26	59554.93
563.42	60048.78
563.59	59831.11
563.75	59863.88
563.92	59903.67
564.08	59908.35
564.24	59971.55
564.41	60065.17
564.57	60018.36
564.74	59678.98
564.90	59833.46
565.07	59945.80
565.23	59873.24
565.39	59859.20
565.56	60041.76
565.72	60058.15
565.88	59835.80
566.05	59854.52
566.21	60013.68
566.38	60130.70
566.54	60109.64
566.70	60367.10
566.87	60327.31
567.03	60004.31
567.19	60493.49
567.36	60006.65
567.52	60039.42
567.68	60299.22
567.85	60184.54
568.01	60217.30
568.17	60207.94
568.34	60355.39
568.50	60317.95
568.66	60219.64
568.83	60390.50
568.99	60278.16
569.15	60245.39
569.32	60280.50
569.48	60189.22
569.64	60418.59
569.81	60364.76
569.97	60449.02
570.13	60324.97
570.30	59992.61
570.46	60392.84
570.62	60463.06
570.78	60439.65
570.95	60507.53
571.11	60257.09
571.27	60362.42
571.43	60369.44
571.60	60317.95
571.76	60186.88
571.92	60446.68
572.09	60498.17
572.25	60392.84
572.41	60404.55
572.57	60575.40
572.74	60470.08
572.90	60357.74
573.06	60561.36
573.22	60289.86
573.38	60388.16
573.55	60507.53
573.71	60694.77
573.87	60570.72
574.03	60104.96
574.20	60458.38
574.36	60495.83
574.52	60694.77
574.68	60662.00
574.84	60575.40
575.01	60662.00
575.17	60451.36
575.33	60463.06
575.49	60554.34
575.65	60477.10
575.82	60589.45
575.98	60577.75
576.14	60781.37
576.30	60441.99
576.46	60725.20
576.62	60629.24
576.79	60711.16
576.95	60416.25
577.11	60427.95
577.27	60713.50
577.43	60734.56
577.59	60502.85
577.75	60575.40
577.92	60612.85
578.08	60584.77
578.24	60617.53
578.40	60715.84
578.56	60610.51
578.72	60772.01
578.88	60659.66
579.04	60872.65
579.21	60697.11
579.37	60760.31
579.53	60725.20
579.69	60416.25
579.85	60549.66
580.01	60587.11
580.17	60584.77
580.33	60781.37
580.49	60828.18
580.65	60687.75
580.82	60640.94
580.98	60608.17
581.14	60830.52
581.30	60942.87
581.46	60713.50
581.62	60671.37
581.78	60678.39
581.94	60814.14
582.10	60828.18
582.26	60757.97
582.42	60781.37
582.58	60886.70
582.74	60624.56
582.90	60629.24
583.06	60860.95
583.22	60566.04
583.38	60816.48
583.54	60884.36
583.70	60844.57
583.86	60762.65
584.02	60783.71
584.18	60877.33
584.34	60809.46
584.50	60767.33
584.66	60863.29
584.82	60729.88
584.98	60956.91
585.14	61003.72
585.30	60741.58
585.46	60741.58
585.62	60844.57
585.78	60959.25
585.94	60615.19
586.10	60966.27
586.26	61057.56
586.42	60926.49
586.58	60884.36
586.74	60809.46
586.90	60809.46
587.06	60830.52
587.22	61022.45
587.38	61066.92
587.54	61010.74
587.70	61176.92
587.86	60825.84
588.02	60753.29
588.18	61006.06
588.34	60877.33
588.49	61029.47
