SpectraSuite Data File
++++++++++++++++++++++++++++++++++++
Date: Fri Oct 25 11:22:36 EDT 2013
User: price-jones
Dark Spectrum Present: No
Reference Spectrum Present: No
Number of Sampled Component Spectra: 1
Spectrometers: USB2+H05261
Integration Time (usec): 100000 (USB2+H05261)
Spectra Averaged: 1 (USB2+H05261)
Boxcar Smoothing: 0 (USB2+H05261)
Correct for Electrical Dark: No (USB2+H05261)
Strobe/Lamp Enabled: No (USB2+H05261)
Correct for Detector Non-linearity: No (USB2+H05261)
Correct for Stray Light: No (USB2+H05261)
Number of Pixels in Processed Spectrum: 2048
>>>>>Begin Processed Spectral Data<<<<<
365.73	203.63
365.92	203.63
366.12	203.63
366.32	128.73
366.52	117.03
366.72	110.01
366.91	124.05
367.11	154.48
367.31	67.88
367.51	53.83
367.70	60.85
367.90	133.41
368.10	133.41
368.30	149.79
368.49	95.96
368.69	112.35
368.89	117.03
369.09	163.84
369.28	154.48
369.48	170.86
369.68	145.11
369.87	220.01
370.07	231.71
370.27	220.01
370.47	344.06
370.66	606.20
370.86	578.11
371.06	678.76
371.25	610.88
371.45	664.71
371.65	650.67
371.84	645.99
372.04	643.65
372.24	709.18
372.44	697.48
372.63	795.78
372.83	781.74
373.03	751.31
373.22	692.80
373.42	774.72
373.62	667.05
373.81	847.27
374.01	837.91
374.21	887.06
374.40	800.46
374.60	805.14
374.79	779.40
374.99	868.34
375.19	849.61
375.38	840.25
375.58	842.59
375.78	823.87
375.97	882.38
376.17	868.34
376.37	952.60
376.56	821.53
376.76	898.77
376.95	788.76
377.15	802.80
377.35	809.83
377.54	863.66
377.74	880.04
377.93	961.96
378.13	915.15
378.33	926.85
378.52	947.92
378.72	997.07
378.91	922.17
379.11	894.08
379.31	976.00
379.50	924.51
379.70	940.90
379.89	1015.79
380.09	976.00
380.28	947.92
380.48	978.34
380.68	968.98
380.87	971.32
381.07	1036.86
381.26	964.30
381.46	1048.56
381.65	910.47
381.85	1020.47
382.04	985.37
382.24	1053.24
382.43	1046.22
382.63	1081.33
382.83	945.58
383.02	1046.22
383.22	1231.12
383.41	1015.79
383.61	1144.52
383.80	1062.60
384.00	1064.94
384.19	1071.97
384.39	1074.31
384.58	1207.72
384.78	1107.07
384.97	1130.48
385.17	1116.44
385.36	1228.78
385.56	1200.69
385.75	1210.06
385.95	1153.88
386.14	1217.08
386.34	1167.93
386.53	1172.61
386.72	1193.67
386.92	1226.44
387.11	1256.87
387.31	1158.57
387.50	1224.10
387.70	1116.44
387.89	1249.85
388.09	1263.89
388.28	1205.38
388.48	1240.48
388.67	1338.79
388.86	1233.46
389.06	1357.51
389.25	1308.36
389.45	1294.32
389.64	1359.85
389.84	1343.47
390.03	1479.22
390.22	1420.71
390.42	1350.49
390.61	1303.68
390.81	1434.75
391.00	1540.07
391.19	1432.41
391.39	1519.01
391.58	1451.13
391.78	1481.56
391.97	1537.73
392.16	1462.83
392.36	1544.75
392.55	1523.69
392.75	1467.52
392.94	1582.20
393.13	1671.14
393.33	1493.26
393.52	1605.61
393.71	1572.84
393.91	1603.27
394.10	1582.20
394.29	1619.65
394.49	1561.14
394.68	1619.65
394.88	1636.03
395.07	1659.44
395.26	1666.46
395.46	1710.93
395.65	1746.04
395.84	1764.76
396.04	1804.55
396.23	1795.19
396.42	1809.23
396.62	1851.36
396.81	1706.25
397.00	1767.10
397.19	1741.36
397.39	1792.85
397.58	1795.19
397.77	1736.68
397.97	1870.09
398.16	1837.32
398.35	1884.13
398.55	1912.22
398.74	1912.22
398.93	1865.41
399.12	1870.09
399.32	1933.28
399.51	1914.56
399.70	2043.29
399.90	1984.77
400.09	1994.14
400.28	2054.99
400.47	2029.24
400.67	2174.36
400.86	2071.37
401.05	2078.40
401.24	2127.55
401.44	2047.97
401.63	2141.59
401.82	2162.66
402.01	2183.72
402.21	2150.95
402.40	2228.19
402.59	2225.85
402.78	2122.87
402.97	2324.15
403.17	2275.00
403.36	2272.66
403.55	2277.34
403.74	2352.24
403.93	2436.50
404.13	2389.69
404.32	2230.53
404.51	2438.84
404.70	2457.56
404.89	2363.94
405.09	2483.31
405.28	2572.25
405.47	2504.37
405.66	2462.24
405.85	2401.39
406.05	2511.39
406.24	2487.99
406.43	2637.78
406.62	2745.45
406.81	2745.45
407.00	2715.02
407.20	2686.94
407.39	2677.57
407.58	2686.94
407.77	2806.30
407.96	2754.81
408.15	2757.15
408.34	2850.77
408.54	2818.00
408.73	2834.39
408.92	2885.88
409.11	2920.99
409.30	2953.76
409.49	2932.69
409.68	2963.12
409.87	2967.80
410.07	3028.65
410.26	2935.03
410.45	2988.86
410.64	2965.46
410.83	3096.53
411.02	3038.02
411.21	3190.15
411.40	3199.51
411.59	3218.24
411.78	3150.36
411.98	3169.09
412.17	3297.81
412.36	3239.30
412.55	3353.99
412.74	3389.10
412.93	3412.50
413.12	3375.05
413.31	3536.55
413.50	3672.30
413.69	3449.95
413.88	3712.09
414.07	3658.26
414.26	3679.32
414.45	3613.79
414.64	3719.11
414.83	3749.54
415.02	3918.06
415.22	3775.28
415.41	3896.99
415.60	3885.29
415.79	3866.56
415.98	4011.68
416.17	3871.25
416.36	4056.15
416.55	4060.83
416.74	4084.23
416.93	4088.92
417.12	4180.20
417.31	4241.05
417.50	4217.65
417.69	4163.81
417.88	4238.71
418.07	4496.17
418.26	4252.75
418.45	4386.16
418.64	4470.42
418.83	4320.63
419.02	4491.49
419.21	4585.11
419.39	4458.72
419.58	4444.68
419.77	4451.70
419.96	4575.75
420.15	4615.54
420.34	4594.47
420.53	4683.41
420.72	4741.93
420.91	4847.25
421.10	4777.03
421.29	4784.06
421.48	4814.48
421.67	4739.58
421.86	4779.37
422.05	4826.18
422.24	4851.93
422.43	4910.44
422.61	5011.09
422.80	4966.62
422.99	5001.72
423.18	4912.78
423.37	4980.66
423.56	4905.76
423.75	4877.68
423.94	4873.00
424.13	4690.43
424.32	4917.47
424.50	4966.62
424.69	5158.54
424.88	5121.09
425.07	4889.38
425.26	4922.15
425.45	5071.94
425.64	5083.64
425.83	5067.26
426.01	5050.88
426.20	5036.83
426.39	5135.14
426.58	4987.68
426.77	5167.90
426.96	5125.77
427.15	5128.11
427.33	5142.16
427.52	5219.39
427.71	5294.29
427.90	5233.44
428.09	5383.23
428.28	5298.97
428.46	5355.15
428.65	5242.80
428.84	5509.62
429.03	5668.78
429.22	5345.78
429.40	5383.23
429.59	5647.71
429.78	5217.05
429.97	5275.57
430.16	5603.24
430.34	5619.63
430.53	5809.21
430.72	5797.51
430.91	5813.89
431.10	5654.73
431.28	5746.02
431.47	5799.85
431.66	5970.71
431.85	5982.41
432.03	5982.41
432.22	6204.76
432.41	6024.54
432.60	5961.34
432.79	6033.90
432.97	6139.23
433.16	6153.27
433.35	5977.73
433.54	6143.91
433.72	6115.82
433.91	6214.12
434.10	6282.00
434.28	6155.61
434.47	6200.08
434.66	6319.45
434.85	6296.04
435.03	6375.62
435.22	6429.45
435.41	6523.07
435.59	6317.11
435.78	6370.94
435.97	6511.37
436.16	6733.72
436.34	6396.68
436.53	6352.21
436.72	6705.63
436.90	6497.33
437.09	6707.98
437.28	6609.67
437.46	6520.73
437.65	6766.49
437.84	7021.61
438.02	6848.41
438.21	6836.70
438.40	6806.28
438.58	6984.16
438.77	7293.11
438.96	6815.64
439.14	7052.03
439.33	7229.91
439.52	7307.15
439.70	7332.90
439.89	7478.01
440.08	7358.64
440.26	7307.15
440.45	7442.90
440.63	7585.68
440.82	7737.81
441.01	7573.97
441.19	7583.34
441.38	7683.98
441.57	7941.44
441.75	7885.26
441.94	7885.26
442.12	8006.97
442.31	7967.18
442.50	8063.15
442.68	7997.61
442.87	8229.32
443.05	8212.94
443.24	8219.96
443.43	8126.34
443.61	8231.66
443.80	8484.44
443.98	8116.98
444.17	7882.92
444.35	8346.35
444.54	8355.71
444.73	8416.57
444.91	8301.88
445.10	8376.78
445.28	8458.70
445.47	8205.92
445.65	8542.96
445.84	8664.66
446.02	8575.72
446.21	8477.42
446.39	8561.68
446.58	8587.43
446.77	8610.83
446.95	8395.50
447.14	8517.21
447.32	8720.84
447.51	8571.04
447.69	8353.37
447.88	8503.17
448.06	8430.61
448.25	8552.32
448.43	8690.41
448.62	8652.96
448.80	8702.11
448.99	8802.75
449.17	8648.28
449.36	8606.15
449.54	8992.34
449.73	8966.59
449.91	9160.86
450.10	9233.41
450.28	9226.39
450.46	9240.44
450.65	9163.20
450.83	9121.07
451.02	9048.51
451.20	9219.37
451.39	9308.31
451.57	9100.00
451.76	9193.62
451.94	9320.01
452.13	9500.23
452.31	9458.10
452.49	9343.42
452.68	9392.57
452.86	9376.19
453.05	9390.23
453.23	9507.26
453.42	9378.53
453.60	9460.45
453.78	9652.37
453.97	9582.15
454.15	9533.00
454.34	9469.81
454.52	9834.93
454.70	10003.45
454.89	9863.02
455.07	9916.85
455.26	9970.68
455.44	10143.88
455.62	9881.74
455.81	10026.86
455.99	10010.47
456.17	10043.24
456.36	10071.33
456.54	10237.50
456.73	10256.23
456.91	10717.31
457.09	10588.58
457.28	10565.18
457.46	10186.01
457.64	10480.92
457.83	10511.35
458.01	10518.37
458.19	10946.69
458.38	10834.34
458.56	10757.10
458.74	10759.44
458.93	10665.82
459.11	10822.64
459.29	10792.21
459.48	11094.14
459.66	10862.43
459.84	10909.24
460.03	11304.79
460.21	11033.29
460.39	11192.44
460.57	11094.14
460.76	11192.44
460.94	11194.78
461.12	11232.23
461.31	11239.25
461.49	11363.30
461.67	11265.00
461.85	11690.98
462.04	11517.78
462.22	12189.51
462.40	11712.04
462.59	11651.19
462.77	11515.44
462.95	11878.22
463.13	11789.28
463.32	11873.54
463.50	11997.59
463.68	11857.15
463.86	12039.72
464.05	11850.13
464.23	11679.27
464.41	12116.95
464.59	11751.83
464.78	12123.98
464.96	11988.22
465.14	12016.31
465.32	12138.02
465.50	12276.11
465.69	12437.61
465.87	12418.88
466.05	12283.13
466.23	12233.98
466.41	12453.99
466.60	12641.23
466.78	12280.79
466.96	12264.41
467.14	12498.46
467.32	12437.61
467.51	12638.89
467.69	12484.42
467.87	12634.21
468.05	12671.66
468.23	12453.99
468.41	12580.38
468.60	12807.41
468.78	12688.04
468.96	12662.30
469.14	12772.30
469.32	12936.14
469.50	12809.75
469.69	13355.10
469.87	13165.51
470.05	13083.59
470.23	13287.22
470.41	13359.78
470.59	13673.41
470.77	13114.02
470.95	13268.50
471.14	13757.67
471.32	13240.41
471.50	13750.65
471.68	13788.10
471.86	13694.47
472.04	13720.22
472.22	14305.35
472.40	13877.04
472.58	14005.77
472.77	14160.24
472.95	14174.28
473.13	14743.03
473.31	14288.97
473.49	14256.20
473.67	14256.20
473.85	14527.71
474.03	14544.09
474.21	14801.55
474.39	14736.01
474.57	14644.73
474.75	14782.82
474.93	15204.12
475.12	14967.73
475.30	15133.90
475.48	14920.92
475.66	15407.75
475.84	15426.47
476.02	15740.10
476.20	15475.62
476.38	15981.18
476.56	16259.70
476.74	16074.80
476.92	15878.19
477.10	15779.89
477.28	16318.22
477.46	16439.92
477.64	16634.19
477.82	16676.32
478.00	17184.21
478.18	16975.91
478.36	17067.19
478.54	17422.95
478.72	17238.05
478.90	17558.70
479.08	17673.39
479.26	18043.19
479.44	17860.63
479.62	17900.42
479.80	18300.65
479.98	18246.82
480.16	18735.99
480.34	18405.97
480.52	18691.52
480.70	18892.80
480.88	18642.37
481.06	19056.64
481.24	18888.12
481.41	19201.76
481.59	19461.55
481.77	19915.62
481.95	19648.80
482.13	19831.36
482.31	20077.12
482.49	20439.90
482.67	20208.19
482.85	20528.84
483.03	20872.90
483.21	21062.48
483.39	21081.21
483.57	21277.81
483.74	21453.35
483.92	21647.61
484.10	21509.52
484.28	21975.29
484.46	22085.30
484.64	22724.26
484.82	22092.32
485.00	22466.80
485.18	22848.31
485.35	23405.36
485.53	23042.57
485.71	23424.08
485.89	23906.23
486.07	23723.67
486.25	23428.76
486.43	23913.25
486.61	24201.14
486.78	24009.22
486.96	24236.25
487.14	24512.43
487.32	25146.72
487.50	25263.74
487.68	25177.14
487.85	25252.04
488.03	25993.99
488.21	26459.76
488.39	26291.24
488.57	26450.39
488.75	26780.41
488.92	26679.77
489.10	27325.75
489.28	27051.91
489.46	27201.71
489.64	27211.07
489.81	27903.87
489.99	27988.13
490.17	28032.60
490.35	28641.14
490.53	28414.10
490.70	28631.77
490.88	28402.40
491.06	29039.03
491.24	29167.76
491.41	29523.52
491.59	29488.41
491.77	29792.68
491.95	29848.85
492.13	30015.03
492.30	30384.83
492.48	30459.73
492.66	30286.53
492.84	30672.72
493.01	30892.73
493.19	30698.47
493.37	31475.52
493.54	31466.16
493.72	31798.52
493.90	31791.50
494.08	32203.43
494.25	32589.62
494.43	32264.28
494.61	32671.54
494.79	32802.61
494.96	32954.74
495.14	33064.75
495.32	33441.57
495.49	33888.62
495.67	33720.10
495.85	33706.05
496.02	33893.30
496.20	34309.91
496.38	34309.91
496.55	34312.25
496.73	35370.18
496.91	35154.85
497.09	35405.28
497.26	35283.58
497.44	35096.33
497.62	35515.29
497.79	35885.09
497.97	35538.69
498.14	35936.59
498.32	36847.05
498.50	36528.74
498.67	36889.18
498.85	36542.78
499.03	37464.96
499.20	36999.19
499.38	36868.12
499.56	37542.19
499.73	37785.61
499.91	37764.54
500.08	37675.60
500.26	37792.63
500.44	37933.06
500.61	38288.82
500.79	37890.93
500.97	38370.74
501.14	39014.39
501.32	39426.32
501.49	38637.56
501.67	39435.69
501.84	39477.82
502.02	39077.58
502.20	39487.18
502.37	39894.43
502.55	39356.11
502.72	40011.46
502.90	39676.76
503.07	40004.44
503.25	39686.12
503.43	40119.12
503.60	40072.31
503.78	40734.68
503.95	40722.98
504.13	40769.79
504.30	40931.29
504.48	40470.20
504.65	41289.39
504.83	41364.29
505.01	41926.02
505.18	41441.53
505.36	41963.46
505.53	41691.96
505.71	42141.35
505.88	42096.88
506.06	41949.42
506.23	42136.66
506.41	41954.10
506.58	42536.90
506.76	42700.73
506.93	42983.94
507.11	42412.85
507.28	42873.93
507.46	43143.09
507.63	43290.55
507.81	43632.27
507.98	43449.70
508.16	43346.72
508.33	43819.51
508.50	44121.44
508.68	44385.92
508.85	44376.56
509.03	43985.69
509.20	44500.61
509.38	44690.19
509.55	44952.33
509.73	44933.60
509.90	44737.00
510.08	44828.28
510.25	44889.13
510.42	45420.44
510.60	45221.49
510.77	45282.34
510.95	45720.02
511.12	45237.87
511.30	45059.99
511.47	45724.71
511.64	46010.25
511.82	46490.06
511.99	45989.19
512.17	46110.89
512.34	46305.16
512.51	46997.96
512.69	46948.81
512.86	47000.30
513.04	46822.42
513.21	46953.49
513.38	46632.83
513.56	47243.71
513.73	47028.38
513.90	47641.60
514.08	47306.91
514.25	47531.60
514.43	47311.59
514.60	48079.28
514.77	47690.76
514.95	48151.84
515.12	47931.83
515.29	47746.93
515.47	48701.87
515.64	48135.46
515.81	48140.14
515.99	48879.75
516.16	48971.03
516.33	48802.51
516.51	48863.36
516.68	49017.84
516.85	49153.59
517.03	49212.10
517.20	49111.46
517.37	49212.10
517.54	49340.83
517.72	49118.48
517.89	49663.83
518.06	49577.23
518.24	49659.15
518.41	49698.94
518.58	49722.34
518.75	49595.95
518.93	49691.91
519.10	49832.35
519.27	49783.19
519.45	50117.89
519.62	50213.85
519.79	50518.12
519.96	50085.12
520.14	50230.24
520.31	50384.71
520.48	50450.25
520.65	50738.13
520.83	51250.71
521.00	50817.71
521.17	50733.45
521.34	51143.05
521.52	51042.40
521.69	50967.51
521.86	51388.80
522.03	51480.08
522.20	51615.83
522.38	51414.55
522.55	51660.30
522.72	51613.49
522.89	51498.81
523.07	51917.76
523.24	51885.00
523.41	52163.52
523.58	51625.20
523.75	52170.54
523.92	51971.60
524.10	52044.15
524.27	52123.73
524.44	52711.20
524.61	52236.08
524.78	52500.56
524.96	52215.01
525.13	52474.81
525.30	52673.76
525.47	52568.43
525.64	52769.72
525.81	52781.42
525.98	52800.15
526.16	52940.58
526.33	52793.12
526.50	53439.11
526.67	52963.98
526.84	53345.49
527.01	52940.58
527.18	53277.61
527.36	53453.15
527.53	53404.00
527.70	53764.45
527.87	53759.76
528.04	53205.06
528.21	53602.95
528.38	53752.74
528.55	53736.36
528.72	53970.41
528.89	53729.34
529.07	53389.96
529.24	53998.50
529.41	54337.88
529.58	54045.31
529.75	53792.53
529.92	54199.79
530.09	54167.02
530.26	54225.53
530.43	54218.51
530.60	53939.99
530.77	54197.44
530.94	54372.99
531.11	54223.19
531.28	54541.50
531.46	54312.13
531.63	54443.20
531.80	54784.92
531.97	54485.33
532.14	54644.49
532.31	54988.55
532.48	54852.80
532.65	54611.72
532.82	54691.30
532.99	55159.41
533.16	54883.22
533.33	55213.24
533.50	55128.98
533.67	55124.30
533.84	54908.97
534.01	55210.90
534.18	55213.24
534.35	55463.67
534.52	55302.18
534.69	55440.27
534.86	55402.82
535.03	55447.29
535.20	55622.83
535.37	55650.92
535.54	55510.49
535.71	55587.72
535.88	55772.63
536.05	55742.20
536.22	55866.25
536.38	55882.63
536.55	55966.89
536.72	55866.25
536.89	55826.46
537.06	55796.03
537.23	56027.74
537.40	55875.61
537.57	56079.24
537.74	56109.66
537.91	56275.84
538.08	56245.41
538.25	55976.25
538.42	56268.82
538.59	56474.79
538.75	56416.27
538.92	56252.44
539.09	56378.82
539.26	56399.89
539.43	56100.30
539.60	56376.48
539.77	56488.83
539.94	56371.80
540.11	56556.70
540.28	56732.25
540.44	56762.67
540.61	56542.66
540.78	56631.60
540.95	56526.28
541.12	56647.99
541.29	56910.13
541.46	56722.88
541.62	56910.13
541.79	56727.56
541.96	56825.87
542.13	56636.28
542.30	56999.07
542.47	57139.50
542.63	57198.01
542.80	56992.04
542.97	57317.38
543.14	57453.13
543.31	57406.32
543.48	57392.28
543.64	57558.45
543.81	57680.16
543.98	57598.24
544.15	57649.74
544.32	57628.67
544.48	57853.36
544.65	57553.77
544.82	57822.93
544.99	57439.09
545.16	57406.32
545.32	57441.43
545.49	57645.05
545.66	57886.13
545.83	57647.39
546.00	57916.56
546.16	57961.03
546.33	57799.53
546.50	57623.99
546.67	57916.56
546.83	57614.63
547.00	58148.27
547.17	58042.95
547.34	58202.10
547.50	58174.02
547.67	58340.19
547.84	57862.72
548.00	58363.60
548.17	58515.73
548.34	58309.77
548.51	58302.74
548.67	58347.21
548.84	58314.45
549.01	58508.71
549.18	58244.23
549.34	58585.95
549.51	58433.81
549.68	58583.61
549.84	58527.44
550.01	58688.93
550.18	58387.00
550.34	58876.18
550.51	58777.87
550.68	58700.64
550.84	58717.02
551.01	58777.87
551.18	58644.46
551.34	58702.98
551.51	58866.81
551.68	58810.64
551.84	58922.99
552.01	58578.93
552.18	58922.99
552.34	58707.66
552.51	58899.58
552.68	58908.94
552.84	58836.39
553.01	58995.54
553.18	58845.75
553.34	59049.38
553.51	59084.48
553.67	59098.53
553.84	59143.00
554.01	59157.04
554.17	59236.62
554.34	59194.49
554.51	59224.92
554.67	59334.92
554.84	59150.02
555.00	59234.28
555.17	59047.04
555.33	59196.83
555.50	59171.08
555.67	59154.70
555.83	59100.87
556.00	59554.93
556.16	59887.29
556.33	59533.87
556.50	59341.94
556.66	59508.12
556.83	59206.19
556.99	59564.29
557.16	59793.67
557.32	59723.45
557.49	59884.95
557.65	59447.27
557.82	59657.91
557.98	59531.53
558.15	59559.61
558.32	59739.83
558.48	59407.48
558.65	59545.57
558.81	59522.16
558.98	59767.92
559.14	59854.52
559.31	59847.50
559.47	59952.82
559.64	59908.35
559.80	59896.65
559.97	60069.85
560.13	59578.34
560.30	59718.77
560.46	59894.31
560.63	59920.05
560.79	59810.05
560.96	60158.79
561.12	60217.30
561.29	60116.66
561.45	60072.19
561.61	60067.51
561.78	59845.16
561.94	60051.12
562.11	60097.94
562.27	60250.07
562.44	59922.40
562.60	60285.18
562.77	60278.16
562.93	60069.85
563.10	60315.61
563.26	60100.28
563.42	60273.48
563.59	60240.71
563.75	60016.02
563.92	60147.09
564.08	60086.23
564.24	60404.55
564.41	60317.95
564.57	60374.12
564.74	60397.52
564.90	60458.38
565.07	60229.01
565.23	60322.63
565.39	60243.05
565.56	60271.14
565.72	60156.45
565.88	60395.18
566.05	60313.26
566.21	60289.86
566.38	60505.19
566.54	60552.00
566.70	60559.02
566.87	60678.39
567.03	60570.72
567.19	60608.17
567.36	60486.46
567.52	60617.53
567.68	60764.99
567.85	60542.64
568.01	60629.24
568.17	60582.43
568.34	60622.22
568.50	60718.18
568.66	60479.44
568.83	60498.17
568.99	60313.26
569.15	60598.81
569.32	60846.91
569.48	60671.37
569.64	60818.82
569.81	60591.79
569.97	60575.40
570.13	60821.16
570.30	60654.98
570.46	60650.30
570.62	60734.56
570.78	60874.99
570.95	60662.00
571.11	60907.76
571.27	60809.46
571.43	60746.26
571.60	60865.63
571.76	60734.56
571.92	60713.50
572.09	60818.82
572.25	60935.85
572.41	60746.26
572.57	60673.71
572.74	60900.74
572.90	60769.67
573.06	60949.89
573.22	60804.78
573.38	60811.80
573.55	60963.93
573.71	61169.90
573.87	60769.67
574.03	60889.04
574.20	60814.14
574.36	60912.44
574.52	60877.33
574.68	60999.04
574.84	61057.56
575.01	61155.86
575.17	60896.06
575.33	60837.54
575.49	60882.02
575.65	60947.55
575.82	61080.96
575.98	60952.23
576.14	61183.94
576.30	61097.34
576.46	60893.72
576.62	60882.02
576.79	61048.19
576.95	60870.31
577.11	61041.17
577.27	61059.90
577.43	60753.29
577.59	60914.78
577.75	60736.90
577.92	60816.48
578.08	60954.57
578.24	60968.61
578.40	61127.77
578.56	61083.30
578.72	61127.77
578.88	61059.90
579.04	61333.74
579.21	61001.38
579.37	61125.43
579.53	61296.29
579.69	60996.70
579.85	61017.77
580.01	61104.37
580.17	60959.25
580.33	61141.81
580.49	61113.73
580.65	61151.18
580.82	61106.71
580.98	60891.38
581.14	61111.39
581.30	61048.19
581.46	61144.16
581.62	61006.06
581.78	61031.81
581.94	61282.25
582.10	61064.58
582.26	61003.72
582.42	61207.35
582.58	61195.65
582.74	61048.19
582.90	61130.11
583.06	61359.48
583.22	61010.74
583.38	61099.68
583.54	61244.80
583.70	61144.16
583.86	61036.49
584.02	60828.18
584.18	61319.70
584.34	61181.60
584.50	61202.67
584.66	61155.86
584.82	61006.06
584.98	61261.18
585.14	61305.65
585.30	61057.56
585.46	61174.58
585.62	61165.22
585.78	61378.21
585.94	61216.71
586.10	61134.79
586.26	61202.67
586.42	61469.49
586.58	61284.59
586.74	61319.70
586.90	61123.09
587.06	61190.97
587.22	61190.97
587.38	61237.78
587.54	61474.17
587.70	61525.66
587.86	61242.46
588.02	61467.15
588.18	61511.62
588.34	61223.73
588.49	61307.99
