SpectraSuite Data File
++++++++++++++++++++++++++++++++++++
Date: Fri Oct 25 10:44:06 EDT 2013
User: price-jones
Dark Spectrum Present: No
Reference Spectrum Present: No
Number of Sampled Component Spectra: 1
Spectrometers: USB2+H05261
Integration Time (usec): 100000 (USB2+H05261)
Spectra Averaged: 1 (USB2+H05261)
Boxcar Smoothing: 0 (USB2+H05261)
Correct for Electrical Dark: No (USB2+H05261)
Strobe/Lamp Enabled: No (USB2+H05261)
Correct for Detector Non-linearity: No (USB2+H05261)
Correct for Stray Light: No (USB2+H05261)
Number of Pixels in Processed Spectrum: 2048
>>>>>Begin Processed Spectral Data<<<<<
365.73	102.98
365.92	102.98
366.12	102.98
366.32	46.81
366.52	16.38
366.72	30.43
366.91	32.77
367.11	0.00
367.31	51.49
367.51	21.06
367.70	0.00
367.90	9.36
368.10	39.79
368.30	28.09
368.49	23.41
368.69	95.96
368.89	100.64
369.09	18.72
369.28	88.94
369.48	7.02
369.68	32.77
369.87	84.26
370.07	114.69
370.27	114.69
370.47	229.37
370.66	458.74
370.86	388.53
371.06	461.09
371.25	507.90
371.45	442.36
371.65	486.83
371.84	465.77
372.04	505.56
372.24	500.87
372.44	503.22
372.63	521.94
372.83	533.64
373.03	496.19
373.22	475.13
373.42	559.39
373.62	587.47
373.81	545.34
374.01	580.45
374.21	559.39
374.40	561.73
374.60	517.26
374.79	601.52
374.99	526.62
375.19	575.77
375.38	561.73
375.58	617.90
375.78	559.39
375.97	575.77
376.17	655.35
376.37	608.54
376.56	648.33
376.76	606.20
376.95	585.13
377.15	671.73
377.35	699.82
377.54	624.92
377.74	692.80
377.93	561.73
378.13	648.33
378.33	648.33
378.52	587.47
378.72	657.69
378.91	753.65
379.11	653.01
379.31	615.56
379.50	664.71
379.70	688.12
379.89	643.65
380.09	720.88
380.28	638.97
380.48	678.76
380.68	676.41
380.87	713.86
381.07	711.52
381.26	711.52
381.46	636.63
381.65	725.57
381.85	678.76
382.04	718.54
382.24	751.31
382.43	748.97
382.63	690.46
382.83	617.90
383.02	688.12
383.22	711.52
383.41	732.59
383.61	751.31
383.80	716.20
384.00	737.27
384.19	702.16
384.39	784.08
384.58	816.85
384.78	734.93
384.97	849.61
385.17	826.21
385.36	718.54
385.56	828.55
385.75	821.53
385.95	802.80
386.14	849.61
386.34	805.14
386.53	798.12
386.72	819.19
386.92	873.02
387.11	833.23
387.31	905.79
387.50	875.36
387.70	863.66
387.89	873.02
388.09	924.51
388.28	880.04
388.48	868.34
388.67	933.87
388.86	912.81
389.06	931.53
389.25	910.47
389.45	1029.84
389.64	856.64
389.84	947.92
390.03	1060.26
390.22	887.06
390.42	976.00
390.61	1060.26
390.81	912.81
391.00	1032.18
391.19	1034.52
391.39	1008.77
391.58	1076.65
391.78	1109.41
391.97	1043.88
392.16	987.71
392.36	1071.97
392.55	1013.45
392.75	1060.26
392.94	985.37
393.13	1081.33
393.33	1039.20
393.52	980.68
393.71	1088.35
393.91	1125.80
394.10	1125.80
394.29	1146.86
394.49	1172.61
394.68	1128.14
394.88	1242.82
395.07	1240.48
395.26	1224.10
395.46	1252.19
395.65	1299.00
395.84	1212.40
396.04	1256.87
396.23	1177.29
396.42	1170.27
396.62	1123.46
396.81	1153.88
397.00	1217.08
397.19	1322.40
397.39	1313.04
397.58	1331.76
397.77	1303.68
397.97	1392.62
398.16	1481.56
398.35	1411.34
398.55	1380.92
398.74	1394.96
398.93	1493.26
399.12	1474.54
399.32	1556.46
399.51	1472.20
399.70	1556.46
399.90	1556.46
400.09	1511.99
400.28	1657.10
400.47	1565.82
400.67	1607.95
400.86	1619.65
401.05	1619.65
401.24	1715.61
401.44	1715.61
401.63	1743.70
401.82	1717.95
402.01	1746.04
402.21	1659.44
402.40	1783.49
402.59	1706.25
402.78	1720.29
402.97	1701.57
403.17	1877.11
403.36	1825.62
403.55	1851.36
403.74	1886.47
403.93	1874.77
404.13	1792.85
404.32	1900.52
404.51	1888.81
404.70	1893.49
404.89	1921.58
405.09	1933.28
405.28	1879.45
405.47	1961.37
405.66	1973.07
405.85	2057.33
406.05	2052.65
406.24	1968.39
406.43	1989.46
406.62	2038.61
406.81	2153.29
407.00	2092.44
407.20	2108.82
407.39	1926.26
407.58	2195.42
407.77	2190.74
407.96	2216.49
408.15	2289.04
408.34	2113.50
408.54	2331.17
408.73	2251.60
408.92	2225.85
409.11	2326.49
409.30	2431.82
409.49	2296.07
409.68	2300.75
409.87	2207.13
410.07	2342.88
410.26	2317.13
410.45	2366.28
410.64	2427.14
410.83	2506.71
411.02	2509.05
411.21	2567.57
411.40	2469.27
411.59	2551.18
411.78	2682.25
411.98	2579.27
412.17	2684.59
412.36	2679.91
412.55	2722.04
412.74	2691.62
412.93	2684.59
413.12	2658.85
413.31	2757.15
413.50	2796.94
413.69	2775.88
413.88	2832.05
414.07	2815.66
414.26	2939.71
414.45	2906.95
414.64	2890.56
414.83	2970.14
415.02	2944.39
415.22	3143.34
415.41	3035.67
415.60	3180.79
415.79	3173.77
415.98	3239.30
416.17	3213.56
416.36	3241.64
416.55	3201.85
416.74	3307.18
416.93	3286.11
417.12	3307.18
417.31	3274.41
417.50	3316.54
417.69	3351.65
417.88	3515.48
418.07	3384.41
418.26	3548.25
418.45	3506.12
418.64	3646.55
418.83	3538.89
419.02	3548.25
419.21	3618.47
419.39	3552.93
419.58	3550.59
419.77	3557.61
419.96	3602.08
420.15	3857.20
420.34	3581.02
420.53	3801.03
420.72	3822.09
420.91	3810.39
421.10	3796.35
421.29	3892.31
421.48	3854.86
421.67	3873.59
421.86	3838.48
422.05	3875.93
422.24	3819.75
422.43	3740.18
422.61	3679.32
422.80	3854.86
422.99	3932.10
423.18	3875.93
423.37	3894.65
423.56	3899.33
423.75	3894.65
423.94	3878.27
424.13	3627.83
424.32	3852.52
424.50	3838.48
424.69	3913.38
424.88	4028.06
425.07	3969.55
425.26	3983.59
425.45	3875.93
425.64	4109.98
425.83	4058.49
426.01	4168.49
426.20	3904.01
426.39	3990.61
426.58	3913.38
426.77	3946.14
426.96	3985.93
427.15	3948.48
427.33	4107.64
427.52	4133.39
427.71	4175.52
427.90	4079.55
428.09	4117.00
428.28	4117.00
428.46	4187.22
428.65	4227.01
428.84	4250.41
429.03	4191.90
429.22	4187.22
429.40	4060.83
429.59	4021.04
429.78	3929.76
429.97	4007.00
430.16	3875.93
430.34	4152.11
430.53	4250.41
430.72	4348.72
430.91	4229.35
431.10	4411.91
431.28	4521.92
431.47	4550.00
431.66	4538.30
431.85	4615.54
432.03	4608.51
432.22	4751.29
432.41	4711.50
432.60	4641.28
432.79	4767.67
432.97	4655.33
433.16	4648.30
433.35	4660.01
433.54	4652.98
433.72	4669.37
433.91	4608.51
434.10	4741.93
434.28	4793.42
434.47	4896.40
434.66	4973.64
434.85	4945.55
435.03	4922.15
435.22	4971.30
435.41	5114.07
435.59	5123.43
435.78	5055.56
435.97	5074.28
436.16	5090.67
436.34	5228.76
436.53	5268.55
436.72	5266.21
436.90	4990.02
437.09	5121.09
437.28	4964.28
437.46	5123.43
437.65	5097.69
437.84	5191.31
438.02	5071.94
438.21	5174.92
438.40	5153.86
438.58	5359.83
438.77	5280.25
438.96	5514.30
439.14	5490.90
439.33	5507.28
439.52	5600.90
439.70	5561.11
439.89	5586.86
440.08	5584.52
440.26	5638.35
440.45	5755.38
440.63	5823.25
440.82	5989.43
441.01	5816.23
441.19	5989.43
441.38	6118.16
441.57	5977.73
441.75	6071.35
441.94	6356.90
442.12	6340.51
442.31	6354.55
442.50	6326.47
442.68	6310.08
442.87	6094.76
443.05	6422.43
443.24	6455.20
443.43	6312.42
443.61	6431.79
443.80	6565.20
443.98	6232.85
444.17	6282.00
444.35	6614.35
444.54	6722.02
444.73	6607.33
444.91	6417.75
445.10	6387.32
445.28	6296.04
445.47	6471.58
445.65	6436.47
445.84	6354.55
446.02	6342.85
446.21	6675.21
446.39	6614.35
446.58	6576.91
446.77	6722.02
446.95	6494.99
447.14	6640.10
447.32	6722.02
447.51	6576.91
447.69	6672.87
447.88	6686.91
448.06	6684.57
448.25	6782.87
448.43	6810.96
448.62	6651.80
448.80	6757.13
448.99	6668.19
449.17	6939.69
449.36	6792.23
449.54	6949.05
449.73	7084.80
449.91	7180.76
450.10	7000.54
450.28	7105.87
450.46	7222.89
450.65	7190.13
450.83	7164.38
451.02	7206.51
451.20	7211.19
451.39	7307.15
451.57	7187.79
451.76	7143.32
451.94	7194.81
452.13	7232.26
452.31	7152.68
452.49	7136.29
452.68	7325.88
452.86	7166.72
453.05	7225.23
453.23	7297.79
453.42	7220.55
453.60	7384.39
453.78	7438.22
453.97	7431.20
454.15	7225.23
454.34	7281.41
454.52	7620.78
454.70	7496.74
454.89	7529.50
455.07	7665.25
455.26	7672.28
455.44	7613.76
455.62	7768.24
455.81	7751.85
455.99	7791.64
456.17	7854.84
456.36	7824.41
456.54	7950.80
456.73	7932.08
456.91	8067.83
457.09	7985.91
457.28	8231.66
457.46	7875.90
457.64	8191.88
457.83	7943.78
458.01	7985.91
458.19	8194.22
458.38	8140.38
458.56	8320.60
458.74	8269.11
458.93	8280.82
459.11	8156.77
459.29	8259.75
459.48	8329.97
459.66	8297.20
459.84	8320.60
460.03	8744.24
460.21	8538.27
460.39	8517.21
460.57	8606.15
460.76	8507.85
460.94	8617.85
461.12	8514.87
461.31	8631.90
461.49	8753.60
461.67	8835.52
461.85	8624.87
462.04	8671.68
462.22	9202.99
462.40	8922.12
462.59	8798.07
462.77	8669.34
462.95	8887.01
463.13	9048.51
463.32	8917.44
463.50	9104.68
463.68	8814.46
463.86	8910.42
464.05	8987.66
464.23	8856.59
464.41	9114.05
464.59	8985.32
464.78	9352.78
464.96	9111.71
465.14	9015.74
465.32	9378.53
465.50	9287.25
465.69	9249.80
465.87	9327.03
466.05	8905.74
466.23	9128.09
466.41	9294.27
466.60	9298.95
466.78	9102.34
466.96	9186.60
467.14	9362.14
467.32	9186.60
467.51	9359.80
467.69	9195.96
467.87	9528.32
468.05	9668.75
468.23	9401.93
468.41	9521.30
468.60	9533.00
468.78	9448.74
468.96	9586.83
469.14	9415.98
469.32	9954.30
469.50	9446.40
469.69	9991.75
469.87	9654.71
470.05	9678.12
470.23	9874.72
470.41	9809.19
470.59	9575.13
470.77	9930.89
470.95	10045.58
471.14	10101.75
471.32	9989.41
471.50	10221.12
471.68	10237.50
471.86	10377.94
472.04	10314.74
472.22	10668.16
472.40	10583.90
472.58	10506.66
472.77	10214.10
472.95	10752.42
473.13	10700.93
473.31	10539.43
473.49	10399.00
473.67	10541.77
473.85	10572.20
474.03	10960.73
474.21	11000.52
474.39	11232.23
474.57	11129.25
474.75	11272.02
474.93	11276.70
475.12	11206.48
475.30	11246.27
475.48	11342.24
475.66	11445.22
475.84	11461.60
476.02	11112.86
476.20	11260.32
476.38	11426.50
476.56	11733.11
476.74	11730.76
476.92	11803.32
477.10	11932.05
477.28	11992.90
477.46	12156.74
477.64	12315.90
477.82	12334.62
478.00	12613.15
478.18	12437.61
478.36	12571.02
478.54	12767.62
478.72	12933.80
478.90	12940.82
479.08	13060.19
479.26	13303.60
479.44	13174.88
479.62	13205.30
479.80	13249.77
479.98	13568.09
480.16	13888.74
480.34	13540.00
480.52	13848.95
480.70	13748.31
480.88	13570.43
481.06	13673.41
481.24	13954.27
481.41	14373.23
481.59	14279.61
481.77	14544.09
481.95	14672.82
482.13	14569.83
482.31	14368.55
482.49	14787.50
482.67	15056.67
482.85	14888.15
483.03	15030.92
483.21	15492.01
483.39	15449.88
483.57	15374.98
483.74	15529.45
483.92	15602.01
484.10	15548.18
484.28	15887.56
484.46	16231.62
484.64	16432.90
484.82	16091.18
485.00	15978.84
485.18	16318.22
485.35	16486.73
485.53	16311.19
485.71	16039.69
485.89	16369.71
486.07	16491.41
486.25	16568.65
486.43	17207.62
486.61	17039.10
486.78	17268.47
486.96	17635.94
487.14	17539.97
487.32	17664.02
487.50	17912.12
487.68	17923.82
487.85	18415.34
488.03	18328.74
488.21	18684.50
488.39	18569.81
488.57	18602.58
488.75	18944.30
488.92	19061.32
489.10	19393.68
489.28	19503.68
489.46	19695.61
489.64	19576.24
489.81	20168.40
489.99	20168.40
490.17	20018.60
490.35	20051.37
490.53	20372.02
490.70	20255.00
490.88	20643.52
491.06	20964.18
491.24	20610.76
491.41	20896.30
491.59	20622.46
491.77	20631.82
491.95	20950.14
492.13	21263.77
492.30	21612.51
492.48	21717.83
492.66	21717.83
492.84	21921.46
493.01	22101.68
493.19	22005.72
493.37	22059.55
493.54	22317.01
493.72	22654.05
493.90	22831.93
494.08	22972.36
494.25	23178.33
494.43	23206.41
494.61	23058.96
494.79	23580.90
494.96	23145.56
495.14	23297.69
495.32	23690.90
495.49	23494.30
495.67	23990.49
495.85	24140.29
496.02	24514.77
496.20	24250.29
496.38	24261.99
496.55	24627.12
496.73	25153.74
496.91	24926.71
497.09	25282.47
497.26	25060.12
497.44	25055.43
497.62	24900.96
497.79	25254.38
497.97	24912.66
498.14	25291.83
498.32	25692.06
498.50	25600.78
498.67	25989.31
498.85	26132.08
499.03	26258.47
499.20	26450.39
499.38	26497.20
499.56	26347.41
499.73	26618.91
499.91	26623.59
500.08	26913.82
500.26	26178.89
500.44	26331.03
500.61	26759.34
500.79	26834.24
500.97	27061.27
501.14	26946.59
501.32	27342.14
501.49	27248.52
501.67	27166.60
501.84	27700.24
502.02	28004.51
502.20	27922.59
502.37	27920.25
502.55	27796.20
502.72	28208.14
502.90	27971.74
503.07	28016.21
503.25	28577.94
503.43	28290.06
503.60	28271.33
503.78	28231.54
503.95	28060.68
504.13	28645.82
504.30	28479.64
504.48	28477.30
504.65	29036.69
504.83	29226.27
505.01	28959.45
505.18	29266.06
505.36	29460.32
505.53	29167.76
505.71	29776.30
505.88	29848.85
506.06	29322.23
506.23	29762.25
506.41	29563.31
506.58	29713.10
506.76	30469.09
506.93	30068.86
507.11	29848.85
507.28	30249.08
507.46	30024.39
507.63	30080.56
507.81	29975.24
507.98	30054.82
508.16	30457.39
508.33	30792.09
508.50	30532.29
508.68	31101.04
508.85	31171.25
509.03	31136.15
509.20	31285.94
509.38	31552.76
509.55	31358.50
509.73	31498.93
509.90	30869.33
510.08	31292.96
510.25	31140.83
510.42	31393.61
510.60	32039.59
510.77	31969.38
510.95	32114.49
511.12	32278.33
511.30	31810.22
511.47	32341.52
511.64	32472.59
511.82	32591.96
511.99	32058.32
512.17	32423.44
512.34	32629.41
512.51	32776.86
512.69	32966.45
512.86	32762.82
513.04	33013.26
513.21	33263.69
513.38	32971.13
513.56	32964.10
513.73	32708.99
513.90	32648.13
514.08	32830.69
514.25	33193.48
514.43	33514.13
514.60	33284.76
514.77	33448.60
514.95	33673.29
515.12	33497.75
515.29	33949.47
515.47	33986.92
515.64	34019.69
515.81	33759.89
515.99	33673.29
516.16	33834.78
516.33	33467.32
516.51	33684.99
516.68	33439.23
516.85	33556.26
517.03	33703.71
517.20	33570.30
517.37	34387.15
517.54	34576.73
517.72	34110.97
517.89	34003.30
518.06	34031.39
518.24	34085.22
518.41	34501.84
518.58	34920.79
518.75	34651.63
518.93	34899.73
519.10	34747.59
519.27	35023.78
519.45	35124.42
519.62	35075.27
519.79	35552.74
519.96	35255.49
520.14	35370.18
520.31	35248.47
520.48	35370.18
520.65	35611.25
520.83	35964.67
521.00	35601.89
521.17	35770.41
521.34	36348.52
521.52	36306.39
521.69	36304.05
521.86	36404.69
522.03	36224.47
522.20	36409.37
522.38	36807.26
522.55	36797.90
522.72	36435.12
522.89	36320.43
523.07	37425.17
523.24	36715.98
523.41	36992.17
523.58	36971.10
523.75	37565.60
523.92	37153.66
524.10	37015.57
524.27	37656.88
524.44	37710.71
524.61	37329.20
524.78	37406.44
524.96	37235.58
525.13	37373.67
525.30	37621.77
525.47	38061.79
525.64	37572.62
525.81	37717.73
525.98	37436.87
526.16	37741.14
526.33	37273.03
526.50	37371.33
526.67	37404.10
526.84	37516.45
527.01	37354.95
527.18	37820.72
527.36	38370.74
527.53	38429.26
527.70	38443.30
527.87	38197.54
528.04	38890.34
528.21	38410.53
528.38	38651.61
528.55	38843.53
528.72	39115.03
528.89	38986.30
529.07	38897.36
529.24	38298.19
529.41	38574.37
529.58	39239.08
529.75	39201.63
529.92	39423.98
530.09	39433.35
530.26	39232.06
530.43	39299.94
530.60	39164.18
530.77	38995.67
530.94	39461.43
531.11	39173.55
531.28	39456.75
531.46	39688.46
531.63	39847.62
531.80	39423.98
531.97	39613.57
532.14	39852.30
532.31	39159.50
532.48	39454.41
532.65	40030.18
532.82	39550.37
532.99	39814.85
533.16	39629.95
533.33	40205.72
533.50	40170.61
533.67	40357.86
533.84	40222.11
534.01	40388.28
534.18	40079.33
534.35	40861.07
534.52	39976.35
534.69	40390.62
534.86	40495.95
535.03	40664.47
535.20	40891.50
535.37	41029.59
535.54	41088.10
535.71	40879.80
535.88	40919.59
536.05	40552.12
536.22	40856.39
536.38	40926.61
536.55	40830.65
536.72	40900.86
536.89	40786.18
537.06	40865.75
537.23	40971.08
537.40	41191.09
537.57	41666.22
537.74	41680.26
537.91	41277.69
538.08	41628.77
538.25	41167.68
538.42	41397.06
538.59	41221.52
538.75	40947.67
538.92	41486.00
539.09	41488.34
539.26	41677.92
539.43	41684.94
539.60	41319.82
539.77	41553.87
539.94	41132.57
540.11	41823.03
540.28	41614.72
540.44	41478.97
540.61	41352.58
540.78	41359.61
540.95	41385.35
541.12	41223.86
541.29	41886.23
541.46	41633.45
541.62	42178.79
541.79	42082.83
541.96	41390.03
542.13	41696.64
542.30	41729.41
542.47	42625.84
542.63	41996.23
542.80	42433.91
542.97	42740.52
543.14	42623.50
543.31	42803.72
543.48	42682.01
543.64	42981.60
543.81	42761.59
543.98	42969.90
544.15	42796.70
544.32	42792.01
544.48	43189.91
544.65	42731.16
544.82	42962.87
544.99	42520.51
545.16	43000.32
545.32	42941.81
545.49	42937.13
545.66	43665.03
545.83	43171.18
546.00	43136.07
546.16	43140.75
546.33	43192.25
546.50	43281.19
546.67	43278.85
546.83	42869.25
547.00	43440.34
547.17	43571.41
547.34	42953.51
547.50	43239.06
547.67	43992.71
547.84	43587.80
548.00	43929.51
548.17	43746.95
548.34	43522.26
548.51	43950.58
548.67	43793.76
548.84	44093.35
549.01	43374.81
549.18	43852.28
549.34	44027.82
549.51	44091.01
549.68	43971.64
549.84	44165.91
550.01	44315.70
550.18	43873.34
550.34	43948.24
550.51	44215.06
550.68	44098.03
550.84	43950.58
551.01	44261.87
551.18	44229.10
551.34	43971.64
551.51	44439.75
551.68	44439.75
551.84	44318.04
552.01	44025.48
552.18	44383.58
552.34	44355.49
552.51	44257.19
552.68	44350.81
552.84	44177.61
553.01	44985.10
553.18	44966.37
553.34	44360.17
553.51	44872.75
553.67	44465.50
553.84	44830.62
554.01	45020.20
554.17	44875.09
554.34	45118.51
554.51	44996.80
554.67	44811.90
554.84	44898.50
555.00	44470.18
555.17	44509.97
555.33	44453.79
555.50	44465.50
555.67	44933.60
555.83	44933.60
556.00	45308.09
556.16	45317.45
556.33	45078.72
556.50	44903.18
556.66	45118.51
556.83	44634.02
556.99	45151.27
557.16	45078.72
557.32	45539.80
557.49	45301.07
557.65	45001.48
557.82	45277.66
557.98	45626.40
558.15	45226.17
558.32	45450.86
558.48	45013.18
558.65	45125.53
558.81	44737.00
558.98	45233.19
559.14	45464.91
559.31	45425.12
559.47	45242.56
559.64	45368.94
559.80	45738.75
559.97	45148.93
560.13	45254.26
560.30	45537.46
560.46	45518.74
560.63	45390.01
560.79	45762.15
560.96	45647.47
561.12	45577.25
561.29	45516.40
561.45	45846.41
561.61	45668.53
561.78	45492.99
561.94	45408.73
562.11	45373.63
562.27	45553.85
562.44	45439.16
562.60	45965.78
562.77	45778.54
562.93	45549.17
563.10	46094.51
563.26	45521.08
563.42	45965.78
563.59	45769.18
563.75	45631.08
563.92	45883.86
564.08	45766.84
564.24	45654.49
564.41	45429.80
564.57	45872.16
564.74	45799.60
564.90	45771.52
565.07	45701.30
565.23	45820.67
565.39	45900.25
565.56	45837.05
565.72	45516.40
565.88	45743.43
566.05	45965.78
566.21	45949.40
566.38	45698.96
566.54	45532.78
566.70	45940.04
566.87	46560.28
567.03	45834.71
567.19	46082.81
567.36	46024.29
567.52	45820.67
567.68	45687.26
567.85	46061.74
568.01	45806.62
568.17	45963.44
568.34	46241.96
568.50	45991.53
568.66	45771.52
568.83	45958.76
568.99	45446.18
569.15	45801.94
569.32	45614.70
569.48	45900.25
569.64	46305.16
569.81	45773.86
569.97	45839.39
570.13	46021.95
570.30	45886.20
570.46	45734.07
570.62	46068.76
570.78	45542.14
570.95	46115.58
571.11	45935.35
571.27	46073.45
571.43	45925.99
571.60	45888.54
571.76	46143.66
571.92	45982.16
572.09	45827.69
572.25	46288.77
572.41	46106.21
572.57	46560.28
572.74	46710.07
572.90	46337.93
573.06	46120.26
573.22	46096.85
573.38	46178.77
573.55	46031.32
573.71	46288.77
573.87	46410.48
574.03	46043.02
574.20	46096.85
574.36	46291.12
574.52	45769.18
574.68	45888.54
574.84	46014.93
575.01	46129.62
575.17	45801.94
575.33	46230.26
575.49	46155.36
575.65	46263.03
575.82	46244.30
575.98	46153.02
576.14	46092.17
576.30	46103.87
576.46	45916.63
576.62	46272.39
576.79	45982.16
576.95	46103.87
577.11	45694.28
577.27	46096.85
577.43	46270.05
577.59	46265.37
577.75	46087.49
577.92	45624.06
578.08	46461.97
578.24	45727.05
578.40	46082.81
578.56	46209.20
578.72	46529.85
578.88	46096.85
579.04	46478.36
579.21	46562.62
579.37	46176.43
579.53	46202.18
579.69	46174.09
579.85	46176.43
580.01	46635.17
580.17	45951.74
580.33	46291.12
580.49	46419.84
580.65	46340.27
580.82	46073.45
580.98	45979.82
581.14	46298.14
581.30	46660.92
581.46	46426.87
581.62	46337.93
581.78	46143.66
581.94	46248.99
582.10	46103.87
582.26	46740.50
582.42	46047.70
582.58	46138.98
582.74	46169.41
582.90	46089.83
583.06	46361.33
583.22	46344.95
583.38	46733.48
583.54	46614.11
583.70	46855.18
583.86	46209.20
584.02	46286.43
584.18	46375.37
584.34	46396.44
584.50	46333.24
584.66	46644.54
584.82	46286.43
584.98	46597.73
585.14	46148.34
585.30	46852.84
585.46	46050.04
585.62	46115.58
585.78	46122.60
585.94	45879.18
586.10	46445.59
586.26	45954.08
586.42	46536.87
586.58	46815.40
586.74	46412.82
586.90	46061.74
587.06	46515.81
587.22	46827.10
587.38	45900.25
587.54	46461.97
587.70	46745.18
587.86	46759.22
588.02	46358.99
588.18	46450.27
588.34	45996.21
588.49	45202.77
588.65	45593.64
588.81	45731.73
588.97	46288.77
589.13	45708.32
589.29	45935.35
589.45	45689.60
589.61	46382.40
589.77	46562.62
589.93	46342.61
