SpectraSuite Data File
++++++++++++++++++++++++++++++++++++
Date: Fri Oct 25 10:43:56 EDT 2013
User: price-jones
Dark Spectrum Present: No
Reference Spectrum Present: No
Number of Sampled Component Spectra: 1
Spectrometers: USB2+H05261
Integration Time (usec): 100000 (USB2+H05261)
Spectra Averaged: 1 (USB2+H05261)
Boxcar Smoothing: 0 (USB2+H05261)
Correct for Electrical Dark: No (USB2+H05261)
Strobe/Lamp Enabled: No (USB2+H05261)
Correct for Detector Non-linearity: No (USB2+H05261)
Correct for Stray Light: No (USB2+H05261)
Number of Pixels in Processed Spectrum: 2048
>>>>>Begin Processed Spectral Data<<<<<
365.73	205.97
365.92	205.97
366.12	205.97
366.32	84.26
366.52	84.26
366.72	119.37
366.91	30.43
367.11	65.54
367.31	56.17
367.51	0.00
367.70	21.06
367.90	30.43
368.10	30.43
368.30	65.54
368.49	42.13
368.69	0.00
368.89	51.49
369.09	0.00
369.28	53.83
369.48	72.56
369.68	88.94
369.87	152.13
370.07	107.66
370.27	149.79
370.47	241.08
370.66	433.00
370.86	447.04
371.06	468.11
371.25	554.71
371.45	498.53
371.65	454.06
371.84	472.79
372.04	503.22
372.24	489.17
372.44	561.73
372.63	486.83
372.83	550.03
373.03	472.79
373.22	521.94
373.42	484.49
373.62	447.04
373.81	568.75
374.01	559.39
374.21	587.47
374.40	559.39
374.60	573.43
374.79	528.96
374.99	606.20
375.19	575.77
375.38	585.13
375.58	629.60
375.78	554.71
375.97	592.16
376.17	716.20
376.37	702.16
376.56	662.37
376.76	610.88
376.95	620.24
377.15	645.99
377.35	662.37
377.54	678.76
377.74	702.16
377.93	664.71
378.13	704.50
378.33	720.88
378.52	667.05
378.72	660.03
378.91	723.23
379.11	617.90
379.31	695.14
379.50	585.13
379.70	723.23
379.89	772.38
380.09	706.84
380.28	660.03
380.48	704.50
380.68	627.26
380.87	739.61
381.07	704.50
381.26	755.99
381.46	730.25
381.65	631.94
381.85	674.07
382.04	725.57
382.24	685.78
382.43	706.84
382.63	690.46
382.83	734.93
383.02	737.27
383.22	720.88
383.41	699.82
383.61	737.27
383.80	816.85
384.00	823.87
384.19	786.42
384.39	835.57
384.58	880.04
384.78	819.19
384.97	894.08
385.17	856.64
385.36	858.98
385.56	802.80
385.75	830.89
385.95	910.47
386.14	751.31
386.34	807.48
386.53	873.02
386.72	901.11
386.92	929.19
387.11	905.79
387.31	884.72
387.50	842.59
387.70	931.53
387.89	929.19
388.09	973.66
388.28	861.32
388.48	929.19
388.67	940.90
388.86	983.02
389.06	966.64
389.25	1029.84
389.45	1001.75
389.64	1048.56
389.84	933.87
390.03	1064.94
390.22	1095.37
390.42	1004.09
390.61	1025.15
390.81	1074.31
391.00	1137.50
391.19	1123.46
391.39	1071.97
391.58	1116.44
391.78	1100.05
391.97	1071.97
392.16	1025.15
392.36	1067.28
392.55	1060.26
392.75	1043.88
392.94	994.73
393.13	1097.71
393.33	1001.75
393.52	1057.92
393.71	1163.25
393.91	1163.25
394.10	1100.05
394.29	1205.38
394.49	1179.63
394.68	1193.67
394.88	1327.08
395.07	1296.66
395.26	1252.19
395.46	1240.48
395.65	1275.59
395.84	1284.95
396.04	1310.70
396.23	1217.08
396.42	1179.63
396.62	1245.16
396.81	1331.76
397.00	1186.65
397.19	1277.93
397.39	1416.02
397.58	1416.02
397.77	1495.60
397.97	1458.15
398.16	1483.90
398.35	1577.52
398.55	1469.86
398.74	1544.75
398.93	1633.69
399.12	1516.67
399.32	1554.12
399.51	1643.06
399.70	1682.85
399.90	1631.35
400.09	1537.73
400.28	1788.17
400.47	1666.46
400.67	1797.53
400.86	1708.59
401.05	1549.43
401.24	1736.68
401.44	1825.62
401.63	1844.34
401.82	1888.81
402.01	1720.29
402.21	1884.13
402.40	1788.17
402.59	1846.68
402.78	1839.66
402.97	1792.85
403.17	1874.77
403.36	1956.69
403.55	1851.36
403.74	2005.84
403.93	1846.68
404.13	1966.05
404.32	1937.96
404.51	1970.73
404.70	2015.20
404.89	1940.30
405.09	2022.22
405.28	2012.86
405.47	2010.52
405.66	2066.69
405.85	2069.03
406.05	1973.07
406.24	2136.91
406.43	2015.20
406.62	2165.00
406.81	2228.19
407.00	2218.83
407.20	2169.68
407.39	2153.29
407.58	2296.07
407.77	2272.66
407.96	2420.11
408.15	2289.04
408.34	2263.30
408.54	2420.11
408.73	2312.45
408.92	2256.28
409.11	2352.24
409.30	2455.22
409.49	2410.75
409.68	2394.37
409.87	2413.09
410.07	2359.26
410.26	2459.90
410.45	2546.50
410.64	2661.19
410.83	2452.88
411.02	2698.64
411.21	2794.60
411.40	2747.79
411.59	2710.34
411.78	2729.06
411.98	2684.59
412.17	2890.56
412.36	2684.59
412.55	2829.71
412.74	2780.56
412.93	2892.90
413.12	2818.00
413.31	3073.12
413.50	2869.50
413.69	2935.03
413.88	3002.91
414.07	3026.31
414.26	2967.80
414.45	3098.87
414.64	3054.40
414.83	3042.70
415.02	3117.59
415.22	3246.32
415.41	3321.22
415.60	3391.44
415.79	3342.28
415.98	3440.59
416.17	3358.67
416.36	3361.01
416.55	3321.22
416.74	3421.86
416.93	3309.52
417.12	3550.59
417.31	3510.80
417.50	3494.42
417.69	3552.93
417.88	3595.06
418.07	3482.72
418.26	3630.17
418.45	3611.45
418.64	3779.97
418.83	3574.00
419.02	3765.92
419.21	3761.24
419.39	3698.05
419.58	3707.41
419.77	3655.92
419.96	3751.88
420.15	3716.77
420.34	3730.81
420.53	3992.95
420.72	3971.89
420.91	3915.72
421.10	3941.46
421.29	4091.26
421.48	3843.16
421.67	3971.89
421.86	4016.36
422.05	3997.64
422.24	3885.29
422.43	3920.40
422.61	3999.98
422.80	4051.47
422.99	4009.34
423.18	4021.04
423.37	4126.36
423.56	4133.39
423.75	4250.41
423.94	4138.07
424.13	3857.20
424.32	3911.04
424.50	4140.41
424.69	4280.84
424.88	4105.30
425.07	4219.99
425.26	3999.98
425.45	4049.13
425.64	4053.81
425.83	4140.41
426.01	4306.59
426.20	4021.04
426.39	4117.00
426.58	4147.43
426.77	4002.32
426.96	4210.62
427.15	4166.15
427.33	4234.03
427.52	4194.24
427.71	4379.14
427.90	4416.59
428.09	4311.27
428.28	4311.27
428.46	4184.88
428.65	4320.63
428.84	4470.42
429.03	4472.76
429.22	4259.78
429.40	4334.67
429.59	4154.45
429.78	4100.62
429.97	4011.68
430.16	4222.33
430.34	4241.05
430.53	4304.25
430.72	4236.37
430.91	4365.10
431.10	4374.46
431.28	4814.48
431.47	4772.35
431.66	4835.55
431.85	4622.56
432.03	4650.64
432.22	4891.72
432.41	4837.89
432.60	5006.41
432.79	4830.87
432.97	5004.07
433.16	4842.57
433.35	4828.53
433.54	4744.27
433.72	4751.29
433.91	4975.98
434.10	4765.33
434.28	5102.37
434.47	5029.81
434.66	5146.84
434.85	5071.94
435.03	5231.10
435.22	5334.08
435.41	5247.48
435.59	5231.10
435.78	5268.55
435.97	5392.59
436.16	5284.93
436.34	5453.45
436.53	5373.87
436.72	5448.77
436.90	5217.05
437.09	5317.70
437.28	5303.65
437.46	5458.13
437.65	5568.13
437.84	5313.02
438.02	5355.15
438.21	5479.19
438.40	5174.92
438.58	5561.11
438.77	5645.37
438.96	5544.73
439.14	5668.78
439.33	6005.81
439.52	5809.21
439.70	5820.91
439.89	5877.09
440.08	5977.73
440.26	5909.85
440.45	5926.24
440.63	6153.27
440.82	6359.24
441.01	6059.65
441.19	6307.74
441.38	6473.92
441.57	6291.36
441.75	6574.56
441.94	6438.81
442.12	6581.59
442.31	6644.78
442.50	6717.34
442.68	6628.40
442.87	6675.21
443.05	6490.31
443.24	6675.21
443.43	6689.25
443.61	6817.98
443.80	6899.90
443.98	6551.16
444.17	6663.51
444.35	6787.55
444.54	6913.94
444.73	6677.55
444.91	6712.66
445.10	6757.13
445.28	6417.75
445.47	6567.54
445.65	6759.47
445.84	6654.14
446.02	6843.73
446.21	6696.27
446.39	6637.76
446.58	6874.15
446.77	6988.84
446.95	6916.28
447.14	6902.24
447.32	7126.93
447.51	6916.28
447.69	7096.50
447.88	7087.14
448.06	6977.14
448.25	6932.67
448.43	6897.56
448.62	7082.46
448.80	6899.90
448.99	7037.99
449.17	7190.13
449.36	7129.27
449.54	7435.88
449.73	7375.03
449.91	7421.84
450.10	7325.88
450.28	7548.23
450.46	7550.57
450.65	7489.71
450.83	7646.53
451.02	7524.82
451.20	7550.57
451.39	7328.22
451.57	7419.50
451.76	7522.48
451.94	7529.50
452.13	7716.75
452.31	7314.17
452.49	7370.35
452.68	7501.42
452.86	7463.97
453.05	7564.61
453.23	7742.49
453.42	7531.84
453.60	7644.19
453.78	7875.90
453.97	7674.62
454.15	7700.36
454.34	7681.64
454.52	7868.88
454.70	7906.33
454.89	7850.16
455.07	8002.29
455.26	8051.44
455.44	8011.65
455.62	8086.55
455.81	8006.97
455.99	8058.46
456.17	8098.25
456.36	8161.45
456.54	8255.07
456.73	8131.02
456.91	8444.65
457.09	8369.76
457.28	8615.51
457.46	8430.61
457.64	8482.10
457.83	8266.77
458.01	8250.39
458.19	8631.90
458.38	8402.52
458.56	8428.27
458.74	8500.83
458.93	8540.61
459.11	8662.32
459.29	8334.65
459.48	8585.08
459.66	8580.40
459.84	8704.45
460.03	9048.51
460.21	8870.63
460.39	8987.66
460.57	8798.07
460.76	8924.46
460.94	9078.94
461.12	8952.55
461.31	9060.21
461.49	8978.30
461.67	9090.64
461.85	9085.96
462.04	9275.54
462.22	9336.40
462.40	9146.81
462.59	9219.37
462.77	9380.87
462.95	9359.80
463.13	9224.05
463.32	9423.00
463.50	9240.44
463.68	9446.40
463.86	9413.63
464.05	9107.02
464.23	9242.78
464.41	9329.38
464.59	9303.63
464.78	9586.83
464.96	9474.49
465.14	9240.44
465.32	9474.49
465.50	9479.17
465.69	9729.61
465.87	9493.21
466.05	9462.79
466.23	9497.89
466.41	9490.87
466.60	9596.20
466.78	9528.32
466.96	9767.06
467.14	9624.28
467.32	9834.93
467.51	9745.99
467.69	9544.70
467.87	9687.48
468.05	9757.69
468.23	9715.56
468.41	9816.21
468.60	9919.19
468.78	10092.39
468.96	9898.13
469.14	10083.03
469.32	10040.90
469.50	9951.96
469.69	10106.43
469.87	10125.16
470.05	10242.18
470.23	10153.24
470.41	10218.78
470.59	10326.44
470.77	10181.33
470.95	10188.35
471.14	10473.90
471.32	10272.61
471.50	10614.33
471.68	10445.81
471.86	10839.02
472.04	10546.45
472.22	11087.12
472.40	10736.04
472.58	10672.84
472.77	11082.44
472.95	10761.78
473.13	11201.80
473.31	10888.17
473.49	10934.98
473.67	10911.58
473.85	11162.01
474.03	11293.08
474.21	11454.58
474.39	11531.82
474.57	11630.12
474.75	11503.73
474.93	11510.75
475.12	11627.78
475.30	11686.29
475.48	11761.19
475.66	11726.08
475.84	11817.36
476.02	11950.78
476.20	11473.31
476.38	12086.53
476.56	12393.14
476.74	12271.43
476.92	12194.19
477.10	12306.54
477.28	12367.39
477.46	12491.44
477.64	12702.09
477.82	12922.10
478.00	12919.76
478.18	13362.12
478.36	13015.72
478.54	13319.99
478.72	13394.89
478.90	13296.58
479.08	13692.13
479.26	13682.77
479.44	13741.29
479.62	13757.67
479.80	13659.37
479.98	14108.75
480.16	14190.67
480.34	14026.83
480.52	14267.91
480.70	14333.44
480.88	14101.73
481.06	14560.47
481.24	14492.60
481.41	14899.85
481.59	14946.66
481.77	14871.76
481.95	14927.94
482.13	15112.84
482.31	15115.18
482.49	15089.43
482.67	15499.03
482.85	15658.18
483.03	15688.61
483.21	16042.03
483.39	15609.03
483.57	15964.79
483.74	16159.06
483.92	15882.88
484.10	16133.31
484.28	16638.87
484.46	16655.25
484.64	16936.12
484.82	16704.40
485.00	16678.66
485.18	16830.79
485.35	16919.73
485.53	16570.99
485.71	16755.90
485.89	16905.69
486.07	16971.22
486.25	17352.73
486.43	17556.36
486.61	17549.34
486.78	17891.06
486.96	18050.21
487.14	18295.97
487.32	18230.43
487.50	18555.77
487.68	18815.57
487.85	19262.61
488.03	18857.70
488.21	19115.16
488.39	19154.94
488.57	19164.31
488.75	19318.78
488.92	19587.94
489.10	19976.47
489.28	19873.49
489.46	20180.10
489.64	20259.68
489.81	20856.51
489.99	20713.74
490.17	20968.86
490.35	21076.52
490.53	21153.76
490.70	21240.36
490.88	21060.14
491.06	21596.12
491.24	21415.90
491.41	21413.56
491.59	21284.83
491.77	21366.75
491.95	21734.21
492.13	22066.57
492.30	22281.90
492.48	22410.63
492.66	22588.51
492.84	22792.14
493.01	22841.29
493.19	22824.90
493.37	23084.70
493.54	22902.14
493.72	23285.99
493.90	23473.23
494.08	23688.56
494.25	23997.51
494.43	23749.42
494.61	24280.72
494.79	24491.37
494.96	24444.56
495.14	24196.46
495.32	24613.07
495.49	23992.83
495.67	24493.71
495.85	24903.30
496.02	24898.62
496.20	25050.75
496.38	25214.59
496.55	25401.83
496.73	26054.84
496.91	25329.28
497.09	26214.00
497.26	25977.61
497.44	25954.20
497.62	26036.12
497.79	26218.68
497.97	26017.40
498.14	25895.69
498.32	26691.47
498.50	26469.12
498.67	26747.64
498.85	26544.02
499.03	26827.22
499.20	27328.10
499.38	27229.79
499.56	27138.51
499.73	27543.42
499.91	27515.34
500.08	27473.21
500.26	27005.10
500.44	27435.76
500.61	27915.57
500.79	27391.29
500.97	27997.49
501.14	27871.10
501.32	28013.87
501.49	27927.27
501.67	27931.95
501.84	28556.88
502.02	28423.47
502.20	28238.56
502.37	28624.75
502.55	28601.35
502.72	28875.19
502.90	29137.33
503.07	28709.01
503.25	28847.10
503.43	28994.56
503.60	29179.46
503.78	29219.25
503.95	28893.91
504.13	29055.41
504.30	29593.73
504.48	29425.22
504.65	30232.70
504.83	29860.55
505.01	29905.02
505.18	30256.11
505.36	30600.16
505.53	30347.39
505.71	30768.68
505.88	30726.55
506.06	30270.15
506.23	30712.51
506.41	30459.73
506.58	30286.53
506.76	30923.16
506.93	30745.28
507.11	30831.88
507.28	30937.20
507.46	30829.54
507.63	30995.71
507.81	31335.09
507.98	31051.89
508.16	31295.30
508.33	31861.71
508.50	31971.72
508.68	31995.12
508.85	31721.28
509.03	32091.09
509.20	31945.97
509.38	32060.66
509.55	32149.60
509.73	32350.88
509.90	32481.95
510.08	32360.25
510.25	31936.61
510.42	32336.84
510.60	32884.53
510.77	32631.75
510.95	32938.36
511.12	33076.45
511.30	33308.16
511.47	33532.86
511.64	33567.96
511.82	33647.54
511.99	32952.40
512.17	33242.63
512.34	33521.15
512.51	33383.06
512.69	33516.47
512.86	33715.42
513.04	33724.78
513.21	33881.60
513.38	33319.87
513.56	33656.90
513.73	33766.91
513.90	34211.61
514.08	34052.45
514.25	34139.05
514.43	34342.68
514.60	34061.82
514.77	34092.24
514.95	34448.00
515.12	34139.05
515.29	34373.11
515.47	35152.51
515.64	35117.40
515.81	34721.85
515.99	34920.79
516.16	34883.34
516.33	34600.14
516.51	34429.28
516.68	33879.25
516.85	34199.91
517.03	34749.93
517.20	34878.66
517.37	35159.53
517.54	35505.93
517.72	35763.39
517.89	35042.50
518.06	34916.11
518.24	34550.99
518.41	34855.26
518.58	35941.27
518.75	35597.21
518.93	35903.82
519.10	35276.55
519.27	36250.22
519.45	36004.46
519.62	36257.24
519.79	36486.61
519.96	36009.14
520.14	36723.01
520.31	35952.97
520.48	36196.38
520.65	36442.14
520.83	37092.81
521.00	36971.10
521.17	36662.15
521.34	36926.63
521.52	37031.96
521.69	36980.46
521.86	37106.85
522.03	37563.26
522.20	37778.59
522.38	37113.87
522.55	37546.87
522.72	37352.61
522.89	37294.10
523.07	37642.84
523.24	37500.06
523.41	37715.39
523.58	37801.99
523.75	38394.15
523.92	38064.13
524.10	37998.60
524.27	38176.48
524.44	38492.45
524.61	38288.82
524.78	38527.56
524.96	38686.71
525.13	38401.17
525.30	39096.31
525.47	39030.77
525.64	38677.35
525.81	38349.68
525.98	38403.51
526.16	38522.88
526.33	37935.40
526.50	38134.35
526.67	38162.43
526.84	38366.06
527.01	38401.17
527.18	38667.99
527.36	39232.06
527.53	39285.89
527.70	39440.37
527.87	39330.36
528.04	39112.69
528.21	39606.55
528.38	39358.45
528.55	39536.33
528.72	39805.49
528.89	39962.31
529.07	39512.92
529.24	40109.76
529.41	40397.65
529.58	39543.35
529.75	39351.43
529.92	39831.24
530.09	40266.58
530.26	40467.86
530.43	40507.65
530.60	39983.37
530.77	40194.02
530.94	40231.47
531.11	40573.19
531.28	40463.18
531.46	40596.59
531.63	40587.23
531.80	40449.14
531.97	39964.65
532.14	40533.40
532.31	40006.78
532.48	39922.52
532.65	40591.91
532.82	40353.18
532.99	40973.42
533.16	40612.98
533.33	40847.03
533.50	41076.40
533.67	40982.78
533.84	40989.80
534.01	41549.19
534.18	40783.83
534.35	41289.39
534.52	40807.24
534.69	40999.16
534.86	41598.34
535.03	41507.06
535.20	41991.55
535.37	41317.48
535.54	41806.65
535.71	41724.73
535.88	41701.32
536.05	41287.05
536.22	42120.28
536.38	41331.52
536.55	41691.96
536.72	41947.08
536.89	41455.57
537.06	41823.03
537.23	42202.20
537.40	42253.69
537.57	41940.06
537.74	41853.46
537.91	42810.74
538.08	41923.68
538.25	41944.74
538.42	42438.59
538.59	42061.77
538.75	41984.53
538.92	42326.25
539.09	42412.85
539.26	42426.89
539.43	42230.29
539.60	42183.48
539.77	42410.51
539.94	42012.62
540.11	42181.13
540.28	42178.79
540.44	42469.02
540.61	42555.62
540.78	42464.34
540.95	42309.86
541.12	42670.31
541.29	42672.65
541.46	42824.78
541.62	42635.20
541.79	42939.47
541.96	42464.34
542.13	43056.50
542.30	43002.66
542.47	43377.15
542.63	43175.86
542.80	43208.63
542.97	43269.48
543.14	43461.41
543.31	43583.12
543.48	43452.05
543.64	44229.10
543.81	43775.04
543.98	43690.78
544.15	43983.35
544.32	44039.52
544.48	44060.58
544.65	44392.94
544.82	43775.04
544.99	43641.63
545.16	43887.39
545.32	44051.22
545.49	44325.07
545.66	44053.56
545.83	44126.12
546.00	44135.48
546.16	44194.00
546.33	43709.50
546.50	44233.78
546.67	44065.27
546.83	43723.55
547.00	44570.82
547.17	44308.68
547.34	43786.74
547.50	44081.65
547.67	44596.57
547.84	44285.28
548.00	44676.15
548.17	44847.00
548.34	44835.30
548.51	44591.89
548.67	44781.47
548.84	44542.74
549.01	44456.14
549.18	44931.26
549.34	44659.76
549.51	44863.39
549.68	44610.61
549.84	44783.81
550.01	44942.97
550.18	44814.24
550.34	44811.90
550.51	44746.36
550.68	44715.93
550.84	44275.91
551.01	45048.29
551.18	45275.32
551.34	45048.29
551.51	45191.06
551.68	45563.21
551.84	45408.73
552.01	45289.37
552.18	44973.39
552.34	44832.96
552.51	45525.76
552.68	45247.24
552.84	45790.24
553.01	45148.93
553.18	45469.59
553.34	45258.94
553.51	45336.18
553.67	45530.44
553.84	45764.49
554.01	45546.82
554.17	45940.04
554.34	45986.85
554.51	45621.72
554.67	45806.62
554.84	45839.39
555.00	45453.20
555.17	45478.95
555.33	45504.70
555.50	45467.25
555.67	45778.54
555.83	45752.79
556.00	45872.16
556.16	46274.73
556.33	45624.06
556.50	46087.49
556.66	45998.55
556.83	45705.98
556.99	45736.41
557.16	46323.88
557.32	45823.01
557.49	46188.13
557.65	46089.83
557.82	45940.04
557.98	46045.36
558.15	45956.42
558.32	46007.91
558.48	45844.07
558.65	46108.55
558.81	45567.89
558.98	46014.93
559.14	45808.96
559.31	45783.22
559.47	46361.33
559.64	46146.00
559.80	46036.00
559.97	46337.93
560.13	45888.54
560.30	46286.43
560.46	46469.00
560.63	46394.10
560.79	46089.83
560.96	46078.13
561.12	46033.66
561.29	46124.94
561.45	46302.82
561.61	46237.28
561.78	46422.19
561.94	46052.38
562.11	45764.49
562.27	46246.65
562.44	46398.78
562.60	46988.60
562.77	46508.79
562.93	46232.60
563.10	46609.43
563.26	45848.75
563.42	46494.74
563.59	46541.55
563.75	46108.55
563.92	46363.67
564.08	46843.48
564.24	46892.63
564.41	46384.74
564.57	46567.30
564.74	46700.71
564.90	46564.96
565.07	46768.58
565.23	46457.29
565.39	46293.46
565.56	46323.88
565.72	46344.95
565.88	45874.50
566.05	46330.90
566.21	46267.71
566.38	46185.79
566.54	46628.15
566.70	47084.56
566.87	46911.36
567.03	46752.20
567.19	47124.35
567.36	46548.57
567.52	47131.37
567.68	46679.64
567.85	46564.96
568.01	47208.61
568.17	46487.72
568.34	47253.08
568.50	46607.09
568.66	46902.00
568.83	46454.95
568.99	46445.59
569.15	46543.89
569.32	46672.62
569.48	46714.75
569.64	47063.49
569.81	46979.23
569.97	46653.90
570.13	46679.64
570.30	46384.74
570.46	46391.76
570.62	46576.66
570.78	46176.43
570.95	46234.94
571.11	46637.51
571.27	46808.37
571.43	46401.12
571.60	46806.03
571.76	46794.33
571.92	46719.43
572.09	46801.35
572.25	46749.86
572.41	46904.34
572.57	47131.37
572.74	47253.08
572.90	46916.04
573.06	47107.96
573.22	46775.61
573.38	46712.41
573.55	46534.53
573.71	47096.26
573.87	47292.86
574.03	46611.77
574.20	46941.78
574.36	46700.71
574.52	46845.82
574.68	46677.30
574.84	46852.84
575.01	46586.02
575.17	47009.66
575.33	46394.10
575.49	46885.61
575.65	47023.70
575.82	47161.79
575.98	46649.22
576.14	47269.46
576.30	46878.59
576.46	47009.66
576.62	46726.46
576.79	46506.44
576.95	46670.28
577.11	46593.04
577.27	46850.50
577.43	47061.15
577.59	46937.10
577.75	46749.86
577.92	46171.75
578.08	46799.01
578.24	46363.67
578.40	46766.24
578.56	46815.40
578.72	47138.39
578.88	46913.70
579.04	47199.24
579.21	46721.77
579.37	46698.37
579.53	47241.37
579.69	46646.88
579.85	46930.08
580.01	46873.91
580.17	46749.86
580.33	46810.71
580.49	46831.78
580.65	47084.56
580.82	46902.00
580.98	46885.61
581.14	46424.53
581.30	46820.08
581.46	47215.63
581.62	47068.17
581.78	47374.78
581.94	47304.57
582.10	46911.36
582.26	47222.65
582.42	47030.72
582.58	46883.27
582.74	47089.24
582.90	46857.52
583.06	47405.21
583.22	47330.31
583.38	47248.39
583.54	46967.53
583.70	47356.06
583.86	47065.83
584.02	46752.20
584.18	46878.59
584.34	46925.40
584.50	47084.56
584.66	46958.17
584.82	46972.21
584.98	46777.95
585.14	47061.15
585.30	46960.51
585.46	46796.67
585.62	46834.12
585.78	46890.29
585.94	46651.56
586.10	46829.44
586.26	46871.57
586.42	47012.00
586.58	47250.74
586.74	47166.48
586.90	47346.70
587.06	47098.60
587.22	47318.61
587.38	46897.31
587.54	46791.99
587.70	46997.96
587.86	47206.26
588.02	47058.81
588.18	47569.05
588.34	46419.84
588.49	46738.16
588.65	46110.89
588.81	46361.33
588.97	46609.43
589.13	46635.17
589.29	46869.23
589.45	47000.30
589.61	46646.88
589.77	47021.36
