SpectraSuite Data File
++++++++++++++++++++++++++++++++++++
Date: Fri Oct 25 10:44:50 EDT 2013
User: price-jones
Dark Spectrum Present: No
Reference Spectrum Present: No
Number of Sampled Component Spectra: 1
Spectrometers: USB2+H05261
Integration Time (usec): 100000 (USB2+H05261)
Spectra Averaged: 1 (USB2+H05261)
Boxcar Smoothing: 0 (USB2+H05261)
Correct for Electrical Dark: No (USB2+H05261)
Strobe/Lamp Enabled: No (USB2+H05261)
Correct for Detector Non-linearity: No (USB2+H05261)
Correct for Stray Light: No (USB2+H05261)
Number of Pixels in Processed Spectrum: 2048
>>>>>Begin Processed Spectral Data<<<<<
365.73	156.82
365.92	156.82
366.12	156.82
366.32	51.49
366.52	56.17
366.72	70.22
366.91	14.04
367.11	88.94
367.31	4.68
367.51	49.15
367.70	0.00
367.90	100.64
368.10	51.49
368.30	42.13
368.49	63.19
368.69	30.43
368.89	77.24
369.09	65.54
369.28	18.72
369.48	30.43
369.68	67.88
369.87	98.30
370.07	16.38
370.27	119.37
370.47	201.29
370.66	365.12
370.86	425.98
371.06	416.62
371.25	528.96
371.45	341.72
371.65	477.47
371.84	423.64
372.04	440.02
372.24	514.92
372.44	477.47
372.63	461.09
372.83	498.53
373.03	507.90
373.22	461.09
373.42	512.58
373.62	484.49
373.81	491.51
374.01	582.79
374.21	514.92
374.40	498.53
374.60	491.51
374.79	519.60
374.99	526.62
375.19	566.41
375.38	559.39
375.58	564.07
375.78	505.56
375.97	564.07
376.17	615.56
376.37	622.58
376.56	554.71
376.76	566.41
376.95	603.86
377.15	615.56
377.35	582.79
377.54	615.56
377.74	547.69
377.93	477.47
378.13	596.84
378.33	599.18
378.52	531.30
378.72	624.92
378.91	514.92
379.11	667.05
379.31	667.05
379.50	585.13
379.70	624.92
379.89	629.60
380.09	629.60
380.28	638.97
380.48	660.03
380.68	688.12
380.87	660.03
381.07	669.39
381.26	725.57
381.46	683.44
381.65	645.99
381.85	615.56
382.04	690.46
382.24	610.88
382.43	657.69
382.63	582.79
382.83	753.65
383.02	667.05
383.22	713.86
383.41	709.18
383.61	730.25
383.80	767.70
384.00	730.25
384.19	695.14
384.39	727.91
384.58	688.12
384.78	732.59
384.97	664.71
385.17	676.41
385.36	758.33
385.56	826.21
385.75	725.57
385.95	737.27
386.14	835.57
386.34	723.23
386.53	699.82
386.72	713.86
386.92	854.30
387.11	830.89
387.31	709.18
387.50	791.10
387.70	739.61
387.89	774.72
388.09	770.04
388.28	833.23
388.48	816.85
388.67	830.89
388.86	793.44
389.06	837.91
389.25	882.38
389.45	898.77
389.64	770.04
389.84	877.70
390.03	889.40
390.22	898.77
390.42	1015.79
390.61	1015.79
390.81	926.85
391.00	1011.11
391.19	1008.77
391.39	971.32
391.58	973.66
391.78	957.28
391.97	1006.43
392.16	940.90
392.36	1032.18
392.55	950.26
392.75	973.66
392.94	987.71
393.13	1025.15
393.33	894.08
393.52	940.90
393.71	1081.33
393.91	994.73
394.10	1036.86
394.29	987.71
394.49	1036.86
394.68	1144.52
394.88	1156.22
395.07	1139.84
395.26	1114.10
395.46	1086.01
395.65	1163.25
395.84	999.41
396.04	1165.59
396.23	1130.48
396.42	1060.26
396.62	1107.07
396.81	1128.14
397.00	1146.86
397.19	1160.91
397.39	1186.65
397.58	1242.82
397.77	1263.89
397.97	1273.25
398.16	1228.78
398.35	1277.93
398.55	1256.87
398.74	1249.85
398.93	1439.43
399.12	1306.02
399.32	1364.53
399.51	1287.29
399.70	1411.34
399.90	1413.68
400.09	1296.66
400.28	1439.43
400.47	1317.72
400.67	1362.19
400.86	1411.34
401.05	1434.75
401.24	1472.20
401.44	1516.67
401.63	1563.48
401.82	1488.58
402.01	1521.35
402.21	1549.43
402.40	1551.78
402.59	1516.67
402.78	1526.03
402.97	1577.52
403.17	1523.69
403.36	1568.16
403.55	1547.09
403.74	1563.48
403.93	1703.91
404.13	1549.43
404.32	1685.19
404.51	1547.09
404.70	1734.34
404.89	1710.93
405.09	1724.97
405.28	1734.34
405.47	1720.29
405.66	1767.10
405.85	1769.44
406.05	1703.91
406.24	1776.47
406.43	1825.62
406.62	1900.52
406.81	1797.53
407.00	1837.32
407.20	1851.36
407.39	1905.20
407.58	1961.37
407.77	1975.41
407.96	1989.46
408.15	1989.46
408.34	1865.41
408.54	2022.22
408.73	2012.86
408.92	1970.73
409.11	1989.46
409.30	2143.93
409.49	2015.20
409.68	2026.90
409.87	1989.46
410.07	2057.33
410.26	2176.70
410.45	2078.40
410.64	2097.12
410.83	2218.83
411.02	2211.81
411.21	2258.62
411.40	2291.38
411.59	2246.91
411.78	2293.72
411.98	2324.15
412.17	2359.26
412.36	2361.60
412.55	2396.71
412.74	2368.62
412.93	2396.71
413.12	2389.69
413.31	2569.91
413.50	2450.54
413.69	2637.78
413.88	2682.25
414.07	2576.93
414.26	2595.65
414.45	2595.65
414.64	2623.74
414.83	2633.10
415.02	2640.12
415.22	2822.69
415.41	2768.85
415.60	2717.36
415.79	2834.39
415.98	2913.97
416.17	2839.07
416.36	2857.79
416.55	2925.67
416.74	2991.20
416.93	2853.11
417.12	2981.84
417.31	2874.18
417.50	3012.27
417.69	3148.02
417.88	3176.11
418.07	3091.85
418.26	3012.27
418.45	3169.09
418.64	3180.79
418.83	3218.24
419.02	3108.23
419.21	3330.58
419.39	3332.92
419.58	3248.66
419.77	3026.31
419.96	3211.22
420.15	3321.22
420.34	3239.30
420.53	3389.10
420.72	3353.99
420.91	3400.80
421.10	3339.94
421.29	3405.48
421.48	3412.50
421.67	3351.65
421.86	3372.71
422.05	3339.94
422.24	3330.58
422.43	3386.76
422.61	3482.72
422.80	3562.30
422.99	3583.36
423.18	3534.21
423.37	3632.51
423.56	3566.98
423.75	3588.04
423.94	3407.82
424.13	3262.71
424.32	3522.51
424.50	3562.30
424.69	3489.74
424.88	3538.89
425.07	3382.07
425.26	3545.91
425.45	3494.42
425.64	3571.66
425.83	3548.25
426.01	3623.15
426.20	3559.95
426.39	3707.41
426.58	3506.12
426.77	3676.98
426.96	3520.17
427.15	3585.70
427.33	3641.87
427.52	3779.97
427.71	3651.24
427.90	3702.73
428.09	3840.82
428.28	3648.90
428.46	3698.05
428.65	3815.07
428.84	4056.15
429.03	3988.27
429.22	3754.22
429.40	3758.90
429.59	3723.79
429.78	3604.42
429.97	3639.53
430.16	3791.67
430.34	3749.54
430.53	3791.67
430.72	3995.29
430.91	3939.12
431.10	3953.16
431.28	4133.39
431.47	4067.85
431.66	4184.88
431.85	4131.05
432.03	4081.89
432.22	4290.20
432.41	4166.15
432.60	4140.41
432.79	4266.80
432.97	4355.74
433.16	4212.96
433.35	4273.82
433.54	4297.22
433.72	4287.86
433.91	4351.06
434.10	4325.31
434.28	4402.55
434.47	4388.50
434.66	4507.87
434.85	4468.08
435.03	4596.81
435.22	4498.51
435.41	4554.68
435.59	4477.44
435.78	4449.36
435.97	4793.42
436.16	4458.72
436.34	4585.11
436.53	4655.33
436.72	4798.10
436.90	4587.45
437.09	4669.37
437.28	4727.88
437.46	4634.26
437.65	4744.27
437.84	4805.12
438.02	4746.61
438.21	4746.61
438.40	4528.94
438.58	4978.32
438.77	4919.81
438.96	4997.04
439.14	5001.72
439.33	5085.98
439.52	5146.84
439.70	5125.77
439.89	5123.43
440.08	5188.97
440.26	5184.29
440.45	5177.26
440.63	5327.06
440.82	5252.16
441.01	5282.59
441.19	5434.72
441.38	5500.26
441.57	5502.60
441.75	5465.15
441.94	5624.31
442.12	5673.46
442.31	5657.07
442.50	5792.83
442.68	5633.67
442.87	5652.39
443.05	5516.64
443.24	5837.30
443.43	5783.46
443.61	5813.89
443.80	6113.48
443.98	5935.60
444.17	5624.31
444.35	5977.73
444.54	5902.83
444.73	5783.46
444.91	5774.10
445.10	5961.34
445.28	5926.24
445.47	5797.51
445.65	5839.64
445.84	5799.85
446.02	6090.07
446.21	5830.27
446.39	5942.62
446.58	6054.97
446.77	5907.51
446.95	5942.62
447.14	6134.54
447.32	5996.45
447.51	5968.37
447.69	6078.37
447.88	6001.13
448.06	6120.50
448.25	6064.33
448.43	6073.69
448.62	6111.14
448.80	6179.01
448.99	5998.79
449.17	6059.65
449.36	6139.23
449.54	6392.00
449.73	6345.19
449.91	6485.62
450.10	6448.18
450.28	6509.03
450.46	6370.94
450.65	6375.62
450.83	6504.35
451.02	6429.45
451.20	6448.18
451.39	6633.08
451.57	6672.87
451.76	6380.30
451.94	6490.31
452.13	6668.19
452.31	6499.67
452.49	6324.13
452.68	6649.46
452.86	6544.14
453.05	6731.38
453.23	6520.73
453.42	6548.82
453.60	6715.00
453.78	6736.06
453.97	6523.07
454.15	6628.40
454.34	6644.78
454.52	6782.87
454.70	6649.46
454.89	6754.79
455.07	6939.69
455.26	6810.96
455.44	6913.94
455.62	6984.16
455.81	6796.92
455.99	7059.06
456.17	7040.33
456.36	6958.41
456.54	7075.44
456.73	7194.81
456.91	7382.05
457.09	7215.87
457.28	7424.18
457.46	7321.20
457.64	7349.28
457.83	7382.05
458.01	7173.74
458.19	7463.97
458.38	7414.82
458.56	7524.82
458.74	7501.42
458.93	7410.14
459.11	7470.99
459.29	7527.16
459.48	7620.78
459.66	7536.52
459.84	7672.28
460.03	7585.68
460.21	7695.68
460.39	7585.68
460.57	7756.54
460.76	7548.23
460.94	7831.43
461.12	7742.49
461.31	7733.13
461.49	7735.47
461.67	7803.35
461.85	8037.40
462.04	7941.44
462.22	8166.13
462.40	7857.18
462.59	7934.42
462.77	8119.32
462.95	8095.91
463.13	8088.89
463.32	8093.57
463.50	8105.28
463.68	8102.93
463.86	8095.91
464.05	7976.55
464.23	8142.72
464.41	8262.09
464.59	7992.93
464.78	8278.47
464.96	8283.16
465.14	8140.38
465.32	8280.82
465.50	8390.82
465.69	8280.82
465.87	8290.18
466.05	8397.84
466.23	8351.03
466.41	8446.99
466.60	8528.91
466.78	8564.02
466.96	8507.85
467.14	8374.44
467.32	8587.43
467.51	8659.98
467.69	8327.63
467.87	8454.02
468.05	8587.43
468.23	8685.73
468.41	8533.59
468.60	8725.52
468.78	8720.84
468.96	8580.40
469.14	8709.13
469.32	9057.87
469.50	8777.01
469.69	8898.72
469.87	8912.76
470.05	9043.83
470.23	8975.95
470.41	8947.87
470.59	9071.92
470.77	8987.66
470.95	9067.24
471.14	9135.11
471.32	9088.30
471.50	9238.09
471.68	9446.40
471.86	9305.97
472.04	9554.07
472.22	9535.34
472.40	9437.04
472.58	9561.09
472.77	9792.80
472.95	9605.56
473.13	10033.88
473.31	9570.45
473.49	9624.28
473.67	9525.98
473.85	9638.33
474.03	10050.26
474.21	9909.83
474.39	10157.92
474.57	9783.44
474.75	10239.84
474.93	10420.06
475.12	10279.63
475.30	10068.98
475.48	10317.08
475.66	10113.45
475.84	10160.27
476.02	10509.01
476.20	10298.36
476.38	10548.79
476.56	10757.10
476.74	10663.48
476.92	10696.25
477.10	10916.26
477.28	10853.06
477.46	10874.13
477.64	11218.19
477.82	11290.74
478.00	11562.25
478.18	11377.34
478.36	11346.92
478.54	11468.62
478.72	11705.02
478.90	11941.41
479.08	11896.94
479.26	12046.74
479.44	11831.41
479.62	11943.75
479.80	12224.62
479.98	12283.13
480.16	12564.00
480.34	12257.39
480.52	12540.59
480.70	12409.52
480.88	12264.41
481.06	12582.72
481.24	12823.80
481.41	13057.85
481.59	13041.46
481.77	13291.90
481.95	13256.79
482.13	13209.98
482.31	13355.10
482.49	13579.79
482.67	13624.26
482.85	13488.51
483.03	14022.15
483.21	13778.73
483.39	13984.70
483.57	13912.14
483.74	14441.11
483.92	14455.15
484.10	14157.90
484.28	14508.98
484.46	14445.79
484.64	14822.61
484.82	14799.21
485.00	14953.68
485.18	14920.92
485.35	15234.55
485.53	15070.71
485.71	15023.90
485.89	15257.95
486.07	15300.08
486.25	15627.76
486.43	15426.47
486.61	15789.25
486.78	15784.57
486.96	15948.41
487.14	16294.81
487.32	16327.58
487.50	16353.32
487.68	16685.68
487.85	16767.60
488.03	16823.77
488.21	16884.62
488.39	16833.13
488.57	17406.56
488.75	17357.41
488.92	17577.42
489.10	17767.01
489.28	17734.24
489.46	18050.21
489.64	18178.94
489.81	18511.30
489.99	18471.51
490.17	18387.25
490.35	18562.79
490.53	19000.47
490.70	18941.96
490.88	18759.39
491.06	19091.75
491.24	19124.52
491.41	19066.00
491.59	19412.40
491.77	19056.64
491.95	19239.20
492.13	19644.12
492.30	20163.72
492.48	20088.82
492.66	20056.05
492.84	19747.10
493.01	20325.21
493.19	20463.30
493.37	20559.27
493.54	20622.46
493.72	20861.19
493.90	20774.60
494.08	21099.93
494.25	21280.15
494.43	21317.60
494.61	21518.89
494.79	21591.44
494.96	21998.70
495.14	21902.73
495.32	21827.84
495.49	21813.79
495.67	21848.90
495.85	22017.42
496.02	22150.83
496.20	22459.78
496.38	22572.13
496.55	22691.49
496.73	23080.02
496.91	23105.77
497.09	22834.27
497.26	23274.29
497.44	23211.09
497.62	22986.40
497.79	23674.52
497.97	23241.52
498.14	23880.49
498.32	23936.66
498.50	23892.19
498.67	23971.77
498.85	23953.04
499.03	24194.12
499.20	24374.34
499.38	23974.11
499.56	24474.98
499.73	24706.70
499.91	24341.57
500.08	24760.53
500.26	24341.57
500.44	24517.11
500.61	25043.73
500.79	24379.02
500.97	24884.58
501.14	25310.55
501.32	25083.52
501.49	25167.78
501.67	25151.40
501.84	25553.97
502.02	25652.27
502.20	25467.37
502.37	26012.71
502.55	25659.29
502.72	25879.30
502.90	25975.27
503.07	26188.25
503.25	25816.11
503.43	26316.98
503.60	26211.66
503.78	26150.81
503.95	26066.55
504.13	26485.50
504.30	26567.42
504.48	26562.74
504.65	27023.83
504.83	27225.11
505.01	26754.66
505.18	26740.62
505.36	27391.29
505.53	27601.94
505.71	27585.55
505.88	27271.92
506.06	27379.59
506.23	28009.19
506.41	27583.21
506.58	27690.88
506.76	27742.37
506.93	27793.86
507.11	28016.21
507.28	27580.87
507.46	27838.33
507.63	27894.50
507.81	27988.13
507.98	28268.99
508.16	28311.12
508.33	28222.18
508.50	28486.66
508.68	28819.02
508.85	28912.64
509.03	29106.90
509.20	29022.64
509.38	28950.09
509.55	29095.20
509.73	28898.59
509.90	29109.24
510.08	29039.03
510.25	29184.14
510.42	29163.08
510.60	29687.36
510.77	29319.89
510.95	29521.18
511.12	29869.92
511.30	29837.15
511.47	30019.71
511.64	30401.22
511.82	30328.66
511.99	29823.11
512.17	29944.81
512.34	30092.27
512.51	30703.15
512.69	30665.70
512.86	30487.82
513.04	30871.67
513.21	30274.83
513.38	30504.20
513.56	30686.76
513.73	30352.07
513.90	30782.73
514.08	31173.60
514.25	31360.84
514.43	31227.43
514.60	30836.56
514.77	31023.80
514.95	31646.38
515.12	31283.60
515.29	31819.58
515.47	31597.23
515.64	32081.72
515.81	31388.92
515.99	31531.70
516.16	31583.19
516.33	31821.92
516.51	32458.55
516.68	31431.05
516.85	31814.90
517.03	31730.64
517.20	32088.74
517.37	31971.72
517.54	32355.57
517.72	32350.88
517.89	31859.37
518.06	32151.94
518.24	32154.28
518.41	32247.90
518.58	32348.54
518.75	32416.42
518.93	32463.23
519.10	32690.26
519.27	32973.47
519.45	32666.86
519.62	33060.07
519.79	32905.59
519.96	33228.59
520.14	33549.24
520.31	33090.49
520.48	33186.46
520.65	33247.31
520.83	33713.08
521.00	33792.65
521.17	33682.65
521.34	33867.55
521.52	33979.90
521.69	34015.01
521.86	33804.36
522.03	34281.83
522.20	34143.74
522.38	34197.57
522.55	34199.91
522.72	34129.69
522.89	34202.25
523.07	34370.77
523.24	34338.00
523.41	34560.35
523.58	34190.55
523.75	34848.24
523.92	34834.19
524.10	34948.88
524.27	35070.59
524.44	35054.20
524.61	35089.31
524.78	35278.89
524.96	35377.20
525.13	35365.49
525.30	35388.90
525.47	35646.36
525.64	35585.50
525.81	35777.43
525.98	35295.28
526.16	35658.06
526.33	35248.47
526.50	35807.86
526.67	35318.68
526.84	35260.17
527.01	34911.43
527.18	36123.83
527.36	36044.25
527.53	36355.54
527.70	36453.84
527.87	36240.86
528.04	36243.20
528.21	36226.81
528.38	36002.12
528.55	36559.17
528.72	36566.19
528.89	36701.94
529.07	36238.51
529.24	36353.20
529.41	36786.20
529.58	36512.36
529.75	36439.80
529.92	36940.68
530.09	36503.00
530.26	36797.90
530.43	37399.42
530.60	36503.00
530.77	37097.49
530.94	37062.38
531.11	36889.18
531.28	37120.90
531.46	37109.19
531.63	36683.22
531.80	37134.94
531.97	36811.95
532.14	37013.23
532.31	37258.99
532.48	37748.16
532.65	37614.75
532.82	37544.53
532.99	37862.85
533.16	37397.08
533.33	37794.97
533.50	37876.89
533.67	37633.47
533.84	37762.20
534.01	38155.41
534.18	37949.45
534.35	38251.38
534.52	38211.59
534.69	38029.02
534.86	37776.25
535.03	37919.02
535.20	38323.93
535.37	38745.23
535.54	38543.94
535.71	38389.47
535.88	38529.90
536.05	38579.05
536.22	39084.61
536.38	38511.17
536.55	38281.80
536.72	38693.74
536.89	38403.51
537.06	38314.57
537.23	38735.87
537.40	38843.53
537.57	38485.43
537.74	38965.24
537.91	39398.24
538.08	39009.71
538.25	38857.57
538.42	38850.55
538.59	39103.33
538.75	38799.06
538.92	39524.63
539.09	39407.60
539.26	39150.14
539.43	39313.98
539.60	39484.84
539.77	39222.70
539.94	39178.23
540.11	39295.25
540.28	39529.31
540.44	39573.78
540.61	39206.31
540.78	39482.50
540.95	39091.63
541.12	39292.91
541.29	39360.79
541.46	39819.53
541.62	39807.83
541.79	39580.80
541.96	39739.96
542.13	39896.77
542.30	39665.06
542.47	40215.08
542.63	39929.54
542.80	39922.52
542.97	40254.87
543.14	40685.53
543.31	40224.45
543.48	40542.76
543.64	40940.65
543.81	40418.71
543.98	40692.55
544.15	40563.82
544.32	40884.48
544.48	40978.10
544.65	40814.26
544.82	40795.54
544.99	40732.34
545.16	40692.55
545.32	40985.12
545.49	41034.27
545.66	41380.67
545.83	41354.93
546.00	41420.46
546.16	41130.23
546.33	41219.17
546.50	41174.70
546.67	41038.95
546.83	40643.40
547.00	41483.66
547.17	41193.43
547.34	41490.68
547.50	41696.64
547.67	41359.61
547.84	41081.08
548.00	41500.04
548.17	41944.74
548.34	41633.45
548.51	41617.07
548.67	42036.02
548.84	41706.01
549.01	41610.04
549.18	41841.76
549.34	41888.57
549.51	42281.78
549.68	42197.52
549.84	41794.95
550.01	41453.23
550.18	41869.84
550.34	41926.02
550.51	42415.19
550.68	42169.43
550.84	41801.97
551.01	41984.53
551.18	41806.65
551.34	42209.22
551.51	41806.65
551.68	42169.43
551.84	42733.50
552.01	42108.58
552.18	42351.99
552.34	42244.33
552.51	42270.08
552.68	41844.10
552.84	42941.81
553.01	42564.98
553.18	42450.30
553.34	42560.30
553.51	42064.11
553.67	42085.17
553.84	42796.70
554.01	42976.92
554.17	42855.21
554.34	43044.79
554.51	42377.74
554.67	43084.58
554.84	42433.91
555.00	42478.38
555.17	42527.53
555.33	42913.72
555.50	42522.85
555.67	43028.41
555.83	42815.42
556.00	42871.59
556.16	43182.88
556.33	42869.25
556.50	42981.60
556.66	43133.73
556.83	42726.48
556.99	43171.18
557.16	43412.26
557.32	43360.76
557.49	43463.75
557.65	42784.99
557.82	43154.80
557.98	43117.35
558.15	43278.85
558.32	43395.87
558.48	43491.83
558.65	43040.11
558.81	42796.70
558.98	43168.84
559.14	43070.54
559.31	43084.58
559.47	43330.34
559.64	43346.72
559.80	43419.28
559.97	43217.99
560.13	43395.87
560.30	43037.77
560.46	43531.62
560.63	43264.80
560.79	43594.82
560.96	43349.06
561.12	43636.95
561.29	43573.75
561.45	43618.22
561.61	43697.80
561.78	43562.05
561.94	43482.47
562.11	43576.09
562.27	43672.06
562.44	43653.33
562.60	43524.60
562.77	43697.80
562.93	43508.22
563.10	43768.02
563.26	43632.27
563.42	43922.49
563.59	43585.46
563.75	43498.86
563.92	43814.83
564.08	43798.44
564.24	43789.08
564.41	43749.29
564.57	43868.66
564.74	44044.20
564.90	43758.66
565.07	43732.91
565.23	43716.53
565.39	43800.79
565.56	44039.52
565.72	43543.33
565.88	44201.02
566.05	43721.21
566.21	43761.00
566.38	43744.61
566.54	43732.91
566.70	44041.86
566.87	44488.90
567.03	43739.93
567.19	44964.03
567.36	44208.04
567.52	43753.97
567.68	43789.08
567.85	43709.50
568.01	43997.39
568.17	43852.28
568.34	44421.03
568.50	44093.35
568.66	43796.10
568.83	44076.97
568.99	43746.95
569.15	43861.64
569.32	44147.18
569.48	44069.95
569.64	44252.51
569.81	44098.03
569.97	44435.07
570.13	43906.11
570.30	43791.42
570.46	43981.01
570.62	44332.09
570.78	43718.87
570.95	44065.27
571.11	44229.10
571.27	44341.45
571.43	44172.93
571.60	44177.61
571.76	43957.60
571.92	44208.04
572.09	44348.47
572.25	44037.18
572.41	44083.99
572.57	44540.39
572.74	44547.42
572.90	44516.99
573.06	44287.62
573.22	44652.74
573.38	44280.60
573.55	44226.76
573.71	44184.63
573.87	43744.61
574.03	44584.86
574.20	43941.22
574.36	43999.73
574.52	44168.25
574.68	44439.75
574.84	44727.64
575.01	45006.16
575.17	44088.67
575.33	44437.41
575.49	44203.36
575.65	44762.75
575.82	44678.49
575.98	43796.10
576.14	44456.14
576.30	44509.97
576.46	44130.80
576.62	44563.80
576.79	44222.08
576.95	44147.18
577.11	44493.58
577.27	44282.94
577.43	44491.24
577.59	44498.26
577.75	44158.89
577.92	43903.77
578.08	44100.37
578.24	44161.23
578.40	44458.48
578.56	44343.79
578.72	44577.84
578.88	44919.56
579.04	44556.78
579.21	44505.29
579.37	44362.51
579.53	44704.23
579.69	44505.29
579.85	44311.02
580.01	44598.91
580.17	44350.81
580.33	45097.44
580.49	44671.46
580.65	44685.51
580.82	44645.72
580.98	44439.75
581.14	44392.94
581.30	44907.86
581.46	44727.64
581.62	44816.58
581.78	44215.06
581.94	45015.52
582.10	44460.82
582.26	44851.69
582.42	44362.51
582.58	44428.05
582.74	44486.56
582.90	44601.25
583.06	45205.11
583.22	44531.03
583.38	44807.22
583.54	45092.76
583.70	44755.72
583.86	44877.43
584.02	44369.54
584.18	44275.91
584.34	44505.29
584.50	44371.88
584.66	44418.69
584.82	44444.43
584.98	45078.72
585.14	44722.96
585.30	44673.81
585.46	44486.56
585.62	44315.70
585.78	44575.50
585.94	44144.84
586.10	44421.03
586.26	44287.62
586.42	44811.90
586.58	44985.10
586.74	44617.63
586.90	44608.27
587.06	44821.26
587.22	44542.74
587.38	44507.63
587.54	44985.10
587.70	44854.03
587.86	44844.66
588.02	44622.31
588.18	44896.16
588.34	44470.18
588.49	44718.28
588.65	43910.79
588.81	44151.87
588.97	44725.30
589.13	44416.35
589.29	44704.23
589.45	44306.34
589.61	44589.55
589.77	44875.09
589.93	44711.25
590.08	44732.32
590.24	44835.30
