SpectraSuite Data File
++++++++++++++++++++++++++++++++++++
Date: Fri Oct 25 11:23:15 EDT 2013
User: price-jones
Dark Spectrum Present: No
Reference Spectrum Present: No
Number of Sampled Component Spectra: 1
Spectrometers: USB2+H05261
Integration Time (usec): 100000 (USB2+H05261)
Spectra Averaged: 1 (USB2+H05261)
Boxcar Smoothing: 0 (USB2+H05261)
Correct for Electrical Dark: No (USB2+H05261)
Strobe/Lamp Enabled: No (USB2+H05261)
Correct for Detector Non-linearity: No (USB2+H05261)
Correct for Stray Light: No (USB2+H05261)
Number of Pixels in Processed Spectrum: 2048
>>>>>Begin Processed Spectral Data<<<<<
365.73	205.97
365.92	205.97
366.12	205.97
366.32	152.13
366.52	119.37
366.72	191.92
366.91	177.88
367.11	117.03
367.31	166.18
367.51	110.01
367.70	114.69
367.90	112.35
368.10	170.86
368.30	44.47
368.49	102.98
368.69	138.09
368.89	152.13
369.09	131.07
369.28	175.54
369.48	194.26
369.68	177.88
369.87	210.65
370.07	229.37
370.27	220.01
370.47	360.44
370.66	610.88
370.86	627.26
371.06	592.16
371.25	830.89
371.45	674.07
371.65	664.71
371.84	585.13
372.04	655.35
372.24	692.80
372.44	657.69
372.63	765.36
372.83	809.83
373.03	723.23
373.22	713.86
373.42	699.82
373.62	772.38
373.81	681.10
374.01	833.23
374.21	770.04
374.40	908.13
374.60	882.38
374.79	835.57
374.99	819.19
375.19	823.87
375.38	844.93
375.58	905.79
375.78	880.04
375.97	917.49
376.17	861.32
376.37	851.96
376.56	788.76
376.76	833.23
376.95	877.70
377.15	863.66
377.35	919.83
377.54	922.17
377.74	880.04
377.93	931.53
378.13	887.06
378.33	954.94
378.52	919.83
378.72	877.70
378.91	924.51
379.11	866.00
379.31	997.07
379.50	997.07
379.70	1039.20
379.89	973.66
380.09	952.60
380.28	1004.09
380.48	1015.79
380.68	950.26
380.87	1008.77
381.07	999.41
381.26	1041.54
381.46	987.71
381.65	980.68
381.85	1011.11
382.04	983.02
382.24	1151.54
382.43	1151.54
382.63	1067.28
382.83	1172.61
383.02	1144.52
383.22	1142.18
383.41	1100.05
383.61	1135.16
383.80	1123.46
384.00	1123.46
384.19	1205.38
384.39	1118.78
384.58	1123.46
384.78	1151.54
384.97	1151.54
385.17	1172.61
385.36	1212.40
385.56	1174.95
385.75	1177.29
385.95	1224.10
386.14	1151.54
386.34	1221.76
386.53	1196.01
386.72	1149.20
386.92	1205.38
387.11	1226.44
387.31	1235.80
387.50	1263.89
387.70	1193.67
387.89	1364.53
388.09	1261.55
388.28	1343.47
388.48	1249.85
388.67	1247.51
388.86	1270.91
389.06	1256.87
389.25	1324.74
389.45	1350.49
389.64	1483.90
389.84	1371.55
390.03	1380.92
390.22	1364.53
390.42	1364.53
390.61	1355.17
390.81	1373.89
391.00	1387.94
391.19	1423.05
391.39	1416.02
391.58	1448.79
391.78	1504.96
391.97	1474.54
392.16	1497.94
392.36	1476.88
392.55	1542.41
392.75	1537.73
392.94	1446.45
393.13	1514.33
393.33	1631.35
393.52	1629.01
393.71	1652.42
393.91	1502.62
394.10	1607.95
394.29	1687.53
394.49	1647.74
394.68	1699.23
394.88	1650.08
395.07	1673.48
395.26	1678.16
395.46	1706.25
395.65	1680.50
395.84	1764.76
396.04	1727.32
396.23	1715.61
396.42	1788.17
396.62	1757.74
396.81	1767.10
397.00	1804.55
397.19	1792.85
397.39	1820.94
397.58	1757.74
397.77	1797.53
397.97	1874.77
398.16	1863.07
398.35	1820.94
398.55	1907.54
398.74	1926.26
398.93	2001.16
399.12	1928.60
399.32	1867.75
399.51	1914.56
399.70	1994.14
399.90	1959.03
400.09	2047.97
400.28	2047.97
400.47	2106.48
400.67	2038.61
400.86	2052.65
401.05	2066.69
401.24	2174.36
401.44	2099.46
401.63	2106.48
401.82	2172.02
402.01	2113.50
402.21	2176.70
402.40	2267.98
402.59	2186.06
402.78	2221.17
402.97	2146.27
403.17	2118.18
403.36	2387.35
403.55	2317.13
403.74	2389.69
403.93	2349.90
404.13	2415.43
404.32	2380.32
404.51	2321.81
404.70	2495.01
404.89	2361.60
405.09	2555.86
405.28	2434.16
405.47	2495.01
405.66	2495.01
405.85	2572.25
406.05	2579.27
406.24	2651.83
406.43	2532.46
406.62	2562.89
406.81	2583.95
407.00	2600.34
407.20	2527.78
407.39	2649.49
407.58	2729.06
407.77	2684.59
407.96	2785.24
408.15	2806.30
408.34	2818.00
408.54	2862.48
408.73	2916.31
408.92	2862.48
409.11	2960.78
409.30	2972.48
409.49	2871.84
409.68	2951.42
409.87	2963.12
410.07	3023.97
410.26	3098.87
410.45	3030.99
410.64	3040.36
410.83	3042.70
411.02	3164.40
411.21	3243.98
411.40	3136.32
411.59	3201.85
411.78	3183.13
411.98	3211.22
412.17	3344.63
412.36	3389.10
412.55	3332.92
412.74	3421.86
412.93	3417.18
413.12	3325.90
413.31	3489.74
413.50	3524.85
413.69	3384.41
413.88	3517.83
414.07	3606.77
414.26	3705.07
414.45	3749.54
414.64	3819.75
414.83	3913.38
415.02	3798.69
415.22	4016.36
415.41	3927.42
415.60	3969.55
415.79	3922.74
415.98	4070.19
416.17	4025.72
416.36	3932.10
416.55	3969.55
416.74	4011.68
416.93	4131.05
417.12	4212.96
417.31	4177.86
417.50	4145.09
417.69	4259.78
417.88	4318.29
418.07	4203.60
418.26	4145.09
418.45	4257.43
418.64	4573.41
418.83	4493.83
419.02	4404.89
419.21	4540.64
419.39	4545.32
419.58	4589.79
419.77	4423.61
419.96	4594.47
420.15	4713.84
420.34	4615.54
420.53	4629.58
420.72	4585.11
420.91	4807.46
421.10	4828.53
421.29	4737.24
421.48	4760.65
421.67	4985.34
421.86	4753.63
422.05	4734.90
422.24	4987.68
422.43	4896.40
422.61	4861.29
422.80	5050.88
422.99	4945.55
423.18	5025.13
423.37	4917.47
423.56	4877.68
423.75	5032.15
423.94	4905.76
424.13	4629.58
424.32	4971.30
424.50	4990.02
424.69	5107.05
424.88	4980.66
425.07	5013.43
425.26	5203.01
425.45	4945.55
425.64	5060.24
425.83	4950.23
426.01	5118.75
426.20	5163.22
426.39	5060.24
426.58	5177.26
426.77	5116.41
426.96	5149.18
427.15	5153.86
427.33	5214.71
427.52	5146.84
427.71	5350.46
427.90	5224.08
428.09	5397.28
428.28	5376.21
428.46	5474.51
428.65	5469.83
428.84	5596.22
429.03	5605.58
429.22	5434.72
429.40	5526.00
429.59	5441.75
429.78	5357.49
429.97	5364.51
430.16	5430.04
430.34	5795.17
430.53	5799.85
430.72	5640.69
430.91	5715.59
431.10	5542.39
431.28	5703.89
431.47	5865.38
431.66	5959.00
431.85	5652.39
432.03	5975.39
432.22	6026.88
432.41	6061.99
432.60	5834.96
432.79	6078.37
432.97	5996.45
433.16	6059.65
433.35	5863.04
433.54	6101.78
433.72	6216.46
433.91	6228.17
434.10	6083.05
434.28	6045.60
434.47	6331.15
434.66	6408.39
434.85	6230.51
435.03	6497.33
435.22	6487.96
435.41	6600.31
435.59	6384.98
435.78	6551.16
435.97	6619.04
436.16	6487.96
436.34	6609.67
436.53	6509.03
436.72	6710.32
436.90	6534.78
437.09	6780.53
437.28	6520.73
437.46	6609.67
437.65	6693.93
437.84	6839.05
438.02	6752.45
438.21	6974.80
438.40	6787.55
438.58	6913.94
438.77	7297.79
438.96	6960.75
439.14	7241.62
439.33	7262.68
439.52	7194.81
439.70	7307.15
439.89	7478.01
440.08	7562.27
440.26	7503.76
440.45	7379.71
440.63	7662.91
440.82	7691.00
441.01	7510.78
441.19	7808.03
441.38	7819.73
441.57	7648.87
441.75	7913.35
441.94	8016.33
442.12	7920.37
442.31	7960.16
442.50	8018.68
442.68	8046.76
442.87	8121.66
443.05	8313.58
443.24	8276.13
443.43	8245.71
443.61	8234.00
443.80	8486.78
443.98	8173.15
444.17	7901.65
444.35	8287.84
444.54	8376.78
444.73	8451.67
444.91	8212.94
445.10	8297.20
445.28	8383.80
445.47	8360.39
445.65	8325.29
445.84	8547.64
446.02	8531.25
446.21	8358.05
446.39	8559.34
446.58	8573.38
446.77	8559.34
446.95	8446.99
447.14	8629.56
447.32	8688.07
447.51	8613.17
447.69	8702.11
447.88	8587.43
448.06	8503.17
448.25	8779.35
448.43	8617.85
448.62	8669.34
448.80	8552.32
448.99	8835.52
449.17	8908.08
449.36	8765.31
449.54	8863.61
449.73	9107.02
449.91	9064.89
450.10	9046.17
450.28	9158.52
450.46	9114.05
450.65	9291.93
450.83	9062.55
451.02	9214.69
451.20	9317.67
451.39	9444.06
451.57	9252.14
451.76	9139.79
451.94	9348.10
452.13	9383.21
452.31	9383.21
452.49	9261.50
452.68	9614.92
452.86	9352.78
453.05	9647.69
453.23	9572.79
453.42	9394.91
453.60	9359.80
453.78	9874.72
453.97	9312.99
454.15	9731.95
454.34	9682.80
454.52	9809.19
454.70	9654.71
454.89	9980.04
455.07	9888.76
455.26	9848.97
455.44	10001.11
455.62	10019.83
455.81	10153.24
455.99	10239.84
456.17	10174.31
456.36	10015.15
456.54	10164.95
456.73	10193.03
456.91	10679.86
457.09	10553.48
457.28	10810.93
457.46	10399.00
457.64	10459.85
457.83	10803.91
458.01	10581.56
458.19	10876.47
458.38	10611.99
458.56	10953.71
458.74	10696.25
458.93	10633.05
459.11	10899.87
459.29	10918.60
459.48	11073.07
459.66	10979.45
459.84	11030.94
460.03	11070.73
460.21	11052.01
460.39	10963.07
460.57	10986.47
460.76	11375.00
460.94	11335.21
461.12	11454.58
461.31	11349.26
461.49	11021.58
461.67	11339.90
461.85	11597.35
462.04	11492.03
462.22	11798.64
462.40	11782.26
462.59	11571.61
462.77	11693.32
462.95	11932.05
463.13	11698.00
463.32	11812.68
463.50	11843.11
463.68	11833.75
463.86	11894.60
464.05	11719.06
464.23	11602.04
464.41	11934.39
464.59	11833.75
464.78	12262.07
464.96	12259.73
465.14	12011.63
465.32	12182.49
465.50	12416.54
465.69	12264.41
465.87	12533.57
466.05	12343.99
466.23	12241.00
466.41	12411.86
466.60	12765.28
466.78	12273.77
466.96	12367.39
467.14	12313.56
467.32	12634.21
467.51	12758.26
467.69	12360.37
467.87	12779.32
468.05	12760.60
468.23	12505.48
468.41	12629.53
468.60	12657.62
468.78	12613.15
468.96	12512.50
469.14	12989.97
469.32	13036.78
469.50	12781.67
469.69	13064.87
469.87	13125.72
470.05	13439.36
470.23	13252.11
470.41	13296.58
470.59	13446.38
470.77	13394.89
470.95	13259.13
471.14	13668.73
471.32	13268.50
471.50	13486.17
471.68	13893.42
471.86	13706.18
472.04	13813.84
472.22	14001.08
472.40	13528.30
472.58	13734.26
472.77	13907.46
472.95	14185.99
473.13	14572.18
473.31	14031.51
473.49	14284.29
473.67	14340.46
473.85	14314.72
474.03	14932.62
474.21	14656.43
474.39	14609.62
474.57	14979.43
474.75	14916.23
474.93	15260.29
475.12	15075.39
475.30	15131.56
475.48	15257.95
475.66	15218.16
475.84	15330.51
476.02	15522.43
476.20	15569.24
476.38	15730.74
476.56	16128.63
476.74	16468.01
476.92	16086.50
477.10	15896.92
477.28	16018.63
477.46	16528.86
477.64	16563.97
477.82	16486.73
478.00	16851.86
478.18	17032.08
478.36	16980.59
478.54	17282.52
478.72	17554.02
478.90	17298.90
479.08	17598.49
479.26	17731.90
479.44	17851.27
479.62	17909.78
479.80	18204.69
479.98	18424.70
480.16	18647.05
480.34	18759.39
480.52	18719.60
480.70	18661.09
480.88	18544.06
481.06	19030.90
481.24	19016.85
481.41	19384.32
481.59	19491.98
481.77	19950.73
481.95	19768.16
482.13	20051.37
482.31	20009.24
482.49	20332.23
482.67	20259.68
482.85	20755.87
483.03	20807.36
483.21	21102.27
483.39	21177.17
483.57	21298.88
483.74	21387.82
483.92	21355.05
484.10	21429.94
484.28	21561.02
484.46	22066.57
484.64	22625.96
484.82	22115.72
485.00	22623.62
485.18	22817.88
485.35	23297.69
485.53	23192.37
485.71	23269.61
485.89	23639.41
486.07	23616.01
486.25	23445.15
486.43	23641.75
486.61	23894.53
486.78	24369.66
486.96	24311.14
487.14	24952.45
487.32	24793.29
487.50	25322.26
487.68	25537.59
487.85	25785.68
488.03	25905.05
488.21	26415.29
488.39	26272.51
488.57	26696.15
488.75	26691.47
488.92	26724.24
489.10	27129.15
489.28	27035.53
489.46	27428.74
489.64	27173.62
489.81	27749.39
489.99	27779.82
490.17	28254.95
490.35	28257.29
490.53	28615.39
490.70	28517.09
490.88	28657.52
491.06	28961.79
491.24	29355.00
491.41	29422.87
491.59	29605.44
491.77	29883.96
491.95	30082.91
492.13	30148.44
492.30	30382.49
492.48	30242.06
492.66	30391.86
492.84	30445.69
493.01	30941.88
493.19	30768.68
493.37	31248.49
493.54	31613.62
493.72	31995.12
493.90	31798.52
494.08	32194.07
494.25	32718.35
494.43	32488.98
494.61	32552.17
494.79	32961.76
494.96	32711.33
495.14	33036.66
495.32	33572.64
495.49	33397.10
495.67	33600.73
495.85	33855.85
496.02	33825.42
496.20	34064.16
496.38	34618.86
496.55	34689.08
496.73	35304.64
496.91	34864.62
497.09	34913.77
497.26	35416.99
497.44	35098.67
497.62	35814.88
497.79	36177.66
497.97	35931.90
498.14	36495.97
498.32	36732.37
498.50	36453.84
498.67	37120.90
498.85	36957.06
499.03	37221.54
499.20	36943.02
499.38	37551.56
499.56	37631.13
499.73	37450.91
499.91	37991.58
500.08	38160.09
500.26	37883.91
500.44	37837.10
500.61	38124.99
500.79	37914.34
500.97	38291.16
501.14	38871.62
501.32	38988.64
501.49	38883.32
501.67	39026.09
501.84	39498.88
502.02	39374.83
502.20	39503.56
502.37	39754.00
502.55	39473.13
502.72	39746.98
502.90	39791.45
503.07	39665.06
503.25	40076.99
503.43	40105.08
503.60	40774.47
503.78	40605.95
503.95	40479.57
504.13	40779.15
504.30	41677.92
504.48	40706.60
504.65	41060.02
504.83	41617.07
505.01	41909.63
505.18	41233.22
505.36	42087.51
505.53	41301.09
505.71	41839.42
505.88	42337.95
506.06	42094.53
506.23	42916.06
506.41	41911.97
506.58	42857.55
506.76	42827.12
506.93	43000.32
507.11	42621.16
507.28	43196.93
507.46	43248.42
507.63	43407.58
507.81	43278.85
507.98	42941.81
508.16	43824.19
508.33	43756.32
508.50	43761.00
508.68	43833.55
508.85	44474.86
509.03	44547.42
509.20	44444.43
509.38	44772.11
509.55	45043.61
509.73	44514.65
509.90	45059.99
510.08	44868.07
510.25	45111.49
510.42	45118.51
510.60	45385.33
510.77	45560.87
510.95	46010.25
511.12	45769.18
511.30	46162.39
511.47	45577.25
511.64	45940.04
511.82	46417.50
511.99	46007.91
512.17	46431.55
512.34	46089.83
512.51	46614.11
512.69	47063.49
512.86	46864.55
513.04	46590.70
513.21	47136.05
513.38	46534.53
513.56	47770.33
513.73	46904.34
513.90	47557.35
514.08	47168.82
514.25	47416.91
514.43	47779.70
514.60	47859.27
514.77	47800.76
514.95	48119.07
515.12	48126.10
515.29	47643.94
515.47	48018.43
515.64	48598.88
515.81	48624.63
515.99	48762.72
516.16	49045.93
516.33	48561.44
516.51	49130.19
516.68	48832.94
516.85	48949.96
517.03	49282.32
517.20	49338.49
517.37	49228.49
517.54	49256.57
517.72	49017.84
517.89	49544.46
518.06	49406.37
518.24	49731.70
518.41	49256.57
518.58	49439.14
518.75	49350.20
518.93	49904.90
519.10	49822.98
519.27	50354.29
519.45	49909.58
519.62	50358.97
519.79	50368.33
519.96	50150.66
520.14	50265.34
520.31	50609.40
520.48	50855.16
520.65	50731.11
520.83	50644.51
521.00	51231.99
521.17	50653.87
521.34	51250.71
521.52	51276.46
521.69	51253.05
521.86	51533.92
522.03	51290.50
522.20	51725.84
522.38	51803.08
522.55	51657.96
522.72	51709.46
522.89	51695.41
523.07	52072.24
523.24	51885.00
523.41	52081.60
523.58	51791.37
523.75	52383.53
523.92	52046.49
524.10	52367.15
524.27	52264.16
524.44	52584.82
524.61	52329.70
524.78	52299.27
524.96	52676.10
525.13	52612.90
525.30	52750.99
525.47	52980.37
525.64	52877.38
525.81	53118.46
525.98	52945.26
526.16	52846.96
526.33	53078.67
526.50	53265.91
526.67	53270.59
526.84	53169.95
527.01	52748.65
527.18	53270.59
527.36	53109.10
527.53	53279.96
527.70	53820.62
527.87	53614.65
528.04	53457.84
528.21	53743.38
528.38	53476.56
528.55	54092.12
528.72	53827.64
528.89	53668.48
529.07	53801.89
529.24	53595.93
529.41	54021.90
529.58	54021.90
529.75	53829.98
529.92	54101.48
530.09	54223.19
530.26	54040.63
530.43	54513.42
530.60	53963.39
530.77	54061.69
530.94	54616.40
531.11	54459.58
531.28	54506.40
531.46	54459.58
531.63	54578.95
531.80	54539.16
531.97	54637.47
532.14	54628.10
532.31	54803.64
532.48	54827.05
532.65	55194.51
532.82	54581.29
532.99	55098.55
533.16	54717.04
533.33	55098.55
533.50	55220.26
533.67	55105.57
533.84	54990.89
534.01	55140.68
534.18	54983.86
534.35	55618.15
534.52	55208.56
534.69	55372.39
534.86	55227.28
535.03	55295.16
535.20	55524.53
535.37	55599.43
535.54	55702.41
535.71	55419.20
535.88	55573.68
536.05	55473.04
536.22	55880.29
536.38	55943.48
536.55	55791.35
536.72	55873.27
536.89	55924.76
537.06	55845.18
537.23	56151.79
537.40	55683.69
537.57	55777.31
537.74	55849.86
537.91	56161.15
538.08	56130.73
538.25	56062.85
538.42	56184.56
538.59	56563.73
538.75	56184.56
538.92	56086.26
539.09	56280.52
539.26	56343.72
539.43	56423.29
539.60	56669.05
539.77	56460.74
539.94	56811.82
540.11	56425.64
540.28	56739.27
540.44	56741.61
540.61	56685.43
540.78	56692.46
540.95	56463.08
541.12	56863.32
541.29	56664.37
541.46	56493.51
541.62	56898.42
541.79	56928.85
541.96	56601.18
542.13	56907.79
542.30	56793.10
542.47	57202.69
542.63	56919.49
542.80	57020.13
542.97	57242.48
543.14	57485.90
543.31	57359.51
543.48	57485.90
543.64	57872.09
543.81	57698.89
543.98	57748.04
544.15	57485.90
544.32	57570.16
544.48	58033.58
544.65	57483.56
544.82	57656.76
544.99	57633.35
545.16	57764.42
545.32	57539.73
545.49	58162.31
545.66	57954.00
545.83	57818.25
546.00	57815.91
546.16	57792.51
546.33	57820.59
546.50	57616.97
546.67	58094.44
546.83	57574.84
547.00	58115.50
547.17	58056.99
547.34	57909.53
547.50	58279.34
547.67	58482.97
547.84	58300.40
548.00	58255.93
548.17	58466.58
548.34	58487.65
548.51	58515.73
548.67	58340.19
548.84	58492.33
549.01	58103.80
549.18	58443.18
549.34	58475.94
549.51	58541.48
549.68	58581.27
549.84	58798.94
550.01	58557.86
550.18	58401.05
550.34	58482.97
550.51	58908.94
550.68	58773.19
550.84	58548.50
551.01	58878.52
551.18	58918.31
551.34	58787.24
551.51	58747.45
551.68	58724.04
551.84	58749.79
552.01	58768.51
552.18	59002.56
552.34	58801.28
552.51	59042.35
552.68	58766.17
552.84	58925.33
553.01	59262.36
553.18	58995.54
553.34	59180.45
553.51	59002.56
553.67	58897.24
553.84	59288.11
554.01	59346.62
554.17	59201.51
554.34	59465.99
554.51	59412.16
554.67	59262.36
554.84	59363.01
555.00	59477.69
555.17	59002.56
555.33	59260.02
555.50	59105.55
555.67	59178.10
555.83	59182.79
556.00	59274.07
556.16	59695.36
556.33	59742.17
556.50	59465.99
556.66	59594.72
556.83	59313.86
556.99	59627.49
557.16	59786.64
557.32	59714.09
557.49	59863.88
557.65	59568.97
557.82	59583.02
557.98	59597.06
558.15	59599.40
558.32	59746.86
558.48	59512.80
558.65	59756.22
558.81	59814.73
558.98	59896.65
559.14	59884.95
559.31	59955.16
559.47	59990.27
559.64	59828.77
559.80	59903.67
559.97	60067.51
560.13	59718.77
560.30	60186.88
560.46	59978.57
560.63	59922.40
560.79	59917.71
560.96	60086.23
561.12	60156.45
561.29	60086.23
561.45	60133.04
561.61	59978.57
561.78	60156.45
561.94	60037.08
562.11	60086.23
562.27	60184.54
562.44	60214.96
562.60	60236.03
562.77	60299.22
562.93	59854.52
563.10	60236.03
563.26	60193.90
563.42	60294.54
563.59	60163.47
563.75	60432.63
563.92	60193.90
564.08	60161.13
564.24	60299.22
564.41	60563.70
564.57	60456.04
564.74	60467.74
564.90	60331.99
565.07	60430.29
565.23	60324.97
565.39	60493.49
565.56	60540.30
565.72	60552.00
565.88	60533.28
566.05	60315.61
566.21	60397.52
566.38	60509.87
566.54	60516.89
566.70	60514.55
566.87	60626.90
567.03	60533.28
567.19	60767.33
567.36	60636.26
567.52	60388.16
567.68	60734.56
567.85	60552.00
568.01	60650.30
568.17	60629.24
568.34	60514.55
568.50	60673.71
568.66	60526.25
568.83	60591.79
568.99	60542.64
569.15	60823.50
569.32	60687.75
569.48	60633.92
569.64	60790.73
569.81	60544.98
569.97	60472.42
570.13	60603.49
570.30	60736.90
570.46	60727.54
570.62	60842.23
570.78	60867.97
570.95	60779.03
571.11	60891.38
571.27	60680.73
571.43	60860.95
571.60	60860.95
571.76	60741.58
571.92	60874.99
572.09	60800.10
572.25	61010.74
572.41	60530.93
572.57	60886.70
572.74	60889.04
572.90	60767.33
573.06	61022.45
573.22	60722.86
573.38	60952.23
573.55	60903.08
573.71	61080.96
573.87	60818.82
574.03	60718.18
574.20	60851.59
574.36	61029.47
574.52	61038.83
574.68	61010.74
574.84	61179.26
575.01	61022.45
575.17	61059.90
575.33	60935.85
575.49	60945.21
575.65	60949.89
575.82	61043.51
575.98	61097.34
576.14	61282.25
576.30	61125.43
576.46	60924.14
576.62	61029.47
576.79	60879.67
576.95	60800.10
577.11	61083.30
577.27	61169.90
577.43	60942.87
577.59	60879.67
577.75	61137.13
577.92	60704.13
578.08	61109.05
578.24	61087.98
578.40	61062.24
578.56	61382.89
578.72	60977.98
578.88	61078.62
579.04	61399.27
579.21	61207.35
579.37	61303.31
579.53	61216.71
579.69	61034.15
579.85	60999.04
580.01	60982.66
580.17	60905.42
580.33	61317.35
580.49	61331.40
580.65	61209.69
580.82	61020.11
580.98	61118.41
581.14	61219.05
581.30	61207.35
581.46	61099.68
581.62	61167.56
581.78	61120.75
581.94	61293.95
582.10	61256.50
582.26	61130.11
582.42	61186.28
582.58	61223.73
582.74	60907.76
582.90	61172.24
583.06	61059.90
583.22	61205.01
583.38	61230.75
583.54	61312.67
583.70	61275.22
583.86	61104.37
584.02	61176.92
584.18	61361.82
584.34	61284.59
584.50	61176.92
584.66	61116.07
584.82	60933.51
584.98	61373.53
585.14	61282.25
585.30	61048.19
585.46	61214.37
585.62	61123.09
585.78	61130.11
585.94	61069.26
586.10	61291.61
586.26	61158.20
586.42	61240.12
586.58	61329.06
586.74	61247.14
586.90	61329.06
587.06	61080.96
587.22	61230.75
587.38	61172.24
587.54	61432.04
587.70	61485.87
587.86	61230.75
588.02	61251.82
588.18	61485.87
588.34	61270.54
