SpectraSuite Data File
++++++++++++++++++++++++++++++++++++
Date: Fri Oct 25 11:25:57 EDT 2013
User: price-jones
Dark Spectrum Present: No
Reference Spectrum Present: No
Number of Sampled Component Spectra: 1
Spectrometers: USB2+H05261
Integration Time (usec): 100000 (USB2+H05261)
Spectra Averaged: 1 (USB2+H05261)
Boxcar Smoothing: 0 (USB2+H05261)
Correct for Electrical Dark: No (USB2+H05261)
Strobe/Lamp Enabled: No (USB2+H05261)
Correct for Detector Non-linearity: No (USB2+H05261)
Correct for Stray Light: No (USB2+H05261)
Number of Pixels in Processed Spectrum: 2048
>>>>>Begin Processed Spectral Data<<<<<
365.73	311.29
365.92	311.29
366.12	311.29
366.32	210.65
366.52	175.54
366.72	131.07
366.91	39.79
367.11	196.60
367.31	98.30
367.51	110.01
367.70	119.37
367.90	198.95
368.10	119.37
368.30	147.45
368.49	131.07
368.69	180.22
368.89	110.01
369.09	175.54
369.28	149.79
369.48	173.20
369.68	222.35
369.87	222.35
370.07	212.99
370.27	224.69
370.47	290.23
370.66	547.69
370.86	596.84
371.06	695.14
371.25	744.29
371.45	711.52
371.65	772.38
371.84	692.80
372.04	660.03
372.24	709.18
372.44	718.54
372.63	854.30
372.83	760.67
373.03	760.67
373.22	781.74
373.42	767.70
373.62	805.14
373.81	798.12
374.01	851.96
374.21	748.97
374.40	814.51
374.60	826.21
374.79	716.20
374.99	828.55
375.19	767.70
375.38	873.02
375.58	887.06
375.78	870.68
375.97	908.13
376.17	861.32
376.37	882.38
376.56	826.21
376.76	882.38
376.95	905.79
377.15	882.38
377.35	889.40
377.54	877.70
377.74	959.62
377.93	917.49
378.13	933.87
378.33	980.68
378.52	882.38
378.72	1013.45
378.91	978.34
379.11	945.58
379.31	863.66
379.50	994.73
379.70	1015.79
379.89	1018.13
380.09	894.08
380.28	1071.97
380.48	1013.45
380.68	978.34
380.87	973.66
381.07	1060.26
381.26	1090.69
381.46	1008.77
381.65	978.34
381.85	1083.67
382.04	992.39
382.24	1055.58
382.43	1069.62
382.63	1104.73
382.83	1095.37
383.02	1090.69
383.22	1196.01
383.41	1055.58
383.61	1153.88
383.80	1093.03
384.00	1198.35
384.19	1093.03
384.39	1125.80
384.58	1076.65
384.78	1247.51
384.97	1177.29
385.17	1165.59
385.36	1048.56
385.56	1181.97
385.75	1219.42
385.95	1224.10
386.14	1226.44
386.34	1125.80
386.53	1219.42
386.72	1203.04
386.92	1174.95
387.11	1207.72
387.31	1280.27
387.50	1287.29
387.70	1231.12
387.89	1277.93
388.09	1238.14
388.28	1284.95
388.48	1228.78
388.67	1308.36
388.86	1378.58
389.06	1303.68
389.25	1324.74
389.45	1331.76
389.64	1266.23
389.84	1406.66
390.03	1455.81
390.22	1348.15
390.42	1373.89
390.61	1371.55
390.81	1355.17
391.00	1399.64
391.19	1479.22
391.39	1397.30
391.58	1476.88
391.78	1413.68
391.97	1453.47
392.16	1355.17
392.36	1465.18
392.55	1455.81
392.75	1577.52
392.94	1629.01
393.13	1535.39
393.33	1521.35
393.52	1570.50
393.71	1626.67
393.91	1582.20
394.10	1540.07
394.29	1472.20
394.49	1453.47
394.68	1528.37
394.88	1629.01
395.07	1589.22
395.26	1647.74
395.46	1708.59
395.65	1724.97
395.84	1795.19
396.04	1802.21
396.23	1713.27
396.42	1652.42
396.62	1774.13
396.81	1790.51
397.00	1778.81
397.19	1746.04
397.39	1736.68
397.58	1860.73
397.77	1727.32
397.97	1820.94
398.16	1846.68
398.35	1900.52
398.55	1818.60
398.74	1827.96
398.93	2001.16
399.12	1933.28
399.32	1919.24
399.51	1952.01
399.70	1984.77
399.90	1954.35
400.09	2038.61
400.28	2031.58
400.47	1956.69
400.67	2179.04
400.86	2008.18
401.05	1984.77
401.24	2141.59
401.44	2176.70
401.63	2115.84
401.82	2052.65
402.01	2083.08
402.21	2179.04
402.40	2179.04
402.59	2176.70
402.78	2314.79
402.97	2174.36
403.17	2265.64
403.36	2239.89
403.55	2230.53
403.74	2179.04
403.93	2312.45
404.13	2293.72
404.32	2380.32
404.51	2310.11
404.70	2375.64
404.89	2363.94
405.09	2413.09
405.28	2389.69
405.47	2495.01
405.66	2511.39
405.85	2562.89
406.05	2478.63
406.24	2539.48
406.43	2504.37
406.62	2698.64
406.81	2619.06
407.00	2597.99
407.20	2619.06
407.39	2560.55
407.58	2719.70
407.77	2715.02
407.96	2759.49
408.15	2745.45
408.34	2708.00
408.54	2928.01
408.73	2733.75
408.92	2738.43
409.11	2930.35
409.30	2836.73
409.49	2977.16
409.68	2984.18
409.87	2897.58
410.07	3049.72
410.26	2869.50
410.45	3056.74
410.64	3133.98
410.83	3009.93
411.02	3063.76
411.21	3162.06
411.40	3103.55
411.59	3194.83
411.78	3133.98
411.98	3234.62
412.17	3318.88
412.36	3283.77
412.55	3332.92
412.74	3419.52
412.93	3412.50
413.12	3447.61
413.31	3541.23
413.50	3365.69
413.69	3438.25
413.88	3585.70
414.07	3653.58
414.26	3705.07
414.45	3627.83
414.64	3658.26
414.83	3747.20
415.02	3627.83
415.22	3824.44
415.41	3740.18
415.60	3775.28
415.79	3782.31
415.98	3946.14
416.17	3988.27
416.36	3922.74
416.55	3950.82
416.74	4018.70
416.93	4098.28
417.12	4086.58
417.31	4084.23
417.50	4163.81
417.69	4355.74
417.88	4215.30
418.07	4114.66
418.26	4306.59
418.45	4322.97
418.64	4421.27
418.83	4306.59
419.02	4266.80
419.21	4456.38
419.39	4547.66
419.58	4542.98
419.77	4374.46
419.96	4524.26
420.15	4557.02
420.34	4505.53
420.53	4496.17
420.72	4571.07
420.91	4711.50
421.10	4643.62
421.29	4652.98
421.48	4758.31
421.67	4695.11
421.86	4727.88
422.05	4753.63
422.24	4858.95
422.43	4821.50
422.61	4755.97
422.80	5160.88
422.99	4873.00
423.18	4985.34
423.37	4861.29
423.56	4987.68
423.75	4791.08
423.94	4772.35
424.13	4503.19
424.32	4741.93
424.50	4896.40
424.69	5062.58
424.88	5078.96
425.07	4933.85
425.26	4943.21
425.45	5095.35
425.64	4978.32
425.83	5025.13
426.01	5062.58
426.20	5018.11
426.39	5214.71
426.58	4898.74
426.77	5097.69
426.96	5095.35
427.15	5153.86
427.33	5177.26
427.52	5034.49
427.71	5198.33
427.90	5268.55
428.09	5455.79
428.28	5212.37
428.46	5315.36
428.65	5322.38
428.84	5535.37
429.03	5645.37
429.22	5371.53
429.40	5423.02
429.59	5446.43
429.78	5291.95
429.97	5252.16
430.16	5526.00
430.34	5577.50
430.53	5540.05
430.72	5540.05
430.91	5682.82
431.10	5495.58
431.28	5792.83
431.47	5743.67
431.66	5783.46
431.85	5767.08
432.03	5947.30
432.22	5902.83
432.41	5921.56
432.60	5851.34
432.79	5898.15
432.97	6038.58
433.16	5977.73
433.35	5977.73
433.54	5975.39
433.72	6214.12
433.91	6059.65
434.10	6108.80
434.28	6122.84
434.47	6108.80
434.66	6167.31
434.85	6216.46
435.03	6258.59
435.22	6333.49
435.41	6445.84
435.59	6340.51
435.78	6565.20
435.97	6324.13
436.16	6445.84
436.34	6277.32
436.53	6504.35
436.72	6530.09
436.90	6450.52
437.09	6630.74
437.28	6527.75
437.46	6452.86
437.65	6579.25
437.84	6726.70
438.02	6724.36
438.21	6686.91
438.40	6567.54
438.58	6810.96
438.77	7164.38
438.96	6750.10
439.14	6979.48
439.33	7197.15
439.52	7070.76
439.70	7208.85
439.89	7033.31
440.08	7356.30
440.26	7426.52
440.45	7190.13
440.63	7304.81
440.82	7606.74
441.01	7440.56
441.19	7510.78
441.38	7651.21
441.57	7688.66
441.75	7899.31
441.94	8046.76
442.12	8161.45
442.31	7946.12
442.50	8109.96
442.68	7911.01
442.87	8131.02
443.05	8018.68
443.24	8147.40
443.43	8107.62
443.61	8004.63
443.80	8411.89
443.98	8030.38
444.17	7831.43
444.35	8016.33
444.54	8248.05
444.73	8131.02
444.91	8257.41
445.10	8250.39
445.28	8411.89
445.47	8191.88
445.65	8278.47
445.84	8210.60
446.02	8451.67
446.21	8538.27
446.39	8468.06
446.58	8568.70
446.77	8306.56
446.95	8315.92
447.14	8252.73
447.32	8512.53
447.51	8442.31
447.69	8292.52
447.88	8517.21
448.06	8493.80
448.25	8461.04
448.43	8547.64
448.62	8442.31
448.80	8512.53
448.99	8650.62
449.17	8718.50
449.36	8566.36
449.54	8952.55
449.73	8863.61
449.91	8929.14
450.10	8922.12
450.28	9071.92
450.46	9057.87
450.65	9076.60
450.83	8985.32
451.02	8978.30
451.20	9029.79
451.39	9137.45
451.57	9039.15
451.76	9029.79
451.94	9130.43
452.13	9256.82
452.31	9490.87
452.49	9041.49
452.68	9383.21
452.86	9474.49
453.05	9355.12
453.23	9593.86
453.42	9291.93
453.60	9235.75
453.78	9390.23
453.97	9336.40
454.15	9427.68
454.34	9458.10
454.52	9556.41
454.70	9802.16
454.89	9586.83
455.07	9827.91
455.26	9720.24
455.44	9886.42
455.62	9856.00
455.81	9827.91
455.99	10087.71
456.17	10115.80
456.36	9961.32
456.54	10317.08
456.73	10265.59
456.91	10333.47
457.09	10349.85
457.28	10698.59
457.46	10218.78
457.64	10335.81
457.83	10471.56
458.01	10452.83
458.19	10764.12
458.38	10429.43
458.56	10675.18
458.74	10750.08
458.93	10551.14
459.11	10637.73
459.29	10799.23
459.48	10773.49
459.66	10857.75
459.84	10848.38
460.03	11016.90
460.21	11070.73
460.39	11066.05
460.57	11047.33
460.76	11129.25
460.94	11379.68
461.12	11089.46
461.31	11241.59
461.49	11075.42
461.67	11152.65
461.85	11407.77
462.04	11262.66
462.22	11602.04
462.40	11489.69
462.59	11492.03
462.77	11349.26
462.95	11758.85
463.13	11442.88
463.32	11688.64
463.50	11852.47
463.68	11742.47
463.86	11737.79
464.05	11838.43
464.23	11730.76
464.41	11770.55
464.59	11712.04
464.78	12343.99
464.96	11688.64
465.14	11754.17
465.32	12037.38
465.50	12142.70
465.69	12147.38
465.87	12170.79
466.05	12187.17
466.23	12276.11
466.41	12297.17
466.60	12461.01
466.78	12126.32
466.96	12163.76
467.14	12259.73
467.32	12301.86
467.51	12606.13
467.69	12070.14
467.87	12402.50
468.05	12477.40
468.23	12348.67
468.41	12545.27
468.60	12510.16
468.78	12606.13
468.96	12468.03
469.14	12814.43
469.32	13114.02
469.50	12627.19
469.69	13097.64
469.87	12980.61
470.05	13174.88
470.23	13165.51
470.41	13099.98
470.59	13132.75
470.77	13118.70
470.95	13209.98
471.14	13500.21
471.32	13053.17
471.50	13483.83
471.68	13547.02
471.86	13666.39
472.04	13584.47
472.22	14031.51
472.40	13696.82
472.58	13795.12
472.77	13956.61
472.95	14207.05
473.13	14537.07
473.31	13968.32
473.49	14239.82
473.67	14045.55
473.85	14317.06
474.03	14661.12
474.21	14747.72
474.39	14693.88
474.57	14546.43
474.75	14675.16
474.93	14965.39
475.12	14946.66
475.30	15374.98
475.48	14895.17
475.66	15316.47
475.84	15054.33
476.02	15475.62
476.20	15410.09
476.38	15578.61
476.56	16027.99
476.74	15964.79
476.92	15845.43
477.10	15697.97
477.28	16170.76
477.46	15943.73
477.64	15936.71
477.82	16273.74
478.00	16856.54
478.18	16613.12
478.36	16791.00
478.54	17053.14
478.72	17231.02
478.90	17542.32
479.08	17305.92
479.26	17446.35
479.44	17577.42
479.62	17589.13
479.80	17612.53
479.98	18108.72
480.16	18560.45
480.34	18085.32
480.52	18525.34
480.70	18228.09
480.88	18279.58
481.06	18827.27
481.24	18843.65
481.41	19054.30
481.59	19269.63
481.77	19339.85
481.95	19749.44
482.13	19878.17
482.31	19403.04
482.49	20063.07
482.67	20060.73
482.85	20725.44
483.03	20369.68
483.21	20786.30
483.39	20868.22
483.57	20790.98
483.74	21055.46
483.92	20961.84
484.10	21242.70
484.28	21635.91
484.46	21867.63
484.64	22284.24
484.82	22178.92
485.00	22419.99
485.18	22630.64
485.35	22679.79
485.53	22838.95
485.71	23035.55
485.89	23447.49
486.07	23028.53
486.25	23358.55
486.43	23580.90
486.61	23756.44
486.78	24215.18
486.96	23868.78
487.14	24325.19
487.32	24439.87
487.50	24788.61
487.68	24980.54
487.85	24807.34
488.03	25530.56
488.21	26019.74
488.39	25544.61
488.57	26101.65
488.75	25961.22
488.92	26455.08
489.10	26572.10
489.28	26742.96
489.46	27101.06
489.64	26878.71
489.81	27812.59
489.99	27840.67
490.17	27391.29
490.35	27763.43
490.53	28236.22
490.70	28379.00
490.88	28205.80
491.06	28304.10
491.24	28531.13
491.41	28947.75
491.59	29193.50
491.77	29163.08
491.95	29572.67
492.13	29738.85
492.30	29869.92
492.48	30094.61
492.66	29890.98
492.84	29876.94
493.01	30892.73
493.19	30450.37
493.37	30611.87
493.54	30878.69
493.72	31215.72
493.90	31321.05
494.08	31761.07
494.25	31927.25
494.43	31840.65
494.61	32144.92
494.79	32458.55
494.96	32615.37
495.14	32779.20
495.32	33022.62
495.49	33031.98
495.67	32917.29
495.85	33544.56
496.02	33710.74
496.20	33982.24
496.38	33699.03
496.55	34192.89
496.73	34820.15
496.91	34295.87
497.09	34506.52
497.26	34862.28
497.44	34913.77
497.62	35489.54
497.79	35981.06
497.97	35264.85
498.14	35658.06
498.32	35899.14
498.50	36041.91
498.67	36428.10
498.85	36479.59
499.03	36320.43
499.20	36449.16
499.38	36907.91
499.56	36952.38
499.73	36847.05
499.91	37329.20
500.08	37708.37
500.26	37399.42
500.44	37558.58
500.61	37703.69
500.79	37525.81
500.97	37968.17
501.14	38508.83
501.32	38316.91
501.49	38691.40
501.67	38464.36
501.84	38899.70
502.02	38829.49
502.20	38759.27
502.37	38857.57
502.55	39096.31
502.72	39321.00
502.90	39316.32
503.07	39524.63
503.25	39983.37
503.43	39583.14
503.60	39613.57
503.78	39971.67
503.95	40327.43
504.13	40421.05
504.30	40725.32
504.48	40666.81
504.65	40638.72
504.83	40924.27
505.01	41174.70
505.18	41081.08
505.36	40865.75
505.53	41064.70
505.71	41869.84
505.88	41888.57
506.06	41460.25
506.23	41689.62
506.41	41394.71
506.58	41696.64
506.76	41778.56
506.93	42321.57
507.11	41879.21
507.28	42309.86
507.46	42387.10
507.63	42398.80
507.81	42937.13
507.98	42836.48
508.16	43065.86
508.33	43084.58
508.50	43456.73
508.68	43423.96
508.85	43590.14
509.03	43639.29
509.20	43648.65
509.38	44453.79
509.55	44161.23
509.73	44343.79
509.90	44355.49
510.08	44463.16
510.25	44608.27
510.42	44809.56
510.60	45055.31
510.77	44989.78
510.95	45427.46
511.12	44594.23
511.30	45003.82
511.47	45574.91
511.64	45333.84
511.82	45806.62
511.99	45523.42
512.17	45422.78
512.34	45668.53
512.51	45713.00
512.69	45834.71
512.86	46012.59
513.04	46328.56
513.21	46529.85
513.38	46733.48
513.56	47138.39
513.73	46651.56
513.90	47224.99
514.08	46799.01
514.25	47409.89
514.43	47381.80
514.60	47152.43
514.77	47206.26
514.95	47152.43
515.12	47566.71
515.29	47353.72
515.47	48002.05
515.64	48231.42
515.81	47957.58
515.99	48128.44
516.16	48135.46
516.33	48409.30
516.51	48526.33
516.68	48624.63
516.85	48346.11
517.03	48683.14
517.20	48828.26
517.37	48727.61
517.54	48556.75
517.72	48648.03
517.89	48896.13
518.06	49181.68
518.24	49078.69
518.41	48718.25
518.58	49139.55
518.75	49153.59
518.93	49532.76
519.10	49806.60
519.27	49764.47
519.45	49673.19
519.62	49853.41
519.79	49918.95
519.96	49886.18
520.14	50234.92
520.31	50164.70
520.48	50394.07
520.65	50218.53
520.83	50473.65
521.00	50433.86
521.17	50295.77
521.34	50468.97
521.52	50705.37
521.69	51007.29
521.86	50904.31
522.03	51014.32
522.20	51023.68
522.38	51079.85
522.55	50925.38
522.72	50855.16
522.89	50892.61
523.07	51449.66
523.24	51239.01
523.41	51688.39
523.58	51201.56
523.75	51744.56
523.92	51657.96
524.10	51664.99
524.27	52041.81
524.44	51821.80
524.61	51753.93
524.78	52119.05
524.96	51957.55
525.13	52116.71
525.30	52418.64
525.47	52339.06
525.64	52193.95
525.81	52568.43
525.98	52648.01
526.16	52781.42
526.33	52491.19
526.50	52872.70
526.67	52725.25
526.84	52853.98
527.01	52921.85
527.18	52832.91
527.36	52884.40
527.53	52844.62
527.70	53282.30
527.87	53162.93
528.04	53174.63
528.21	53244.85
528.38	52938.24
528.55	53249.53
528.72	53296.34
528.89	53312.72
529.07	53249.53
529.24	53324.43
529.41	53588.91
529.58	53495.28
529.75	53474.22
529.92	53865.09
530.09	53893.18
530.26	54136.59
530.43	53659.12
530.60	53614.65
530.77	53614.65
530.94	54115.53
531.11	54021.90
531.28	53951.69
531.46	54035.95
531.63	54213.83
531.80	53860.41
531.97	54323.83
532.14	54443.20
532.31	54319.15
532.48	54218.51
532.65	54616.40
532.82	54260.64
532.99	54712.36
533.16	54494.69
533.33	54578.95
533.50	54695.98
533.67	54590.66
533.84	54810.67
534.01	54773.22
534.18	54880.88
534.35	55379.42
534.52	54911.31
534.69	55058.76
534.86	55316.22
535.03	55187.49
535.20	54958.12
535.37	55395.80
535.54	55152.38
535.71	55299.84
535.88	55391.12
536.05	55323.24
536.22	55463.67
536.38	55524.53
536.55	55566.66
536.72	55494.10
536.89	55564.32
537.06	55440.27
537.23	55735.18
537.40	55435.59
537.57	55704.75
537.74	55758.58
537.91	55737.52
538.08	55800.71
538.25	55819.44
538.42	55774.97
538.59	56053.49
538.75	55978.59
538.92	55854.54
539.09	56016.04
539.26	56076.90
539.43	55952.85
539.60	56369.46
539.77	56062.85
539.94	56472.45
540.11	56037.11
540.28	56385.85
540.44	56212.65
540.61	56364.78
540.78	56317.97
540.95	56315.63
541.12	56226.69
541.29	56479.47
541.46	56315.63
541.62	56460.74
541.79	56568.41
541.96	56339.04
542.13	56671.39
542.30	56587.13
542.47	56711.18
542.63	56680.75
542.80	56961.62
542.97	56839.91
543.14	57095.03
543.31	57036.51
543.48	57333.76
543.64	57387.60
543.81	57045.88
543.98	57270.57
544.15	57354.83
544.32	57394.62
544.48	57462.49
544.65	57319.72
544.82	57249.50
544.99	57242.48
545.16	57656.76
545.32	57261.21
545.49	57722.29
545.66	57696.55
545.83	57443.77
546.00	57832.30
546.16	57670.80
546.33	57389.94
546.50	57462.49
546.67	57719.95
546.83	57329.08
547.00	57481.22
547.17	57797.19
547.34	57579.52
547.50	57982.09
547.67	57961.03
547.84	58005.50
548.00	58089.76
548.17	58293.38
548.34	57982.09
548.51	58300.40
548.67	58288.70
548.84	58232.53
549.01	57958.69
549.18	58078.05
549.34	58178.70
549.51	58202.10
549.68	58056.99
549.84	58115.50
550.01	58340.19
550.18	58312.11
550.34	58494.67
550.51	58658.51
550.68	58387.00
550.84	57968.05
551.01	58529.78
551.18	58206.78
551.34	58529.78
551.51	58504.03
551.68	58665.53
551.84	58267.64
552.01	58356.58
552.18	58585.95
552.34	58494.67
552.51	58688.93
552.68	58110.82
552.84	58590.63
553.01	58653.82
553.18	59096.19
553.34	58803.62
553.51	58698.30
553.67	58618.72
553.84	58852.77
554.01	58869.15
554.17	58997.88
554.34	58836.39
554.51	58995.54
554.67	58913.62
554.84	58834.05
555.00	58848.09
555.17	58724.04
555.33	58897.24
555.50	58810.64
555.67	58941.71
555.83	58972.14
556.00	59035.33
556.16	59325.56
556.33	59138.32
556.50	59107.89
556.66	59292.79
556.83	58906.60
556.99	59388.75
557.16	59327.90
557.32	59302.15
557.49	59695.36
557.65	59253.00
557.82	59323.22
557.98	59182.79
558.15	59250.66
558.32	59381.73
558.48	59210.87
558.65	59540.89
558.81	59409.82
558.98	59131.29
559.14	59353.65
559.31	59391.09
559.47	59571.32
559.64	59786.64
559.80	59671.96
559.97	59721.11
560.13	59657.91
560.30	59767.92
560.46	59688.34
560.63	59746.86
560.79	59798.35
560.96	59753.88
561.12	59620.47
561.29	59767.92
561.45	59594.72
561.61	59817.07
561.78	59744.51
561.94	59559.61
562.11	59632.17
562.27	59859.20
562.44	59847.50
562.60	59917.71
562.77	59913.03
562.93	59788.98
563.10	59994.95
563.26	59887.29
563.42	59887.29
563.59	59861.54
563.75	59831.11
563.92	59985.59
564.08	59891.97
564.24	59877.93
564.41	59973.89
564.57	59863.88
564.74	59927.08
564.90	60156.45
565.07	59992.61
565.23	60161.13
565.39	59966.87
565.56	60207.94
565.72	60154.11
565.88	60158.79
566.05	59936.44
566.21	60013.68
566.38	60191.56
566.54	60165.81
566.70	60427.95
566.87	60240.71
567.03	59966.87
567.19	60243.05
567.36	60034.74
567.52	60182.19
567.68	60554.34
567.85	60306.24
568.01	60381.14
568.17	60306.24
568.34	60238.37
568.50	60224.32
568.66	60252.41
568.83	60217.30
568.99	60343.69
569.15	60460.72
569.32	60266.45
569.48	60231.35
569.64	60554.34
569.81	60172.83
569.97	60296.88
570.13	60463.06
570.30	60219.64
570.46	60467.74
570.62	60285.18
570.78	60259.43
570.95	60154.11
571.11	60437.31
571.27	60406.89
571.43	60495.83
571.60	60582.43
571.76	60399.86
571.92	60575.40
572.09	60542.64
572.25	60423.27
572.41	60559.02
572.57	60570.72
572.74	60683.07
572.90	60582.43
573.06	60615.19
573.22	60481.78
573.38	60610.51
573.55	60554.34
573.71	60884.36
573.87	60657.32
574.03	60460.72
574.20	60666.69
574.36	60549.66
574.52	60687.75
574.68	60626.90
574.84	60860.95
575.01	60713.50
575.17	60640.94
575.33	60729.88
575.49	60444.33
575.65	60598.81
575.82	60633.92
575.98	60750.94
576.14	60743.92
576.30	60767.33
576.46	60825.84
576.62	60636.26
576.79	60828.18
576.95	60434.97
577.11	60863.29
577.27	60647.96
577.43	60743.92
577.59	60626.90
577.75	60622.22
577.92	60598.81
578.08	60762.65
578.24	60797.76
578.40	60919.46
578.56	60640.94
578.72	60736.90
578.88	60727.54
579.04	60882.02
579.21	60743.92
579.37	60849.25
579.53	60830.52
579.69	60760.31
579.85	60839.89
580.01	60898.40
580.17	60528.59
580.33	60968.61
580.49	60865.63
580.65	60914.78
580.82	60678.39
580.98	60652.64
581.14	60748.60
581.30	60924.14
581.46	60874.99
581.62	60912.44
581.78	60732.22
581.94	60863.29
582.10	60755.63
582.26	60830.52
582.42	60657.32
582.58	60926.49
582.74	60587.11
582.90	60889.04
583.06	60816.48
583.22	60549.66
583.38	60940.53
583.54	60938.19
583.70	60938.19
583.86	60910.10
584.02	60566.04
584.18	60893.72
584.34	60896.06
584.50	60985.00
584.66	60816.48
584.82	60760.31
584.98	61027.13
585.14	61052.87
585.30	60896.06
585.46	61015.43
585.62	60961.59
585.78	60968.61
585.94	60748.60
586.10	61008.40
586.26	60835.20
586.42	61139.47
586.58	61181.60
586.74	61167.56
586.90	61008.40
587.06	60830.52
587.22	61179.26
587.38	61087.98
587.54	61179.26
587.70	61233.10
587.86	61006.06
588.02	60973.30
588.18	61146.50
588.34	61324.38
588.49	61151.18
