SpectraSuite Data File
++++++++++++++++++++++++++++++++++++
Date: Fri Oct 25 11:25:24 EDT 2013
User: price-jones
Dark Spectrum Present: No
Reference Spectrum Present: No
Number of Sampled Component Spectra: 1
Spectrometers: USB2+H05261
Integration Time (usec): 100000 (USB2+H05261)
Spectra Averaged: 1 (USB2+H05261)
Boxcar Smoothing: 0 (USB2+H05261)
Correct for Electrical Dark: No (USB2+H05261)
Strobe/Lamp Enabled: No (USB2+H05261)
Correct for Detector Non-linearity: No (USB2+H05261)
Correct for Stray Light: No (USB2+H05261)
Number of Pixels in Processed Spectrum: 2048
>>>>>Begin Processed Spectral Data<<<<<
365.73	271.50
365.92	271.50
366.12	271.50
366.32	170.86
366.52	159.16
366.72	154.48
366.91	138.09
367.11	110.01
367.31	98.30
367.51	142.77
367.70	191.92
367.90	138.09
368.10	126.39
368.30	117.03
368.49	131.07
368.69	212.99
368.89	208.31
369.09	119.37
369.28	124.05
369.48	149.79
369.68	273.84
369.87	215.33
370.07	210.65
370.27	243.42
370.47	318.31
370.66	566.41
370.86	573.43
371.06	641.31
371.25	706.84
371.45	638.97
371.65	685.78
371.84	660.03
372.04	699.82
372.24	758.33
372.44	641.31
372.63	709.18
372.83	739.61
373.03	800.46
373.22	713.86
373.42	760.67
373.62	753.65
373.81	770.04
374.01	847.27
374.21	866.00
374.40	746.63
374.60	809.83
374.79	781.74
374.99	826.21
375.19	851.96
375.38	851.96
375.58	882.38
375.78	828.55
375.97	959.62
376.17	844.93
376.37	891.74
376.56	901.11
376.76	976.00
376.95	828.55
377.15	922.17
377.35	945.58
377.54	898.77
377.74	952.60
377.93	940.90
378.13	837.91
378.33	959.62
378.52	880.04
378.72	922.17
378.91	943.24
379.11	837.91
379.31	1041.54
379.50	945.58
379.70	976.00
379.89	1043.88
380.09	912.81
380.28	938.55
380.48	929.19
380.68	908.13
380.87	973.66
381.07	999.41
381.26	1034.52
381.46	940.90
381.65	1111.75
381.85	1027.50
382.04	1071.97
382.24	1022.81
382.43	1048.56
382.63	950.26
382.83	1041.54
383.02	1123.46
383.22	1078.99
383.41	1050.90
383.61	1114.10
383.80	1102.39
384.00	1156.22
384.19	1146.86
384.39	1135.16
384.58	1160.91
384.78	1146.86
384.97	1109.41
385.17	1149.20
385.36	1139.84
385.56	1196.01
385.75	1081.33
385.95	1198.35
386.14	1170.27
386.34	1224.10
386.53	1214.74
386.72	1205.38
386.92	1191.33
387.11	1203.04
387.31	1193.67
387.50	1273.25
387.70	1247.51
387.89	1289.64
388.09	1179.63
388.28	1219.42
388.48	1313.04
388.67	1256.87
388.86	1256.87
389.06	1373.89
389.25	1289.64
389.45	1348.15
389.64	1306.02
389.84	1448.79
390.03	1345.81
390.22	1341.13
390.42	1350.49
390.61	1357.51
390.81	1409.00
391.00	1472.20
391.19	1434.75
391.39	1425.39
391.58	1467.52
391.78	1535.39
391.97	1423.05
392.16	1423.05
392.36	1430.07
392.55	1519.01
392.75	1556.46
392.94	1446.45
393.13	1526.03
393.33	1591.56
393.52	1570.50
393.71	1661.78
393.91	1514.33
394.10	1509.65
394.29	1643.06
394.49	1556.46
394.68	1654.76
394.88	1558.80
395.07	1767.10
395.26	1643.06
395.46	1661.78
395.65	1767.10
395.84	1724.97
396.04	1778.81
396.23	1703.91
396.42	1748.38
396.62	1769.44
396.81	1764.76
397.00	1767.10
397.19	1713.27
397.39	1741.36
397.58	1727.32
397.77	1783.49
397.97	1837.32
398.16	1893.49
398.35	1776.47
398.55	1952.01
398.74	1858.39
398.93	1914.56
399.12	1870.09
399.32	1905.20
399.51	1959.03
399.70	2132.23
399.90	2017.54
400.09	2017.54
400.28	2040.95
400.47	2094.78
400.67	2047.97
400.86	2038.61
401.05	2125.21
401.24	1984.77
401.44	2094.78
401.63	2143.93
401.82	2169.68
402.01	2136.91
402.21	2232.87
402.40	2160.31
402.59	2125.21
402.78	2251.60
402.97	2223.51
403.17	2237.55
403.36	2228.19
403.55	2366.28
403.74	2342.88
403.93	2335.85
404.13	2359.26
404.32	2399.05
404.51	2324.15
404.70	2396.71
404.89	2394.37
405.09	2499.69
405.28	2574.59
405.47	2495.01
405.66	2443.52
405.85	2621.40
406.05	2473.95
406.24	2527.78
406.43	2452.88
406.62	2483.31
406.81	2647.15
407.00	2572.25
407.20	2555.86
407.39	2717.36
407.58	2726.72
407.77	2818.00
407.96	2684.59
408.15	2747.79
408.34	2672.89
408.54	2773.53
408.73	2679.91
408.92	2736.09
409.11	2827.37
409.30	2768.85
409.49	2939.71
409.68	2878.86
409.87	2820.35
410.07	2918.65
410.26	2970.14
410.45	3084.83
410.64	3035.67
410.83	3077.80
411.02	3038.02
411.21	3066.10
411.40	3148.02
411.59	3276.75
411.78	3288.45
411.98	3171.43
412.17	3309.52
412.36	3307.18
412.55	3330.58
412.74	3407.82
412.93	3349.31
413.12	3365.69
413.31	3487.40
413.50	3435.91
413.69	3531.87
413.88	3604.42
414.07	3562.30
414.26	3644.21
414.45	3611.45
414.64	3641.87
414.83	3803.37
415.02	3672.30
415.22	3953.16
415.41	3871.25
415.60	3784.65
415.79	3796.35
415.98	3906.35
416.17	4011.68
416.36	3941.46
416.55	4077.21
416.74	4138.07
416.93	4023.38
417.12	4133.39
417.31	4208.28
417.50	4154.45
417.69	4311.27
417.88	4264.46
418.07	4259.78
418.26	4105.30
418.45	4227.01
418.64	4374.46
418.83	4428.29
419.02	4404.89
419.21	4470.42
419.39	4528.94
419.58	4383.82
419.77	4318.29
419.96	4493.83
420.15	4540.64
420.34	4636.60
420.53	4507.87
420.72	4645.96
420.91	4676.39
421.10	4737.24
421.29	4709.16
421.48	4636.60
421.67	4734.90
421.86	4730.22
422.05	4856.61
422.24	4889.38
422.43	4821.50
422.61	4844.91
422.80	4922.15
422.99	4954.91
423.18	4912.78
423.37	5032.15
423.56	4863.63
423.75	4840.23
423.94	4678.73
424.13	4608.51
424.32	4800.44
424.50	4844.91
424.69	4954.91
424.88	4905.76
425.07	4997.04
425.26	4917.47
425.45	5032.15
425.64	4945.55
425.83	4856.61
426.01	4889.38
426.20	4873.00
426.39	4891.72
426.58	5004.07
426.77	4943.21
426.96	5060.24
427.15	5076.62
427.33	5163.22
427.52	5233.44
427.71	5221.74
427.90	5188.97
428.09	5266.21
428.28	5254.50
428.46	5338.76
428.65	5331.74
428.84	5514.30
429.03	5261.52
429.22	5273.23
429.40	5465.15
429.59	5479.19
429.78	5184.29
429.97	5266.21
430.16	5514.30
430.34	5636.01
430.53	5509.62
430.72	5797.51
430.91	5554.09
431.10	5565.79
431.28	5479.19
431.47	5874.74
431.66	5710.91
431.85	5703.89
432.03	5858.36
432.22	5968.37
432.41	5652.39
432.60	5708.57
432.79	5888.79
432.97	5872.40
433.16	5867.72
433.35	5940.28
433.54	5954.32
433.72	6024.54
433.91	6045.60
434.10	6040.92
434.28	5975.39
434.47	6272.64
434.66	6012.84
434.85	6200.08
435.03	6176.67
435.22	6015.18
435.41	6300.72
435.59	6384.98
435.78	6282.00
435.97	6373.28
436.16	6321.79
436.34	6335.83
436.53	6342.85
436.72	6670.53
436.90	6406.05
437.09	6520.73
437.28	6469.24
437.46	6520.73
437.65	6551.16
437.84	6640.10
438.02	6712.66
438.21	6696.27
438.40	6693.93
438.58	6939.69
438.77	6970.12
438.96	6855.43
439.14	7063.74
439.33	7272.04
439.52	7241.62
439.70	7061.40
439.89	7281.41
440.08	7159.70
440.26	7222.89
440.45	7482.69
440.63	7360.98
440.82	7634.83
441.01	7627.81
441.19	7709.72
441.38	7573.97
441.57	7480.35
441.75	7873.56
441.94	7826.75
442.12	7908.67
442.31	7796.32
442.50	7875.90
442.68	7985.91
442.87	7946.12
443.05	7927.39
443.24	8203.58
443.43	8105.28
443.61	8145.06
443.80	8339.33
443.98	8074.85
444.17	7847.82
444.35	8098.25
444.54	8285.50
444.73	8067.83
444.91	8077.19
445.10	8180.17
445.28	8290.18
445.47	8135.70
445.65	8262.09
445.84	8461.04
446.02	8477.42
446.21	8592.11
446.39	8355.71
446.58	8512.53
446.77	8376.78
446.95	8259.75
447.14	8222.30
447.32	8397.84
447.51	8273.79
447.69	8236.35
447.88	8432.95
448.06	8524.23
448.25	8486.78
448.43	8456.36
448.62	8304.22
448.80	8601.47
448.99	8709.13
449.17	8744.24
449.36	8421.25
449.54	8732.54
449.73	8964.25
449.91	9067.24
450.10	8940.85
450.28	8882.33
450.46	8971.27
450.65	9027.45
450.83	9078.94
451.02	9013.40
451.20	9083.62
451.39	9191.28
451.57	9158.52
451.76	8961.91
451.94	9287.25
452.13	9280.22
452.31	9355.12
452.49	9177.24
452.68	9397.25
452.86	9277.88
453.05	9334.06
453.23	9324.69
453.42	9275.54
453.60	9259.16
453.78	9525.98
453.97	9287.25
454.15	9453.42
454.34	9392.57
454.52	9518.96
454.70	9406.61
454.89	9748.33
455.07	9603.22
455.26	9474.49
455.44	9935.57
455.62	9729.61
455.81	9713.22
455.99	9935.57
456.17	10057.28
456.36	10043.24
456.54	10148.56
456.73	10260.91
456.91	10466.88
457.09	10427.09
457.28	10490.28
457.46	10310.06
457.64	10532.41
457.83	10469.22
458.01	10586.24
458.19	10516.03
458.38	10382.62
458.56	10537.09
458.74	10530.07
458.93	10415.38
459.11	10464.54
459.29	10717.31
459.48	10466.88
459.66	10813.28
459.84	10595.61
460.03	11164.36
460.21	10876.47
460.39	10857.75
460.57	10815.62
460.76	10920.94
460.94	10944.34
461.12	11304.79
461.31	11066.05
461.49	10995.84
461.67	11044.99
461.85	11400.75
462.04	11346.92
462.22	11702.68
462.40	11803.32
462.59	11580.97
462.77	11358.62
462.95	11501.39
463.13	11400.75
463.32	11309.47
463.50	11590.33
463.68	11733.11
463.86	11534.16
464.05	11555.22
464.23	11559.91
464.41	11985.88
464.59	11693.32
464.78	11896.94
464.96	12009.29
465.14	11712.04
465.32	11737.79
465.50	12126.32
465.69	12257.39
465.87	12210.57
466.05	11934.39
466.23	12063.12
466.41	12004.61
466.60	12393.14
466.78	12046.74
466.96	12233.98
467.14	12004.61
467.32	12390.80
467.51	12390.80
467.69	12028.01
467.87	12390.80
468.05	12489.10
468.23	12154.40
468.41	12292.49
468.60	12484.42
468.78	12723.15
468.96	12540.59
469.14	12629.53
469.32	13039.12
469.50	12556.97
469.69	12926.78
469.87	12896.35
470.05	13004.02
470.23	13132.75
470.41	13413.61
470.59	13301.26
470.77	13004.02
470.95	13118.70
471.14	13345.73
471.32	12985.29
471.50	13411.27
471.68	13528.30
471.86	13399.57
472.04	13685.11
472.22	14031.51
472.40	13509.57
472.58	13827.88
472.77	13811.50
472.95	13998.74
473.13	14380.25
473.31	14052.58
473.49	14232.80
473.67	13853.63
473.85	14080.66
474.03	14361.53
474.21	14520.68
474.39	14574.52
474.57	14424.72
474.75	14743.03
474.93	14874.10
475.12	14890.49
475.30	14864.74
475.48	14831.97
475.66	15253.27
475.84	14860.06
476.02	15154.97
476.20	15365.62
476.38	15583.29
476.56	15712.02
476.74	15676.91
476.92	15704.99
477.10	15613.71
477.28	16035.01
477.46	15988.20
477.64	16329.92
477.82	16500.78
478.00	16809.73
478.18	16830.79
478.36	16624.83
478.54	16842.50
478.72	16842.50
478.90	17294.22
479.08	17282.52
479.26	17598.49
479.44	17806.80
479.62	17905.10
479.80	17827.86
479.98	18005.74
480.16	18195.32
480.34	18366.18
480.52	18382.57
480.70	18244.48
480.88	18242.14
481.06	18726.63
481.24	18628.32
481.41	19023.87
481.59	19386.66
481.77	19094.09
481.95	19360.91
482.13	19440.49
482.31	19721.35
482.49	20215.21
482.67	20313.51
482.85	20042.01
483.03	20496.07
483.21	20638.84
483.39	20695.02
483.57	20676.29
483.74	20922.05
483.92	20992.26
484.10	20957.16
484.28	21366.75
484.46	21937.84
484.64	22246.79
484.82	22073.59
485.00	22279.56
485.18	22466.80
485.35	22530.00
485.53	22684.47
485.71	23044.91
485.89	23316.42
486.07	23124.49
486.25	23180.67
486.43	23506.00
486.61	23627.71
486.78	23948.36
486.96	23908.57
487.14	24690.31
487.32	24601.37
487.50	24795.64
487.68	24624.78
487.85	24807.34
488.03	25605.46
488.21	25940.16
488.39	25687.38
488.57	25963.56
488.75	25848.88
488.92	26426.99
489.10	26319.32
489.28	26607.21
489.46	26668.06
489.64	26696.15
489.81	27559.81
489.99	27143.19
490.17	27597.26
490.35	27803.22
490.53	27950.68
490.70	28056.00
490.88	28060.68
491.06	28781.57
491.24	28236.22
491.41	29163.08
491.59	28947.75
491.77	29095.20
491.95	29483.73
492.13	29598.41
492.30	30017.37
492.48	29928.43
492.66	30272.49
492.84	30347.39
493.01	30700.81
493.19	30373.13
493.37	30551.01
493.54	31056.57
493.72	31166.57
493.90	31232.11
494.08	31550.42
494.25	31765.75
494.43	31924.91
494.61	31859.37
494.79	31920.23
494.96	32240.88
495.14	32582.60
495.32	32898.57
495.49	33191.14
495.67	33111.56
495.85	33390.08
496.02	33369.02
496.20	33755.21
496.38	33881.60
496.55	33799.68
496.73	34480.77
496.91	34532.26
497.09	34529.92
497.26	34562.69
497.44	34565.03
497.62	35112.72
497.79	35414.65
497.97	35431.03
498.14	35487.20
498.32	36180.00
498.50	36079.36
498.67	36016.16
498.85	36301.71
499.03	36437.46
499.20	36135.53
499.38	36591.94
499.56	36589.59
499.73	36699.60
499.91	36989.83
500.08	36921.95
500.26	37102.17
500.44	37532.83
500.61	37628.79
500.79	37523.47
500.97	37607.73
501.14	38307.55
501.32	38132.01
501.49	38347.34
501.67	38286.48
501.84	38909.07
502.02	38724.16
502.20	38433.94
502.37	38869.28
502.55	38665.65
502.72	39290.57
502.90	39040.14
503.07	39260.15
503.25	39744.64
503.43	39103.33
503.60	39749.32
503.78	39896.77
503.95	40069.97
504.13	40039.54
504.30	40563.82
504.48	40390.62
504.65	40210.40
504.83	40945.33
505.01	40772.13
505.18	41216.83
505.36	41432.16
505.53	40893.84
505.71	40921.93
505.88	41425.14
506.06	41116.19
506.23	41202.79
506.41	41715.37
506.58	41670.90
506.76	41860.48
506.93	42408.17
507.11	42064.11
507.28	42733.50
507.46	42251.35
507.63	42588.39
507.81	42885.64
507.98	42611.79
508.16	42866.91
508.33	42878.61
508.50	43283.53
508.68	43136.07
508.85	43873.34
509.03	43667.37
509.20	43239.06
509.38	44287.62
509.55	44074.63
509.73	43959.94
509.90	44308.68
510.08	44268.89
510.25	44245.49
510.42	44336.77
510.60	44793.17
510.77	44699.55
510.95	45436.82
511.12	44507.63
511.30	45055.31
511.47	44713.59
511.64	44942.97
511.82	45996.21
511.99	45418.10
512.17	46120.26
512.34	45263.62
512.51	45909.61
512.69	46050.04
512.86	46192.81
513.04	46417.50
513.21	46377.72
513.38	46705.39
513.56	46483.04
513.73	46387.08
513.90	46674.96
514.08	46492.40
514.25	47241.37
514.43	46859.87
514.60	47276.48
514.77	46876.25
514.95	47306.91
515.12	47187.54
515.29	47391.17
515.47	47674.37
515.64	48130.78
515.81	47632.24
515.99	48102.69
516.16	47707.14
516.33	48158.86
516.51	48186.95
516.68	48149.50
516.85	48343.77
517.03	48708.89
517.20	48374.19
517.37	48296.95
517.54	48875.07
517.72	48519.31
517.89	48732.29
518.06	49038.90
518.24	48509.94
518.41	49277.64
518.58	49270.62
518.75	49382.96
518.93	49214.44
519.10	49471.90
519.27	49607.65
519.45	49303.38
519.62	49703.62
519.79	49647.44
519.96	49773.83
520.14	49879.16
520.31	49755.11
520.48	50108.53
520.65	50464.29
520.83	50117.89
521.00	50078.10
521.17	50141.30
521.34	50134.28
521.52	50731.11
521.69	50754.52
521.86	50768.56
522.03	50988.57
522.20	50911.33
522.38	51178.15
522.55	51091.55
522.72	50897.29
522.89	51173.47
523.07	51437.95
523.24	51393.48
523.41	51573.70
523.58	51236.67
523.75	51786.69
523.92	51784.35
524.10	51915.42
524.27	51690.73
524.44	51634.56
524.61	51650.94
524.78	51985.64
524.96	52083.94
525.13	52081.60
525.30	52229.05
525.47	52090.96
525.64	52090.96
525.81	52535.66
525.98	52395.23
526.16	52589.50
526.33	52449.06
526.50	52940.58
526.67	52547.37
526.84	52868.02
527.01	52622.26
527.18	52769.72
527.36	52603.54
527.53	52767.38
527.70	53279.96
527.87	53078.67
528.04	53111.44
528.21	52900.79
528.38	53221.44
528.55	53221.44
528.72	53008.45
528.89	53490.60
529.07	53301.02
529.24	53169.95
529.41	53579.54
529.58	53635.72
529.75	53378.26
529.92	53357.19
530.09	53773.81
530.26	53476.56
530.43	54010.20
530.60	53523.37
530.77	53467.20
530.94	53808.92
531.11	53670.82
531.28	53813.60
531.46	54169.36
531.63	53895.52
531.80	54057.01
531.97	54103.82
532.14	54178.72
532.31	54319.15
532.48	54389.37
532.65	54541.50
532.82	54218.51
532.99	54555.55
533.16	54433.84
533.33	54347.24
533.50	54822.37
533.67	54401.07
533.84	54206.81
534.01	54674.91
534.18	54677.25
534.35	55133.66
534.52	54901.95
534.69	54901.95
534.86	55049.40
535.03	54862.16
535.20	54932.37
535.37	55100.89
535.54	55246.00
535.71	55107.91
535.88	55063.44
536.05	55206.22
536.22	55552.62
536.38	55295.16
536.55	55356.01
536.72	55379.42
536.89	55416.86
537.06	55248.35
537.23	55632.19
537.40	55196.85
537.57	55316.22
537.74	55480.06
537.91	55856.88
538.08	55863.91
538.25	55629.85
538.42	55751.56
538.59	56039.45
538.75	55786.67
538.92	55957.53
539.09	56074.55
539.26	55877.95
539.43	55901.36
539.60	55943.48
539.77	56046.47
539.94	56406.91
540.11	56158.81
540.28	56388.19
540.44	56334.35
540.61	56135.41
540.78	56205.62
540.95	55891.99
541.12	56172.86
541.29	56442.02
541.46	56210.31
541.62	56336.69
541.79	56736.93
541.96	56432.66
542.13	56392.87
542.30	56502.87
542.47	56603.52
542.63	56643.30
542.80	56545.00
542.97	56818.84
543.14	56865.66
543.31	57116.09
543.48	57139.50
543.64	57251.84
543.81	57207.37
543.98	57088.01
544.15	57022.47
544.32	57064.60
544.48	57364.19
544.65	57158.22
544.82	57261.21
544.99	57186.31
545.16	57251.84
545.32	57282.27
545.49	57560.79
545.66	57439.09
545.83	57322.06
546.00	57364.19
546.16	57312.70
546.33	57322.06
546.50	57284.61
546.67	57439.09
546.83	57279.93
547.00	57474.20
547.17	57642.71
547.34	57525.69
547.50	57867.40
547.67	57886.13
547.84	58073.37
548.00	57602.92
548.17	58181.04
548.34	57909.53
548.51	58188.06
548.67	58326.15
548.84	57811.23
549.01	57703.57
549.18	57935.28
549.34	57991.45
549.51	57841.66
549.68	58103.80
549.84	58071.03
550.01	58368.28
550.18	58213.80
550.34	58288.70
550.51	58518.07
550.68	58391.68
550.84	58171.67
551.01	58033.58
551.18	58440.84
551.34	58368.28
551.51	58326.15
551.68	58234.87
551.84	58333.17
552.01	58466.58
552.18	58365.94
552.34	58188.06
552.51	58642.12
552.68	58372.96
552.84	58525.10
553.01	58782.55
553.18	58550.84
553.34	58569.57
553.51	58707.66
553.67	58609.35
553.84	58735.74
554.01	59063.42
554.17	58852.77
554.34	58993.20
554.51	58735.74
554.67	58848.09
554.84	58702.98
555.00	58759.15
555.17	58829.37
555.33	58742.77
555.50	58908.94
555.67	58693.61
555.83	58787.24
556.00	58817.66
556.16	59126.61
556.33	58892.56
556.50	59037.67
556.66	58993.20
556.83	58953.41
556.99	59227.26
557.16	59084.48
557.32	59299.81
557.49	59456.63
557.65	59040.01
557.82	59316.20
557.98	59154.70
558.15	59131.29
558.32	59330.24
558.48	59126.61
558.65	59281.09
558.81	59437.90
558.98	59290.45
559.14	59278.75
559.31	59374.71
559.47	59489.40
559.64	59295.13
559.80	59648.55
559.97	59632.17
560.13	59519.82
560.30	59564.29
560.46	59657.91
560.63	59578.34
560.79	59604.08
560.96	59599.40
561.12	59480.03
561.29	59728.13
561.45	59718.77
561.61	59664.94
561.78	59545.57
561.94	59650.89
562.11	59653.23
562.27	59613.44
562.44	59695.36
562.60	59959.84
562.77	59793.67
562.93	59576.00
563.10	59955.16
563.26	59751.54
563.42	59875.58
563.59	59819.41
563.75	59707.07
563.92	59793.67
564.08	59807.71
564.24	59985.59
564.41	59835.80
564.57	59882.61
564.74	59948.14
564.90	60046.44
565.07	60020.70
565.23	60053.47
565.39	59920.05
565.56	60114.32
565.72	59976.23
565.88	59980.91
566.05	59952.82
566.21	59936.44
566.38	59929.42
566.54	60193.90
566.70	60200.92
566.87	60072.19
567.03	59971.55
567.19	60217.30
567.36	59924.74
567.52	60233.69
567.68	60650.30
567.85	60186.88
568.01	60189.22
568.17	60135.38
568.34	60322.63
568.50	60217.30
568.66	60060.49
568.83	60245.39
568.99	60224.32
569.15	60294.54
569.32	60369.44
569.48	60236.03
569.64	60303.90
569.81	60168.15
569.97	60348.37
570.13	60348.37
570.30	60376.46
570.46	60470.08
570.62	60385.82
570.78	60603.49
570.95	60191.56
571.11	60736.90
571.27	60299.22
571.43	60226.66
571.60	60528.59
571.76	60451.36
571.92	60315.61
572.09	60537.96
572.25	60409.23
572.41	60451.36
572.57	60441.99
572.74	60687.75
572.90	60477.10
573.06	60580.09
573.22	60432.63
573.38	60500.51
573.55	60453.70
573.71	60626.90
573.87	60633.92
574.03	60257.09
574.20	60425.61
574.36	60486.46
574.52	60715.84
574.68	60573.06
574.84	60589.45
575.01	60512.21
575.17	60631.58
575.33	60533.28
575.49	60715.84
575.65	60544.98
575.82	60687.75
575.98	60549.66
576.14	60879.67
576.30	60568.38
576.46	60561.36
576.62	60500.51
576.79	60654.98
576.95	60608.17
577.11	60619.88
577.27	60729.88
577.43	60720.52
577.59	60434.97
577.75	60715.84
577.92	60514.55
578.08	60434.97
578.24	60645.62
578.40	60690.09
578.56	60743.92
578.72	60774.35
578.88	60720.52
579.04	60781.37
579.21	60760.31
579.37	60823.50
579.53	60851.59
579.69	60519.23
579.85	60575.40
580.01	60589.45
580.17	60596.47
580.33	60697.11
580.49	60729.88
580.65	60666.69
580.82	60647.96
580.98	60591.79
581.14	60795.42
581.30	60727.54
581.46	60849.25
581.62	60835.20
581.78	60608.17
581.94	60823.50
582.10	60699.45
582.26	60767.33
582.42	60697.11
582.58	60722.86
582.74	60706.47
582.90	60867.97
583.06	60718.18
583.22	60699.45
583.38	60685.41
583.54	60692.43
583.70	60851.59
583.86	60837.54
584.02	60872.65
584.18	60867.97
584.34	60985.00
584.50	60825.84
584.66	60811.80
584.82	60647.96
584.98	60952.23
585.14	60905.42
585.30	60809.46
585.46	60947.55
585.62	60727.54
585.78	60973.30
585.94	60654.98
586.10	60889.04
586.26	60926.49
586.42	60797.76
586.58	60949.89
586.74	60874.99
586.90	60760.31
587.06	60877.33
587.22	60992.02
587.38	60942.87
587.54	60905.42
587.70	61071.60
587.86	60963.93
588.02	60793.07
588.18	61031.81
588.34	60666.69
588.49	60994.36
