SpectraSuite Data File
++++++++++++++++++++++++++++++++++++
Date: Fri Oct 25 11:25:29 EDT 2013
User: price-jones
Dark Spectrum Present: No
Reference Spectrum Present: No
Number of Sampled Component Spectra: 1
Spectrometers: USB2+H05261
Integration Time (usec): 100000 (USB2+H05261)
Spectra Averaged: 1 (USB2+H05261)
Boxcar Smoothing: 0 (USB2+H05261)
Correct for Electrical Dark: No (USB2+H05261)
Strobe/Lamp Enabled: No (USB2+H05261)
Correct for Detector Non-linearity: No (USB2+H05261)
Correct for Stray Light: No (USB2+H05261)
Number of Pixels in Processed Spectrum: 2048
>>>>>Begin Processed Spectral Data<<<<<
365.73	198.95
365.92	198.95
366.12	198.95
366.32	126.39
366.52	128.73
366.72	131.07
366.91	117.03
367.11	191.92
367.31	114.69
367.51	168.52
367.70	117.03
367.90	154.48
368.10	135.75
368.30	114.69
368.49	117.03
368.69	184.90
368.89	170.86
369.09	140.43
369.28	168.52
369.48	184.90
369.68	173.20
369.87	93.62
370.07	166.18
370.27	205.97
370.47	325.33
370.66	578.11
370.86	543.00
371.06	695.14
371.25	774.72
371.45	638.97
371.65	674.07
371.84	676.41
372.04	699.82
372.24	723.23
372.44	695.14
372.63	784.08
372.83	702.16
373.03	758.33
373.22	744.29
373.42	802.80
373.62	770.04
373.81	793.44
374.01	727.91
374.21	772.38
374.40	821.53
374.60	791.10
374.79	821.53
374.99	940.90
375.19	837.91
375.38	805.14
375.58	781.74
375.78	887.06
375.97	894.08
376.17	842.59
376.37	760.67
376.56	814.51
376.76	847.27
376.95	866.00
377.15	877.70
377.35	863.66
377.54	894.08
377.74	891.74
377.93	929.19
378.13	938.55
378.33	844.93
378.52	938.55
378.72	950.26
378.91	952.60
379.11	940.90
379.31	929.19
379.50	945.58
379.70	992.39
379.89	959.62
380.09	1050.90
380.28	917.49
380.48	1020.47
380.68	1039.20
380.87	1088.35
381.07	994.73
381.26	1135.16
381.46	1032.18
381.65	1081.33
381.85	1060.26
382.04	1064.94
382.24	1039.20
382.43	1139.84
382.63	1076.65
382.83	1039.20
383.02	999.41
383.22	1076.65
383.41	1160.91
383.61	1172.61
383.80	1153.88
384.00	1205.38
384.19	1074.31
384.39	1086.01
384.58	1114.10
384.78	1188.99
384.97	1151.54
385.17	1121.12
385.36	1071.97
385.56	1153.88
385.75	1172.61
385.95	1167.93
386.14	1196.01
386.34	1184.31
386.53	1245.16
386.72	1160.91
386.92	1132.82
387.11	1301.34
387.31	1273.25
387.50	1299.00
387.70	1275.59
387.89	1282.61
388.09	1242.82
388.28	1228.78
388.48	1387.94
388.67	1287.29
388.86	1277.93
389.06	1294.32
389.25	1352.83
389.45	1322.40
389.64	1301.34
389.84	1334.11
390.03	1320.06
390.22	1390.28
390.42	1362.19
390.61	1427.73
390.81	1296.66
391.00	1430.07
391.19	1373.89
391.39	1469.86
391.58	1366.87
391.78	1439.43
391.97	1409.00
392.16	1437.09
392.36	1584.54
392.55	1476.88
392.75	1570.50
392.94	1500.28
393.13	1451.13
393.33	1544.75
393.52	1535.39
393.71	1607.95
393.91	1554.12
394.10	1668.80
394.29	1558.80
394.49	1551.78
394.68	1701.57
394.88	1575.18
395.07	1650.08
395.26	1659.44
395.46	1685.19
395.65	1708.59
395.84	1776.47
396.04	1785.83
396.23	1701.57
396.42	1671.14
396.62	1778.81
396.81	1666.46
397.00	1783.49
397.19	1825.62
397.39	1872.43
397.58	1799.87
397.77	1849.02
397.97	1830.30
398.16	1809.23
398.35	1905.20
398.55	1879.45
398.74	2003.50
398.93	1919.24
399.12	1884.13
399.32	1961.37
399.51	2029.24
399.70	2012.86
399.90	1987.11
400.09	2005.84
400.28	2054.99
400.47	2015.20
400.67	2033.93
400.86	2017.54
401.05	2176.70
401.24	2125.21
401.44	2104.14
401.63	2115.84
401.82	2221.17
402.01	2106.48
402.21	2101.80
402.40	2083.08
402.59	2225.85
402.78	2282.02
402.97	2118.18
403.17	2239.89
403.36	2275.00
403.55	2260.96
403.74	2377.98
403.93	2368.62
404.13	2361.60
404.32	2338.20
404.51	2225.85
404.70	2338.20
404.89	2424.80
405.09	2373.30
405.28	2443.52
405.47	2417.77
405.66	2434.16
405.85	2469.27
406.05	2443.52
406.24	2548.84
406.43	2602.68
406.62	2483.31
406.81	2607.36
407.00	2483.31
407.20	2626.08
407.39	2511.39
407.58	2546.50
407.77	2740.77
407.96	2686.94
408.15	2822.69
408.34	2747.79
408.54	2757.15
408.73	2871.84
408.92	2850.77
409.11	2754.81
409.30	2799.28
409.49	2841.41
409.68	2918.65
409.87	2860.13
410.07	3110.57
410.26	2883.54
410.45	3012.27
410.64	2995.89
410.83	3066.10
411.02	3115.25
411.21	3183.13
411.40	3115.25
411.59	3178.45
411.78	3208.87
411.98	3199.51
412.17	3129.30
412.36	3239.30
412.55	3318.88
412.74	3253.34
412.93	3302.50
413.12	3398.46
413.31	3522.51
413.50	3475.70
413.69	3452.29
413.88	3653.58
414.07	3627.83
414.26	3588.04
414.45	3658.26
414.64	3637.19
414.83	3676.98
415.02	3639.53
415.22	3744.86
415.41	3749.54
415.60	3742.52
415.79	3953.16
415.98	4042.11
416.17	4051.47
416.36	3939.12
416.55	3864.22
416.74	4009.34
416.93	4114.66
417.12	4053.81
417.31	4067.85
417.50	4117.00
417.69	4264.46
417.88	4327.65
418.07	4264.46
418.26	4252.75
418.45	4205.94
418.64	4507.87
418.83	4320.63
419.02	4379.14
419.21	4449.36
419.39	4526.60
419.58	4524.26
419.77	4425.95
419.96	4615.54
420.15	4601.49
420.34	4601.49
420.53	4737.24
420.72	4650.64
420.91	4580.43
421.10	4727.88
421.29	4800.44
421.48	4765.33
421.67	4823.84
421.86	4760.65
422.05	4772.35
422.24	4762.99
422.43	4844.91
422.61	4748.95
422.80	4882.36
422.99	4896.40
423.18	4870.65
423.37	5062.58
423.56	5043.85
423.75	5001.72
423.94	4828.53
424.13	4585.11
424.32	4713.84
424.50	4926.83
424.69	4992.36
424.88	5036.83
425.07	4980.66
425.26	4819.16
425.45	4919.81
425.64	4887.04
425.83	5013.43
426.01	5011.09
426.20	4975.98
426.39	5125.77
426.58	5039.17
426.77	5050.88
426.96	5130.45
427.15	5022.79
427.33	5109.39
427.52	5177.26
427.71	5146.84
427.90	5261.52
428.09	5282.59
428.28	5315.36
428.46	5406.64
428.65	5137.48
428.84	5469.83
429.03	5526.00
429.22	5385.57
429.40	5614.95
429.59	5254.50
429.78	5294.29
429.97	5172.58
430.16	5453.45
430.34	5554.09
430.53	5678.14
430.72	5746.02
430.91	5610.26
431.10	5598.56
431.28	5696.86
431.47	5614.95
431.66	5930.92
431.85	5874.74
432.03	5856.02
432.22	6069.01
432.41	5902.83
432.60	5682.82
432.79	6061.99
432.97	5902.83
433.16	5935.60
433.35	5795.17
433.54	6179.01
433.72	6092.41
433.91	6094.76
434.10	6071.35
434.28	6085.39
434.47	6118.16
434.66	6174.33
434.85	6267.95
435.03	6389.66
435.22	6186.04
435.41	6492.65
435.59	6392.00
435.78	6558.18
435.97	6246.89
436.16	6342.85
436.34	6443.49
436.53	6394.34
436.72	6649.46
436.90	6394.34
437.09	6614.35
437.28	6462.22
437.46	6473.92
437.65	6471.58
437.84	6850.75
438.02	6548.82
438.21	6867.13
438.40	6574.56
438.58	6801.60
438.77	7211.19
438.96	7054.37
439.14	6960.75
439.33	7117.57
439.52	7089.48
439.70	7066.08
439.89	7155.02
440.08	7456.95
440.26	7314.17
440.45	7358.64
440.63	7304.81
440.82	7585.68
441.01	7480.35
441.19	7571.63
441.38	7599.72
441.57	7726.11
441.75	7740.15
441.94	7941.44
442.12	8030.38
442.31	8124.00
442.50	8070.17
442.68	7892.29
442.87	8018.68
443.05	8156.77
443.24	8023.36
443.43	8131.02
443.61	8086.55
443.80	8407.20
443.98	8250.39
444.17	7829.09
444.35	8161.45
444.54	8269.11
444.73	8177.83
444.91	8278.47
445.10	8299.54
445.28	8322.94
445.47	8112.30
445.65	8173.15
445.84	8456.36
446.02	8425.93
446.21	8369.76
446.39	8517.21
446.58	8456.36
446.77	8514.87
446.95	8297.20
447.14	8365.07
447.32	8596.79
447.51	8444.65
447.69	8456.36
447.88	8496.14
448.06	8491.46
448.25	8498.49
448.43	8706.79
448.62	8662.32
448.80	8367.42
448.99	8557.00
449.17	8589.77
449.36	8683.39
449.54	8819.14
449.73	8842.54
449.91	8901.06
450.10	9036.81
450.28	9062.55
450.46	9118.73
450.65	9100.00
450.83	8802.75
451.02	9083.62
451.20	9357.46
451.39	9111.71
451.57	9069.58
451.76	9114.05
451.94	9036.81
452.13	9170.22
452.31	9320.01
452.49	9188.94
452.68	9305.97
452.86	9291.93
453.05	9383.21
453.23	9359.80
453.42	9329.38
453.60	9273.20
453.78	9516.62
453.97	9394.91
454.15	9291.93
454.34	9401.93
454.52	9593.86
454.70	9607.90
454.89	9729.61
455.07	9722.59
455.26	9727.27
455.44	9888.76
455.62	9832.59
455.81	9863.02
455.99	10019.83
456.17	10087.71
456.36	10045.58
456.54	10174.31
456.73	10331.12
456.91	10356.87
457.09	10410.70
457.28	10469.22
457.46	10289.00
457.64	10675.18
457.83	10504.32
458.01	10406.02
458.19	10682.20
458.38	10527.73
458.56	10824.98
458.74	10782.85
458.93	10457.51
459.11	10808.59
459.29	10541.77
459.48	10934.98
459.66	10729.02
459.84	10764.12
460.03	11042.65
460.21	11016.90
460.39	10911.58
460.57	11056.69
460.76	11194.78
460.94	11197.12
461.12	11171.38
461.31	11215.85
461.49	11014.56
461.67	11070.73
461.85	11262.66
462.04	11117.54
462.22	11627.78
462.40	11576.29
462.59	11492.03
462.77	11620.76
462.95	11644.17
463.13	11435.86
463.32	11789.28
463.50	11740.13
463.68	11712.04
463.86	11852.47
464.05	11503.73
464.23	11625.44
464.41	11894.60
464.59	11548.20
464.78	11983.54
464.96	11918.01
465.14	11936.73
465.32	11838.43
465.50	11939.07
465.69	12236.32
465.87	12088.87
466.05	12250.36
466.23	12006.95
466.41	12250.36
466.60	12449.31
466.78	12187.17
466.96	12056.10
467.14	12327.60
467.32	12397.82
467.51	12446.97
467.69	11997.59
467.87	12269.09
468.05	12552.29
468.23	12425.90
468.41	12475.06
468.60	12444.63
468.78	12580.38
468.96	12769.96
469.14	12720.81
469.32	13135.09
469.50	12629.53
469.69	12835.50
469.87	13083.59
470.05	12858.90
470.23	12959.55
470.41	12847.20
470.59	13378.50
470.77	13151.47
470.95	13032.10
471.14	13701.50
471.32	13050.83
471.50	13701.50
471.68	13467.44
471.86	13701.50
472.04	13987.04
472.22	14127.47
472.40	13425.31
472.58	13956.61
472.77	13867.67
472.95	14097.05
473.13	14644.73
473.31	14073.64
473.49	14331.10
473.67	13895.76
473.85	14284.29
474.03	14319.40
474.21	14684.52
474.39	14480.89
474.57	14616.65
474.75	14853.04
474.93	15129.22
475.12	14724.31
475.30	14934.96
475.48	14862.40
475.66	14970.07
475.84	15049.64
476.02	15365.62
476.20	15173.69
476.38	15623.08
476.56	16042.03
476.74	15913.30
476.92	15817.34
477.10	15690.95
477.28	16032.67
477.46	16072.46
477.64	16175.44
477.82	16556.95
478.00	16910.37
478.18	16730.15
478.36	16849.52
478.54	16744.19
478.72	17050.80
478.90	17121.02
479.08	17404.22
479.26	17736.58
479.44	17703.81
479.62	17657.00
479.80	17769.35
479.98	18164.90
480.16	18459.81
480.34	18312.35
480.52	18223.41
480.70	18436.40
480.88	18448.10
481.06	18574.49
481.24	18546.40
481.41	19136.22
481.59	19108.13
481.77	19335.17
481.95	19211.12
482.13	19438.15
482.31	19592.62
482.49	20264.36
482.67	19960.09
482.85	20397.77
483.03	20456.28
483.21	21041.42
483.39	20690.34
483.57	20931.41
483.74	20945.45
483.92	21296.53
484.10	21053.12
484.28	21584.42
484.46	22148.49
484.64	22319.35
484.82	21979.97
485.00	22384.88
485.18	22497.23
485.35	22876.40
485.53	22813.20
485.71	23112.79
485.89	23211.09
486.07	22995.76
486.25	23351.52
486.43	23655.79
486.61	23524.72
486.78	23665.16
486.96	24266.67
487.14	24336.89
487.32	24636.48
487.50	24589.67
487.68	24959.47
487.85	25078.84
488.03	25663.97
488.21	25549.29
488.39	25432.26
488.57	26096.97
488.75	26129.74
488.92	26073.57
489.10	26789.77
489.28	26714.87
489.46	26916.16
489.64	26862.33
489.81	27503.64
489.99	27503.64
490.17	27606.62
490.35	28144.94
490.53	28140.26
490.70	28936.04
490.88	28280.69
491.06	28627.09
491.24	28751.14
491.41	29013.28
491.59	29022.64
491.77	29074.13
491.95	29392.45
492.13	29511.81
492.30	29886.30
492.48	30019.71
492.66	29869.92
492.84	30073.54
493.01	30572.08
493.19	30543.99
493.37	31318.71
493.54	31035.50
493.72	31400.63
493.90	31447.44
494.08	31669.79
494.25	31728.30
494.43	31770.43
494.61	32165.98
494.79	32496.00
494.96	32488.98
495.14	32615.37
495.32	32807.29
495.49	32650.47
495.67	32849.42
495.85	33317.53
496.02	34235.02
496.20	33895.64
496.38	33947.13
496.55	34015.01
496.73	34448.00
496.91	34635.25
497.09	34391.83
497.26	34824.83
497.44	34834.19
497.62	35292.94
497.79	36198.73
497.97	35311.66
498.14	35798.49
498.32	35978.72
498.50	35948.29
498.67	36416.40
498.85	36664.49
499.03	36357.88
499.20	36706.62
499.38	36573.21
499.56	36921.95
499.73	37055.36
499.91	37134.94
500.08	37591.34
500.26	37333.89
500.44	37404.10
500.61	37532.83
500.79	37394.74
500.97	37940.08
501.14	39016.73
501.32	38539.26
501.49	38082.86
501.67	38880.98
501.84	38866.94
502.02	38438.62
502.20	38969.92
502.37	39061.20
502.55	39578.46
502.72	39171.21
502.90	39077.58
503.07	39344.41
503.25	39721.23
503.43	39313.98
503.60	40332.11
503.78	40023.16
503.95	40313.39
504.13	40374.24
504.30	40818.94
504.48	40383.60
504.65	40954.69
504.83	40989.80
505.01	41113.85
505.18	41315.14
505.36	41214.49
505.53	41104.49
505.71	41778.56
505.88	41591.32
506.06	41460.25
506.23	41617.07
506.41	41635.79
506.58	41900.27
506.76	42012.62
506.93	42415.19
507.11	42319.23
507.28	42501.79
507.46	42740.52
507.63	42841.17
507.81	42962.87
507.98	42735.84
508.16	43056.50
508.33	43936.54
508.50	43292.89
508.68	43217.99
508.85	43704.82
509.03	43208.63
509.20	43702.48
509.38	44322.72
509.55	44421.03
509.73	44657.42
509.90	44292.30
510.08	44348.47
510.25	44580.18
510.42	44397.62
510.60	44671.46
510.77	45368.94
510.95	45059.99
511.12	45179.36
511.30	44776.79
511.47	45413.41
511.64	45588.95
511.82	45750.45
511.99	45490.65
512.17	45963.44
512.34	45684.92
512.51	46293.46
512.69	46447.93
512.86	46017.27
513.04	46555.60
513.21	46223.24
513.38	46518.15
513.56	46281.75
513.73	47012.00
513.90	46742.84
514.08	47028.38
514.25	47522.24
514.43	47145.41
514.60	47459.04
514.77	47033.07
514.95	47824.17
515.12	47257.76
515.29	47632.24
515.47	48030.13
515.64	48083.97
515.81	47728.20
515.99	48301.64
516.16	48671.44
516.33	48137.80
516.51	48760.38
516.68	48236.10
516.85	48219.72
517.03	48741.66
517.20	49090.40
517.37	48561.44
517.54	48797.83
517.72	48624.63
517.89	49123.16
518.06	48671.44
518.24	49069.33
518.41	48907.83
518.58	49336.15
518.75	49132.53
518.93	49074.01
519.10	49333.81
519.27	49635.74
519.45	49689.57
519.62	49638.08
519.79	50080.44
519.96	49738.72
520.14	50068.74
520.31	49909.58
520.48	50511.10
520.65	50293.43
520.83	50546.21
521.00	50719.41
521.17	50672.60
521.34	50855.16
521.52	50571.96
521.69	50672.60
521.86	50794.31
522.03	50450.25
522.20	51283.48
522.38	51159.43
522.55	51470.72
522.72	51203.90
522.89	51246.03
523.07	51646.26
523.24	51583.07
523.41	51660.30
523.58	51285.82
523.75	51627.54
523.92	51732.86
524.10	51896.70
524.27	51854.57
524.44	52044.15
524.61	52184.58
524.78	51934.15
524.96	52093.30
525.13	51978.62
525.30	52322.68
525.47	52231.40
525.64	52308.63
525.81	52563.75
525.98	52561.41
526.16	52460.77
526.33	52552.05
526.50	52949.94
526.67	52495.88
526.84	52856.32
527.01	52844.62
527.18	52708.86
527.36	52839.93
527.53	53001.43
527.70	53216.76
527.87	53195.70
528.04	53162.93
528.21	53296.34
528.38	53240.17
528.55	53563.16
528.72	53076.33
528.89	53120.80
529.07	53214.42
529.24	53506.99
529.41	53834.66
529.58	53577.20
529.75	53570.18
529.92	53450.81
530.09	53698.91
530.26	53621.67
530.43	53577.20
530.60	53698.91
530.77	53883.81
530.94	53914.24
531.11	53794.87
531.28	53904.88
531.46	53937.65
531.63	54057.01
531.80	53858.07
531.97	54361.28
532.14	54499.37
532.31	54529.80
532.48	54148.29
532.65	54499.37
532.82	54302.77
532.99	54667.89
533.16	54543.84
533.33	54794.28
533.50	54845.77
533.67	54834.07
533.84	54560.23
534.01	54805.98
534.18	54885.56
534.35	55014.29
534.52	55098.55
534.69	55140.68
534.86	55236.64
535.03	54894.92
535.20	55318.56
535.37	55299.84
535.54	55283.45
535.71	55047.06
535.88	55295.16
536.05	55276.43
536.22	55370.05
536.38	55512.83
536.55	55522.19
536.72	55643.90
536.89	55325.58
537.06	55449.63
537.23	55608.79
537.40	55608.79
537.57	55430.91
537.74	55524.53
537.91	55849.86
538.08	55842.84
538.25	55552.62
538.42	55784.33
538.59	56126.05
538.75	55634.53
538.92	55955.19
539.09	56189.24
539.26	55983.27
539.43	55880.29
539.60	55859.23
539.77	56002.00
539.94	56254.78
540.11	56296.91
540.28	56465.42
540.44	56516.92
540.61	56114.34
540.78	56427.98
540.95	56313.29
541.12	56308.61
541.29	56430.32
541.46	56416.27
541.62	56580.11
541.79	56636.28
541.96	56395.21
542.13	56800.12
542.30	56563.73
542.47	56809.48
542.63	56666.71
542.80	56671.39
542.97	56851.61
543.14	57296.31
543.31	56989.70
543.48	57198.01
543.64	57537.39
543.81	57303.34
543.98	57352.49
544.15	57277.59
544.32	57315.04
544.48	57399.30
544.65	57162.90
544.82	57116.09
544.99	57282.27
545.16	57350.15
545.32	57497.60
545.49	57471.85
545.66	57696.55
545.83	57670.80
546.00	57432.07
546.16	57469.51
546.33	57308.02
546.50	57724.63
546.67	57794.85
546.83	57427.38
547.00	57684.84
547.17	57495.26
547.34	57619.31
547.50	58012.52
547.67	57886.13
547.84	58045.29
548.00	57818.25
548.17	58274.66
548.34	57869.75
548.51	58239.55
548.67	58181.04
548.84	57996.13
549.01	58127.20
549.18	58068.69
549.34	58054.65
549.51	58239.55
549.68	58108.48
549.84	58333.17
550.01	58379.98
550.18	58389.34
550.34	58337.85
550.51	58408.07
550.68	58288.70
550.84	57916.56
551.01	58623.40
551.18	58358.92
551.34	58527.44
551.51	58478.28
551.68	58501.69
551.84	58459.56
552.01	58546.16
552.18	58370.62
552.34	58454.88
552.51	58536.80
552.68	58539.14
552.84	58658.51
553.01	59096.19
553.18	58649.14
553.34	58820.00
553.51	58768.51
553.67	58815.32
553.84	58885.54
554.01	58955.75
554.17	58925.33
554.34	59011.93
554.51	59051.72
554.67	58913.62
554.84	58817.66
555.00	58922.99
555.17	59075.12
555.33	58920.65
555.50	58852.77
555.67	58937.03
555.83	58899.58
556.00	59016.61
556.16	59398.12
556.33	59196.83
556.50	59166.40
556.66	59292.79
556.83	58958.09
556.99	59327.90
557.16	59552.59
557.32	59353.65
557.49	59587.70
557.65	59281.09
557.82	59306.83
557.98	59255.34
558.15	59133.63
558.32	59606.42
558.48	59391.09
558.65	59372.37
558.81	59327.90
558.98	59440.24
559.14	59573.66
559.31	59538.55
559.47	59325.56
559.64	59784.30
559.80	59540.89
559.97	59557.27
560.13	59505.78
560.30	59543.23
560.46	59739.83
560.63	59796.01
560.79	59657.91
560.96	59889.63
561.12	59718.77
561.29	59852.18
561.45	59695.36
561.61	59915.37
561.78	59749.20
561.94	59760.90
562.11	59863.88
562.27	59779.62
562.44	60027.72
562.60	59793.67
562.77	59758.56
562.93	59760.90
563.10	59997.29
563.26	59604.08
563.42	60107.30
563.59	59943.46
563.75	59894.31
563.92	60119.00
564.08	59779.62
564.24	60044.10
564.41	59969.21
564.57	60074.53
564.74	60072.19
564.90	60184.54
565.07	60009.00
565.23	59990.27
565.39	60238.37
565.56	60140.07
565.72	59999.63
565.88	60273.48
566.05	60037.08
566.21	59983.25
566.38	60186.88
566.54	60229.01
566.70	60186.88
566.87	60420.93
567.03	59955.16
567.19	60336.67
567.36	60383.48
567.52	60200.92
567.68	60528.59
567.85	60170.49
568.01	60423.27
568.17	60121.34
568.34	60271.14
568.50	60374.12
568.66	60198.58
568.83	60341.35
568.99	60292.20
569.15	60348.37
569.32	60294.54
569.48	60446.68
569.64	60603.49
569.81	60451.36
569.97	60460.72
570.13	60261.77
570.30	60238.37
570.46	60505.19
570.62	60463.06
570.78	60434.97
570.95	60317.95
571.11	60381.14
571.27	60371.78
571.43	60519.23
571.60	60591.79
571.76	60552.00
571.92	60434.97
572.09	60556.68
572.25	60474.76
572.41	60425.61
572.57	60505.19
572.74	60699.45
572.90	60612.85
573.06	60598.81
573.22	60547.32
573.38	60605.83
573.55	60460.72
573.71	60769.67
573.87	60659.66
574.03	60409.23
574.20	60727.54
574.36	60678.39
574.52	60889.04
574.68	60533.28
574.84	60687.75
575.01	60750.94
575.17	60507.53
575.33	60556.68
575.49	60406.89
575.65	60750.94
575.82	60734.56
575.98	60938.19
576.14	60783.71
576.30	60790.73
576.46	60776.69
576.62	60561.36
576.79	60722.86
576.95	60521.57
577.11	60760.31
577.27	60832.86
577.43	60769.67
577.59	60828.18
577.75	60753.29
577.92	60537.96
578.08	60821.16
578.24	60872.65
578.40	60914.78
578.56	60989.68
578.72	60701.79
578.88	60949.89
579.04	60872.65
579.21	60760.31
579.37	60807.12
579.53	60996.70
579.69	60594.13
579.85	60886.70
580.01	60636.26
580.17	60720.52
580.33	60839.89
580.49	60903.08
580.65	61055.21
580.82	60889.04
580.98	60795.42
581.14	60701.79
581.30	60879.67
581.46	60860.95
581.62	60891.38
581.78	60837.54
581.94	60795.42
582.10	60797.76
582.26	60692.43
582.42	60865.63
582.58	60865.63
582.74	60872.65
582.90	60727.54
583.06	60811.80
583.22	60755.63
583.38	60779.03
583.54	60952.23
583.70	60914.78
583.86	61050.53
584.02	60956.91
584.18	60989.68
584.34	60940.53
584.50	61078.62
584.66	60839.89
584.82	60877.33
584.98	61153.52
585.14	60786.05
585.30	60767.33
585.46	60949.89
585.62	61045.85
585.78	60966.27
585.94	60814.14
586.10	60814.14
586.26	61006.06
586.42	60797.76
586.58	60860.95
586.74	60987.34
586.90	61073.94
587.06	60886.70
587.22	61137.13
587.38	60938.19
587.54	60968.61
587.70	61141.81
587.86	61123.09
588.02	60992.02
588.18	61160.54
588.34	60889.04
588.49	60994.36
