SpectraSuite Data File
++++++++++++++++++++++++++++++++++++
Date: Fri Oct 25 10:47:04 EDT 2013
User: price-jones
Dark Spectrum Present: No
Reference Spectrum Present: No
Number of Sampled Component Spectra: 1
Spectrometers: USB2+H05261
Integration Time (usec): 100000 (USB2+H05261)
Spectra Averaged: 1 (USB2+H05261)
Boxcar Smoothing: 0 (USB2+H05261)
Correct for Electrical Dark: No (USB2+H05261)
Strobe/Lamp Enabled: No (USB2+H05261)
Correct for Detector Non-linearity: No (USB2+H05261)
Correct for Stray Light: No (USB2+H05261)
Number of Pixels in Processed Spectrum: 2048
>>>>>Begin Processed Spectral Data<<<<<
365.73	133.41
365.92	133.41
366.12	133.41
366.32	58.51
366.52	93.62
366.72	98.30
366.91	35.11
367.11	74.90
367.31	18.72
367.51	9.36
367.70	67.88
367.90	102.98
368.10	152.13
368.30	51.49
368.49	25.75
368.69	95.96
368.89	39.79
369.09	0.00
369.28	67.88
369.48	37.45
369.68	7.02
369.87	42.13
370.07	177.88
370.27	131.07
370.47	170.86
370.66	383.85
370.86	465.77
371.06	477.47
371.25	456.40
371.45	423.64
371.65	447.04
371.84	533.64
372.04	484.49
372.24	507.90
372.44	496.19
372.63	559.39
372.83	578.11
373.03	491.51
373.22	414.27
373.42	543.00
373.62	528.96
373.81	645.99
374.01	543.00
374.21	512.58
374.40	521.94
374.60	664.71
374.79	538.32
374.99	517.26
375.19	667.05
375.38	573.43
375.58	589.82
375.78	538.32
375.97	566.41
376.17	641.31
376.37	650.67
376.56	645.99
376.76	615.56
376.95	575.77
377.15	678.76
377.35	521.94
377.54	627.26
377.74	629.60
377.93	622.58
378.13	643.65
378.33	657.69
378.52	613.22
378.72	638.97
378.91	681.10
379.11	594.50
379.31	613.22
379.50	629.60
379.70	711.52
379.89	671.73
380.09	688.12
380.28	739.61
380.48	711.52
380.68	638.97
380.87	641.31
381.07	615.56
381.26	671.73
381.46	697.48
381.65	648.33
381.85	713.86
382.04	674.07
382.24	720.88
382.43	657.69
382.63	622.58
382.83	676.41
383.02	798.12
383.22	751.31
383.41	650.67
383.61	697.48
383.80	702.16
384.00	814.51
384.19	774.72
384.39	812.17
384.58	753.65
384.78	833.23
384.97	699.82
385.17	732.59
385.36	704.50
385.56	767.70
385.75	737.27
385.95	863.66
386.14	713.86
386.34	861.32
386.53	812.17
386.72	819.19
386.92	847.27
387.11	772.38
387.31	823.87
387.50	781.74
387.70	777.06
387.89	884.72
388.09	837.91
388.28	889.40
388.48	926.85
388.67	849.61
388.86	880.04
389.06	863.66
389.25	910.47
389.45	945.58
389.64	912.81
389.84	926.85
390.03	945.58
390.22	908.13
390.42	931.53
390.61	938.55
390.81	947.92
391.00	931.53
391.19	1078.99
391.39	910.47
391.58	1034.52
391.78	1025.15
391.97	1083.67
392.16	1025.15
392.36	990.05
392.55	992.39
392.75	997.07
392.94	971.32
393.13	952.60
393.33	985.37
393.52	999.41
393.71	1048.56
393.91	997.07
394.10	1046.22
394.29	1114.10
394.49	1050.90
394.68	1100.05
394.88	1121.12
395.07	1179.63
395.26	1109.41
395.46	1165.59
395.65	1165.59
395.84	1135.16
396.04	1277.93
396.23	1053.24
396.42	1053.24
396.62	1158.57
396.81	1086.01
397.00	1207.72
397.19	1188.99
397.39	1153.88
397.58	1263.89
397.77	1291.98
397.97	1280.27
398.16	1228.78
398.35	1301.34
398.55	1338.79
398.74	1352.83
398.93	1376.24
399.12	1336.45
399.32	1343.47
399.51	1409.00
399.70	1404.32
399.90	1273.25
400.09	1413.68
400.28	1369.21
400.47	1514.33
400.67	1430.07
400.86	1479.22
401.05	1528.37
401.24	1481.56
401.44	1509.65
401.63	1528.37
401.82	1488.58
402.01	1528.37
402.21	1607.95
402.40	1572.84
402.59	1619.65
402.78	1610.29
402.97	1558.80
403.17	1612.63
403.36	1584.54
403.55	1657.10
403.74	1692.21
403.93	1631.35
404.13	1746.04
404.32	1638.38
404.51	1629.01
404.70	1846.68
404.89	1717.95
405.09	1797.53
405.28	1739.02
405.47	1708.59
405.66	1741.36
405.85	1734.34
406.05	1750.72
406.24	1818.60
406.43	1842.00
406.62	1970.73
406.81	1909.88
407.00	1914.56
407.20	1783.49
407.39	1839.66
407.58	1851.36
407.77	1907.54
407.96	2033.93
408.15	2085.42
408.34	2012.86
408.54	1926.26
408.73	1984.77
408.92	1940.30
409.11	2083.08
409.30	2066.69
409.49	2104.14
409.68	2073.71
409.87	2155.63
410.07	2207.13
410.26	2054.99
410.45	2080.74
410.64	2115.84
410.83	2246.91
411.02	2218.83
411.21	2457.56
411.40	2289.04
411.59	2303.09
411.78	2310.11
411.98	2375.64
412.17	2293.72
412.36	2410.75
412.55	2478.63
412.74	2459.90
412.93	2581.61
413.12	2431.82
413.31	2612.04
413.50	2487.99
413.69	2602.68
413.88	2590.97
414.07	2679.91
414.26	2574.59
414.45	2691.62
414.64	2722.04
414.83	2768.85
415.02	2782.90
415.22	2623.74
415.41	2810.98
415.60	2848.43
415.79	2820.35
415.98	2794.60
416.17	2876.52
416.36	2909.29
416.55	2869.50
416.74	2965.46
416.93	2913.97
417.12	2909.29
417.31	3077.80
417.50	3038.02
417.69	3171.43
417.88	3105.89
418.07	3103.55
418.26	3185.47
418.45	3077.80
418.64	3281.43
418.83	3363.35
419.02	3042.70
419.21	3295.47
419.39	3218.24
419.58	3241.64
419.77	3194.83
419.96	3379.73
420.15	3232.28
420.34	3426.54
420.53	3342.28
420.72	3674.64
420.91	3506.12
421.10	3529.53
421.29	3534.21
421.48	3445.27
421.67	3566.98
421.86	3522.51
422.05	3531.87
422.24	3478.04
422.43	3492.08
422.61	3508.46
422.80	3669.96
422.99	3592.72
423.18	3529.53
423.37	3571.66
423.56	3616.13
423.75	3471.01
423.94	3555.27
424.13	3386.76
424.32	3527.19
424.50	3611.45
424.69	3625.49
424.88	3592.72
425.07	3599.74
425.26	3686.34
425.45	3578.68
425.64	3630.17
425.83	3599.74
426.01	3604.42
426.20	3681.66
426.39	3679.32
426.58	3653.58
426.77	3574.00
426.96	3613.79
427.15	3588.04
427.33	3602.08
427.52	3719.11
427.71	3896.99
427.90	3864.22
428.09	3981.25
428.28	3744.86
428.46	3772.94
428.65	3854.86
428.84	4072.53
429.03	3873.59
429.22	3875.93
429.40	3880.61
429.59	3936.78
429.78	3857.20
429.97	3698.05
430.16	3969.55
430.34	3864.22
430.53	4128.70
430.72	3906.35
430.91	4011.68
431.10	4044.45
431.28	4217.65
431.47	4196.58
431.66	4208.28
431.85	4198.92
432.03	4194.24
432.22	4224.67
432.41	4203.60
432.60	4276.16
432.79	4353.40
432.97	4456.38
433.16	4379.14
433.35	4290.20
433.54	4337.01
433.72	4245.73
433.91	4273.82
434.10	4362.76
434.28	4505.53
434.47	4290.20
434.66	4512.55
434.85	4498.51
435.03	4550.00
435.22	4491.49
435.41	4739.58
435.59	4622.56
435.78	4718.52
435.97	4676.39
436.16	4671.71
436.34	4564.04
436.53	4802.78
436.72	4863.63
436.90	4641.28
437.09	4671.71
437.28	4645.96
437.46	4685.75
437.65	4690.43
437.84	4863.63
438.02	4889.38
438.21	4690.43
438.40	4793.42
438.58	5018.11
438.77	4889.38
438.96	5132.79
439.14	5064.92
439.33	5114.07
439.52	5186.63
439.70	5177.26
439.89	5282.59
440.08	5167.90
440.26	5261.52
440.45	5313.02
440.63	5423.02
440.82	5607.92
441.01	5336.42
441.19	5369.19
441.38	5533.03
441.57	5514.30
441.75	5626.65
441.94	5703.89
442.12	5837.30
442.31	5767.08
442.50	5652.39
442.68	5774.10
442.87	5764.74
443.05	5701.54
443.24	5923.90
443.43	5872.40
443.61	5961.34
443.80	6083.05
443.98	5937.94
444.17	5760.06
444.35	5928.58
444.54	6080.71
444.73	5841.98
444.91	5949.64
445.10	6001.13
445.28	5863.04
445.47	5771.76
445.65	5888.79
445.84	5951.98
446.02	5989.43
446.21	5923.90
446.39	5963.68
446.58	6057.31
446.77	6080.71
446.95	5998.79
447.14	6139.23
447.32	6328.81
447.51	6179.01
447.69	6122.84
447.88	6122.84
448.06	6176.67
448.25	6111.14
448.43	6113.48
448.62	6169.65
448.80	6080.71
448.99	6162.63
449.17	6052.63
449.36	6307.74
449.54	6272.64
449.73	6537.12
449.91	6579.25
450.10	6422.43
450.28	6427.11
450.46	6555.84
450.65	6382.64
450.83	6530.09
451.02	6469.24
451.20	6539.46
451.39	6656.48
451.57	6534.78
451.76	6670.53
451.94	6553.50
452.13	6759.47
452.31	6752.45
452.49	6597.97
452.68	6534.78
452.86	6654.14
453.05	6672.87
453.23	6686.91
453.42	6569.88
453.60	6743.08
453.78	6892.88
453.97	6661.16
454.15	6925.65
454.34	6867.13
454.52	6775.85
454.70	6808.62
454.89	6799.26
455.07	6719.68
455.26	7049.69
455.44	7073.10
455.62	7239.28
455.81	6906.92
455.99	7047.35
456.17	7185.44
456.36	7187.79
456.54	7241.62
456.73	7325.88
456.91	7370.35
457.09	7555.25
457.28	7531.84
457.46	7279.07
457.64	7459.29
457.83	7566.95
458.01	7389.07
458.19	7527.16
458.38	7625.47
458.56	7625.47
458.74	7506.10
458.93	7426.52
459.11	7578.65
459.29	7613.76
459.48	7620.78
459.66	7660.57
459.84	7784.62
460.03	7838.45
460.21	7606.74
460.39	7669.94
460.57	7791.64
460.76	7950.80
460.94	8053.78
461.12	7798.66
461.31	7765.90
461.49	7950.80
461.67	7810.37
461.85	8009.31
462.04	8133.36
462.22	8470.40
462.40	8128.68
462.59	8194.22
462.77	7978.89
462.95	8290.18
463.13	8163.79
463.32	8217.62
463.50	8287.84
463.68	8346.35
463.86	8311.24
464.05	8098.25
464.23	8327.63
464.41	8304.22
464.59	8159.11
464.78	8531.25
464.96	8388.48
465.14	8278.47
465.32	8519.55
465.50	8636.58
465.69	8514.87
465.87	8358.05
466.05	8456.36
466.23	8528.91
466.41	8404.86
466.60	8690.41
466.78	8594.45
466.96	8521.89
467.14	8566.36
467.32	8617.85
467.51	8655.30
467.69	8655.30
467.87	8753.60
468.05	8753.60
468.23	8580.40
468.41	8594.45
468.60	8702.11
468.78	9123.41
468.96	8835.52
469.14	8837.86
469.32	8915.10
469.50	8901.06
469.69	9090.64
469.87	9018.08
470.05	9135.11
470.23	8870.63
470.41	9111.71
470.59	9153.84
470.77	9163.20
470.95	9242.78
471.14	9315.33
471.32	9107.02
471.50	9570.45
471.68	9415.98
471.86	9605.56
472.04	9650.03
472.22	9643.01
472.40	9502.58
472.58	9589.17
472.77	9781.10
472.95	9795.14
473.13	9940.26
473.31	9659.39
473.49	9584.49
473.67	9844.29
473.85	9872.38
474.03	10153.24
474.21	10195.37
474.39	10239.84
474.57	10068.98
474.75	10218.78
474.93	10338.15
475.12	10359.21
475.30	10431.77
475.48	10478.58
475.66	10452.83
475.84	10312.40
476.02	10356.87
476.20	10747.74
476.38	10583.90
476.56	10920.94
476.74	10946.69
476.92	10876.47
477.10	10916.26
477.28	11253.30
477.46	11236.91
477.64	11311.81
477.82	11559.91
478.00	11690.98
478.18	11585.65
478.36	11609.06
478.54	11719.06
478.72	11843.11
478.90	11969.50
479.08	12173.13
479.26	12135.68
479.44	12243.34
479.62	12189.51
479.80	12226.96
479.98	12266.75
480.16	12585.06
480.34	12451.65
480.52	12788.69
480.70	12568.68
480.88	12566.34
481.06	12638.89
481.24	12903.37
481.41	13341.05
481.59	13397.23
481.77	13177.22
481.95	13593.83
482.13	13219.35
482.31	13359.78
482.49	13933.21
482.67	13965.98
482.85	13877.04
483.03	13989.38
483.21	14176.62
483.39	14071.30
483.57	14230.46
483.74	14497.28
483.92	14516.00
484.10	14480.89
484.28	14654.09
484.46	15023.90
484.64	15080.07
484.82	15028.58
485.00	15012.20
485.18	15150.29
485.35	15435.83
485.53	15220.50
485.71	15246.25
485.89	15566.90
486.07	15339.87
486.25	15709.68
486.43	15587.97
486.61	16039.69
486.78	16039.69
486.96	16468.01
487.14	16468.01
487.32	16683.34
487.50	16746.53
487.68	16989.95
487.85	17111.66
488.03	17291.88
488.21	17235.70
488.39	17291.88
488.57	17579.76
488.75	17418.27
488.92	17589.13
489.10	18010.42
489.28	18132.13
489.46	18132.13
489.64	18373.21
489.81	18523.00
489.99	18703.22
490.17	18855.36
490.35	19044.94
490.53	18780.46
490.70	19136.22
490.88	19194.73
491.06	19627.73
491.24	19426.45
491.41	19499.00
491.59	19398.36
491.77	19587.94
491.95	19927.32
492.13	19960.09
492.30	19936.68
492.48	20030.30
492.66	20566.29
492.84	20381.38
493.01	20203.50
493.19	20615.44
493.37	20879.92
493.54	20882.26
493.72	21207.59
493.90	20943.11
494.08	21481.44
494.25	21259.09
494.43	21341.00
494.61	21727.19
494.79	21869.97
494.96	21972.95
495.14	21776.34
495.32	22504.25
495.49	22202.32
495.67	22031.46
495.85	22258.49
496.02	22780.43
496.20	22944.27
496.38	22480.85
496.55	23344.50
496.73	23576.22
496.91	23370.25
497.09	23262.58
497.26	23630.05
497.44	23264.92
497.62	23601.96
497.79	23400.68
497.97	23484.94
498.14	23800.91
498.32	23520.04
498.50	24439.87
498.67	24299.44
498.85	24472.64
499.03	24610.73
499.20	24308.80
499.38	24748.82
499.56	24826.06
499.73	24966.49
499.91	24837.76
500.08	24922.02
500.26	24723.08
500.44	24987.56
500.61	25223.95
500.79	25165.44
500.97	25511.84
501.14	25649.93
501.32	25542.27
501.49	25556.31
501.67	26267.83
501.84	25612.48
502.02	26085.27
502.20	26085.27
502.37	26326.35
502.55	26134.42
502.72	26274.85
502.90	26455.08
503.07	26522.95
503.25	26382.52
503.43	26190.59
503.60	26462.10
503.78	26546.36
503.95	26761.69
504.13	26869.35
504.30	27040.21
504.48	26735.94
504.65	27304.69
504.83	27049.57
505.01	27569.17
505.18	27323.41
505.36	27470.87
505.53	27667.47
505.71	27402.99
505.88	28257.29
506.06	27927.27
506.23	27906.21
506.41	27810.25
506.58	27850.03
506.76	28107.49
506.93	28147.28
507.11	28404.74
507.28	28287.71
507.46	28247.93
507.63	28470.28
507.81	28329.84
507.98	28556.88
508.16	28687.95
508.33	28498.36
508.50	28945.41
508.68	29326.91
508.85	29659.27
509.03	29235.63
509.20	29134.99
509.38	29766.93
509.55	29502.45
509.73	29008.60
509.90	29708.42
510.08	29439.26
510.25	29598.41
510.42	29722.46
510.60	30036.09
510.77	30228.02
510.95	30155.46
511.12	30328.66
511.30	30256.11
511.47	30459.73
511.64	30546.33
511.82	30525.27
511.99	30433.99
512.17	30850.60
512.34	30572.08
512.51	31037.84
512.69	30742.94
512.86	31023.80
513.04	31365.52
513.21	31400.63
513.38	31398.29
513.56	31126.78
513.73	31033.16
513.90	31236.79
514.08	31119.76
514.25	31316.37
514.43	31274.24
514.60	31241.47
514.77	31557.44
514.95	31569.15
515.12	31945.97
515.29	31718.94
515.47	32112.15
515.64	31842.99
515.81	31859.37
515.99	32215.13
516.16	32226.84
516.33	32009.17
516.51	32151.94
516.68	31950.65
516.85	32107.47
517.03	31903.84
517.20	32627.07
517.37	32753.46
517.54	32503.02
517.72	32657.49
517.89	32594.30
518.06	32706.65
518.24	32730.05
518.41	32936.02
518.58	32624.73
518.75	32765.16
518.93	33123.26
519.10	33078.79
519.27	33205.18
519.45	33380.72
519.62	33701.37
519.79	33589.03
519.96	33787.97
520.14	33743.50
520.31	33420.51
520.48	33759.89
520.65	34384.81
520.83	33736.48
521.00	34141.39
521.17	34082.88
521.34	34368.43
521.52	33839.47
521.69	34628.23
521.86	34314.59
522.03	34401.19
522.20	34864.62
522.38	34698.44
522.55	34672.70
522.72	34712.49
522.89	34749.93
523.07	34747.59
523.24	34892.71
523.41	35449.75
523.58	34911.43
523.75	35047.18
523.92	35260.17
524.10	35494.22
524.27	35468.48
524.44	35278.89
524.61	35440.39
524.78	35686.15
524.96	35562.10
525.13	35622.95
525.30	35857.01
525.47	35866.37
525.64	35889.77
525.81	35964.67
525.98	35906.16
526.16	36313.41
526.33	35943.61
526.50	36271.28
526.67	35644.02
526.84	35526.99
527.01	35728.28
527.18	36311.07
527.36	36297.03
527.53	36278.30
527.70	36701.94
527.87	36961.74
528.04	36582.57
528.21	36924.29
528.38	36634.06
528.55	37001.53
528.72	36891.52
528.89	37090.47
529.07	37226.22
529.24	36793.22
529.41	36968.76
529.58	36718.32
529.75	37228.56
529.92	36926.63
530.09	37390.06
530.26	37528.15
530.43	37202.82
530.60	37343.25
530.77	37457.93
530.94	37521.13
531.11	37443.89
531.28	37928.38
531.46	37771.57
531.63	37979.87
531.80	37958.81
531.97	37624.11
532.14	37661.56
532.31	37450.91
532.48	38005.62
532.65	37816.04
532.82	37986.89
532.99	38064.13
533.16	38024.34
533.33	38087.54
533.50	38763.95
533.67	38384.79
533.84	38415.21
534.01	38424.57
534.18	38337.98
534.35	38689.06
534.52	38110.94
534.69	38478.41
534.86	38712.46
535.03	38653.95
535.20	38670.33
535.37	39019.07
535.54	39145.46
535.71	38822.47
535.88	39164.18
536.05	38951.20
536.22	39042.48
536.38	39178.23
536.55	38962.90
536.72	39079.92
536.89	38761.61
537.06	38911.41
537.23	39484.84
537.40	39147.80
537.57	39468.45
537.74	39356.11
537.91	39131.42
538.08	39416.96
538.25	39302.28
538.42	39550.37
538.59	39798.47
538.75	39292.91
538.92	39529.31
539.09	39683.78
539.26	39454.41
539.43	39370.15
539.60	39756.34
539.77	39548.03
539.94	39749.32
540.11	39962.31
540.28	39618.25
540.44	40086.36
540.61	39997.41
540.78	40119.12
540.95	40196.36
541.12	40126.14
541.29	40046.57
541.46	39917.84
541.62	40502.97
541.79	40472.54
541.96	39938.90
542.13	40474.88
542.30	40266.58
542.47	40048.91
542.63	40304.02
542.80	40428.07
542.97	41043.63
543.14	40903.20
543.31	41132.57
543.48	40903.20
543.64	41706.01
543.81	41366.63
543.98	41031.93
544.15	40926.61
544.32	41303.43
544.48	41324.50
544.65	41116.19
544.82	41273.01
544.99	41088.10
545.16	41420.46
545.32	41127.89
545.49	41273.01
545.66	41364.29
545.83	41544.51
546.00	41911.97
546.16	41586.64
546.33	41488.34
546.50	41111.51
546.67	41453.23
546.83	41249.60
547.00	41525.78
547.17	41701.32
547.34	41464.93
547.50	41722.39
547.67	42124.96
547.84	42080.49
548.00	42323.91
548.17	41816.01
548.34	42246.67
548.51	42279.44
548.67	42017.30
548.84	42368.38
549.01	42220.92
549.18	41972.83
549.34	42337.95
549.51	42223.26
549.68	42314.55
549.84	42220.92
550.01	42649.24
550.18	42562.64
550.34	41944.74
550.51	42494.77
550.68	42611.79
550.84	42195.18
551.01	42272.42
551.18	42445.62
551.34	42696.05
551.51	42529.87
551.68	42644.56
551.84	42766.27
552.01	42632.86
552.18	42829.46
552.34	42398.80
552.51	43065.86
552.68	42756.91
552.84	42850.53
553.01	42649.24
553.18	42625.84
553.34	42979.26
553.51	42735.84
553.67	43037.77
553.84	43470.77
554.01	42749.88
554.17	43065.86
554.34	43540.99
554.51	43140.75
554.67	43248.42
554.84	43030.75
555.00	43185.22
555.17	43337.36
555.33	43564.39
555.50	43271.82
555.67	43522.26
555.83	43407.58
556.00	43372.47
556.16	44289.96
556.33	43311.61
556.50	43641.63
556.66	43538.65
556.83	43281.19
556.99	43686.10
557.16	43831.21
557.32	43538.65
557.49	43686.10
557.65	43562.05
557.82	43849.94
557.98	43180.54
558.15	43739.93
558.32	43735.25
558.48	43952.92
558.65	43655.67
558.81	43414.60
558.98	43564.39
559.14	43606.52
559.31	43981.01
559.47	43688.44
559.64	43835.89
559.80	44402.30
559.97	44299.32
560.13	43662.69
560.30	43524.60
560.46	44081.65
560.63	44287.62
560.79	44273.57
560.96	44004.41
561.12	44285.28
561.29	43784.40
561.45	44083.99
561.61	44013.77
561.78	44076.97
561.94	43871.00
562.11	43966.96
562.27	43903.77
562.44	44666.78
562.60	44041.86
562.77	44194.00
562.93	43622.90
563.10	44727.64
563.26	43863.98
563.42	44339.11
563.59	44119.10
563.75	44514.65
563.92	44390.60
564.08	44751.04
564.24	44854.03
564.41	44088.67
564.57	44629.34
564.74	44629.34
564.90	44744.02
565.07	44779.13
565.23	44322.72
565.39	44201.02
565.56	44488.90
565.72	44172.93
565.88	44336.77
566.05	44629.34
566.21	44236.12
566.38	44486.56
566.54	44210.38
566.70	44678.49
566.87	44971.05
567.03	44699.55
567.19	44835.30
567.36	44535.71
567.52	44142.50
567.68	44900.84
567.85	44570.82
568.01	44512.31
568.17	44470.18
568.34	44521.67
568.50	44882.11
568.66	44788.49
568.83	44800.19
568.99	44685.51
569.15	44524.01
569.32	44404.64
569.48	44184.63
569.64	44678.49
569.81	44758.06
569.97	44903.18
570.13	44566.14
570.30	44474.86
570.46	44395.28
570.62	44790.83
570.78	44491.24
570.95	44531.03
571.11	44641.04
571.27	44411.67
571.43	44975.73
571.60	44994.46
571.76	44549.76
571.92	44692.53
572.09	44795.51
572.25	44563.80
572.41	44746.36
572.57	44978.07
572.74	45317.45
572.90	45104.46
573.06	44634.02
573.22	44727.64
573.38	44910.20
573.55	44814.24
573.71	44940.63
573.87	44898.50
574.03	44737.00
574.20	44685.51
574.36	45057.65
574.52	44844.66
574.68	44847.00
574.84	45099.78
575.01	44697.21
575.17	44891.48
575.33	44898.50
575.49	44608.27
575.65	45003.82
575.82	45162.98
575.98	44989.78
576.14	45165.32
576.30	45137.23
576.46	44706.57
576.62	44903.18
576.79	45052.97
576.95	44783.81
577.11	44802.53
577.27	45067.02
577.43	45125.53
577.59	45312.77
577.75	45174.68
577.92	44921.90
578.08	44994.46
578.24	44779.13
578.40	44877.43
578.56	44837.64
578.72	45272.98
578.88	45247.24
579.04	45020.20
579.21	44809.56
579.37	45237.87
579.53	44680.83
579.69	45067.02
579.85	44886.79
580.01	45375.97
580.17	45265.96
580.33	45207.45
580.49	45043.61
580.65	45647.47
580.82	44809.56
580.98	45312.77
581.14	44879.77
581.30	44980.42
581.46	45298.73
581.62	45055.31
581.78	44861.05
581.94	45214.47
582.10	45336.18
582.26	45368.94
582.42	45322.13
582.58	45123.19
582.74	44907.86
582.90	45289.37
583.06	45186.38
583.22	45256.60
583.38	45148.93
583.54	45399.37
583.70	44947.65
583.86	44758.06
584.02	44823.60
584.18	45162.98
584.34	45265.96
584.50	45074.04
584.66	44921.90
584.82	45095.10
584.98	45703.64
585.14	45287.03
585.30	44999.14
585.46	45172.34
585.62	45162.98
585.78	45244.90
585.94	44655.08
586.10	44884.45
586.26	44828.28
586.42	45352.56
586.58	45074.04
586.74	45317.45
586.90	45214.47
587.06	45116.17
587.22	45179.36
587.38	44947.65
587.54	45315.11
587.70	45216.81
587.86	45329.16
588.02	45200.43
588.18	45287.03
588.34	45485.97
588.49	44992.12
588.65	44451.45
588.81	44832.96
588.97	44912.54
589.13	44638.70
589.29	45170.00
589.45	44767.43
589.61	45193.40
589.77	45727.05
589.93	45127.87
590.08	45488.31
590.24	45474.27
