SpectraSuite Data File
++++++++++++++++++++++++++++++++++++
Date: Fri Oct 25 10:47:47 EDT 2013
User: price-jones
Dark Spectrum Present: No
Reference Spectrum Present: No
Number of Sampled Component Spectra: 1
Spectrometers: USB2+H05261
Integration Time (usec): 100000 (USB2+H05261)
Spectra Averaged: 1 (USB2+H05261)
Boxcar Smoothing: 0 (USB2+H05261)
Correct for Electrical Dark: No (USB2+H05261)
Strobe/Lamp Enabled: No (USB2+H05261)
Correct for Detector Non-linearity: No (USB2+H05261)
Correct for Stray Light: No (USB2+H05261)
Number of Pixels in Processed Spectrum: 2048
>>>>>Begin Processed Spectral Data<<<<<
365.73	133.41
365.92	133.41
366.12	133.41
366.32	35.11
366.52	18.72
366.72	72.56
366.91	11.70
367.11	2.34
367.31	7.02
367.51	0.00
367.70	51.49
367.90	35.11
368.10	18.72
368.30	60.85
368.49	0.00
368.69	65.54
368.89	110.01
369.09	81.92
369.28	100.64
369.48	70.22
369.68	145.11
369.87	65.54
370.07	95.96
370.27	117.03
370.47	180.22
370.66	266.82
370.86	386.19
371.06	409.59
371.25	496.19
371.45	407.25
371.65	470.45
371.84	479.81
372.04	503.22
372.24	486.83
372.44	458.74
372.63	493.85
372.83	491.51
373.03	552.37
373.22	475.13
373.42	557.05
373.62	589.82
373.81	552.37
374.01	465.77
374.21	540.66
374.40	545.34
374.60	589.82
374.79	543.00
374.99	561.73
375.19	624.92
375.38	552.37
375.58	606.20
375.78	550.03
375.97	533.64
376.17	676.41
376.37	566.41
376.56	606.20
376.76	484.49
376.95	498.53
377.15	580.45
377.35	608.54
377.54	678.76
377.74	594.50
377.93	622.58
378.13	561.73
378.33	671.73
378.52	671.73
378.72	716.20
378.91	596.84
379.11	641.31
379.31	596.84
379.50	669.39
379.70	688.12
379.89	741.95
380.09	631.94
380.28	641.31
380.48	709.18
380.68	606.20
380.87	573.43
381.07	702.16
381.26	624.92
381.46	662.37
381.65	671.73
381.85	631.94
382.04	660.03
382.24	683.44
382.43	594.50
382.63	662.37
382.83	695.14
383.02	709.18
383.22	657.69
383.41	695.14
383.61	702.16
383.80	734.93
384.00	690.46
384.19	695.14
384.39	716.20
384.58	767.70
384.78	800.46
384.97	760.67
385.17	704.50
385.36	802.80
385.56	720.88
385.75	798.12
385.95	767.70
386.14	805.14
386.34	678.76
386.53	793.44
386.72	711.52
386.92	816.85
387.11	842.59
387.31	751.31
387.50	781.74
387.70	807.48
387.89	828.55
388.09	837.91
388.28	898.77
388.48	844.93
388.67	809.83
388.86	833.23
389.06	770.04
389.25	861.32
389.45	889.40
389.64	861.32
389.84	950.26
390.03	919.83
390.22	961.96
390.42	933.87
390.61	844.93
390.81	880.04
391.00	936.21
391.19	938.55
391.39	968.98
391.58	976.00
391.78	952.60
391.97	1004.09
392.16	1057.92
392.36	983.02
392.55	1048.56
392.75	901.11
392.94	884.72
393.13	968.98
393.33	945.58
393.52	978.34
393.71	1015.79
393.91	1083.67
394.10	1008.77
394.29	1018.13
394.49	1025.15
394.68	1121.12
394.88	1076.65
395.07	1090.69
395.26	1107.07
395.46	1104.73
395.65	1181.97
395.84	1116.44
396.04	1181.97
396.23	1095.37
396.42	1151.54
396.62	1069.62
396.81	1128.14
397.00	1142.18
397.19	1057.92
397.39	1205.38
397.58	1284.95
397.77	1252.19
397.97	1165.59
398.16	1301.34
398.35	1306.02
398.55	1303.68
398.74	1343.47
398.93	1409.00
399.12	1315.38
399.32	1352.83
399.51	1329.42
399.70	1331.76
399.90	1308.36
400.09	1359.85
400.28	1406.66
400.47	1397.30
400.67	1519.01
400.86	1383.26
401.05	1380.92
401.24	1467.52
401.44	1535.39
401.63	1516.67
401.82	1394.96
402.01	1437.09
402.21	1497.94
402.40	1540.07
402.59	1563.48
402.78	1570.50
402.97	1409.00
403.17	1572.84
403.36	1591.56
403.55	1593.90
403.74	1523.69
403.93	1636.03
404.13	1685.19
404.32	1652.42
404.51	1600.93
404.70	1680.50
404.89	1675.82
405.09	1685.19
405.28	1715.61
405.47	1734.34
405.66	1783.49
405.85	1783.49
406.05	1741.36
406.24	1732.00
406.43	1827.96
406.62	1851.36
406.81	1970.73
407.00	1764.76
407.20	1827.96
407.39	1781.15
407.58	1982.43
407.77	1898.17
407.96	1954.35
408.15	1959.03
408.34	1891.15
408.54	1982.43
408.73	1949.67
408.92	2043.29
409.11	1989.46
409.30	2033.93
409.49	1952.01
409.68	1984.77
409.87	2033.93
410.07	2047.97
410.26	2059.67
410.45	2047.97
410.64	2146.27
410.83	2197.76
411.02	2190.74
411.21	2146.27
411.40	2200.10
411.59	2305.43
411.78	2300.75
411.98	2277.34
412.17	2373.30
412.36	2298.41
412.55	2314.79
412.74	2490.33
412.93	2459.90
413.12	2328.83
413.31	2555.86
413.50	2534.80
413.69	2499.69
413.88	2588.63
414.07	2588.63
414.26	2495.01
414.45	2572.25
414.64	2513.74
414.83	2686.94
415.02	2731.41
415.22	2715.02
415.41	2834.39
415.60	2705.66
415.79	2740.77
415.98	2970.14
416.17	3014.61
416.36	2813.32
416.55	2820.35
416.74	3021.63
416.93	2888.22
417.12	3012.27
417.31	2939.71
417.50	2918.65
417.69	3023.97
417.88	3126.96
418.07	3035.67
418.26	3073.12
418.45	3211.22
418.64	3176.11
418.83	3155.04
419.02	3199.51
419.21	3255.69
419.39	3251.00
419.58	3169.09
419.77	3206.53
419.96	3241.64
420.15	3258.03
420.34	3358.67
420.53	3351.65
420.72	3412.50
420.91	3421.86
421.10	3463.99
421.29	3229.94
421.48	3370.37
421.67	3494.42
421.86	3442.93
422.05	3485.06
422.24	3426.54
422.43	3361.01
422.61	3400.80
422.80	3466.33
422.99	3562.30
423.18	3655.92
423.37	3623.15
423.56	3501.44
423.75	3506.12
423.94	3581.02
424.13	3353.99
424.32	3328.24
424.50	3571.66
424.69	3698.05
424.88	3747.20
425.07	3522.51
425.26	3471.01
425.45	3499.10
425.64	3353.99
425.83	3566.98
426.01	3569.32
426.20	3536.55
426.39	3571.66
426.58	3559.95
426.77	3543.57
426.96	3606.77
427.15	3639.53
427.33	3794.01
427.52	3681.66
427.71	3578.68
427.90	3723.79
428.09	3808.05
428.28	3751.88
428.46	3672.30
428.65	3698.05
428.84	3868.91
429.03	4004.66
429.22	3857.20
429.40	3669.96
429.59	3791.67
429.78	3709.75
429.97	3648.90
430.16	3735.50
430.34	3709.75
430.53	3885.29
430.72	3882.95
430.91	3866.56
431.10	3885.29
431.28	4098.28
431.47	4138.07
431.66	4212.96
431.85	3992.95
432.03	4109.98
432.22	4292.54
432.41	4084.23
432.60	4142.75
432.79	4135.73
432.97	4341.69
433.16	4346.37
433.35	4112.32
433.54	4348.72
433.72	4311.27
433.91	4381.48
434.10	4231.69
434.28	4393.19
434.47	4416.59
434.66	4402.55
434.85	4486.81
435.03	4447.02
435.22	4430.63
435.41	4589.79
435.59	4592.13
435.78	4425.95
435.97	4524.26
436.16	4491.49
436.34	4521.92
436.53	4662.35
436.72	4788.74
436.90	4482.13
437.09	4713.84
437.28	4601.49
437.46	4589.79
437.65	4774.69
437.84	4657.67
438.02	4751.29
438.21	4695.11
438.40	4723.20
438.58	4924.49
438.77	5004.07
438.96	4936.19
439.14	5025.13
439.33	4919.81
439.52	5137.48
439.70	5179.61
439.89	5078.96
440.08	5050.88
440.26	5128.11
440.45	5165.56
440.63	5296.63
440.82	5350.46
441.01	5355.15
441.19	5425.36
441.38	5390.25
441.57	5472.17
441.75	5563.45
441.94	5589.20
442.12	5551.75
442.31	5626.65
442.50	5544.73
442.68	5727.29
442.87	5572.82
443.05	5736.65
443.24	5909.85
443.43	5785.80
443.61	5865.38
443.80	6001.13
443.98	5729.63
444.17	5570.48
444.35	5804.53
444.54	5916.87
444.73	5853.68
444.91	5881.77
445.10	5935.60
445.28	5764.74
445.47	5687.50
445.65	5675.80
445.84	5860.70
446.02	5959.00
446.21	5844.32
446.39	6015.18
446.58	5900.49
446.77	6008.16
446.95	5694.52
447.14	5804.53
447.32	6099.44
447.51	6122.84
447.69	5966.03
447.88	5849.00
448.06	5982.41
448.25	6001.13
448.43	5827.93
448.62	5909.85
448.80	6071.35
448.99	6036.24
449.17	6134.54
449.36	6148.59
449.54	6221.14
449.73	6333.49
449.91	6260.93
450.10	6289.02
450.28	6293.70
450.46	6284.34
450.65	6424.77
450.83	6354.55
451.02	6415.41
451.20	6457.54
451.39	6342.85
451.57	6296.04
451.76	6509.03
451.94	6335.83
452.13	6525.41
452.31	6452.86
452.49	6195.40
452.68	6565.20
452.86	6551.16
453.05	6417.75
453.23	6633.08
453.42	6574.56
453.60	6630.74
453.78	6546.48
453.97	6579.25
454.15	6747.76
454.34	6651.80
454.52	6794.58
454.70	6675.21
454.89	6890.54
455.07	6850.75
455.26	6927.99
455.44	7140.97
455.62	6995.86
455.81	6890.54
455.99	6902.24
456.17	6927.99
456.36	7091.82
456.54	7155.02
456.73	7084.80
456.91	7314.17
457.09	7016.93
457.28	7246.30
457.46	7166.72
457.64	7279.07
457.83	7180.76
458.01	7227.57
458.19	7510.78
458.38	7190.13
458.56	7433.54
458.74	7372.69
458.93	7419.50
459.11	7492.05
459.29	7344.60
459.48	7559.93
459.66	7573.97
459.84	7508.44
460.03	7602.06
460.21	7433.54
460.39	7765.90
460.57	7585.68
460.76	7646.53
460.94	7798.66
461.12	7768.24
461.31	7826.75
461.49	7698.02
461.67	7693.34
461.85	7981.23
462.04	7971.86
462.22	8329.97
462.40	8088.89
462.59	7894.63
462.77	8013.99
462.95	8070.17
463.13	8006.97
463.32	7899.31
463.50	8236.35
463.68	8102.93
463.86	8021.02
464.05	8124.00
464.23	8105.28
464.41	8241.03
464.59	8016.33
464.78	8248.05
464.96	8173.15
465.14	8112.30
465.32	8339.33
465.50	8386.14
465.69	8332.31
465.87	8339.33
466.05	8411.89
466.23	8252.73
466.41	8369.76
466.60	8428.27
466.78	8376.78
466.96	8493.80
467.14	8500.83
467.32	8514.87
467.51	8669.34
467.69	8454.02
467.87	8439.97
468.05	8589.77
468.23	8367.42
468.41	8552.32
468.60	8589.77
468.78	8470.40
468.96	8559.34
469.14	8971.27
469.32	8994.68
469.50	8610.83
469.69	8737.22
469.87	8777.01
470.05	8997.02
470.23	8954.89
470.41	8990.00
470.59	9102.34
470.77	9018.08
470.95	8861.27
471.14	9025.11
471.32	8737.22
471.50	9357.46
471.68	9308.31
471.86	9210.01
472.04	9355.12
472.22	9516.62
472.40	9167.88
472.58	9338.74
472.77	9369.16
472.95	9558.75
473.13	9764.72
473.31	9310.65
473.49	9497.89
473.67	9521.30
473.85	9750.67
474.03	9919.19
474.21	9834.93
474.39	10160.27
474.57	9930.89
474.75	9940.26
474.93	10155.58
475.12	9954.30
475.30	10064.30
475.48	10204.74
475.66	10300.70
475.84	10237.50
476.02	10286.65
476.20	10221.12
476.38	10492.62
476.56	10679.86
476.74	10504.32
476.92	10724.33
477.10	10785.19
477.28	10827.32
477.46	11117.54
477.64	11136.27
477.82	11213.51
478.00	11290.74
478.18	11342.24
478.36	11311.81
478.54	11576.29
478.72	11716.72
478.90	11728.42
479.08	11793.96
479.26	11899.28
479.44	12011.63
479.62	11941.41
479.80	11978.86
479.98	12107.59
480.16	12430.59
480.34	12102.91
480.52	12561.66
480.70	12215.26
480.88	12379.09
481.06	12638.89
481.24	12716.13
481.41	12826.14
481.59	12912.74
481.77	13011.04
481.95	13240.41
482.13	13371.48
482.31	13121.04
482.49	13525.96
482.67	13348.08
482.85	13528.30
483.03	13858.31
483.21	13839.59
483.39	14061.94
483.57	14185.99
483.74	13949.59
483.92	14293.65
484.10	14221.10
484.28	14476.21
484.46	14717.29
484.64	14941.98
484.82	14604.94
485.00	14850.70
485.18	14995.81
485.35	15272.00
485.53	15084.75
485.71	15190.08
485.89	15304.76
486.07	15335.19
486.25	15456.90
486.43	15609.03
486.61	15379.66
486.78	15758.83
486.96	15812.66
487.14	16102.89
487.32	16201.19
487.50	16390.77
487.68	16594.40
487.85	16905.69
488.03	16889.31
488.21	17020.38
488.39	17130.38
488.57	17076.55
488.75	17593.81
488.92	17362.09
489.10	17322.30
489.28	17919.14
489.46	17827.86
489.64	18043.19
489.81	18249.16
489.99	18480.87
490.17	18562.79
490.35	18649.39
490.53	18845.99
490.70	18750.03
490.88	18658.75
491.06	19307.08
491.24	18899.83
491.41	19112.81
491.59	19278.99
491.77	19288.35
491.95	19314.10
492.13	19651.14
492.30	19644.12
492.48	19735.40
492.66	19831.36
492.84	19908.60
493.01	20341.60
493.19	20121.59
493.37	20189.46
493.54	20582.67
493.72	20781.62
493.90	20800.34
494.08	21106.95
494.25	20755.87
494.43	21429.94
494.61	21493.14
494.79	21170.15
494.96	21296.53
495.14	21584.42
495.32	21860.60
495.49	21621.87
495.67	21844.22
495.85	22012.74
496.02	22188.28
496.20	22232.75
496.38	22197.64
496.55	22764.05
496.73	22740.64
496.91	22712.56
497.09	23164.28
497.26	23157.26
497.44	22890.44
497.62	23356.21
497.79	23503.66
497.97	23180.67
498.14	23412.38
498.32	23580.90
498.50	23531.75
498.67	23814.95
498.85	23793.89
499.03	24217.52
499.20	24243.27
499.38	23995.17
499.56	24360.30
499.73	24308.80
499.91	24439.87
500.08	24372.00
500.26	24334.55
500.44	24582.65
500.61	24652.86
500.79	24379.02
500.97	25055.43
501.14	25092.88
501.32	25305.87
501.49	24851.81
501.67	25476.73
501.84	25032.03
502.02	25355.02
502.20	25832.49
502.37	26047.82
502.55	25673.34
502.72	25965.90
502.90	25963.56
503.07	25996.33
503.25	25727.17
503.43	26071.23
503.60	26384.86
503.78	26511.25
503.95	26410.60
504.13	26164.85
504.30	26611.89
504.48	26155.49
504.65	26801.47
504.83	27096.38
505.01	27019.14
505.18	27115.11
505.36	27080.00
505.53	27185.32
505.71	27166.60
505.88	27534.06
506.06	26995.74
506.23	27321.07
506.41	27080.00
506.58	27550.45
506.76	27620.66
506.93	28016.21
507.11	27543.42
507.28	27922.59
507.46	28175.37
507.63	27824.29
507.81	28409.42
507.98	28191.75
508.16	28208.14
508.33	28215.16
508.50	28341.55
508.68	28503.04
508.85	28961.79
509.03	28816.68
509.20	29106.90
509.38	28917.32
509.55	28849.44
509.73	29095.20
509.90	29163.08
510.08	29165.42
510.25	29191.16
510.42	29343.30
510.60	29390.11
510.77	29446.28
510.95	29659.27
511.12	29418.19
511.30	29853.53
511.47	30005.67
511.64	30108.65
511.82	30246.74
511.99	29802.04
512.17	30361.43
512.34	30326.32
512.51	30394.20
512.69	30518.25
512.86	30543.99
513.04	30909.11
513.21	30464.41
513.38	30253.76
513.56	30639.95
513.73	30534.63
513.90	31096.36
514.08	30895.07
514.25	31077.63
514.43	31159.55
514.60	30958.27
514.77	31108.06
514.95	31304.67
515.12	31534.04
515.29	30824.86
515.47	31615.96
515.64	31473.18
515.81	31784.48
515.99	31751.71
516.16	31817.24
516.33	31770.43
516.51	32034.91
516.68	31693.19
516.85	31714.26
517.03	31606.59
517.20	32065.34
517.37	32126.19
517.54	32306.41
517.72	32189.39
517.89	32245.56
518.06	32095.77
518.24	31936.61
518.41	31817.24
518.58	32334.50
518.75	32526.42
518.93	32849.42
519.10	32833.04
519.27	32769.84
519.45	32767.50
519.62	32739.41
519.79	32975.81
519.96	33383.06
520.14	32992.19
520.31	32804.95
520.48	33263.69
520.65	33539.88
520.83	33710.74
521.00	33802.02
521.17	33612.43
521.34	33905.00
521.52	33912.02
521.69	33977.56
521.86	34134.37
522.03	34206.93
522.20	34204.59
522.38	34209.27
522.55	34401.19
522.72	34239.70
522.89	34099.26
523.07	34649.29
523.24	34181.18
523.41	34443.32
523.58	34326.30
523.75	34740.57
523.92	34749.93
524.10	35168.89
524.27	35154.85
524.44	34738.23
524.61	34801.43
524.78	34749.93
524.96	35454.44
525.13	35754.02
525.30	35599.55
525.47	35377.20
525.64	35548.06
525.81	35421.67
525.98	35629.98
526.16	34969.94
526.33	34965.26
526.50	35807.86
526.67	35669.76
526.84	35548.06
527.01	35445.07
527.18	35695.51
527.36	35789.13
527.53	36294.69
527.70	36236.17
527.87	36154.26
528.04	35948.29
528.21	36182.34
528.38	35999.78
528.55	36133.19
528.72	36526.40
528.89	36500.65
529.07	36617.68
529.24	36229.15
529.41	36552.15
529.58	36505.34
529.75	36521.72
529.92	37057.70
530.09	36587.25
530.26	36868.12
530.43	36751.09
530.60	36795.56
530.77	37048.34
530.94	37165.37
531.11	36844.71
531.28	37378.36
531.46	37406.44
531.63	37404.10
531.80	37027.28
531.97	37319.84
532.14	37572.62
532.31	37167.71
532.48	37619.43
532.65	38115.62
532.82	37378.36
532.99	37670.92
533.16	37177.07
533.33	37755.18
533.50	37759.86
533.67	37745.82
533.84	37603.05
534.01	37813.70
534.18	37720.07
534.35	38127.33
534.52	37853.48
534.69	38029.02
534.86	38099.24
535.03	38389.47
535.20	38412.87
535.37	38731.18
535.54	38321.59
535.71	38387.13
535.88	38382.45
536.05	38316.91
536.22	38401.17
536.38	38845.87
536.55	38539.26
536.72	38462.02
536.89	38876.30
537.06	38452.66
537.23	38993.32
537.40	38586.07
537.57	38813.10
537.74	39075.24
537.91	39260.15
538.08	39243.76
538.25	38859.91
538.42	38990.98
538.59	39543.35
538.75	38927.79
538.92	38941.83
539.09	39416.96
539.26	39159.50
539.43	39391.22
539.60	39402.92
539.77	39351.43
539.94	39304.62
540.11	39751.66
540.28	39091.63
540.44	39295.25
540.61	39583.14
540.78	39475.48
540.95	39634.63
541.12	39108.01
541.29	39438.03
541.46	39402.92
541.62	39662.72
541.79	40217.43
541.96	39587.82
542.13	39526.97
542.30	39997.41
542.47	40055.93
542.63	40304.02
542.80	40224.45
542.97	40353.18
543.14	40739.36
543.31	40772.13
543.48	40528.72
543.64	41017.89
543.81	40561.48
543.98	40886.82
544.15	40442.12
544.32	40711.28
544.48	41130.23
544.65	40657.45
544.82	40650.42
544.99	40430.41
545.16	40554.46
545.32	40938.31
545.49	40933.63
545.66	41017.89
545.83	40868.09
546.00	41233.22
546.16	41277.69
546.33	40414.03
546.50	40879.80
546.67	41062.36
546.83	40917.25
547.00	40978.10
547.17	41209.81
547.34	41048.32
547.50	41811.33
547.67	41560.89
547.84	41312.80
548.00	41752.82
548.17	41748.14
548.34	41277.69
548.51	41455.57
548.67	41717.71
548.84	41497.70
549.01	41263.64
549.18	41691.96
549.34	42131.98
549.51	41872.18
549.68	42007.94
549.84	41738.77
550.01	41970.49
550.18	41991.55
550.34	41680.26
550.51	42043.04
550.68	41453.23
550.84	41750.48
551.01	41954.10
551.18	42012.62
551.34	41982.19
551.51	42192.84
551.68	42007.94
551.84	42216.24
552.01	42117.94
552.18	42263.05
552.34	41794.95
552.51	42705.41
552.68	42541.58
552.84	42941.81
553.01	42845.85
553.18	42555.62
553.34	42478.38
553.51	42295.82
553.67	42471.36
553.84	42684.35
554.01	42665.63
554.17	42440.93
554.34	42993.30
554.51	42562.64
554.67	42960.53
554.84	42630.52
555.00	42820.10
555.17	42768.61
555.33	42794.36
555.50	42660.94
555.67	42625.84
555.83	42862.23
556.00	42792.01
556.16	43276.51
556.33	43290.55
556.50	43276.51
556.66	43337.36
556.83	42930.11
556.99	43320.98
557.16	43360.76
557.32	43026.07
557.49	43098.62
557.65	43129.05
557.82	42438.59
557.98	43091.60
558.15	43033.09
558.32	43313.95
558.48	43096.28
558.65	43229.69
558.81	43463.75
558.98	43330.34
559.14	43086.92
559.31	43576.09
559.47	43587.80
559.64	43854.62
559.80	43725.89
559.97	43686.10
560.13	43304.59
560.30	43658.01
560.46	43611.20
560.63	43948.24
560.79	43414.60
560.96	43973.98
561.12	43276.51
561.29	43346.72
561.45	43880.36
561.61	43753.97
561.78	43529.28
561.94	43112.67
562.11	43288.21
562.27	43599.50
562.44	44086.33
562.60	43805.47
562.77	43786.74
562.93	43332.68
563.10	43608.86
563.26	43597.16
563.42	43824.19
563.59	43395.87
563.75	43739.93
563.92	43636.95
564.08	44112.08
564.24	44311.02
564.41	43931.86
564.57	43952.92
564.74	44083.99
564.90	43697.80
565.07	43913.13
565.23	43929.51
565.39	43997.39
565.56	44100.37
565.72	43653.33
565.88	44083.99
566.05	44023.14
566.21	43997.39
566.38	43831.21
566.54	43988.03
566.70	43863.98
566.87	44186.97
567.03	44477.20
567.19	44505.29
567.36	44383.58
567.52	44023.14
567.68	44615.29
567.85	44179.95
568.01	44175.27
568.17	43775.04
568.34	44004.41
568.50	43917.81
568.66	43838.23
568.83	44280.60
568.99	43910.79
569.15	44006.75
569.32	44144.84
569.48	44327.41
569.64	44376.56
569.81	44388.26
569.97	44123.78
570.13	44081.65
570.30	44144.84
570.46	43952.92
570.62	44320.38
570.78	44357.83
570.95	44318.04
571.11	44549.76
571.27	44259.53
571.43	44350.81
571.60	44643.38
571.76	44357.83
571.92	44287.62
572.09	44252.51
572.25	43868.66
572.41	44470.18
572.57	44353.15
572.74	44587.21
572.90	44512.31
573.06	44673.81
573.22	44435.07
573.38	44685.51
573.55	44168.25
573.71	44783.81
573.87	44226.76
574.03	44044.20
574.20	44048.88
574.36	44280.60
574.52	44608.27
574.68	44243.15
574.84	44406.98
575.01	44474.86
575.17	44711.25
575.33	44390.60
575.49	44065.27
575.65	44748.70
575.82	44634.02
575.98	44685.51
576.14	44484.22
576.30	44374.22
576.46	43920.15
576.62	44205.70
576.79	44540.39
576.95	44025.48
577.11	44304.00
577.27	44428.05
577.43	44474.86
577.59	44617.63
577.75	44598.91
577.92	44666.78
578.08	44650.40
578.24	43948.24
578.40	44339.11
578.56	44362.51
578.72	44587.21
578.88	44741.68
579.04	44133.14
579.21	44339.11
579.37	44362.51
579.53	44388.26
579.69	44367.20
579.85	44847.00
580.01	44847.00
580.17	44648.06
580.33	44673.81
580.49	44931.26
580.65	44488.90
580.82	44500.61
580.98	44685.51
581.14	44477.20
581.30	44949.99
581.46	44357.83
581.62	44811.90
581.78	44275.91
581.94	45125.53
582.10	44720.62
582.26	44886.79
582.42	44442.09
582.58	44823.60
582.74	44287.62
582.90	44762.75
583.06	44844.66
583.22	45165.32
583.38	44933.60
583.54	44957.01
583.70	44486.56
583.86	44828.28
584.02	44060.58
584.18	44699.55
584.34	44914.88
584.50	44425.71
584.66	44814.24
584.82	45090.42
584.98	45069.36
585.14	44634.02
585.30	44472.52
585.46	44626.99
585.62	44666.78
585.78	44397.62
585.94	44179.95
586.10	44460.82
586.26	44802.53
586.42	44760.40
586.58	44758.06
586.74	44949.99
586.90	44947.65
587.06	44252.51
587.22	44847.00
587.38	44708.91
587.54	44837.64
587.70	45162.98
587.86	44753.38
588.02	44729.98
588.18	44638.70
588.34	44701.89
588.49	44467.84
588.65	44435.07
588.81	44442.09
588.97	44252.51
589.13	44626.99
589.29	44676.15
589.45	44832.96
589.61	44879.77
589.77	45071.70
589.93	44701.89
590.08	45167.66
590.24	45052.97
