SpectraSuite Data File
++++++++++++++++++++++++++++++++++++
Date: Fri Oct 25 11:23:21 EDT 2013
User: price-jones
Dark Spectrum Present: No
Reference Spectrum Present: No
Number of Sampled Component Spectra: 1
Spectrometers: USB2+H05261
Integration Time (usec): 100000 (USB2+H05261)
Spectra Averaged: 1 (USB2+H05261)
Boxcar Smoothing: 0 (USB2+H05261)
Correct for Electrical Dark: No (USB2+H05261)
Strobe/Lamp Enabled: No (USB2+H05261)
Correct for Detector Non-linearity: No (USB2+H05261)
Correct for Stray Light: No (USB2+H05261)
Number of Pixels in Processed Spectrum: 2048
>>>>>Begin Processed Spectral Data<<<<<
365.73	182.56
365.92	182.56
366.12	182.56
366.32	133.41
366.52	149.79
366.72	124.05
366.91	112.35
367.11	126.39
367.31	74.90
367.51	93.62
367.70	98.30
367.90	189.58
368.10	196.60
368.30	163.84
368.49	133.41
368.69	145.11
368.89	154.48
369.09	117.03
369.28	166.18
369.48	138.09
369.68	212.99
369.87	215.33
370.07	166.18
370.27	177.88
370.47	276.18
370.66	624.92
370.86	599.18
371.06	692.80
371.25	681.10
371.45	702.16
371.65	791.10
371.84	688.12
372.04	650.67
372.24	683.44
372.44	713.86
372.63	772.38
372.83	732.59
373.03	685.78
373.22	793.44
373.42	718.54
373.62	734.93
373.81	786.42
374.01	765.36
374.21	851.96
374.40	802.80
374.60	821.53
374.79	823.87
374.99	777.06
375.19	844.93
375.38	887.06
375.58	884.72
375.78	849.61
375.97	800.46
376.17	882.38
376.37	873.02
376.56	887.06
376.76	915.15
376.95	873.02
377.15	968.98
377.35	919.83
377.54	891.74
377.74	856.64
377.93	849.61
378.13	884.72
378.33	873.02
378.52	919.83
378.72	961.96
378.91	929.19
379.11	971.32
379.31	976.00
379.50	896.43
379.70	990.05
379.89	997.07
380.09	997.07
380.28	922.17
380.48	940.90
380.68	938.55
380.87	1043.88
381.07	990.05
381.26	1001.75
381.46	978.34
381.65	1013.45
381.85	1062.60
382.04	1018.13
382.24	1060.26
382.43	1107.07
382.63	1013.45
382.83	1109.41
383.02	1064.94
383.22	1083.67
383.41	1116.44
383.61	1107.07
383.80	1121.12
384.00	1181.97
384.19	1121.12
384.39	1219.42
384.58	1116.44
384.78	1111.75
384.97	1174.95
385.17	1165.59
385.36	1151.54
385.56	1235.80
385.75	1179.63
385.95	1135.16
386.14	1135.16
386.34	1064.94
386.53	1212.40
386.72	1252.19
386.92	1212.40
387.11	1207.72
387.31	1181.97
387.50	1233.46
387.70	1256.87
387.89	1341.13
388.09	1345.81
388.28	1254.53
388.48	1242.82
388.67	1296.66
388.86	1277.93
389.06	1247.51
389.25	1275.59
389.45	1301.34
389.64	1362.19
389.84	1355.17
390.03	1378.58
390.22	1348.15
390.42	1413.68
390.61	1401.98
390.81	1465.18
391.00	1390.28
391.19	1416.02
391.39	1348.15
391.58	1446.45
391.78	1497.94
391.97	1479.22
392.16	1523.69
392.36	1542.41
392.55	1474.54
392.75	1460.49
392.94	1549.43
393.13	1589.22
393.33	1535.39
393.52	1556.46
393.71	1568.16
393.91	1596.25
394.10	1584.54
394.29	1619.65
394.49	1614.97
394.68	1645.40
394.88	1629.01
395.07	1657.10
395.26	1600.93
395.46	1701.57
395.65	1748.38
395.84	1647.74
396.04	1762.42
396.23	1638.38
396.42	1769.44
396.62	1818.60
396.81	1717.95
397.00	1839.66
397.19	1792.85
397.39	1743.70
397.58	1849.02
397.77	1750.72
397.97	1879.45
398.16	1895.83
398.35	1884.13
398.55	1849.02
398.74	1888.81
398.93	1851.36
399.12	2024.56
399.32	1849.02
399.51	1856.04
399.70	1949.67
399.90	1844.34
400.09	2043.29
400.28	2083.08
400.47	2108.82
400.67	2085.42
400.86	2090.10
401.05	2136.91
401.24	2174.36
401.44	2059.67
401.63	2172.02
401.82	2176.70
402.01	2115.84
402.21	2230.53
402.40	2218.83
402.59	2260.96
402.78	2209.47
402.97	2256.28
403.17	2235.21
403.36	2249.25
403.55	2267.98
403.74	2333.51
403.93	2307.77
404.13	2321.81
404.32	2333.51
404.51	2394.37
404.70	2530.12
404.89	2361.60
405.09	2415.43
405.28	2506.71
405.47	2415.43
405.66	2492.67
405.85	2523.10
406.05	2443.52
406.24	2450.54
406.43	2593.31
406.62	2626.08
406.81	2750.13
407.00	2698.64
407.20	2628.42
407.39	2686.94
407.58	2693.96
407.77	2682.25
407.96	2738.43
408.15	2794.60
408.34	2605.02
408.54	2862.48
408.73	2836.73
408.92	2834.39
409.11	2839.07
409.30	2836.73
409.49	2836.73
409.68	2787.58
409.87	2939.71
410.07	3005.25
410.26	3091.85
410.45	3038.02
410.64	2984.18
410.83	3166.74
411.02	3157.38
411.21	3251.00
411.40	3183.13
411.59	3260.37
411.78	3159.72
411.98	3180.79
412.17	3349.31
412.36	3316.54
412.55	3346.97
412.74	3501.44
412.93	3463.99
413.12	3391.44
413.31	3620.81
413.50	3534.21
413.69	3503.78
413.88	3712.09
414.07	3606.77
414.26	3611.45
414.45	3698.05
414.64	3812.73
414.83	3775.28
415.02	3840.82
415.22	3775.28
415.41	3866.56
415.60	3922.74
415.79	3922.74
415.98	4056.15
416.17	4046.79
416.36	3941.46
416.55	4021.04
416.74	4072.53
416.93	4138.07
417.12	4189.56
417.31	4264.46
417.50	4227.01
417.69	4245.73
417.88	4327.65
418.07	4360.42
418.26	4245.73
418.45	4360.42
418.64	4484.47
418.83	4472.76
419.02	4383.82
419.21	4461.06
419.39	4465.74
419.58	4592.13
419.77	4507.87
419.96	4629.58
420.15	4688.09
420.34	4638.94
420.53	4615.54
420.72	4641.28
420.91	4681.07
421.10	4711.50
421.29	4873.00
421.48	4702.14
421.67	4856.61
421.86	4816.82
422.05	4828.53
422.24	4851.93
422.43	4865.97
422.61	4947.89
422.80	5128.11
422.99	5046.20
423.18	5167.90
423.37	4947.89
423.56	5008.75
423.75	4931.51
423.94	4863.63
424.13	4585.11
424.32	4922.15
424.50	5149.18
424.69	5062.58
424.88	5172.58
425.07	4987.68
425.26	5034.49
425.45	5013.43
425.64	5013.43
425.83	5156.20
426.01	5158.54
426.20	5109.39
426.39	5071.94
426.58	5043.85
426.77	5032.15
426.96	5149.18
427.15	5116.41
427.33	5277.91
427.52	5291.95
427.71	5233.44
427.90	5352.81
428.09	5371.53
428.28	5378.55
428.46	5320.04
428.65	5408.98
428.84	5509.62
429.03	5479.19
429.22	5444.09
429.40	5458.13
429.59	5624.31
429.78	5453.45
429.97	5231.10
430.16	5376.21
430.34	5776.44
430.53	5748.36
430.72	5652.39
430.91	5643.03
431.10	5643.03
431.28	5757.72
431.47	5912.19
431.66	5877.09
431.85	5865.38
432.03	6076.03
432.22	6076.03
432.41	5914.53
432.60	5872.40
432.79	6066.67
432.97	5884.11
433.16	6090.07
433.35	5963.68
433.54	6345.19
433.72	6286.68
433.91	6080.71
434.10	6136.88
434.28	6399.02
434.47	6291.36
434.66	6267.95
434.85	6427.11
435.03	6225.82
435.22	6333.49
435.41	6654.14
435.59	6375.62
435.78	6574.56
435.97	6516.05
436.16	6363.92
436.34	6377.96
436.53	6509.03
436.72	6799.26
436.90	6588.61
437.09	6722.02
437.28	6434.13
437.46	6733.72
437.65	6562.86
437.84	6829.68
438.02	6949.05
438.21	6817.98
438.40	6803.94
438.58	7021.61
438.77	7260.34
438.96	6963.09
439.14	7075.44
439.33	7220.55
439.52	7356.30
439.70	7300.13
439.89	7470.99
440.08	7349.28
440.26	7503.76
440.45	7314.17
440.63	7508.44
440.82	7819.73
441.01	7723.77
441.19	7719.09
441.38	7613.76
441.57	7798.66
441.75	7978.89
441.94	8079.53
442.12	7899.31
442.31	8058.46
442.50	8124.00
442.68	7969.52
442.87	8140.38
443.05	8205.92
443.24	8273.79
443.43	8149.75
443.61	8386.14
443.80	8311.24
443.98	8159.11
444.17	7948.46
444.35	8334.65
444.54	8386.14
444.73	8498.49
444.91	8622.53
445.10	8439.97
445.28	8409.54
445.47	8397.84
445.65	8374.44
445.84	8496.14
446.02	8512.53
446.21	8540.61
446.39	8596.79
446.58	8262.09
446.77	8334.65
446.95	8381.46
447.14	8327.63
447.32	8571.04
447.51	8631.90
447.69	8538.27
447.88	8601.47
448.06	8418.91
448.25	8482.10
448.43	8667.00
448.62	8777.01
448.80	8575.72
448.99	8840.20
449.17	8650.62
449.36	8781.69
449.54	8959.57
449.73	9172.56
449.91	9046.17
450.10	9167.88
450.28	9067.24
450.46	9139.79
450.65	9298.95
450.83	9193.62
451.02	9060.21
451.20	9153.84
451.39	9228.73
451.57	9238.09
451.76	9015.74
451.94	9174.90
452.13	9406.61
452.31	9320.01
452.49	9242.78
452.68	9577.47
452.86	9544.70
453.05	9352.78
453.23	9561.09
453.42	9378.53
453.60	9362.14
453.78	9535.34
453.97	9472.15
454.15	9600.88
454.34	9628.96
454.52	9853.66
454.70	9832.59
454.89	9989.41
455.07	9900.47
455.26	9694.50
455.44	10033.88
455.62	10015.15
455.81	9951.96
455.99	10071.33
456.17	10136.86
456.36	10207.08
456.54	10218.78
456.73	10452.83
456.91	10649.44
457.09	10534.75
457.28	10668.16
457.46	10490.28
457.64	10469.22
457.83	10574.54
458.01	10335.81
458.19	10775.83
458.38	10736.04
458.56	10654.12
458.74	10768.80
458.93	10670.50
459.11	10609.65
459.29	10937.32
459.48	10951.37
459.66	10867.11
459.84	10934.98
460.03	11410.11
460.21	11110.52
460.39	11016.90
460.57	11108.18
460.76	11206.48
460.94	11169.04
461.12	11192.44
461.31	11365.64
461.49	11372.66
461.67	11154.99
461.85	11403.09
462.04	11349.26
462.22	11562.25
462.40	11555.22
462.59	11683.95
462.77	11749.49
462.95	11644.17
463.13	11459.26
463.32	11836.09
463.50	11793.96
463.68	11812.68
463.86	11934.39
464.05	11749.49
464.23	11786.94
464.41	12205.89
464.59	11826.73
464.78	12226.96
464.96	12292.49
465.14	12023.33
465.32	12187.17
465.50	12287.81
465.69	12217.60
465.87	12435.27
466.05	12339.30
466.23	12287.81
466.41	12322.92
466.60	12681.02
466.78	12369.73
466.96	12535.91
467.14	12489.10
467.32	12601.44
467.51	12865.92
467.69	12360.37
467.87	12589.74
468.05	12882.31
468.23	12594.42
468.41	12578.04
468.60	12760.60
468.78	12858.90
468.96	12704.43
469.14	13146.79
469.32	13137.43
469.50	12547.61
469.69	13242.75
469.87	13455.74
470.05	13327.01
470.23	13425.31
470.41	13128.06
470.59	13582.13
470.77	13135.09
470.95	13163.17
471.14	13692.13
471.32	13219.35
471.50	13790.44
471.68	13771.71
471.86	13680.43
472.04	13980.02
472.22	13956.61
472.40	13839.59
472.58	13848.95
472.77	14015.13
472.95	14232.80
473.13	14595.58
473.31	14272.59
473.49	14363.87
473.67	14195.35
473.85	14707.93
474.03	14644.73
474.21	14579.20
474.39	14831.97
474.57	15033.26
474.75	14876.44
474.93	15173.69
475.12	15360.94
475.30	15272.00
475.48	15157.31
475.66	15482.64
475.84	15283.70
476.02	15632.44
476.20	15494.35
476.38	15831.38
476.56	15953.09
476.74	16180.12
476.92	16053.73
477.10	15913.30
477.28	16472.69
477.46	16446.94
477.64	16472.69
477.82	16533.54
478.00	17202.94
478.18	16821.43
478.36	17118.68
478.54	17238.05
478.72	17221.66
478.90	17781.05
479.08	17673.39
479.26	18036.17
479.44	17825.52
479.62	18078.30
479.80	18366.18
479.98	18623.64
480.16	18792.16
480.34	18567.47
480.52	18745.35
480.70	18682.16
480.88	18403.63
481.06	18890.46
481.24	19026.21
481.41	19470.92
481.59	19637.09
481.77	19786.89
481.95	19866.47
482.13	19901.58
482.31	19889.87
482.49	20222.23
482.67	20524.16
482.85	20421.17
483.03	20570.97
483.21	21221.64
483.39	20999.29
483.57	21167.80
483.74	21427.60
483.92	21518.89
484.10	21331.64
484.28	21762.30
484.46	22040.82
484.64	22309.99
484.82	22181.26
485.00	22647.02
485.18	22841.29
485.35	23175.98
485.53	23241.52
485.71	23438.12
485.89	23718.99
486.07	23524.72
486.25	23578.56
486.43	23496.64
486.61	24109.86
486.78	24109.86
486.96	24552.22
487.14	24624.78
487.32	25036.71
487.50	24999.26
487.68	25315.23
487.85	25392.47
488.03	25511.84
488.21	26003.35
488.39	25862.92
488.57	26319.32
488.75	26927.86
488.92	26679.77
489.10	27037.87
489.28	27005.10
489.46	27505.98
489.64	27051.91
489.81	28404.74
489.99	27482.57
490.17	27772.80
490.35	28180.05
490.53	28533.47
490.70	28687.95
490.88	28177.71
491.06	29303.51
491.24	29324.57
491.41	29223.93
491.59	29364.36
491.77	29287.12
491.95	29916.73
492.13	29942.47
492.30	30319.30
492.48	30539.31
492.66	30637.61
492.84	30373.13
493.01	30796.77
493.19	31091.68
493.37	31243.81
493.54	31339.77
493.72	31571.49
493.90	32051.30
494.08	32254.92
494.25	32023.21
494.43	32339.18
494.61	32844.74
494.79	32683.24
494.96	33141.99
495.14	32943.04
495.32	33357.32
495.49	33511.79
495.67	33425.19
495.85	34038.41
496.02	33757.55
496.20	34284.17
496.38	34359.06
496.55	34609.50
496.73	34796.74
496.91	34778.02
497.09	35124.42
497.26	35084.63
497.44	34829.51
497.62	35363.15
497.79	36086.38
497.97	36165.96
498.14	36577.89
498.32	36531.08
498.50	36400.01
498.67	37085.79
498.85	36854.08
499.03	36748.75
499.20	36840.03
499.38	37333.89
499.56	37294.10
499.73	37724.75
499.91	37834.76
500.08	37619.43
500.26	37956.47
500.44	37888.59
500.61	38206.90
500.79	38295.85
500.97	38918.43
501.14	39206.31
501.32	38742.89
501.49	39321.00
501.67	39269.51
501.84	39290.57
502.02	39374.83
502.20	39302.28
502.37	39945.92
502.55	39793.79
502.72	39641.65
502.90	40421.05
503.07	39732.93
503.25	40060.61
503.43	40238.49
503.60	40407.01
503.78	40624.68
503.95	40341.47
504.13	41029.59
504.30	40973.42
504.48	40432.75
504.65	41151.30
504.83	41284.71
505.01	41989.21
505.18	41516.42
505.36	41876.86
505.53	41844.10
505.71	41989.21
505.88	42103.90
506.06	42010.28
506.23	42209.22
506.41	42576.69
506.58	42588.39
506.76	42443.27
506.93	42979.26
507.11	43103.31
507.28	42796.70
507.46	43227.35
507.63	43423.96
507.81	43253.10
507.98	43316.29
508.16	43655.67
508.33	44058.24
508.50	44215.06
508.68	43880.36
508.85	43606.52
509.03	44409.32
509.20	44685.51
509.38	44811.90
509.55	44657.42
509.73	44994.46
509.90	45315.11
510.08	44931.26
510.25	45045.95
510.42	45048.29
510.60	45188.72
510.77	45525.76
510.95	45481.29
511.12	45331.50
511.30	45581.93
511.47	45975.14
511.64	45844.07
511.82	46518.15
511.99	46103.87
512.17	46185.79
512.34	46092.17
512.51	46939.44
512.69	46616.45
512.86	46586.02
513.04	46745.18
513.21	46817.74
513.38	47360.74
513.56	47021.36
513.73	47143.07
513.90	47636.92
514.08	47271.80
514.25	47414.57
514.43	47931.83
514.60	47803.10
514.77	47901.40
514.95	47849.91
515.12	47772.67
515.29	48065.24
515.47	47990.34
515.64	48474.84
515.81	48191.63
515.99	48786.13
516.16	48861.02
516.33	48964.01
516.51	48875.07
516.68	48975.71
516.85	48584.84
517.03	49109.12
517.20	49530.42
517.37	49088.06
517.54	49195.72
517.72	49188.70
517.89	49076.35
518.06	49509.35
518.24	49600.63
518.41	49382.96
518.58	49804.26
518.75	49174.66
518.93	49963.42
519.10	49886.18
519.27	49862.77
519.45	49965.76
519.62	50045.33
519.79	50108.53
519.96	50361.31
520.14	50536.85
520.31	50176.40
520.48	50798.99
520.65	50494.72
520.83	50855.16
521.00	50873.88
521.17	51138.36
521.34	50693.66
521.52	51147.73
521.69	51061.13
521.86	51503.49
522.03	51459.02
522.20	51381.78
522.38	51985.64
522.55	51704.77
522.72	51852.23
522.89	51716.48
523.07	51749.24
523.24	51714.14
523.41	51915.42
523.58	51714.14
523.75	52432.68
523.92	51901.38
524.10	52397.57
524.27	52240.76
524.44	51969.26
524.61	52828.23
524.78	52474.81
524.96	52259.48
525.13	52472.47
525.30	52889.09
525.47	53015.47
525.64	52659.71
525.81	53081.01
525.98	52858.66
526.16	52914.83
526.33	52926.53
526.50	53160.59
526.67	52882.06
526.84	53624.01
527.01	53207.40
527.18	53366.55
527.36	53127.82
527.53	53158.25
527.70	53848.71
527.87	53474.22
528.04	53656.78
528.21	53663.80
528.38	53460.18
528.55	53705.93
528.72	53551.46
528.89	53764.45
529.07	53757.42
529.24	53879.13
529.41	53970.41
529.58	53949.35
529.75	53900.20
529.92	54164.68
530.09	54328.52
530.26	54087.44
530.43	54255.96
530.60	53968.07
530.77	54049.99
530.94	54054.67
531.11	54260.64
531.28	54302.77
531.46	54396.39
531.63	54693.64
531.80	54333.20
531.97	54635.13
532.14	54754.49
532.31	54695.98
532.48	54864.50
532.65	54869.18
532.82	54850.45
532.99	55114.94
533.16	54710.02
533.33	55000.25
533.50	54944.08
533.67	54906.63
533.84	54979.18
534.01	54969.82
534.18	55253.03
534.35	55292.82
534.52	55325.58
534.69	55494.10
534.86	55285.79
535.03	55262.39
535.20	55386.44
535.37	55543.25
535.54	55753.90
535.71	55496.44
535.88	55653.26
536.05	55632.19
536.22	55732.84
536.38	55805.39
536.55	55800.71
536.72	55887.31
536.89	55924.76
537.06	55800.71
537.23	56172.86
537.40	55653.26
537.57	56023.06
537.74	56053.49
537.91	56154.13
538.08	56257.12
538.25	56133.07
538.42	56034.77
538.59	56657.35
538.75	56322.65
538.92	56191.58
539.09	56395.21
539.26	56374.14
539.43	56327.33
539.60	56612.88
539.77	56392.87
539.94	56889.06
540.11	56584.79
540.28	56453.72
540.44	56563.73
540.61	56617.56
540.78	56509.89
540.95	56657.35
541.12	56837.57
541.29	56669.05
541.46	56877.36
541.62	56772.03
541.79	56807.14
541.96	56294.56
542.13	56687.78
542.30	56992.04
542.47	56992.04
542.63	57048.22
542.80	57151.20
542.97	57167.58
543.14	57368.87
543.31	57340.78
543.48	57392.28
543.64	57436.75
543.81	57495.26
543.98	57579.52
544.15	57368.87
544.32	57743.36
544.48	57684.84
544.65	57513.98
544.82	57558.45
544.99	57359.51
545.16	57893.15
545.32	57598.24
545.49	57911.88
545.66	58000.82
545.83	57956.35
546.00	57977.41
546.16	57968.05
546.33	57860.38
546.50	57689.52
546.67	57946.98
546.83	57673.14
547.00	57846.34
547.17	58031.24
547.34	57900.17
547.50	58101.46
547.67	58447.86
547.84	58471.26
548.00	58145.93
548.17	58424.45
548.34	58410.41
548.51	58262.96
548.67	58361.26
548.84	58553.18
549.01	58415.09
549.18	58454.88
549.34	58192.74
549.51	58635.10
549.68	58532.12
549.84	58733.40
550.01	58681.91
550.18	58602.33
550.34	58492.33
550.51	58735.74
550.68	58630.42
550.84	58422.11
551.01	58681.91
551.18	58611.70
551.34	58560.20
551.51	58791.92
551.68	58822.34
551.84	59021.29
552.01	58749.79
552.18	58801.28
552.34	58635.10
552.51	59121.93
552.68	58733.40
552.84	58791.92
553.01	59182.79
553.18	59021.29
553.34	59077.46
553.51	59070.44
553.67	59032.99
553.84	59206.19
554.01	59100.87
554.17	58958.09
554.34	59274.07
554.51	59437.90
554.67	59192.15
554.84	59098.53
555.00	59185.13
555.17	59201.51
555.33	59299.81
555.50	59154.70
555.67	59138.32
555.83	59309.18
556.00	59337.26
556.16	59653.23
556.33	59407.48
556.50	59381.73
556.66	59643.87
556.83	59531.53
556.99	59295.13
557.16	59831.11
557.32	59662.60
557.49	59817.07
557.65	59578.34
557.82	59573.66
557.98	59580.68
558.15	59526.84
558.32	59800.69
558.48	59585.36
558.65	59468.33
558.81	59737.49
558.98	59704.73
559.14	59667.28
559.31	60086.23
559.47	59788.98
559.64	60083.89
559.80	59732.81
559.97	60088.57
560.13	59725.79
560.30	59849.84
560.46	59990.27
560.63	59966.87
560.79	60048.78
560.96	60093.25
561.12	60261.77
561.29	59983.25
561.45	60149.43
561.61	59929.42
561.78	59927.08
561.94	59943.46
562.11	60046.44
562.27	60189.22
562.44	60221.98
562.60	60238.37
562.77	60172.83
562.93	60039.42
563.10	60165.81
563.26	60294.54
563.42	60331.99
563.59	60231.35
563.75	60243.05
563.92	60280.50
564.08	60257.09
564.24	60388.16
564.41	60306.24
564.57	60409.23
564.74	60294.54
564.90	60479.44
565.07	60402.21
565.23	60341.35
565.39	60243.05
565.56	60418.59
565.72	60289.86
565.88	60376.46
566.05	60350.71
566.21	60409.23
566.38	60402.21
566.54	60481.78
566.70	60505.19
566.87	60741.58
567.03	60441.99
567.19	60786.05
567.36	60570.72
567.52	60374.12
567.68	60577.75
567.85	60530.93
568.01	60598.81
568.17	60516.89
568.34	60753.29
568.50	60591.79
568.66	60465.40
568.83	60643.28
568.99	60619.88
569.15	60554.34
569.32	60610.51
569.48	60640.94
569.64	60760.31
569.81	60790.73
569.97	60416.25
570.13	60516.89
570.30	60537.96
570.46	60587.11
570.62	60893.72
570.78	60739.24
570.95	60617.53
571.11	60697.11
571.27	60802.44
571.43	60645.62
571.60	60893.72
571.76	60760.31
571.92	60828.18
572.09	60879.67
572.25	60715.84
572.41	60837.54
572.57	60809.46
572.74	60903.08
572.90	60769.67
573.06	60748.60
573.22	60903.08
573.38	60781.37
573.55	60870.31
573.71	60992.02
573.87	60933.51
574.03	60753.29
574.20	60963.93
574.36	60959.25
574.52	60720.52
574.68	60828.18
574.84	61066.92
575.01	60853.93
575.17	61020.11
575.33	60907.76
575.49	60830.52
575.65	61069.26
575.82	61078.62
575.98	60989.68
576.14	61165.22
576.30	61118.41
576.46	60970.96
576.62	60781.37
576.79	60905.42
576.95	60746.26
577.11	61139.47
577.27	61322.04
577.43	61113.73
577.59	60985.00
577.75	60945.21
577.92	60889.04
578.08	60931.17
578.24	61106.71
578.40	61027.13
578.56	60931.17
578.72	60977.98
578.88	61118.41
579.04	61078.62
579.21	61090.32
579.37	61289.27
579.53	61118.41
579.69	61010.74
579.85	61144.16
580.01	61055.21
580.17	60977.98
580.33	61048.19
580.49	61193.31
580.65	61095.00
580.82	61048.19
580.98	60977.98
581.14	61027.13
581.30	61095.00
581.46	61111.39
581.62	61095.00
581.78	61181.60
581.94	61190.97
582.10	61235.44
582.26	61027.13
582.42	61244.80
582.58	61090.32
582.74	61127.77
582.90	61258.84
583.06	61331.40
583.22	60961.59
583.38	61031.81
583.54	61244.80
583.70	61137.13
583.86	61282.25
584.02	61034.15
584.18	61401.61
584.34	61197.99
584.50	61176.92
584.66	60947.55
584.82	60935.85
584.98	61167.56
585.14	61158.20
585.30	61116.07
585.46	61134.79
585.62	61183.94
585.78	61373.53
585.94	61132.45
586.10	61003.72
586.26	61265.86
586.42	61165.22
586.58	61240.12
586.74	61296.29
586.90	61078.62
587.06	61146.50
587.22	61270.54
587.38	61226.07
587.54	61436.72
587.70	61361.82
587.86	61155.86
588.02	61193.31
588.18	61462.47
588.34	61385.23
588.49	61291.61
