SpectraSuite Data File
++++++++++++++++++++++++++++++++++++
Date: Fri Oct 25 10:43:40 EDT 2013
User: price-jones
Dark Spectrum Present: No
Reference Spectrum Present: No
Number of Sampled Component Spectra: 1
Spectrometers: USB2+H05261
Integration Time (usec): 100000 (USB2+H05261)
Spectra Averaged: 1 (USB2+H05261)
Boxcar Smoothing: 0 (USB2+H05261)
Correct for Electrical Dark: No (USB2+H05261)
Strobe/Lamp Enabled: No (USB2+H05261)
Correct for Detector Non-linearity: No (USB2+H05261)
Correct for Stray Light: No (USB2+H05261)
Number of Pixels in Processed Spectrum: 2048
>>>>>Begin Processed Spectral Data<<<<<
365.73	88.94
365.92	88.94
366.12	88.94
366.32	65.54
366.52	0.00
366.72	39.79
366.91	7.02
367.11	0.00
367.31	0.00
367.51	56.17
367.70	0.00
367.90	60.85
368.10	0.00
368.30	56.17
368.49	16.38
368.69	18.72
368.89	9.36
369.09	93.62
369.28	84.26
369.48	58.51
369.68	58.51
369.87	60.85
370.07	100.64
370.27	126.39
370.47	191.92
370.66	423.64
370.86	418.96
371.06	461.09
371.25	512.58
371.45	514.92
371.65	500.87
371.84	435.34
372.04	447.04
372.24	456.40
372.44	449.38
372.63	538.32
372.83	503.22
373.03	454.06
373.22	491.51
373.42	557.05
373.62	554.71
373.81	540.66
374.01	538.32
374.21	592.16
374.40	552.37
374.60	578.11
374.79	573.43
374.99	550.03
375.19	580.45
375.38	568.75
375.58	650.67
375.78	657.69
375.97	645.99
376.17	697.48
376.37	575.77
376.56	594.50
376.76	615.56
376.95	519.60
377.15	631.94
377.35	615.56
377.54	629.60
377.74	660.03
377.93	685.78
378.13	660.03
378.33	709.18
378.52	631.94
378.72	610.88
378.91	667.05
379.11	674.07
379.31	578.11
379.50	636.63
379.70	653.01
379.89	758.33
380.09	706.84
380.28	732.59
380.48	655.35
380.68	664.71
380.87	702.16
381.07	751.31
381.26	816.85
381.46	758.33
381.65	674.07
381.85	716.20
382.04	713.86
382.24	702.16
382.43	755.99
382.63	690.46
382.83	753.65
383.02	702.16
383.22	744.29
383.41	763.01
383.61	634.29
383.80	784.08
384.00	720.88
384.19	793.44
384.39	786.42
384.58	798.12
384.78	786.42
384.97	833.23
385.17	858.98
385.36	746.63
385.56	800.46
385.75	823.87
385.95	772.38
386.14	889.40
386.34	828.55
386.53	849.61
386.72	788.76
386.92	763.01
387.11	844.93
387.31	870.68
387.50	854.30
387.70	847.27
387.89	901.11
388.09	966.64
388.28	875.36
388.48	917.49
388.67	980.68
388.86	931.53
389.06	936.21
389.25	971.32
389.45	954.94
389.64	997.07
389.84	1034.52
390.03	1029.84
390.22	1036.86
390.42	947.92
390.61	971.32
390.81	1029.84
391.00	1111.75
391.19	1029.84
391.39	1022.81
391.58	978.34
391.78	1041.54
391.97	1069.62
392.16	985.37
392.36	1095.37
392.55	1067.28
392.75	1022.81
392.94	987.71
393.13	983.02
393.33	994.73
393.52	1029.84
393.71	1153.88
393.91	1151.54
394.10	1090.69
394.29	1156.22
394.49	1191.33
394.68	1221.76
394.88	1228.78
395.07	1235.80
395.26	1231.12
395.46	1165.59
395.65	1196.01
395.84	1224.10
396.04	1219.42
396.23	1179.63
396.42	1151.54
396.62	1137.50
396.81	1217.08
397.00	1083.67
397.19	1341.13
397.39	1383.26
397.58	1497.94
397.77	1327.08
397.97	1359.85
398.16	1488.58
398.35	1476.88
398.55	1542.41
398.74	1542.41
398.93	1593.90
399.12	1444.11
399.32	1455.81
399.51	1572.84
399.70	1572.84
399.90	1554.12
400.09	1479.22
400.28	1678.16
400.47	1600.93
400.67	1717.95
400.86	1647.74
401.05	1666.46
401.24	1626.67
401.44	1804.55
401.63	1741.36
401.82	1802.21
402.01	1809.23
402.21	1717.95
402.40	1827.96
402.59	1762.42
402.78	1734.34
402.97	1825.62
403.17	1898.17
403.36	1788.17
403.55	1860.73
403.74	1905.20
403.93	1926.26
404.13	1966.05
404.32	1790.51
404.51	1874.77
404.70	1989.46
404.89	1970.73
405.09	2040.95
405.28	1914.56
405.47	1928.60
405.66	1991.80
405.85	2015.20
406.05	1959.03
406.24	2143.93
406.43	2090.10
406.62	2165.00
406.81	2136.91
407.00	2094.78
407.20	2017.54
407.39	2069.03
407.58	2207.13
407.77	2195.42
407.96	2223.51
408.15	2265.64
408.34	2200.10
408.54	2305.43
408.73	2338.20
408.92	2382.67
409.11	2478.63
409.30	2413.09
409.49	2260.96
409.68	2312.45
409.87	2237.55
410.07	2312.45
410.26	2394.37
410.45	2436.50
410.64	2424.80
410.83	2555.86
411.02	2523.10
411.21	2745.45
411.40	2590.97
411.59	2555.86
411.78	2691.62
411.98	2764.17
412.17	2689.28
412.36	2764.17
412.55	2682.25
412.74	2700.98
412.93	2736.09
413.12	2806.30
413.31	2820.35
413.50	2808.64
413.69	2881.20
413.88	3066.10
414.07	3084.83
414.26	2965.46
414.45	2970.14
414.64	2986.52
414.83	3119.93
415.02	3075.46
415.22	3141.00
415.41	3162.06
415.60	3112.91
415.79	3236.96
415.98	3262.71
416.17	3173.77
416.36	3353.99
416.55	3314.20
416.74	3386.76
416.93	3276.75
417.12	3342.28
417.31	3426.54
417.50	3482.72
417.69	3574.00
417.88	3510.80
418.07	3412.50
418.26	3492.08
418.45	3499.10
418.64	3644.21
418.83	3571.66
419.02	3534.21
419.21	3646.55
419.39	3595.06
419.58	3595.06
419.77	3662.94
419.96	3693.37
420.15	3817.41
420.34	3768.26
420.53	3763.58
420.72	3857.20
420.91	3861.88
421.10	3920.40
421.29	3948.48
421.48	3997.64
421.67	3819.75
421.86	3843.16
422.05	3810.39
422.24	3850.18
422.43	3894.65
422.61	3939.12
422.80	3892.31
422.99	4014.02
423.18	4042.11
423.37	4107.64
423.56	3889.97
423.75	3941.46
423.94	3997.64
424.13	3833.80
424.32	3957.85
424.50	3988.27
424.69	3978.91
424.88	4112.32
425.07	4014.02
425.26	3899.33
425.45	3927.42
425.64	4018.70
425.83	3988.27
426.01	4149.77
426.20	4117.00
426.39	4098.28
426.58	3962.53
426.77	3995.29
426.96	3990.61
427.15	4124.02
427.33	4046.79
427.52	4278.50
427.71	4053.81
427.90	4023.38
428.09	4154.45
428.28	4184.88
428.46	4236.37
428.65	4341.69
428.84	4334.67
429.03	4285.52
429.22	4128.70
429.40	4257.43
429.59	4278.50
429.78	3894.65
429.97	3899.33
430.16	4182.54
430.34	4100.62
430.53	4212.96
430.72	4262.12
430.91	4248.07
431.10	4290.20
431.28	4601.49
431.47	4535.96
431.66	4557.02
431.85	4510.21
432.03	4582.77
432.22	4748.95
432.41	4652.98
432.60	4706.82
432.79	4758.31
432.97	4798.10
433.16	4809.80
433.35	4781.71
433.54	4737.24
433.72	4751.29
433.91	4725.54
434.10	4835.55
434.28	4828.53
434.47	4826.18
434.66	4966.62
434.85	4980.66
435.03	5020.45
435.22	5041.51
435.41	5132.79
435.59	5170.24
435.78	5146.84
435.97	5219.39
436.16	5249.82
436.34	5160.88
436.53	5170.24
436.72	5268.55
436.90	5280.25
437.09	5310.68
437.28	5121.09
437.46	5408.98
437.65	5144.50
437.84	5221.74
438.02	5212.37
438.21	5205.35
438.40	5224.08
438.58	5313.02
438.77	5488.56
438.96	5341.10
439.14	5591.54
439.33	5724.95
439.52	5724.95
439.70	5710.91
439.89	5626.65
440.08	5743.67
440.26	5673.46
440.45	5605.58
440.63	5832.62
440.82	5935.60
441.01	5884.11
441.19	6155.61
441.38	6085.39
441.57	6106.46
441.75	6328.81
441.94	6314.77
442.12	6380.30
442.31	6537.12
442.50	6429.45
442.68	6413.07
442.87	6352.21
443.05	6396.68
443.24	6544.14
443.43	6516.05
443.61	6487.96
443.80	6574.56
443.98	6225.82
444.17	6394.34
444.35	6663.51
444.54	6658.82
444.73	6740.74
444.91	6614.35
445.10	6670.53
445.28	6541.80
445.47	6401.37
445.65	6443.49
445.84	6551.16
446.02	6876.49
446.21	6785.21
446.39	6731.38
446.58	6848.41
446.77	6827.34
446.95	6722.02
447.14	6651.80
447.32	6869.47
447.51	6839.05
447.69	6759.47
447.88	6789.89
448.06	6743.08
448.25	6773.51
448.43	6834.36
448.62	6897.56
448.80	6682.23
448.99	6949.05
449.17	6949.05
449.36	7033.31
449.54	7143.32
449.73	7232.26
449.91	7208.85
450.10	7239.28
450.28	7297.79
450.46	7382.05
450.65	7318.86
450.83	7286.09
451.02	7215.87
451.20	7335.24
451.39	7555.25
451.57	7346.94
451.76	7232.26
451.94	7190.13
452.13	7316.51
452.31	7309.49
452.49	7232.26
452.68	7494.40
452.86	7279.07
453.05	7377.37
453.23	7393.75
453.42	7335.24
453.60	7295.45
453.78	7510.78
453.97	7318.86
454.15	7447.58
454.34	7307.15
454.52	7611.42
454.70	7590.36
454.89	7793.98
455.07	7665.25
455.26	7726.11
455.44	7822.07
455.62	7903.99
455.81	7852.50
455.99	7899.31
456.17	7875.90
456.36	7941.44
456.54	7927.39
456.73	8098.25
456.91	8266.77
457.09	8166.13
457.28	8365.07
457.46	8060.80
457.64	8224.64
457.83	8149.75
458.01	8046.76
458.19	8205.92
458.38	8203.58
458.56	8226.98
458.74	8397.84
458.93	8290.18
459.11	8367.42
459.29	8444.65
459.48	8603.81
459.66	8505.51
459.84	8409.54
460.03	8564.02
460.21	8667.00
460.39	8659.98
460.57	8683.39
460.76	8681.05
460.94	8786.37
461.12	8744.24
461.31	8814.46
461.49	8807.44
461.67	8704.45
461.85	9055.53
462.04	8868.29
462.22	9369.16
462.40	8933.82
462.59	8816.80
462.77	8868.29
462.95	9013.40
463.13	8975.95
463.32	9116.39
463.50	9015.74
463.68	9097.66
463.86	9179.58
464.05	9057.87
464.23	9006.38
464.41	8952.55
464.59	8959.57
464.78	9303.63
464.96	9390.23
465.14	8954.89
465.32	9310.65
465.50	9411.29
465.69	9195.96
465.87	9479.17
466.05	9249.80
466.23	9263.84
466.41	9256.82
466.60	9355.12
466.78	9107.02
466.96	9493.21
467.14	9509.60
467.32	9507.26
467.51	9481.51
467.69	9362.14
467.87	9617.26
468.05	9565.77
468.23	9504.92
468.41	9537.68
468.60	9664.07
468.78	9619.60
468.96	9671.09
469.14	9785.78
469.32	9914.51
469.50	9687.48
469.69	9928.55
469.87	9774.08
470.05	9867.70
470.23	9844.29
470.41	9947.28
470.59	9989.41
470.77	9912.17
470.95	10181.33
471.14	10218.78
471.32	10003.45
471.50	10698.59
471.68	10513.69
471.86	10579.22
472.04	10499.64
472.22	10733.70
472.40	10452.83
472.58	10551.14
472.77	10501.98
472.95	10565.18
473.13	10696.25
473.31	10443.47
473.49	10810.93
473.67	10714.97
473.85	10876.47
474.03	11068.39
474.21	11166.70
474.39	11208.83
474.57	11302.45
474.75	11351.60
474.93	11084.78
475.12	11257.98
475.30	11307.13
475.48	11356.28
475.66	11353.94
475.84	11370.32
476.02	11541.18
476.20	11550.54
476.38	11503.73
476.56	11782.26
476.74	11955.46
476.92	11803.32
477.10	12219.94
477.28	12182.49
477.46	12105.25
477.64	12411.86
477.82	12585.06
478.00	12601.44
478.18	12341.64
478.36	12608.47
478.54	12788.69
478.72	12851.88
478.90	12912.74
479.08	13268.50
479.26	13144.45
479.44	13228.71
479.62	13420.63
479.80	13387.86
479.98	13755.33
480.16	13933.21
480.34	13596.17
480.52	13862.99
480.70	13809.16
480.88	13942.57
481.06	13862.99
481.24	14080.66
481.41	14270.25
481.59	14494.94
481.77	14963.04
481.95	14387.27
482.13	14448.13
482.31	14644.73
482.49	15070.71
482.67	15295.40
482.85	15077.73
483.03	15126.88
483.21	15541.16
483.39	15587.97
483.57	15400.72
483.74	15733.08
483.92	15726.06
484.10	15995.22
484.28	16142.67
484.46	16329.92
484.64	16762.92
484.82	16217.57
485.00	16416.52
485.18	16596.74
485.35	16620.14
485.53	16215.23
485.71	16386.09
485.89	16830.79
486.07	16554.61
486.25	16968.88
486.43	17055.48
486.61	17214.64
486.78	17500.19
486.96	17434.65
487.14	17640.62
487.32	17767.01
487.50	18078.30
487.68	18424.70
487.85	18733.65
488.03	18618.96
488.21	18735.99
488.39	18640.03
488.57	18967.70
488.75	19028.56
488.92	19145.58
489.10	19522.41
489.28	19428.79
489.46	19681.56
489.64	19749.44
489.81	20627.14
489.99	20180.10
490.17	20297.13
490.35	20809.70
490.53	20367.34
490.70	20428.20
490.88	20772.25
491.06	20943.11
491.24	21113.97
491.41	21298.88
491.59	21097.59
491.77	21149.08
491.95	21521.23
492.13	21680.38
492.30	21727.19
492.48	22047.85
492.66	22082.95
492.84	22031.46
493.01	22235.09
493.19	21900.39
493.37	22525.32
493.54	22370.84
493.72	22640.00
493.90	22356.80
494.08	23201.73
494.25	23264.92
494.43	23550.47
494.61	23777.50
494.79	23690.90
494.96	23931.98
495.14	23824.31
495.32	23939.00
495.49	23915.59
495.67	24137.94
495.85	24039.64
496.02	24315.83
496.20	24627.12
496.38	24683.29
496.55	24800.32
496.73	25340.98
496.91	24978.20
497.09	24907.98
497.26	25348.00
497.44	25156.08
497.62	25504.82
497.79	25575.03
497.97	25226.29
498.14	25394.81
498.32	25862.92
498.50	26064.21
498.67	26345.07
498.85	26012.71
499.03	26389.54
499.20	26338.05
499.38	26497.20
499.56	26668.06
499.73	26780.41
499.91	26841.26
500.08	27037.87
500.26	26806.16
500.44	26988.72
500.61	26801.47
500.79	26677.43
500.97	27068.30
501.14	27117.45
501.32	27388.95
501.49	27529.38
501.67	27789.18
501.84	27655.77
502.02	27587.89
502.20	27798.54
502.37	27892.16
502.55	28170.69
502.72	28173.03
502.90	28425.81
503.07	28006.85
503.25	28290.06
503.43	28266.65
503.60	28369.63
503.78	28472.62
503.95	28379.00
504.13	28875.19
504.30	29090.52
504.48	29151.37
504.65	29296.49
504.83	29713.10
505.01	29523.52
505.18	28959.45
505.36	29291.80
505.53	29654.59
505.71	29734.17
505.88	30471.43
506.06	29579.69
506.23	30228.02
506.41	29706.08
506.58	30501.86
506.76	30267.81
506.93	30211.64
507.11	30190.57
507.28	30295.89
507.46	30103.97
507.63	30195.25
507.81	30466.75
507.98	30494.84
508.16	30864.64
508.33	30677.40
508.50	30948.90
508.68	30923.16
508.85	31527.02
509.03	31246.15
509.20	31519.99
509.38	31730.64
509.55	31342.11
509.73	31630.00
509.90	31906.18
510.08	31604.25
510.25	31899.16
510.42	32037.25
510.60	31913.20
510.77	31718.94
510.95	32196.41
511.12	32102.79
511.30	32411.74
511.47	32519.40
511.64	32453.87
511.82	32416.42
511.99	32510.04
512.17	32540.47
512.34	32449.19
512.51	32610.68
512.69	32889.21
512.86	33020.28
513.04	33149.01
513.21	33364.34
513.38	33345.61
513.56	33301.14
513.73	32598.98
513.90	33376.04
514.08	33156.03
514.25	33317.53
514.43	33582.01
514.60	33574.98
514.77	33626.48
514.95	33916.70
515.12	33802.02
515.29	33867.55
515.47	34274.80
515.64	34094.58
515.81	33680.31
515.99	33888.62
516.16	34462.05
516.33	33771.59
516.51	33652.22
516.68	33708.40
516.85	34052.45
517.03	33687.33
517.20	34022.03
517.37	34092.24
517.54	34511.20
517.72	34911.43
517.89	34628.23
518.06	34742.91
518.24	34656.31
518.41	34675.04
518.58	34824.83
518.75	35182.93
518.93	35019.10
519.10	35068.25
519.27	35047.18
519.45	35115.06
519.62	35618.27
519.79	35868.71
519.96	35501.25
520.14	35519.97
520.31	35519.97
520.48	35842.96
520.65	36067.66
520.83	36278.30
521.00	36315.75
521.17	36507.68
521.34	35908.50
521.52	36439.80
521.69	36367.24
521.86	36439.80
522.03	37071.75
522.20	36723.01
522.38	36458.52
522.55	36694.92
522.72	36704.28
522.89	36577.89
523.07	36797.90
523.24	36863.44
523.41	37214.52
523.58	37062.38
523.75	37680.28
523.92	37858.17
524.10	37794.97
524.27	37626.45
524.44	37853.48
524.61	37848.80
524.78	37851.14
524.96	37603.05
525.13	37888.59
525.30	38183.50
525.47	38202.22
525.64	38080.52
525.81	37944.76
525.98	37617.09
526.16	37605.39
526.33	37530.49
526.50	37923.70
526.67	37565.60
526.84	37326.86
527.01	37830.08
527.18	38075.84
527.36	38504.15
527.53	38707.78
527.70	38902.04
527.87	38899.70
528.04	38440.96
528.21	38834.17
528.38	38433.94
528.55	39159.50
528.72	38848.21
528.89	39557.39
529.07	39049.50
529.24	39126.74
529.41	38792.04
529.58	38974.60
529.75	38988.64
529.92	39276.53
530.09	39391.22
530.26	39395.90
530.43	39714.21
530.60	39185.25
530.77	39367.81
530.94	39934.22
531.11	39632.29
531.28	39625.27
531.46	39714.21
531.63	39601.86
531.80	39552.71
531.97	39510.58
532.14	39508.24
532.31	39414.62
532.48	39887.41
532.65	40196.36
532.82	40343.81
532.99	40100.40
533.16	39611.23
533.33	40292.32
533.50	40151.89
533.67	40236.15
533.84	40254.87
534.01	40177.64
534.18	39957.63
534.35	40627.02
534.52	40402.33
534.69	40495.95
534.86	41167.68
535.03	41263.64
535.20	40851.71
535.37	40837.67
535.54	41221.52
535.71	40889.16
535.88	40931.29
536.05	41034.27
536.22	40786.18
536.38	41254.28
536.55	41155.98
536.72	40971.08
536.89	40624.68
537.06	40968.74
537.23	41509.40
537.40	41013.21
537.57	41684.94
537.74	41301.09
537.91	41954.10
538.08	41591.32
538.25	41038.95
538.42	41507.06
538.59	41528.13
538.75	41708.35
538.92	41319.82
539.09	41518.76
539.26	41729.41
539.43	41670.90
539.60	41771.54
539.77	41607.70
539.94	41666.22
540.11	41617.07
540.28	41778.56
540.44	41661.54
540.61	41586.64
540.78	41635.79
540.95	41340.88
541.12	41790.27
541.29	41921.34
541.46	42426.89
541.62	41797.29
541.79	42096.88
541.96	41652.17
542.13	41851.12
542.30	42031.34
542.47	42244.33
542.63	42543.92
542.80	42511.15
542.97	42815.42
543.14	42869.25
543.31	42871.59
543.48	43033.09
543.64	43182.88
543.81	43313.95
543.98	43091.60
544.15	42876.27
544.32	43232.04
544.48	43456.73
544.65	43491.83
544.82	43480.13
544.99	43210.97
545.16	42836.48
545.32	42965.21
545.49	43688.44
545.66	43447.36
545.83	43449.70
546.00	43438.00
546.16	43512.90
546.33	43632.27
546.50	43077.56
546.67	43903.77
546.83	43274.16
547.00	43505.88
547.17	43292.89
547.34	43042.45
547.50	43473.11
547.67	43908.45
547.84	44076.97
548.00	44172.93
548.17	43950.58
548.34	44076.97
548.51	44142.50
548.67	44266.55
548.84	44060.58
549.01	43761.00
549.18	43887.39
549.34	44144.84
549.51	44304.00
549.68	44140.16
549.84	44172.93
550.01	44629.34
550.18	44301.66
550.34	44247.83
550.51	44107.40
550.68	44170.59
550.84	43821.85
551.01	43842.92
551.18	44559.12
551.34	44133.14
551.51	44467.84
551.68	44964.03
551.84	44383.58
552.01	44425.71
552.18	44524.01
552.34	44418.69
552.51	44610.61
552.68	44699.55
552.84	44568.48
553.01	44884.45
553.18	44655.08
553.34	44814.24
553.51	44973.39
553.67	44556.78
553.84	45017.86
554.01	45422.78
554.17	45008.50
554.34	45076.38
554.51	44662.10
554.67	44964.03
554.84	44814.24
555.00	44844.66
555.17	44577.84
555.33	44896.16
555.50	45078.72
555.67	44985.10
555.83	44706.57
556.00	45006.16
556.16	45507.04
556.33	45191.06
556.50	44964.03
556.66	45375.97
556.83	44788.49
556.99	45291.71
557.16	45270.64
557.32	44989.78
557.49	45350.22
557.65	45127.87
557.82	45202.77
557.98	45261.28
558.15	45291.71
558.32	45530.44
558.48	44744.02
558.65	45081.06
558.81	45387.67
558.98	45478.95
559.14	45528.10
559.31	45249.58
559.47	45031.91
559.64	45485.97
559.80	45478.95
559.97	45411.07
560.13	45258.94
560.30	45415.76
560.46	45869.82
560.63	45979.82
560.79	45514.06
560.96	46000.89
561.12	45680.24
561.29	45591.30
561.45	45705.98
561.61	45677.90
561.78	45425.12
561.94	45511.72
562.11	45429.80
562.27	45418.10
562.44	45521.08
562.60	46003.23
562.77	45572.57
562.93	45675.55
563.10	45813.65
563.26	45642.79
563.42	46068.76
563.59	45315.11
563.75	45558.53
563.92	45951.74
564.08	46047.70
564.24	45963.44
564.41	45954.08
564.57	46106.21
564.74	45883.86
564.90	46010.25
565.07	46204.52
565.23	45832.37
565.39	45858.12
565.56	45890.88
565.72	45677.90
565.88	46239.62
566.05	45680.24
566.21	46003.23
566.38	45815.99
566.54	46256.01
566.70	46342.61
566.87	46216.22
567.03	46239.62
567.19	46326.22
567.36	46342.61
567.52	45818.33
567.68	46394.10
567.85	46192.81
568.01	45893.22
568.17	46195.15
568.34	46689.01
568.50	45958.76
568.66	46026.63
568.83	45888.54
568.99	45600.66
569.15	46391.76
569.32	46211.54
569.48	45804.28
569.64	46389.42
569.81	46270.05
569.97	46134.30
570.13	45804.28
570.30	45748.11
570.46	46277.07
570.62	45525.76
570.78	45450.86
570.95	46122.60
571.11	46094.51
571.27	46010.25
571.43	46127.28
571.60	46007.91
571.76	45841.73
571.92	45687.26
572.09	46270.05
572.25	46466.66
572.41	46595.38
572.57	46265.37
572.74	46700.71
572.90	46263.03
573.06	46213.88
573.22	45986.85
573.38	46314.52
573.55	46239.62
573.71	46190.47
573.87	46602.41
574.03	46401.12
574.20	46429.21
574.36	46064.08
574.52	46314.52
574.68	46213.88
574.84	46454.95
575.01	46225.58
575.17	45918.97
575.33	45879.18
575.49	46419.84
575.65	46396.44
575.82	45982.16
575.98	46564.96
576.14	46548.57
576.30	46616.45
576.46	46277.07
576.62	46234.94
576.79	46124.94
576.95	46209.20
577.11	46171.75
577.27	46564.96
577.43	46204.52
577.59	46124.94
577.75	45930.67
577.92	45888.54
578.08	46220.90
578.24	45890.88
578.40	46178.77
578.56	46321.54
578.72	46197.49
578.88	46644.54
579.04	46281.75
579.21	45710.66
579.37	46351.97
579.53	46417.50
579.69	45858.12
579.85	45991.53
580.01	46314.52
580.17	46012.59
580.33	46670.28
580.49	46344.95
580.65	46546.23
580.82	46382.40
580.98	46466.66
581.14	46307.50
581.30	46464.32
581.46	46127.28
581.62	46600.07
581.78	46050.04
581.94	46461.97
582.10	46766.24
582.26	46300.48
582.42	46422.19
582.58	46681.98
582.74	46426.87
582.90	45916.63
583.06	46466.66
583.22	46740.50
583.38	46747.52
583.54	46602.41
583.70	46426.87
583.86	46415.16
584.02	46246.65
584.18	46291.12
584.34	46337.93
584.50	46094.51
584.66	45918.97
584.82	46038.34
584.98	46625.81
585.14	45979.82
585.30	46281.75
585.46	46136.64
585.62	46344.95
585.78	46426.87
585.94	45902.59
586.10	46288.77
586.26	46204.52
586.42	46483.04
586.58	46520.49
586.74	46511.13
586.90	46426.87
587.06	46326.22
587.22	46845.82
587.38	46162.39
587.54	46417.50
587.70	46576.66
587.86	46206.86
588.02	46232.60
588.18	46515.81
588.34	46157.70
588.49	45808.96
588.65	45907.27
588.81	46176.43
588.97	46003.23
589.13	46059.40
589.29	45991.53
589.45	46134.30
589.61	46197.49
589.77	46330.90
589.93	46387.08
590.08	46728.80
