SpectraSuite Data File
++++++++++++++++++++++++++++++++++++
Date: Fri Oct 25 11:33:29 EDT 2013
User: price-jones
Dark Spectrum Present: No
Reference Spectrum Present: No
Number of Sampled Component Spectra: 1
Spectrometers: USB2+H05261
Integration Time (usec): 100000 (USB2+H05261)
Spectra Averaged: 1 (USB2+H05261)
Boxcar Smoothing: 0 (USB2+H05261)
Correct for Electrical Dark: No (USB2+H05261)
Strobe/Lamp Enabled: No (USB2+H05261)
Correct for Detector Non-linearity: No (USB2+H05261)
Correct for Stray Light: No (USB2+H05261)
Number of Pixels in Processed Spectrum: 2048
>>>>>Begin Processed Spectral Data<<<<<
365.73	255.12
365.92	255.12
366.12	255.12
366.32	205.97
366.52	152.13
366.72	124.05
366.91	184.90
367.11	117.03
367.31	138.09
367.51	194.26
367.70	152.13
367.90	161.50
368.10	191.92
368.30	203.63
368.49	203.63
368.69	191.92
368.89	182.56
369.09	140.43
369.28	220.01
369.48	217.67
369.68	224.69
369.87	177.88
370.07	210.65
370.27	330.02
370.47	301.93
370.66	507.90
370.86	636.63
371.06	601.52
371.25	521.94
371.45	554.71
371.65	498.53
371.84	507.90
372.04	545.34
372.24	613.22
372.44	575.77
372.63	617.90
372.83	587.47
373.03	629.60
373.22	615.56
373.42	554.71
373.62	671.73
373.81	610.88
374.01	599.18
374.21	624.92
374.40	655.35
374.60	681.10
374.79	657.69
374.99	624.92
375.19	650.67
375.38	662.37
375.58	704.50
375.78	669.39
375.97	683.44
376.17	720.88
376.37	638.97
376.56	631.94
376.76	676.41
376.95	629.60
377.15	676.41
377.35	725.57
377.54	664.71
377.74	648.33
377.93	636.63
378.13	674.07
378.33	819.19
378.52	718.54
378.72	704.50
378.91	676.41
379.11	704.50
379.31	805.14
379.50	800.46
379.70	746.63
379.89	727.91
380.09	746.63
380.28	723.23
380.48	758.33
380.68	690.46
380.87	723.23
381.07	774.72
381.26	709.18
381.46	807.48
381.65	793.44
381.85	739.61
382.04	704.50
382.24	734.93
382.43	772.38
382.63	723.23
382.83	723.23
383.02	746.63
383.22	800.46
383.41	800.46
383.61	744.29
383.80	866.00
384.00	772.38
384.19	781.74
384.39	826.21
384.58	786.42
384.78	751.31
384.97	828.55
385.17	835.57
385.36	854.30
385.56	812.17
385.75	856.64
385.95	915.15
386.14	882.38
386.34	812.17
386.53	833.23
386.72	805.14
386.92	976.00
387.11	887.06
387.31	1011.11
387.50	837.91
387.70	851.96
387.89	830.89
388.09	800.46
388.28	929.19
388.48	905.79
388.67	952.60
388.86	912.81
389.06	917.49
389.25	964.30
389.45	1043.88
389.64	1013.45
389.84	997.07
390.03	924.51
390.22	1020.47
390.42	924.51
390.61	1006.43
390.81	926.85
391.00	936.21
391.19	1053.24
391.39	910.47
391.58	1053.24
391.78	1008.77
391.97	1039.20
392.16	1041.54
392.36	1097.71
392.55	1057.92
392.75	1039.20
392.94	1015.79
393.13	1123.46
393.33	1064.94
393.52	1074.31
393.71	1093.03
393.91	1114.10
394.10	1132.82
394.29	1088.35
394.49	1130.48
394.68	1078.99
394.88	1172.61
395.07	1123.46
395.26	1177.29
395.46	1160.91
395.65	1158.57
395.84	1240.48
396.04	1242.82
396.23	1177.29
396.42	1160.91
396.62	1235.80
396.81	1261.55
397.00	1256.87
397.19	1217.08
397.39	1249.85
397.58	1254.53
397.77	1282.61
397.97	1289.64
398.16	1259.21
398.35	1324.74
398.55	1268.57
398.74	1196.01
398.93	1376.24
399.12	1303.68
399.32	1280.27
399.51	1270.91
399.70	1301.34
399.90	1301.34
400.09	1252.19
400.28	1488.58
400.47	1364.53
400.67	1355.17
400.86	1437.09
401.05	1444.11
401.24	1437.09
401.44	1434.75
401.63	1465.18
401.82	1411.34
402.01	1336.45
402.21	1474.54
402.40	1483.90
402.59	1530.71
402.78	1490.92
402.97	1488.58
403.17	1526.03
403.36	1507.30
403.55	1544.75
403.74	1582.20
403.93	1610.29
404.13	1640.72
404.32	1633.69
404.51	1504.96
404.70	1603.27
404.89	1591.56
405.09	1729.66
405.28	1727.32
405.47	1668.80
405.66	1724.97
405.85	1666.46
406.05	1666.46
406.24	1614.97
406.43	1720.29
406.62	1727.32
406.81	1792.85
407.00	1682.85
407.20	1771.79
407.39	1856.04
407.58	1858.39
407.77	1902.86
407.96	2017.54
408.15	1795.19
408.34	1884.13
408.54	1914.56
408.73	1919.24
408.92	1839.66
409.11	1970.73
409.30	1921.58
409.49	2031.58
409.68	1980.09
409.87	2050.31
410.07	1940.30
410.26	1980.09
410.45	2071.37
410.64	2069.03
410.83	2073.71
411.02	1996.48
411.21	2223.51
411.40	2211.81
411.59	2146.27
411.78	2122.87
411.98	2129.89
412.17	2235.21
412.36	2289.04
412.55	2279.68
412.74	2363.94
412.93	2340.54
413.12	2380.32
413.31	2483.31
413.50	2478.63
413.69	2450.54
413.88	2553.52
414.07	2480.97
414.26	2560.55
414.45	2410.75
414.64	2452.88
414.83	2509.05
415.02	2630.76
415.22	2619.06
415.41	2696.30
415.60	2630.76
415.79	2724.38
415.98	2607.36
416.17	2722.04
416.36	2642.46
416.55	2703.32
416.74	2855.45
416.93	2768.85
417.12	2850.77
417.31	2906.95
417.50	2899.92
417.69	2977.16
417.88	2916.31
418.07	3021.63
418.26	2878.86
418.45	2991.20
418.64	3066.10
418.83	2984.18
419.02	3000.57
419.21	3054.40
419.39	3080.14
419.58	3162.06
419.77	3084.83
419.96	3166.74
420.15	3115.25
420.34	3133.98
420.53	3276.75
420.72	3225.26
420.91	3159.72
421.10	3227.60
421.29	3276.75
421.48	3185.47
421.67	3222.92
421.86	3342.28
422.05	3211.22
422.24	3311.86
422.43	3382.07
422.61	3386.76
422.80	3435.91
422.99	3424.20
423.18	3426.54
423.37	3435.91
423.56	3384.41
423.75	3321.22
423.94	3358.67
424.13	3220.58
424.32	3232.28
424.50	3485.06
424.69	3473.36
424.88	3435.91
425.07	3386.76
425.26	3368.03
425.45	3559.95
425.64	3506.12
425.83	3435.91
426.01	3571.66
426.20	3419.52
426.39	3349.31
426.58	3478.04
426.77	3508.46
426.96	3433.57
427.15	3496.76
427.33	3620.81
427.52	3639.53
427.71	3604.42
427.90	3747.20
428.09	3634.85
428.28	3672.30
428.46	3588.04
428.65	3674.64
428.84	3616.13
429.03	3777.62
429.22	3688.68
429.40	3789.33
429.59	3758.90
429.78	3686.34
429.97	3719.11
430.16	3803.37
430.34	3892.31
430.53	3981.25
430.72	3943.80
430.91	3843.16
431.10	3836.14
431.28	3911.04
431.47	3866.56
431.66	3962.53
431.85	3875.93
432.03	4011.68
432.22	4093.60
432.41	4002.32
432.60	4145.09
432.79	4175.52
432.97	4088.92
433.16	4133.39
433.35	4056.15
433.54	4128.70
433.72	4276.16
433.91	4266.80
434.10	4304.25
434.28	4180.20
434.47	4294.88
434.66	4425.95
434.85	4395.53
435.03	4372.12
435.22	4283.18
435.41	4351.06
435.59	4470.42
435.78	4402.55
435.97	4264.46
436.16	4304.25
436.34	4407.23
436.53	4573.41
436.72	4636.60
436.90	4381.48
437.09	4461.06
437.28	4435.32
437.46	4486.81
437.65	4554.68
437.84	4547.66
438.02	4416.59
438.21	4678.73
438.40	4674.05
438.58	4798.10
438.77	4767.67
438.96	4837.89
439.14	4868.31
439.33	4828.53
439.52	5034.49
439.70	4814.48
439.89	5018.11
440.08	5090.67
440.26	5102.37
440.45	4943.21
440.63	5142.16
440.82	5214.71
441.01	5085.98
441.19	5128.11
441.38	5296.63
441.57	5158.54
441.75	5298.97
441.94	5455.79
442.12	5334.08
442.31	5432.38
442.50	5406.64
442.68	5362.17
442.87	5376.21
443.05	5416.00
443.24	5516.64
443.43	5446.43
443.61	5504.94
443.80	5781.12
443.98	5352.81
444.17	5418.34
444.35	5568.13
444.54	5540.05
444.73	5701.54
444.91	5598.56
445.10	5526.00
445.28	5619.63
445.47	5636.01
445.65	5682.82
445.84	5680.48
446.02	5741.33
446.21	5696.86
446.39	5717.93
446.58	5661.76
446.77	5799.85
446.95	5467.49
447.14	5694.52
447.32	5724.95
447.51	5743.67
447.69	5678.14
447.88	5820.91
448.06	5781.12
448.25	5727.29
448.43	5849.00
448.62	5895.81
448.80	5858.36
448.99	5881.77
449.17	5863.04
449.36	5884.11
449.54	6022.20
449.73	6052.63
449.91	5951.98
450.10	5994.11
450.28	6080.71
450.46	6033.90
450.65	6204.76
450.83	6122.84
451.02	6139.23
451.20	6179.01
451.39	6314.77
451.57	6155.61
451.76	6246.89
451.94	6106.46
452.13	6354.55
452.31	6406.05
452.49	6361.58
452.68	6303.06
452.86	6310.08
453.05	6225.82
453.23	6483.28
453.42	6263.27
453.60	6289.02
453.78	6506.69
453.97	6314.77
454.15	6354.55
454.34	6455.20
454.52	6483.28
454.70	6464.56
454.89	6588.61
455.07	6663.51
455.26	6555.84
455.44	6677.55
455.62	6775.85
455.81	6806.28
455.99	6775.85
456.17	6668.19
456.36	6773.51
456.54	6904.58
456.73	6773.51
456.91	6963.09
457.09	6986.50
457.28	7096.50
457.46	6946.71
457.64	7026.29
457.83	6988.84
458.01	6930.33
458.19	7335.24
458.38	7075.44
458.56	7290.77
458.74	7105.87
458.93	7171.40
459.11	7215.87
459.29	7386.73
459.48	7206.51
459.66	7250.98
459.84	7234.60
460.03	7412.48
460.21	7297.79
460.39	7243.96
460.57	7339.92
460.76	7433.54
460.94	7426.52
461.12	7426.52
461.31	7559.93
461.49	7346.94
461.67	7440.56
461.85	7644.19
462.04	7442.90
462.22	8098.25
462.40	7765.90
462.59	7695.68
462.77	7658.23
462.95	7822.07
463.13	7716.75
463.32	7791.64
463.50	7866.54
463.68	7962.50
463.86	7875.90
464.05	7857.18
464.23	7943.78
464.41	8028.04
464.59	7604.40
464.78	8161.45
464.96	8074.85
465.14	7857.18
465.32	7812.71
465.50	8140.38
465.69	8138.04
465.87	8032.72
466.05	8156.77
466.23	8236.35
466.41	8107.62
466.60	8351.03
466.78	8285.50
466.96	8063.15
467.14	8124.00
467.32	8465.72
467.51	8442.31
467.69	8177.83
467.87	8210.60
468.05	8421.25
468.23	8217.62
468.41	8430.61
468.60	8458.70
468.78	8634.24
468.96	8142.72
469.14	8554.66
469.32	8674.03
469.50	8425.93
469.69	8688.07
469.87	8837.86
470.05	8765.31
470.23	8823.82
470.41	8868.29
470.59	8779.35
470.77	8566.36
470.95	8905.74
471.14	8922.12
471.32	9006.38
471.50	8849.57
471.68	8992.34
471.86	9186.60
472.04	9249.80
472.22	9490.87
472.40	8994.68
472.58	9305.97
472.77	9284.91
472.95	9123.41
473.13	9605.56
473.31	9390.23
473.49	9376.19
473.67	9437.04
473.85	9584.49
474.03	9689.82
474.21	9563.43
474.39	9919.19
474.57	9923.87
474.75	10087.71
474.93	9830.25
475.12	9900.47
475.30	9867.70
475.48	10068.98
475.66	9947.28
475.84	10005.79
476.02	10186.01
476.20	10249.21
476.38	10408.36
476.56	10555.82
476.74	10537.09
476.92	10815.62
477.10	10480.92
477.28	10675.18
477.46	10806.25
477.64	10876.47
477.82	11021.58
478.00	11105.84
478.18	10958.39
478.36	11145.63
478.54	11318.83
478.72	11384.37
478.90	11499.05
479.08	11520.12
479.26	11726.08
479.44	11613.74
479.62	11501.39
479.80	11786.94
479.98	11978.86
480.16	12255.04
480.34	12210.57
480.52	12189.51
480.70	12231.64
480.88	12079.50
481.06	12446.97
481.24	12507.82
481.41	12585.06
481.59	12854.22
481.77	12999.34
481.95	12922.10
482.13	13240.41
482.31	12959.55
482.49	13474.46
482.67	13287.22
482.85	13544.68
483.03	13497.87
483.21	13628.94
483.39	13846.61
483.57	13797.46
483.74	13734.26
483.92	13907.46
484.10	13830.23
484.28	14197.69
484.46	14518.34
484.64	14661.12
484.82	14593.24
485.00	14691.54
485.18	14939.64
485.35	15023.90
485.53	15260.29
485.71	15208.80
485.89	15477.96
486.07	15391.36
486.25	15473.28
486.43	15440.51
486.61	15896.92
486.78	15854.79
486.96	15903.94
487.14	15885.22
487.32	16126.29
487.50	16510.14
487.68	16327.58
487.85	16262.04
488.03	16767.60
488.21	16648.23
488.39	16751.21
488.57	16919.73
488.75	17331.67
488.92	17074.21
489.10	17303.58
489.28	17598.49
489.46	17980.00
489.64	17701.47
489.81	18267.88
489.99	18132.13
490.17	18092.34
490.35	18401.29
490.53	18391.93
490.70	18862.38
490.88	18588.53
491.06	19070.68
491.24	18963.02
491.41	19110.47
491.59	19503.68
491.77	19239.20
491.95	19470.92
492.13	19274.31
492.30	19597.31
492.48	19557.52
492.66	19906.26
492.84	19840.72
493.01	20311.17
493.19	20037.33
493.37	20318.19
493.54	20383.73
493.72	20648.21
493.90	20507.77
494.08	21006.31
494.25	21170.15
494.43	20915.03
494.61	21074.18
494.79	21191.21
494.96	21324.62
495.14	21418.24
495.32	21462.71
495.49	21848.90
495.67	21942.52
495.85	22352.12
496.02	22050.19
496.20	22377.86
496.38	22246.79
496.55	22441.06
496.73	22733.62
496.91	22546.38
497.09	22937.25
497.26	22958.31
497.44	22789.80
497.62	23002.78
497.79	23152.58
497.97	23239.18
498.14	23700.26
498.32	23742.39
498.50	23363.23
498.67	23936.66
498.85	23974.11
499.03	23718.99
499.20	24002.19
499.38	24201.14
499.56	24446.90
499.73	24105.18
499.91	24678.61
500.08	24676.27
500.26	24582.65
500.44	24608.39
500.61	24919.68
500.79	24453.92
500.97	25015.65
501.14	25312.89
501.32	25572.69
501.49	25214.59
501.67	25455.67
501.84	25811.43
502.02	25369.07
502.20	25736.53
502.37	25652.27
502.55	25783.34
502.72	26118.04
502.90	26082.93
503.07	25996.33
503.25	26321.66
503.43	25858.24
503.60	26019.74
503.78	26597.85
503.95	26384.86
504.13	26352.09
504.30	26789.77
504.48	26333.37
504.65	27075.32
504.83	27311.71
505.01	27185.32
505.18	27150.21
505.36	27627.68
505.53	27131.49
505.71	27206.39
505.88	27314.05
506.06	27197.02
506.23	27573.85
506.41	27332.78
506.58	27962.38
506.76	27571.51
506.93	27845.35
507.11	28367.29
507.28	28081.75
507.46	28411.76
507.63	28119.20
507.81	28332.18
507.98	28573.26
508.16	28491.34
508.33	28568.58
508.50	28758.16
508.68	28765.18
508.85	29057.75
509.03	28613.05
509.20	29113.92
509.38	29338.62
509.55	29369.04
509.73	29259.04
509.90	29507.13
510.08	29539.90
510.25	29329.25
510.42	29193.50
510.60	29427.56
510.77	29998.65
510.95	30153.12
511.12	29626.50
511.30	29799.70
511.47	29837.15
511.64	30038.44
511.82	30452.71
511.99	30202.27
512.17	30192.91
512.34	30501.86
512.51	30771.02
512.69	30672.72
512.86	30522.93
513.04	30761.66
513.21	31105.72
513.38	30836.56
513.56	31402.97
513.73	31363.18
513.90	31175.94
514.08	31431.05
514.25	31232.11
514.43	31632.34
514.60	31672.13
514.77	31515.31
514.95	31534.04
515.12	31363.18
515.29	31637.02
515.47	32027.89
515.64	32297.05
515.81	31798.52
515.99	32423.44
516.16	32212.79
516.33	32355.57
516.51	32350.88
516.68	32327.48
516.85	32273.65
517.03	32458.55
517.20	32713.67
517.37	32687.92
517.54	33076.45
517.72	33289.44
517.89	32680.90
518.06	32844.74
518.24	33158.37
518.41	32737.07
518.58	32732.39
518.75	33001.55
518.93	33574.98
519.10	33263.69
519.27	33755.21
519.45	33221.56
519.62	33392.42
519.79	33504.77
519.96	33923.72
520.14	34033.73
520.31	33708.40
520.48	33874.57
520.65	34328.64
520.83	34024.37
521.00	34225.65
521.17	34263.10
521.34	34223.31
521.52	34543.97
521.69	34225.65
521.86	34747.59
522.03	34731.21
522.20	34593.12
522.38	34934.84
522.55	35033.14
522.72	35505.93
522.89	34796.74
523.07	35470.82
523.24	35227.40
523.41	35400.60
523.58	35442.73
523.75	35269.53
523.92	35271.87
524.10	35569.12
524.27	35782.11
524.44	35800.83
524.61	35826.58
524.78	35964.67
524.96	35503.59
525.13	36009.14
525.30	36329.80
525.47	36566.19
525.64	35880.41
525.81	36362.56
525.98	36711.30
526.16	36254.90
526.33	36510.02
526.50	36732.37
526.67	36105.10
526.84	36388.31
527.01	36596.62
527.18	36655.13
527.36	36652.79
527.53	36882.16
527.70	36985.15
527.87	37191.11
528.04	36828.33
528.21	37141.96
528.38	37144.30
528.55	37483.68
528.72	37230.90
528.89	37420.48
529.07	37247.29
529.24	37001.53
529.41	37289.42
529.58	37156.00
529.75	37495.38
529.92	37467.30
530.09	37652.20
530.26	37827.74
530.43	37661.56
530.60	37404.10
530.77	37659.22
530.94	37710.71
531.11	37888.59
531.28	37972.85
531.46	38260.74
531.63	38363.72
531.80	38066.47
531.97	38270.10
532.14	38389.47
532.31	38019.66
532.48	38483.09
532.65	38312.23
532.82	38368.40
532.99	39037.80
533.16	38335.63
533.33	39023.75
533.50	38864.60
533.67	38665.65
533.84	38403.51
534.01	38864.60
534.18	38698.42
534.35	39342.06
534.52	39381.85
534.69	39695.49
534.86	39285.89
535.03	39367.81
535.20	39601.86
535.37	39433.35
535.54	39515.26
535.71	39189.93
535.88	39559.73
536.05	39526.97
536.22	39864.00
536.38	39957.63
536.55	39522.29
536.72	39536.33
536.89	39496.54
537.06	39353.77
537.23	40161.25
537.40	39765.70
537.57	39835.92
537.74	40044.23
537.91	40191.68
538.08	40041.88
538.25	40088.70
538.42	40032.52
538.59	40772.13
538.75	40091.04
538.92	40460.84
539.09	40566.16
539.26	40620.00
539.43	40304.02
539.60	40444.46
539.77	40123.80
539.94	40491.27
540.11	40854.05
540.28	40687.87
540.44	40381.26
540.61	40788.52
540.78	40671.49
540.95	40945.33
541.12	40793.20
541.29	40521.69
541.46	40767.45
541.62	41006.19
541.79	41074.06
541.96	41050.66
542.13	40545.10
542.30	40917.25
542.47	41432.16
542.63	41338.54
542.80	41579.62
542.97	41736.43
543.14	41783.24
543.31	42096.88
543.48	41509.40
543.64	42396.46
543.81	42092.19
543.98	41890.91
544.15	42068.79
544.32	42314.55
544.48	42754.57
544.65	42073.47
544.82	42066.45
544.99	42134.32
545.16	42136.66
545.32	42087.51
545.49	42333.27
545.66	42775.63
545.83	42354.33
546.00	42625.84
546.16	42295.82
546.33	42548.60
546.50	42511.15
546.67	42939.47
546.83	42611.79
547.00	42543.92
547.17	42635.20
547.34	42784.99
547.50	42850.53
547.67	42892.66
547.84	42960.53
548.00	42997.98
548.17	43435.66
548.34	43267.14
548.51	42813.08
548.67	43281.19
548.84	43416.94
549.01	43297.57
549.18	43363.11
549.34	43325.66
549.51	43533.96
549.68	43531.62
549.84	43456.73
550.01	44002.07
550.18	43012.02
550.34	43335.02
550.51	43421.62
550.68	43505.88
550.84	43349.06
551.01	43966.96
551.18	43686.10
551.34	44116.76
551.51	44126.12
551.68	43648.65
551.84	43604.18
552.01	43538.65
552.18	43892.07
552.34	44182.29
552.51	43636.95
552.68	43908.45
552.84	43948.24
553.01	44498.26
553.18	44133.14
553.34	44119.10
553.51	44343.79
553.67	44175.27
553.84	44196.34
554.01	44404.64
554.17	44226.76
554.34	44596.57
554.51	44725.30
554.67	44502.95
554.84	44701.89
555.00	44460.82
555.17	44664.44
555.33	45174.68
555.50	44729.98
555.67	44582.52
555.83	44957.01
556.00	44828.28
556.16	45595.98
556.33	44980.42
556.50	44882.11
556.66	44907.86
556.83	44863.39
556.99	45305.75
557.16	45256.60
557.32	45104.46
557.49	45003.82
557.65	44694.87
557.82	44678.49
557.98	44917.22
558.15	45148.93
558.32	45455.54
558.48	45174.68
558.65	45059.99
558.81	45338.52
558.98	45181.70
559.14	44893.82
559.31	45893.22
559.47	45696.62
559.64	45371.28
559.80	45338.52
559.97	45642.79
560.13	45069.36
560.30	45481.29
560.46	45535.12
560.63	45778.54
560.79	45565.55
560.96	46047.70
561.12	45453.20
561.29	45935.35
561.45	45741.09
561.61	45762.15
561.78	45476.61
561.94	46031.32
562.11	45539.80
562.27	45736.41
562.44	45584.27
562.60	45975.14
562.77	45904.93
562.93	45975.14
563.10	46256.01
563.26	45670.87
563.42	46351.97
563.59	45584.27
563.75	45689.60
563.92	45937.69
564.08	45799.60
564.24	46003.23
564.41	45865.14
564.57	46291.12
564.74	46148.34
564.90	45968.12
565.07	45993.87
565.23	45972.80
565.39	46267.71
565.56	46579.00
565.72	46157.70
565.88	46089.83
566.05	45961.10
566.21	46520.49
566.38	45914.29
566.54	46356.65
566.70	46248.99
566.87	46660.92
567.03	46000.89
567.19	46712.41
567.36	46464.32
567.52	46595.38
567.68	46836.46
567.85	46461.97
568.01	46923.06
568.17	46703.05
568.34	46876.25
568.50	46536.87
568.66	45830.03
568.83	46548.57
568.99	46267.71
569.15	46494.74
569.32	46277.07
569.48	46513.47
569.64	46878.59
569.81	46267.71
569.97	46574.32
570.13	46375.37
570.30	46305.16
570.46	46183.45
570.62	46925.40
570.78	46700.71
570.95	46335.59
571.11	46583.68
571.27	46686.67
571.43	46930.08
571.60	46766.24
571.76	46417.50
571.92	46574.32
572.09	46330.90
572.25	46632.83
572.41	46569.64
572.57	46724.11
572.74	46857.52
572.90	46635.17
573.06	46829.44
573.22	46958.17
573.38	47456.70
573.55	47199.24
573.71	47709.48
573.87	47171.16
574.03	46904.34
574.20	47306.91
574.36	47084.56
574.52	46597.73
574.68	47107.96
574.84	47124.35
575.01	46920.72
575.17	47253.08
575.33	47194.56
575.49	46880.93
575.65	47091.58
575.82	47065.83
575.98	46766.24
576.14	46967.53
576.30	47168.82
576.46	46969.87
576.62	46962.85
576.79	47154.77
576.95	46679.64
577.11	46693.69
577.27	47117.32
577.43	46801.35
577.59	47110.30
577.75	46693.69
577.92	46562.62
578.08	47353.72
578.24	46927.74
578.40	47070.51
578.56	47175.84
578.72	47262.44
578.88	47112.64
579.04	47082.22
579.21	47061.15
579.37	47339.68
579.53	47173.50
579.69	47082.22
579.85	47054.13
580.01	47147.75
580.17	47180.52
580.33	47239.03
580.49	47973.96
580.65	47501.17
580.82	47334.99
580.98	46911.36
581.14	46972.21
581.30	47292.86
581.46	46913.70
581.62	47023.70
581.78	46974.55
581.94	47557.35
582.10	47552.66
582.26	47442.66
582.42	47023.70
582.58	46979.23
582.74	47636.92
582.90	47475.43
583.06	47657.99
583.22	46960.51
583.38	47667.35
583.54	47608.84
583.70	47690.76
583.86	47363.08
584.02	47192.22
584.18	47508.19
584.34	47452.02
584.50	47873.32
584.66	47606.50
584.82	47398.19
584.98	47459.04
585.14	47732.89
585.30	47540.96
585.46	47367.76
585.62	47124.35
585.78	47381.80
585.94	47040.09
586.10	47676.71
586.26	47171.16
586.42	47306.91
586.58	47592.45
586.74	47398.19
586.90	47391.17
587.06	47199.24
587.22	47697.78
587.38	47597.13
587.54	47826.51
587.70	47707.14
587.86	47452.02
588.02	47643.94
588.18	47510.53
588.34	47327.97
588.49	47358.40
588.65	47533.94
588.81	47550.32
588.97	47749.27
589.13	47501.17
589.29	48114.39
589.45	47716.50
589.61	47426.28
589.77	47901.40
589.93	47419.25
