SpectraSuite Data File
++++++++++++++++++++++++++++++++++++
Date: Fri Oct 25 11:23:00 EDT 2013
User: price-jones
Dark Spectrum Present: No
Reference Spectrum Present: No
Number of Sampled Component Spectra: 1
Spectrometers: USB2+H05261
Integration Time (usec): 100000 (USB2+H05261)
Spectra Averaged: 1 (USB2+H05261)
Boxcar Smoothing: 0 (USB2+H05261)
Correct for Electrical Dark: No (USB2+H05261)
Strobe/Lamp Enabled: No (USB2+H05261)
Correct for Detector Non-linearity: No (USB2+H05261)
Correct for Stray Light: No (USB2+H05261)
Number of Pixels in Processed Spectrum: 2048
>>>>>Begin Processed Spectral Data<<<<<
365.73	238.73
365.92	238.73
366.12	238.73
366.32	65.54
366.52	91.28
366.72	196.60
366.91	86.60
367.11	142.77
367.31	121.71
367.51	131.07
367.70	156.82
367.90	88.94
368.10	126.39
368.30	74.90
368.49	154.48
368.69	138.09
368.89	135.75
369.09	124.05
369.28	114.69
369.48	194.26
369.68	147.45
369.87	119.37
370.07	243.42
370.27	224.69
370.47	362.78
370.66	545.34
370.86	622.58
371.06	631.94
371.25	786.42
371.45	699.82
371.65	718.54
371.84	606.20
372.04	660.03
372.24	741.95
372.44	688.12
372.63	720.88
372.83	748.97
373.03	739.61
373.22	781.74
373.42	767.70
373.62	788.76
373.81	821.53
374.01	802.80
374.21	854.30
374.40	826.21
374.60	791.10
374.79	847.27
374.99	798.12
375.19	833.23
375.38	805.14
375.58	812.17
375.78	889.40
375.97	915.15
376.17	894.08
376.37	891.74
376.56	882.38
376.76	870.68
376.95	854.30
377.15	887.06
377.35	912.81
377.54	917.49
377.74	882.38
377.93	851.96
378.13	903.45
378.33	931.53
378.52	999.41
378.72	910.47
378.91	945.58
379.11	1015.79
379.31	990.05
379.50	919.83
379.70	954.94
379.89	985.37
380.09	936.21
380.28	966.64
380.48	1006.43
380.68	961.96
380.87	1020.47
381.07	957.28
381.26	992.39
381.46	1015.79
381.65	976.00
381.85	1018.13
382.04	1057.92
382.24	1057.92
382.43	1027.50
382.63	1050.90
382.83	1048.56
383.02	1153.88
383.22	1102.39
383.41	1121.12
383.61	1088.35
383.80	1179.63
384.00	1109.41
384.19	1107.07
384.39	1111.75
384.58	1097.71
384.78	1095.37
384.97	1144.52
385.17	1146.86
385.36	1212.40
385.56	1256.87
385.75	1184.31
385.95	1186.65
386.14	1212.40
386.34	1158.57
386.53	1203.04
386.72	1198.35
386.92	1228.78
387.11	1238.14
387.31	1233.46
387.50	1261.55
387.70	1235.80
387.89	1329.42
388.09	1291.98
388.28	1238.14
388.48	1324.74
388.67	1249.85
388.86	1313.04
389.06	1275.59
389.25	1324.74
389.45	1338.79
389.64	1366.87
389.84	1434.75
390.03	1446.45
390.22	1355.17
390.42	1451.13
390.61	1390.28
390.81	1416.02
391.00	1406.66
391.19	1479.22
391.39	1430.07
391.58	1437.09
391.78	1399.64
391.97	1364.53
392.16	1406.66
392.36	1516.67
392.55	1605.61
392.75	1568.16
392.94	1614.97
393.13	1467.52
393.33	1504.96
393.52	1565.82
393.71	1652.42
393.91	1600.93
394.10	1570.50
394.29	1577.52
394.49	1591.56
394.68	1675.82
394.88	1600.93
395.07	1598.59
395.26	1607.95
395.46	1682.85
395.65	1774.13
395.84	1727.32
396.04	1809.23
396.23	1783.49
396.42	1722.63
396.62	1776.47
396.81	1760.08
397.00	1776.47
397.19	1895.83
397.39	1774.13
397.58	1830.30
397.77	1813.92
397.97	1769.44
398.16	1844.34
398.35	1968.39
398.55	1928.60
398.74	1933.28
398.93	1989.46
399.12	1863.07
399.32	1827.96
399.51	1846.68
399.70	2139.25
399.90	1912.22
400.09	1998.82
400.28	2122.87
400.47	2033.93
400.67	2085.42
400.86	2073.71
401.05	2090.10
401.24	2167.34
401.44	2066.69
401.63	2069.03
401.82	2197.76
402.01	2279.68
402.21	2214.15
402.40	2249.25
402.59	2139.25
402.78	2148.61
402.97	2260.96
403.17	2366.28
403.36	2244.57
403.55	2249.25
403.74	2310.11
403.93	2387.35
404.13	2455.22
404.32	2260.96
404.51	2394.37
404.70	2441.18
404.89	2389.69
405.09	2502.03
405.28	2487.99
405.47	2462.24
405.66	2436.50
405.85	2471.61
406.05	2572.25
406.24	2471.61
406.43	2448.20
406.62	2752.47
406.81	2726.72
407.00	2647.15
407.20	2506.71
407.39	2642.46
407.58	2710.34
407.77	2818.00
407.96	2771.19
408.15	2785.24
408.34	2780.56
408.54	2785.24
408.73	2745.45
408.92	2712.68
409.11	3045.04
409.30	2946.73
409.49	2944.39
409.68	3082.49
409.87	2906.95
410.07	2951.42
410.26	3056.74
410.45	2979.50
410.64	3155.04
410.83	3152.70
411.02	3124.62
411.21	3295.47
411.40	3201.85
411.59	3283.77
411.78	3309.52
411.98	3190.15
412.17	3372.71
412.36	3262.71
412.55	3501.44
412.74	3342.28
412.93	3368.03
413.12	3400.80
413.31	3520.17
413.50	3414.84
413.69	3545.91
413.88	3520.17
414.07	3702.73
414.26	3597.40
414.45	3735.50
414.64	3681.66
414.83	3882.95
415.02	3810.39
415.22	3831.46
415.41	3908.69
415.60	3929.76
415.79	3939.12
415.98	4081.89
416.17	3941.46
416.36	4018.70
416.55	3974.23
416.74	4086.58
416.93	4201.26
417.12	4086.58
417.31	4056.15
417.50	4217.65
417.69	4367.44
417.88	4241.05
418.07	4428.29
418.26	4215.30
418.45	4297.22
418.64	4519.57
418.83	4421.27
419.02	4491.49
419.21	4484.47
419.39	4547.66
419.58	4603.83
419.77	4503.19
419.96	4592.13
420.15	4648.30
420.34	4638.94
420.53	4540.64
420.72	4847.25
420.91	4582.77
421.10	4889.38
421.29	4706.82
421.48	4685.75
421.67	4748.95
421.86	4894.06
422.05	4854.27
422.24	4887.04
422.43	4865.97
422.61	4858.95
422.80	5057.90
422.99	4903.42
423.18	4985.34
423.37	4990.02
423.56	5081.30
423.75	4844.91
423.94	4978.32
424.13	4681.07
424.32	4880.02
424.50	5039.17
424.69	5177.26
424.88	5144.50
425.07	4929.17
425.26	5006.41
425.45	5032.15
425.64	5076.62
425.83	5034.49
426.01	4999.38
426.20	5135.14
426.39	5116.41
426.58	5074.28
426.77	5107.05
426.96	5228.76
427.15	5280.25
427.33	5247.48
427.52	5125.77
427.71	5317.70
427.90	5366.85
428.09	5380.89
428.28	5320.04
428.46	5303.65
428.65	5336.42
428.84	5511.96
429.03	5479.19
429.22	5359.83
429.40	5371.53
429.59	5589.20
429.78	5387.91
429.97	5357.49
430.16	5521.32
430.34	5699.20
430.53	5689.84
430.72	5561.11
430.91	5636.01
431.10	5778.78
431.28	5760.06
431.47	5970.71
431.66	5909.85
431.85	5858.36
432.03	5902.83
432.22	6099.44
432.41	5975.39
432.60	5844.32
432.79	6003.47
432.97	6078.37
433.16	5963.68
433.35	6106.46
433.54	6087.73
433.72	6047.94
433.91	6118.16
434.10	6155.61
434.28	6113.48
434.47	6303.06
434.66	6333.49
434.85	6317.11
435.03	6380.30
435.22	6246.89
435.41	6527.75
435.59	6504.35
435.78	6429.45
435.97	6569.88
436.16	6537.12
436.34	6490.31
436.53	6567.54
436.72	6588.61
436.90	6558.18
437.09	6630.74
437.28	6534.78
437.46	6544.14
437.65	6794.58
437.84	6740.74
438.02	6717.34
438.21	6700.95
438.40	6792.23
438.58	7040.33
438.77	7045.01
438.96	7042.67
439.14	7309.49
439.33	7279.07
439.52	7300.13
439.70	7349.28
439.89	7304.81
440.08	7480.35
440.26	7377.37
440.45	7405.46
440.63	7550.57
440.82	7681.64
441.01	7531.84
441.19	7676.96
441.38	7683.98
441.57	7637.17
441.75	7815.05
441.94	7911.01
442.12	8044.42
442.31	7971.86
442.50	8065.49
442.68	8058.46
442.87	8182.51
443.05	8156.77
443.24	8222.30
443.43	8184.85
443.61	8189.53
443.80	8503.17
443.98	8107.62
444.17	7983.57
444.35	8194.22
444.54	8379.12
444.73	8390.82
444.91	8369.76
445.10	8124.00
445.28	8397.84
445.47	8170.81
445.65	8365.07
445.84	8538.27
446.02	8521.89
446.21	8362.73
446.39	8435.29
446.58	8465.72
446.77	8683.39
446.95	8423.59
447.14	8643.60
447.32	8535.93
447.51	8564.02
447.69	8573.38
447.88	8638.92
448.06	8659.98
448.25	8676.37
448.43	8690.41
448.62	8554.66
448.80	8545.30
448.99	8638.92
449.17	8730.20
449.36	8748.92
449.54	9043.83
449.73	8819.14
449.91	9076.60
450.10	9039.15
450.28	9121.07
450.46	9057.87
450.65	9284.91
450.83	9149.15
451.02	9167.88
451.20	9210.01
451.39	9287.25
451.57	9348.10
451.76	9224.05
451.94	9284.91
452.13	9165.54
452.31	9593.86
452.49	9163.20
452.68	9551.73
452.86	9479.17
453.05	9591.52
453.23	9724.93
453.42	9303.63
453.60	9516.62
453.78	9530.66
453.97	9497.89
454.15	9437.04
454.34	9563.43
454.52	9809.19
454.70	9689.82
454.89	9853.66
455.07	9935.57
455.26	9921.53
455.44	9921.53
455.62	9750.67
455.81	9980.04
455.99	9994.09
456.17	10031.54
456.36	10190.69
456.54	10120.48
456.73	10258.57
456.91	10600.29
457.09	10548.79
457.28	10679.86
457.46	10361.55
457.64	10518.37
457.83	10628.37
458.01	10260.91
458.19	10707.95
458.38	10689.23
458.56	10745.40
458.74	10817.96
458.93	10710.29
459.11	10778.17
459.29	10918.60
459.48	10726.68
459.66	10764.12
459.84	10869.45
460.03	10988.82
460.21	10995.84
460.39	11080.10
460.57	11164.36
460.76	11052.01
460.94	11255.64
461.12	11342.24
461.31	11248.61
461.49	11325.85
461.67	11367.98
461.85	11620.76
462.04	11403.09
462.22	11712.04
462.40	11639.48
462.59	11674.59
462.77	11470.97
462.95	11793.96
463.13	11555.22
463.32	11784.60
463.50	11719.06
463.68	11854.81
463.86	12037.38
464.05	11683.95
464.23	11571.61
464.41	11962.48
464.59	11599.70
464.78	12393.14
464.96	12152.06
465.14	11971.84
465.32	11953.12
465.50	12280.79
465.69	12212.92
465.87	12203.55
466.05	12116.95
466.23	12285.47
466.41	12351.01
466.60	12535.91
466.78	12205.89
466.96	12416.54
467.14	12351.01
467.32	12533.57
467.51	12521.87
467.69	12224.62
467.87	12734.85
468.05	12594.42
468.23	12606.13
468.41	12493.78
468.60	13004.02
468.78	12898.69
468.96	12699.75
469.14	13050.83
469.32	12987.63
469.50	12580.38
469.69	13008.70
469.87	13317.65
470.05	13221.69
470.23	13303.60
470.41	13174.88
470.59	13226.37
470.77	13500.21
470.95	13315.31
471.14	13635.96
471.32	13205.30
471.50	13813.84
471.68	13783.41
471.86	13605.53
472.04	13846.61
472.22	14092.37
472.40	13802.14
472.58	13699.16
472.77	14202.37
472.95	14246.84
473.13	14597.92
473.31	14143.86
473.49	14178.97
473.67	14331.10
473.85	14434.08
474.03	14607.28
474.21	14668.14
474.39	14677.50
474.57	15005.17
474.75	14862.40
474.93	15129.22
475.12	14953.68
475.30	15386.68
475.48	15073.05
475.66	15330.51
475.84	15316.47
476.02	15571.58
476.20	15482.64
476.38	15824.36
476.56	16119.27
476.74	15992.88
476.92	16013.95
477.10	16065.44
477.28	16063.10
477.46	16320.56
477.64	16219.91
477.82	16500.78
478.00	16992.29
478.18	16842.50
478.36	17128.04
478.54	17170.17
478.72	17490.82
478.90	17509.55
479.08	17806.80
479.26	17844.24
479.44	17664.02
479.62	17949.57
479.80	18249.16
479.98	18295.97
480.16	18600.24
480.34	18530.02
480.52	19014.51
480.70	18530.02
480.88	18583.85
481.06	19190.05
481.24	19007.49
481.41	19126.86
481.59	19243.88
481.77	19864.13
481.95	19257.93
482.13	20081.80
482.31	20081.80
482.49	20383.73
482.67	20280.74
482.85	20898.64
483.03	20357.98
483.21	20971.20
483.39	21427.60
483.57	21226.32
483.74	21280.15
483.92	21603.14
484.10	21446.33
484.28	21612.51
484.46	21809.11
484.64	22586.17
484.82	21656.98
485.00	22429.35
485.18	22810.86
485.35	23445.15
485.53	22934.91
485.71	23087.04
485.89	23779.84
486.07	23297.69
486.25	23630.05
486.43	24126.24
486.61	24049.00
486.78	24196.46
486.96	24547.54
487.14	25111.61
487.32	24823.72
487.50	25275.45
487.68	25254.38
487.85	25179.48
488.03	25542.27
488.21	25804.41
488.39	25713.13
488.57	26249.11
488.75	26415.29
488.92	26597.85
489.10	27103.40
489.28	27063.61
489.46	27765.78
489.64	27269.58
489.81	27960.04
489.99	27946.00
490.17	27927.27
490.35	28458.57
490.53	28105.15
490.70	28734.76
490.88	28589.64
491.06	29036.69
491.24	29060.09
491.41	29303.51
491.59	29804.38
491.77	29916.73
491.95	29919.07
492.13	30192.91
492.30	30684.42
492.48	30410.58
492.66	30487.82
492.84	30815.49
493.01	31323.39
493.19	30785.07
493.37	31112.74
493.54	31714.26
493.72	31601.91
493.90	31927.25
494.08	31810.22
494.25	32280.67
494.43	32503.02
494.61	32701.96
494.79	32339.18
494.96	33020.28
495.14	32926.66
495.32	33263.69
495.49	33179.43
495.67	33610.09
495.85	33654.56
496.02	33876.91
496.20	34202.25
496.38	34192.89
496.55	34616.52
496.73	34998.03
496.91	35143.14
497.09	35395.92
497.26	35145.48
497.44	35021.44
497.62	35756.36
497.79	36147.23
497.97	35857.01
498.14	36575.55
498.32	36259.58
498.50	36800.24
498.67	37153.66
498.85	36694.92
499.03	36790.88
499.20	37090.47
499.38	37296.44
499.56	37315.16
499.73	37160.69
499.91	37778.59
500.08	37933.06
500.26	37783.27
500.44	37773.91
500.61	38398.83
500.79	38061.79
500.97	38450.32
501.14	39283.55
501.32	39143.12
501.49	39276.53
501.67	38969.92
501.84	39751.66
502.02	38955.88
502.20	39363.13
502.37	39466.11
502.55	39412.28
502.72	39758.68
502.90	39625.27
503.07	40041.88
503.25	39826.56
503.43	39936.56
503.60	40748.73
503.78	40636.38
503.95	40821.28
504.13	40772.13
504.30	41153.64
504.48	40971.08
504.65	41647.49
504.83	41500.04
505.01	42139.00
505.18	41635.79
505.36	41570.25
505.53	41481.31
505.71	41708.35
505.88	42302.84
506.06	42061.77
506.23	42110.92
506.41	42127.30
506.58	42328.59
506.76	42773.29
506.93	42614.13
507.11	42773.29
507.28	42792.01
507.46	43374.81
507.63	43049.47
507.81	43501.20
507.98	43414.60
508.16	43564.39
508.33	43601.84
508.50	43550.35
508.68	44048.88
508.85	44315.70
509.03	44184.63
509.20	44306.34
509.38	44690.19
509.55	44945.31
509.73	44416.35
509.90	45074.04
510.08	44861.05
510.25	44917.22
510.42	45113.83
510.60	45221.49
510.77	45617.04
510.95	45401.71
511.12	45858.12
511.30	45528.10
511.47	45787.90
511.64	45743.43
511.82	46136.64
511.99	46169.41
512.17	46010.25
512.34	46497.08
512.51	46918.38
512.69	46609.43
512.86	46824.76
513.04	46628.15
513.21	47175.84
513.38	47271.80
513.56	47182.86
513.73	47192.22
513.90	47639.26
514.08	47086.90
514.25	47342.02
514.43	47482.45
514.60	47941.19
514.77	47793.74
514.95	48264.19
515.12	47662.67
515.29	48072.26
515.47	48203.33
515.64	48652.72
515.81	48065.24
515.99	48479.52
516.16	48940.60
516.33	48315.68
516.51	49179.34
516.68	48919.54
516.85	48935.92
517.03	49251.89
517.20	49294.02
517.37	49055.29
517.54	49010.82
517.72	49219.13
517.89	49392.33
518.06	49624.04
518.24	49432.11
518.41	49771.49
518.58	49574.89
518.75	49436.80
518.93	50176.40
519.10	49542.12
519.27	50007.89
519.45	50064.06
519.62	50167.04
519.79	50337.90
519.96	50199.81
520.14	50195.13
520.31	50326.20
520.48	50602.38
520.65	50766.22
520.83	50997.93
521.00	50967.51
521.17	50906.65
521.34	50880.91
521.52	50841.12
521.69	51428.59
521.86	51318.59
522.03	51267.09
522.20	51571.36
522.38	51599.45
522.55	51552.64
522.72	51566.68
522.89	51620.52
523.07	52175.22
523.24	51831.16
523.41	51868.61
523.58	51903.72
523.75	52306.29
523.92	52013.73
524.10	52002.02
524.27	52151.82
524.44	52306.29
524.61	52090.96
524.78	52521.62
524.96	52676.10
525.13	52804.83
525.30	52875.04
525.47	52636.31
525.64	52652.69
525.81	53034.20
525.98	53097.39
526.16	52610.56
526.33	52949.94
526.50	53162.93
526.67	52999.09
526.84	52910.15
527.01	52879.72
527.18	53118.46
527.36	53240.17
527.53	53605.29
527.70	53687.21
527.87	53731.68
528.04	53427.41
528.21	53570.18
528.38	53612.31
528.55	53932.96
528.72	53441.45
528.89	53764.45
529.07	53808.92
529.24	53673.16
529.41	54003.18
529.58	53825.30
529.75	53581.88
529.92	54270.00
530.09	53982.12
530.26	53977.43
530.43	54466.61
530.60	54087.44
530.77	54258.30
530.94	54356.60
531.11	54574.27
531.28	54459.58
531.46	54459.58
531.63	54412.77
531.80	54660.87
531.97	54511.08
532.14	54852.80
532.31	54962.80
532.48	54927.69
532.65	54981.52
532.82	54513.42
532.99	54997.91
533.16	55063.44
533.33	55210.90
533.50	55313.88
533.67	55084.51
533.84	54974.50
534.01	55009.61
534.18	55220.26
534.35	55430.91
534.52	55213.24
534.69	55449.63
534.86	55433.25
535.03	55107.91
535.20	55274.09
535.37	55580.70
535.54	55494.10
535.71	55655.60
535.88	55636.87
536.05	55681.34
536.22	55849.86
536.38	55805.39
536.55	55936.46
536.72	55927.10
536.89	55676.66
537.06	55662.62
537.23	56041.79
537.40	55796.03
537.57	55854.54
537.74	55798.37
537.91	56238.39
538.08	56189.24
538.25	55835.82
538.42	56210.31
538.59	56151.79
538.75	56341.38
538.92	56214.99
539.09	56430.32
539.26	56397.55
539.43	56303.93
539.60	56477.13
539.77	56465.42
539.94	56521.60
540.11	56720.54
540.28	56509.89
540.44	56746.29
540.61	56498.19
540.78	56647.99
540.95	56528.62
541.12	56659.69
541.29	56673.73
541.46	56725.22
541.62	57073.96
541.79	57020.13
541.96	56664.37
542.13	56835.23
542.30	56844.59
542.47	57027.15
542.63	56942.89
542.80	57071.62
542.97	57364.19
543.14	57425.04
543.31	57382.91
543.48	57296.31
543.64	57965.71
543.81	57420.36
543.98	57607.61
544.15	57518.67
544.32	57574.84
544.48	57815.91
544.65	57544.41
544.82	57741.02
544.99	57464.83
545.16	57743.36
545.32	57755.06
545.49	57715.27
545.66	57897.83
545.83	57893.15
546.00	57979.75
546.16	57935.28
546.33	57813.57
546.50	57808.89
546.67	58010.18
546.83	57879.11
547.00	57858.04
547.17	57956.35
547.34	58174.02
547.50	58197.42
547.67	58244.23
547.84	58396.37
548.00	58461.90
548.17	58422.11
548.34	58454.88
548.51	58471.26
548.67	58408.07
548.84	58344.87
549.01	58452.54
549.18	58253.59
549.34	58499.35
549.51	58534.46
549.68	58656.17
549.84	58506.37
550.01	58686.59
550.18	58651.48
550.34	58705.32
550.51	58810.64
550.68	58592.97
550.84	58548.50
551.01	58845.75
551.18	58649.14
551.34	58614.04
551.51	58658.51
551.68	58866.81
551.84	58843.41
552.01	58791.92
552.18	58979.16
552.34	58787.24
552.51	58965.12
552.68	58829.37
552.84	58951.07
553.01	59110.23
553.18	58927.67
553.34	59117.25
553.51	58845.75
553.67	59025.97
553.84	59194.49
554.01	59047.04
554.17	59353.65
554.34	59320.88
554.51	59257.68
554.67	59302.15
554.84	59295.13
555.00	59157.04
555.17	59171.08
555.33	59171.08
555.50	59245.98
555.67	59274.07
555.83	59379.39
556.00	59437.90
556.16	59814.73
556.33	59484.72
556.50	59779.62
556.66	59552.59
556.83	59276.41
556.99	59545.57
557.16	59648.55
557.32	59650.89
557.49	59859.20
557.65	59444.93
557.82	59473.01
557.98	59554.93
558.15	59554.93
558.32	59746.86
558.48	59592.38
558.65	59545.57
558.81	59618.13
558.98	59491.74
559.14	59735.15
559.31	59913.03
559.47	60006.65
559.64	60046.44
559.80	59931.76
559.97	60093.25
560.13	59597.06
560.30	60060.49
560.46	60069.85
560.63	59950.48
560.79	59983.25
560.96	60069.85
561.12	60090.91
561.29	60025.38
561.45	60030.06
561.61	59957.50
561.78	59992.61
561.94	60009.00
562.11	60093.25
562.27	60093.25
562.44	60130.70
562.60	60175.17
562.77	60130.70
562.93	60135.38
563.10	60238.37
563.26	59997.29
563.42	60250.07
563.59	60240.71
563.75	60001.97
563.92	60205.60
564.08	60088.57
564.24	60385.82
564.41	60383.48
564.57	60273.48
564.74	60224.32
564.90	60444.33
565.07	60350.71
565.23	60303.90
565.39	60336.67
565.56	60116.66
565.72	60441.99
565.88	60353.05
566.05	60416.25
566.21	60608.17
566.38	60404.55
566.54	60664.35
566.70	60619.88
566.87	60603.49
567.03	60434.97
567.19	60713.50
567.36	60530.93
567.52	60486.46
567.68	60795.42
567.85	60772.01
568.01	60526.25
568.17	60542.64
568.34	60654.98
568.50	60427.95
568.66	60542.64
568.83	60596.47
568.99	60495.83
569.15	60584.77
569.32	60589.45
569.48	60598.81
569.64	60774.35
569.81	60612.85
569.97	60563.70
570.13	60552.00
570.30	60549.66
570.46	60547.32
570.62	60760.31
570.78	60406.89
570.95	60837.54
571.11	60828.18
571.27	60598.81
571.43	60755.63
571.60	60732.22
571.76	60830.52
571.92	60884.36
572.09	60879.67
572.25	60781.37
572.41	60769.67
572.57	60687.75
572.74	61024.79
572.90	60814.14
573.06	60959.25
573.22	61052.87
573.38	60900.74
573.55	60863.29
573.71	61148.84
573.87	60844.57
574.03	60605.83
574.20	61029.47
574.36	60882.02
574.52	60853.93
574.68	60912.44
574.84	61010.74
575.01	60973.30
575.17	60912.44
575.33	60825.84
575.49	60872.65
575.65	61066.92
575.82	60975.64
575.98	61080.96
576.14	61022.45
576.30	60975.64
576.46	60767.33
576.62	61052.87
576.79	60788.39
576.95	60898.40
577.11	60928.83
577.27	61146.50
577.43	61148.84
577.59	60662.00
577.75	61064.58
577.92	60956.91
578.08	60982.66
578.24	61188.63
578.40	61141.81
578.56	61137.13
578.72	61015.43
578.88	61172.24
579.04	61221.39
579.21	61190.97
579.37	61303.31
579.53	61254.16
579.69	61102.03
579.85	61015.43
580.01	61095.00
580.17	60956.91
580.33	61106.71
580.49	61315.01
580.65	61050.53
580.82	61118.41
580.98	61085.64
581.14	60910.10
581.30	61176.92
581.46	61069.26
581.62	61172.24
581.78	60968.61
581.94	61148.84
582.10	61169.90
582.26	61207.35
582.42	60992.02
582.58	61130.11
582.74	61200.33
582.90	61207.35
583.06	61270.54
583.22	61069.26
583.38	61226.07
583.54	61270.54
583.70	61183.94
583.86	61343.10
584.02	61111.39
584.18	61230.75
584.34	61249.48
584.50	61029.47
584.66	61020.11
584.82	61104.37
584.98	61366.51
585.14	61293.95
585.30	61041.17
585.46	61024.79
585.62	61469.49
585.78	61256.50
585.94	61137.13
586.10	61169.90
586.26	61169.90
586.42	61413.32
586.58	61481.19
586.74	61359.48
586.90	61200.33
587.06	61214.37
587.22	61272.88
587.38	60956.91
587.54	61389.91
587.70	61532.68
587.86	61347.78
588.02	61270.54
588.18	61291.61
588.34	61212.03
588.49	61401.61
