SpectraSuite Data File
++++++++++++++++++++++++++++++++++++
Date: Fri Oct 25 10:48:21 EDT 2013
User: price-jones
Dark Spectrum Present: No
Reference Spectrum Present: No
Number of Sampled Component Spectra: 1
Spectrometers: USB2+H05261
Integration Time (usec): 100000 (USB2+H05261)
Spectra Averaged: 1 (USB2+H05261)
Boxcar Smoothing: 0 (USB2+H05261)
Correct for Electrical Dark: No (USB2+H05261)
Strobe/Lamp Enabled: No (USB2+H05261)
Correct for Detector Non-linearity: No (USB2+H05261)
Correct for Stray Light: No (USB2+H05261)
Number of Pixels in Processed Spectrum: 2048
>>>>>Begin Processed Spectral Data<<<<<
365.73	168.52
365.92	168.52
366.12	168.52
366.32	28.09
366.52	63.19
366.72	93.62
366.91	72.56
367.11	14.04
367.31	28.09
367.51	7.02
367.70	14.04
367.90	58.51
368.10	60.85
368.30	88.94
368.49	79.58
368.69	105.32
368.89	91.28
369.09	30.43
369.28	49.15
369.48	93.62
369.68	128.73
369.87	21.06
370.07	152.13
370.27	182.56
370.47	215.33
370.66	456.40
370.86	423.64
371.06	521.94
371.25	475.13
371.45	477.47
371.65	496.19
371.84	444.70
372.04	416.62
372.24	437.68
372.44	461.09
372.63	475.13
372.83	580.45
373.03	505.56
373.22	456.40
373.42	594.50
373.62	538.32
373.81	568.75
374.01	575.77
374.21	575.77
374.40	653.01
374.60	538.32
374.79	645.99
374.99	660.03
375.19	610.88
375.38	671.73
375.58	641.31
375.78	603.86
375.97	615.56
376.17	613.22
376.37	589.82
376.56	634.29
376.76	608.54
376.95	653.01
377.15	699.82
377.35	718.54
377.54	758.33
377.74	695.14
377.93	716.20
378.13	667.05
378.33	683.44
378.52	697.48
378.72	753.65
378.91	608.54
379.11	718.54
379.31	706.84
379.50	711.52
379.70	711.52
379.89	751.31
380.09	744.29
380.28	681.10
380.48	779.40
380.68	734.93
380.87	737.27
381.07	753.65
381.26	763.01
381.46	690.46
381.65	699.82
381.85	793.44
382.04	732.59
382.24	755.99
382.43	732.59
382.63	737.27
382.83	699.82
383.02	795.78
383.22	786.42
383.41	734.93
383.61	718.54
383.80	800.46
384.00	842.59
384.19	830.89
384.39	908.13
384.58	901.11
384.78	870.68
384.97	875.36
385.17	854.30
385.36	884.72
385.56	788.76
385.75	856.64
385.95	830.89
386.14	889.40
386.34	884.72
386.53	917.49
386.72	842.59
386.92	842.59
387.11	917.49
387.31	894.08
387.50	961.96
387.70	898.77
387.89	898.77
388.09	945.58
388.28	919.83
388.48	968.98
388.67	997.07
388.86	994.73
389.06	983.02
389.25	976.00
389.45	1034.52
389.64	1008.77
389.84	976.00
390.03	933.87
390.22	1090.69
390.42	1048.56
390.61	957.28
390.81	1130.48
391.00	1086.01
391.19	1118.78
391.39	1191.33
391.58	1097.71
391.78	1142.18
391.97	1198.35
392.16	1095.37
392.36	1130.48
392.55	1036.86
392.75	1046.22
392.94	1111.75
393.13	1064.94
393.33	1090.69
393.52	1067.28
393.71	1153.88
393.91	1172.61
394.10	1165.59
394.29	1177.29
394.49	1226.44
394.68	1315.38
394.88	1226.44
395.07	1270.91
395.26	1362.19
395.46	1289.64
395.65	1193.67
395.84	1277.93
396.04	1240.48
396.23	1277.93
396.42	1160.91
396.62	1320.06
396.81	1317.72
397.00	1313.04
397.19	1409.00
397.39	1362.19
397.58	1453.47
397.77	1348.15
397.97	1448.79
398.16	1479.22
398.35	1500.28
398.55	1423.05
398.74	1572.84
398.93	1612.63
399.12	1591.56
399.32	1519.01
399.51	1547.09
399.70	1631.35
399.90	1624.33
400.09	1699.23
400.28	1724.97
400.47	1626.67
400.67	1701.57
400.86	1666.46
401.05	1785.83
401.24	1727.32
401.44	1764.76
401.63	1818.60
401.82	1792.85
402.01	1736.68
402.21	1820.94
402.40	1755.40
402.59	1813.92
402.78	1767.10
402.97	1652.42
403.17	1837.32
403.36	1930.94
403.55	1919.24
403.74	1980.09
403.93	1973.07
404.13	1930.94
404.32	2015.20
404.51	1973.07
404.70	2111.16
404.89	2001.16
405.09	2080.74
405.28	1956.69
405.47	2134.57
405.66	2036.27
405.85	2118.18
406.05	2022.22
406.24	2038.61
406.43	2193.08
406.62	2197.76
406.81	2272.66
407.00	2071.37
407.20	2064.35
407.39	2148.61
407.58	2122.87
407.77	2190.74
407.96	2312.45
408.15	2270.32
408.34	2216.49
408.54	2377.98
408.73	2389.69
408.92	2375.64
409.11	2296.07
409.30	2389.69
409.49	2499.69
409.68	2392.03
409.87	2410.75
410.07	2473.95
410.26	2523.10
410.45	2523.10
410.64	2495.01
410.83	2605.02
411.02	2656.51
411.21	2773.53
411.40	2609.70
411.59	2803.96
411.78	2715.02
411.98	2663.53
412.17	2705.66
412.36	2733.75
412.55	2857.79
412.74	2752.47
412.93	2850.77
413.12	2958.44
413.31	2925.67
413.50	3045.04
413.69	2960.78
413.88	2974.82
414.07	2949.08
414.26	3122.27
414.45	3157.38
414.64	3091.85
414.83	3059.08
415.02	3239.30
415.22	3368.03
415.41	3211.22
415.60	3204.19
415.79	3255.69
415.98	3363.35
416.17	3300.16
416.36	3433.57
416.55	3328.24
416.74	3342.28
416.93	3494.42
417.12	3400.80
417.31	3428.88
417.50	3323.56
417.69	3576.34
417.88	3478.04
418.07	3494.42
418.26	3466.33
418.45	3688.68
418.64	3602.08
418.83	3716.77
419.02	3569.32
419.21	3693.37
419.39	3667.62
419.58	3634.85
419.77	3681.66
419.96	3789.33
420.15	3854.86
420.34	3889.97
420.53	3868.91
420.72	4016.36
420.91	3885.29
421.10	3838.48
421.29	4079.55
421.48	3836.14
421.67	4119.34
421.86	3999.98
422.05	3709.75
422.24	3953.16
422.43	3946.14
422.61	3983.59
422.80	4046.79
422.99	4105.30
423.18	4084.23
423.37	4007.00
423.56	4147.43
423.75	4173.18
423.94	3999.98
424.13	3948.48
424.32	3974.23
424.50	3985.93
424.69	4032.74
424.88	4198.92
425.07	4021.04
425.26	4002.32
425.45	4079.55
425.64	4035.08
425.83	4203.60
426.01	4042.11
426.20	4154.45
426.39	4135.73
426.58	4023.38
426.77	4032.74
426.96	4229.35
427.15	3985.93
427.33	4248.07
427.52	4390.84
427.71	4273.82
427.90	4262.12
428.09	4320.63
428.28	4278.50
428.46	4318.29
428.65	4231.69
428.84	4386.16
429.03	4383.82
429.22	4344.03
429.40	4283.18
429.59	4325.31
429.78	4140.41
429.97	4142.75
430.16	4161.47
430.34	4243.39
430.53	4425.95
430.72	4332.33
430.91	4383.82
431.10	4566.39
431.28	4676.39
431.47	4840.23
431.66	4844.91
431.85	4798.10
432.03	4660.01
432.22	4793.42
432.41	4772.35
432.60	4685.75
432.79	4894.06
432.97	4772.35
433.16	4912.78
433.35	4863.63
433.54	4823.84
433.72	4706.82
433.91	4800.44
434.10	4915.12
434.28	5088.32
434.47	5139.82
434.66	4954.91
434.85	5083.64
435.03	5132.79
435.22	5006.41
435.41	5263.86
435.59	5242.80
435.78	5277.91
435.97	5359.83
436.16	5451.11
436.34	5203.01
436.53	5336.42
436.72	5458.13
436.90	5348.12
437.09	5472.17
437.28	5341.10
437.46	5430.04
437.65	5437.06
437.84	5336.42
438.02	5289.61
438.21	5277.91
438.40	5345.78
438.58	5458.13
438.77	5589.20
438.96	5479.19
439.14	5575.16
439.33	5685.16
439.52	5820.91
439.70	5746.02
439.89	5881.77
440.08	5858.36
440.26	5900.49
440.45	5867.72
440.63	6174.33
440.82	6080.71
441.01	5940.28
441.19	6040.92
441.38	6347.53
441.57	6272.64
441.75	6139.23
441.94	6436.47
442.12	6417.75
442.31	6637.76
442.50	6527.75
442.68	6473.92
442.87	6567.54
443.05	6478.60
443.24	6759.47
443.43	6661.16
443.61	6586.27
443.80	6663.51
443.98	6719.68
444.17	6649.46
444.35	6619.04
444.54	6993.52
444.73	6609.67
444.91	6588.61
445.10	6574.56
445.28	6729.04
445.47	6574.56
445.65	6506.69
445.84	6628.40
446.02	6827.34
446.21	6904.58
446.39	6698.61
446.58	6855.43
446.77	6890.54
446.95	6944.37
447.14	6970.12
447.32	6970.12
447.51	6932.67
447.69	6906.92
447.88	6885.86
448.06	6930.33
448.25	6984.16
448.43	6944.37
448.62	6902.24
448.80	6857.77
448.99	7049.69
449.17	7187.79
449.36	7112.89
449.54	7194.81
449.73	7220.55
449.91	7379.71
450.10	7447.58
450.28	7520.14
450.46	7414.82
450.65	7370.35
450.83	7431.20
451.02	7414.82
451.20	7449.93
451.39	7447.58
451.57	7421.84
451.76	7332.90
451.94	7492.05
452.13	7503.76
452.31	7279.07
452.49	7356.30
452.68	7513.12
452.86	7475.67
453.05	7742.49
453.23	7550.57
453.42	7597.38
453.60	7581.00
453.78	7541.21
453.97	7576.31
454.15	7641.85
454.34	7641.85
454.52	7698.02
454.70	7777.60
454.89	7700.36
455.07	7763.56
455.26	7826.75
455.44	7988.25
455.62	7896.97
455.81	8058.46
455.99	8121.66
456.17	8037.40
456.36	8037.40
456.54	8116.98
456.73	8217.62
456.91	8325.29
457.09	8304.22
457.28	8514.87
457.46	8262.09
457.64	8283.16
457.83	8397.84
458.01	8255.07
458.19	8746.58
458.38	8484.44
458.56	8655.30
458.74	8650.62
458.93	8416.57
459.11	8456.36
459.29	8432.95
459.48	8564.02
459.66	8624.87
459.84	8636.58
460.03	8699.77
460.21	8786.37
460.39	8706.79
460.57	8753.60
460.76	8912.76
460.94	8812.12
461.12	8819.14
461.31	8922.12
461.49	8952.55
461.67	9015.74
461.85	9118.73
462.04	8901.06
462.22	9502.58
462.40	9039.15
462.59	9116.39
462.77	9067.24
462.95	9249.80
463.13	9118.73
463.32	9135.11
463.50	9366.82
463.68	9249.80
463.86	9132.77
464.05	9029.79
464.23	9205.33
464.41	9261.50
464.59	9107.02
464.78	9387.89
464.96	9465.13
465.14	9188.94
465.32	9507.26
465.50	9579.81
465.69	9474.49
465.87	9465.13
466.05	9511.94
466.23	9542.36
466.41	9511.94
466.60	9853.66
466.78	9703.86
466.96	9579.81
467.14	9614.92
467.32	9628.96
467.51	9640.67
467.69	9387.89
467.87	9760.03
468.05	9853.66
468.23	9652.37
468.41	9816.21
468.60	9788.12
468.78	9753.01
468.96	9839.61
469.14	9933.23
469.32	10207.08
469.50	9654.71
469.69	9975.36
469.87	10237.50
470.05	9977.70
470.23	10054.94
470.41	10061.96
470.59	10076.01
470.77	10239.84
470.95	10356.87
471.14	10279.63
471.32	10129.84
471.50	10546.45
471.68	10497.30
471.86	10637.73
472.04	10710.29
472.22	10890.51
472.40	10630.71
472.58	10794.55
472.77	10817.96
472.95	10761.78
473.13	11159.67
473.31	10649.44
473.49	10876.47
473.67	10726.68
473.85	11052.01
474.03	11367.98
474.21	11473.31
474.39	11290.74
474.57	11286.06
474.75	11377.34
474.93	11466.28
475.12	11463.94
475.30	11674.59
475.48	11824.39
475.66	11793.96
475.84	11587.99
476.02	11850.13
476.20	11599.70
476.38	12180.15
476.56	12250.36
476.74	12269.09
476.92	12079.50
477.10	12386.12
477.28	12627.19
477.46	12339.30
477.64	12571.02
477.82	12716.13
478.00	13018.06
478.18	12842.52
478.36	12945.50
478.54	13027.42
478.72	12987.63
478.90	13378.50
479.08	13312.97
479.26	13547.02
479.44	13638.30
479.62	13778.73
479.80	13654.69
479.98	13797.46
480.16	14001.08
480.34	14162.58
480.52	14242.16
480.70	14333.44
480.88	14033.85
481.06	14263.22
481.24	14085.34
481.41	14717.29
481.59	14623.67
481.77	15098.80
481.95	14782.82
482.13	15110.50
482.31	14881.13
482.49	15307.10
482.67	15531.80
482.85	15623.08
483.03	15585.63
483.21	15800.96
483.39	15658.18
483.57	15793.94
483.74	15712.02
483.92	16271.40
484.10	15941.39
484.28	16542.91
484.46	16479.71
484.64	16968.88
484.82	16568.65
485.00	16748.87
485.18	16968.88
485.35	16966.54
485.53	16585.04
485.71	16725.47
485.89	16713.77
486.07	16812.07
486.25	17207.62
486.43	17334.01
486.61	17345.71
486.78	17696.79
486.96	17809.14
487.14	17867.65
487.32	18272.56
487.50	18710.24
487.68	18822.59
487.85	18979.40
488.03	19267.29
488.21	19056.64
488.39	19129.20
488.57	19166.65
488.75	19262.61
488.92	19491.98
489.10	19941.36
489.28	19941.36
489.46	20276.06
489.64	20287.76
489.81	20676.29
489.99	20798.00
490.17	20678.63
490.35	21125.68
490.53	20830.77
490.70	21195.89
490.88	20966.52
491.06	21418.24
491.24	21565.70
491.41	20999.29
491.59	21303.56
491.77	21549.31
491.95	21619.53
492.13	22050.19
492.30	22298.28
492.48	22361.48
492.66	22569.79
492.84	22370.84
493.01	22881.08
493.19	22693.83
493.37	22977.04
493.54	23211.09
493.72	23157.26
493.90	23197.05
494.08	23906.23
494.25	24058.37
494.43	23950.70
494.61	24421.15
494.79	24142.63
494.96	23866.44
495.14	24205.82
495.32	24292.42
495.49	24489.03
495.67	24627.12
495.85	24896.28
496.02	24964.15
496.20	25240.34
496.38	24992.24
496.55	25041.39
496.73	25462.69
496.91	25509.50
497.09	25738.87
497.26	25933.14
497.44	25991.65
497.62	25649.93
497.79	26115.70
497.97	25832.49
498.14	26302.94
498.32	26228.04
498.50	26625.93
498.67	26668.06
498.85	26670.40
499.03	26719.56
499.20	27204.05
499.38	27122.13
499.56	27005.10
499.73	27072.98
499.91	27070.64
500.08	27651.09
500.26	27447.46
500.44	27175.96
500.61	27388.95
500.79	27531.72
500.97	27407.67
501.14	28142.60
501.32	28002.17
501.49	27857.06
501.67	28123.88
501.84	28325.16
502.02	28540.49
502.20	28531.13
502.37	28617.73
502.55	29074.13
502.72	28697.31
502.90	29132.65
503.07	28910.30
503.25	28575.60
503.43	28898.59
503.60	28947.75
503.78	28627.09
503.95	28999.24
504.13	29645.23
504.30	29369.04
504.48	29441.60
504.65	29993.97
504.83	29575.01
505.01	29977.58
505.18	29867.58
505.36	30445.69
505.53	30663.36
505.71	30518.25
505.88	30602.50
506.06	30347.39
506.23	30579.10
506.41	30298.23
506.58	30857.62
506.76	30426.96
506.93	31145.51
507.11	31033.16
507.28	31005.08
507.46	30834.22
507.63	30906.77
507.81	31342.11
507.98	31084.65
508.16	31124.44
508.33	31208.70
508.50	31555.10
508.68	31754.05
508.85	32299.39
509.03	31887.46
509.20	31917.89
509.38	31967.04
509.55	32439.82
509.73	32055.98
509.90	32409.40
510.08	32070.02
510.25	32074.70
510.42	32790.91
510.60	32659.84
510.77	32814.31
510.95	32687.92
511.12	32774.52
511.30	33294.12
511.47	33275.40
511.64	33493.07
511.82	33436.89
511.99	33090.49
512.17	33486.04
512.34	33259.01
512.51	33448.60
512.69	33582.01
512.86	33287.10
513.04	33656.90
513.21	33944.79
513.38	33230.93
513.56	34082.88
513.73	33860.53
513.90	33902.66
514.08	33963.51
514.25	34153.10
514.43	33972.88
514.60	34178.84
514.77	34618.86
514.95	34408.22
515.12	34653.97
515.29	34754.61
515.47	34965.26
515.64	35101.01
515.81	34354.38
515.99	34658.65
516.16	34359.06
516.33	34480.77
516.51	34607.16
516.68	33989.26
516.85	34401.19
517.03	34595.46
517.20	34508.86
517.37	35281.24
517.54	35295.28
517.72	35346.77
517.89	34843.56
518.06	34888.03
518.24	35098.67
518.41	35122.08
518.58	35400.60
518.75	35508.27
518.93	36009.14
519.10	35622.95
519.27	35948.29
519.45	36198.73
519.62	35971.69
519.79	36147.23
519.96	36301.71
520.14	36980.46
520.31	36641.09
520.48	36580.23
520.65	36002.12
520.83	36561.51
521.00	37048.34
521.17	37003.87
521.34	37092.81
521.52	37200.47
521.69	37156.00
521.86	37048.34
522.03	37759.86
522.20	37076.43
522.38	37677.94
522.55	37516.45
522.72	37586.66
522.89	37659.22
523.07	37464.96
523.24	37649.86
523.41	37823.06
523.58	37684.97
523.75	38356.70
523.92	38328.61
524.10	38323.93
524.27	38384.79
524.44	38686.71
524.61	38220.95
524.78	38244.35
524.96	38440.96
525.13	38644.59
525.30	38796.72
525.47	38890.34
525.64	38721.82
525.81	38408.19
525.98	38483.09
526.16	38527.56
526.33	38440.96
526.50	38728.84
526.67	38541.60
526.84	38550.96
527.01	38443.30
527.18	38710.12
527.36	39164.18
527.53	39545.69
527.70	39828.90
527.87	39629.95
528.04	39269.51
528.21	39821.87
528.38	39498.88
528.55	39629.95
528.72	39646.33
528.89	39786.77
529.07	39824.22
529.24	39957.63
529.41	39938.90
529.58	39625.27
529.75	39775.06
529.92	40147.21
530.09	40357.86
530.26	40243.17
530.43	40390.62
530.60	40479.57
530.77	40542.76
530.94	40666.81
531.11	40409.35
531.28	40697.24
531.46	40847.03
531.63	40198.70
531.80	40832.99
531.97	40566.16
532.14	40477.22
532.31	40437.44
532.48	40362.54
532.65	40774.47
532.82	40605.95
532.99	41219.17
533.16	40285.30
533.33	41528.13
533.50	41720.05
533.67	40973.42
533.84	40414.03
534.01	41317.48
534.18	40921.93
534.35	41404.08
534.52	41193.43
534.69	41661.54
534.86	42003.25
535.03	41390.03
535.20	41785.58
535.37	41916.65
535.54	42183.48
535.71	41640.47
535.88	41769.20
536.05	41443.87
536.22	41787.92
536.38	41956.44
536.55	41663.88
536.72	41930.70
536.89	41588.98
537.06	41752.82
537.23	42021.98
537.40	41907.29
537.57	42202.20
537.74	42057.09
537.91	42602.43
538.08	42630.52
538.25	42153.05
538.42	42611.79
538.59	42473.70
538.75	42096.88
538.92	42557.96
539.09	42777.97
539.26	42916.06
539.43	42239.65
539.60	42714.78
539.77	42628.18
539.94	42440.93
540.11	42749.88
540.28	42719.46
540.44	42422.21
540.61	42911.38
540.78	42401.14
540.95	42887.98
541.12	42443.27
541.29	42768.61
541.46	43084.58
541.62	43065.86
541.79	43440.34
541.96	43019.05
542.13	42761.59
542.30	43082.24
542.47	43473.11
542.63	43117.35
542.80	43721.21
542.97	43346.72
543.14	44128.46
543.31	43498.86
543.48	43840.57
543.64	44369.54
543.81	43922.49
543.98	44444.43
544.15	43845.26
544.32	43999.73
544.48	44318.04
544.65	43936.54
544.82	44107.40
544.99	43707.16
545.16	43643.97
545.32	43995.05
545.49	44402.30
545.66	44638.70
545.83	44278.25
546.00	44416.35
546.16	44844.66
546.33	44215.06
546.50	44128.46
546.67	44046.54
546.83	44032.50
547.00	44095.69
547.17	44498.26
547.34	44226.76
547.50	44182.29
547.67	44739.34
547.84	44582.52
548.00	44940.63
548.17	45022.54
548.34	44421.03
548.51	45048.29
548.67	45013.18
548.84	45113.83
549.01	44718.28
549.18	44898.50
549.34	44786.15
549.51	44638.70
549.68	45010.84
549.84	44996.80
550.01	45162.98
550.18	45106.80
550.34	44999.14
550.51	44797.85
550.68	44669.12
550.84	44706.57
551.01	45689.60
551.18	44910.20
551.34	45172.34
551.51	45132.55
551.68	45160.64
551.84	45689.60
552.01	45326.81
552.18	45488.31
552.34	44992.12
552.51	45441.50
552.68	45455.54
552.84	45652.15
553.01	46211.54
553.18	45736.41
553.34	45558.53
553.51	45359.58
553.67	45544.48
553.84	45918.97
554.01	45839.39
554.17	45914.29
554.34	46131.96
554.51	46443.25
554.67	46096.85
554.84	45963.44
555.00	45787.90
555.17	45563.21
555.33	46094.51
555.50	45907.27
555.67	46220.90
555.83	45897.91
556.00	46141.32
556.16	46096.85
556.33	46155.36
556.50	46003.23
556.66	45940.04
556.83	45492.99
556.99	46405.80
557.16	46490.06
557.32	46204.52
557.49	46782.63
557.65	46267.71
557.82	46026.63
557.98	45820.67
558.15	45989.19
558.32	45989.19
558.48	46110.89
558.65	46256.01
558.81	46052.38
558.98	46010.25
559.14	45937.69
559.31	46178.77
559.47	46206.86
559.64	46431.55
559.80	46845.82
559.97	46335.59
560.13	46279.41
560.30	46223.24
560.46	46878.59
560.63	46529.85
560.79	47026.04
560.96	46693.69
561.12	46466.66
561.29	46569.64
561.45	46707.73
561.61	46408.14
561.78	46267.71
561.94	46546.23
562.11	46349.63
562.27	46686.67
562.44	46408.14
562.60	46997.96
562.77	46990.94
562.93	46967.53
563.10	46841.14
563.26	46141.32
563.42	46887.95
563.59	46583.68
563.75	46366.01
563.92	46827.10
564.08	46913.70
564.24	47033.07
564.41	46710.07
564.57	46588.36
564.74	46719.43
564.90	47119.66
565.07	47107.96
565.23	46546.23
565.39	46635.17
565.56	46740.50
565.72	46534.53
565.88	46927.74
566.05	46693.69
566.21	46932.42
566.38	46511.13
566.54	46522.83
566.70	46930.08
566.87	47320.95
567.03	47220.31
567.19	47232.01
567.36	47306.91
567.52	47028.38
567.68	47051.79
567.85	46579.00
568.01	46969.87
568.17	46546.23
568.34	46969.87
568.50	46717.09
568.66	46965.19
568.83	46937.10
568.99	46972.21
569.15	46735.82
569.32	47419.25
569.48	46621.13
569.64	47072.85
569.81	47325.63
569.97	47241.37
570.13	47107.96
570.30	46817.74
570.46	46665.60
570.62	46773.27
570.78	46621.13
570.95	46829.44
571.11	47278.82
571.27	47068.17
571.43	46719.43
571.60	47360.74
571.76	46902.00
571.92	47180.52
572.09	47194.56
572.25	46906.68
572.41	47047.11
572.57	47358.40
572.74	47440.32
572.90	47157.11
573.06	47208.61
573.22	47419.25
573.38	47339.68
573.55	46775.61
573.71	47103.28
573.87	47224.99
574.03	47030.72
574.20	47391.17
574.36	47419.25
574.52	47278.82
574.68	47157.11
574.84	47145.41
575.01	47178.18
575.17	46857.52
575.33	46899.65
575.49	47201.58
575.65	47346.70
575.82	47657.99
575.98	47150.09
576.14	47330.31
576.30	47442.66
576.46	47012.00
576.62	47089.24
576.79	47250.74
576.95	46913.70
577.11	46925.40
577.27	47475.43
577.43	47386.49
577.59	47325.63
577.75	47250.74
577.92	46625.81
578.08	46321.54
578.24	46679.64
578.40	46934.76
578.56	47063.49
578.72	46944.12
578.88	47536.28
579.04	47491.81
579.21	46953.49
579.37	47150.09
579.53	47386.49
579.69	47070.51
579.85	47044.77
580.01	47171.16
580.17	47243.71
580.33	47423.93
580.49	47618.20
580.65	47650.97
580.82	47325.63
580.98	47447.34
581.14	47236.69
581.30	47325.63
581.46	47510.53
581.62	47391.17
581.78	47765.65
581.94	47887.36
582.10	47370.10
582.26	47601.82
582.42	47262.44
582.58	47501.17
582.74	47210.95
582.90	47405.21
583.06	47402.87
583.22	47349.04
583.38	47550.32
583.54	47416.91
583.70	47257.76
583.86	47243.71
584.02	47159.45
584.18	47381.80
584.34	47468.40
584.50	47288.18
584.66	47164.14
584.82	47402.87
584.98	47374.78
585.14	47566.71
585.30	46965.19
585.46	47318.61
585.62	47274.14
585.78	47253.08
585.94	46871.57
586.10	47236.69
586.26	47313.93
586.42	47447.34
586.58	47473.09
586.74	47152.43
586.90	47281.16
587.06	47290.52
587.22	47323.29
587.38	47236.69
587.54	47744.59
587.70	47456.70
587.86	47199.24
588.02	47353.72
588.18	47271.80
588.34	46925.40
588.49	46909.02
588.65	46859.87
588.81	46759.22
588.97	47051.79
589.13	46920.72
589.29	46775.61
589.45	47320.95
589.61	47100.94
589.77	47454.36
