SpectraSuite Data File
++++++++++++++++++++++++++++++++++++
Date: Fri Oct 25 11:23:12 EDT 2013
User: price-jones
Dark Spectrum Present: No
Reference Spectrum Present: No
Number of Sampled Component Spectra: 1
Spectrometers: USB2+H05261
Integration Time (usec): 100000 (USB2+H05261)
Spectra Averaged: 1 (USB2+H05261)
Boxcar Smoothing: 0 (USB2+H05261)
Correct for Electrical Dark: No (USB2+H05261)
Strobe/Lamp Enabled: No (USB2+H05261)
Correct for Detector Non-linearity: No (USB2+H05261)
Correct for Stray Light: No (USB2+H05261)
Number of Pixels in Processed Spectrum: 2048
>>>>>Begin Processed Spectral Data<<<<<
365.73	194.26
365.92	194.26
366.12	194.26
366.32	142.77
366.52	152.13
366.72	168.52
366.91	110.01
367.11	133.41
367.31	126.39
367.51	117.03
367.70	173.20
367.90	91.28
368.10	135.75
368.30	175.54
368.49	119.37
368.69	86.60
368.89	102.98
369.09	168.52
369.28	212.99
369.48	135.75
369.68	156.82
369.87	191.92
370.07	196.60
370.27	243.42
370.47	278.52
370.66	521.94
370.86	720.88
371.06	704.50
371.25	753.65
371.45	587.47
371.65	692.80
371.84	650.67
372.04	662.37
372.24	725.57
372.44	777.06
372.63	767.70
372.83	711.52
373.03	744.29
373.22	786.42
373.42	688.12
373.62	755.99
373.81	753.65
374.01	772.38
374.21	802.80
374.40	720.88
374.60	837.91
374.79	882.38
374.99	779.40
375.19	901.11
375.38	770.04
375.58	786.42
375.78	858.98
375.97	903.45
376.17	856.64
376.37	856.64
376.56	901.11
376.76	929.19
376.95	753.65
377.15	837.91
377.35	950.26
377.54	873.02
377.74	873.02
377.93	856.64
378.13	940.90
378.33	929.19
378.52	947.92
378.72	945.58
378.91	931.53
379.11	880.04
379.31	903.45
379.50	945.58
379.70	990.05
379.89	992.39
380.09	945.58
380.28	1015.79
380.48	931.53
380.68	1013.45
380.87	999.41
381.07	980.68
381.26	1027.50
381.46	1020.47
381.65	1043.88
381.85	999.41
382.04	1032.18
382.24	1004.09
382.43	1001.75
382.63	1090.69
382.83	1130.48
383.02	1053.24
383.22	1053.24
383.41	1086.01
383.61	1118.78
383.80	1095.37
384.00	1121.12
384.19	1174.95
384.39	1060.26
384.58	1181.97
384.78	1121.12
384.97	1160.91
385.17	1078.99
385.36	1163.25
385.56	1212.40
385.75	1188.99
385.95	1212.40
386.14	1228.78
386.34	1217.08
386.53	1254.53
386.72	1219.42
386.92	1266.23
387.11	1308.36
387.31	1310.70
387.50	1240.48
387.70	1284.95
387.89	1247.51
388.09	1289.64
388.28	1219.42
388.48	1287.29
388.67	1275.59
388.86	1357.51
389.06	1303.68
389.25	1427.73
389.45	1385.60
389.64	1341.13
389.84	1383.26
390.03	1406.66
390.22	1341.13
390.42	1427.73
390.61	1406.66
390.81	1341.13
391.00	1481.56
391.19	1455.81
391.39	1481.56
391.58	1460.49
391.78	1523.69
391.97	1528.37
392.16	1404.32
392.36	1533.05
392.55	1528.37
392.75	1542.41
392.94	1516.67
393.13	1521.35
393.33	1448.79
393.52	1516.67
393.71	1591.56
393.91	1542.41
394.10	1568.16
394.29	1504.96
394.49	1624.33
394.68	1621.99
394.88	1565.82
395.07	1743.70
395.26	1666.46
395.46	1732.00
395.65	1657.10
395.84	1640.72
396.04	1727.32
396.23	1750.72
396.42	1729.66
396.62	1741.36
396.81	1797.53
397.00	1849.02
397.19	1666.46
397.39	1877.11
397.58	1867.75
397.77	1865.41
397.97	1818.60
398.16	1769.44
398.35	1914.56
398.55	1895.83
398.74	1989.46
398.93	2010.52
399.12	1870.09
399.32	1860.73
399.51	1905.20
399.70	2017.54
399.90	1949.67
400.09	2026.90
400.28	2066.69
400.47	1966.05
400.67	2125.21
400.86	2169.68
401.05	2118.18
401.24	2223.51
401.44	2139.25
401.63	2172.02
401.82	2122.87
402.01	2263.30
402.21	2197.76
402.40	2122.87
402.59	2160.31
402.78	2204.78
402.97	2200.10
403.17	2317.13
403.36	2305.43
403.55	2375.64
403.74	2321.81
403.93	2312.45
404.13	2424.80
404.32	2366.28
404.51	2455.22
404.70	2413.09
404.89	2457.56
405.09	2492.67
405.28	2530.12
405.47	2469.27
405.66	2495.01
405.85	2530.12
406.05	2523.10
406.24	2471.61
406.43	2579.27
406.62	2483.31
406.81	2778.22
407.00	2658.85
407.20	2576.93
407.39	2586.29
407.58	2656.51
407.77	2825.03
407.96	2712.68
408.15	2733.75
408.34	2733.75
408.54	2750.13
408.73	2759.49
408.92	2878.86
409.11	2871.84
409.30	2946.73
409.49	2885.88
409.68	2967.80
409.87	3009.93
410.07	2956.10
410.26	3026.31
410.45	3103.55
410.64	3197.17
410.83	3119.93
411.02	3061.42
411.21	3243.98
411.40	3112.91
411.59	3255.69
411.78	3185.47
411.98	3239.30
412.17	3176.11
412.36	3321.22
412.55	3346.97
412.74	3398.46
412.93	3400.80
413.12	3396.12
413.31	3555.27
413.50	3559.95
413.69	3506.12
413.88	3510.80
414.07	3550.59
414.26	3555.27
414.45	3653.58
414.64	3709.75
414.83	3779.97
415.02	3798.69
415.22	3882.95
415.41	3978.91
415.60	3892.31
415.79	3815.07
415.98	3941.46
416.17	4053.81
416.36	3880.61
416.55	3875.93
416.74	4154.45
416.93	4042.11
417.12	4173.18
417.31	4308.93
417.50	4198.92
417.69	4315.95
417.88	4308.93
418.07	4299.56
418.26	4351.06
418.45	4334.67
418.64	4444.68
418.83	4411.91
419.02	4528.94
419.21	4608.51
419.39	4664.69
419.58	4512.55
419.77	4634.26
419.96	4608.51
420.15	4711.50
420.34	4791.08
420.53	4713.84
420.72	4650.64
420.91	4741.93
421.10	4727.88
421.29	4812.14
421.48	4685.75
421.67	4908.10
421.86	4823.84
422.05	4875.34
422.24	4828.53
422.43	4959.60
422.61	4940.87
422.80	4990.02
422.99	4924.49
423.18	4933.85
423.37	5085.98
423.56	5085.98
423.75	5020.45
423.94	4821.50
424.13	4678.73
424.32	4681.07
424.50	5008.75
424.69	5156.20
424.88	5200.67
425.07	5064.92
425.26	4947.89
425.45	4849.59
425.64	5029.81
425.83	5121.09
426.01	5118.75
426.20	4985.34
426.39	5064.92
426.58	5055.56
426.77	5100.03
426.96	5195.99
427.15	5247.48
427.33	5102.37
427.52	5273.23
427.71	5350.46
427.90	5341.10
428.09	5266.21
428.28	5369.19
428.46	5387.91
428.65	5479.19
428.84	5542.39
429.03	5612.60
429.22	5338.76
429.40	5523.66
429.59	5542.39
429.78	5399.62
429.97	5153.86
430.16	5544.73
430.34	5685.16
430.53	5713.25
430.72	5467.49
430.91	5640.69
431.10	5621.97
431.28	5675.80
431.47	5713.25
431.66	5713.25
431.85	5830.27
432.03	5860.70
432.22	6015.18
432.41	5916.87
432.60	6031.56
432.79	5874.74
432.97	6061.99
433.16	6087.73
433.35	5994.11
433.54	6097.10
433.72	6200.08
433.91	6284.34
434.10	6214.12
434.28	6162.63
434.47	6305.40
434.66	6289.02
434.85	6263.27
435.03	6396.68
435.22	6331.15
435.41	6464.56
435.59	6296.04
435.78	6487.96
435.97	6445.84
436.16	6665.85
436.34	6551.16
436.53	6558.18
436.72	6773.51
436.90	6546.48
437.09	6642.44
437.28	6530.09
437.46	6656.48
437.65	6827.34
437.84	6787.55
438.02	6740.74
438.21	6995.86
438.40	6712.66
438.58	6937.35
438.77	7222.89
438.96	6925.65
439.14	7171.40
439.33	7384.39
439.52	7377.37
439.70	7344.60
439.89	7494.40
440.08	7148.00
440.26	7360.98
440.45	7335.24
440.63	7602.06
440.82	7688.66
441.01	7440.56
441.19	7721.43
441.38	7707.38
441.57	7934.42
441.75	7873.56
441.94	8205.92
442.12	8074.85
442.31	8229.32
442.50	8063.15
442.68	8006.97
442.87	8135.70
443.05	8299.54
443.24	8430.61
443.43	8257.41
443.61	8276.13
443.80	8273.79
443.98	8201.24
444.17	7775.26
444.35	8376.78
444.54	8463.38
444.73	8294.86
444.91	8517.21
445.10	8451.67
445.28	8287.84
445.47	8374.44
445.65	8325.29
445.84	8606.15
446.02	8500.83
446.21	8388.48
446.39	8538.27
446.58	8688.07
446.77	8699.77
446.95	8294.86
447.14	8542.96
447.32	8524.23
447.51	8601.47
447.69	8517.21
447.88	8568.70
448.06	8374.44
448.25	8641.26
448.43	8723.18
448.62	8437.63
448.80	8690.41
448.99	8617.85
449.17	8793.39
449.36	8823.82
449.54	8830.84
449.73	9022.77
449.91	9048.51
450.10	9172.56
450.28	9067.24
450.46	9095.32
450.65	9001.70
450.83	9221.71
451.02	9011.06
451.20	9392.57
451.39	9305.97
451.57	9146.81
451.76	9214.69
451.94	9348.10
452.13	9465.13
452.31	9343.42
452.49	9245.12
452.68	9530.66
452.86	9439.38
453.05	9495.55
453.23	9582.15
453.42	9525.98
453.60	9565.77
453.78	9696.84
453.97	9673.43
454.15	9504.92
454.34	9221.71
454.52	9575.13
454.70	9556.41
454.89	9671.09
455.07	9886.42
455.26	9764.72
455.44	10015.15
455.62	9958.98
455.81	10012.81
455.99	10033.88
456.17	10073.67
456.36	10146.22
456.54	10438.79
456.73	10253.89
456.91	10541.77
457.09	10518.37
457.28	10600.29
457.46	10501.98
457.64	10757.10
457.83	10654.12
458.01	10452.83
458.19	10899.87
458.38	10623.69
458.56	10766.46
458.74	10581.56
458.93	10759.44
459.11	10827.32
459.29	10949.03
459.48	10874.13
459.66	10953.71
459.84	10998.18
460.03	11185.42
460.21	11180.74
460.39	11239.25
460.57	11201.80
460.76	11274.36
460.94	11126.91
461.12	11307.13
461.31	11309.47
461.49	11375.00
461.67	11286.06
461.85	11524.80
462.04	11473.31
462.22	11686.29
462.40	11761.19
462.59	11595.01
462.77	11665.23
462.95	11843.11
463.13	11592.67
463.32	11599.70
463.50	12006.95
463.68	12039.72
463.86	11946.09
464.05	11597.35
464.23	11747.15
464.41	11964.82
464.59	11740.13
464.78	12173.13
464.96	12114.61
465.14	12049.08
465.32	12173.13
465.50	12123.98
465.69	12166.10
465.87	12463.35
466.05	12231.64
466.23	12524.21
466.41	12540.59
466.60	12688.04
466.78	12168.45
466.96	12290.15
467.14	12477.40
467.32	12620.17
467.51	12669.32
467.69	12468.03
467.87	12592.08
468.05	12664.64
468.23	12496.12
468.41	12540.59
468.60	12772.30
468.78	13008.70
468.96	12711.45
469.14	12814.43
469.32	13186.58
469.50	12833.16
469.69	13146.79
469.87	12849.54
470.05	13535.32
470.23	13373.82
470.41	13273.18
470.59	13455.74
470.77	13390.20
470.95	13219.35
471.14	13825.54
471.32	13348.08
471.50	13837.25
471.68	13703.84
471.86	13898.10
472.04	13832.57
472.22	14295.99
472.40	13750.65
472.58	13944.91
472.77	14136.84
472.95	14115.77
473.13	14670.48
473.31	14153.22
473.49	14211.73
473.67	14534.73
473.85	14312.38
474.03	14614.30
474.21	14874.10
474.39	14817.93
474.57	14553.45
474.75	15112.84
474.93	15288.38
475.12	14995.81
475.30	15161.99
475.48	15122.20
475.66	15335.19
475.84	15332.85
476.02	15616.05
476.20	15618.39
476.38	15700.31
476.56	16374.39
476.74	16063.10
476.92	16133.31
477.10	15978.84
477.28	16540.57
477.46	16360.34
477.64	16299.49
477.82	16566.31
478.00	16959.52
478.18	17039.10
478.36	17303.58
478.54	17408.90
478.72	17219.32
478.90	17961.27
479.08	17743.60
479.26	18026.81
479.44	18099.36
479.62	18122.77
479.80	18562.79
479.98	17886.37
480.16	18679.82
480.34	18438.74
480.52	18684.50
480.70	19049.62
480.88	18349.80
481.06	18895.14
481.24	19178.35
481.41	19473.26
481.59	19541.13
481.77	19810.29
481.95	19711.99
482.13	19805.61
482.31	19775.19
482.49	20739.49
482.67	20460.96
482.85	20680.97
483.03	21074.18
483.21	21022.69
483.39	21067.16
483.57	21172.49
483.74	21434.63
483.92	21362.07
484.10	21333.98
484.28	22171.89
484.46	22237.43
484.64	22663.41
484.82	22141.47
485.00	22778.09
485.18	23061.30
485.35	23082.36
485.53	23140.88
485.71	23164.28
485.89	23573.88
486.07	23508.34
486.25	23606.64
486.43	23620.69
486.61	24418.81
486.78	24170.71
486.96	24283.06
487.14	24554.56
487.32	24999.26
487.50	25153.74
487.68	24978.20
487.85	25666.31
488.03	25553.97
488.21	25996.33
488.39	26057.18
488.57	26810.84
488.75	26586.15
488.92	26366.13
489.10	26958.29
489.28	26876.37
489.46	27267.24
489.64	27337.46
489.81	28156.64
489.99	28158.99
490.17	28201.11
490.35	28601.35
490.53	28521.77
490.70	28781.57
490.88	28603.69
491.06	29113.92
491.24	29174.78
491.41	28996.90
491.59	29797.36
491.77	29603.10
491.95	29912.05
492.13	29951.84
492.30	30529.95
492.48	30426.96
492.66	30656.34
492.84	30410.58
493.01	31072.95
493.19	30742.94
493.37	31370.20
493.54	31213.38
493.72	31613.62
493.90	31627.66
494.08	32088.74
494.25	32161.30
494.43	32203.43
494.61	32797.93
494.79	33301.14
494.96	32996.87
495.14	32994.53
495.32	33378.38
495.49	33556.26
495.67	33472.00
495.85	34534.60
496.02	34169.48
496.20	34380.13
496.38	34808.45
496.55	34429.28
496.73	34998.03
496.91	34988.67
497.09	35196.98
497.26	35194.64
497.44	35332.73
497.62	35704.87
497.79	35943.61
497.97	35765.73
498.14	36641.09
498.32	37008.55
498.50	36385.97
498.67	36694.92
498.85	36938.33
499.03	36903.23
499.20	37013.23
499.38	37242.60
499.56	37289.42
499.73	37490.70
499.91	37722.41
500.08	37951.79
500.26	37720.07
500.44	38190.52
500.61	38394.15
500.79	38429.26
500.97	38298.19
501.14	38850.55
501.32	38845.87
501.49	39058.86
501.67	39164.18
501.84	39255.46
502.02	39358.45
502.20	39496.54
502.37	39536.33
502.55	39288.23
502.72	39821.87
502.90	39756.34
503.07	39915.50
503.25	40058.27
503.43	39988.05
503.60	40559.14
503.78	40217.43
503.95	40507.65
504.13	40650.42
504.30	40865.75
504.48	41074.06
504.65	41163.00
504.83	41488.34
505.01	41748.14
505.18	41523.44
505.36	41933.04
505.53	41729.41
505.71	41837.08
505.88	41659.20
506.06	41893.25
506.23	42511.15
506.41	42021.98
506.58	42838.83
506.76	43070.54
506.93	42967.55
507.11	42691.37
507.28	43386.51
507.46	43360.76
507.63	42738.18
507.81	43702.48
507.98	43049.47
508.16	43608.86
508.33	43543.33
508.50	43842.92
508.68	43976.33
508.85	44205.70
509.03	44273.57
509.20	44353.15
509.38	44554.44
509.55	44744.02
509.73	45223.83
509.90	44823.60
510.08	45329.16
510.25	45233.19
510.42	45151.27
510.60	45406.39
510.77	45394.69
510.95	45979.82
511.12	45298.73
511.30	45909.61
511.47	45729.39
511.64	46110.89
511.82	46321.54
511.99	45858.12
512.17	46356.65
512.34	46326.22
512.51	46799.01
512.69	47047.11
512.86	46667.94
513.04	47222.65
513.21	46916.04
513.38	46930.08
513.56	47508.19
513.73	47267.12
513.90	47587.77
514.08	47089.24
514.25	47531.60
514.43	47861.61
514.60	47845.23
514.77	47707.14
514.95	48273.55
515.12	48060.56
515.29	47957.58
515.47	48423.34
515.64	48722.93
515.81	48083.97
515.99	49254.23
516.16	48839.96
516.33	48720.59
516.51	48748.68
516.68	48992.09
516.85	49008.48
517.03	49167.63
517.20	49401.69
517.37	49263.60
517.54	49326.79
517.72	49347.86
517.89	49235.51
518.06	49499.99
518.24	49525.74
518.41	49675.53
518.58	49930.65
518.75	49502.33
518.93	49827.66
519.10	49670.85
519.27	50031.29
519.45	50110.87
519.62	50365.99
519.79	50824.73
519.96	50447.91
520.14	50351.94
520.31	50813.03
520.48	50759.20
520.65	50630.47
520.83	51173.47
521.00	51096.24
521.17	51119.64
521.34	51121.98
521.52	51356.03
521.69	51129.00
521.86	51292.84
522.03	51489.45
522.20	51756.27
522.38	51732.86
522.55	51625.20
522.72	51917.76
522.89	51704.77
523.07	51880.31
523.24	51681.37
523.41	52067.56
523.58	51786.69
523.75	52350.76
523.92	52186.92
524.10	52299.27
524.27	52678.44
524.44	52587.16
524.61	52570.77
524.78	52334.38
524.96	52528.64
525.13	52638.65
525.30	52395.23
525.47	52945.26
525.64	52959.30
525.81	53015.47
525.98	53102.07
526.16	52968.66
526.33	53029.52
526.50	53291.66
526.67	52540.35
526.84	53368.90
527.01	53186.33
527.18	53305.70
527.36	53347.83
527.53	53265.91
527.70	53450.81
527.87	53455.50
528.04	53476.56
528.21	53773.81
528.38	53450.81
528.55	53939.99
528.72	53558.48
528.89	53738.70
529.07	53705.93
529.24	53895.52
529.41	53937.65
529.58	54078.08
529.75	53705.93
529.92	53965.73
530.09	54197.44
530.26	54234.89
530.43	54230.21
530.60	54185.74
530.77	54244.26
530.94	54326.17
531.11	54302.77
531.28	54443.20
531.46	54667.89
531.63	54763.85
531.80	54808.32
531.97	54630.44
532.14	54967.48
532.31	54618.74
532.48	54684.28
532.65	54976.84
532.82	54766.20
532.99	54808.32
533.16	55234.30
533.33	55056.42
533.50	55255.37
533.67	54988.55
533.84	55306.86
534.01	55283.45
534.18	55227.28
534.35	55519.85
534.52	55334.95
534.69	55812.41
534.86	55309.20
535.03	55311.54
535.20	55571.34
535.37	55592.40
535.54	55854.54
535.71	55629.85
535.88	55639.22
536.05	55571.34
536.22	55826.46
536.38	55749.22
536.55	55833.48
536.72	55950.51
536.89	55767.94
537.06	55664.96
537.23	55976.25
537.40	55657.94
537.57	55997.32
537.74	56018.38
537.91	56250.09
538.08	56327.33
538.25	56004.34
538.42	56090.94
538.59	56516.92
538.75	56252.44
538.92	56247.75
539.09	56584.79
539.26	56540.32
539.43	56310.95
539.60	56528.62
539.77	56390.53
539.94	56643.30
540.11	56413.93
540.28	56561.39
540.44	56729.90
540.61	56844.59
540.78	56582.45
540.95	56720.54
541.12	56430.32
541.29	56657.35
541.46	56697.14
541.62	56837.57
541.79	57200.35
541.96	56596.49
542.13	56790.76
542.30	57109.07
542.47	57247.16
542.63	56844.59
542.80	57146.52
542.97	57373.55
543.14	57392.28
543.31	57389.94
543.48	57600.58
543.64	57762.08
543.81	57712.93
543.98	57719.95
544.15	57607.61
544.32	57771.44
544.48	57752.72
544.65	57485.90
544.82	57654.42
544.99	57668.46
545.16	57743.36
545.32	57715.27
545.49	57961.03
545.66	57956.35
545.83	57846.34
546.00	57883.79
546.16	58012.52
546.33	57874.43
546.50	57836.98
546.67	58010.18
546.83	57792.51
547.00	58049.97
547.17	57918.90
547.34	58117.84
547.50	58218.49
547.67	58515.73
547.84	58300.40
548.00	58543.82
548.17	58403.39
548.34	58169.33
548.51	58560.20
548.67	58379.98
548.84	58452.54
549.01	58394.03
549.18	58379.98
549.34	58370.62
549.51	58735.74
549.68	58585.95
549.84	58719.36
550.01	58546.16
550.18	58691.27
550.34	58539.14
550.51	58812.98
550.68	58770.85
550.84	58365.94
551.01	58576.59
551.18	58780.21
551.34	58841.07
551.51	58876.18
551.68	58789.58
551.84	58913.62
552.01	58766.17
552.18	58946.39
552.34	58834.05
552.51	58967.46
552.68	58880.86
552.84	58894.90
553.01	59355.99
553.18	59119.59
553.34	58993.20
553.51	58944.05
553.67	59192.15
553.84	59084.48
554.01	59128.95
554.17	59213.21
554.34	59196.83
554.51	59271.73
554.67	59234.28
554.84	59208.53
555.00	59374.71
555.17	59063.42
555.33	59168.74
555.50	59121.93
555.67	59194.49
555.83	59297.47
556.00	59374.71
556.16	59756.22
556.33	59353.65
556.50	59412.16
556.66	59522.16
556.83	59536.21
556.99	59634.51
557.16	59868.56
557.32	59760.90
557.49	59877.93
557.65	59583.02
557.82	59681.32
557.98	59664.94
558.15	59594.72
558.32	59746.86
558.48	59501.10
558.65	59739.83
558.81	59533.87
558.98	59852.18
559.14	59641.53
559.31	59959.84
559.47	59924.74
559.64	59969.21
559.80	60079.21
559.97	59952.82
560.13	59835.80
560.30	59903.67
560.46	60039.42
560.63	60165.81
560.79	60182.19
560.96	60037.08
561.12	60109.64
561.29	60102.62
561.45	60182.19
561.61	60020.70
561.78	60018.36
561.94	60097.94
562.11	59934.10
562.27	60214.96
562.44	60140.07
562.60	60374.12
562.77	60189.22
562.93	59983.25
563.10	60289.86
563.26	60177.51
563.42	60474.76
563.59	60011.34
563.75	60486.46
563.92	60390.50
564.08	60121.34
564.24	60512.21
564.41	60383.48
564.57	60402.21
564.74	60374.12
564.90	60458.38
565.07	60114.32
565.23	60360.08
565.39	60406.89
565.56	60339.01
565.72	60261.77
565.88	60418.59
566.05	60418.59
566.21	60409.23
566.38	60474.76
566.54	60486.46
566.70	60612.85
566.87	60556.68
567.03	60451.36
567.19	60697.11
567.36	60671.37
567.52	60493.49
567.68	60762.65
567.85	60570.72
568.01	60584.77
568.17	60540.30
568.34	60563.70
568.50	60650.30
568.66	60556.68
568.83	60596.47
568.99	60540.30
569.15	60722.86
569.32	60776.69
569.48	60720.52
569.64	60783.71
569.81	60666.69
569.97	60647.96
570.13	60692.43
570.30	60605.83
570.46	60877.33
570.62	60596.47
570.78	60811.80
570.95	60624.56
571.11	60931.17
571.27	60673.71
571.43	60474.76
571.60	60802.44
571.76	60860.95
571.92	60889.04
572.09	60856.27
572.25	60718.18
572.41	60678.39
572.57	60715.84
572.74	61099.68
572.90	61041.17
573.06	60905.42
573.22	60956.91
573.38	60828.18
573.55	60851.59
573.71	61116.07
573.87	60926.49
574.03	60772.01
574.20	60977.98
574.36	60872.65
574.52	61022.45
574.68	61006.06
574.84	60963.93
575.01	60891.38
575.17	60884.36
575.33	60896.06
575.49	60708.82
575.65	61071.60
575.82	61085.64
575.98	60956.91
576.14	61139.47
576.30	61076.28
576.46	60858.61
576.62	60877.33
576.79	60924.14
576.95	60945.21
577.11	61071.60
577.27	61216.71
577.43	61193.31
577.59	60987.34
577.75	60985.00
577.92	60825.84
578.08	60884.36
578.24	61291.61
578.40	61155.86
578.56	61113.73
578.72	61205.01
578.88	61310.33
579.04	61359.48
579.21	60985.00
579.37	61153.52
579.53	61116.07
579.69	61038.83
579.85	61209.69
580.01	61109.05
580.17	60872.65
580.33	61272.88
580.49	61083.30
580.65	61106.71
580.82	61052.87
580.98	61041.17
581.14	61001.38
581.30	61141.81
581.46	60935.85
581.62	61197.99
581.78	61235.44
581.94	61003.72
582.10	61165.22
582.26	61176.92
582.42	61179.26
582.58	61116.07
582.74	61244.80
582.90	61104.37
583.06	61219.05
583.22	61031.81
583.38	61254.16
583.54	61169.90
583.70	61249.48
583.86	61055.21
584.02	60987.34
584.18	61427.36
584.34	61205.01
584.50	61179.26
584.66	61052.87
584.82	60886.70
584.98	61315.01
585.14	61275.22
585.30	61031.81
585.46	61382.89
585.62	61429.70
585.78	61352.46
585.94	60975.64
586.10	61315.01
586.26	61303.31
586.42	61233.10
586.58	61350.12
586.74	61181.60
586.90	61151.18
587.06	61153.52
587.22	61509.28
587.38	61078.62
587.54	61544.39
587.70	61572.47
587.86	61432.04
588.02	61310.33
588.18	61422.68
588.34	61413.32
588.49	61244.80
