SpectraSuite Data File
++++++++++++++++++++++++++++++++++++
Date: Fri Oct 25 11:22:54 EDT 2013
User: price-jones
Dark Spectrum Present: No
Reference Spectrum Present: No
Number of Sampled Component Spectra: 1
Spectrometers: USB2+H05261
Integration Time (usec): 100000 (USB2+H05261)
Spectra Averaged: 1 (USB2+H05261)
Boxcar Smoothing: 0 (USB2+H05261)
Correct for Electrical Dark: No (USB2+H05261)
Strobe/Lamp Enabled: No (USB2+H05261)
Correct for Detector Non-linearity: No (USB2+H05261)
Correct for Stray Light: No (USB2+H05261)
Number of Pixels in Processed Spectrum: 2048
>>>>>Begin Processed Spectral Data<<<<<
365.73	210.65
365.92	210.65
366.12	210.65
366.32	191.92
366.52	154.48
366.72	124.05
366.91	74.90
367.11	159.16
367.31	131.07
367.51	112.35
367.70	114.69
367.90	156.82
368.10	46.81
368.30	107.66
368.49	131.07
368.69	187.24
368.89	79.58
369.09	163.84
369.28	170.86
369.48	93.62
369.68	217.67
369.87	166.18
370.07	215.33
370.27	220.01
370.47	257.46
370.66	543.00
370.86	557.05
371.06	620.24
371.25	671.73
371.45	601.52
371.65	610.88
371.84	671.73
372.04	645.99
372.24	685.78
372.44	702.16
372.63	706.84
372.83	744.29
373.03	788.76
373.22	802.80
373.42	816.85
373.62	732.59
373.81	809.83
374.01	858.98
374.21	755.99
374.40	774.72
374.60	903.45
374.79	816.85
374.99	800.46
375.19	772.38
375.38	912.81
375.58	809.83
375.78	889.40
375.97	847.27
376.17	926.85
376.37	814.51
376.56	898.77
376.76	894.08
376.95	835.57
377.15	889.40
377.35	887.06
377.54	933.87
377.74	873.02
377.93	868.34
378.13	922.17
378.33	976.00
378.52	910.47
378.72	1046.22
378.91	997.07
379.11	877.70
379.31	940.90
379.50	877.70
379.70	905.79
379.89	931.53
380.09	1043.88
380.28	929.19
380.48	964.30
380.68	882.38
380.87	919.83
381.07	997.07
381.26	1004.09
381.46	1064.94
381.65	1018.13
381.85	994.73
382.04	1064.94
382.24	1043.88
382.43	1025.15
382.63	1022.81
382.83	1109.41
383.02	1114.10
383.22	1069.62
383.41	1158.57
383.61	1086.01
383.80	1153.88
384.00	1100.05
384.19	1200.69
384.39	1027.50
384.58	1104.73
384.78	1158.57
384.97	1093.03
385.17	1207.72
385.36	1224.10
385.56	1228.78
385.75	1123.46
385.95	1172.61
386.14	1315.38
386.34	1280.27
386.53	1142.18
386.72	1196.01
386.92	1310.70
387.11	1214.74
387.31	1240.48
387.50	1270.91
387.70	1299.00
387.89	1282.61
388.09	1240.48
388.28	1226.44
388.48	1205.38
388.67	1317.72
388.86	1390.28
389.06	1327.08
389.25	1383.26
389.45	1387.94
389.64	1406.66
389.84	1373.89
390.03	1411.34
390.22	1369.21
390.42	1291.98
390.61	1366.87
390.81	1329.42
391.00	1404.32
391.19	1624.33
391.39	1364.53
391.58	1420.71
391.78	1469.86
391.97	1523.69
392.16	1526.03
392.36	1533.05
392.55	1523.69
392.75	1521.35
392.94	1540.07
393.13	1502.62
393.33	1474.54
393.52	1462.83
393.71	1570.50
393.91	1638.38
394.10	1535.39
394.29	1666.46
394.49	1631.35
394.68	1614.97
394.88	1612.63
395.07	1694.55
395.26	1736.68
395.46	1760.08
395.65	1673.48
395.84	1657.10
396.04	1722.63
396.23	1785.83
396.42	1764.76
396.62	1827.96
396.81	1802.21
397.00	1823.28
397.19	1825.62
397.39	1743.70
397.58	1893.49
397.77	1783.49
397.97	1872.43
398.16	1823.28
398.35	1860.73
398.55	1863.07
398.74	1905.20
398.93	1968.39
399.12	1874.77
399.32	1886.47
399.51	1994.14
399.70	2047.97
399.90	2017.54
400.09	2017.54
400.28	2031.58
400.47	2047.97
400.67	1977.75
400.86	1994.14
401.05	2003.50
401.24	2040.95
401.44	2033.93
401.63	2179.04
401.82	2244.57
402.01	2143.93
402.21	2186.06
402.40	2172.02
402.59	2253.94
402.78	2239.89
402.97	2265.64
403.17	2242.23
403.36	2267.98
403.55	2375.64
403.74	2289.04
403.93	2335.85
404.13	2399.05
404.32	2485.65
404.51	2375.64
404.70	2363.94
404.89	2373.30
405.09	2511.39
405.28	2593.31
405.47	2434.16
405.66	2399.05
405.85	2616.72
406.05	2560.55
406.24	2492.67
406.43	2586.29
406.62	2586.29
406.81	2738.43
407.00	2567.57
407.20	2565.23
407.39	2487.99
407.58	2754.81
407.77	2827.37
407.96	2794.60
408.15	2839.07
408.34	2698.64
408.54	2890.56
408.73	2729.06
408.92	2904.60
409.11	2850.77
409.30	2928.01
409.49	2972.48
409.68	2956.10
409.87	2988.86
410.07	3089.51
410.26	3089.51
410.45	2977.16
410.64	3019.29
410.83	3047.38
411.02	3033.33
411.21	3232.28
411.40	3173.77
411.59	3178.45
411.78	3164.40
411.98	3180.79
412.17	3276.75
412.36	3328.24
412.55	3358.67
412.74	3393.78
412.93	3281.43
413.12	3405.48
413.31	3627.83
413.50	3515.48
413.69	3590.38
413.88	3625.49
414.07	3599.74
414.26	3627.83
414.45	3583.36
414.64	3674.64
414.83	3679.32
415.02	3705.07
415.22	3770.60
415.41	3808.05
415.60	3901.67
415.79	3943.80
415.98	3995.29
416.17	4053.81
416.36	3904.01
416.55	4004.66
416.74	4138.07
416.93	4131.05
417.12	4049.13
417.31	4332.33
417.50	4138.07
417.69	4348.72
417.88	4337.01
418.07	4264.46
418.26	4322.97
418.45	4346.37
418.64	4510.21
418.83	4428.29
419.02	4379.14
419.21	4463.40
419.39	4610.86
419.58	4535.96
419.77	4414.25
419.96	4510.21
420.15	4690.43
420.34	4629.58
420.53	4702.14
420.72	4765.33
420.91	4821.50
421.10	4706.82
421.29	4894.06
421.48	4798.10
421.67	4697.46
421.86	4734.90
422.05	4901.08
422.24	4826.18
422.43	4863.63
422.61	4753.63
422.80	4784.06
422.99	4889.38
423.18	5032.15
423.37	5011.09
423.56	4912.78
423.75	4924.49
423.94	4898.74
424.13	4500.85
424.32	4676.39
424.50	4957.25
424.69	5116.41
424.88	5228.76
425.07	5041.51
425.26	4947.89
425.45	4933.85
425.64	5100.03
425.83	4999.38
426.01	5032.15
426.20	4905.76
426.39	5167.90
426.58	5139.82
426.77	5151.52
426.96	5146.84
427.15	5195.99
427.33	5256.84
427.52	5165.56
427.71	5163.22
427.90	5303.65
428.09	5289.61
428.28	5521.32
428.46	5497.92
428.65	5343.44
428.84	5483.88
429.03	5661.76
429.22	5467.49
429.40	5671.12
429.59	5561.11
429.78	5413.66
429.97	5224.08
430.16	5523.66
430.34	5706.23
430.53	5778.78
430.72	5785.80
430.91	5600.90
431.10	5654.73
431.28	5755.38
431.47	5884.11
431.66	5937.94
431.85	5818.57
432.03	5743.67
432.22	5935.60
432.41	5785.80
432.60	5998.79
432.79	6090.07
432.97	6005.81
433.16	6155.61
433.35	6146.25
433.54	6197.74
433.72	6179.01
433.91	6150.93
434.10	6272.64
434.28	6022.20
434.47	6207.10
434.66	6253.91
434.85	6319.45
435.03	6333.49
435.22	6363.92
435.41	6560.52
435.59	6619.04
435.78	6485.62
435.97	6595.63
436.16	6502.01
436.34	6494.99
436.53	6420.09
436.72	6651.80
436.90	6513.71
437.09	6700.95
437.28	6523.07
437.46	6743.08
437.65	6541.80
437.84	6822.66
438.02	6815.64
438.21	7059.06
438.40	6729.04
438.58	6913.94
438.77	6981.82
438.96	7014.59
439.14	7222.89
439.33	7215.87
439.52	7157.36
439.70	7124.59
439.89	7328.22
440.08	7314.17
440.26	7379.71
440.45	7588.02
440.63	7648.87
440.82	7779.94
441.01	7520.14
441.19	7840.79
441.38	7899.31
441.57	7723.77
441.75	7768.24
441.94	8035.06
442.12	7978.89
442.31	7936.76
442.50	8109.96
442.68	8100.59
442.87	8067.83
443.05	8175.49
443.24	8280.82
443.43	8084.21
443.61	8217.62
443.80	8489.12
443.98	8091.23
444.17	7861.86
444.35	8201.24
444.54	8318.26
444.73	8236.35
444.91	8358.05
445.10	8505.51
445.28	8339.33
445.47	8411.89
445.65	8318.26
445.84	8390.82
446.02	8498.49
446.21	8535.93
446.39	8355.71
446.58	8601.47
446.77	8568.70
446.95	8287.84
447.14	8446.99
447.32	8662.32
447.51	8472.74
447.69	8549.98
447.88	8454.02
448.06	8549.98
448.25	8442.31
448.43	8847.22
448.62	8739.56
448.80	8610.83
448.99	8659.98
449.17	8786.37
449.36	8781.69
449.54	9067.24
449.73	9139.79
449.91	9144.47
450.10	9041.49
450.28	9153.84
450.46	8987.66
450.65	9085.96
450.83	9174.90
451.02	9259.16
451.20	9394.91
451.39	9212.35
451.57	9343.42
451.76	9083.62
451.94	9081.28
452.13	9348.10
452.31	9444.06
452.49	9202.99
452.68	9392.57
452.86	9507.26
453.05	9701.52
453.23	9390.23
453.42	9392.57
453.60	9380.87
453.78	9715.56
453.97	9401.93
454.15	9528.32
454.34	9502.58
454.52	9956.64
454.70	9743.65
454.89	9966.00
455.07	9795.14
455.26	9816.21
455.44	9987.07
455.62	9905.15
455.81	10024.51
455.99	10033.88
456.17	10099.41
456.36	10176.65
456.54	10195.37
456.73	10181.33
456.91	10485.60
457.09	10441.13
457.28	10530.07
457.46	10368.57
457.64	10649.44
457.83	10733.70
458.01	10511.35
458.19	10806.25
458.38	10574.54
458.56	10904.56
458.74	10738.38
458.93	11007.54
459.11	10780.51
459.29	10963.07
459.48	11063.71
459.66	10787.53
459.84	10780.51
460.03	11126.91
460.21	11157.33
460.39	11030.94
460.57	11206.48
460.76	11173.72
460.94	11229.89
461.12	11342.24
461.31	11342.24
461.49	11225.21
461.67	11386.71
461.85	11515.44
462.04	11470.97
462.22	11875.88
462.40	11482.67
462.59	11529.48
462.77	11655.87
462.95	11850.13
463.13	11683.95
463.32	11747.15
463.50	11730.76
463.68	11854.81
463.86	11815.02
464.05	11555.22
464.23	11765.87
464.41	12051.42
464.59	11712.04
464.78	12161.42
464.96	12266.75
465.14	12156.74
465.32	12226.96
465.50	12297.17
465.69	12329.94
465.87	12351.01
466.05	12435.27
466.23	12241.00
466.41	12418.88
466.60	12636.55
466.78	12283.13
466.96	12308.88
467.14	12393.14
467.32	12514.84
467.51	12662.30
467.69	12229.30
467.87	12329.94
468.05	12549.95
468.23	12580.38
468.41	12538.25
468.60	12809.75
468.78	12835.50
468.96	12786.35
469.14	12894.01
469.32	12985.29
469.50	12996.99
469.69	13319.99
469.87	13535.32
470.05	13132.75
470.23	13259.13
470.41	13252.11
470.59	13439.36
470.77	13301.26
470.95	13104.66
471.14	13678.09
471.32	13172.54
471.50	13734.26
471.68	13760.01
471.86	13710.86
472.04	13816.18
472.22	14040.87
472.40	13694.47
472.58	14225.78
472.77	13909.80
472.95	14150.88
473.13	14689.20
473.31	14235.14
473.49	14303.01
473.67	14361.53
473.85	14544.09
474.03	14553.45
474.21	14890.49
474.39	14984.11
474.57	14813.25
474.75	14906.87
474.93	15147.95
475.12	15112.84
475.30	15243.91
475.48	15267.31
475.66	15328.17
475.84	15164.33
476.02	15707.34
476.20	15428.81
476.38	15960.11
476.56	15878.19
476.74	15988.20
476.92	15955.43
477.10	15609.03
477.28	16198.85
477.46	16255.02
477.64	16603.76
477.82	16793.34
478.00	16905.69
478.18	17282.52
478.36	17322.30
478.54	17008.67
478.72	17137.40
478.90	17582.10
479.08	17708.49
479.26	17797.43
479.44	18059.57
479.62	18040.85
479.80	17930.84
479.98	18382.57
480.16	18654.07
480.34	18614.28
480.52	18717.26
480.70	18764.07
480.88	18562.79
481.06	18918.55
481.24	18939.62
481.41	19480.28
481.59	19386.66
481.77	19859.45
481.95	19592.62
482.13	19992.86
482.31	20074.77
482.49	20496.07
482.67	20245.63
482.85	20423.51
483.03	20676.29
483.21	20961.84
483.39	21139.72
483.57	21249.72
483.74	21315.26
483.92	21823.16
484.10	21549.31
484.28	21647.61
484.46	22387.22
484.64	22581.49
484.82	22466.80
485.00	22560.42
485.18	23091.73
485.35	23096.41
485.53	23077.68
485.71	23150.24
485.89	23704.95
486.07	23616.01
486.25	23728.35
486.43	23838.36
486.61	24037.30
486.78	24606.05
486.96	24533.50
487.14	24769.89
487.32	24486.68
487.50	24940.75
487.68	25275.45
487.85	25458.01
488.03	25663.97
488.21	26195.28
488.39	26260.81
488.57	26459.76
488.75	26384.86
488.92	26927.86
489.10	27145.53
489.28	26998.08
489.46	27304.69
489.64	27372.57
489.81	27744.71
489.99	27948.34
490.17	28093.45
490.35	28430.49
490.53	28114.52
490.70	28641.14
490.88	28512.41
491.06	29036.69
491.24	28868.17
491.41	29434.58
491.59	29535.22
491.77	29596.07
491.95	29869.92
492.13	30106.31
492.30	30195.25
492.48	30118.01
492.66	30354.41
492.84	30558.03
493.01	30955.93
493.19	30874.01
493.37	31342.11
493.54	31454.46
493.72	31697.88
493.90	31784.48
494.08	31967.04
494.25	32666.86
494.43	32311.10
494.61	32861.12
494.79	32900.91
494.96	32521.74
495.14	33263.69
495.32	33673.29
495.49	33457.96
495.67	33357.32
495.85	33579.67
496.02	33837.12
496.20	34338.00
496.38	34136.71
496.55	34740.57
496.73	34960.58
496.91	35009.73
497.09	34955.90
497.26	35377.20
497.44	35194.64
497.62	35005.05
497.79	36102.76
497.97	35803.17
498.14	36194.04
498.32	36582.57
498.50	36524.06
498.67	36748.75
498.85	36931.31
499.03	37172.39
499.20	36982.80
499.38	37640.50
499.56	37722.41
499.73	37862.85
499.91	37663.90
500.08	38087.54
500.26	37666.24
500.44	37912.00
500.61	37736.46
500.79	37970.51
500.97	38494.79
501.14	39122.05
501.32	38829.49
501.49	38799.06
501.67	39103.33
501.84	39412.28
502.02	39414.62
502.20	39388.88
502.37	39798.47
502.55	39508.24
502.72	39852.30
502.90	39779.74
503.07	39901.45
503.25	40484.25
503.43	39962.31
503.60	40250.19
503.78	40385.94
503.95	40877.46
504.13	40919.59
504.30	40746.39
504.48	41022.57
504.65	40919.59
504.83	41357.27
505.01	41420.46
505.18	41406.42
505.36	41518.76
505.53	41373.65
505.71	41876.86
505.88	42431.57
506.06	41558.55
506.23	42478.38
506.41	42204.54
506.58	42700.73
506.76	42614.13
506.93	42986.28
507.11	42452.64
507.28	42773.29
507.46	43030.75
507.63	43346.72
507.81	43498.86
507.98	43068.20
508.16	43674.40
508.33	43597.16
508.50	43856.96
508.68	44156.55
508.85	44502.95
509.03	44334.43
509.20	44516.99
509.38	44554.44
509.55	44638.70
509.73	44765.09
509.90	44954.67
510.08	44931.26
510.25	45010.84
510.42	45074.04
510.60	45249.58
510.77	45305.75
510.95	45404.05
511.12	45429.80
511.30	45911.95
511.47	45591.30
511.64	45497.67
511.82	46412.82
511.99	45956.42
512.17	46241.96
512.34	45820.67
512.51	46698.37
512.69	46752.20
512.86	46735.82
513.04	47313.93
513.21	46794.33
513.38	47150.09
513.56	47510.53
513.73	47126.69
513.90	47440.32
514.08	47416.91
514.25	47796.08
514.43	47599.47
514.60	47531.60
514.77	47454.36
514.95	48413.98
515.12	47978.64
515.29	47714.16
515.47	47952.90
515.64	48240.78
515.81	48390.58
515.99	48680.80
516.16	48556.75
516.33	48739.32
516.51	49162.95
516.68	48753.36
516.85	48999.12
517.03	49380.62
517.20	49338.49
517.37	49097.42
517.54	49502.33
517.72	48861.02
517.89	49184.02
518.06	49439.14
518.24	49457.86
518.41	49558.50
518.58	49591.27
518.75	49661.49
518.93	49792.56
519.10	49860.43
519.27	49932.99
519.45	50012.57
519.62	50192.79
519.79	50314.50
519.96	49937.67
520.14	50546.21
520.31	50443.23
520.48	50609.40
520.65	50607.06
520.83	50927.72
521.00	50920.70
521.17	51002.61
521.34	51159.43
521.52	51302.20
521.69	51021.34
521.86	51547.96
522.03	51306.88
522.20	51625.20
522.38	52058.20
522.55	51554.98
522.72	51484.76
522.89	51655.62
523.07	52114.37
523.24	51859.25
523.41	51980.96
523.58	51643.92
523.75	52093.30
523.92	51936.49
524.10	52530.98
524.27	52320.34
524.44	52273.52
524.61	52692.48
524.78	52212.67
524.96	52406.94
525.13	52589.50
525.30	52549.71
525.47	52697.16
525.64	52767.38
525.81	52753.33
525.98	52877.38
526.16	52856.32
526.33	52912.49
526.50	53265.91
526.67	53113.78
526.84	53076.33
527.01	53176.97
527.18	53092.71
527.36	53261.23
527.53	53198.04
527.70	53724.66
527.87	53663.80
528.04	53319.74
528.21	53642.74
528.38	53579.54
528.55	53961.05
528.72	53593.59
528.89	53572.52
529.07	53642.74
529.24	53521.03
529.41	53951.69
529.58	54078.08
529.75	53855.73
529.92	54045.31
530.09	53954.03
530.26	54178.72
530.43	54288.73
530.60	54089.78
530.77	54213.83
530.94	54262.98
531.11	54230.21
531.28	54670.23
531.46	54422.14
531.63	54541.50
531.80	54794.28
531.97	54815.35
532.14	54424.48
532.31	54976.84
532.48	54878.54
532.65	54880.88
532.82	54855.14
532.99	54967.48
533.16	54901.95
533.33	54904.29
533.50	55208.56
533.67	55084.51
533.84	55007.27
534.01	55192.17
534.18	55246.00
534.35	55524.53
534.52	55419.20
534.69	55573.68
534.86	55566.66
535.03	55538.57
535.20	55444.95
535.37	55536.23
535.54	55524.53
535.71	55288.13
535.88	55884.97
536.05	55674.32
536.22	55894.33
536.38	55983.27
536.55	55891.99
536.72	55824.12
536.89	55814.76
537.06	55653.26
537.23	55985.61
537.40	55877.95
537.57	56097.96
537.74	56072.21
537.91	55948.17
538.08	55980.93
538.25	55987.95
538.42	56317.97
538.59	56301.59
538.75	56060.51
538.92	56259.46
539.09	56563.73
539.26	56446.70
539.43	56273.50
539.60	56615.22
539.77	56334.35
539.94	56425.64
540.11	56598.83
540.28	56662.03
540.44	56797.78
540.61	56636.28
540.78	56271.16
540.95	56629.26
541.12	56603.52
541.29	56671.39
541.46	56701.82
541.62	56647.99
541.79	56786.08
541.96	56603.52
542.13	56708.84
542.30	56800.12
542.47	56989.70
542.63	57095.03
542.80	57127.80
542.97	57286.95
543.14	57490.58
543.31	57345.47
543.48	57640.37
543.64	57584.20
543.81	57598.24
543.98	57574.84
544.15	57546.75
544.32	57736.34
544.48	57907.19
544.65	57453.13
544.82	57567.82
544.99	57312.70
545.16	57612.29
545.32	57710.59
545.49	57879.11
545.66	57855.70
545.83	57888.47
546.00	57827.62
546.16	57881.45
546.33	57642.71
546.50	57757.40
546.67	57942.30
546.83	57675.48
547.00	58031.24
547.17	57932.94
547.34	58059.33
547.50	58094.44
547.67	58267.64
547.84	58028.90
548.00	58234.87
548.17	58562.54
548.34	58426.79
548.51	58473.60
548.67	58363.60
548.84	58457.22
549.01	58316.79
549.18	58473.60
549.34	58466.58
549.51	58511.05
549.68	58637.44
549.84	58628.08
550.01	58710.00
550.18	58480.63
550.34	58590.63
550.51	58815.32
550.68	58749.79
550.84	58354.24
551.01	58995.54
551.18	58754.47
551.34	58850.43
551.51	58951.07
551.68	58686.59
551.84	58731.06
552.01	58607.01
552.18	59002.56
552.34	58796.60
552.51	58944.05
552.68	58871.49
552.84	58754.47
553.01	59203.85
553.18	58997.88
553.34	59217.89
553.51	59199.17
553.67	59063.42
553.84	59215.55
554.01	59028.31
554.17	59133.63
554.34	59128.95
554.51	58913.62
554.67	59281.09
554.84	59267.05
555.00	59257.68
555.17	59175.76
555.33	59145.34
555.50	59208.53
555.67	59143.00
555.83	59196.83
556.00	59365.35
556.16	59669.62
556.33	59426.20
556.50	59543.23
556.66	59519.82
556.83	59234.28
556.99	59639.19
557.16	59695.36
557.32	59714.09
557.49	59784.30
557.65	59545.57
557.82	59674.30
557.98	59765.58
558.15	59835.80
558.32	59702.38
558.48	59803.03
558.65	59777.28
558.81	59781.96
558.98	59660.26
559.14	59880.27
559.31	59959.84
559.47	59781.96
559.64	60060.49
559.80	59959.84
559.97	60034.74
560.13	59913.03
560.30	59983.25
560.46	59716.43
560.63	59891.97
560.79	59910.69
560.96	60053.47
561.12	60081.55
561.29	59915.37
561.45	59870.90
561.61	60065.17
561.78	60069.85
561.94	60128.36
562.11	60301.56
562.27	60093.25
562.44	60315.61
562.60	60205.60
562.77	60266.45
562.93	60051.12
563.10	60107.30
563.26	60151.77
563.42	60395.18
563.59	60383.48
563.75	60247.73
563.92	60147.09
564.08	60151.77
564.24	60184.54
564.41	60521.57
564.57	60252.41
564.74	60446.68
564.90	60287.52
565.07	60472.42
565.23	60446.68
565.39	60240.71
565.56	60306.24
565.72	60336.67
565.88	60324.97
566.05	60458.38
566.21	60219.64
566.38	60289.86
566.54	60697.11
566.70	60659.66
566.87	60647.96
567.03	60278.16
567.19	60692.43
567.36	60516.89
567.52	60329.65
567.68	60809.46
567.85	60570.72
568.01	60563.70
568.17	60449.02
568.34	60708.82
568.50	60601.15
568.66	60542.64
568.83	60580.09
568.99	60509.87
569.15	60626.90
569.32	60507.53
569.48	60603.49
569.64	60912.44
569.81	60753.29
569.97	60598.81
570.13	60673.71
570.30	60596.47
570.46	60666.69
570.62	60755.63
570.78	60898.40
570.95	60797.76
571.11	60853.93
571.27	60699.45
571.43	60643.28
571.60	60739.24
571.76	60914.78
571.92	60879.67
572.09	60889.04
572.25	60877.33
572.41	60699.45
572.57	60917.12
572.74	61031.81
572.90	60938.19
573.06	60844.57
573.22	60874.99
573.38	60874.99
573.55	60722.86
573.71	60914.78
573.87	60900.74
574.03	60729.88
574.20	60884.36
574.36	60825.84
574.52	60977.98
574.68	60968.61
574.84	61029.47
575.01	61013.08
575.17	60942.87
575.33	61073.94
575.49	61027.13
575.65	61024.79
575.82	61057.56
575.98	61099.68
576.14	61216.71
576.30	61095.00
576.46	60931.17
576.62	60975.64
576.79	61013.08
576.95	61020.11
577.11	61090.32
577.27	61064.58
577.43	61113.73
577.59	60959.25
577.75	60942.87
577.92	61010.74
578.08	61116.07
578.24	60985.00
578.40	61237.78
578.56	61160.54
578.72	60973.30
578.88	61071.60
579.04	61322.04
579.21	61057.56
579.37	61247.14
579.53	61106.71
579.69	61132.45
579.85	61106.71
580.01	61123.09
580.17	61207.35
580.33	61244.80
580.49	61219.05
580.65	61179.26
580.82	60966.27
580.98	60989.68
581.14	60996.70
581.30	61214.37
581.46	61109.05
581.62	61240.12
581.78	60886.70
581.94	61226.07
582.10	61165.22
582.26	61228.41
582.42	61052.87
582.58	61258.84
582.74	61190.97
582.90	61368.85
583.06	61141.81
583.22	61045.85
583.38	61221.39
583.54	61202.67
583.70	61226.07
583.86	61270.54
584.02	61029.47
584.18	61221.39
584.34	61132.45
584.50	61195.65
584.66	61139.47
584.82	60912.44
584.98	61258.84
585.14	61237.78
585.30	61240.12
585.46	61106.71
585.62	61146.50
585.78	61474.17
585.94	61003.72
586.10	61064.58
586.26	61263.52
586.42	61277.57
586.58	61275.22
586.74	61233.10
586.90	61389.91
587.06	61134.79
587.22	61296.29
587.38	61223.73
587.54	61469.49
587.70	61359.48
587.86	61336.08
588.02	61233.10
588.18	61443.74
588.34	61279.91
588.49	61244.80
