SpectraSuite Data File
++++++++++++++++++++++++++++++++++++
Date: Fri Oct 25 11:25:47 EDT 2013
User: price-jones
Dark Spectrum Present: No
Reference Spectrum Present: No
Number of Sampled Component Spectra: 1
Spectrometers: USB2+H05261
Integration Time (usec): 100000 (USB2+H05261)
Spectra Averaged: 1 (USB2+H05261)
Boxcar Smoothing: 0 (USB2+H05261)
Correct for Electrical Dark: No (USB2+H05261)
Strobe/Lamp Enabled: No (USB2+H05261)
Correct for Detector Non-linearity: No (USB2+H05261)
Correct for Stray Light: No (USB2+H05261)
Number of Pixels in Processed Spectrum: 2048
>>>>>Begin Processed Spectral Data<<<<<
365.73	264.48
365.92	264.48
366.12	264.48
366.32	128.73
366.52	128.73
366.72	140.43
366.91	121.71
367.11	114.69
367.31	201.29
367.51	159.16
367.70	163.84
367.90	140.43
368.10	79.58
368.30	184.90
368.49	154.48
368.69	168.52
368.89	173.20
369.09	168.52
369.28	210.65
369.48	149.79
369.68	243.42
369.87	224.69
370.07	152.13
370.27	248.10
370.47	330.02
370.66	617.90
370.86	594.50
371.06	634.29
371.25	653.01
371.45	676.41
371.65	643.65
371.84	692.80
372.04	718.54
372.24	704.50
372.44	697.48
372.63	713.86
372.83	699.82
373.03	786.42
373.22	777.06
373.42	744.29
373.62	793.44
373.81	741.95
374.01	854.30
374.21	767.70
374.40	856.64
374.60	774.72
374.79	786.42
374.99	753.65
375.19	807.48
375.38	784.08
375.58	901.11
375.78	887.06
375.97	842.59
376.17	1004.09
376.37	873.02
376.56	919.83
376.76	938.55
376.95	880.04
377.15	938.55
377.35	931.53
377.54	983.02
377.74	952.60
377.93	875.36
378.13	898.77
378.33	903.45
378.52	901.11
378.72	903.45
378.91	959.62
379.11	926.85
379.31	1022.81
379.50	976.00
379.70	898.77
379.89	987.71
380.09	943.24
380.28	999.41
380.48	990.05
380.68	994.73
380.87	943.24
381.07	983.02
381.26	1118.78
381.46	1011.11
381.65	1041.54
381.85	990.05
382.04	1069.62
382.24	999.41
382.43	1144.52
382.63	990.05
382.83	1020.47
383.02	1102.39
383.22	1121.12
383.41	1111.75
383.61	1097.71
383.80	1132.82
384.00	1137.50
384.19	1193.67
384.39	1078.99
384.58	1191.33
384.78	1083.67
384.97	1142.18
385.17	1203.04
385.36	1123.46
385.56	1245.16
385.75	1186.65
385.95	1191.33
386.14	1235.80
386.34	1268.57
386.53	1165.59
386.72	1193.67
386.92	1144.52
387.11	1245.16
387.31	1263.89
387.50	1296.66
387.70	1224.10
387.89	1310.70
388.09	1275.59
388.28	1174.95
388.48	1313.04
388.67	1306.02
388.86	1401.98
389.06	1331.76
389.25	1373.89
389.45	1390.28
389.64	1380.92
389.84	1341.13
390.03	1357.51
390.22	1411.34
390.42	1397.30
390.61	1476.88
390.81	1444.11
391.00	1516.67
391.19	1432.41
391.39	1364.53
391.58	1430.07
391.78	1441.77
391.97	1446.45
392.16	1439.43
392.36	1500.28
392.55	1497.94
392.75	1582.20
392.94	1542.41
393.13	1472.20
393.33	1516.67
393.52	1495.60
393.71	1561.14
393.91	1582.20
394.10	1561.14
394.29	1610.29
394.49	1556.46
394.68	1659.44
394.88	1584.54
395.07	1664.12
395.26	1612.63
395.46	1732.00
395.65	1743.70
395.84	1739.02
396.04	1804.55
396.23	1781.15
396.42	1722.63
396.62	1706.25
396.81	1682.85
397.00	1741.36
397.19	1708.59
397.39	1724.97
397.58	1764.76
397.77	1902.86
397.97	1776.47
398.16	1804.55
398.35	1898.17
398.55	1790.51
398.74	1874.77
398.93	1912.22
399.12	1874.77
399.32	1778.81
399.51	1937.96
399.70	1994.14
399.90	1940.30
400.09	1961.37
400.28	1989.46
400.47	2008.18
400.67	2017.54
400.86	2113.50
401.05	2104.14
401.24	2076.06
401.44	2052.65
401.63	2169.68
401.82	2118.18
402.01	2120.53
402.21	2148.61
402.40	2216.49
402.59	2228.19
402.78	2148.61
402.97	2204.78
403.17	2136.91
403.36	2221.17
403.55	2230.53
403.74	2335.85
403.93	2265.64
404.13	2368.62
404.32	2396.71
404.51	2385.01
404.70	2429.48
404.89	2431.82
405.09	2415.43
405.28	2530.12
405.47	2502.03
405.66	2462.24
405.85	2502.03
406.05	2490.33
406.24	2513.74
406.43	2523.10
406.62	2708.00
406.81	2766.51
407.00	2576.93
407.20	2708.00
407.39	2651.83
407.58	2661.19
407.77	2705.66
407.96	2731.41
408.15	2782.90
408.34	2724.38
408.54	2766.51
408.73	2888.22
408.92	2778.22
409.11	2834.39
409.30	2888.22
409.49	2925.67
409.68	2970.14
409.87	2850.77
410.07	3075.46
410.26	3066.10
410.45	2885.88
410.64	3052.06
410.83	3220.58
411.02	3080.14
411.21	3143.34
411.40	3136.32
411.59	3272.07
411.78	3098.87
411.98	3227.60
412.17	3349.31
412.36	3272.07
412.55	3307.18
412.74	3531.87
412.93	3482.72
413.12	3456.97
413.31	3613.79
413.50	3501.44
413.69	3487.40
413.88	3503.78
414.07	3583.36
414.26	3531.87
414.45	3742.52
414.64	3829.12
414.83	3662.94
415.02	3684.00
415.22	3770.60
415.41	3946.14
415.60	4046.79
415.79	3805.71
415.98	4023.38
416.17	4102.96
416.36	3904.01
416.55	3946.14
416.74	4035.08
416.93	3999.98
417.12	4145.09
417.31	3992.95
417.50	4128.70
417.69	4187.22
417.88	4236.37
418.07	4308.93
418.26	4259.78
418.45	4465.74
418.64	4416.59
418.83	4372.12
419.02	4397.87
419.21	4519.57
419.39	4575.75
419.58	4456.38
419.77	4547.66
419.96	4610.86
420.15	4554.68
420.34	4463.40
420.53	4660.01
420.72	4564.04
420.91	4664.69
421.10	4692.77
421.29	4737.24
421.48	4664.69
421.67	4716.18
421.86	4727.88
422.05	4777.03
422.24	4823.84
422.43	4847.25
422.61	4781.71
422.80	4753.63
422.99	4887.04
423.18	5029.81
423.37	5067.26
423.56	4933.85
423.75	4919.81
423.94	5008.75
424.13	4674.05
424.32	4716.18
424.50	4990.02
424.69	5095.35
424.88	4929.17
425.07	4894.06
425.26	4828.53
425.45	4940.87
425.64	5001.72
425.83	4901.08
426.01	5018.11
426.20	5004.07
426.39	4980.66
426.58	5067.26
426.77	5050.88
426.96	5118.75
427.15	5139.82
427.33	5025.13
427.52	5095.35
427.71	5207.69
427.90	5121.09
428.09	5305.99
428.28	5165.56
428.46	5343.44
428.65	5266.21
428.84	5385.57
429.03	5645.37
429.22	5371.53
429.40	5432.38
429.59	5437.06
429.78	5266.21
429.97	5151.52
430.16	5476.85
430.34	5357.49
430.53	5626.65
430.72	5720.27
430.91	5685.16
431.10	5654.73
431.28	5685.16
431.47	5809.21
431.66	5870.06
431.85	5795.17
432.03	5776.44
432.22	6031.56
432.41	5898.15
432.60	5998.79
432.79	6071.35
432.97	5942.62
433.16	5996.45
433.35	6012.84
433.54	6029.22
433.72	6204.76
433.91	6209.44
434.10	6312.42
434.28	6148.59
434.47	6118.16
434.66	6190.72
434.85	6286.68
435.03	6338.17
435.22	6230.51
435.41	6417.75
435.59	6392.00
435.78	6427.11
435.97	6366.26
436.16	6462.22
436.34	6359.24
436.53	6588.61
436.72	6593.29
436.90	6471.58
437.09	6537.12
437.28	6410.73
437.46	6424.77
437.65	6635.42
437.84	6806.28
438.02	6612.01
438.21	6679.89
438.40	6729.04
438.58	6911.60
438.77	7103.53
438.96	6867.13
439.14	7061.40
439.33	7087.14
439.52	7199.49
439.70	7281.41
439.89	7503.76
440.08	7421.84
440.26	7272.04
440.45	7449.93
440.63	7400.77
440.82	7573.97
441.01	7468.65
441.19	7534.18
441.38	7740.15
441.57	7716.75
441.75	7784.62
441.94	7857.18
442.12	7791.64
442.31	7894.63
442.50	7995.27
442.68	8067.83
442.87	7953.14
443.05	8028.04
443.24	8051.44
443.43	8133.36
443.61	7971.86
443.80	8238.69
443.98	8021.02
444.17	7655.89
444.35	8149.75
444.54	8198.90
444.73	8168.47
444.91	8306.56
445.10	8428.27
445.28	8276.13
445.47	8222.30
445.65	8250.39
445.84	8542.96
446.02	8409.54
446.21	8479.76
446.39	8449.33
446.58	8526.57
446.77	8393.16
446.95	8421.25
447.14	8451.67
447.32	8594.45
447.51	8503.17
447.69	8500.83
447.88	8421.25
448.06	8393.16
448.25	8446.99
448.43	8505.51
448.62	8510.19
448.80	8716.16
448.99	8580.40
449.17	8601.47
449.36	8681.05
449.54	8994.68
449.73	8905.74
449.91	9015.74
450.10	8865.95
450.28	8975.95
450.46	8959.57
450.65	9114.05
450.83	9125.75
451.02	8980.64
451.20	9266.18
451.39	9149.15
451.57	9095.32
451.76	9029.79
451.94	9153.84
452.13	9289.59
452.31	9202.99
452.49	9224.05
452.68	9511.94
452.86	9320.01
453.05	9320.01
453.23	9757.69
453.42	9458.10
453.60	9315.33
453.78	9364.48
453.97	9509.60
454.15	9392.57
454.34	9507.26
454.52	9701.52
454.70	9582.15
454.89	9624.28
455.07	9624.28
455.26	9891.10
455.44	9792.80
455.62	9813.87
455.81	9774.08
455.99	10059.62
456.17	9947.28
456.36	10026.86
456.54	10017.49
456.73	10113.45
456.91	10431.77
457.09	10230.48
457.28	10408.36
457.46	10377.94
457.64	10658.80
457.83	10384.96
458.01	10445.81
458.19	10527.73
458.38	10464.54
458.56	10626.03
458.74	10684.55
458.93	10754.76
459.11	10574.54
459.29	10619.01
459.48	10668.16
459.66	10803.91
459.84	10817.96
460.03	11012.22
460.21	11136.27
460.39	10967.75
460.57	10937.32
460.76	11112.86
460.94	11052.01
461.12	11091.80
461.31	11379.68
461.49	11016.90
461.67	11075.42
461.85	11449.90
462.04	11206.48
462.22	11709.70
462.40	11669.91
462.59	11316.49
462.77	11529.48
462.95	11665.23
463.13	11618.42
463.32	11613.74
463.50	11590.33
463.68	11599.70
463.86	11927.37
464.05	11534.16
464.23	11812.68
464.41	11892.26
464.59	11585.65
464.78	12009.29
464.96	11871.20
465.14	11686.29
465.32	12318.24
465.50	12145.04
465.69	12035.03
465.87	11990.56
466.05	11967.16
466.23	12126.32
466.41	12107.59
466.60	12517.18
466.78	12166.10
466.96	12121.63
467.14	12388.46
467.32	12231.64
467.51	12435.27
467.69	12142.70
467.87	12203.55
468.05	12486.76
468.23	12250.36
468.41	12493.78
468.60	12430.59
468.78	12531.23
468.96	12596.76
469.14	12931.46
469.32	13081.25
469.50	12596.76
469.69	13064.87
469.87	13067.21
470.05	13074.23
470.23	13170.19
470.41	13153.81
470.59	13331.69
470.77	12961.89
470.95	13123.38
471.14	13542.34
471.32	13142.11
471.50	13532.98
471.68	13422.97
471.86	13605.53
472.04	13359.78
472.22	14197.69
472.40	13530.64
472.58	13720.22
472.77	13912.14
472.95	14197.69
473.13	14743.03
473.31	14125.13
473.49	14193.01
473.67	14153.22
473.85	14174.28
474.03	14478.55
474.21	14363.87
474.39	14626.01
474.57	14516.00
474.75	14820.27
474.93	14792.19
475.12	14616.65
475.30	15255.61
475.48	14862.40
475.66	15154.97
475.84	14963.04
476.02	15447.54
476.20	15403.07
476.38	15393.70
476.56	15988.20
476.74	15779.89
476.92	15667.55
477.10	16030.33
477.28	15793.94
477.46	16123.95
477.64	16257.36
477.82	16278.43
478.00	16650.57
478.18	16556.95
478.36	16762.92
478.54	17025.06
478.72	17099.95
478.90	17308.26
479.08	17432.31
479.26	17762.33
479.44	17408.90
479.62	17788.07
479.80	18050.21
479.98	18237.45
480.16	18455.12
480.34	17980.00
480.52	18455.12
480.70	18415.34
480.88	18178.94
481.06	18845.99
481.24	18635.35
481.41	19066.00
481.59	18960.68
481.77	19358.57
481.95	19536.45
482.13	19477.94
482.31	19564.54
482.49	20336.91
482.67	20130.95
482.85	20418.83
483.03	20585.01
483.21	20695.02
483.39	20910.35
483.57	20910.35
483.74	20727.78
483.92	21523.57
484.10	20947.79
484.28	21656.98
484.46	22045.51
484.64	22211.68
484.82	21902.73
485.00	22445.74
485.18	22373.18
485.35	22672.77
485.53	22555.74
485.71	23087.04
485.89	23414.72
486.07	23070.66
486.25	23246.20
486.43	23356.21
486.61	23747.08
486.78	23828.99
486.96	23992.83
487.14	24666.91
487.32	24173.05
487.50	24486.68
487.68	24439.87
487.85	25090.54
488.03	25291.83
488.21	25858.24
488.39	25582.06
488.57	25891.01
488.75	26209.32
488.92	26471.46
489.10	26780.41
489.28	26738.28
489.46	26862.33
489.64	27091.70
489.81	27665.13
489.99	27805.56
490.17	27779.82
490.35	28088.77
490.53	28114.52
490.70	28510.07
490.88	28175.37
491.06	28851.78
491.24	28507.72
491.41	28882.21
491.59	29270.74
491.77	29198.18
491.95	29673.31
492.13	29792.68
492.30	29940.13
492.48	29811.40
492.66	30108.65
492.84	30136.74
493.01	30162.48
493.19	30501.86
493.37	30532.29
493.54	31049.55
493.72	30998.06
493.90	31131.47
494.08	31510.63
494.25	31964.70
494.43	32034.91
494.61	31964.70
494.79	32526.42
494.96	32158.96
495.14	32360.25
495.32	33457.96
495.49	32910.27
495.67	33163.05
495.85	33380.72
496.02	33846.49
496.20	34096.92
496.38	33802.02
496.55	33853.51
496.73	34632.91
496.91	34471.41
497.09	34625.89
497.26	34572.05
497.44	34478.43
497.62	35152.51
497.79	35409.96
497.97	35304.64
498.14	35929.56
498.32	35892.12
498.50	35915.52
498.67	36222.13
498.85	36472.57
499.03	36856.42
499.20	36435.12
499.38	36657.47
499.56	36833.01
499.73	37167.71
499.91	36973.44
500.08	37645.18
500.26	37474.32
500.44	37546.87
500.61	37778.59
500.79	37446.23
500.97	38326.27
501.14	38621.18
501.32	38412.87
501.49	38361.38
501.67	38740.55
501.84	38665.65
502.02	38843.53
502.20	38897.36
502.37	38724.16
502.55	39213.34
502.72	39433.35
502.90	39463.77
503.07	39323.34
503.25	39353.77
503.43	39519.95
503.60	40065.29
503.78	40095.72
503.95	39950.60
504.13	39480.16
504.30	40334.45
504.48	40416.37
504.65	40477.22
504.83	40657.45
505.01	41064.70
505.18	41148.96
505.36	41518.76
505.53	40818.94
505.71	41148.96
505.88	41635.79
506.06	41186.41
506.23	41991.55
506.41	41633.45
506.58	41642.81
506.76	41872.18
506.93	42373.06
507.11	42843.51
507.28	42478.38
507.46	42396.46
507.63	42536.90
507.81	43182.88
507.98	42607.11
508.16	42904.36
508.33	42981.60
508.50	43332.68
508.68	43412.26
508.85	43901.43
509.03	43524.60
509.20	44037.18
509.38	44219.74
509.55	44308.68
509.73	44128.46
509.90	44481.88
510.08	44385.92
510.25	44655.08
510.42	44533.37
510.60	44811.90
510.77	45125.53
510.95	45338.52
511.12	45333.84
511.30	45113.83
511.47	45198.09
511.64	45272.98
511.82	45563.21
511.99	45673.21
512.17	45886.20
512.34	45771.52
512.51	46281.75
512.69	46171.75
512.86	46471.34
513.04	46848.16
513.21	46405.80
513.38	46335.59
513.56	46693.69
513.73	46621.13
513.90	46813.05
514.08	46834.12
514.25	46948.81
514.43	47070.51
514.60	47196.90
514.77	47217.97
514.95	48013.75
515.12	47267.12
515.29	47349.04
515.47	47540.96
515.64	48090.99
515.81	47398.19
515.99	47767.99
516.16	48357.81
516.33	48193.97
516.51	48800.17
516.68	48053.54
516.85	48222.06
517.03	48612.93
517.20	48481.86
517.37	48690.16
517.54	48587.18
517.72	48837.62
517.89	48912.52
518.06	48992.09
518.24	49394.67
518.41	49209.76
518.58	49488.29
518.75	49193.38
518.93	49778.51
519.10	49120.82
519.27	49485.95
519.45	49703.62
519.62	49745.75
519.79	49724.68
519.96	50017.25
520.14	49963.42
520.31	49848.73
520.48	50621.11
520.65	50099.17
520.83	50485.36
521.00	50452.59
521.17	50225.56
521.34	50466.63
521.52	50438.54
521.69	50667.92
521.86	50873.88
522.03	51089.21
522.20	51278.80
522.38	50906.65
522.55	51253.05
522.72	51365.40
522.89	51236.67
523.07	51442.63
523.24	51192.20
523.41	51730.52
523.58	51114.96
523.75	51566.68
523.92	51526.89
524.10	51992.66
524.27	51784.35
524.44	51941.17
524.61	52083.94
524.78	52027.77
524.96	51959.89
525.13	52186.92
525.30	52360.12
525.47	52411.62
525.64	52460.77
525.81	52552.05
525.98	52687.80
526.16	52250.12
526.33	52720.57
526.50	52697.16
526.67	52636.31
526.84	53045.90
527.01	52657.37
527.18	52783.76
527.36	52947.60
527.53	53155.91
527.70	53382.94
527.87	53406.34
528.04	52992.07
528.21	53209.74
528.38	53350.17
528.55	53757.42
528.72	53083.35
528.89	53315.06
529.07	53478.90
529.24	53317.40
529.41	53591.25
529.58	53525.71
529.75	53631.04
529.92	53694.23
530.09	53553.80
530.26	53820.62
530.43	54026.59
530.60	53832.32
530.77	53827.64
530.94	53832.32
531.11	53645.08
531.28	54005.52
531.46	54005.52
531.63	54035.95
531.80	54014.88
531.97	54223.19
532.14	54429.16
532.31	54064.03
532.48	54223.19
532.65	54639.81
532.82	54375.33
532.99	54541.50
533.16	54710.02
533.33	54700.66
533.50	54871.52
533.67	54651.51
533.84	54518.10
534.01	54845.77
534.18	54665.55
534.35	55164.09
534.52	54794.28
534.69	55187.49
534.86	54979.18
535.03	55009.61
535.20	55264.73
535.37	55292.82
535.54	55437.93
535.71	55327.92
535.88	55334.95
536.05	55257.71
536.22	55505.80
536.38	55484.74
536.55	55363.03
536.72	55381.76
536.89	55477.72
537.06	55664.96
537.23	55859.23
537.40	55522.19
537.57	55650.92
537.74	55697.73
537.91	56051.15
538.08	55667.30
538.25	55655.60
538.42	55803.05
538.59	55767.94
538.75	55540.91
538.92	55973.91
539.09	56102.64
539.26	55938.80
539.43	56076.90
539.60	56154.13
539.77	56137.75
539.94	56271.16
540.11	56376.48
540.28	56081.58
540.44	56303.93
540.61	56376.48
540.78	56156.47
540.95	56259.46
541.12	56172.86
541.29	56477.13
541.46	56289.88
541.62	56610.54
541.79	56587.13
541.96	56512.23
542.13	56514.58
542.30	56402.23
542.47	56781.40
542.63	56783.74
542.80	56783.74
542.97	56900.76
543.14	57134.82
543.31	57230.78
543.48	57038.86
543.64	57242.48
543.81	57378.23
543.98	57202.69
544.15	57052.90
544.32	57528.03
544.48	57518.67
544.65	57258.87
544.82	57212.06
544.99	57270.57
545.16	57439.09
545.32	57265.89
545.49	57434.41
545.66	57565.48
545.83	57394.62
546.00	57446.11
546.16	57403.98
546.33	57446.11
546.50	57223.76
546.67	57759.74
546.83	57415.68
547.00	57677.82
547.17	57738.68
547.34	57567.82
547.50	57979.75
547.67	57937.62
547.84	57921.24
548.00	57776.12
548.17	58082.73
548.34	57895.49
548.51	58155.29
548.67	58176.36
548.84	58206.78
549.01	58049.97
549.18	57893.15
549.34	58162.31
549.51	58026.56
549.68	58277.00
549.84	58281.68
550.01	58195.08
550.18	58145.93
550.34	58335.51
550.51	58255.93
550.68	58326.15
550.84	57907.19
551.01	58415.09
551.18	58267.64
551.34	58372.96
551.51	58571.91
551.68	58489.99
551.84	58536.80
552.01	58403.39
552.18	58543.82
552.34	58209.12
552.51	58487.65
552.68	58553.18
552.84	58447.86
553.01	58749.79
553.18	58384.66
553.34	58752.13
553.51	58459.56
553.67	58625.74
553.84	58679.57
554.01	58740.42
554.17	58906.60
554.34	59089.16
554.51	59018.95
554.67	58777.87
554.84	58892.56
555.00	58899.58
555.17	58920.65
555.33	59021.29
555.50	58906.60
555.67	58827.02
555.83	59070.44
556.00	59028.31
556.16	59203.85
556.33	59114.91
556.50	59128.95
556.66	59234.28
556.83	58848.09
556.99	59098.53
557.16	59339.60
557.32	59505.78
557.49	59409.82
557.65	59290.45
557.82	59253.00
557.98	59339.60
558.15	59201.51
558.32	59543.23
558.48	59290.45
558.65	59374.71
558.81	59437.90
558.98	59465.99
559.14	59561.95
559.31	59601.74
559.47	59538.55
559.64	59763.24
559.80	59683.66
559.97	59725.79
560.13	59540.89
560.30	59470.67
560.46	59554.93
560.63	59693.02
560.79	59716.43
560.96	59660.26
561.12	59601.74
561.29	59898.99
561.45	59704.73
561.61	59700.04
561.78	59772.60
561.94	59704.73
562.11	59653.23
562.27	59924.74
562.44	59777.28
562.60	59908.35
562.77	60018.36
562.93	59835.80
563.10	60053.47
563.26	59803.03
563.42	59824.09
563.59	59791.33
563.75	59877.93
563.92	59894.31
564.08	59866.22
564.24	60149.43
564.41	59910.69
564.57	60034.74
564.74	60193.90
564.90	59887.29
565.07	59985.59
565.23	59978.57
565.39	60004.31
565.56	59971.55
565.72	59948.14
565.88	60081.55
566.05	60048.78
566.21	60119.00
566.38	60149.43
566.54	60161.13
566.70	60254.75
566.87	60331.99
567.03	60039.42
567.19	60441.99
567.36	60236.03
567.52	60182.19
567.68	60411.57
567.85	60203.26
568.01	60217.30
568.17	60212.62
568.34	60334.33
568.50	60367.10
568.66	60168.15
568.83	60320.29
568.99	60324.97
569.15	60308.58
569.32	60376.46
569.48	60198.58
569.64	60395.18
569.81	60336.67
569.97	60292.20
570.13	60580.09
570.30	60238.37
570.46	60395.18
570.62	60465.40
570.78	60460.72
570.95	60339.01
571.11	60552.00
571.27	60491.15
571.43	60327.31
571.60	60638.60
571.76	60458.38
571.92	60509.87
572.09	60425.61
572.25	60654.98
572.41	60346.03
572.57	60353.05
572.74	60657.32
572.90	60308.58
573.06	60537.96
573.22	60392.84
573.38	60654.98
573.55	60561.36
573.71	60732.22
573.87	60622.22
574.03	60315.61
574.20	60537.96
574.36	60629.24
574.52	60645.62
574.68	60549.66
574.84	60795.42
575.01	60514.55
575.17	60652.64
575.33	60587.11
575.49	60537.96
575.65	60549.66
575.82	60748.60
575.98	60781.37
576.14	60879.67
576.30	60743.92
576.46	60755.63
576.62	60673.71
576.79	60598.81
576.95	60500.51
577.11	60638.60
577.27	60769.67
577.43	60779.03
577.59	60753.29
577.75	60589.45
577.92	60673.71
578.08	60727.54
578.24	60645.62
578.40	60963.93
578.56	60776.69
578.72	60711.16
578.88	61083.30
579.04	61010.74
579.21	60739.24
579.37	60900.74
579.53	60987.34
579.69	60479.44
579.85	60603.49
580.01	60699.45
580.17	60605.83
580.33	60701.79
580.49	60849.25
580.65	60842.23
580.82	60748.60
580.98	60774.35
581.14	60591.79
581.30	60924.14
581.46	60837.54
581.62	60961.59
581.78	60680.73
581.94	60970.96
582.10	60804.78
582.26	60678.39
582.42	60685.41
582.58	60764.99
582.74	60720.52
582.90	60879.67
583.06	60889.04
583.22	60654.98
583.38	60896.06
583.54	60853.93
583.70	60947.55
583.86	60795.42
584.02	60626.90
584.18	61015.43
584.34	60849.25
584.50	60949.89
584.66	60694.77
584.82	60727.54
584.98	60945.21
585.14	60935.85
585.30	60856.27
585.46	60830.52
585.62	60968.61
585.78	60903.08
585.94	60706.47
586.10	60963.93
586.26	61134.79
586.42	60985.00
586.58	60924.14
586.74	60931.17
586.90	60821.16
587.06	60687.75
587.22	60996.70
587.38	60809.46
587.54	60954.57
587.70	61020.11
587.86	60975.64
588.02	61200.33
588.18	61160.54
588.34	61001.38
588.49	60956.91
