SpectraSuite Data File
++++++++++++++++++++++++++++++++++++
Date: Fri Oct 25 10:44:44 EDT 2013
User: price-jones
Dark Spectrum Present: No
Reference Spectrum Present: No
Number of Sampled Component Spectra: 1
Spectrometers: USB2+H05261
Integration Time (usec): 100000 (USB2+H05261)
Spectra Averaged: 1 (USB2+H05261)
Boxcar Smoothing: 0 (USB2+H05261)
Correct for Electrical Dark: No (USB2+H05261)
Strobe/Lamp Enabled: No (USB2+H05261)
Correct for Detector Non-linearity: No (USB2+H05261)
Correct for Stray Light: No (USB2+H05261)
Number of Pixels in Processed Spectrum: 2048
>>>>>Begin Processed Spectral Data<<<<<
365.73	220.01
365.92	220.01
366.12	220.01
366.32	0.00
366.52	44.47
366.72	39.79
366.91	37.45
367.11	0.00
367.31	0.00
367.51	58.51
367.70	0.00
367.90	86.60
368.10	0.00
368.30	84.26
368.49	28.09
368.69	95.96
368.89	56.17
369.09	70.22
369.28	107.66
369.48	114.69
369.68	23.41
369.87	110.01
370.07	114.69
370.27	102.98
370.47	227.03
370.66	320.65
370.86	367.46
371.06	400.23
371.25	468.11
371.45	379.17
371.65	472.79
371.84	444.70
372.04	315.97
372.24	496.19
372.44	435.34
372.63	575.77
372.83	454.06
373.03	587.47
373.22	449.38
373.42	449.38
373.62	505.56
373.81	554.71
374.01	500.87
374.21	538.32
374.40	550.03
374.60	535.98
374.79	519.60
374.99	461.09
375.19	573.43
375.38	550.03
375.58	622.58
375.78	620.24
375.97	608.54
376.17	587.47
376.37	650.67
376.56	491.51
376.76	531.30
376.95	503.22
377.15	608.54
377.35	634.29
377.54	580.45
377.74	608.54
377.93	585.13
378.13	627.26
378.33	699.82
378.52	559.39
378.72	615.56
378.91	587.47
379.11	543.00
379.31	608.54
379.50	543.00
379.70	636.63
379.89	620.24
380.09	594.50
380.28	622.58
380.48	690.46
380.68	657.69
380.87	683.44
381.07	681.10
381.26	683.44
381.46	674.07
381.65	669.39
381.85	706.84
382.04	664.71
382.24	650.67
382.43	643.65
382.63	662.37
382.83	648.33
383.02	697.48
383.22	720.88
383.41	704.50
383.61	655.35
383.80	734.93
384.00	746.63
384.19	704.50
384.39	741.95
384.58	741.95
384.78	716.20
384.97	634.29
385.17	763.01
385.36	704.50
385.56	688.12
385.75	781.74
385.95	765.36
386.14	837.91
386.34	711.52
386.53	805.14
386.72	681.10
386.92	791.10
387.11	753.65
387.31	786.42
387.50	851.96
387.70	774.72
387.89	812.17
388.09	856.64
388.28	833.23
388.48	802.80
388.67	784.08
388.86	910.47
389.06	861.32
389.25	880.04
389.45	908.13
389.64	856.64
389.84	917.49
390.03	861.32
390.22	952.60
390.42	882.38
390.61	954.94
390.81	945.58
391.00	968.98
391.19	1018.13
391.39	957.28
391.58	971.32
391.78	961.96
391.97	1057.92
392.16	924.51
392.36	999.41
392.55	1048.56
392.75	924.51
392.94	924.51
393.13	997.07
393.33	959.62
393.52	945.58
393.71	1032.18
393.91	1095.37
394.10	1107.07
394.29	1053.24
394.49	1041.54
394.68	1013.45
394.88	1046.22
395.07	1139.84
395.26	1118.78
395.46	1116.44
395.65	1125.80
395.84	1135.16
396.04	1203.04
396.23	1132.82
396.42	1128.14
396.62	1043.88
396.81	1177.29
397.00	1163.25
397.19	1203.04
397.39	1203.04
397.58	1317.72
397.77	1238.14
397.97	1149.20
398.16	1231.12
398.35	1331.76
398.55	1303.68
398.74	1385.60
398.93	1380.92
399.12	1291.98
399.32	1308.36
399.51	1345.81
399.70	1451.13
399.90	1397.30
400.09	1427.73
400.28	1467.52
400.47	1437.09
400.67	1387.94
400.86	1481.56
401.05	1451.13
401.24	1504.96
401.44	1472.20
401.63	1488.58
401.82	1474.54
402.01	1465.18
402.21	1519.01
402.40	1699.23
402.59	1577.52
402.78	1664.12
402.97	1614.97
403.17	1593.90
403.36	1675.82
403.55	1652.42
403.74	1675.82
403.93	1675.82
404.13	1617.31
404.32	1689.87
404.51	1699.23
404.70	1661.78
404.89	1736.68
405.09	1736.68
405.28	1727.32
405.47	1713.27
405.66	1764.76
405.85	1769.44
406.05	1724.97
406.24	1804.55
406.43	1799.87
406.62	1895.83
406.81	1902.86
407.00	1825.62
407.20	1834.98
407.39	1856.04
407.58	1849.02
407.77	1937.96
407.96	1928.60
408.15	2029.24
408.34	2012.86
408.54	2003.50
408.73	2024.56
408.92	2092.44
409.11	2036.27
409.30	2019.88
409.49	2036.27
409.68	2092.44
409.87	2036.27
410.07	2078.40
410.26	2157.97
410.45	2146.27
410.64	2160.31
410.83	2228.19
411.02	2235.21
411.21	2338.20
411.40	2230.53
411.59	2319.47
411.78	2256.28
411.98	2452.88
412.17	2340.54
412.36	2466.92
412.55	2431.82
412.74	2511.39
412.93	2403.73
413.12	2495.01
413.31	2677.57
413.50	2672.89
413.69	2579.27
413.88	2696.30
414.07	2558.21
414.26	2663.53
414.45	2733.75
414.64	2682.25
414.83	2803.96
415.02	2810.98
415.22	2871.84
415.41	2691.62
415.60	2785.24
415.79	2796.94
415.98	2906.95
416.17	2937.37
416.36	2937.37
416.55	2925.67
416.74	2986.52
416.93	2977.16
417.12	2874.18
417.31	2946.73
417.50	3045.04
417.69	3042.70
417.88	3222.92
418.07	3119.93
418.26	3054.40
418.45	3148.02
418.64	3225.26
418.83	3269.73
419.02	3133.98
419.21	3159.72
419.39	3318.88
419.58	3213.56
419.77	3243.98
419.96	3269.73
420.15	3258.03
420.34	3414.84
420.53	3304.84
420.72	3522.51
420.91	3449.95
421.10	3431.23
421.29	3449.95
421.48	3412.50
421.67	3412.50
421.86	3485.06
422.05	3592.72
422.24	3314.20
422.43	3555.27
422.61	3433.57
422.80	3524.85
422.99	3545.91
423.18	3543.57
423.37	3616.13
423.56	3644.21
423.75	3543.57
423.94	3475.70
424.13	3438.25
424.32	3482.72
424.50	3548.25
424.69	3637.19
424.88	3611.45
425.07	3595.06
425.26	3559.95
425.45	3487.40
425.64	3566.98
425.83	3494.42
426.01	3712.09
426.20	3630.17
426.39	3513.14
426.58	3749.54
426.77	3529.53
426.96	3660.60
427.15	3552.93
427.33	3714.43
427.52	3695.71
427.71	3604.42
427.90	3728.47
428.09	3754.22
428.28	3861.88
428.46	3833.80
428.65	3796.35
428.84	3985.93
429.03	3815.07
429.22	3747.20
429.40	3864.22
429.59	3805.71
429.78	3653.58
429.97	3674.64
430.16	3672.30
430.34	3831.46
430.53	4021.04
430.72	3892.31
430.91	3925.08
431.10	3911.04
431.28	4133.39
431.47	4287.86
431.66	4156.79
431.85	4196.58
432.03	4208.28
432.22	4201.26
432.41	4203.60
432.60	4294.88
432.79	4262.12
432.97	4367.44
433.16	4365.10
433.35	4198.92
433.54	4299.56
433.72	4421.27
433.91	4383.82
434.10	4369.78
434.28	4320.63
434.47	4327.65
434.66	4451.70
434.85	4491.49
435.03	4472.76
435.22	4554.68
435.41	4655.33
435.59	4741.93
435.78	4636.60
435.97	4762.99
436.16	4645.96
436.34	4669.37
436.53	4683.41
436.72	4901.08
436.90	4702.14
437.09	4723.20
437.28	4711.50
437.46	4842.57
437.65	4842.57
437.84	4660.01
438.02	4711.50
438.21	4744.27
438.40	4746.61
438.58	5102.37
438.77	4734.90
438.96	4875.34
439.14	5048.54
439.33	5153.86
439.52	5123.43
439.70	5205.35
439.89	5121.09
440.08	5308.34
440.26	5228.76
440.45	5163.22
440.63	5446.43
440.82	5568.13
441.01	5540.05
441.19	5614.95
441.38	5530.69
441.57	5607.92
441.75	5526.00
441.94	5722.61
442.12	5570.48
442.31	5738.99
442.50	5827.93
442.68	5694.52
442.87	5799.85
443.05	5877.09
443.24	5888.79
443.43	5951.98
443.61	5856.02
443.80	6066.67
443.98	5893.47
444.17	5731.97
444.35	5846.66
444.54	6054.97
444.73	6050.28
444.91	6001.13
445.10	5865.38
445.28	5893.47
445.47	5727.29
445.65	5982.41
445.84	5968.37
446.02	5944.96
446.21	6019.86
446.39	5881.77
446.58	6078.37
446.77	6143.91
446.95	6143.91
447.14	6094.76
447.32	6099.44
447.51	6045.60
447.69	6064.33
447.88	5980.07
448.06	6057.31
448.25	6120.50
448.43	6174.33
448.62	6090.07
448.80	6099.44
448.99	6249.23
449.17	6122.84
449.36	6340.51
449.54	6179.01
449.73	6518.39
449.91	6513.71
450.10	6443.49
450.28	6621.38
450.46	6459.88
450.65	6583.93
450.83	6473.92
451.02	6427.11
451.20	6581.59
451.39	6558.18
451.57	6403.71
451.76	6558.18
451.94	6635.42
452.13	6698.61
452.31	6750.10
452.49	6509.03
452.68	6506.69
452.86	6703.29
453.05	6745.42
453.23	6612.01
453.42	6602.65
453.60	6614.35
453.78	6761.81
453.97	6729.04
454.15	6834.36
454.34	6633.08
454.52	6897.56
454.70	6794.58
454.89	7026.29
455.07	7028.63
455.26	6956.07
455.44	6974.80
455.62	6986.50
455.81	7007.56
455.99	7110.55
456.17	7225.23
456.36	7260.34
456.54	7059.06
456.73	7360.98
456.91	7297.79
457.09	7412.48
457.28	7508.44
457.46	7274.38
457.64	7449.93
457.83	7637.17
458.01	7391.41
458.19	7548.23
458.38	7616.10
458.56	7452.27
458.74	7419.50
458.93	7683.98
459.11	7545.89
459.29	7667.60
459.48	7705.04
459.66	7641.85
459.84	7789.30
460.03	7793.98
460.21	7686.32
460.39	7618.44
460.57	7796.32
460.76	7702.70
460.94	7906.33
461.12	7765.90
461.31	7934.42
461.49	7845.48
461.67	8114.64
461.85	8042.08
462.04	8035.06
462.22	8252.73
462.40	8205.92
462.59	8222.30
462.77	7887.61
462.95	8060.80
463.13	8013.99
463.32	8201.24
463.50	8351.03
463.68	8177.83
463.86	8315.92
464.05	7990.59
464.23	8121.66
464.41	8355.71
464.59	8098.25
464.78	8313.58
464.96	8315.92
465.14	8194.22
465.32	8351.03
465.50	8601.47
465.69	8444.65
465.87	8418.91
466.05	8383.80
466.23	8304.22
466.41	8372.10
466.60	8549.98
466.78	8779.35
466.96	8526.57
467.14	8767.65
467.32	8772.33
467.51	8533.59
467.69	8484.44
467.87	8545.30
468.05	8744.24
468.23	8748.92
468.41	8636.58
468.60	8854.25
468.78	8849.57
468.96	8821.48
469.14	8767.65
469.32	8954.89
469.50	8753.60
469.69	8936.17
469.87	9027.45
470.05	9195.96
470.23	9132.77
470.41	8905.74
470.59	9071.92
470.77	9125.75
470.95	9156.18
471.14	9111.71
471.32	9235.75
471.50	9453.42
471.68	9610.24
471.86	9554.07
472.04	9488.53
472.22	9633.64
472.40	9465.13
472.58	9322.35
472.77	9680.46
472.95	9659.39
473.13	9926.21
473.31	9692.16
473.49	9645.35
473.67	9804.50
473.85	9879.40
474.03	9977.70
474.21	10200.05
474.39	10061.96
474.57	10218.78
474.75	10132.18
474.93	10434.11
475.12	10256.23
475.30	10387.30
475.48	10307.72
475.66	10558.16
475.84	10242.18
476.02	10457.51
476.20	10691.57
476.38	10684.55
476.56	10848.38
476.74	10768.80
476.92	10698.59
477.10	10857.75
477.28	11197.12
477.46	11173.72
477.64	11213.51
477.82	11346.92
478.00	11866.52
478.18	11356.28
478.36	11639.48
478.54	11749.49
478.72	11822.05
478.90	11810.34
479.08	11922.69
479.26	12107.59
479.44	12154.40
479.62	12191.85
479.80	12098.23
479.98	12512.50
480.16	12549.95
480.34	12290.15
480.52	12549.95
480.70	12395.48
480.88	12421.22
481.06	12758.26
481.24	12755.92
481.41	13132.75
481.59	13198.28
481.77	13226.37
481.95	13343.39
482.13	13359.78
482.31	13429.99
482.49	13441.70
482.67	13535.32
482.85	13874.70
483.03	14026.83
483.21	14216.41
483.39	14237.48
483.57	13928.53
483.74	14162.58
483.92	14328.76
484.10	14099.39
484.28	14661.12
484.46	14895.17
484.64	14972.41
484.82	15012.20
485.00	15110.50
485.18	15122.20
485.35	15288.38
485.53	15257.95
485.71	15384.34
485.89	15550.52
486.07	15255.61
486.25	15545.84
486.43	15660.52
486.61	15845.43
486.78	16264.38
486.96	16252.68
487.14	16383.75
487.32	16325.24
487.50	16566.31
487.68	16915.05
487.85	17383.16
488.03	17151.45
488.21	17273.15
488.39	17235.70
488.57	17240.39
488.75	17254.43
488.92	17654.66
489.10	17869.99
489.28	17750.62
489.46	18391.93
489.64	18033.83
489.81	18642.37
489.99	18537.04
490.17	18824.93
490.35	18995.79
490.53	18677.48
490.70	19103.45
490.88	19042.60
491.06	19337.51
491.24	19349.21
491.41	19283.67
491.59	19517.73
491.77	19344.53
491.95	19370.27
492.13	19688.59
492.30	20018.60
492.48	20526.50
492.66	20063.07
492.84	20341.60
493.01	20418.83
493.19	20695.02
493.37	20849.49
493.54	20655.23
493.72	20968.86
493.90	21010.99
494.08	21329.30
494.25	21434.63
494.43	21228.66
494.61	21778.68
494.79	21635.91
494.96	21664.00
495.14	21834.86
495.32	21951.88
495.49	22251.47
495.67	21921.46
495.85	22340.41
496.02	22401.27
496.20	22614.26
496.38	22635.32
496.55	22654.05
496.73	23379.61
496.91	23225.14
497.09	23346.84
497.26	23335.14
497.44	23302.37
497.62	23578.56
497.79	23487.28
497.97	23414.72
498.14	23571.54
498.32	24159.01
498.50	24133.26
498.67	24311.14
498.85	24091.13
499.03	24666.91
499.20	24587.33
499.38	24620.10
499.56	24582.65
499.73	24617.75
499.91	24952.45
500.08	24659.88
500.26	24533.50
500.44	24624.78
500.61	24697.33
500.79	24823.72
500.97	25081.18
501.14	25219.27
501.32	25785.68
501.49	25261.40
501.67	25383.11
501.84	25575.03
502.02	25610.14
502.20	25933.14
502.37	25907.39
502.55	25799.73
502.72	25944.84
502.90	26218.68
503.07	26265.49
503.25	26410.60
503.43	26338.05
503.60	26331.03
503.78	26340.39
503.95	26277.19
504.13	26668.06
504.30	26527.63
504.48	26733.60
504.65	27201.71
504.83	27335.12
505.01	27185.32
505.18	27145.53
505.36	27641.73
505.53	27733.01
505.71	27597.26
505.88	27901.53
506.06	27173.62
506.23	27461.51
506.41	27847.69
506.58	27690.88
506.76	27955.36
506.93	27974.08
507.11	27992.81
507.28	28170.69
507.46	27974.08
507.63	28261.97
507.81	28187.07
507.98	28341.55
508.16	28589.64
508.33	28109.83
508.50	28854.12
508.68	29010.94
508.85	29039.03
509.03	29041.37
509.20	29277.76
509.38	29577.35
509.55	29181.80
509.73	29771.61
509.90	29647.57
510.08	29369.04
510.25	29378.40
510.42	29497.77
510.60	29813.74
510.77	29905.02
510.95	30005.67
511.12	29916.73
511.30	30471.43
511.47	30232.70
511.64	30103.97
511.82	30085.25
511.99	30455.05
512.17	30642.29
512.34	30146.10
512.51	30242.06
512.69	30778.04
512.86	30883.37
513.04	30998.06
513.21	30944.22
513.38	31000.40
513.56	31058.91
513.73	30555.69
513.90	31126.78
514.08	31187.64
514.25	31304.67
514.43	30710.17
514.60	31323.39
514.77	31527.02
514.95	32034.91
515.12	31356.16
515.29	31618.30
515.47	31735.32
515.64	32058.32
515.81	31852.35
515.99	31711.92
516.16	31763.41
516.33	31505.95
516.51	31922.57
516.68	31644.04
516.85	31466.16
517.03	32048.96
517.20	32137.90
517.37	32524.08
517.54	32507.70
517.72	32187.05
517.89	32353.23
518.06	32196.41
518.24	32589.62
518.41	32376.63
518.58	32797.93
518.75	32889.21
518.93	33048.36
519.10	33078.79
519.27	32893.89
519.45	32774.52
519.62	33638.18
519.79	33244.97
519.96	33380.72
520.14	33942.45
520.31	33453.28
520.48	33483.70
520.65	33364.34
520.83	33813.72
521.00	33584.35
521.17	33689.67
521.34	34003.30
521.52	33528.17
521.69	34197.57
521.86	34476.09
522.03	34038.41
522.20	34656.31
522.38	34801.43
522.55	34841.21
522.72	34508.86
522.89	34410.56
523.07	34831.85
523.24	34773.34
523.41	34899.73
523.58	34752.27
523.75	34993.35
523.92	34955.90
524.10	34944.20
524.27	34972.28
524.44	35276.55
524.61	35505.93
524.78	35232.08
524.96	35510.61
525.13	35452.09
525.30	35494.22
525.47	35674.45
525.64	35955.31
525.81	35393.58
525.98	35276.55
526.16	35374.86
526.33	35349.11
526.50	35812.54
526.67	35470.82
526.84	35526.99
527.01	35583.16
527.18	35835.94
527.36	36444.48
527.53	35992.76
527.70	36538.10
527.87	36355.54
528.04	36343.84
528.21	36360.22
528.38	36348.52
528.55	36821.31
528.72	36566.19
528.89	36914.93
529.07	36910.25
529.24	36392.99
529.41	36692.58
529.58	36577.89
529.75	36451.50
529.92	37031.96
530.09	36786.20
530.26	37067.06
530.43	37319.84
530.60	37036.64
530.77	37153.66
530.94	37418.14
531.11	37053.02
531.28	37160.69
531.46	37649.86
531.63	37282.39
531.80	38122.65
531.97	37677.94
532.14	37385.38
532.31	37226.22
532.48	37549.21
532.65	37806.67
532.82	37687.31
532.99	37738.80
533.16	37535.17
533.33	37893.27
533.50	37766.88
533.67	38038.39
533.84	37511.77
534.01	37825.40
534.18	38267.76
534.35	38024.34
534.52	38251.38
534.69	38242.01
534.86	38394.15
535.03	38171.80
535.20	38827.15
535.37	38857.57
535.54	39054.18
535.71	38689.06
535.88	38478.41
536.05	38337.98
536.22	38752.25
536.38	38501.81
536.55	38485.43
536.72	38824.81
536.89	38766.29
537.06	38803.74
537.23	38799.06
537.40	38759.27
537.57	39154.82
537.74	38761.61
537.91	39351.43
538.08	39257.81
538.25	39267.17
538.42	39192.27
538.59	39541.01
538.75	39164.18
538.92	39557.39
539.09	39658.04
539.26	39463.77
539.43	39538.67
539.60	39700.17
539.77	39611.23
539.94	39601.86
540.11	39423.98
540.28	39847.62
540.44	39639.31
540.61	39482.50
540.78	39590.16
540.95	39763.36
541.12	39625.27
541.29	39555.05
541.46	39669.74
541.62	39990.39
541.79	39636.97
541.96	39426.32
542.13	39770.38
542.30	39838.26
542.47	39782.09
542.63	39859.32
542.80	40229.13
542.97	40336.79
543.14	40690.21
543.31	40863.41
543.48	40591.91
543.64	40746.39
543.81	40959.38
543.98	40732.34
544.15	40662.13
544.32	41010.87
544.48	41092.79
544.65	40832.99
544.82	40821.28
544.99	41284.71
545.16	41287.05
545.32	40694.89
545.49	41312.80
545.66	41375.99
545.83	41347.90
546.00	41455.57
546.16	41280.03
546.33	41055.34
546.50	41116.19
546.67	41530.47
546.83	40933.63
547.00	40947.67
547.17	41404.08
547.34	41483.66
547.50	41720.05
547.67	41460.25
547.84	41565.57
548.00	41907.29
548.17	42068.79
548.34	41965.81
548.51	42050.06
548.67	42089.85
548.84	41933.04
549.01	41785.58
549.18	41675.58
549.34	41523.44
549.51	42082.83
549.68	41668.56
549.84	41958.78
550.01	42522.85
550.18	41975.17
550.34	42183.48
550.51	42033.68
550.68	42630.52
550.84	42342.63
551.01	42618.81
551.18	42398.80
551.34	42256.03
551.51	42667.97
551.68	42380.08
551.84	42513.49
552.01	42206.88
552.18	42506.47
552.34	42131.98
552.51	42593.07
552.68	42330.93
552.84	42724.14
553.01	43021.39
553.18	42878.61
553.34	42583.71
553.51	42431.57
553.67	42628.18
553.84	42707.76
554.01	42993.30
554.17	42801.38
554.34	42862.23
554.51	42473.70
554.67	43498.86
554.84	42653.92
555.00	43021.39
555.17	42761.59
555.33	42876.27
555.50	42660.94
555.67	43145.44
555.83	42796.70
556.00	43012.02
556.16	43498.86
556.33	43157.14
556.50	43143.09
556.66	43482.47
556.83	43136.07
556.99	43332.68
557.16	43016.71
557.32	43412.26
557.49	43512.90
557.65	43194.59
557.82	43573.75
557.98	43583.12
558.15	43185.22
558.32	43545.67
558.48	43536.30
558.65	43496.52
558.81	43002.66
558.98	43367.79
559.14	43583.12
559.31	43353.74
559.47	43384.17
559.64	43639.29
559.80	43494.18
559.97	43529.28
560.13	42890.32
560.30	43393.53
560.46	43456.73
560.63	43545.67
560.79	43917.81
560.96	43650.99
561.12	43206.29
561.29	43901.43
561.45	43833.55
561.61	43716.53
561.78	43681.42
561.94	43454.39
562.11	43821.85
562.27	43524.60
562.44	43658.01
562.60	43536.30
562.77	44011.43
562.93	43578.43
563.10	44107.40
563.26	43323.32
563.42	43885.04
563.59	43538.65
563.75	43854.62
563.92	43840.57
564.08	44182.29
564.24	43906.11
564.41	44165.91
564.57	43948.24
564.74	44203.36
564.90	44208.04
565.07	43936.54
565.23	44053.56
565.39	44191.65
565.56	43927.17
565.72	43913.13
565.88	43744.61
566.05	43262.46
566.21	44112.08
566.38	43964.62
566.54	43966.96
566.70	44364.85
566.87	44975.73
567.03	44381.24
567.19	44444.43
567.36	44121.44
567.52	44388.26
567.68	44437.41
567.85	44367.20
568.01	44367.20
568.17	44224.42
568.34	44308.68
568.50	44109.74
568.66	43889.73
568.83	44514.65
568.99	44233.78
569.15	44004.41
569.32	43990.37
569.48	43842.92
569.64	44233.78
569.81	44528.69
569.97	44158.89
570.13	44556.78
570.30	44355.49
570.46	44282.94
570.62	43789.08
570.78	44004.41
570.95	44357.83
571.11	44704.23
571.27	44123.78
571.43	44027.82
571.60	44135.48
571.76	43964.62
571.92	44554.44
572.09	43859.30
572.25	44360.17
572.41	44243.15
572.57	44474.86
572.74	44992.12
572.90	44561.46
573.06	44542.74
573.22	44385.92
573.38	44545.08
573.55	44177.61
573.71	44336.77
573.87	44423.37
574.03	44617.63
574.20	44648.06
574.36	44210.38
574.52	44327.41
574.68	44339.11
574.84	44336.77
575.01	44392.94
575.17	44282.94
575.33	44481.88
575.49	43983.35
575.65	44781.47
575.82	44783.81
575.98	44987.44
576.14	44657.42
576.30	45270.64
576.46	44554.44
576.62	44453.79
576.79	44535.71
576.95	44367.20
577.11	44863.39
577.27	44432.73
577.43	44610.61
577.59	44645.72
577.75	44701.89
577.92	44137.82
578.08	44147.18
578.24	44210.38
578.40	44016.11
578.56	44725.30
578.72	44357.83
578.88	44931.26
579.04	44989.78
579.21	44484.22
579.37	44566.14
579.53	44285.28
579.69	44545.08
579.85	44690.19
580.01	44933.60
580.17	44928.92
580.33	44828.28
580.49	44687.85
580.65	44421.03
580.82	44786.15
580.98	44334.43
581.14	44495.92
581.30	45134.89
581.46	44837.64
581.62	44802.53
581.78	44872.75
581.94	44891.48
582.10	44699.55
582.26	44519.33
582.42	44940.63
582.58	44456.14
582.74	44449.11
582.90	44938.29
583.06	45125.53
583.22	45324.47
583.38	45109.14
583.54	45015.52
583.70	45097.44
583.86	44898.50
584.02	44451.45
584.18	44648.06
584.34	44547.42
584.50	44818.92
584.66	44622.31
584.82	44612.95
584.98	44952.33
585.14	44912.54
585.30	44732.32
585.46	44964.03
585.62	44858.71
585.78	44540.39
585.94	44041.86
586.10	44760.40
586.26	44762.75
586.42	44605.93
586.58	44957.01
586.74	44786.15
586.90	44645.72
587.06	44931.26
587.22	44350.81
587.38	44575.50
587.54	45038.93
587.70	44552.10
587.86	44905.52
588.02	44662.10
588.18	45076.38
588.34	44516.99
588.49	44458.48
588.65	43791.42
588.81	44137.82
588.97	44533.37
589.13	44093.35
589.29	44910.20
589.45	44437.41
589.61	44882.11
589.77	45111.49
589.93	44835.30
590.08	45041.27
590.24	44947.65
