SpectraSuite Data File
++++++++++++++++++++++++++++++++++++
Date: Fri Oct 25 11:25:23 EDT 2013
User: price-jones
Dark Spectrum Present: No
Reference Spectrum Present: No
Number of Sampled Component Spectra: 1
Spectrometers: USB2+H05261
Integration Time (usec): 100000 (USB2+H05261)
Spectra Averaged: 1 (USB2+H05261)
Boxcar Smoothing: 0 (USB2+H05261)
Correct for Electrical Dark: No (USB2+H05261)
Strobe/Lamp Enabled: No (USB2+H05261)
Correct for Detector Non-linearity: No (USB2+H05261)
Correct for Stray Light: No (USB2+H05261)
Number of Pixels in Processed Spectrum: 2048
>>>>>Begin Processed Spectral Data<<<<<
365.73	128.73
365.92	128.73
366.12	128.73
366.32	154.48
366.52	114.69
366.72	105.32
366.91	25.75
367.11	184.90
367.31	72.56
367.51	93.62
367.70	112.35
367.90	156.82
368.10	25.75
368.30	124.05
368.49	86.60
368.69	112.35
368.89	173.20
369.09	175.54
369.28	124.05
369.48	126.39
369.68	198.95
369.87	191.92
370.07	184.90
370.27	245.76
370.47	383.85
370.66	564.07
370.86	641.31
371.06	678.76
371.25	669.39
371.45	617.90
371.65	681.10
371.84	702.16
372.04	641.31
372.24	781.74
372.44	732.59
372.63	767.70
372.83	702.16
373.03	760.67
373.22	772.38
373.42	723.23
373.62	781.74
373.81	830.89
374.01	875.36
374.21	758.33
374.40	772.38
374.60	877.70
374.79	821.53
374.99	835.57
375.19	835.57
375.38	816.85
375.58	786.42
375.78	880.04
375.97	903.45
376.17	861.32
376.37	894.08
376.56	861.32
376.76	887.06
376.95	931.53
377.15	917.49
377.35	875.36
377.54	905.79
377.74	903.45
377.93	976.00
378.13	891.74
378.33	950.26
378.52	816.85
378.72	940.90
378.91	961.96
379.11	1001.75
379.31	983.02
379.50	912.81
379.70	1057.92
379.89	1011.11
380.09	983.02
380.28	971.32
380.48	964.30
380.68	912.81
380.87	912.81
381.07	954.94
381.26	1062.60
381.46	954.94
381.65	1036.86
381.85	1095.37
382.04	1069.62
382.24	1074.31
382.43	1118.78
382.63	1095.37
382.83	1069.62
383.02	1036.86
383.22	1088.35
383.41	1107.07
383.61	1109.41
383.80	1151.54
384.00	1116.44
384.19	1165.59
384.39	1076.65
384.58	1167.93
384.78	1081.33
384.97	1116.44
385.17	1165.59
385.36	1263.89
385.56	1142.18
385.75	1086.01
385.95	1177.29
386.14	1149.20
386.34	1163.25
386.53	1280.27
386.72	1200.69
386.92	1221.76
387.11	1217.08
387.31	1240.48
387.50	1263.89
387.70	1252.19
387.89	1275.59
388.09	1268.57
388.28	1315.38
388.48	1306.02
388.67	1289.64
388.86	1301.34
389.06	1310.70
389.25	1343.47
389.45	1317.72
389.64	1259.21
389.84	1315.38
390.03	1362.19
390.22	1404.32
390.42	1341.13
390.61	1462.83
390.81	1430.07
391.00	1420.71
391.19	1453.47
391.39	1416.02
391.58	1533.05
391.78	1416.02
391.97	1397.30
392.16	1404.32
392.36	1647.74
392.55	1523.69
392.75	1516.67
392.94	1493.26
393.13	1584.54
393.33	1511.99
393.52	1570.50
393.71	1537.73
393.91	1626.67
394.10	1526.03
394.29	1537.73
394.49	1603.27
394.68	1671.14
394.88	1664.12
395.07	1614.97
395.26	1558.80
395.46	1643.06
395.65	1568.16
395.84	1645.40
396.04	1860.73
396.23	1654.76
396.42	1713.27
396.62	1809.23
396.81	1820.94
397.00	1792.85
397.19	1755.40
397.39	1746.04
397.58	1825.62
397.77	1771.79
397.97	1842.00
398.16	1842.00
398.35	1830.30
398.55	1820.94
398.74	1933.28
398.93	1781.15
399.12	1928.60
399.32	1952.01
399.51	1905.20
399.70	1905.20
399.90	1937.96
400.09	2036.27
400.28	2050.31
400.47	1989.46
400.67	2057.33
400.86	2012.86
401.05	2071.37
401.24	2052.65
401.44	2080.74
401.63	2106.48
401.82	2143.93
402.01	2125.21
402.21	2167.34
402.40	2202.44
402.59	2129.89
402.78	2120.53
402.97	2319.47
403.17	2230.53
403.36	2319.47
403.55	2195.42
403.74	2410.75
403.93	2331.17
404.13	2361.60
404.32	2312.45
404.51	2328.83
404.70	2370.96
404.89	2286.70
405.09	2431.82
405.28	2366.28
405.47	2452.88
405.66	2513.74
405.85	2562.89
406.05	2424.80
406.24	2551.18
406.43	2553.52
406.62	2607.36
406.81	2665.87
407.00	2497.35
407.20	2511.39
407.39	2684.59
407.58	2708.00
407.77	2719.70
407.96	2743.11
408.15	2771.19
408.34	2731.41
408.54	2836.73
408.73	2710.34
408.92	2825.03
409.11	2895.24
409.30	2904.60
409.49	2860.13
409.68	2867.16
409.87	2850.77
410.07	3014.61
410.26	3009.93
410.45	2974.82
410.64	3049.72
410.83	3108.23
411.02	3108.23
411.21	3087.17
411.40	3131.64
411.59	3110.57
411.78	3269.73
411.98	3227.60
412.17	3248.66
412.36	3358.67
412.55	3213.56
412.74	3377.39
412.93	3293.13
413.12	3332.92
413.31	3471.01
413.50	3503.78
413.69	3400.80
413.88	3637.19
414.07	3555.27
414.26	3571.66
414.45	3578.68
414.64	3618.47
414.83	3728.47
415.02	3803.37
415.22	3779.97
415.41	3833.80
415.60	3838.48
415.79	3786.99
415.98	3911.04
416.17	3899.33
416.36	3885.29
416.55	3976.57
416.74	4025.72
416.93	4074.87
417.12	4124.02
417.31	4107.64
417.50	4173.18
417.69	4222.33
417.88	4184.88
418.07	4278.50
418.26	4304.25
418.45	4294.88
418.64	4571.07
418.83	4332.33
419.02	4245.73
419.21	4500.85
419.39	4358.08
419.58	4423.61
419.77	4367.44
419.96	4421.27
420.15	4720.86
420.34	4470.42
420.53	4568.73
420.72	4685.75
420.91	4638.94
421.10	4650.64
421.29	4631.92
421.48	4585.11
421.67	4695.11
421.86	4683.41
422.05	4854.27
422.24	4788.74
422.43	4910.44
422.61	4755.97
422.80	4891.72
422.99	4901.08
423.18	4985.34
423.37	5001.72
423.56	4732.56
423.75	4802.78
423.94	4924.49
424.13	4451.70
424.32	4807.46
424.50	4884.70
424.69	5008.75
424.88	5064.92
425.07	4959.60
425.26	4950.23
425.45	4929.17
425.64	4917.47
425.83	5043.85
426.01	5198.33
426.20	5048.54
426.39	4971.30
426.58	4896.40
426.77	5067.26
426.96	5097.69
427.15	5118.75
427.33	5291.95
427.52	5135.14
427.71	5327.06
427.90	5109.39
428.09	5320.04
428.28	5320.04
428.46	5268.55
428.65	5282.59
428.84	5373.87
429.03	5364.51
429.22	5301.31
429.40	5355.15
429.59	5352.81
429.78	5226.42
429.97	5408.98
430.16	5430.04
430.34	5490.90
430.53	5774.10
430.72	5488.56
430.91	5575.16
431.10	5614.95
431.28	5802.19
431.47	5753.04
431.66	5919.21
431.85	5734.31
432.03	5851.34
432.22	6022.20
432.41	5795.17
432.60	5727.29
432.79	5907.51
432.97	5872.40
433.16	6015.18
433.35	5977.73
433.54	6022.20
433.72	6064.33
433.91	6164.97
434.10	6064.33
434.28	5956.66
434.47	6282.00
434.66	6296.04
434.85	6319.45
435.03	6462.22
435.22	6319.45
435.41	6401.37
435.59	6424.77
435.78	6431.79
435.97	6272.64
436.16	6384.98
436.34	6370.94
436.53	6307.74
436.72	6614.35
436.90	6410.73
437.09	6679.89
437.28	6490.31
437.46	6581.59
437.65	6771.17
437.84	6497.33
438.02	6686.91
438.21	6871.81
438.40	6792.23
438.58	6927.99
438.77	6984.16
438.96	6857.77
439.14	6991.18
439.33	7098.84
439.52	7080.12
439.70	7028.63
439.89	7084.80
440.08	7300.13
440.26	7398.43
440.45	7314.17
440.63	7316.51
440.82	7681.64
441.01	7297.79
441.19	7293.11
441.38	7466.31
441.57	7557.59
441.75	7630.15
441.94	8072.51
442.12	7903.99
442.31	7925.05
442.50	7805.69
442.68	7815.05
442.87	8156.77
443.05	7911.01
443.24	8147.40
443.43	8116.98
443.61	8002.29
443.80	8262.09
443.98	7929.74
444.17	7772.92
444.35	8053.78
444.54	8234.00
444.73	8360.39
444.91	8238.69
445.10	8238.69
445.28	8269.11
445.47	8320.60
445.65	8201.24
445.84	8369.76
446.02	8201.24
446.21	8217.62
446.39	8374.44
446.58	8484.44
446.77	8358.05
446.95	8383.80
447.14	8386.14
447.32	8423.59
447.51	8292.52
447.69	8519.55
447.88	8472.74
448.06	8667.00
448.25	8500.83
448.43	8699.77
448.62	8397.84
448.80	8531.25
448.99	8802.75
449.17	8652.96
449.36	8781.69
449.54	8844.88
449.73	8821.48
449.91	8896.38
450.10	8828.50
450.28	9001.70
450.46	9015.74
450.65	8947.87
450.83	8997.02
451.02	8898.72
451.20	9111.71
451.39	9027.45
451.57	9071.92
451.76	9130.43
451.94	9289.59
452.13	9160.86
452.31	9345.76
452.49	9282.56
452.68	9397.25
452.86	9186.60
453.05	9357.46
453.23	9448.74
453.42	9317.67
453.60	9511.94
453.78	9401.93
453.97	9329.38
454.15	9364.48
454.34	9570.45
454.52	9495.55
454.70	9516.62
454.89	9575.13
455.07	9657.05
455.26	9682.80
455.44	9980.04
455.62	9870.04
455.81	9881.74
455.99	10066.64
456.17	10061.96
456.36	9888.76
456.54	9900.47
456.73	10153.24
456.91	10537.09
457.09	10363.89
457.28	10394.32
457.46	10178.99
457.64	10429.43
457.83	10204.74
458.01	10363.89
458.19	10588.58
458.38	10429.43
458.56	10539.43
458.74	10499.64
458.93	10516.03
459.11	10677.52
459.29	10511.35
459.48	10754.76
459.66	10691.57
459.84	10789.87
460.03	10820.30
460.21	10766.46
460.39	11033.29
460.57	10925.62
460.76	11105.84
460.94	11274.36
461.12	10963.07
461.31	11126.91
461.49	11166.70
461.67	11290.74
461.85	11265.00
462.04	11187.76
462.22	11632.46
462.40	11389.05
462.59	11454.58
462.77	11391.39
462.95	11550.54
463.13	11384.37
463.32	11473.31
463.50	11440.54
463.68	11630.12
463.86	11613.74
464.05	11690.98
464.23	11506.07
464.41	11971.84
464.59	11307.13
464.78	12152.06
464.96	11896.94
465.14	11782.26
465.32	11845.45
465.50	12215.26
465.69	11999.93
465.87	11981.20
466.05	11985.88
466.23	12147.38
466.41	12226.96
466.60	12388.46
466.78	12074.82
466.96	12145.04
467.14	12257.39
467.32	12266.75
467.51	12512.50
467.69	11946.09
467.87	12430.59
468.05	12578.04
468.23	12479.74
468.41	12203.55
468.60	12461.01
468.78	12723.15
468.96	12500.80
469.14	12648.26
469.32	12922.10
469.50	12493.78
469.69	12812.09
469.87	12821.45
470.05	12980.61
470.23	12959.55
470.41	12725.49
470.59	13525.96
470.77	12961.89
470.95	13088.28
471.14	13451.06
471.32	12961.89
471.50	13631.28
471.68	13556.38
471.86	13425.31
472.04	13621.92
472.22	13741.29
472.40	13570.43
472.58	13757.67
472.77	13991.72
472.95	14176.62
473.13	14401.32
473.31	14040.87
473.49	14031.51
473.67	14111.09
473.85	14202.37
474.03	14267.91
474.21	14630.69
474.39	14518.34
474.57	14705.59
474.75	14595.58
474.93	15012.20
475.12	14626.01
475.30	15012.20
475.48	15091.77
475.66	15096.46
475.84	15030.92
476.02	15297.74
476.20	15470.94
476.38	15679.25
476.56	15784.57
476.74	15616.05
476.92	15520.09
477.10	15524.77
477.28	15967.13
477.46	16137.99
477.64	16423.54
477.82	16524.18
478.00	16882.28
478.18	16727.81
478.36	16893.99
478.54	17011.01
478.72	17270.81
478.90	17242.73
479.08	17563.38
479.26	17547.00
479.44	17628.92
479.62	17781.05
479.80	18106.38
479.98	17944.89
480.16	18361.50
480.34	18066.60
480.52	18403.63
480.70	18586.19
480.88	18384.91
481.06	18628.32
481.24	18682.16
481.41	18766.42
481.59	19183.03
481.77	19419.42
481.95	19150.26
482.13	19662.84
482.31	19407.72
482.49	20236.27
482.67	20070.09
482.85	20325.21
483.03	20355.64
483.21	20589.69
483.39	20798.00
483.57	20954.82
483.74	20849.49
483.92	21167.80
484.10	20812.04
484.28	21752.94
484.46	21717.83
484.64	22272.54
484.82	21994.01
485.00	22059.55
485.18	22731.28
485.35	22745.33
485.53	22820.22
485.71	22843.63
485.89	23407.70
486.07	23129.17
486.25	23440.47
486.43	23480.25
486.61	23674.52
486.78	24081.77
486.96	24081.77
487.14	24556.90
487.32	24493.71
487.50	24599.03
487.68	24748.82
487.85	25015.65
488.03	25619.50
488.21	25633.55
488.39	25717.81
488.57	25888.67
488.75	25937.82
488.92	26270.17
489.10	26178.89
489.28	26291.24
489.46	26937.23
489.64	26728.92
489.81	27047.23
489.99	27447.46
490.17	27461.51
490.35	27948.34
490.53	27868.76
490.70	28446.87
490.88	28465.60
491.06	28629.43
491.24	28591.98
491.41	28481.98
491.59	29223.93
491.77	29172.44
491.95	29223.93
492.13	29876.94
492.30	29656.93
492.48	30057.16
492.66	29968.22
492.84	30235.04
493.01	30684.42
493.19	30270.15
493.37	30969.97
493.54	30981.67
493.72	31185.30
493.90	31309.35
494.08	31309.35
494.25	31711.92
494.43	31576.17
494.61	32123.85
494.79	32385.99
494.96	32196.41
495.14	32753.46
495.32	32877.51
495.49	33010.92
495.67	32683.24
495.85	33347.95
496.02	33457.96
496.20	33888.62
496.38	33862.87
496.55	33860.53
496.73	34431.62
496.91	34052.45
497.09	34188.21
497.26	34815.47
497.44	34705.46
497.62	35086.97
497.79	35131.44
497.97	35173.57
498.14	35695.51
498.32	36140.21
498.50	36402.35
498.67	36259.58
498.85	35992.76
499.03	36449.16
499.20	36297.03
499.38	36830.67
499.56	36432.78
499.73	36559.17
499.91	36713.64
500.08	37345.59
500.26	37092.81
500.44	37214.52
500.61	37310.48
500.79	37317.50
500.97	37448.57
501.14	38178.82
501.32	38602.46
501.49	38036.05
501.67	38438.62
501.84	38696.08
502.02	38359.04
502.20	38763.95
502.37	38782.68
502.55	38962.90
502.72	39175.89
502.90	39271.85
503.07	39335.04
503.25	39175.89
503.43	39189.93
503.60	39665.06
503.78	40039.54
503.95	40353.18
504.13	40023.16
504.30	40362.54
504.48	40325.09
504.65	40566.16
504.83	41027.25
505.01	40975.76
505.18	40935.97
505.36	40999.16
505.53	40704.26
505.71	41333.86
505.88	41881.55
506.06	41036.61
506.23	41298.75
506.41	41743.45
506.58	42174.11
506.76	41680.26
506.93	42326.25
507.11	42127.30
507.28	42356.67
507.46	42312.20
507.63	42813.08
507.81	42897.34
507.98	42469.02
508.16	42572.00
508.33	43084.58
508.50	42885.64
508.68	43227.35
508.85	43597.16
509.03	43721.21
509.20	43325.66
509.38	44243.15
509.55	44091.01
509.73	44250.17
509.90	44182.29
510.08	44346.13
510.25	44528.69
510.42	44474.86
510.60	44561.46
510.77	44825.94
510.95	45120.85
511.12	45062.33
511.30	44875.09
511.47	45043.61
511.64	45275.32
511.82	45200.43
511.99	45347.88
512.17	45949.40
512.34	45492.99
512.51	46127.28
512.69	46447.93
512.86	46181.11
513.04	46171.75
513.21	46316.86
513.38	46527.51
513.56	46527.51
513.73	46700.71
513.90	46883.27
514.08	46157.70
514.25	47517.56
514.43	46899.65
514.60	47143.07
514.77	46906.68
514.95	47592.45
515.12	47463.72
515.29	47620.54
515.47	47758.63
515.64	47784.38
515.81	47400.53
515.99	48002.05
516.16	48243.12
516.33	47943.53
516.51	48425.68
516.68	47985.66
516.85	48673.78
517.03	48666.76
517.20	48589.52
517.37	48474.84
517.54	48659.74
517.72	48994.43
517.89	48329.72
518.06	48884.43
518.24	48797.83
518.41	49202.74
518.58	49322.11
518.75	49027.20
518.93	48851.66
519.10	49331.47
519.27	49401.69
519.45	49647.44
519.62	49642.76
519.79	49832.35
519.96	49837.03
520.14	49778.51
520.31	49970.44
520.48	50218.53
520.65	49986.82
520.83	50459.61
521.00	50375.35
521.17	50459.61
521.34	50309.82
521.52	50646.85
521.69	50272.37
521.86	50721.75
522.03	51405.19
522.20	50887.93
522.38	51124.32
522.55	51056.45
522.72	51501.15
522.89	51037.72
523.07	51580.73
523.24	51201.56
523.41	51248.37
523.58	51278.80
523.75	51552.64
523.92	51311.56
524.10	51592.43
524.27	51810.10
524.44	51629.88
524.61	51702.43
524.78	52079.26
524.96	51810.10
525.13	51807.76
525.30	52343.74
525.47	52137.77
525.64	52530.98
525.81	51952.87
525.98	52357.78
526.16	52306.29
526.33	52313.31
526.50	52608.22
526.67	52690.14
526.84	52673.76
527.01	52640.99
527.18	52963.98
527.36	52781.42
527.53	52699.50
527.70	53394.64
527.87	53209.74
528.04	52994.41
528.21	52942.92
528.38	53092.71
528.55	53399.32
528.72	53151.23
528.89	53310.38
529.07	53216.76
529.24	53471.88
529.41	53385.28
529.58	53752.74
529.75	53359.53
529.92	53567.84
530.09	53612.31
530.26	53537.41
530.43	53745.72
530.60	53722.32
530.77	53612.31
530.94	53858.07
531.11	53930.62
531.28	54064.03
531.46	53888.49
531.63	54115.53
531.80	54061.69
531.97	54197.44
532.14	54255.96
532.31	54216.17
532.48	54382.35
532.65	54478.31
532.82	53975.09
532.99	54176.38
533.16	54354.26
533.33	54574.27
533.50	54700.66
533.67	54607.04
533.84	54728.75
534.01	54728.75
534.18	54550.87
534.35	55121.96
534.52	54801.30
534.69	54962.80
534.86	55178.13
535.03	55054.08
535.20	54993.23
535.37	55014.29
535.54	55033.02
535.71	54941.74
535.88	55358.35
536.05	55164.09
536.22	55428.57
536.38	55487.08
536.55	55444.95
536.72	55440.27
536.89	55449.63
537.06	55351.33
537.23	55753.90
537.40	55288.13
537.57	55416.86
537.74	55639.22
537.91	55798.37
538.08	55789.01
538.25	55571.34
538.42	55807.73
538.59	55800.71
538.75	55735.18
538.92	55559.64
539.09	56069.87
539.26	55779.65
539.43	56058.17
539.60	56154.13
539.77	55917.74
539.94	56083.92
540.11	56193.92
540.28	56427.98
540.44	56332.01
540.61	56126.05
540.78	56350.74
540.95	56313.29
541.12	56100.30
541.29	56149.45
541.46	56172.86
541.62	56278.18
541.79	56292.22
541.96	55941.14
542.13	56355.42
542.30	56399.89
542.47	56514.58
542.63	56537.98
542.80	56886.72
542.97	57125.46
543.14	56811.82
543.31	57116.09
543.48	57050.56
543.64	57361.85
543.81	57188.65
543.98	57352.49
544.15	57118.43
544.32	57237.80
544.48	57361.85
544.65	57090.35
544.82	57235.46
544.99	56954.60
545.16	57216.74
545.32	57310.36
545.49	57396.96
545.66	57347.81
545.83	57286.95
546.00	57563.14
546.16	57350.15
546.33	57293.97
546.50	57490.58
546.67	57525.69
546.83	57403.98
547.00	57429.72
547.17	57429.72
547.34	57509.30
547.50	57968.05
547.67	57855.70
547.84	57808.89
548.00	57963.37
548.17	57972.73
548.34	58064.01
548.51	58106.14
548.67	58040.60
548.84	57949.32
549.01	57982.09
549.18	58096.78
549.34	58026.56
549.51	58211.46
549.68	58094.44
549.84	58026.56
550.01	58232.53
550.18	58174.02
550.34	58394.03
550.51	58347.21
550.68	58244.23
550.84	58021.88
551.01	58426.79
551.18	58159.97
551.34	58190.40
551.51	58412.75
551.68	58438.50
551.84	58571.91
552.01	58445.52
552.18	58571.91
552.34	58539.14
552.51	58646.80
552.68	58244.23
552.84	58480.63
553.01	58635.10
553.18	58899.58
553.34	58845.75
553.51	58585.95
553.67	58726.38
553.84	58611.70
554.01	58756.81
554.17	58857.45
554.34	58787.24
554.51	59028.31
554.67	58908.94
554.84	58873.84
555.00	58803.62
555.17	58897.24
555.33	58815.32
555.50	58866.81
555.67	58810.64
555.83	58983.84
556.00	58941.71
556.16	59051.72
556.33	59086.82
556.50	59281.09
556.66	59194.49
556.83	58930.01
556.99	59098.53
557.16	59145.34
557.32	59269.39
557.49	59536.21
557.65	59426.20
557.82	59093.85
557.98	59311.52
558.15	59320.88
558.32	59185.13
558.48	59103.21
558.65	59414.50
558.81	59503.44
558.98	59370.03
559.14	59243.64
559.31	59508.12
559.47	59578.34
559.64	59641.53
559.80	59678.98
559.97	59494.08
560.13	59423.86
560.30	59482.37
560.46	59611.10
560.63	59711.75
560.79	59674.30
560.96	59526.84
561.12	59793.67
561.29	59714.09
561.45	59571.32
561.61	59777.28
561.78	59545.57
561.94	59601.74
562.11	59732.81
562.27	59810.05
562.44	59800.69
562.60	59920.05
562.77	59781.96
562.93	59777.28
563.10	59896.65
563.26	59966.87
563.42	59877.93
563.59	59695.36
563.75	59772.60
563.92	59653.23
564.08	59781.96
564.24	60149.43
564.41	59817.07
564.57	60041.76
564.74	60034.74
564.90	60121.34
565.07	60079.21
565.23	59714.09
565.39	59868.56
565.56	59962.18
565.72	59950.48
565.88	59943.46
566.05	59927.08
566.21	60144.75
566.38	59983.25
566.54	60168.15
566.70	60233.69
566.87	60233.69
567.03	60006.65
567.19	60172.83
567.36	60327.31
567.52	60088.57
567.68	60303.90
567.85	60095.60
568.01	60348.37
568.17	60229.01
568.34	60250.07
568.50	60161.13
568.66	60048.78
568.83	60439.65
568.99	60289.86
569.15	60308.58
569.32	60196.24
569.48	60147.09
569.64	60549.66
569.81	60395.18
569.97	60226.66
570.13	60200.92
570.30	60107.30
570.46	60385.82
570.62	60383.48
570.78	60285.18
570.95	60425.61
571.11	60587.11
571.27	60346.03
571.43	60320.29
571.60	60570.72
571.76	60303.90
571.92	60530.93
572.09	60416.25
572.25	60460.72
572.41	60488.80
572.57	60491.15
572.74	60683.07
572.90	60324.97
573.06	60327.31
573.22	60388.16
573.38	60643.28
573.55	60388.16
573.71	60619.88
573.87	60409.23
574.03	60397.52
574.20	60631.58
574.36	60537.96
574.52	60636.26
574.68	60739.24
574.84	60463.06
575.01	60603.49
575.17	60608.17
575.33	60561.36
575.49	60479.44
575.65	60500.51
575.82	60446.68
575.98	60582.43
576.14	60699.45
576.30	60788.39
576.46	60568.38
576.62	60516.89
576.79	60556.68
576.95	60434.97
577.11	60741.58
577.27	60685.41
577.43	60465.40
577.59	60556.68
577.75	60598.81
577.92	60584.77
578.08	60748.60
578.24	60657.32
578.40	60732.22
578.56	60729.88
578.72	60645.62
578.88	60947.55
579.04	60659.66
579.21	60708.82
579.37	60914.78
579.53	61020.11
579.69	60643.28
579.85	60488.80
580.01	60666.69
580.17	60530.93
580.33	60839.89
580.49	60818.82
580.65	60931.17
580.82	60736.90
580.98	60671.37
581.14	60629.24
581.30	60748.60
581.46	60846.91
581.62	60615.19
581.78	60743.92
581.94	60830.52
582.10	60846.91
582.26	60678.39
582.42	60776.69
582.58	60844.57
582.74	60830.52
582.90	60877.33
583.06	60893.72
583.22	60685.41
583.38	60790.73
583.54	60713.50
583.70	60863.29
583.86	60683.07
584.02	60839.89
584.18	60914.78
584.34	61015.43
584.50	60690.09
584.66	60760.31
584.82	60804.78
584.98	60879.67
585.14	60816.48
585.30	60748.60
585.46	60865.63
585.62	60746.26
585.78	60933.51
585.94	60755.63
586.10	60769.67
586.26	60828.18
586.42	60853.93
586.58	60945.21
586.74	60722.86
586.90	60800.10
587.06	60807.12
587.22	61095.00
587.38	60893.72
587.54	60966.27
587.70	61214.37
587.86	60956.91
588.02	60889.04
588.18	61020.11
588.34	60762.65
588.49	60952.23
