SpectraSuite Data File
++++++++++++++++++++++++++++++++++++
Date: Fri Oct 25 11:26:12 EDT 2013
User: price-jones
Dark Spectrum Present: No
Reference Spectrum Present: No
Number of Sampled Component Spectra: 1
Spectrometers: USB2+H05261
Integration Time (usec): 100000 (USB2+H05261)
Spectra Averaged: 1 (USB2+H05261)
Boxcar Smoothing: 0 (USB2+H05261)
Correct for Electrical Dark: No (USB2+H05261)
Strobe/Lamp Enabled: No (USB2+H05261)
Correct for Detector Non-linearity: No (USB2+H05261)
Correct for Stray Light: No (USB2+H05261)
Number of Pixels in Processed Spectrum: 2048
>>>>>Begin Processed Spectral Data<<<<<
365.73	245.76
365.92	245.76
366.12	245.76
366.32	203.63
366.52	84.26
366.72	224.69
366.91	81.92
367.11	152.13
367.31	105.32
367.51	133.41
367.70	163.84
367.90	131.07
368.10	126.39
368.30	201.29
368.49	81.92
368.69	133.41
368.89	210.65
369.09	149.79
369.28	243.42
369.48	168.52
369.68	198.95
369.87	191.92
370.07	182.56
370.27	297.25
370.47	332.36
370.66	568.75
370.86	697.48
371.06	692.80
371.25	641.31
371.45	624.92
371.65	713.86
371.84	723.23
372.04	732.59
372.24	716.20
372.44	662.37
372.63	786.42
372.83	755.99
373.03	800.46
373.22	793.44
373.42	807.48
373.62	683.44
373.81	884.72
374.01	875.36
374.21	809.83
374.40	723.23
374.60	793.44
374.79	779.40
374.99	786.42
375.19	786.42
375.38	870.68
375.58	849.61
375.78	847.27
375.97	887.06
376.17	931.53
376.37	866.00
376.56	905.79
376.76	844.93
376.95	877.70
377.15	910.47
377.35	877.70
377.54	868.34
377.74	823.87
377.93	868.34
378.13	891.74
378.33	952.60
378.52	880.04
378.72	976.00
378.91	980.68
379.11	1022.81
379.31	1011.11
379.50	922.17
379.70	1022.81
379.89	994.73
380.09	926.85
380.28	987.71
380.48	966.64
380.68	1001.75
380.87	1006.43
381.07	933.87
381.26	1015.79
381.46	931.53
381.65	968.98
381.85	1039.20
382.04	1081.33
382.24	1018.13
382.43	1186.65
382.63	1036.86
382.83	1153.88
383.02	1104.73
383.22	1203.04
383.41	1135.16
383.61	1043.88
383.80	1156.22
384.00	1193.67
384.19	1067.28
384.39	1149.20
384.58	1130.48
384.78	1198.35
384.97	1252.19
385.17	1097.71
385.36	1107.07
385.56	1224.10
385.75	1104.73
385.95	1165.59
386.14	1224.10
386.34	1172.61
386.53	1240.48
386.72	1245.16
386.92	1259.21
387.11	1268.57
387.31	1212.40
387.50	1261.55
387.70	1331.76
387.89	1196.01
388.09	1277.93
388.28	1315.38
388.48	1217.08
388.67	1306.02
388.86	1289.64
389.06	1303.68
389.25	1427.73
389.45	1362.19
389.64	1268.57
389.84	1387.94
390.03	1416.02
390.22	1369.21
390.42	1392.62
390.61	1378.58
390.81	1411.34
391.00	1411.34
391.19	1493.26
391.39	1467.52
391.58	1446.45
391.78	1401.98
391.97	1488.58
392.16	1495.60
392.36	1570.50
392.55	1502.62
392.75	1565.82
392.94	1462.83
393.13	1467.52
393.33	1514.33
393.52	1493.26
393.71	1659.44
393.91	1598.59
394.10	1624.33
394.29	1626.67
394.49	1568.16
394.68	1603.27
394.88	1596.25
395.07	1624.33
395.26	1664.12
395.46	1638.38
395.65	1717.95
395.84	1659.44
396.04	1736.68
396.23	1792.85
396.42	1760.08
396.62	1795.19
396.81	1820.94
397.00	1736.68
397.19	1727.32
397.39	1802.21
397.58	1783.49
397.77	1799.87
397.97	1942.64
398.16	1865.41
398.35	2059.67
398.55	1881.79
398.74	1806.89
398.93	2001.16
399.12	1940.30
399.32	1886.47
399.51	1820.94
399.70	2017.54
399.90	1975.41
400.09	2097.12
400.28	1961.37
400.47	2026.90
400.67	2040.95
400.86	2064.35
401.05	1998.82
401.24	2092.44
401.44	2235.21
401.63	2190.74
401.82	2202.44
402.01	2104.14
402.21	2118.18
402.40	2101.80
402.59	2113.50
402.78	2155.63
402.97	2267.98
403.17	2312.45
403.36	2345.22
403.55	2296.07
403.74	2296.07
403.93	2312.45
404.13	2319.47
404.32	2366.28
404.51	2331.17
404.70	2347.56
404.89	2424.80
405.09	2483.31
405.28	2518.42
405.47	2427.14
405.66	2518.42
405.85	2506.71
406.05	2574.59
406.24	2511.39
406.43	2546.50
406.62	2576.93
406.81	2717.36
407.00	2663.53
407.20	2464.58
407.39	2548.84
407.58	2677.57
407.77	2738.43
407.96	2658.85
408.15	2754.81
408.34	2745.45
408.54	2736.09
408.73	2825.03
408.92	2839.07
409.11	2853.11
409.30	2878.86
409.49	2829.71
409.68	2839.07
409.87	2888.22
410.07	3000.57
410.26	3007.59
410.45	3091.85
410.64	3084.83
410.83	3117.59
411.02	3063.76
411.21	3204.19
411.40	3131.64
411.59	3236.96
411.78	3166.74
411.98	3241.64
412.17	3194.83
412.36	3272.07
412.55	3220.58
412.74	3351.65
412.93	3323.56
413.12	3370.37
413.31	3421.86
413.50	3485.06
413.69	3611.45
413.88	3576.34
414.07	3524.85
414.26	3536.55
414.45	3676.98
414.64	3634.85
414.83	3723.79
415.02	3819.75
415.22	3700.39
415.41	3875.93
415.60	3906.35
415.79	3789.33
415.98	3985.93
416.17	3915.72
416.36	3985.93
416.55	3969.55
416.74	3943.80
416.93	4037.42
417.12	4177.86
417.31	4257.43
417.50	4280.84
417.69	4149.77
417.88	4264.46
418.07	4229.35
418.26	4238.71
418.45	4358.08
418.64	4573.41
418.83	4489.15
419.02	4388.50
419.21	4411.91
419.39	4442.34
419.58	4573.41
419.77	4437.66
419.96	4622.56
420.15	4566.39
420.34	4641.28
420.53	4540.64
420.72	4617.88
420.91	4730.22
421.10	4711.50
421.29	4781.71
421.48	4634.26
421.67	4774.69
421.86	4688.09
422.05	4814.48
422.24	4816.82
422.43	4765.33
422.61	4777.03
422.80	4950.23
422.99	4880.02
423.18	4896.40
423.37	5144.50
423.56	4978.32
423.75	4873.00
423.94	4748.95
424.13	4636.60
424.32	4702.14
424.50	5015.77
424.69	5114.07
424.88	4997.04
425.07	4947.89
425.26	4779.37
425.45	4922.15
425.64	4910.44
425.83	4978.32
426.01	5142.16
426.20	5071.94
426.39	5018.11
426.58	4919.81
426.77	5149.18
426.96	5114.07
427.15	5064.92
427.33	5263.86
427.52	5167.90
427.71	5270.89
427.90	5317.70
428.09	5301.31
428.28	5327.06
428.46	5315.36
428.65	5287.27
428.84	5511.96
429.03	5483.88
429.22	5397.28
429.40	5427.70
429.59	5364.51
429.78	5369.19
429.97	5245.14
430.16	5404.30
430.34	5621.97
430.53	5558.77
430.72	5811.55
430.91	5636.01
431.10	5612.60
431.28	5694.52
431.47	5715.59
431.66	6097.10
431.85	5710.91
432.03	5792.83
432.22	5907.51
432.41	5879.43
432.60	5851.34
432.79	5977.73
432.97	6132.20
433.16	6017.52
433.35	5858.36
433.54	5991.77
433.72	5921.56
433.91	6242.21
434.10	6087.73
434.28	6017.52
434.47	6260.93
434.66	6125.18
434.85	6129.86
435.03	6338.17
435.22	6441.15
435.41	6282.00
435.59	6462.22
435.78	6413.07
435.97	6377.96
436.16	6300.72
436.34	6588.61
436.53	6686.91
436.72	6560.52
436.90	6551.16
437.09	6572.22
437.28	6354.55
437.46	6628.40
437.65	6759.47
437.84	6736.06
438.02	6726.70
438.21	6768.83
438.40	6511.37
438.58	6986.50
438.77	7255.66
438.96	6998.20
439.14	7117.57
439.33	7045.01
439.52	7283.75
439.70	7307.15
439.89	7204.17
440.08	7190.13
440.26	7372.69
440.45	7304.81
440.63	7508.44
440.82	7531.84
441.01	7508.44
441.19	7538.87
441.38	7754.19
441.57	7730.79
441.75	7770.58
441.94	7868.88
442.12	7850.16
442.31	7829.09
442.50	7995.27
442.68	7976.55
442.87	8023.36
443.05	7985.91
443.24	8166.13
443.43	8091.23
443.61	8241.03
443.80	8409.54
443.98	8088.89
444.17	7941.44
444.35	8234.00
444.54	8526.57
444.73	8091.23
444.91	8322.94
445.10	8287.84
445.28	8287.84
445.47	8257.41
445.65	8243.37
445.84	8383.80
446.02	8514.87
446.21	8355.71
446.39	8554.66
446.58	8402.52
446.77	8358.05
446.95	8133.36
447.14	8367.42
447.32	8557.00
447.51	8351.03
447.69	8549.98
447.88	8435.29
448.06	8409.54
448.25	8489.12
448.43	8407.20
448.62	8538.27
448.80	8482.10
448.99	8486.78
449.17	8594.45
449.36	8746.58
449.54	8830.84
449.73	8994.68
449.91	8908.08
450.10	8828.50
450.28	9048.51
450.46	9179.58
450.65	8917.44
450.83	9011.06
451.02	9053.19
451.20	9165.54
451.39	9235.75
451.57	9118.73
451.76	9057.87
451.94	9315.33
452.13	9036.81
452.31	9366.82
452.49	9085.96
452.68	9083.62
452.86	9453.42
453.05	9441.72
453.23	9483.85
453.42	9514.28
453.60	9404.27
453.78	9458.10
453.97	9305.97
454.15	9376.19
454.34	9572.79
454.52	9792.80
454.70	9696.84
454.89	9734.29
455.07	9722.59
455.26	9846.63
455.44	10071.33
455.62	9928.55
455.81	9980.04
455.99	10019.83
456.17	9895.78
456.36	10087.71
456.54	10169.63
456.73	10136.86
456.91	10305.38
457.09	10207.08
457.28	10314.74
457.46	10054.94
457.64	10490.28
457.83	10499.64
458.01	10270.27
458.19	10614.33
458.38	10457.51
458.56	10757.10
458.74	10630.71
458.93	10576.88
459.11	10764.12
459.29	10642.42
459.48	10705.61
459.66	10738.38
459.84	10752.42
460.03	10949.03
460.21	10937.32
460.39	10934.98
460.57	11068.39
460.76	11061.37
460.94	11246.27
461.12	11089.46
461.31	11037.97
461.49	11044.99
461.67	11339.90
461.85	11360.96
462.04	11400.75
462.22	11967.16
462.40	11648.85
462.59	11342.24
462.77	11054.35
462.95	11665.23
463.13	11501.39
463.32	11529.48
463.50	11763.53
463.68	11744.81
463.86	11672.25
464.05	11501.39
464.23	11597.35
464.41	11812.68
464.59	11604.38
464.78	12100.57
464.96	11939.07
465.14	11758.85
465.32	11906.31
465.50	12009.29
465.69	12053.76
465.87	12114.61
466.05	11913.33
466.23	12355.69
466.41	12276.11
466.60	12145.04
466.78	12109.93
466.96	12184.83
467.14	12156.74
467.32	12425.90
467.51	12528.89
467.69	12025.67
467.87	12343.99
468.05	12489.10
468.23	12493.78
468.41	12212.92
468.60	12561.66
468.78	12695.07
468.96	12547.61
469.14	12648.26
469.32	12851.88
469.50	12666.98
469.69	13018.06
469.87	13090.62
470.05	13207.64
470.23	12938.48
470.41	13174.88
470.59	13401.91
470.77	13111.68
470.95	13092.96
471.14	13540.00
471.32	12863.58
471.50	13441.70
471.68	13432.33
471.86	13387.86
472.04	13406.59
472.22	13774.05
472.40	13275.52
472.58	13951.93
472.77	13965.98
472.95	14061.94
473.13	14544.09
473.31	13947.25
473.49	13994.06
473.67	13825.54
473.85	14169.60
474.03	14497.28
474.21	14637.71
474.39	14707.93
474.57	14544.09
474.75	14764.10
474.93	14839.00
475.12	14848.36
475.30	14899.85
475.48	14941.98
475.66	15178.37
475.84	15051.99
476.02	15314.13
476.20	15538.82
476.38	15679.25
476.56	15925.00
476.74	15751.81
476.92	15758.83
477.10	15906.28
477.28	15997.56
477.46	16060.76
477.64	16542.91
477.82	16432.90
478.00	16821.43
478.18	16791.00
478.36	16812.07
478.54	17041.44
478.72	17095.27
478.90	17198.26
479.08	17867.65
479.26	17439.33
479.44	17511.89
479.62	17731.90
479.80	18221.07
479.98	18134.47
480.16	18895.14
480.34	18171.92
480.52	18450.44
480.70	18183.62
480.88	18450.44
481.06	18752.37
481.24	18618.96
481.41	18948.98
481.59	19110.47
481.77	19129.20
481.95	19307.08
482.13	19571.56
482.31	19506.02
482.49	20027.96
482.67	20042.01
482.85	20418.83
483.03	20608.42
483.21	20727.78
483.39	20781.62
483.57	20889.28
483.74	21015.67
483.92	21238.02
484.10	21043.76
484.28	21680.38
484.46	22104.02
484.64	22171.89
484.82	22033.80
485.00	22139.13
485.18	22485.53
485.35	22735.96
485.53	22897.46
485.71	22970.02
485.89	23428.76
486.07	23316.42
486.25	23332.80
486.43	23597.28
486.61	23917.93
486.78	23885.17
486.96	24161.35
487.14	24357.96
487.32	24491.37
487.50	24877.55
487.68	24657.54
487.85	25273.10
488.03	25404.17
488.21	25970.58
488.39	25778.66
488.57	25668.66
488.75	25919.09
488.92	25926.11
489.10	26513.59
489.28	26480.82
489.46	26925.52
489.64	27026.17
489.81	27744.71
489.99	27744.71
490.17	27763.43
490.35	27786.84
490.53	27824.29
490.70	28573.26
490.88	27866.42
491.06	28884.55
491.24	28486.66
491.41	29212.23
491.59	29247.33
491.77	29153.71
491.95	29612.46
492.13	29628.84
492.30	29647.57
492.48	29806.72
492.66	29867.58
492.84	30345.05
493.01	30663.36
493.19	30677.40
493.37	30913.80
493.54	30988.69
493.72	31459.14
493.90	31274.24
494.08	31482.55
494.25	32135.56
494.43	32231.52
494.61	31971.72
494.79	32498.34
494.96	32290.03
495.14	32327.48
495.32	33287.10
495.49	32870.48
495.67	33266.03
495.85	33287.10
496.02	33460.30
496.20	33926.07
496.38	34040.75
496.55	33940.11
496.73	34976.97
496.91	34478.43
497.09	35037.82
497.26	34684.40
497.44	34553.33
497.62	35166.55
497.79	35321.02
497.97	35601.89
498.14	35594.87
498.32	35742.32
498.50	36067.66
498.67	36367.24
498.85	36105.10
499.03	36191.70
499.20	36212.77
499.38	36341.50
499.56	36889.18
499.73	37125.58
499.91	36673.85
500.08	37490.70
500.26	37017.91
500.44	37673.26
500.61	37443.89
500.79	37317.50
500.97	38094.56
501.14	38532.24
501.32	38272.44
501.49	38078.18
501.67	39019.07
501.84	38707.78
502.02	38330.95
502.20	38827.15
502.37	39042.48
502.55	38829.49
502.72	39271.85
502.90	39203.97
503.07	39826.56
503.25	39517.60
503.43	39218.02
503.60	39700.17
503.78	39571.44
503.95	39742.30
504.13	40645.74
504.30	40582.55
504.48	39981.03
504.65	40505.31
504.83	40692.55
505.01	40882.14
505.18	41055.34
505.36	41312.80
505.53	40985.12
505.71	41645.15
505.88	41418.12
506.06	41579.62
506.23	41837.08
506.41	42064.11
506.58	41584.30
506.76	42134.32
506.93	42483.06
507.11	41631.11
507.28	42244.33
507.46	42541.58
507.63	42691.37
507.81	42855.21
507.98	42731.16
508.16	43047.13
508.33	42997.98
508.50	43243.74
508.68	43599.50
508.85	43824.19
509.03	43580.78
509.20	43814.83
509.38	43920.15
509.55	44060.58
509.73	44318.04
509.90	44355.49
510.08	44505.29
510.25	44449.11
510.42	44470.18
510.60	45202.77
510.77	45111.49
510.95	45429.80
511.12	44823.60
511.30	45090.42
511.47	45329.16
511.64	45272.98
511.82	45708.32
511.99	45439.16
512.17	45574.91
512.34	45682.58
512.51	46082.81
512.69	46057.06
512.86	45949.40
513.04	46326.22
513.21	46351.97
513.38	46206.86
513.56	46691.35
513.73	46539.21
513.90	47199.24
514.08	46597.73
514.25	46777.95
514.43	47075.19
514.60	46955.83
514.77	46906.68
514.95	47716.50
515.12	47353.72
515.29	47402.87
515.47	47889.70
515.64	47618.20
515.81	47798.42
515.99	47817.14
516.16	47803.10
516.33	48531.01
516.51	48451.43
516.68	48418.66
516.85	48039.50
517.03	48956.99
517.20	48758.04
517.37	48559.09
517.54	49322.11
517.72	48348.45
517.89	49097.42
518.06	48884.43
518.24	49022.52
518.41	48790.81
518.58	49141.89
518.75	48980.39
518.93	49066.99
519.10	49155.93
519.27	49556.16
519.45	49198.06
519.62	49677.87
519.79	49509.35
519.96	49649.78
520.14	49970.44
520.31	49771.49
520.48	50181.09
520.65	49940.01
520.83	50656.21
521.00	50686.64
521.17	50150.66
521.34	50574.30
521.52	50993.25
521.69	50693.66
521.86	50703.03
522.03	50724.09
522.20	51171.13
522.38	51096.24
522.55	51105.60
522.72	51164.11
522.89	50990.91
523.07	51402.85
523.24	51442.63
523.41	51297.52
523.58	51543.28
523.75	51648.60
523.92	51751.59
524.10	52016.07
524.27	51817.12
524.44	52058.20
524.61	51978.62
524.78	51629.88
524.96	52016.07
525.13	52004.36
525.30	52243.10
525.47	52470.13
525.64	51945.85
525.81	52758.02
525.98	52285.23
526.16	52566.09
526.33	52549.71
526.50	52615.24
526.67	52556.73
526.84	52959.30
527.01	52392.89
527.18	52755.68
527.36	53106.76
527.53	52596.52
527.70	53078.67
527.87	53092.71
528.04	53029.52
528.21	53200.38
528.38	53137.18
528.55	53151.23
528.72	53345.49
528.89	53186.33
529.07	53179.31
529.24	53401.66
529.41	53684.87
529.58	53483.58
529.75	53544.44
529.92	53736.36
530.09	53708.27
530.26	53911.90
530.43	53666.14
530.60	53546.78
530.77	53572.52
530.94	53907.22
531.11	53876.79
531.28	54108.50
531.46	54178.72
531.63	54195.10
531.80	54066.38
531.97	54337.88
532.14	54136.59
532.31	54277.02
532.48	54326.17
532.65	54576.61
532.82	54267.66
532.99	54436.18
533.16	54398.73
533.33	54787.26
533.50	54695.98
533.67	54347.24
533.84	54590.66
534.01	54726.41
534.18	54777.90
534.35	55107.91
534.52	54693.64
534.69	55098.55
534.86	55136.00
535.03	54705.34
535.20	55082.17
535.37	55229.62
535.54	55105.57
535.71	54878.54
535.88	55061.10
536.05	55370.05
536.22	55428.57
536.38	55454.31
536.55	55313.88
536.72	55477.72
536.89	55377.08
537.06	55657.94
537.23	55550.27
537.40	55716.45
537.57	55613.47
537.74	55650.92
537.91	55915.40
538.08	55819.44
538.25	55674.32
538.42	55613.47
538.59	55973.91
538.75	55826.46
538.92	55978.59
539.09	56023.06
539.26	55945.83
539.43	55929.44
539.60	56179.88
539.77	56275.84
539.94	56570.75
540.11	56226.69
540.28	56147.11
540.44	56275.84
540.61	56306.27
540.78	56151.79
540.95	56116.68
541.12	56320.31
541.29	56140.09
541.46	56367.12
541.62	56409.25
541.79	56521.60
541.96	56456.06
542.13	56521.60
542.30	56423.29
542.47	56750.97
542.63	56893.74
542.80	56697.14
542.97	56807.14
543.14	57125.46
543.31	56912.47
543.48	56975.66
543.64	57240.14
543.81	57258.87
543.98	57165.24
544.15	57118.43
544.32	57216.74
544.48	57380.57
544.65	57092.69
544.82	57406.32
544.99	57153.54
545.16	57336.10
545.32	57179.29
545.49	57670.80
545.66	57703.57
545.83	57340.78
546.00	57729.31
546.16	57298.65
546.33	57350.15
546.50	57261.21
546.67	57623.99
546.83	57190.99
547.00	57696.55
547.17	57673.14
547.34	57743.36
547.50	57954.00
547.67	57989.11
547.84	57773.78
548.00	57792.51
548.17	58059.33
548.34	57977.41
548.51	58148.27
548.67	58195.08
548.84	58106.14
549.01	57939.96
549.18	58169.33
549.34	58040.60
549.51	57958.69
549.68	58408.07
549.84	58384.66
550.01	58279.34
550.18	58038.26
550.34	58181.04
550.51	58358.92
550.68	58255.93
550.84	58028.90
551.01	58452.54
551.18	58272.32
551.34	58272.32
551.51	58230.19
551.68	58401.05
551.84	58403.39
552.01	58356.58
552.18	58499.35
552.34	58314.45
552.51	58759.15
552.68	58403.39
552.84	58784.90
553.01	58735.74
553.18	58721.70
553.34	58710.00
553.51	58820.00
553.67	58644.46
553.84	58721.70
554.01	58639.78
554.17	58862.13
554.34	58745.11
554.51	58777.87
554.67	58979.16
554.84	59096.19
555.00	58759.15
555.17	59068.10
555.33	58883.20
555.50	58768.51
555.67	58768.51
555.83	58789.58
556.00	58993.20
556.16	59135.98
556.33	59257.68
556.50	59332.58
556.66	59248.32
556.83	58997.88
556.99	59222.58
557.16	59386.41
557.32	59554.93
557.49	59494.08
557.65	59152.36
557.82	59035.33
557.98	59040.01
558.15	59332.58
558.32	59622.81
558.48	59143.00
558.65	59536.21
558.81	59608.76
558.98	59590.04
559.14	59529.19
559.31	59519.82
559.47	59695.36
559.64	59477.69
559.80	59571.32
559.97	59559.61
560.13	59318.54
560.30	59636.85
560.46	59498.76
560.63	59618.13
560.79	59686.00
560.96	59632.17
561.12	59742.17
561.29	59819.41
561.45	59788.98
561.61	59714.09
561.78	59742.17
561.94	59505.78
562.11	59737.49
562.27	59796.01
562.44	59693.02
562.60	59777.28
562.77	60172.83
562.93	59798.35
563.10	59906.01
563.26	59770.26
563.42	60086.23
563.59	59800.69
563.75	59987.93
563.92	59849.84
564.08	59805.37
564.24	60055.81
564.41	59943.46
564.57	60032.40
564.74	59971.55
564.90	60079.21
565.07	59835.80
565.23	59936.44
565.39	59936.44
565.56	60172.83
565.72	59964.52
565.88	60025.38
566.05	59906.01
566.21	60023.04
566.38	59891.97
566.54	60023.04
566.70	60135.38
566.87	60149.43
567.03	59913.03
567.19	60392.84
567.36	60226.66
567.52	60107.30
567.68	60416.25
567.85	60114.32
568.01	60289.86
568.17	59973.89
568.34	60411.57
568.50	60243.05
568.66	60053.47
568.83	60294.54
568.99	60236.03
569.15	60184.54
569.32	60287.52
569.48	60275.82
569.64	60353.05
569.81	60441.99
569.97	60140.07
570.13	60458.38
570.30	60303.90
570.46	60441.99
570.62	60488.80
570.78	60601.15
570.95	60322.63
571.11	60636.26
571.27	60498.17
571.43	60453.70
571.60	60559.02
571.76	60437.31
571.92	60491.15
572.09	60413.91
572.25	60472.42
572.41	60310.92
572.57	60411.57
572.74	60603.49
572.90	60425.61
573.06	60535.62
573.22	60537.96
573.38	60722.86
573.55	60266.45
573.71	60797.76
573.87	60481.78
574.03	60374.12
574.20	60821.16
574.36	60397.52
574.52	60715.84
574.68	60797.76
574.84	60685.41
575.01	60732.22
575.17	60718.18
575.33	60402.21
575.49	60439.65
575.65	60722.86
575.82	60753.29
575.98	60647.96
576.14	60772.01
576.30	60788.39
576.46	60552.00
576.62	60568.38
576.79	60645.62
576.95	60512.21
577.11	60601.15
577.27	60823.50
577.43	60573.06
577.59	60839.89
577.75	60488.80
577.92	60683.07
578.08	60800.10
578.24	60664.35
578.40	60896.06
578.56	60877.33
578.72	60664.35
578.88	60846.91
579.04	60945.21
579.21	60774.35
579.37	60867.97
579.53	60903.08
579.69	60559.02
579.85	60561.36
580.01	60720.52
580.17	60622.22
580.33	60673.71
580.49	60893.72
580.65	60741.58
580.82	60769.67
580.98	60577.75
581.14	60561.36
581.30	60985.00
581.46	60704.13
581.62	60823.50
581.78	60786.05
581.94	60917.12
582.10	60884.36
582.26	60687.75
582.42	60680.73
582.58	60973.30
582.74	60619.88
582.90	60807.12
583.06	60699.45
583.22	60437.31
583.38	60711.16
583.54	60872.65
583.70	60954.57
583.86	60795.42
584.02	60989.68
584.18	60949.89
584.34	60757.97
584.50	60828.18
584.66	60804.78
584.82	60786.05
584.98	61001.38
585.14	60942.87
585.30	60821.16
585.46	60814.14
585.62	60889.04
585.78	60935.85
585.94	60762.65
586.10	60982.66
586.26	60903.08
586.42	60952.23
586.58	60989.68
586.74	60882.02
586.90	61050.53
587.06	60781.37
587.22	61085.64
587.38	60825.84
587.54	61134.79
587.70	61176.92
587.86	60973.30
588.02	60802.44
588.18	61055.21
588.34	60767.33
588.49	61045.85
