SpectraSuite Data File
++++++++++++++++++++++++++++++++++++
Date: Fri Oct 25 11:25:54 EDT 2013
User: price-jones
Dark Spectrum Present: No
Reference Spectrum Present: No
Number of Sampled Component Spectra: 1
Spectrometers: USB2+H05261
Integration Time (usec): 100000 (USB2+H05261)
Spectra Averaged: 1 (USB2+H05261)
Boxcar Smoothing: 0 (USB2+H05261)
Correct for Electrical Dark: No (USB2+H05261)
Strobe/Lamp Enabled: No (USB2+H05261)
Correct for Detector Non-linearity: No (USB2+H05261)
Correct for Stray Light: No (USB2+H05261)
Number of Pixels in Processed Spectrum: 2048
>>>>>Begin Processed Spectral Data<<<<<
365.73	283.20
365.92	283.20
366.12	283.20
366.32	220.01
366.52	117.03
366.72	154.48
366.91	126.39
367.11	177.88
367.31	121.71
367.51	124.05
367.70	95.96
367.90	133.41
368.10	152.13
368.30	205.97
368.49	166.18
368.69	175.54
368.89	140.43
369.09	100.64
369.28	189.58
369.48	110.01
369.68	212.99
369.87	259.80
370.07	215.33
370.27	234.05
370.47	334.70
370.66	617.90
370.86	636.63
371.06	709.18
371.25	711.52
371.45	737.27
371.65	723.23
371.84	685.78
372.04	685.78
372.24	763.01
372.44	699.82
372.63	716.20
372.83	774.72
373.03	807.48
373.22	795.78
373.42	723.23
373.62	734.93
373.81	784.08
374.01	711.52
374.21	767.70
374.40	830.89
374.60	856.64
374.79	819.19
374.99	856.64
375.19	887.06
375.38	774.72
375.58	807.48
375.78	835.57
375.97	837.91
376.17	905.79
376.37	877.70
376.56	873.02
376.76	851.96
376.95	999.41
377.15	861.32
377.35	903.45
377.54	896.43
377.74	887.06
377.93	954.94
378.13	947.92
378.33	966.64
378.52	917.49
378.72	901.11
378.91	889.40
379.11	936.21
379.31	905.79
379.50	957.28
379.70	938.55
379.89	1011.11
380.09	1025.15
380.28	1083.67
380.48	961.96
380.68	985.37
380.87	1027.50
381.07	1022.81
381.26	1102.39
381.46	1036.86
381.65	1090.69
381.85	959.62
382.04	1078.99
382.24	1001.75
382.43	1022.81
382.63	1093.03
382.83	992.39
383.02	1104.73
383.22	1043.88
383.41	1123.46
383.61	1048.56
383.80	1186.65
384.00	1100.05
384.19	1163.25
384.39	1069.62
384.58	1071.97
384.78	1121.12
384.97	1200.69
385.17	1123.46
385.36	1121.12
385.56	1118.78
385.75	1151.54
385.95	1100.05
386.14	1181.97
386.34	1294.32
386.53	1228.78
386.72	1109.41
386.92	1142.18
387.11	1252.19
387.31	1231.12
387.50	1282.61
387.70	1263.89
387.89	1261.55
388.09	1268.57
388.28	1313.04
388.48	1270.91
388.67	1371.55
388.86	1310.70
389.06	1291.98
389.25	1268.57
389.45	1427.73
389.64	1359.85
389.84	1345.81
390.03	1469.86
390.22	1455.81
390.42	1343.47
390.61	1404.32
390.81	1467.52
391.00	1350.49
391.19	1486.24
391.39	1488.58
391.58	1476.88
391.78	1488.58
391.97	1446.45
392.16	1446.45
392.36	1516.67
392.55	1572.84
392.75	1427.73
392.94	1507.30
393.13	1521.35
393.33	1647.74
393.52	1521.35
393.71	1650.08
393.91	1561.14
394.10	1598.59
394.29	1600.93
394.49	1591.56
394.68	1610.29
394.88	1626.67
395.07	1668.80
395.26	1741.36
395.46	1739.02
395.65	1724.97
395.84	1713.27
396.04	1792.85
396.23	1732.00
396.42	1671.14
396.62	1774.13
396.81	1771.79
397.00	1757.74
397.19	1856.04
397.39	1750.72
397.58	1923.92
397.77	1834.98
397.97	1891.15
398.16	1830.30
398.35	2031.58
398.55	1790.51
398.74	1830.30
398.93	1893.49
399.12	1994.14
399.32	1902.86
399.51	1923.92
399.70	1998.82
399.90	2047.97
400.09	1977.75
400.28	2045.63
400.47	2059.67
400.67	2050.31
400.86	2033.93
401.05	2045.63
401.24	2083.08
401.44	2153.29
401.63	2148.61
401.82	2036.27
402.01	2155.63
402.21	2169.68
402.40	2265.64
402.59	2099.46
402.78	2277.34
402.97	2221.17
403.17	2300.75
403.36	2284.36
403.55	2375.64
403.74	2284.36
403.93	2352.24
404.13	2497.35
404.32	2342.88
404.51	2328.83
404.70	2392.03
404.89	2438.84
405.09	2546.50
405.28	2415.43
405.47	2394.37
405.66	2473.95
405.85	2626.08
406.05	2502.03
406.24	2492.67
406.43	2518.42
406.62	2672.89
406.81	2635.44
407.00	2621.40
407.20	2576.93
407.39	2677.57
407.58	2726.72
407.77	2621.40
407.96	2785.24
408.15	2726.72
408.34	2778.22
408.54	2679.91
408.73	2836.73
408.92	2906.95
409.11	2834.39
409.30	2892.90
409.49	2932.69
409.68	2937.37
409.87	2951.42
410.07	2951.42
410.26	2986.52
410.45	2974.82
410.64	3080.14
410.83	3169.09
411.02	2979.50
411.21	3103.55
411.40	3159.72
411.59	3157.38
411.78	3218.24
411.98	3166.74
412.17	3255.69
412.36	3246.32
412.55	3314.20
412.74	3466.33
412.93	3442.93
413.12	3309.52
413.31	3609.11
413.50	3445.27
413.69	3531.87
413.88	3545.91
414.07	3552.93
414.26	3693.37
414.45	3679.32
414.64	3686.34
414.83	3747.20
415.02	3784.65
415.22	3854.86
415.41	3852.52
415.60	3784.65
415.79	3857.20
415.98	3882.95
416.17	3808.05
416.36	3976.57
416.55	4088.92
416.74	4093.60
416.93	4081.89
417.12	4091.26
417.31	4077.21
417.50	4161.47
417.69	4329.99
417.88	4351.06
418.07	4271.48
418.26	4292.54
418.45	4360.42
418.64	4477.44
418.83	4514.89
419.02	4311.27
419.21	4617.88
419.39	4430.63
419.58	4409.57
419.77	4498.51
419.96	4643.62
420.15	4402.55
420.34	4620.22
420.53	4601.49
420.72	4564.04
420.91	4664.69
421.10	4613.20
421.29	4762.99
421.48	4629.58
421.67	4758.31
421.86	4809.80
422.05	4858.95
422.24	4807.46
422.43	4826.18
422.61	4926.83
422.80	4755.97
422.99	5022.79
423.18	4931.51
423.37	5039.17
423.56	5043.85
423.75	5015.77
423.94	4851.93
424.13	4627.24
424.32	4741.93
424.50	4933.85
424.69	5102.37
424.88	4936.19
425.07	4849.59
425.26	5018.11
425.45	5090.67
425.64	4964.28
425.83	4990.02
426.01	4994.70
426.20	5018.11
426.39	5041.51
426.58	5116.41
426.77	4999.38
426.96	5116.41
427.15	5188.97
427.33	5284.93
427.52	5188.97
427.71	5132.79
427.90	5172.58
428.09	5439.40
428.28	5378.55
428.46	5404.30
428.65	5298.97
428.84	5593.88
429.03	5490.90
429.22	5444.09
429.40	5556.43
429.59	5390.25
429.78	5226.42
429.97	5240.46
430.16	5582.18
430.34	5579.84
430.53	5628.99
430.72	5685.16
430.91	5659.42
431.10	5703.89
431.28	5764.74
431.47	5839.64
431.66	5886.45
431.85	5788.14
432.03	5792.83
432.22	5853.68
432.41	5919.21
432.60	5895.81
432.79	5741.33
432.97	6015.18
433.16	6097.10
433.35	6040.92
433.54	6246.89
433.72	6043.26
433.91	6071.35
434.10	6214.12
434.28	6073.69
434.47	6193.06
434.66	6319.45
434.85	6300.72
435.03	6443.49
435.22	6298.38
435.41	6487.96
435.59	6450.52
435.78	6682.23
435.97	6502.01
436.16	6455.20
436.34	6431.79
436.53	6382.64
436.72	6574.56
436.90	6466.90
437.09	6637.76
437.28	6480.94
437.46	6555.84
437.65	6663.51
437.84	6539.46
438.02	6633.08
438.21	6785.21
438.40	6724.36
438.58	6927.99
438.77	6951.39
438.96	7073.10
439.14	6991.18
439.33	7232.26
439.52	7063.74
439.70	7281.41
439.89	7272.04
440.08	7468.65
440.26	7314.17
440.45	7442.90
440.63	7358.64
440.82	7559.93
441.01	7461.63
441.19	7583.34
441.38	7705.04
441.57	7730.79
441.75	7655.89
441.94	7831.43
442.12	7934.42
442.31	8039.74
442.50	8152.09
442.68	7878.24
442.87	7950.80
443.05	8046.76
443.24	8252.73
443.43	8149.75
443.61	8023.36
443.80	8351.03
443.98	8030.38
444.17	7840.79
444.35	8262.09
444.54	8489.12
444.73	8353.37
444.91	8245.71
445.10	8362.73
445.28	8475.08
445.47	8255.07
445.65	8341.67
445.84	8524.23
446.02	8526.57
446.21	8486.78
446.39	8243.37
446.58	8489.12
446.77	8482.10
446.95	8358.05
447.14	8393.16
447.32	8425.93
447.51	8332.31
447.69	8514.87
447.88	8414.23
448.06	8678.71
448.25	8524.23
448.43	8538.27
448.62	8720.84
448.80	8671.68
448.99	8784.03
449.17	8613.17
449.36	8531.25
449.54	8978.30
449.73	8987.66
449.91	8933.82
450.10	8910.42
450.28	8964.25
450.46	9076.60
450.65	9041.49
450.83	8990.00
451.02	8961.91
451.20	8990.00
451.39	9128.09
451.57	8968.93
451.76	8919.78
451.94	9057.87
452.13	9472.15
452.31	9341.08
452.49	9104.68
452.68	9364.48
452.86	9273.20
453.05	9453.42
453.23	9645.35
453.42	9324.69
453.60	9181.92
453.78	9767.06
453.97	9242.78
454.15	9362.14
454.34	9535.34
454.52	9467.47
454.70	9607.90
454.89	9687.48
455.07	9678.12
455.26	9804.50
455.44	10033.88
455.62	9872.38
455.81	10071.33
455.99	9867.70
456.17	9994.09
456.36	9905.15
456.54	10160.27
456.73	10036.22
456.91	10408.36
457.09	10417.72
457.28	10595.61
457.46	10113.45
457.64	10359.21
457.83	10462.19
458.01	10527.73
458.19	10773.49
458.38	10457.51
458.56	10780.51
458.74	10752.42
458.93	10668.16
459.11	10761.78
459.29	10567.52
459.48	10752.42
459.66	10637.73
459.84	10944.34
460.03	11337.56
460.21	10988.82
460.39	11054.35
460.57	10986.47
460.76	11162.01
460.94	11222.87
461.12	11316.49
461.31	11122.23
461.49	10829.66
461.67	11178.40
461.85	11548.20
462.04	11339.90
462.22	11873.54
462.40	11421.81
462.59	11625.44
462.77	11517.78
462.95	11604.38
463.13	11431.18
463.32	11742.47
463.50	11693.32
463.68	11726.08
463.86	11833.75
464.05	11660.55
464.23	11674.59
464.41	11969.50
464.59	11716.72
464.78	12053.76
464.96	11894.60
465.14	11784.60
465.32	11969.50
465.50	12123.98
465.69	12126.32
465.87	12301.86
466.05	12077.16
466.23	12161.42
466.41	12531.23
466.60	12503.14
466.78	12063.12
466.96	12168.45
467.14	12065.46
467.32	12362.71
467.51	12245.68
467.69	12329.94
467.87	12297.17
468.05	12659.96
468.23	12336.96
468.41	12446.97
468.60	12505.48
468.78	12903.37
468.96	12683.36
469.14	12819.11
469.32	12844.86
469.50	12648.26
469.69	12992.31
469.87	13137.43
470.05	13268.50
470.23	12985.29
470.41	13224.03
470.59	13334.03
470.77	13139.77
470.95	13170.19
471.14	13671.07
471.32	13399.57
471.50	13549.36
471.68	13600.85
471.86	13673.41
472.04	13661.71
472.22	14167.26
472.40	13731.92
472.58	13752.99
472.77	14031.51
472.95	14153.22
473.13	14806.23
473.31	14146.20
473.49	14167.26
473.67	14181.31
473.85	14555.79
474.03	14728.99
474.21	14382.59
474.39	14523.02
474.57	14757.08
474.75	14932.62
474.93	15087.09
475.12	15110.50
475.30	15129.22
475.48	14979.43
475.66	15302.42
475.84	14906.87
476.02	15302.42
476.20	15454.56
476.38	15653.50
476.56	16013.95
476.74	15843.09
476.92	15737.76
477.10	15653.50
477.28	15847.77
477.46	16215.23
477.64	16456.31
477.82	16318.22
478.00	17102.29
478.18	17088.25
478.36	16800.37
478.54	17252.09
478.72	17069.53
478.90	17207.62
479.08	17525.93
479.26	17745.94
479.44	17532.95
479.62	17724.88
479.80	18061.91
479.98	18017.44
480.16	18597.90
480.34	18253.84
480.52	18686.84
480.70	18672.79
480.88	18256.18
481.06	18670.45
481.24	18541.72
481.41	18843.65
481.59	19599.65
481.77	19412.40
481.95	19672.20
482.13	19566.88
482.31	19506.02
482.49	20215.21
482.67	20152.01
482.85	20217.55
483.03	20673.95
483.21	20500.75
483.39	20783.96
483.57	20912.69
483.74	21149.08
483.92	21144.40
484.10	21170.15
484.28	21762.30
484.46	21930.82
484.64	22153.17
484.82	22106.36
485.00	22265.52
485.18	22813.20
485.35	22932.57
485.53	22621.28
485.71	22899.80
485.89	23718.99
486.07	23508.34
486.25	23288.33
486.43	23613.66
486.61	23676.86
486.78	23955.38
486.96	24257.31
487.14	24348.59
487.32	24589.67
487.50	24547.54
487.68	25081.18
487.85	25390.13
488.03	25387.79
488.21	26314.64
488.39	25659.29
488.57	25907.39
488.75	26270.17
488.92	26691.47
489.10	26705.51
489.28	26902.12
489.46	27222.77
489.64	26904.46
489.81	27791.52
489.99	27665.13
490.17	27894.50
490.35	27915.57
490.53	28264.31
490.70	28088.77
490.88	28287.71
491.06	28720.71
491.24	28856.46
491.41	28936.04
491.59	29378.40
491.77	29024.98
491.95	29570.33
492.13	29685.01
492.30	29968.22
492.48	30230.36
492.66	30387.18
492.84	30242.06
493.01	30689.10
493.19	30665.70
493.37	30881.03
493.54	31199.34
493.72	31417.01
493.90	31077.63
494.08	31709.58
494.25	32088.74
494.43	31955.33
494.61	32016.19
494.79	32496.00
494.96	32751.12
495.14	32673.88
495.32	33057.73
495.49	33207.52
495.67	33167.73
495.85	33125.60
496.02	33584.35
496.20	33905.00
496.38	33504.77
496.55	34206.93
496.73	34801.43
496.91	34618.86
497.09	34930.16
497.26	35089.31
497.44	34726.53
497.62	35211.02
497.79	35503.59
497.97	35402.94
498.14	35906.16
498.32	35990.42
498.50	36180.00
498.67	36287.67
498.85	36596.62
499.03	36605.98
499.20	36505.34
499.38	36732.37
499.56	36877.48
499.73	37373.67
499.91	37694.33
500.08	37748.16
500.26	37195.79
500.44	37858.17
500.61	37811.35
500.79	37977.53
500.97	38216.27
501.14	38635.22
501.32	38277.12
501.49	38770.97
501.67	38464.36
501.84	39175.89
502.02	38705.44
502.20	39246.10
502.37	39152.48
502.55	39065.88
502.72	39370.15
502.90	39571.44
503.07	39227.38
503.25	40009.12
503.43	39594.84
503.60	39749.32
503.78	40072.31
503.95	40147.21
504.13	40582.55
504.30	40570.85
504.48	40381.26
504.65	40942.99
504.83	40652.76
505.01	41483.66
505.18	41298.75
505.36	41462.59
505.53	41191.09
505.71	41792.61
505.88	42122.62
506.06	41394.71
506.23	41869.84
506.41	42277.10
506.58	42054.75
506.76	42431.57
506.93	42316.89
507.11	42272.42
507.28	42380.08
507.46	42557.96
507.63	43058.84
507.81	43047.13
507.98	43021.39
508.16	42684.35
508.33	43576.09
508.50	43768.02
508.68	43548.01
508.85	43669.72
509.03	43931.86
509.20	43676.74
509.38	44287.62
509.55	44402.30
509.73	44011.43
509.90	44402.30
510.08	44573.16
510.25	44362.51
510.42	44802.53
510.60	45036.59
510.77	44830.62
510.95	45450.86
511.12	45186.38
511.30	45343.20
511.47	45200.43
511.64	45677.90
511.82	45603.00
511.99	45633.42
512.17	45834.71
512.34	45855.78
512.51	46333.24
512.69	46422.19
512.86	46213.88
513.04	46447.93
513.21	46665.60
513.38	46593.04
513.56	46770.93
513.73	46328.56
513.90	47047.11
514.08	47044.77
514.25	46813.05
514.43	47751.61
514.60	47402.87
514.77	47313.93
514.95	47592.45
515.12	47372.44
515.29	47386.49
515.47	47618.20
515.64	48023.11
515.81	47636.92
515.99	48210.35
516.16	48179.93
516.33	48385.89
516.51	48559.09
516.68	48680.80
516.85	48399.94
517.03	48650.38
517.20	48243.12
517.37	48926.56
517.54	48467.81
517.72	48914.86
517.89	48884.43
518.06	49200.40
518.24	49148.91
518.41	48898.47
518.58	49359.56
518.75	49411.05
518.93	49851.07
519.10	49602.97
519.27	49572.55
519.45	49698.94
519.62	50122.57
519.79	49872.14
519.96	49989.16
520.14	50195.13
520.31	49916.61
520.48	50412.80
520.65	50312.16
520.83	50806.01
521.00	50944.10
521.17	50314.50
521.34	50384.71
521.52	50906.65
521.69	50550.89
521.86	50901.97
522.03	51011.98
522.20	50953.46
522.38	51126.66
522.55	51461.36
522.72	51271.78
522.89	51047.08
523.07	51381.78
523.24	51297.52
523.41	51657.96
523.58	51437.95
523.75	51840.53
523.92	51763.29
524.10	51889.68
524.27	51931.81
524.44	52025.43
524.61	52076.92
524.78	52231.40
524.96	52226.71
525.13	52027.77
525.30	52463.11
525.47	52718.23
525.64	52229.05
525.81	52399.91
525.98	52706.52
526.16	52657.37
526.33	52596.52
526.50	52882.06
526.67	52687.80
526.84	53006.11
527.01	52683.12
527.18	52968.66
527.36	53057.60
527.53	53085.69
527.70	53413.37
527.87	53492.94
528.04	53083.35
528.21	53418.05
528.38	53401.66
528.55	53586.57
528.72	53434.43
528.89	53389.96
529.07	53221.44
529.24	53286.98
529.41	53530.39
529.58	53619.33
529.75	53598.27
529.92	53635.72
530.09	53750.40
530.26	54033.61
530.43	54192.76
530.60	53853.39
530.77	53783.17
530.94	54115.53
531.11	54040.63
531.28	54136.59
531.46	54277.02
531.63	54281.70
531.80	54239.57
531.97	54225.53
532.14	54408.09
532.31	54426.82
532.48	54375.33
532.65	54583.63
532.82	54471.29
532.99	54506.40
533.16	54457.24
533.33	54927.69
533.50	54904.29
533.67	54642.15
533.84	54529.80
534.01	54684.28
534.18	54887.90
534.35	54930.03
534.52	54845.77
534.69	55098.55
534.86	55047.06
535.03	55100.89
535.20	55061.10
535.37	55449.63
535.54	55192.17
535.71	55407.50
535.88	55222.60
536.05	55519.85
536.22	55447.29
536.38	55765.60
536.55	55781.99
536.72	55569.00
536.89	55428.57
537.06	55613.47
537.23	55697.73
537.40	55281.11
537.57	55657.94
537.74	55592.40
537.91	55999.66
538.08	55969.23
538.25	55693.05
538.42	55664.96
538.59	56175.20
538.75	55695.39
538.92	55934.12
539.09	56240.73
539.26	56055.83
539.43	56023.06
539.60	56168.18
539.77	56238.39
539.94	56292.22
540.11	56313.29
540.28	56507.55
540.44	56472.45
540.61	56196.26
540.78	56413.93
540.95	56357.76
541.12	56357.76
541.29	56294.56
541.46	56404.57
541.62	56516.92
541.79	56591.81
541.96	56369.46
542.13	56554.36
542.30	56772.03
542.47	56645.65
542.63	56896.08
542.80	56872.68
542.97	57029.49
543.14	57064.60
543.31	57139.50
543.48	57193.33
543.64	57448.45
543.81	57425.04
543.98	57319.72
544.15	57368.87
544.32	57270.57
544.48	57483.56
544.65	57251.84
544.82	57258.87
544.99	57286.95
545.16	57537.39
545.32	57399.30
545.49	57638.03
545.66	57701.23
545.83	57537.39
546.00	57528.03
546.16	57616.97
546.33	57497.60
546.50	57364.19
546.67	57602.92
546.83	57518.67
547.00	57780.81
547.17	57942.30
547.34	57759.74
547.50	57776.12
547.67	58066.35
547.84	58033.58
548.00	58178.70
548.17	58108.48
548.34	57932.94
548.51	58089.76
548.67	58127.20
548.84	58052.31
549.01	57991.45
549.18	58024.22
549.34	58199.76
549.51	58279.34
549.68	58181.04
549.84	58326.15
550.01	58440.84
550.18	58265.30
550.34	58356.58
550.51	58291.04
550.68	58085.07
550.84	58295.72
551.01	58520.41
551.18	58562.54
551.34	58515.73
551.51	58450.20
551.68	58644.46
551.84	58745.11
552.01	58546.16
552.18	58752.13
552.34	58351.90
552.51	58707.66
552.68	58354.24
552.84	58637.44
553.01	58796.60
553.18	58754.47
553.34	58801.28
553.51	58590.63
553.67	58810.64
553.84	58927.67
554.01	58937.03
554.17	58794.26
554.34	58782.55
554.51	58946.39
554.67	59054.06
554.84	58911.28
555.00	58812.98
555.17	58932.35
555.33	59016.61
555.50	59091.51
555.67	58843.41
555.83	58789.58
556.00	58894.90
556.16	59257.68
556.33	59222.58
556.50	59110.23
556.66	59304.49
556.83	58848.09
556.99	59337.26
557.16	59573.66
557.32	59395.77
557.49	59447.27
557.65	59428.54
557.82	59344.28
557.98	59381.73
558.15	59309.18
558.32	59501.10
558.48	59320.88
558.65	59306.83
558.81	59526.84
558.98	59451.95
559.14	59295.13
559.31	59655.57
559.47	59370.03
559.64	59735.15
559.80	59653.23
559.97	59758.56
560.13	59498.76
560.30	59627.49
560.46	59819.41
560.63	59746.86
560.79	59723.45
560.96	59728.13
561.12	59812.39
561.29	59863.88
561.45	59751.54
561.61	59746.86
561.78	59859.20
561.94	59737.49
562.11	59753.88
562.27	60023.04
562.44	60048.78
562.60	60233.69
562.77	59992.61
562.93	59828.77
563.10	60053.47
563.26	59826.43
563.42	60287.52
563.59	60102.62
563.75	60051.12
563.92	60034.74
564.08	59821.75
564.24	60210.28
564.41	60214.96
564.57	60090.91
564.74	60100.28
564.90	60411.57
565.07	60020.70
565.23	60076.87
565.39	60093.25
565.56	60168.15
565.72	60093.25
565.88	60086.23
566.05	60062.83
566.21	60186.88
566.38	60189.22
566.54	60116.66
566.70	60322.63
566.87	60212.62
567.03	60156.45
567.19	60453.70
567.36	60315.61
567.52	60137.72
567.68	60596.47
567.85	60324.97
568.01	60430.29
568.17	60313.26
568.34	60383.48
568.50	60217.30
568.66	60360.08
568.83	60472.42
568.99	60402.21
569.15	60346.03
569.32	60437.31
569.48	60336.67
569.64	60519.23
569.81	60353.05
569.97	60367.10
570.13	60313.26
570.30	60449.02
570.46	60741.58
570.62	60453.70
570.78	60458.38
570.95	60446.68
571.11	60395.18
571.27	60350.71
571.43	60544.98
571.60	60631.58
571.76	60568.38
571.92	60533.28
572.09	60673.71
572.25	60687.75
572.41	60449.02
572.57	60594.13
572.74	60640.94
572.90	60652.64
573.06	60589.45
573.22	60481.78
573.38	60662.00
573.55	60631.58
573.71	60683.07
573.87	60685.41
574.03	60603.49
574.20	60683.07
574.36	60378.80
574.52	60926.49
574.68	60809.46
574.84	60985.00
575.01	60727.54
575.17	60739.24
575.33	60575.40
575.49	60584.77
575.65	60917.12
575.82	60828.18
575.98	60774.35
576.14	60928.83
576.30	60713.50
576.46	60725.20
576.62	60629.24
576.79	60697.11
576.95	60449.02
577.11	60699.45
577.27	60818.82
577.43	60905.42
577.59	60814.14
577.75	60552.00
577.92	60760.31
578.08	60589.45
578.24	60931.17
578.40	61090.32
578.56	60842.23
578.72	60795.42
578.88	60963.93
579.04	60999.04
579.21	60774.35
579.37	60772.01
579.53	61057.56
579.69	60631.58
579.85	60528.59
580.01	60774.35
580.17	60708.82
580.33	60708.82
580.49	60910.10
580.65	60800.10
580.82	60839.89
580.98	60954.57
581.14	60687.75
581.30	61057.56
581.46	60931.17
581.62	60989.68
581.78	60725.20
581.94	60823.50
582.10	60783.71
582.26	60832.86
582.42	61064.58
582.58	61045.85
582.74	60839.89
582.90	60736.90
583.06	60774.35
583.22	60821.16
583.38	60804.78
583.54	60800.10
583.70	61020.11
583.86	61008.40
584.02	61104.37
584.18	60933.51
584.34	60786.05
584.50	60800.10
584.66	60863.29
584.82	60926.49
584.98	61071.60
585.14	61162.88
585.30	60924.14
585.46	61146.50
585.62	60807.12
585.78	61034.15
585.94	60701.79
586.10	60954.57
586.26	61130.11
586.42	61001.38
586.58	61076.28
586.74	61155.86
586.90	61186.28
587.06	60870.31
587.22	61027.13
587.38	61099.68
587.54	61109.05
587.70	61195.65
587.86	60992.02
588.02	61031.81
588.18	61064.58
588.34	61123.09
588.49	60966.27
