SpectraSuite Data File
++++++++++++++++++++++++++++++++++++
Date: Fri Oct 25 10:43:18 EDT 2013
User: price-jones
Dark Spectrum Present: No
Reference Spectrum Present: No
Number of Sampled Component Spectra: 1
Spectrometers: USB2+H05261
Integration Time (usec): 100000 (USB2+H05261)
Spectra Averaged: 1 (USB2+H05261)
Boxcar Smoothing: 0 (USB2+H05261)
Correct for Electrical Dark: No (USB2+H05261)
Strobe/Lamp Enabled: No (USB2+H05261)
Correct for Detector Non-linearity: No (USB2+H05261)
Correct for Stray Light: No (USB2+H05261)
Number of Pixels in Processed Spectrum: 2048
>>>>>Begin Processed Spectral Data<<<<<
365.73	91.28
365.92	91.28
366.12	91.28
366.32	37.45
366.52	0.00
366.72	49.15
366.91	14.04
367.11	32.77
367.31	70.22
367.51	30.43
367.70	56.17
367.90	4.68
368.10	28.09
368.30	14.04
368.49	0.00
368.69	107.66
368.89	25.75
369.09	23.41
369.28	53.83
369.48	0.00
369.68	112.35
369.87	86.60
370.07	93.62
370.27	107.66
370.47	252.78
370.66	386.19
370.86	440.02
371.06	440.02
371.25	482.15
371.45	433.00
371.65	498.53
371.84	458.74
372.04	400.23
372.24	409.59
372.44	505.56
372.63	531.30
372.83	484.49
373.03	489.17
373.22	498.53
373.42	503.22
373.62	503.22
373.81	535.98
374.01	491.51
374.21	528.96
374.40	559.39
374.60	589.82
374.79	615.56
374.99	510.24
375.19	538.32
375.38	608.54
375.58	608.54
375.78	645.99
375.97	636.63
376.17	528.96
376.37	517.26
376.56	596.84
376.76	631.94
376.95	580.45
377.15	692.80
377.35	606.20
377.54	641.31
377.74	631.94
377.93	638.97
378.13	653.01
378.33	683.44
378.52	660.03
378.72	648.33
378.91	622.58
379.11	596.84
379.31	695.14
379.50	662.37
379.70	760.67
379.89	777.06
380.09	636.63
380.28	624.92
380.48	624.92
380.68	650.67
380.87	690.46
381.07	706.84
381.26	638.97
381.46	685.78
381.65	718.54
381.85	709.18
382.04	596.84
382.24	683.44
382.43	737.27
382.63	720.88
382.83	741.95
383.02	725.57
383.22	657.69
383.41	657.69
383.61	727.91
383.80	826.21
384.00	767.70
384.19	809.83
384.39	816.85
384.58	763.01
384.78	793.44
384.97	748.97
385.17	744.29
385.36	767.70
385.56	781.74
385.75	781.74
385.95	802.80
386.14	856.64
386.34	830.89
386.53	791.10
386.72	809.83
386.92	882.38
387.11	840.25
387.31	854.30
387.50	779.40
387.70	842.59
387.89	851.96
388.09	798.12
388.28	858.98
388.48	840.25
388.67	931.53
388.86	929.19
389.06	964.30
389.25	926.85
389.45	940.90
389.64	856.64
389.84	943.24
390.03	1043.88
390.22	1015.79
390.42	929.19
390.61	961.96
390.81	954.94
391.00	983.02
391.19	1046.22
391.39	1088.35
391.58	1050.90
391.78	940.90
391.97	968.98
392.16	961.96
392.36	1013.45
392.55	976.00
392.75	1011.11
392.94	1004.09
393.13	1027.50
393.33	990.05
393.52	1104.73
393.71	1036.86
393.91	1130.48
394.10	1076.65
394.29	1081.33
394.49	1055.58
394.68	1165.59
394.88	1132.82
395.07	1214.74
395.26	1240.48
395.46	1163.25
395.65	1153.88
395.84	1280.27
396.04	1210.06
396.23	1210.06
396.42	1139.84
396.62	1081.33
396.81	1207.72
397.00	1151.54
397.19	1203.04
397.39	1308.36
397.58	1341.13
397.77	1313.04
397.97	1387.94
398.16	1416.02
398.35	1500.28
398.55	1483.90
398.74	1380.92
398.93	1640.72
399.12	1519.01
399.32	1593.90
399.51	1486.24
399.70	1596.25
399.90	1486.24
400.09	1558.80
400.28	1556.46
400.47	1617.31
400.67	1652.42
400.86	1624.33
401.05	1650.08
401.24	1689.87
401.44	1610.29
401.63	1682.85
401.82	1867.75
402.01	1732.00
402.21	1724.97
402.40	1708.59
402.59	1668.80
402.78	1703.91
402.97	1750.72
403.17	1811.57
403.36	1699.23
403.55	1825.62
403.74	1860.73
403.93	1935.62
404.13	1863.07
404.32	1809.23
404.51	1818.60
404.70	1944.99
404.89	1944.99
405.09	2099.46
405.28	2005.84
405.47	1942.64
405.66	1898.17
405.85	1928.60
406.05	1982.43
406.24	2059.67
406.43	1987.11
406.62	1949.67
406.81	2071.37
407.00	2050.31
407.20	2010.52
407.39	2017.54
407.58	2146.27
407.77	2113.50
407.96	2225.85
408.15	2289.04
408.34	2193.08
408.54	2267.98
408.73	2228.19
408.92	2305.43
409.11	2246.91
409.30	2366.28
409.49	2211.81
409.68	2359.26
409.87	2328.83
410.07	2211.81
410.26	2417.77
410.45	2422.45
410.64	2389.69
410.83	2523.10
411.02	2511.39
411.21	2495.01
411.40	2509.05
411.59	2607.36
411.78	2642.46
411.98	2593.31
412.17	2633.10
412.36	2693.96
412.55	2621.40
412.74	2733.75
412.93	2708.00
413.12	2612.04
413.31	2827.37
413.50	2888.22
413.69	2874.18
413.88	2923.33
414.07	2841.41
414.26	2946.73
414.45	2867.16
414.64	2803.96
414.83	2944.39
415.02	3070.78
415.22	3035.67
415.41	3068.44
415.60	3187.81
415.79	3255.69
415.98	3150.36
416.17	3302.50
416.36	3138.66
416.55	3269.73
416.74	3269.73
416.93	3267.39
417.12	3234.62
417.31	3344.63
417.50	3368.03
417.69	3321.22
417.88	3424.20
418.07	3351.65
418.26	3405.48
418.45	3454.63
418.64	3501.44
418.83	3571.66
419.02	3552.93
419.21	3606.77
419.39	3595.06
419.58	3534.21
419.77	3349.31
419.96	3447.61
420.15	3669.96
420.34	3698.05
420.53	3655.92
420.72	3744.86
420.91	3857.20
421.10	3873.59
421.29	3824.44
421.48	3733.15
421.67	3941.46
421.86	3861.88
422.05	3775.28
422.24	3747.20
422.43	3808.05
422.61	3779.97
422.80	3808.05
422.99	3768.26
423.18	3857.20
423.37	3805.71
423.56	3941.46
423.75	3904.01
423.94	3878.27
424.13	3552.93
424.32	3702.73
424.50	3826.78
424.69	3948.48
424.88	3974.23
425.07	3761.24
425.26	3749.54
425.45	3918.06
425.64	3995.29
425.83	3866.56
426.01	3885.29
426.20	3955.51
426.39	3915.72
426.58	3927.42
426.77	3911.04
426.96	3833.80
427.15	3985.93
427.33	4053.81
427.52	3997.64
427.71	4086.58
427.90	4086.58
428.09	3953.16
428.28	4070.19
428.46	4093.60
428.65	4023.38
428.84	4271.48
429.03	4191.90
429.22	4044.45
429.40	4007.00
429.59	3929.76
429.78	3840.82
429.97	3957.85
430.16	3791.67
430.34	4081.89
430.53	4060.83
430.72	4084.23
430.91	4128.70
431.10	4318.29
431.28	4353.40
431.47	4695.11
431.66	4629.58
431.85	4472.76
432.03	4470.42
432.22	4575.75
432.41	4573.41
432.60	4638.94
432.79	4402.55
432.97	4624.90
433.16	4727.88
433.35	4645.96
433.54	4447.02
433.72	4741.93
433.91	4678.73
434.10	4641.28
434.28	4891.72
434.47	4809.80
434.66	4887.04
434.85	4926.83
435.03	4915.12
435.22	4901.08
435.41	4997.04
435.59	5093.01
435.78	5043.85
435.97	5008.75
436.16	5093.01
436.34	5081.30
436.53	5275.57
436.72	5359.83
436.90	5029.81
437.09	5121.09
437.28	5114.07
437.46	5097.69
437.65	5121.09
437.84	5191.31
438.02	5172.58
438.21	5064.92
438.40	5062.58
438.58	5303.65
438.77	5418.34
438.96	5423.02
439.14	5589.20
439.33	5448.77
439.52	5568.13
439.70	5589.20
439.89	5614.95
440.08	5701.54
440.26	5717.93
440.45	5863.04
440.63	5767.08
440.82	6061.99
441.01	6005.81
441.19	6066.67
441.38	5879.43
441.57	6010.50
441.75	5998.79
441.94	6209.44
442.12	6080.71
442.31	6225.82
442.50	6204.76
442.68	6289.02
442.87	6087.73
443.05	6207.10
443.24	6382.64
443.43	6305.40
443.61	6480.94
443.80	6623.72
443.98	6314.77
444.17	6277.32
444.35	6504.35
444.54	6555.84
444.73	6455.20
444.91	6518.39
445.10	6476.26
445.28	6558.18
445.47	6310.08
445.65	6349.87
445.84	6134.54
446.02	6527.75
446.21	6546.48
446.39	6487.96
446.58	6483.28
446.77	6586.27
446.95	6544.14
447.14	6672.87
447.32	6595.63
447.51	6562.86
447.69	6473.92
447.88	6497.33
448.06	6612.01
448.25	6609.67
448.43	6665.85
448.62	6661.16
448.80	6623.72
448.99	6796.92
449.17	6654.14
449.36	6637.76
449.54	6726.70
449.73	6839.05
449.91	7112.89
450.10	7063.74
450.28	7150.34
450.46	7056.72
450.65	7110.55
450.83	7096.50
451.02	7096.50
451.20	7124.59
451.39	7211.19
451.57	7293.11
451.76	7129.27
451.94	7033.31
452.13	7290.77
452.31	7215.87
452.49	7094.16
452.68	7052.03
452.86	7117.57
453.05	7229.91
453.23	7377.37
453.42	7124.59
453.60	7323.54
453.78	7314.17
453.97	7360.98
454.15	7363.33
454.34	7335.24
454.52	7648.87
454.70	7445.24
454.89	7520.14
455.07	7517.80
455.26	7674.62
455.44	7676.96
455.62	7534.18
455.81	7716.75
455.99	7850.16
456.17	7669.94
456.36	7683.98
456.54	7726.11
456.73	7833.77
456.91	7992.93
457.09	7981.23
457.28	7976.55
457.46	8098.25
457.64	8154.43
457.83	8184.85
458.01	7943.78
458.19	8159.11
458.38	8170.81
458.56	8051.44
458.74	8191.88
458.93	8135.70
459.11	8201.24
459.29	8053.78
459.48	8329.97
459.66	8404.86
459.84	8058.46
460.03	8252.73
460.21	8177.83
460.39	8355.71
460.57	8482.10
460.76	8365.07
460.94	8531.25
461.12	8383.80
461.31	8561.68
461.49	8634.24
461.67	8573.38
461.85	8671.68
462.04	8535.93
462.22	9217.03
462.40	8957.23
462.59	8788.71
462.77	8868.29
462.95	8889.35
463.13	8973.61
463.32	8713.81
463.50	8894.04
463.68	8891.70
463.86	9081.28
464.05	8755.94
464.23	8826.16
464.41	9018.08
464.59	8730.20
464.78	9111.71
464.96	8870.63
465.14	9029.79
465.32	9179.58
465.50	8971.27
465.69	9191.28
465.87	9256.82
466.05	8999.36
466.23	9231.07
466.41	9071.92
466.60	9334.06
466.78	9095.32
466.96	8947.87
467.14	9118.73
467.32	9350.44
467.51	9226.39
467.69	9156.18
467.87	9315.33
468.05	9497.89
468.23	9401.93
468.41	9350.44
468.60	9383.21
468.78	9579.81
468.96	9460.45
469.14	9607.90
469.32	9591.52
469.50	9380.87
469.69	9678.12
469.87	9703.86
470.05	9689.82
470.23	9668.75
470.41	9790.46
470.59	9820.89
470.77	9893.44
470.95	9834.93
471.14	10038.56
471.32	9851.31
471.50	10181.33
471.68	10125.16
471.86	10377.94
472.04	10171.97
472.22	10417.72
472.40	10141.54
472.58	10391.98
472.77	10083.03
472.95	10342.83
473.13	10633.05
473.31	10303.04
473.49	10555.82
473.67	10569.86
473.85	10801.57
474.03	10754.76
474.21	10832.00
474.39	10714.97
474.57	10981.79
474.75	10956.05
474.93	11070.73
475.12	11037.97
475.30	11185.42
475.48	11131.59
475.66	11152.65
475.84	11084.78
476.02	11239.25
476.20	11215.85
476.38	11573.95
476.56	11709.70
476.74	11595.01
476.92	11707.36
477.10	11503.73
477.28	12081.85
477.46	12044.40
477.64	11878.22
477.82	11826.73
478.00	12269.09
478.18	12386.12
478.36	12615.49
478.54	12547.61
478.72	12666.98
478.90	12910.40
479.08	12697.41
479.26	12800.39
479.44	12849.54
479.62	12980.61
479.80	13177.22
479.98	13518.93
480.16	13413.61
480.34	13540.00
480.52	13717.88
480.70	13710.86
480.88	13406.59
481.06	13827.88
481.24	13851.29
481.41	14129.81
481.59	14211.73
481.77	14314.72
481.95	14295.99
482.13	14431.74
482.31	14349.82
482.49	14593.24
482.67	14518.34
482.85	15019.22
483.03	15047.30
483.21	15264.97
483.39	15302.42
483.57	15215.82
483.74	15492.01
483.92	15417.11
484.10	15414.77
484.28	15435.83
484.46	16123.95
484.64	15960.11
484.82	15850.11
485.00	15798.62
485.18	15983.52
485.35	16100.55
485.53	16182.46
485.71	15735.42
485.89	16416.52
486.07	16180.12
486.25	16402.47
486.43	16791.00
486.61	16940.80
486.78	17170.17
486.96	17158.47
487.14	17640.62
487.32	17551.68
487.50	17921.48
487.68	17867.65
487.85	18139.15
488.03	18317.03
488.21	18415.34
488.39	18190.64
488.57	18333.42
488.75	18764.07
488.92	19007.49
489.10	18881.10
489.28	19044.94
489.46	19264.95
489.64	19218.14
489.81	19618.37
489.99	20130.95
490.17	19744.76
490.35	20042.01
490.53	20175.42
490.70	20163.72
490.88	20257.34
491.06	20475.01
491.24	20273.72
491.41	20594.37
491.59	20411.81
491.77	20617.78
491.95	20610.76
492.13	21221.64
492.30	21631.23
492.48	21231.00
492.66	21481.44
492.84	21607.83
493.01	21757.62
493.19	21975.29
493.37	22097.00
493.54	22108.70
493.72	22375.52
493.90	22630.64
494.08	22625.96
494.25	22649.36
494.43	23037.89
494.61	22998.10
494.79	23180.67
494.96	23094.07
495.14	23175.98
495.32	23110.45
495.49	23428.76
495.67	23604.30
495.85	23946.02
496.02	23939.00
496.20	24105.18
496.38	24084.11
496.55	24254.97
496.73	24793.29
496.91	24428.17
497.09	24690.31
497.26	24987.56
497.44	24870.53
497.62	25228.63
497.79	25495.46
497.97	24989.90
498.14	25282.47
498.32	25376.09
498.50	25142.03
498.67	25907.39
498.85	25752.91
499.03	25865.26
499.20	25855.90
499.38	25996.33
499.56	26265.49
499.73	26087.61
499.91	26246.77
500.08	26195.28
500.26	25935.48
500.44	26560.40
500.61	26651.68
500.79	26347.41
500.97	26717.22
501.14	26782.75
501.32	26948.93
501.49	26995.74
501.67	26848.29
501.84	27276.60
502.02	27051.91
502.20	27477.89
502.37	27330.44
502.55	27295.33
502.72	27587.89
502.90	27660.45
503.07	27882.80
503.25	27515.34
503.43	27440.44
503.60	27810.25
503.78	27885.14
503.95	27756.41
504.13	28128.56
504.30	28196.43
504.48	28264.31
504.65	28318.14
504.83	28533.47
505.01	28964.13
505.18	28835.40
505.36	29158.39
505.53	28704.33
505.71	29472.03
505.88	29577.35
506.06	29200.52
506.23	29123.29
506.41	28947.75
506.58	29668.63
506.76	29624.16
506.93	29336.27
507.11	29455.64
507.28	29743.53
507.46	29523.52
507.63	29673.31
507.81	29748.21
507.98	29862.90
508.16	30249.08
508.33	30174.19
508.50	30375.47
508.68	30679.74
508.85	30799.11
509.03	30693.79
509.20	30951.24
509.38	30888.05
509.55	31487.23
509.73	30967.63
509.90	31079.97
510.08	31037.84
510.25	31356.16
510.42	31136.15
510.60	31108.06
510.77	31597.23
510.95	31850.01
511.12	31875.76
511.30	31653.40
511.47	32142.58
511.64	31908.52
511.82	32507.70
511.99	31887.46
512.17	31990.44
512.34	31821.92
512.51	32060.66
512.69	32425.78
512.86	32580.26
513.04	32428.12
513.21	32519.40
513.38	32388.33
513.56	32725.37
513.73	32348.54
513.90	32872.82
514.08	32802.61
514.25	32760.48
514.43	33209.86
514.60	33273.06
514.77	33071.77
514.95	33298.80
515.12	33354.97
515.29	32980.49
515.47	33640.52
515.64	33584.35
515.81	33434.55
515.99	33708.40
516.16	33584.35
516.33	33188.80
516.51	33125.60
516.68	33392.42
516.85	33326.89
517.03	33027.30
517.20	33696.69
517.37	33958.83
517.54	34148.42
517.72	33888.62
517.89	33666.27
518.06	33425.19
518.24	33582.01
518.41	34382.47
518.58	34459.71
518.75	33977.56
518.93	34462.05
519.10	34235.02
519.27	34873.98
519.45	34888.03
519.62	34543.97
519.79	35182.93
519.96	34873.98
520.14	35363.15
520.31	34778.02
520.48	35211.02
520.65	35112.72
520.83	35601.89
521.00	35756.36
521.17	35522.31
521.34	35622.95
521.52	36194.04
521.69	35840.62
521.86	35681.47
522.03	35936.59
522.20	35718.92
522.38	36018.50
522.55	36126.17
522.72	35955.31
522.89	36027.87
523.07	35997.44
523.24	35765.73
523.41	36404.69
523.58	36341.50
523.75	36938.33
523.92	36678.54
524.10	37202.82
524.27	36886.84
524.44	37156.00
524.61	37235.58
524.78	36870.46
524.96	36978.12
525.13	37336.23
525.30	37619.43
525.47	37266.01
525.64	37324.52
525.81	37481.34
525.98	37235.58
526.16	37078.77
526.33	36720.66
526.50	37141.96
526.67	36954.72
526.84	37053.02
527.01	36982.80
527.18	37558.58
527.36	37853.48
527.53	38054.77
527.70	38885.66
527.87	37769.22
528.04	37780.93
528.21	38279.46
528.38	38239.67
528.55	38747.57
528.72	38150.73
528.89	38562.67
529.07	38373.08
529.24	38223.29
529.41	38419.89
529.58	38604.80
529.75	38019.66
529.92	38998.01
530.09	38724.16
530.26	38731.18
530.43	38850.55
530.60	38749.91
530.77	38742.89
530.94	39269.51
531.11	38576.71
531.28	39110.35
531.46	39009.71
531.63	39529.31
531.80	39325.68
531.97	39103.33
532.14	38981.62
532.31	38976.94
532.48	39019.07
532.65	39260.15
532.82	39269.51
532.99	39466.11
533.16	39475.48
533.33	38979.28
533.50	39739.96
533.67	39431.01
533.84	39627.61
534.01	39580.80
534.18	39255.46
534.35	39950.60
534.52	39805.49
534.69	39592.50
534.86	39908.47
535.03	40060.61
535.20	40201.04
535.37	40514.67
535.54	40641.06
535.71	40341.47
535.88	40624.68
536.05	40128.48
536.22	40168.27
536.38	40369.56
536.55	39990.39
536.72	39929.54
536.89	40512.33
537.06	40247.85
537.23	40659.79
537.40	40327.43
537.57	40685.53
537.74	40891.50
537.91	41102.15
538.08	40854.05
538.25	40587.23
538.42	40486.59
538.59	41205.13
538.75	40535.74
538.92	40760.43
539.09	41462.59
539.26	41055.34
539.43	41031.93
539.60	41366.63
539.77	40989.80
539.94	40538.08
540.11	41132.57
540.28	41497.70
540.44	40940.65
540.61	41184.07
540.78	41088.10
540.95	41226.20
541.12	41322.16
541.29	41273.01
541.46	41085.76
541.62	41617.07
541.79	41368.97
541.96	41902.61
542.13	41219.17
542.30	41116.19
542.47	41689.62
542.63	41474.29
542.80	41949.42
542.97	41837.08
543.14	41759.84
543.31	42029.00
543.48	42146.03
543.64	42380.08
543.81	42635.20
543.98	42120.28
544.15	42169.43
544.32	42120.28
544.48	42635.20
544.65	42351.99
544.82	42344.97
544.99	42160.07
545.16	42209.22
545.32	42368.38
545.49	42864.57
545.66	42782.65
545.83	42632.86
546.00	42885.64
546.16	42682.01
546.33	42522.85
546.50	42539.24
546.67	42927.77
546.83	42094.53
547.00	42773.29
547.17	43299.91
547.34	43014.37
547.50	42967.55
547.67	43058.84
547.84	42913.72
548.00	43548.01
548.17	43810.15
548.34	43098.62
548.51	43639.29
548.67	43613.54
548.84	43337.36
549.01	42983.94
549.18	43351.40
549.34	43222.67
549.51	43550.35
549.68	43856.96
549.84	43550.35
550.01	44016.11
550.18	43536.30
550.34	43555.03
550.51	43019.05
550.68	43353.74
550.84	42794.36
551.01	43533.96
551.18	43576.09
551.34	43316.29
551.51	43540.99
551.68	44245.49
551.84	43875.68
552.01	43751.63
552.18	43889.73
552.34	43335.02
552.51	44247.83
552.68	44121.44
552.84	43758.66
553.01	44177.61
553.18	44236.12
553.34	43578.43
553.51	44102.71
553.67	44170.59
553.84	44128.46
554.01	44594.23
554.17	44680.83
554.34	44521.67
554.51	44107.40
554.67	44083.99
554.84	44313.36
555.00	43988.03
555.17	44023.14
555.33	44460.82
555.50	44301.66
555.67	44210.38
555.83	44650.40
556.00	44009.09
556.16	44685.51
556.33	43789.08
556.50	44524.01
556.66	44449.11
556.83	44402.30
556.99	44603.59
557.16	44767.43
557.32	44304.00
557.49	44774.45
557.65	44135.48
557.82	44383.58
557.98	44657.42
558.15	44722.96
558.32	44835.30
558.48	44748.70
558.65	44638.70
558.81	44540.39
558.98	44825.94
559.14	44755.72
559.31	44355.49
559.47	44849.35
559.64	44818.92
559.80	44638.70
559.97	44926.58
560.13	44516.99
560.30	44535.71
560.46	44772.11
560.63	45059.99
560.79	44973.39
560.96	45577.25
561.12	45071.70
561.29	44577.84
561.45	45120.85
561.61	44591.89
561.78	44762.75
561.94	45172.34
562.11	45064.67
562.27	44844.66
562.44	45069.36
562.60	45078.72
562.77	45041.27
562.93	44898.50
563.10	45390.01
563.26	45015.52
563.42	45144.25
563.59	45212.13
563.75	44807.22
563.92	45207.45
564.08	45282.34
564.24	45230.85
564.41	45272.98
564.57	45111.49
564.74	45116.17
564.90	45607.68
565.07	45272.98
565.23	45464.91
565.39	45036.59
565.56	45457.88
565.72	45081.06
565.88	45148.93
566.05	45102.12
566.21	45144.25
566.38	45347.88
566.54	45535.12
566.70	45436.82
566.87	45698.96
567.03	45731.73
567.19	45879.18
567.36	45408.73
567.52	45401.71
567.68	45713.00
567.85	45186.38
568.01	45647.47
568.17	45071.70
568.34	46000.89
568.50	45408.73
568.66	45401.71
568.83	45478.95
568.99	45366.60
569.15	45382.99
569.32	45195.74
569.48	45233.19
569.64	45834.71
569.81	45535.12
569.97	45947.06
570.13	45705.98
570.30	44905.52
570.46	45312.77
570.62	44931.26
570.78	44793.17
570.95	44847.00
571.11	44957.01
571.27	45397.03
571.43	45265.96
571.60	45668.53
571.76	45483.63
571.92	45352.56
572.09	45696.62
572.25	45485.97
572.41	45542.14
572.57	45940.04
572.74	46160.05
572.90	45801.94
573.06	45652.15
573.22	45846.41
573.38	45268.30
573.55	45560.87
573.71	45879.18
573.87	45986.85
574.03	45375.97
574.20	45230.85
574.36	45481.29
574.52	46043.02
574.68	45621.72
574.84	45586.61
575.01	45579.59
575.17	45474.27
575.33	45375.97
575.49	45610.02
575.65	46108.55
575.82	45825.35
575.98	45603.00
576.14	46110.89
576.30	45963.44
576.46	45574.91
576.62	45483.63
576.79	45422.78
576.95	45776.20
577.11	45907.27
577.27	45848.75
577.43	45354.90
577.59	45179.36
577.75	45574.91
577.92	45118.51
578.08	45336.18
578.24	45385.33
578.40	45607.68
578.56	45572.57
578.72	45844.07
578.88	45979.82
579.04	45565.55
579.21	45577.25
579.37	45748.11
579.53	45584.27
579.69	45296.39
579.85	45177.02
580.01	45535.12
580.17	45500.01
580.33	46078.13
580.49	45846.41
580.65	45408.73
580.82	45595.98
580.98	45504.70
581.14	45378.31
581.30	45727.05
581.46	45752.79
581.62	45471.93
581.78	46122.60
581.94	45834.71
582.10	45764.49
582.26	45837.05
582.42	45621.72
582.58	45684.92
582.74	45743.43
582.90	46099.19
583.06	45773.86
583.22	45848.75
583.38	45970.46
583.54	46007.91
583.70	45820.67
583.86	46110.89
584.02	45729.39
584.18	45677.90
584.34	45593.64
584.50	45701.30
584.66	45670.87
584.82	45811.31
584.98	45937.69
585.14	45469.59
585.30	45336.18
585.46	45488.31
585.62	45118.51
585.78	45549.17
585.94	45074.04
586.10	45221.49
586.26	45797.26
586.42	45986.85
586.58	46005.57
586.74	45790.24
586.90	45647.47
587.06	45380.65
587.22	45722.37
587.38	45659.17
587.54	45930.67
587.70	45961.10
587.86	46040.68
588.02	45549.17
588.18	45848.75
588.34	45607.68
588.49	45116.17
588.65	44849.35
588.81	45495.33
588.97	45137.23
589.13	45303.41
589.29	45230.85
589.45	45048.29
589.61	45642.79
589.77	46146.00
589.93	45998.55
590.08	45553.85
