SpectraSuite Data File
++++++++++++++++++++++++++++++++++++
Date: Fri Oct 25 11:25:34 EDT 2013
User: price-jones
Dark Spectrum Present: No
Reference Spectrum Present: No
Number of Sampled Component Spectra: 1
Spectrometers: USB2+H05261
Integration Time (usec): 100000 (USB2+H05261)
Spectra Averaged: 1 (USB2+H05261)
Boxcar Smoothing: 0 (USB2+H05261)
Correct for Electrical Dark: No (USB2+H05261)
Strobe/Lamp Enabled: No (USB2+H05261)
Correct for Detector Non-linearity: No (USB2+H05261)
Correct for Stray Light: No (USB2+H05261)
Number of Pixels in Processed Spectrum: 2048
>>>>>Begin Processed Spectral Data<<<<<
365.73	159.16
365.92	159.16
366.12	159.16
366.32	205.97
366.52	140.43
366.72	156.82
366.91	138.09
367.11	161.50
367.31	86.60
367.51	119.37
367.70	184.90
367.90	161.50
368.10	131.07
368.30	128.73
368.49	156.82
368.69	100.64
368.89	175.54
369.09	147.45
369.28	212.99
369.48	180.22
369.68	182.56
369.87	156.82
370.07	229.37
370.27	259.80
370.47	318.31
370.66	589.82
370.86	641.31
371.06	587.47
371.25	704.50
371.45	676.41
371.65	650.67
371.84	685.78
372.04	662.37
372.24	737.27
372.44	713.86
372.63	760.67
372.83	758.33
373.03	727.91
373.22	770.04
373.42	781.74
373.62	748.97
373.81	866.00
374.01	851.96
374.21	767.70
374.40	809.83
374.60	809.83
374.79	798.12
374.99	746.63
375.19	800.46
375.38	891.74
375.58	791.10
375.78	819.19
375.97	894.08
376.17	940.90
376.37	936.21
376.56	910.47
376.76	842.59
376.95	898.77
377.15	894.08
377.35	926.85
377.54	945.58
377.74	873.02
377.93	887.06
378.13	868.34
378.33	980.68
378.52	854.30
378.72	990.05
378.91	915.15
379.11	1020.47
379.31	976.00
379.50	1015.79
379.70	933.87
379.89	1013.45
380.09	959.62
380.28	959.62
380.48	1078.99
380.68	1029.84
380.87	973.66
381.07	1069.62
381.26	976.00
381.46	1102.39
381.65	1048.56
381.85	971.32
382.04	992.39
382.24	1053.24
382.43	1039.20
382.63	1095.37
382.83	1050.90
383.02	1069.62
383.22	1181.97
383.41	1128.14
383.61	1071.97
383.80	1107.07
384.00	1186.65
384.19	1116.44
384.39	1170.27
384.58	1128.14
384.78	1090.69
384.97	1062.60
385.17	1132.82
385.36	1198.35
385.56	1158.57
385.75	1100.05
385.95	1128.14
386.14	1184.31
386.34	1268.57
386.53	1252.19
386.72	1167.93
386.92	1324.74
387.11	1240.48
387.31	1212.40
387.50	1348.15
387.70	1231.12
387.89	1219.42
388.09	1221.76
388.28	1320.06
388.48	1301.34
388.67	1291.98
388.86	1287.29
389.06	1270.91
389.25	1364.53
389.45	1387.94
389.64	1294.32
389.84	1404.32
390.03	1394.96
390.22	1294.32
390.42	1371.55
390.61	1327.08
390.81	1439.43
391.00	1446.45
391.19	1385.60
391.39	1465.18
391.58	1476.88
391.78	1460.49
391.97	1467.52
392.16	1533.05
392.36	1537.73
392.55	1439.43
392.75	1432.41
392.94	1530.71
393.13	1563.48
393.33	1446.45
393.52	1530.71
393.71	1544.75
393.91	1568.16
394.10	1535.39
394.29	1441.77
394.49	1486.24
394.68	1617.31
394.88	1659.44
395.07	1631.35
395.26	1692.21
395.46	1666.46
395.65	1682.85
395.84	1610.29
396.04	1802.21
396.23	1645.40
396.42	1713.27
396.62	1729.66
396.81	1853.70
397.00	1694.55
397.19	1844.34
397.39	1804.55
397.58	1799.87
397.77	1809.23
397.97	1846.68
398.16	1916.90
398.35	1851.36
398.55	1832.64
398.74	1935.62
398.93	1888.81
399.12	1928.60
399.32	1907.54
399.51	1956.69
399.70	2005.84
399.90	1928.60
400.09	1996.48
400.28	2033.93
400.47	2076.06
400.67	2127.55
400.86	2069.03
401.05	2045.63
401.24	2026.90
401.44	2146.27
401.63	2050.31
401.82	2043.29
402.01	2181.38
402.21	2221.17
402.40	2136.91
402.59	2303.09
402.78	2214.15
402.97	2312.45
403.17	2195.42
403.36	2204.78
403.55	2277.34
403.74	2312.45
403.93	2300.75
404.13	2408.41
404.32	2429.48
404.51	2342.88
404.70	2415.43
404.89	2410.75
405.09	2401.39
405.28	2445.86
405.47	2375.64
405.66	2527.78
405.85	2544.16
406.05	2495.01
406.24	2626.08
406.43	2525.44
406.62	2567.57
406.81	2607.36
407.00	2413.09
407.20	2672.89
407.39	2750.13
407.58	2644.81
407.77	2637.78
407.96	2715.02
408.15	2778.22
408.34	2691.62
408.54	2752.47
408.73	2663.53
408.92	2853.11
409.11	2848.43
409.30	2904.60
409.49	2935.03
409.68	2925.67
409.87	2878.86
410.07	2979.50
410.26	3002.91
410.45	3005.25
410.64	3016.95
410.83	3150.36
411.02	3080.14
411.21	3136.32
411.40	3192.49
411.59	3346.97
411.78	3236.96
411.98	3185.47
412.17	3180.79
412.36	3272.07
412.55	3300.16
412.74	3405.48
412.93	3442.93
413.12	3248.66
413.31	3449.95
413.50	3524.85
413.69	3407.82
413.88	3569.32
414.07	3595.06
414.26	3672.30
414.45	3616.13
414.64	3646.55
414.83	3700.39
415.02	3723.79
415.22	3939.12
415.41	3808.05
415.60	3840.82
415.79	4011.68
415.98	4168.49
416.17	3941.46
416.36	3988.27
416.55	4051.47
416.74	3997.64
416.93	4100.62
417.12	4138.07
417.31	4112.32
417.50	4133.39
417.69	4264.46
417.88	4273.82
418.07	4243.39
418.26	4238.71
418.45	4271.48
418.64	4416.59
418.83	4404.89
419.02	4318.29
419.21	4521.92
419.39	4573.41
419.58	4404.89
419.77	4489.15
419.96	4571.07
420.15	4514.89
420.34	4671.71
420.53	4629.58
420.72	4599.15
420.91	4643.62
421.10	4690.43
421.29	4695.11
421.48	4655.33
421.67	4711.50
421.86	4741.93
422.05	4758.31
422.24	4755.97
422.43	4877.68
422.61	4915.12
422.80	5018.11
422.99	4950.23
423.18	4823.84
423.37	4858.95
423.56	4798.10
423.75	5060.24
423.94	4788.74
424.13	4554.68
424.32	4692.77
424.50	4957.25
424.69	4912.78
424.88	5020.45
425.07	4854.27
425.26	4828.53
425.45	4945.55
425.64	4959.60
425.83	4992.36
426.01	5107.05
426.20	5064.92
426.39	5085.98
426.58	5118.75
426.77	5041.51
426.96	5142.16
427.15	5224.08
427.33	5362.17
427.52	5167.90
427.71	5207.69
427.90	5170.24
428.09	5118.75
428.28	5322.38
428.46	5397.28
428.65	5401.96
428.84	5476.85
429.03	5490.90
429.22	5273.23
429.40	5401.96
429.59	5460.47
429.78	5219.39
429.97	5273.23
430.16	5493.24
430.34	5633.67
430.53	5769.42
430.72	5654.73
430.91	5624.31
431.10	5664.10
431.28	5607.92
431.47	5666.44
431.66	5762.40
431.85	5563.45
432.03	5832.62
432.22	5919.21
432.41	5895.81
432.60	6026.88
432.79	5996.45
432.97	6019.86
433.16	6050.28
433.35	6169.65
433.54	5980.07
433.72	6108.80
433.91	6115.82
434.10	6031.56
434.28	6036.24
434.47	6129.86
434.66	6200.08
434.85	6167.31
435.03	6291.36
435.22	6300.72
435.41	6558.18
435.59	6574.56
435.78	6403.71
435.97	6363.92
436.16	6176.67
436.34	6511.37
436.53	6544.14
436.72	6539.46
436.90	6328.81
437.09	6504.35
437.28	6399.02
437.46	6651.80
437.65	6782.87
437.84	6588.61
438.02	6766.49
438.21	6668.19
438.40	6670.53
438.58	6965.43
438.77	6960.75
438.96	6794.58
439.14	7030.97
439.33	7164.38
439.52	7068.42
439.70	7162.04
439.89	7225.23
440.08	7412.48
440.26	7314.17
440.45	7213.53
440.63	7410.14
440.82	7536.52
441.01	7590.36
441.19	7623.12
441.38	7581.00
441.57	7721.43
441.75	7705.04
441.94	7920.37
442.12	7719.09
442.31	7782.28
442.50	8091.23
442.68	7878.24
442.87	8116.98
443.05	7875.90
443.24	8131.02
443.43	8210.60
443.61	8039.74
443.80	8194.22
443.98	8058.46
444.17	7826.75
444.35	8224.64
444.54	8463.38
444.73	8184.85
444.91	8180.17
445.10	8152.09
445.28	8121.66
445.47	8283.16
445.65	8170.81
445.84	8442.31
446.02	8362.73
446.21	8107.62
446.39	8465.72
446.58	8545.30
446.77	8393.16
446.95	8266.77
447.14	8341.67
447.32	8468.06
447.51	8444.65
447.69	8526.57
447.88	8531.25
448.06	8533.59
448.25	8507.85
448.43	8599.13
448.62	8290.18
448.80	8507.85
448.99	8629.56
449.17	8695.09
449.36	8631.90
449.54	8774.67
449.73	8929.14
449.91	8943.19
450.10	8926.80
450.28	9252.14
450.46	8868.29
450.65	8884.67
450.83	9135.11
451.02	9193.62
451.20	9062.55
451.39	9060.21
451.57	8964.25
451.76	9109.36
451.94	9032.13
452.13	9430.02
452.31	9205.33
452.49	8940.85
452.68	9242.78
452.86	9280.22
453.05	9284.91
453.23	9357.46
453.42	9298.95
453.60	9322.35
453.78	9320.01
453.97	9420.66
454.15	9511.94
454.34	9324.69
454.52	9696.84
454.70	9355.12
454.89	9743.65
455.07	9509.60
455.26	9958.98
455.44	9806.84
455.62	9998.77
455.81	9977.70
455.99	9715.56
456.17	10230.48
456.36	9956.64
456.54	10174.31
456.73	10061.96
456.91	10487.94
457.09	10340.49
457.28	10441.13
457.46	10232.82
457.64	10469.22
457.83	10218.78
458.01	10527.73
458.19	10714.97
458.38	10438.79
458.56	10518.37
458.74	10778.17
458.93	10614.33
459.11	10794.55
459.29	10719.65
459.48	10663.48
459.66	10560.50
459.84	10649.44
460.03	11061.37
460.21	10953.71
460.39	10881.15
460.57	10958.39
460.76	10972.43
460.94	10897.53
461.12	11119.89
461.31	11016.90
461.49	11136.27
461.67	11033.29
461.85	11384.37
462.04	11185.42
462.22	11838.43
462.40	11527.14
462.59	11410.11
462.77	11438.20
462.95	11651.19
463.13	11651.19
463.32	11646.51
463.50	11667.57
463.68	11768.21
463.86	11850.13
464.05	11595.01
464.23	11566.93
464.41	11836.09
464.59	11543.52
464.78	12287.81
464.96	12088.87
465.14	11992.90
465.32	12002.27
465.50	12067.80
465.69	12067.80
465.87	12159.08
466.05	11932.05
466.23	12203.55
466.41	12269.09
466.60	12468.03
466.78	12262.07
466.96	12051.42
467.14	12379.09
467.32	12393.14
467.51	12414.20
467.69	11925.03
467.87	12301.86
468.05	12514.84
468.23	12468.03
468.41	12442.29
468.60	12571.02
468.78	12603.78
468.96	12306.54
469.14	12615.49
469.32	13160.83
469.50	12856.56
469.69	12933.80
469.87	12784.01
470.05	12957.21
470.23	13092.96
470.41	13156.15
470.59	13378.50
470.77	13004.02
470.95	13015.72
471.14	13490.85
471.32	13212.32
471.50	13729.58
471.68	13575.11
471.86	13659.37
472.04	13671.07
472.22	13944.91
472.40	13708.52
472.58	13752.99
472.77	13650.00
472.95	14019.81
473.13	14565.15
473.31	13926.19
473.49	13954.27
473.67	14066.62
473.85	14150.88
474.03	14363.87
474.21	14427.06
474.39	14712.61
474.57	14607.28
474.75	14759.42
474.93	14862.40
475.12	14986.45
475.30	15075.39
475.48	14967.73
475.66	15063.69
475.84	15377.32
476.02	15332.85
476.20	15501.37
476.38	15789.25
476.56	16027.99
476.74	15712.02
476.92	15990.54
477.10	15777.55
477.28	15917.98
477.46	16067.78
477.64	16273.74
477.82	16390.77
478.00	16793.34
478.18	16648.23
478.36	16872.92
478.54	17268.47
478.72	17188.89
478.90	17324.65
479.08	17303.58
479.26	17514.23
479.44	17635.94
479.62	17930.84
479.80	17888.71
479.98	18026.81
480.16	18288.95
480.34	18099.36
480.52	18579.17
480.70	18515.98
480.88	18195.32
481.06	18735.99
481.24	18817.91
481.41	18853.02
481.59	19253.25
481.77	19028.56
481.95	19365.59
482.13	19550.49
482.31	19599.65
482.49	20084.14
482.67	20238.61
482.85	20163.72
483.03	20549.90
483.21	20746.51
483.39	20772.25
483.57	20795.66
483.74	20957.16
483.92	21151.42
484.10	21355.05
484.28	21862.94
484.46	21710.81
484.64	22501.91
484.82	21898.05
485.00	22232.75
485.18	22572.13
485.35	22768.73
485.53	23019.17
485.71	22686.81
485.89	23578.56
486.07	23260.24
486.25	23054.28
486.43	23410.04
486.61	23770.48
486.78	23648.77
486.96	23981.13
487.14	24507.75
487.32	24388.38
487.50	24489.03
487.68	24606.05
487.85	24805.00
488.03	25514.18
488.21	25645.25
488.39	25846.54
488.57	26010.37
488.75	25956.54
488.92	26242.09
489.10	26448.05
489.28	26590.83
489.46	26967.65
489.64	26127.40
489.81	27487.25
489.99	27550.45
490.17	27187.66
490.35	27983.44
490.53	28030.26
490.70	28631.77
490.88	28177.71
491.06	28734.76
491.24	28821.36
491.41	29046.05
491.59	29095.20
491.77	28924.34
491.95	29179.46
492.13	29610.12
492.30	29759.91
492.48	29993.97
492.66	30164.82
492.84	30176.53
493.01	30464.41
493.19	30490.16
493.37	30918.48
493.54	31283.60
493.72	31789.16
493.90	31271.90
494.08	31452.12
494.25	31810.22
494.43	31941.29
494.61	32065.34
494.79	32180.03
494.96	32528.77
495.14	32615.37
495.32	33062.41
495.49	33181.77
495.67	32912.61
495.85	33488.38
496.02	33567.96
496.20	33937.77
496.38	34181.18
496.55	33886.28
496.73	34747.59
496.91	34267.78
497.09	34632.91
497.26	34698.44
497.44	34689.08
497.62	34962.92
497.79	35302.30
497.97	35615.93
498.14	35754.02
498.32	35957.65
498.50	36128.51
498.67	36341.50
498.85	36102.76
499.03	36456.18
499.20	36383.63
499.38	36669.17
499.56	36662.15
499.73	36652.79
499.91	37123.24
500.08	37359.63
500.26	37179.41
500.44	37301.12
500.61	37450.91
500.79	37516.45
500.97	37954.13
501.14	38267.76
501.32	38506.49
501.49	38340.32
501.67	38209.25
501.84	38986.30
502.02	38719.48
502.20	38663.31
502.37	38902.04
502.55	38934.81
502.72	39262.49
502.90	39288.23
503.07	39225.04
503.25	39454.41
503.43	39555.05
503.60	39428.66
503.78	39959.97
503.95	39826.56
504.13	39950.60
504.30	40652.76
504.48	40369.56
504.65	40477.22
504.83	41067.04
505.01	41181.73
505.18	40893.84
505.36	41177.04
505.53	41069.38
505.71	41247.26
505.88	41383.01
506.06	41146.62
506.23	41488.34
506.41	41415.78
506.58	41928.36
506.76	42059.43
506.93	42117.94
507.11	41874.52
507.28	42164.75
507.46	42447.96
507.63	42890.32
507.81	42918.40
507.98	42979.26
508.16	43189.91
508.33	43201.61
508.50	43384.17
508.68	43405.23
508.85	43456.73
509.03	43243.74
509.20	43917.81
509.38	44509.97
509.55	44500.61
509.73	44140.16
509.90	44381.24
510.08	44371.88
510.25	44676.15
510.42	44626.99
510.60	44584.86
510.77	45085.74
510.95	45162.98
511.12	45052.97
511.30	44788.49
511.47	45411.07
511.64	45387.67
511.82	45628.74
511.99	45397.03
512.17	45464.91
512.34	46000.89
512.51	46375.37
512.69	46124.94
512.86	45989.19
513.04	46579.00
513.21	46361.33
513.38	46471.34
513.56	47023.70
513.73	46476.02
513.90	47014.34
514.08	46618.79
514.25	47004.98
514.43	47171.16
514.60	47374.78
514.77	47248.39
514.95	47271.80
515.12	47138.39
515.29	47285.84
515.47	47873.32
515.64	47636.92
515.81	48067.58
515.99	47667.35
516.16	48430.36
516.33	47962.26
516.51	48350.79
516.68	48493.56
516.85	48058.22
517.03	48605.91
517.20	49013.16
517.37	48715.91
517.54	48718.25
517.72	48769.74
517.89	49242.53
518.06	48725.27
518.24	49406.37
518.41	48811.87
518.58	49088.06
518.75	48706.55
518.93	49518.71
519.10	49219.13
519.27	49563.18
519.45	49516.37
519.62	49703.62
519.79	49822.98
519.96	49638.08
520.14	49865.11
520.31	49998.52
520.48	50300.45
520.65	49916.61
520.83	50417.48
521.00	50405.78
521.17	50141.30
521.34	50602.38
521.52	50356.63
521.69	50700.68
521.86	50834.10
522.03	50735.79
522.20	51381.78
522.38	51360.72
522.55	51114.96
522.72	50927.72
522.89	51124.32
523.07	51341.99
523.24	51599.45
523.41	51634.56
523.58	51147.73
523.75	51592.43
523.92	51339.65
524.10	51664.99
524.27	51812.44
524.44	52149.48
524.61	51704.77
524.78	51753.93
524.96	52018.41
525.13	51877.97
525.30	52411.62
525.47	52399.91
525.64	52172.88
525.81	52453.75
525.98	52584.82
526.16	52549.71
526.33	52470.13
526.50	52947.60
526.67	52619.92
526.84	52449.06
527.01	52439.70
527.18	52701.84
527.36	53235.48
527.53	52954.62
527.70	53071.65
527.87	53137.18
528.04	53298.68
528.21	53469.54
528.38	53242.51
528.55	53429.75
528.72	53443.79
528.89	53139.52
529.07	53104.41
529.24	53387.62
529.41	53581.88
529.58	53607.63
529.75	53310.38
529.92	53324.43
530.09	53712.95
530.26	53563.16
530.43	53911.90
530.60	53614.65
530.77	53698.91
530.94	54202.13
531.11	54108.50
531.28	54003.18
531.46	53855.73
531.63	54190.42
531.80	54094.46
531.97	54248.94
532.14	54241.92
532.31	54541.50
532.48	54316.81
532.65	54539.16
532.82	53918.92
532.99	54761.51
533.16	54316.81
533.33	54700.66
533.50	54562.57
533.67	54674.91
533.84	54571.93
534.01	54820.03
534.18	54611.72
534.35	55058.76
534.52	54740.45
534.69	54962.80
534.86	55072.81
535.03	54721.72
535.20	54969.82
535.37	55278.77
535.54	55185.15
535.71	54831.73
535.88	55194.51
536.05	55379.42
536.22	55409.84
536.38	55557.30
536.55	55309.20
536.72	55543.25
536.89	55325.58
537.06	55679.00
537.23	55458.99
537.40	55578.36
537.57	55744.54
537.74	55655.60
537.91	55922.42
538.08	55709.43
538.25	55463.67
538.42	55707.09
538.59	56137.75
538.75	55859.23
538.92	55899.01
539.09	56081.58
539.26	56002.00
539.43	56041.79
539.60	56011.36
539.77	56133.07
539.94	56303.93
540.11	56165.84
540.28	56142.43
540.44	56175.20
540.61	56444.36
540.78	56140.09
540.95	56339.04
541.12	56313.29
541.29	56264.14
541.46	56282.86
541.62	56395.21
541.79	56451.38
541.96	56329.67
542.13	56540.32
542.30	56498.19
542.47	56666.71
542.63	56701.82
542.80	56933.53
542.97	56835.23
543.14	57076.30
543.31	57102.05
543.48	56987.36
543.64	57499.94
543.81	56769.69
543.98	57020.13
544.15	57244.82
544.32	57504.62
544.48	57291.63
544.65	57123.11
544.82	57183.97
544.99	57148.86
545.16	57387.60
545.32	57240.14
545.49	57392.28
545.66	57581.86
545.83	57415.68
546.00	57492.92
546.16	57556.11
546.33	57364.19
546.50	57485.90
546.67	57572.50
546.83	57513.98
547.00	57986.77
547.17	57223.76
547.34	57762.08
547.50	57715.27
547.67	57832.30
547.84	57844.00
548.00	57752.72
548.17	58056.99
548.34	57911.88
548.51	58078.05
548.67	57996.13
548.84	57958.69
549.01	57998.48
549.18	57956.35
549.34	57918.90
549.51	57991.45
549.68	58176.36
549.84	58225.51
550.01	58452.54
550.18	58033.58
550.34	58342.53
550.51	58183.38
550.68	58337.85
550.84	58089.76
551.01	58344.87
551.18	58159.97
551.34	58340.19
551.51	58445.52
551.68	58389.34
551.84	58548.50
552.01	58279.34
552.18	58609.35
552.34	58358.92
552.51	58464.24
552.68	58499.35
552.84	58574.25
553.01	58948.73
553.18	58812.98
553.34	58628.08
553.51	58822.34
553.67	58838.73
553.84	58974.48
554.01	58794.26
554.17	58864.47
554.34	58990.86
554.51	58997.88
554.67	58850.43
554.84	58763.83
555.00	58738.08
555.17	58969.80
555.33	58827.02
555.50	58803.62
555.67	58838.73
555.83	58983.84
556.00	59049.38
556.16	59213.21
556.33	59044.69
556.50	59107.89
556.66	59344.28
556.83	58972.14
556.99	59248.32
557.16	59255.34
557.32	59449.61
557.49	59480.03
557.65	59196.83
557.82	59341.94
557.98	59105.55
558.15	59363.01
558.32	59276.41
558.48	59152.36
558.65	59276.41
558.81	59360.67
558.98	59288.11
559.14	59428.54
559.31	59662.60
559.47	59590.04
559.64	59456.63
559.80	59674.30
559.97	59634.51
560.13	59494.08
560.30	59501.10
560.46	59568.97
560.63	59725.79
560.79	59601.74
560.96	59910.69
561.12	59559.61
561.29	59587.70
561.45	59739.83
561.61	59709.41
561.78	59676.64
561.94	59585.36
562.11	59585.36
562.27	59770.26
562.44	59866.22
562.60	59868.56
562.77	59819.41
562.93	59620.47
563.10	59955.16
563.26	59714.09
563.42	60107.30
563.59	59849.84
563.75	59796.01
563.92	59821.75
564.08	59845.16
564.24	60023.04
564.41	59997.29
564.57	60200.92
564.74	59983.25
564.90	60074.53
565.07	60058.15
565.23	59913.03
565.39	59978.57
565.56	59936.44
565.72	60009.00
565.88	59908.35
566.05	60168.15
566.21	60168.15
566.38	60245.39
566.54	60229.01
566.70	60320.29
566.87	60348.37
567.03	59997.29
567.19	60236.03
567.36	60214.96
567.52	60048.78
567.68	60362.42
567.85	60170.49
568.01	60119.00
568.17	60306.24
568.34	60331.99
568.50	60058.15
568.66	60095.60
568.83	60296.88
568.99	60177.51
569.15	60355.39
569.32	60353.05
569.48	60233.69
569.64	60203.26
569.81	60135.38
569.97	60048.78
570.13	60294.54
570.30	60369.44
570.46	60275.82
570.62	60484.12
570.78	60250.07
570.95	60275.82
571.11	60280.50
571.27	60324.97
571.43	60484.12
571.60	60554.34
571.76	60526.25
571.92	60486.46
572.09	60411.57
572.25	60449.02
572.41	60378.80
572.57	60491.15
572.74	60502.85
572.90	60420.93
573.06	60570.72
573.22	60563.70
573.38	60481.78
573.55	60629.24
573.71	60729.88
573.87	60619.88
574.03	60498.17
574.20	60488.80
574.36	60509.87
574.52	60678.39
574.68	60397.52
574.84	60832.86
575.01	60640.94
575.17	60549.66
575.33	60336.67
575.49	60612.85
575.65	60816.48
575.82	60734.56
575.98	60860.95
576.14	60804.78
576.30	60570.72
576.46	60662.00
576.62	60566.04
576.79	60580.09
576.95	60322.63
577.11	60772.01
577.27	60786.05
577.43	60659.66
577.59	60439.65
577.75	60753.29
577.92	60540.30
578.08	60776.69
578.24	60767.33
578.40	60741.58
578.56	60879.67
578.72	60814.14
578.88	61029.47
579.04	60910.10
579.21	60750.94
579.37	60739.24
579.53	60842.23
579.69	60659.66
579.85	60666.69
580.01	60748.60
580.17	60769.67
580.33	60711.16
580.49	60711.16
580.65	60884.36
580.82	60676.05
580.98	60725.20
581.14	60837.54
581.30	60860.95
581.46	60846.91
581.62	60711.16
581.78	60568.38
581.94	60797.76
582.10	60924.14
582.26	60786.05
582.42	60711.16
582.58	60949.89
582.74	60921.80
582.90	60683.07
583.06	60853.93
583.22	60676.05
583.38	60842.23
583.54	60776.69
583.70	60776.69
583.86	60835.20
584.02	60706.47
584.18	61190.97
584.34	60952.23
584.50	60762.65
584.66	60760.31
584.82	60692.43
584.98	60893.72
585.14	60985.00
585.30	60706.47
585.46	61017.77
585.62	60931.17
585.78	60973.30
585.94	60657.32
586.10	60711.16
586.26	61071.60
586.42	60947.55
586.58	61010.74
586.74	60940.53
586.90	60889.04
587.06	60781.37
587.22	61116.07
587.38	61095.00
587.54	60851.59
587.70	61069.26
587.86	60811.80
588.02	61015.43
588.18	61216.71
588.34	60956.91
588.49	61003.72
