SpectraSuite Data File
++++++++++++++++++++++++++++++++++++
Date: Fri Oct 25 11:22:33 EDT 2013
User: price-jones
Dark Spectrum Present: No
Reference Spectrum Present: No
Number of Sampled Component Spectra: 1
Spectrometers: USB2+H05261
Integration Time (usec): 100000 (USB2+H05261)
Spectra Averaged: 1 (USB2+H05261)
Boxcar Smoothing: 0 (USB2+H05261)
Correct for Electrical Dark: No (USB2+H05261)
Strobe/Lamp Enabled: No (USB2+H05261)
Correct for Detector Non-linearity: No (USB2+H05261)
Correct for Stray Light: No (USB2+H05261)
Number of Pixels in Processed Spectrum: 2048
>>>>>Begin Processed Spectral Data<<<<<
365.73	238.73
365.92	238.73
366.12	238.73
366.32	110.01
366.52	128.73
366.72	105.32
366.91	133.41
367.11	138.09
367.31	91.28
367.51	88.94
367.70	170.86
367.90	114.69
368.10	124.05
368.30	88.94
368.49	95.96
368.69	117.03
368.89	156.82
369.09	131.07
369.28	201.29
369.48	173.20
369.68	166.18
369.87	168.52
370.07	177.88
370.27	241.08
370.47	283.20
370.66	538.32
370.86	645.99
371.06	716.20
371.25	620.24
371.45	580.45
371.65	683.44
371.84	748.97
372.04	730.25
372.24	674.07
372.44	692.80
372.63	758.33
372.83	730.25
373.03	767.70
373.22	746.63
373.42	758.33
373.62	695.14
373.81	772.38
374.01	795.78
374.21	772.38
374.40	807.48
374.60	777.06
374.79	795.78
374.99	730.25
375.19	833.23
375.38	866.00
375.58	821.53
375.78	833.23
375.97	884.72
376.17	863.66
376.37	821.53
376.56	802.80
376.76	891.74
376.95	856.64
377.15	971.32
377.35	924.51
377.54	940.90
377.74	842.59
377.93	1027.50
378.13	943.24
378.33	947.92
378.52	931.53
378.72	947.92
378.91	950.26
379.11	1029.84
379.31	877.70
379.50	952.60
379.70	1015.79
379.89	973.66
380.09	968.98
380.28	1013.45
380.48	1018.13
380.68	978.34
380.87	980.68
381.07	1001.75
381.26	990.05
381.46	1034.52
381.65	1025.15
381.85	1006.43
382.04	1088.35
382.24	1046.22
382.43	1046.22
382.63	1036.86
382.83	1074.31
383.02	1170.27
383.22	1233.46
383.41	1078.99
383.61	1179.63
383.80	1165.59
384.00	1076.65
384.19	1086.01
384.39	1146.86
384.58	1102.39
384.78	1109.41
384.97	1231.12
385.17	1053.24
385.36	1116.44
385.56	1153.88
385.75	1095.37
385.95	1219.42
386.14	1158.57
386.34	1177.29
386.53	1256.87
386.72	1177.29
386.92	1224.10
387.11	1156.22
387.31	1315.38
387.50	1139.84
387.70	1291.98
387.89	1306.02
388.09	1315.38
388.28	1207.72
388.48	1212.40
388.67	1247.51
388.86	1411.34
389.06	1303.68
389.25	1362.19
389.45	1327.08
389.64	1352.83
389.84	1430.07
390.03	1451.13
390.22	1322.40
390.42	1394.96
390.61	1331.76
390.81	1427.73
391.00	1357.51
391.19	1451.13
391.39	1523.69
391.58	1453.47
391.78	1451.13
391.97	1521.35
392.16	1530.71
392.36	1561.14
392.55	1584.54
392.75	1497.94
392.94	1547.09
393.13	1540.07
393.33	1561.14
393.52	1692.21
393.71	1671.14
393.91	1607.95
394.10	1479.22
394.29	1657.10
394.49	1563.48
394.68	1619.65
394.88	1739.02
395.07	1671.14
395.26	1661.78
395.46	1645.40
395.65	1717.95
395.84	1851.36
396.04	1729.66
396.23	1846.68
396.42	1746.04
396.62	1753.06
396.81	1874.77
397.00	1771.79
397.19	1811.57
397.39	1830.30
397.58	1858.39
397.77	1881.79
397.97	1949.67
398.16	1914.56
398.35	1923.92
398.55	1893.49
398.74	1961.37
398.93	1977.75
399.12	2012.86
399.32	1874.77
399.51	1940.30
399.70	2136.91
399.90	2008.18
400.09	2010.52
400.28	2115.84
400.47	2047.97
400.67	2083.08
400.86	2026.90
401.05	2026.90
401.24	2162.66
401.44	2052.65
401.63	2141.59
401.82	2211.81
402.01	2181.38
402.21	2008.18
402.40	2134.57
402.59	2143.93
402.78	2092.44
402.97	2298.41
403.17	2218.83
403.36	2169.68
403.55	2347.56
403.74	2354.58
403.93	2298.41
404.13	2466.92
404.32	2389.69
404.51	2338.20
404.70	2438.84
404.89	2373.30
405.09	2586.29
405.28	2492.67
405.47	2581.61
405.66	2511.39
405.85	2504.37
406.05	2509.05
406.24	2588.63
406.43	2569.91
406.62	2677.57
406.81	2745.45
407.00	2668.21
407.20	2710.34
407.39	2691.62
407.58	2686.94
407.77	2605.02
407.96	2623.74
408.15	2759.49
408.34	2726.72
408.54	2892.90
408.73	2822.69
408.92	2750.13
409.11	2897.58
409.30	2846.09
409.49	2846.09
409.68	2923.33
409.87	3150.36
410.07	3016.95
410.26	3007.59
410.45	3005.25
410.64	3045.04
410.83	3215.90
411.02	3112.91
411.21	3204.19
411.40	3124.62
411.59	3236.96
411.78	3272.07
411.98	3192.49
412.17	3101.21
412.36	3417.18
412.55	3473.36
412.74	3389.10
412.93	3569.32
413.12	3358.67
413.31	3588.04
413.50	3508.46
413.69	3527.19
413.88	3576.34
414.07	3669.96
414.26	3646.55
414.45	3662.94
414.64	3730.81
414.83	3508.46
415.02	3796.35
415.22	3815.07
415.41	3847.84
415.60	3824.44
415.79	4004.66
415.98	4007.00
416.17	3843.16
416.36	3971.89
416.55	3985.93
416.74	4135.73
416.93	4072.53
417.12	4095.94
417.31	4095.94
417.50	4152.11
417.69	4147.43
417.88	4315.95
418.07	4322.97
418.26	4432.97
418.45	4297.22
418.64	4617.88
418.83	4484.47
419.02	4470.42
419.21	4643.62
419.39	4535.96
419.58	4706.82
419.77	4447.02
419.96	4674.05
420.15	4657.67
420.34	4716.18
420.53	4601.49
420.72	4770.01
420.91	4765.33
421.10	4758.31
421.29	4791.08
421.48	4727.88
421.67	4737.24
421.86	4800.44
422.05	4973.64
422.24	4826.18
422.43	4971.30
422.61	4903.42
422.80	5018.11
422.99	4933.85
423.18	5006.41
423.37	5102.37
423.56	5219.39
423.75	4940.87
423.94	4887.04
424.13	4617.88
424.32	4814.48
424.50	5001.72
424.69	5078.96
424.88	5191.31
425.07	5093.01
425.26	4987.68
425.45	4999.38
425.64	4947.89
425.83	5050.88
426.01	5020.45
426.20	5139.82
426.39	5090.67
426.58	5165.56
426.77	5205.35
426.96	5160.88
427.15	5022.79
427.33	5277.91
427.52	5305.99
427.71	5228.76
427.90	5341.10
428.09	5413.66
428.28	5490.90
428.46	5394.93
428.65	5275.57
428.84	5685.16
429.03	5579.84
429.22	5270.89
429.40	5619.63
429.59	5631.33
429.78	5469.83
429.97	5280.25
430.16	5439.40
430.34	5671.12
430.53	5645.37
430.72	5753.04
430.91	5701.54
431.10	5500.26
431.28	5659.42
431.47	5823.25
431.66	5905.17
431.85	5762.40
432.03	5905.17
432.22	6099.44
432.41	5935.60
432.60	6010.50
432.79	6097.10
432.97	6097.10
433.16	6104.12
433.35	6134.54
433.54	6150.93
433.72	6267.95
433.91	6059.65
434.10	6176.67
434.28	6181.35
434.47	6272.64
434.66	6408.39
434.85	6382.64
435.03	6487.96
435.22	6377.96
435.41	6356.90
435.59	6303.06
435.78	6480.94
435.97	6459.88
436.16	6544.14
436.34	6282.00
436.53	6541.80
436.72	6581.59
436.90	6527.75
437.09	6710.32
437.28	6600.31
437.46	6829.68
437.65	6759.47
437.84	6864.79
438.02	6846.07
438.21	6836.70
438.40	6808.62
438.58	6918.62
438.77	7150.34
438.96	6860.11
439.14	7250.98
439.33	7269.70
439.52	7290.77
439.70	7342.26
439.89	7433.54
440.08	7552.91
440.26	7323.54
440.45	7531.84
440.63	7461.63
440.82	7803.35
441.01	7515.46
441.19	7681.64
441.38	7770.58
441.57	7691.00
441.75	7861.86
441.94	8021.02
442.12	8032.72
442.31	8084.21
442.50	8264.43
442.68	8121.66
442.87	8304.22
443.05	8004.63
443.24	8332.31
443.43	8421.25
443.61	8266.77
443.80	8657.64
443.98	8196.56
444.17	7995.27
444.35	8196.56
444.54	8552.32
444.73	8318.26
444.91	8348.69
445.10	8348.69
445.28	8531.25
445.47	8402.52
445.65	8336.99
445.84	8395.50
446.02	8376.78
446.21	8568.70
446.39	8318.26
446.58	8755.94
446.77	8711.47
446.95	8559.34
447.14	8500.83
447.32	8711.47
447.51	8596.79
447.69	8638.92
447.88	8723.18
448.06	8697.43
448.25	8482.10
448.43	8718.50
448.62	8617.85
448.80	8446.99
448.99	8711.47
449.17	8812.12
449.36	8835.52
449.54	8947.87
449.73	9004.04
449.91	9104.68
450.10	9055.53
450.28	9153.84
450.46	9008.72
450.65	9256.82
450.83	9219.37
451.02	9233.41
451.20	9252.14
451.39	9195.96
451.57	9081.28
451.76	9219.37
451.94	9308.31
452.13	9577.47
452.31	9455.76
452.49	9324.69
452.68	9399.59
452.86	9380.87
453.05	9446.40
453.23	9544.70
453.42	9343.42
453.60	9432.36
453.78	9610.24
453.97	9586.83
454.15	9488.53
454.34	9631.30
454.52	9947.28
454.70	9802.16
454.89	9626.62
455.07	9771.74
455.26	10188.35
455.44	10188.35
455.62	10066.64
455.81	10017.49
455.99	10071.33
456.17	10422.41
456.36	10134.52
456.54	10118.14
456.73	10396.66
456.91	10597.95
457.09	10525.39
457.28	10455.17
457.46	10342.83
457.64	10621.35
457.83	10747.74
458.01	10759.44
458.19	10951.37
458.38	10803.91
458.56	10878.81
458.74	10703.27
458.93	10761.78
459.11	10817.96
459.29	10836.68
459.48	10892.85
459.66	10731.36
459.84	11075.42
460.03	11204.14
460.21	11300.11
460.39	10991.16
460.57	11220.53
460.76	11243.93
460.94	11302.45
461.12	11112.86
461.31	11213.51
461.49	11342.24
461.67	11302.45
461.85	11342.24
462.04	11342.24
462.22	11882.90
462.40	11660.55
462.59	11632.46
462.77	11595.01
462.95	11705.02
463.13	11602.04
463.32	11609.06
463.50	11676.93
463.68	12032.69
463.86	11840.77
464.05	11815.02
464.23	11939.07
464.41	12114.61
464.59	11847.79
464.78	12327.60
464.96	11955.46
465.14	12016.31
465.32	12266.75
465.50	12250.36
465.69	12105.25
465.87	12395.48
466.05	12259.73
466.23	12587.40
466.41	12343.99
466.60	12610.81
466.78	12297.17
466.96	12224.62
467.14	12362.71
467.32	12498.46
467.51	12755.92
467.69	12332.28
467.87	12442.29
468.05	12870.61
468.23	12627.19
468.41	12657.62
468.60	12648.26
468.78	12798.05
468.96	12854.22
469.14	13111.68
469.32	13198.28
469.50	12596.76
469.69	13018.06
469.87	13130.41
470.05	13376.16
470.23	13284.88
470.41	13418.29
470.59	13174.88
470.77	13549.36
470.95	13493.19
471.14	13916.83
471.32	13369.14
471.50	13991.72
471.68	13877.04
471.86	13699.16
472.04	14164.92
472.22	14216.41
472.40	14031.51
472.58	13914.48
472.77	14197.69
472.95	14305.35
473.13	14434.08
473.31	14190.67
473.49	14349.82
473.67	14303.01
473.85	14382.59
474.03	14670.48
474.21	14609.62
474.39	14614.30
474.57	14946.66
474.75	15019.22
474.93	15147.95
475.12	15272.00
475.30	15236.89
475.48	15360.94
475.66	15194.76
475.84	15316.47
476.02	15592.65
476.20	15527.11
476.38	16098.20
476.56	15868.83
476.74	16168.42
476.92	16219.91
477.10	16086.50
477.28	16329.92
477.46	16325.24
477.64	16819.09
477.82	16851.86
478.00	17350.39
478.18	16975.91
478.36	17200.60
478.54	17413.59
478.72	17284.86
478.90	17465.08
479.08	17657.00
479.26	17877.01
479.44	17963.61
479.62	18122.77
479.80	18398.95
479.98	18403.63
480.16	18939.62
480.34	18525.34
480.52	18876.42
480.70	18689.18
480.88	18541.72
481.06	18829.61
481.24	19159.63
481.41	19300.06
481.59	19733.06
481.77	19871.15
481.95	19814.98
482.13	20152.01
482.31	19847.74
482.49	20147.33
482.67	20739.49
482.85	20690.34
483.03	20608.42
483.21	20863.54
483.39	21027.37
483.57	20957.16
483.74	21397.18
483.92	21551.65
484.10	21521.23
484.28	21935.50
484.46	22066.57
484.64	22616.60
484.82	22581.49
485.00	22595.53
485.18	23026.19
485.35	22927.89
485.53	23215.77
485.71	23246.20
485.89	23817.29
486.07	23307.05
486.25	23536.43
486.43	23887.51
486.61	23939.00
486.78	23936.66
486.96	24474.98
487.14	24683.29
487.32	25025.01
487.50	25245.02
487.68	25099.90
487.85	25965.90
488.03	25738.87
488.21	26082.93
488.39	26188.25
488.57	26485.50
488.75	26579.12
488.92	26574.44
489.10	27190.00
489.28	26742.96
489.46	27332.78
489.64	27367.88
489.81	27859.40
489.99	27931.95
490.17	28074.73
490.35	28299.42
490.53	28617.73
490.70	28816.68
490.88	28521.77
491.06	29422.87
491.24	28879.87
491.41	29560.97
491.59	29294.14
491.77	29469.69
491.95	29738.85
492.13	29811.40
492.30	30483.14
492.48	30251.42
492.66	30752.30
492.84	30845.92
493.01	30962.95
493.19	30843.58
493.37	31763.41
493.54	31510.63
493.72	31983.42
493.90	32095.77
494.08	32376.63
494.25	32617.71
494.43	32109.81
494.61	32327.48
494.79	32936.02
494.96	32465.57
495.14	33354.97
495.32	33441.57
495.49	33289.44
495.67	33797.34
495.85	34026.71
496.02	34281.83
496.20	34230.33
496.38	34422.26
496.55	34321.62
496.73	35124.42
496.91	35030.80
497.09	35484.86
497.26	35351.45
497.44	35283.58
497.62	35662.74
497.79	36023.19
497.97	35503.59
498.14	36119.15
498.32	36608.32
498.50	36666.83
498.67	37127.92
498.85	36879.82
499.03	37050.68
499.20	37546.87
499.38	37422.83
499.56	37574.96
499.73	37364.31
499.91	37633.47
500.08	38075.84
500.26	37825.40
500.44	37972.85
500.61	38511.17
500.79	38242.01
500.97	38515.86
501.14	38866.94
501.32	38789.70
501.49	38820.13
501.67	38976.94
501.84	39737.62
502.02	39545.69
502.20	39402.92
502.37	39828.90
502.55	39250.78
502.72	39744.64
502.90	39826.56
503.07	40093.38
503.25	39945.92
503.43	40531.06
503.60	40535.74
503.78	40371.90
503.95	40718.30
504.13	40598.93
504.30	40760.43
504.48	40903.20
504.65	41104.49
504.83	41729.41
505.01	41886.23
505.18	41839.42
505.36	42014.96
505.53	41792.61
505.71	41940.06
505.88	42092.19
506.06	42054.75
506.23	42600.09
506.41	42204.54
506.58	42869.25
506.76	42768.61
506.93	42792.01
507.11	42848.19
507.28	42822.44
507.46	43435.66
507.63	43543.33
507.81	43672.06
507.98	43606.52
508.16	43519.92
508.33	43543.33
508.50	44182.29
508.68	43798.44
508.85	44154.21
509.03	44357.83
509.20	44128.46
509.38	44933.60
509.55	45284.68
509.73	44907.86
509.90	44788.49
510.08	44786.15
510.25	45008.50
510.42	45380.65
510.60	45698.96
510.77	45820.67
510.95	45844.07
511.12	45474.27
511.30	45265.96
511.47	46136.64
511.64	45996.21
511.82	45968.12
511.99	45900.25
512.17	46433.89
512.34	46197.49
512.51	46670.28
512.69	46850.50
512.86	46614.11
513.04	46724.11
513.21	47152.43
513.38	46705.39
513.56	47002.64
513.73	46932.42
513.90	47583.09
514.08	47206.26
514.25	48156.52
514.43	47547.98
514.60	48222.06
514.77	47744.59
514.95	48083.97
515.12	47861.61
515.29	47643.94
515.47	48280.57
515.64	48638.67
515.81	48566.12
515.99	48418.66
516.16	48945.28
516.33	48430.36
516.51	49565.52
516.68	48818.89
516.85	48912.52
517.03	49050.61
517.20	49389.98
517.37	49226.15
517.54	49202.74
517.72	49345.51
517.89	49338.49
518.06	49448.50
518.24	49745.75
518.41	49640.42
518.58	49776.17
518.75	49720.00
518.93	49918.95
519.10	49947.03
519.27	50298.11
519.45	49790.22
519.62	50230.24
519.79	50005.55
519.96	50255.98
520.14	50511.10
520.31	50562.59
520.48	50733.45
520.65	51175.81
520.83	50817.71
521.00	51267.09
521.17	51143.05
521.34	51070.49
521.52	51180.49
521.69	51498.81
521.86	51171.13
522.03	51351.35
522.20	51608.81
522.38	52058.20
522.55	51749.24
522.72	51751.59
522.89	52107.35
523.07	51950.53
523.24	51648.60
523.41	52224.37
523.58	51702.43
523.75	52271.18
523.92	52322.68
524.10	52404.59
524.27	52198.63
524.44	52542.69
524.61	52470.13
524.78	52392.89
524.96	52444.38
525.13	52802.49
525.30	53176.97
525.47	52753.33
525.64	52772.06
525.81	53006.11
525.98	53050.58
526.16	53066.97
526.33	52828.23
526.50	53481.24
526.67	53305.70
526.84	53415.71
527.01	53272.93
527.18	53289.32
527.36	53172.29
527.53	53310.38
527.70	53792.53
527.87	53558.48
528.04	53586.57
528.21	53624.01
528.38	53680.19
528.55	53813.60
528.72	53949.35
528.89	53853.39
529.07	53675.51
529.24	53631.04
529.41	54021.90
529.58	54199.79
529.75	53900.20
529.92	53947.01
530.09	54405.75
530.26	54270.00
530.43	54506.40
530.60	54150.63
530.77	54209.15
530.94	54337.88
531.11	54358.94
531.28	54595.34
531.46	54536.82
531.63	54705.34
531.80	54691.30
531.97	54887.90
532.14	54801.30
532.31	54815.35
532.48	54831.73
532.65	54955.78
532.82	54766.20
532.99	54986.21
533.16	54951.10
533.33	55112.59
533.50	54983.86
533.67	55107.91
533.84	55112.59
534.01	55281.11
534.18	55412.18
534.35	55526.87
534.52	55426.23
534.69	55531.55
534.86	55433.25
535.03	55304.52
535.20	55498.78
535.37	55473.04
535.54	55519.85
535.71	55550.27
535.88	55807.73
536.05	55922.42
536.22	56126.05
536.38	56034.77
536.55	55924.76
536.72	55882.63
536.89	56030.08
537.06	55835.82
537.23	56287.54
537.40	55737.52
537.57	55948.17
537.74	55952.85
537.91	56205.62
538.08	56039.45
538.25	55875.61
538.42	56198.60
538.59	56659.69
538.75	56456.06
538.92	56495.85
539.09	56385.85
539.26	56179.88
539.43	56598.83
539.60	56608.20
539.77	56479.47
539.94	56769.69
540.11	56552.02
540.28	56561.39
540.44	56683.09
540.61	56671.39
540.78	56790.76
540.95	56584.79
541.12	56718.20
541.29	56755.65
541.46	56563.73
541.62	56945.23
541.79	57041.20
541.96	56537.98
542.13	56736.93
542.30	57109.07
542.47	57034.17
542.63	56994.39
542.80	57198.01
542.97	57183.97
543.14	57422.70
543.31	57415.68
543.48	57478.88
543.64	57698.89
543.81	57612.29
543.98	57546.75
544.15	57593.56
544.32	57726.97
544.48	57724.63
544.65	57642.71
544.82	57591.22
544.99	57495.26
545.16	57860.38
545.32	57504.62
545.49	58019.54
545.66	58075.71
545.83	57916.56
546.00	57956.35
546.16	57762.08
546.33	57841.66
546.50	57656.76
546.67	57958.69
546.83	57834.64
547.00	58101.46
547.17	57942.30
547.34	58113.16
547.50	58108.48
547.67	58354.24
547.84	58319.13
548.00	58482.97
548.17	58543.82
548.34	58225.51
548.51	58585.95
548.67	58529.78
548.84	58452.54
549.01	58197.42
549.18	58464.24
549.34	58534.46
549.51	58616.38
549.68	58548.50
549.84	58614.04
550.01	58651.48
550.18	58532.12
550.34	58717.02
550.51	58719.36
550.68	58801.28
550.84	58396.37
551.01	58948.73
551.18	58812.98
551.34	58918.31
551.51	58824.68
551.68	59040.01
551.84	58880.86
552.01	58679.57
552.18	58688.93
552.34	58918.31
552.51	59180.45
552.68	58829.37
552.84	59021.29
553.01	59236.62
553.18	59140.66
553.34	59025.97
553.51	59189.81
553.67	59028.31
553.84	59440.24
554.01	59187.47
554.17	59248.32
554.34	59206.19
554.51	59215.55
554.67	59332.58
554.84	59334.92
555.00	59384.07
555.17	59449.61
555.33	59320.88
555.50	59316.20
555.67	59072.78
555.83	59290.45
556.00	59465.99
556.16	59693.02
556.33	59805.37
556.50	59585.36
556.66	59564.29
556.83	59302.15
556.99	59737.49
557.16	59667.28
557.32	59653.23
557.49	59901.33
557.65	59702.38
557.82	59561.95
557.98	59756.22
558.15	59693.02
558.32	59517.48
558.48	59531.53
558.65	59765.58
558.81	59821.75
558.98	59985.59
559.14	59791.33
559.31	59861.54
559.47	59966.87
559.64	59847.50
559.80	59978.57
559.97	60233.69
560.13	60107.30
560.30	59971.55
560.46	60151.77
560.63	60009.00
560.79	59980.91
560.96	60133.04
561.12	60163.47
561.29	60114.32
561.45	60191.56
561.61	60046.44
561.78	60023.04
561.94	60107.30
562.11	60095.60
562.27	60193.90
562.44	60278.16
562.60	60383.48
562.77	60161.13
562.93	60083.89
563.10	60243.05
563.26	60151.77
563.42	60449.02
563.59	60212.62
563.75	60114.32
563.92	60357.74
564.08	60287.52
564.24	60439.65
564.41	60149.43
564.57	60369.44
564.74	60458.38
564.90	60437.31
565.07	60364.76
565.23	60364.76
565.39	60500.51
565.56	60519.23
565.72	60463.06
565.88	60631.58
566.05	60477.10
566.21	60540.30
566.38	60472.42
566.54	60544.98
566.70	60570.72
566.87	60647.96
567.03	60411.57
567.19	60474.76
567.36	60549.66
567.52	60280.50
567.68	60788.39
567.85	60615.19
568.01	60767.33
568.17	60526.25
568.34	60797.76
568.50	60467.74
568.66	60774.35
568.83	60617.53
568.99	60638.60
569.15	60774.35
569.32	60795.42
569.48	60692.43
569.64	60718.18
569.81	60797.76
569.97	60725.20
570.13	60722.86
570.30	60643.28
570.46	60795.42
570.62	60914.78
570.78	60931.17
570.95	61092.66
571.11	60893.72
571.27	60596.47
571.43	60657.32
571.60	60872.65
571.76	60999.04
571.92	60807.12
572.09	61024.79
572.25	60669.03
572.41	60701.79
572.57	60837.54
572.74	61052.87
572.90	60980.32
573.06	60797.76
573.22	60823.50
573.38	60884.36
573.55	60734.56
573.71	61097.34
573.87	60882.02
574.03	60706.47
574.20	60966.27
574.36	60830.52
574.52	60877.33
574.68	60942.87
574.84	61167.56
575.01	61027.13
575.17	60994.36
575.33	61001.38
575.49	60949.89
575.65	60956.91
575.82	60921.80
575.98	61013.08
576.14	61247.14
576.30	61190.97
576.46	60956.91
576.62	61059.90
576.79	60872.65
576.95	61045.85
577.11	61190.97
577.27	60931.17
577.43	61062.24
577.59	60966.27
577.75	60774.35
577.92	60963.93
578.08	61076.28
578.24	61179.26
578.40	61197.99
578.56	61289.27
578.72	60952.23
578.88	61228.41
579.04	61188.63
579.21	61027.13
579.37	61312.67
579.53	61368.85
579.69	60963.93
579.85	61031.81
580.01	61104.37
580.17	60961.59
580.33	61167.56
580.49	61165.22
580.65	61172.24
580.82	60963.93
580.98	61083.30
581.14	61134.79
581.30	61104.37
581.46	61076.28
581.62	61254.16
581.78	61350.12
581.94	61420.34
582.10	61190.97
582.26	61015.43
582.42	61214.37
582.58	61272.88
582.74	61300.97
582.90	61181.60
583.06	61247.14
583.22	61083.30
583.38	61050.53
583.54	61125.43
583.70	61216.71
583.86	61251.82
584.02	61066.92
584.18	61464.81
584.34	61284.59
584.50	61155.86
584.66	61207.35
584.82	60917.12
584.98	61364.17
585.14	61359.48
585.30	61097.34
585.46	61190.97
585.62	61389.91
585.78	61324.38
585.94	61095.00
586.10	61172.24
586.26	61202.67
586.42	61193.31
586.58	61448.42
586.74	61160.54
586.90	61298.63
587.06	61298.63
587.22	61249.48
587.38	61326.72
587.54	61336.08
587.70	61567.79
587.86	61439.06
588.02	61436.72
588.18	61251.82
588.34	61408.64
