SpectraSuite Data File
++++++++++++++++++++++++++++++++++++
Date: Fri Oct 25 11:25:51 EDT 2013
User: price-jones
Dark Spectrum Present: No
Reference Spectrum Present: No
Number of Sampled Component Spectra: 1
Spectrometers: USB2+H05261
Integration Time (usec): 100000 (USB2+H05261)
Spectra Averaged: 1 (USB2+H05261)
Boxcar Smoothing: 0 (USB2+H05261)
Correct for Electrical Dark: No (USB2+H05261)
Strobe/Lamp Enabled: No (USB2+H05261)
Correct for Detector Non-linearity: No (USB2+H05261)
Correct for Stray Light: No (USB2+H05261)
Number of Pixels in Processed Spectrum: 2048
>>>>>Begin Processed Spectral Data<<<<<
365.73	264.48
365.92	264.48
366.12	264.48
366.32	145.11
366.52	163.84
366.72	121.71
366.91	100.64
367.11	159.16
367.31	177.88
367.51	117.03
367.70	128.73
367.90	182.56
368.10	147.45
368.30	170.86
368.49	142.77
368.69	102.98
368.89	236.39
369.09	182.56
369.28	194.26
369.48	152.13
369.68	189.58
369.87	243.42
370.07	205.97
370.27	273.84
370.47	353.42
370.66	594.50
370.86	596.84
371.06	706.84
371.25	695.14
371.45	671.73
371.65	638.97
371.84	706.84
372.04	678.76
372.24	734.93
372.44	610.88
372.63	746.63
372.83	800.46
373.03	755.99
373.22	755.99
373.42	751.31
373.62	842.59
373.81	851.96
374.01	819.19
374.21	812.17
374.40	781.74
374.60	837.91
374.79	858.98
374.99	940.90
375.19	828.55
375.38	870.68
375.58	861.32
375.78	896.43
375.97	940.90
376.17	894.08
376.37	875.36
376.56	887.06
376.76	835.57
376.95	805.14
377.15	933.87
377.35	861.32
377.54	837.91
377.74	875.36
377.93	880.04
378.13	931.53
378.33	898.77
378.52	898.77
378.72	1043.88
378.91	908.13
379.11	952.60
379.31	873.02
379.50	922.17
379.70	1006.43
379.89	959.62
380.09	966.64
380.28	1050.90
380.48	924.51
380.68	954.94
380.87	1008.77
381.07	964.30
381.26	1011.11
381.46	1043.88
381.65	1050.90
381.85	997.07
382.04	1069.62
382.24	1067.28
382.43	1123.46
382.63	992.39
382.83	1074.31
383.02	1121.12
383.22	1156.22
383.41	1048.56
383.61	1193.67
383.80	1158.57
384.00	1130.48
384.19	1188.99
384.39	1118.78
384.58	1167.93
384.78	1170.27
384.97	1158.57
385.17	1165.59
385.36	1172.61
385.56	1142.18
385.75	1130.48
385.95	1228.78
386.14	1160.91
386.34	1153.88
386.53	1343.47
386.72	1219.42
386.92	1170.27
387.11	1315.38
387.31	1273.25
387.50	1275.59
387.70	1263.89
387.89	1240.48
388.09	1224.10
388.28	1221.76
388.48	1306.02
388.67	1331.76
388.86	1263.89
389.06	1343.47
389.25	1437.09
389.45	1294.32
389.64	1315.38
389.84	1390.28
390.03	1359.85
390.22	1359.85
390.42	1338.79
390.61	1362.19
390.81	1327.08
391.00	1383.26
391.19	1411.34
391.39	1448.79
391.58	1507.30
391.78	1502.62
391.97	1343.47
392.16	1486.24
392.36	1519.01
392.55	1390.28
392.75	1507.30
392.94	1472.20
393.13	1486.24
393.33	1519.01
393.52	1582.20
393.71	1629.01
393.91	1514.33
394.10	1507.30
394.29	1650.08
394.49	1589.22
394.68	1535.39
394.88	1657.10
395.07	1724.97
395.26	1746.04
395.46	1584.54
395.65	1720.29
395.84	1757.74
396.04	1713.27
396.23	1739.02
396.42	1795.19
396.62	1746.04
396.81	1865.41
397.00	1839.66
397.19	1743.70
397.39	1748.38
397.58	1830.30
397.77	1774.13
397.97	1715.61
398.16	1734.34
398.35	1820.94
398.55	1802.21
398.74	1877.11
398.93	1984.77
399.12	1907.54
399.32	1900.52
399.51	1984.77
399.70	2001.16
399.90	1952.01
400.09	2024.56
400.28	2050.31
400.47	1968.39
400.67	2029.24
400.86	2097.12
401.05	1975.41
401.24	2017.54
401.44	2113.50
401.63	2080.74
401.82	2202.44
402.01	2071.37
402.21	2169.68
402.40	2275.00
402.59	2260.96
402.78	2197.76
402.97	2246.91
403.17	2232.87
403.36	2282.02
403.55	2136.91
403.74	2349.90
403.93	2429.48
404.13	2354.58
404.32	2392.03
404.51	2387.35
404.70	2431.82
404.89	2275.00
405.09	2408.41
405.28	2572.25
405.47	2473.95
405.66	2469.27
405.85	2497.35
406.05	2499.69
406.24	2605.02
406.43	2649.49
406.62	2661.19
406.81	2696.30
407.00	2590.97
407.20	2630.76
407.39	2569.91
407.58	2665.87
407.77	2834.39
407.96	2827.37
408.15	2738.43
408.34	2689.28
408.54	2771.19
408.73	2834.39
408.92	2796.94
409.11	2832.05
409.30	2918.65
409.49	2949.08
409.68	2836.73
409.87	3007.59
410.07	2972.48
410.26	2970.14
410.45	3038.02
410.64	3141.00
410.83	3009.93
411.02	3229.94
411.21	3213.56
411.40	3054.40
411.59	3101.21
411.78	3178.45
411.98	3239.30
412.17	3199.51
412.36	3227.60
412.55	3353.99
412.74	3342.28
412.93	3391.44
413.12	3515.48
413.31	3445.27
413.50	3562.30
413.69	3513.14
413.88	3590.38
414.07	3438.25
414.26	3501.44
414.45	3599.74
414.64	3613.79
414.83	3716.77
415.02	3831.46
415.22	3829.12
415.41	3836.14
415.60	3831.46
415.79	3852.52
415.98	3915.72
416.17	4028.06
416.36	3840.82
416.55	4086.58
416.74	4070.19
416.93	4014.02
417.12	4117.00
417.31	4159.13
417.50	4086.58
417.69	4315.95
417.88	4470.42
418.07	4098.28
418.26	4299.56
418.45	4262.12
418.64	4301.90
418.83	4402.55
419.02	4500.85
419.21	4414.25
419.39	4461.06
419.58	4440.00
419.77	4348.72
419.96	4437.66
420.15	4468.08
420.34	4491.49
420.53	4671.71
420.72	4561.70
420.91	4802.78
421.10	4718.52
421.29	4748.95
421.48	4671.71
421.67	4676.39
421.86	4634.26
422.05	4767.67
422.24	4938.53
422.43	4791.08
422.61	4954.91
422.80	4971.30
422.99	5022.79
423.18	4945.55
423.37	4917.47
423.56	4987.68
423.75	4896.40
423.94	4842.57
424.13	4634.26
424.32	4634.26
424.50	5036.83
424.69	5142.16
424.88	5121.09
425.07	4961.94
425.26	4959.60
425.45	5018.11
425.64	5043.85
425.83	4971.30
426.01	5050.88
426.20	5032.15
426.39	5022.79
426.58	5104.71
426.77	4894.06
426.96	5085.98
427.15	5132.79
427.33	5301.31
427.52	5247.48
427.71	5055.56
427.90	5359.83
428.09	5373.87
428.28	5418.34
428.46	5191.31
428.65	5268.55
428.84	5418.34
429.03	5458.13
429.22	5404.30
429.40	5521.32
429.59	5448.77
429.78	5181.95
429.97	5287.27
430.16	5418.34
430.34	5633.67
430.53	5753.04
430.72	5687.50
430.91	5568.13
431.10	5699.20
431.28	5825.59
431.47	5813.89
431.66	5860.70
431.85	5661.76
432.03	5872.40
432.22	5928.58
432.41	5841.98
432.60	6090.07
432.79	5912.19
432.97	5790.49
433.16	5984.75
433.35	5996.45
433.54	6190.72
433.72	5937.94
433.91	6270.30
434.10	6052.63
434.28	5989.43
434.47	6207.10
434.66	6108.80
434.85	6279.66
435.03	6307.74
435.22	6284.34
435.41	6436.47
435.59	6230.51
435.78	6431.79
435.97	6340.51
436.16	6289.02
436.34	6560.52
436.53	6539.46
436.72	6726.70
436.90	6490.31
437.09	6698.61
437.28	6476.26
437.46	6595.63
437.65	6553.50
437.84	6787.55
438.02	6738.40
438.21	6778.19
438.40	6642.44
438.58	6878.83
438.77	7094.16
438.96	6794.58
439.14	7232.26
439.33	7194.81
439.52	7159.70
439.70	7211.19
439.89	7379.71
440.08	7283.75
440.26	7424.18
440.45	7262.68
440.63	7358.64
440.82	7548.23
441.01	7412.48
441.19	7520.14
441.38	7798.66
441.57	7705.04
441.75	7756.54
441.94	7847.82
442.12	7901.65
442.31	7878.24
442.50	8173.15
442.68	7789.30
442.87	7990.59
443.05	8135.70
443.24	7988.25
443.43	8229.32
443.61	8315.92
443.80	8540.61
443.98	8098.25
444.17	7875.90
444.35	8184.85
444.54	8290.18
444.73	8231.66
444.91	8180.17
445.10	8468.06
445.28	8226.98
445.47	8215.28
445.65	8456.36
445.84	8402.52
446.02	8327.63
446.21	8407.20
446.39	8416.57
446.58	8414.23
446.77	8400.18
446.95	8446.99
447.14	8397.84
447.32	8411.89
447.51	8280.82
447.69	8566.36
447.88	8659.98
448.06	8477.42
448.25	8421.25
448.43	8564.02
448.62	8470.40
448.80	8606.15
448.99	8652.96
449.17	8744.24
449.36	8484.44
449.54	8868.29
449.73	8830.84
449.91	8872.97
450.10	8924.46
450.28	9193.62
450.46	9083.62
450.65	9109.36
450.83	9102.34
451.02	8954.89
451.20	9142.13
451.39	8940.85
451.57	9202.99
451.76	9139.79
451.94	9191.28
452.13	9242.78
452.31	9385.55
452.49	9067.24
452.68	9401.93
452.86	9437.04
453.05	9514.28
453.23	9413.63
453.42	9563.43
453.60	9390.23
453.78	9544.70
453.97	9458.10
454.15	9565.77
454.34	9673.43
454.52	9568.11
454.70	9493.21
454.89	9673.43
455.07	9659.39
455.26	9809.19
455.44	9928.55
455.62	9823.23
455.81	9736.63
455.99	10038.56
456.17	10092.39
456.36	9954.30
456.54	10164.95
456.73	10319.42
456.91	10333.47
457.09	10408.36
457.28	10478.58
457.46	10068.98
457.64	10665.82
457.83	10572.20
458.01	10312.40
458.19	10574.54
458.38	10443.47
458.56	10808.59
458.74	10523.05
458.93	10710.29
459.11	10621.35
459.29	10583.90
459.48	10668.16
459.66	10778.17
459.84	11026.26
460.03	10925.62
460.21	11016.90
460.39	10916.26
460.57	11005.20
460.76	11349.26
460.94	11246.27
461.12	11098.82
461.31	11091.80
461.49	11096.48
461.67	11009.88
461.85	11442.88
462.04	11225.21
462.22	11756.51
462.40	11440.54
462.59	11351.60
462.77	11442.88
462.95	11576.29
463.13	11555.22
463.32	11349.26
463.50	11520.12
463.68	11616.08
463.86	11768.21
464.05	11585.65
464.23	11786.94
464.41	11777.58
464.59	11583.31
464.78	11857.15
464.96	11920.35
465.14	11875.88
465.32	11899.28
465.50	12212.92
465.69	12044.40
465.87	12152.06
466.05	11934.39
466.23	12114.61
466.41	12238.66
466.60	12571.02
466.78	12203.55
466.96	12182.49
467.14	12458.67
467.32	12341.64
467.51	12470.37
467.69	12091.21
467.87	12301.86
468.05	12645.91
468.23	12358.03
468.41	12505.48
468.60	12416.54
468.78	12795.71
468.96	12533.57
469.14	12716.13
469.32	12999.34
469.50	12624.85
469.69	12814.43
469.87	13060.19
470.05	13062.53
470.23	13060.19
470.41	13015.72
470.59	13186.58
470.77	13128.06
470.95	13270.84
471.14	13394.89
471.32	12856.56
471.50	13586.81
471.68	13621.92
471.86	13249.77
472.04	13565.74
472.22	13825.54
472.40	13451.06
472.58	13752.99
472.77	13858.31
472.95	14001.08
473.13	14693.88
473.31	14153.22
473.49	14153.22
473.67	14134.50
473.85	14256.20
474.03	14609.62
474.21	14562.81
474.39	14501.96
474.57	14698.56
474.75	14787.50
474.93	15056.67
475.12	14803.89
475.30	15040.28
475.48	14754.74
475.66	15260.29
475.84	14771.12
476.02	15372.64
476.20	15576.27
476.38	15709.68
476.56	15899.26
476.74	15616.05
476.92	15843.09
477.10	15672.23
477.28	16358.00
477.46	16264.38
477.64	16315.87
477.82	16437.58
478.00	16884.62
478.18	16783.98
478.36	16606.10
478.54	17046.12
478.72	16996.97
478.90	17502.53
479.08	17563.38
479.26	17380.82
479.44	17558.70
479.62	17661.68
479.80	18101.70
479.98	18064.25
480.16	18466.83
480.34	18185.96
480.52	18387.25
480.70	18628.32
480.88	18324.05
481.06	18787.48
481.24	18581.51
481.41	19194.73
481.59	19283.67
481.77	19314.10
481.95	19239.20
482.13	19630.07
482.31	19529.43
482.49	20051.37
482.67	19995.20
482.85	20093.50
483.03	20430.54
483.21	20662.25
483.39	20776.94
483.57	20570.97
483.74	21195.89
483.92	21575.06
484.10	21055.46
484.28	21806.77
484.46	21912.10
484.64	22235.09
484.82	21809.11
485.00	22157.85
485.18	22705.54
485.35	22792.14
485.53	23009.81
485.71	22817.88
485.89	23763.46
486.07	23143.22
486.25	23569.19
486.43	23580.90
486.61	23892.19
486.78	24144.97
486.96	23924.96
487.14	24734.78
487.32	24631.80
487.50	25062.46
487.68	24926.71
487.85	25359.70
488.03	25247.36
488.21	25633.55
488.39	25921.43
488.57	25776.32
488.75	25888.67
488.92	26438.69
489.10	26932.54
489.28	26822.54
489.46	27171.28
489.64	26871.69
489.81	27793.86
489.99	27613.64
490.17	27503.64
490.35	27964.72
490.53	28114.52
490.70	28465.60
490.88	28322.82
491.06	28809.65
491.24	28606.03
491.41	28589.64
491.59	29350.32
491.77	29092.86
491.95	29343.30
492.13	29902.68
492.30	29869.92
492.48	29544.58
492.66	30047.80
492.84	30169.51
493.01	30810.81
493.19	30457.39
493.37	30855.28
493.54	30759.32
493.72	31332.75
493.90	31370.20
494.08	31658.09
494.25	32044.27
494.43	31805.54
494.61	32130.87
494.79	32114.49
494.96	31971.72
495.14	32694.94
495.32	32858.78
495.49	33092.83
495.67	32858.78
495.85	33474.34
496.02	33649.88
496.20	33661.58
496.38	33724.78
496.55	34169.48
496.73	35002.71
496.91	34377.79
497.09	34497.16
497.26	34974.63
497.44	34700.78
497.62	35356.13
497.79	35601.89
497.97	35543.38
498.14	35962.33
498.32	35981.06
498.50	35929.56
498.67	36222.13
498.85	36280.64
499.03	36575.55
499.20	36786.20
499.38	36858.76
499.56	36856.42
499.73	37022.59
499.91	37095.15
500.08	37703.69
500.26	37357.29
500.44	37251.97
500.61	37654.54
500.79	37661.56
500.97	38277.12
501.14	38738.21
501.32	38579.05
501.49	38244.35
501.67	38487.77
501.84	38852.89
502.02	38476.07
502.20	38841.19
502.37	39412.28
502.55	39166.52
502.72	39423.98
502.90	39379.51
503.07	39555.05
503.25	39739.96
503.43	39798.47
503.60	40149.55
503.78	40093.38
503.95	40203.38
504.13	40388.28
504.30	40355.52
504.48	40105.08
504.65	40690.21
504.83	40964.06
505.01	41516.42
505.18	41095.13
505.36	41542.17
505.53	41191.09
505.71	41771.54
505.88	41579.62
506.06	40821.28
506.23	41680.26
506.41	41385.35
506.58	41806.65
506.76	42080.49
506.93	42539.24
507.11	42143.69
507.28	42616.47
507.46	42307.52
507.63	42506.47
507.81	43023.73
507.98	42682.01
508.16	42841.17
508.33	43377.15
508.50	43428.64
508.68	43367.79
508.85	43920.15
509.03	43707.16
509.20	43849.94
509.38	44294.64
509.55	44304.00
509.73	43962.28
509.90	44165.91
510.08	44369.54
510.25	44189.31
510.42	44313.36
510.60	45013.18
510.77	45118.51
510.95	45275.32
511.12	44746.36
511.30	45205.11
511.47	45406.39
511.64	45469.59
511.82	45579.59
511.99	45666.19
512.17	46089.83
512.34	45797.26
512.51	45951.74
512.69	46253.67
512.86	46117.92
513.04	46424.53
513.21	46532.19
513.38	46588.36
513.56	46574.32
513.73	46698.37
513.90	47004.98
514.08	46632.83
514.25	47320.95
514.43	47276.48
514.60	47440.32
514.77	47496.49
514.95	47440.32
515.12	47096.26
515.29	47737.57
515.47	47945.87
515.64	48133.12
515.81	47395.85
515.99	47889.70
516.16	48430.36
516.33	48233.76
516.51	48636.33
516.68	48428.02
516.85	47990.34
517.03	48266.53
517.20	48676.12
517.37	48516.96
517.54	48924.22
517.72	48683.14
517.89	48727.61
518.06	49361.90
518.24	49298.70
518.41	49010.82
518.58	49179.34
518.75	49088.06
518.93	49371.26
519.10	49294.02
519.27	49858.09
519.45	49855.75
519.62	49890.86
519.79	50106.19
519.96	49862.77
520.14	50160.02
520.31	49645.10
520.48	50384.71
520.65	50127.25
520.83	50688.98
521.00	50335.56
521.17	50344.92
521.34	50672.60
521.52	50904.31
521.69	50464.29
521.86	50660.90
522.03	50908.99
522.20	51119.64
522.38	51442.63
522.55	51187.52
522.72	51363.06
522.89	51444.98
523.07	51583.07
523.24	51271.78
523.41	51714.14
523.58	51318.59
523.75	51672.01
523.92	51695.41
524.10	51847.55
524.27	51681.37
524.44	52088.62
524.61	52046.49
524.78	52074.58
524.96	52102.67
525.13	52037.13
525.30	52189.27
525.47	52217.35
525.64	52327.36
525.81	52552.05
525.98	52725.25
526.16	52418.64
526.33	52437.36
526.50	52832.91
526.67	52727.59
526.84	52758.02
527.01	52743.97
527.18	52605.88
527.36	52743.97
527.53	52849.30
527.70	53312.72
527.87	53048.24
528.04	53291.66
528.21	53249.53
528.38	53146.54
528.55	53462.52
528.72	53057.60
528.89	53324.43
529.07	53130.16
529.24	53511.67
529.41	53719.98
529.58	53373.58
529.75	53563.16
529.92	53851.05
530.09	53722.32
530.26	53710.61
530.43	53853.39
530.60	53762.11
530.77	53832.32
530.94	54115.53
531.11	53977.43
531.28	54239.57
531.46	53975.09
531.63	54040.63
531.80	53918.92
531.97	54176.38
532.14	54099.14
532.31	54372.99
532.48	54609.38
532.65	54553.21
532.82	54302.77
532.99	54534.48
533.16	54452.56
533.33	54562.57
533.50	54717.04
533.67	54829.39
533.84	54672.57
534.01	54775.56
534.18	54862.16
534.35	55206.22
534.52	54927.69
534.69	55150.04
534.86	55187.49
535.03	54813.01
535.20	55189.83
535.37	55086.85
535.54	55292.82
535.71	55330.26
535.88	55449.63
536.05	55402.82
536.22	55660.28
536.38	55517.51
536.55	55557.30
536.72	55751.56
536.89	55370.05
537.06	55599.43
537.23	55302.18
537.40	55402.82
537.57	55573.68
537.74	55828.80
537.91	56109.66
538.08	55901.36
538.25	55421.55
538.42	55812.41
538.59	56011.36
538.75	55613.47
538.92	55920.08
539.09	56013.70
539.26	55880.29
539.43	56058.17
539.60	56285.20
539.77	56179.88
539.94	56245.41
540.11	56317.97
540.28	56119.02
540.44	56404.57
540.61	56353.08
540.78	56165.84
540.95	56294.56
541.12	56493.51
541.29	56383.51
541.46	56392.87
541.62	56643.30
541.79	56315.63
541.96	56320.31
542.13	56526.28
542.30	56615.22
542.47	56619.90
542.63	56727.56
542.80	56584.79
542.97	56772.03
543.14	56975.66
543.31	57013.11
543.48	57001.41
543.64	57476.54
543.81	57296.31
543.98	57329.08
544.15	57205.03
544.32	57413.34
544.48	57509.30
544.65	57420.36
544.82	57354.83
544.99	57134.82
545.16	57469.51
545.32	57195.67
545.49	57656.76
545.66	57778.46
545.83	57481.22
546.00	57509.30
546.16	57560.79
546.33	57425.04
546.50	57457.81
546.67	57411.00
546.83	57420.36
547.00	57593.56
547.17	57750.38
547.34	57806.55
547.50	57722.29
547.67	57982.09
547.84	57841.66
548.00	58157.63
548.17	58026.56
548.34	57935.28
548.51	57961.03
548.67	58148.27
548.84	57858.04
549.01	58239.55
549.18	57897.83
549.34	58178.70
549.51	58157.63
549.68	58148.27
549.84	58356.58
550.01	58344.87
550.18	58293.38
550.34	58293.38
550.51	58480.63
550.68	58174.02
550.84	58295.72
551.01	58616.38
551.18	58527.44
551.34	58391.68
551.51	58681.91
551.68	58553.18
551.84	58599.99
552.01	58440.84
552.18	58417.43
552.34	58539.14
552.51	58527.44
552.68	58527.44
552.84	58653.82
553.01	58857.45
553.18	58773.19
553.34	58740.42
553.51	58599.99
553.67	58670.21
553.84	58731.06
554.01	58705.32
554.17	58852.77
554.34	58784.90
554.51	58911.28
554.67	58965.12
554.84	58894.90
555.00	58981.50
555.17	58791.92
555.33	59180.45
555.50	58838.73
555.67	58953.41
555.83	59058.74
556.00	59009.59
556.16	59341.94
556.33	59011.93
556.50	58972.14
556.66	59213.21
556.83	59032.99
556.99	59391.09
557.16	59234.28
557.32	59271.73
557.49	59671.96
557.65	59271.73
557.82	59014.27
557.98	59365.35
558.15	59231.94
558.32	59358.33
558.48	59363.01
558.65	59346.62
558.81	59442.59
558.98	59313.86
559.14	59538.55
559.31	59533.87
559.47	59601.74
559.64	59629.83
559.80	59641.53
559.97	59543.23
560.13	59545.57
560.30	59620.47
560.46	59519.82
560.63	59643.87
560.79	59674.30
560.96	59943.46
561.12	59826.43
561.29	59655.57
561.45	59690.68
561.61	59793.67
561.78	59735.15
561.94	59693.02
562.11	59735.15
562.27	59643.87
562.44	59636.85
562.60	59861.54
562.77	59884.95
562.93	59730.47
563.10	59831.11
563.26	59744.51
563.42	60198.58
563.59	59964.52
563.75	59924.74
563.92	60067.51
564.08	59913.03
564.24	60231.35
564.41	60079.21
564.57	60023.04
564.74	60130.70
564.90	60020.70
565.07	59866.22
565.23	60079.21
565.39	60065.17
565.56	60048.78
565.72	59915.37
565.88	60090.91
566.05	59985.59
566.21	60051.12
566.38	60095.60
566.54	60268.79
566.70	60210.28
566.87	60154.11
567.03	60095.60
567.19	60224.32
567.36	60102.62
567.52	60170.49
567.68	60608.17
567.85	60252.41
568.01	60240.71
568.17	60067.51
568.34	60509.87
568.50	60219.64
568.66	60353.05
568.83	60437.31
568.99	60423.27
569.15	60322.63
569.32	60409.23
569.48	60432.63
569.64	60376.46
569.81	60385.82
569.97	60191.56
570.13	60280.50
570.30	60264.11
570.46	60423.27
570.62	60498.17
570.78	60339.01
570.95	60130.70
571.11	60460.72
571.27	60308.58
571.43	60500.51
571.60	60484.12
571.76	60587.11
571.92	60718.18
572.09	60547.32
572.25	60322.63
572.41	60477.10
572.57	60451.36
572.74	60736.90
572.90	60486.46
573.06	60683.07
573.22	60437.31
573.38	60596.47
573.55	60622.22
573.71	60612.85
573.87	60687.75
574.03	60264.11
574.20	60423.27
574.36	60526.25
574.52	60748.60
574.68	60687.75
574.84	60640.94
575.01	60832.86
575.17	60640.94
575.33	60659.66
575.49	60519.23
575.65	60720.52
575.82	60743.92
575.98	60734.56
576.14	60912.44
576.30	60860.95
576.46	60505.19
576.62	60757.97
576.79	60617.53
576.95	60360.08
577.11	60652.64
577.27	60650.30
577.43	60708.82
577.59	60636.26
577.75	60603.49
577.92	60580.09
578.08	60685.41
578.24	60711.16
578.40	60851.59
578.56	60704.13
578.72	60816.48
578.88	60865.63
579.04	60905.42
579.21	60931.17
579.37	60804.78
579.53	60874.99
579.69	60718.18
579.85	60594.13
580.01	60755.63
580.17	60540.30
580.33	60727.54
580.49	60807.12
580.65	60797.76
580.82	60830.52
580.98	60809.46
581.14	60809.46
581.30	60788.39
581.46	60713.50
581.62	60795.42
581.78	60860.95
581.94	60772.01
582.10	60872.65
582.26	60823.50
582.42	60818.82
582.58	60872.65
582.74	60900.74
582.90	60900.74
583.06	60891.38
583.22	60797.76
583.38	60900.74
583.54	60860.95
583.70	61092.66
583.86	60903.08
584.02	60963.93
584.18	60985.00
584.34	60708.82
584.50	60985.00
584.66	61022.45
584.82	60802.44
584.98	61118.41
585.14	61113.73
585.30	60942.87
585.46	61085.64
585.62	60821.16
585.78	61144.16
585.94	60741.58
586.10	61043.51
586.26	60788.39
586.42	61080.96
586.58	60924.14
586.74	60860.95
586.90	60821.16
587.06	60654.98
587.22	61057.56
587.38	61052.87
587.54	61104.37
587.70	61116.07
587.86	61029.47
588.02	60882.02
588.18	61010.74
588.34	60992.02
588.49	60980.32
