SpectraSuite Data File
++++++++++++++++++++++++++++++++++++
Date: Fri Oct 25 11:25:38 EDT 2013
User: price-jones
Dark Spectrum Present: No
Reference Spectrum Present: No
Number of Sampled Component Spectra: 1
Spectrometers: USB2+H05261
Integration Time (usec): 100000 (USB2+H05261)
Spectra Averaged: 1 (USB2+H05261)
Boxcar Smoothing: 0 (USB2+H05261)
Correct for Electrical Dark: No (USB2+H05261)
Strobe/Lamp Enabled: No (USB2+H05261)
Correct for Detector Non-linearity: No (USB2+H05261)
Correct for Stray Light: No (USB2+H05261)
Number of Pixels in Processed Spectrum: 2048
>>>>>Begin Processed Spectral Data<<<<<
365.73	184.90
365.92	184.90
366.12	184.90
366.32	135.75
366.52	135.75
366.72	201.29
366.91	135.75
367.11	72.56
367.31	121.71
367.51	117.03
367.70	93.62
367.90	163.84
368.10	121.71
368.30	81.92
368.49	105.32
368.69	177.88
368.89	126.39
369.09	201.29
369.28	184.90
369.48	138.09
369.68	95.96
369.87	163.84
370.07	212.99
370.27	241.08
370.47	299.59
370.66	674.07
370.86	667.05
371.06	697.48
371.25	636.63
371.45	627.26
371.65	758.33
371.84	655.35
372.04	655.35
372.24	716.20
372.44	720.88
372.63	734.93
372.83	667.05
373.03	779.40
373.22	765.36
373.42	802.80
373.62	779.40
373.81	795.78
374.01	819.19
374.21	842.59
374.40	812.17
374.60	795.78
374.79	809.83
374.99	863.66
375.19	826.21
375.38	856.64
375.58	901.11
375.78	830.89
375.97	847.27
376.17	917.49
376.37	887.06
376.56	800.46
376.76	940.90
376.95	887.06
377.15	828.55
377.35	912.81
377.54	926.85
377.74	903.45
377.93	940.90
378.13	912.81
378.33	983.02
378.52	884.72
378.72	873.02
378.91	889.40
379.11	908.13
379.31	947.92
379.50	938.55
379.70	938.55
379.89	940.90
380.09	922.17
380.28	976.00
380.48	968.98
380.68	1034.52
380.87	968.98
381.07	1043.88
381.26	987.71
381.46	957.28
381.65	1109.41
381.85	1050.90
382.04	1135.16
382.24	1025.15
382.43	1060.26
382.63	1088.35
382.83	1167.93
383.02	1135.16
383.22	1118.78
383.41	1130.48
383.61	1174.95
383.80	1097.71
384.00	1046.22
384.19	1095.37
384.39	1203.04
384.58	1158.57
384.78	1097.71
384.97	1153.88
385.17	1114.10
385.36	1149.20
385.56	1158.57
385.75	1186.65
385.95	1184.31
386.14	1280.27
386.34	1123.46
386.53	1174.95
386.72	1139.84
386.92	1233.46
387.11	1238.14
387.31	1240.48
387.50	1266.23
387.70	1256.87
387.89	1219.42
388.09	1214.74
388.28	1245.16
388.48	1310.70
388.67	1331.76
388.86	1259.21
389.06	1308.36
389.25	1296.66
389.45	1331.76
389.64	1277.93
389.84	1420.71
390.03	1376.24
390.22	1355.17
390.42	1373.89
390.61	1397.30
390.81	1397.30
391.00	1373.89
391.19	1500.28
391.39	1493.26
391.58	1437.09
391.78	1432.41
391.97	1479.22
392.16	1387.94
392.36	1603.27
392.55	1612.63
392.75	1455.81
392.94	1638.38
393.13	1504.96
393.33	1488.58
393.52	1593.90
393.71	1549.43
393.91	1591.56
394.10	1568.16
394.29	1556.46
394.49	1540.07
394.68	1666.46
394.88	1614.97
395.07	1699.23
395.26	1675.82
395.46	1689.87
395.65	1661.78
395.84	1741.36
396.04	1769.44
396.23	1748.38
396.42	1715.61
396.62	1746.04
396.81	1778.81
397.00	1722.63
397.19	1799.87
397.39	1783.49
397.58	1823.28
397.77	1811.57
397.97	1778.81
398.16	1860.73
398.35	1827.96
398.55	1933.28
398.74	1902.86
398.93	1954.35
399.12	1872.43
399.32	1996.48
399.51	2010.52
399.70	1933.28
399.90	1921.58
400.09	2099.46
400.28	2043.29
400.47	1902.86
400.67	2033.93
400.86	2033.93
401.05	1994.14
401.24	2066.69
401.44	2064.35
401.63	2092.44
401.82	2188.40
402.01	2193.08
402.21	2122.87
402.40	2200.10
402.59	2174.36
402.78	2136.91
402.97	2218.83
403.17	2237.55
403.36	2188.40
403.55	2216.49
403.74	2408.41
403.93	2377.98
404.13	2429.48
404.32	2270.32
404.51	2361.60
404.70	2392.03
404.89	2392.03
405.09	2485.65
405.28	2495.01
405.47	2504.37
405.66	2495.01
405.85	2579.27
406.05	2476.29
406.24	2455.22
406.43	2471.61
406.62	2588.63
406.81	2637.78
407.00	2614.38
407.20	2485.65
407.39	2686.94
407.58	2621.40
407.77	2635.44
407.96	2649.49
408.15	2700.98
408.34	2661.19
408.54	2792.26
408.73	2651.83
408.92	2923.33
409.11	2778.22
409.30	2906.95
409.49	2782.90
409.68	2794.60
409.87	2899.92
410.07	3002.91
410.26	2986.52
410.45	2993.55
410.64	3047.38
410.83	3063.76
411.02	2986.52
411.21	3145.68
411.40	3143.34
411.59	3197.17
411.78	3185.47
411.98	3276.75
412.17	3206.53
412.36	3124.62
412.55	3300.16
412.74	3398.46
412.93	3325.90
413.12	3267.39
413.31	3487.40
413.50	3545.91
413.69	3471.01
413.88	3545.91
414.07	3492.08
414.26	3637.19
414.45	3578.68
414.64	3698.05
414.83	3772.94
415.02	3777.62
415.22	3808.05
415.41	3810.39
415.60	3906.35
415.79	3791.67
415.98	3948.48
416.17	3918.06
416.36	4081.89
416.55	4016.36
416.74	4035.08
416.93	3999.98
417.12	4056.15
417.31	4159.13
417.50	4121.68
417.69	4264.46
417.88	4346.37
418.07	4285.52
418.26	4124.02
418.45	4191.90
418.64	4477.44
418.83	4353.40
419.02	4442.34
419.21	4542.98
419.39	4540.64
419.58	4486.81
419.77	4444.68
419.96	4341.69
420.15	4550.00
420.34	4645.96
420.53	4566.39
420.72	4737.24
420.91	4699.80
421.10	4638.94
421.29	4711.50
421.48	4634.26
421.67	4863.63
421.86	4833.21
422.05	4816.82
422.24	4718.52
422.43	4816.82
422.61	4821.50
422.80	4880.02
422.99	4844.91
423.18	4966.62
423.37	4894.06
423.56	4887.04
423.75	4882.36
423.94	4737.24
424.13	4423.61
424.32	4695.11
424.50	5015.77
424.69	5109.39
424.88	5004.07
425.07	4968.96
425.26	4980.66
425.45	4847.25
425.64	4915.12
425.83	4896.40
426.01	5006.41
426.20	5093.01
426.39	5081.30
426.58	5055.56
426.77	4975.98
426.96	5172.58
427.15	5153.86
427.33	5130.45
427.52	5181.95
427.71	5313.02
427.90	5298.97
428.09	5373.87
428.28	5425.36
428.46	5228.76
428.65	5275.57
428.84	5610.26
429.03	5369.19
429.22	5228.76
429.40	5497.92
429.59	5451.11
429.78	5228.76
429.97	5327.06
430.16	5444.09
430.34	5490.90
430.53	5579.84
430.72	5549.41
430.91	5605.58
431.10	5715.59
431.28	5823.25
431.47	5799.85
431.66	5919.21
431.85	5650.05
432.03	5921.56
432.22	6022.20
432.41	5781.12
432.60	5912.19
432.79	5783.46
432.97	6033.90
433.16	5991.77
433.35	5937.94
433.54	6066.67
433.72	5996.45
433.91	6148.59
434.10	6197.74
434.28	6012.84
434.47	6141.57
434.66	6232.85
434.85	6202.42
435.03	6389.66
435.22	6354.55
435.41	6478.60
435.59	6258.59
435.78	6359.24
435.97	6242.21
436.16	6431.79
436.34	6509.03
436.53	6555.84
436.72	6473.92
436.90	6445.84
437.09	6691.59
437.28	6422.43
437.46	6607.33
437.65	6560.52
437.84	6768.83
438.02	6670.53
438.21	6635.42
438.40	6604.99
438.58	6864.79
438.77	6965.43
438.96	6953.73
439.14	7124.59
439.33	7042.67
439.52	7133.95
439.70	7070.76
439.89	7325.88
440.08	7403.11
440.26	7332.90
440.45	7318.86
440.63	7339.92
440.82	7466.31
441.01	7569.29
441.19	7440.56
441.38	7691.00
441.57	7761.22
441.75	7590.36
441.94	7808.03
442.12	7911.01
442.31	7983.57
442.50	8002.29
442.68	7829.09
442.87	8032.72
443.05	7976.55
443.24	8215.28
443.43	8131.02
443.61	8334.65
443.80	8442.31
443.98	7978.89
444.17	7786.96
444.35	8173.15
444.54	8351.03
444.73	8236.35
444.91	8234.00
445.10	8468.06
445.28	8465.72
445.47	8287.84
445.65	8152.09
445.84	8369.76
446.02	8514.87
446.21	8404.86
446.39	8327.63
446.58	8496.14
446.77	8468.06
446.95	8329.97
447.14	8266.77
447.32	8383.80
447.51	8571.04
447.69	8437.63
447.88	8456.36
448.06	8444.65
448.25	8484.44
448.43	8571.04
448.62	8575.72
448.80	8517.21
448.99	8692.75
449.17	8762.97
449.36	8599.13
449.54	8704.45
449.73	8826.16
449.91	9006.38
450.10	9013.40
450.28	9048.51
450.46	9144.47
450.65	9118.73
450.83	9069.58
451.02	8917.44
451.20	9137.45
451.39	9156.18
451.57	8973.61
451.76	8982.98
451.94	9144.47
452.13	9210.01
452.31	9254.48
452.49	9118.73
452.68	9249.80
452.86	9191.28
453.05	9399.59
453.23	9469.81
453.42	9413.63
453.60	9270.86
453.78	9554.07
453.97	9430.02
454.15	9369.16
454.34	9345.76
454.52	9687.48
454.70	9654.71
454.89	9792.80
455.07	9783.44
455.26	10033.88
455.44	10008.13
455.62	9841.95
455.81	9848.97
455.99	10008.13
456.17	9926.21
456.36	10057.28
456.54	10139.20
456.73	10188.35
456.91	10527.73
457.09	10434.11
457.28	10565.18
457.46	10221.12
457.64	10389.64
457.83	10382.62
458.01	10422.41
458.19	10590.92
458.38	10473.90
458.56	10675.18
458.74	10675.18
458.93	10595.61
459.11	10761.78
459.29	10476.24
459.48	10698.59
459.66	10761.78
459.84	10642.42
460.03	11140.95
460.21	11047.33
460.39	10998.18
460.57	10958.39
460.76	11136.27
460.94	11075.42
461.12	11091.80
461.31	11286.06
461.49	11126.91
461.67	11164.36
461.85	11508.41
462.04	11557.57
462.22	11810.34
462.40	11852.47
462.59	11527.14
462.77	11463.94
462.95	11419.47
463.13	11454.58
463.32	11323.51
463.50	11655.87
463.68	11674.59
463.86	11800.98
464.05	11735.45
464.23	11737.79
464.41	11587.99
464.59	11721.40
464.78	12212.92
464.96	11913.33
465.14	11714.38
465.32	11901.62
465.50	12081.85
465.69	11983.54
465.87	12042.06
466.05	12135.68
466.23	12215.26
466.41	12224.62
466.60	12446.97
466.78	11974.18
466.96	12051.42
467.14	12217.60
467.32	12456.33
467.51	12556.97
467.69	12072.48
467.87	12372.07
468.05	12655.28
468.23	12219.94
468.41	12358.03
468.60	12683.36
468.78	12982.95
468.96	12681.02
469.14	12617.83
469.32	12842.52
469.50	12678.68
469.69	12840.18
469.87	13174.88
470.05	13069.55
470.23	13048.49
470.41	13212.32
470.59	13324.67
470.77	13046.15
470.95	13245.09
471.14	13530.64
471.32	13107.00
471.50	13493.19
471.68	13408.93
471.86	13607.87
472.04	13516.59
472.22	13919.17
472.40	13371.48
472.58	13912.14
472.77	13830.23
472.95	13783.41
473.13	14480.89
473.31	14085.34
473.49	14169.60
473.67	14054.92
473.85	14242.16
474.03	14398.98
474.21	14476.21
474.39	14836.66
474.57	14794.53
474.75	14623.67
474.93	15192.42
475.12	14705.59
475.30	15213.48
475.48	15061.35
475.66	14965.39
475.84	14965.39
476.02	15293.06
476.20	15208.80
476.38	15871.17
476.56	16091.18
476.74	15894.58
476.92	15913.30
477.10	15810.32
477.28	16105.23
477.46	15967.13
477.64	16365.03
477.82	16297.15
478.00	16833.13
478.18	16479.71
478.36	17018.04
478.54	16840.15
478.72	17048.46
478.90	17135.06
479.08	17668.70
479.26	17516.57
479.44	17762.33
479.62	17813.82
479.80	18010.42
479.98	18113.41
480.16	18420.02
480.34	18087.66
480.52	18562.79
480.70	18633.00
480.88	18548.75
481.06	18771.10
481.24	18668.11
481.41	18764.07
481.59	19482.62
481.77	19667.52
481.95	19552.84
482.13	19548.15
482.31	19475.60
482.49	20034.99
482.67	20161.37
482.85	20283.08
483.03	20458.62
483.21	20947.79
483.39	20884.60
483.57	20702.04
483.74	21231.00
483.92	21055.46
484.10	21116.31
484.28	21584.42
484.46	21818.47
484.64	22104.02
484.82	22148.49
485.00	22412.97
485.18	22700.86
485.35	22862.35
485.53	22953.63
485.71	22916.19
485.89	23419.40
486.07	23426.42
486.25	23407.70
486.43	23587.92
486.61	23641.75
486.78	24154.33
486.96	23754.10
487.14	24046.66
487.32	24697.33
487.50	25071.82
487.68	24659.88
487.85	25074.16
488.03	25687.38
488.21	25675.68
488.39	25846.54
488.57	25818.45
488.75	26506.57
488.92	26366.13
489.10	26651.68
489.28	26635.30
489.46	26920.84
489.64	27112.77
489.81	27786.84
489.99	27534.06
490.17	27351.50
490.35	28056.00
490.53	28268.99
490.70	28252.61
490.88	28070.04
491.06	29027.32
491.24	28870.51
491.41	28994.56
491.59	29127.97
491.77	29179.46
491.95	29380.74
492.13	29612.46
492.30	29785.66
492.48	29865.24
492.66	30080.56
492.84	30094.61
493.01	30700.81
493.19	30590.80
493.37	30934.86
493.54	31257.85
493.72	31339.77
493.90	31283.60
494.08	31622.98
494.25	31557.44
494.43	31838.31
494.61	32196.41
494.79	31922.57
494.96	32346.20
495.14	32687.92
495.32	32943.04
495.49	33132.62
495.67	33090.49
495.85	33455.62
496.02	34094.58
496.20	33811.38
496.38	33905.00
496.55	34370.77
496.73	34349.70
496.91	34389.49
497.09	34724.19
497.26	34646.95
497.44	35023.78
497.62	35257.83
497.79	35613.59
497.97	35187.61
498.14	35768.07
498.32	36116.81
498.50	36219.79
498.67	36535.76
498.85	36538.10
499.03	36694.92
499.20	36430.44
499.38	36643.43
499.56	37078.77
499.73	37111.53
499.91	37167.71
500.08	37668.58
500.26	37036.64
500.44	37727.10
500.61	37923.70
500.79	37399.42
500.97	37745.82
501.14	38476.07
501.32	38621.18
501.49	38150.73
501.67	38726.50
501.84	38583.73
502.02	38827.15
502.20	38998.01
502.37	38998.01
502.55	38925.45
502.72	39452.07
502.90	39379.51
503.07	39358.45
503.25	39945.92
503.43	40060.61
503.60	39840.60
503.78	40322.75
503.95	40133.17
504.13	39903.79
504.30	40498.29
504.48	40444.46
504.65	40460.84
504.83	40879.80
505.01	40596.59
505.18	40854.05
505.36	41668.56
505.53	41043.63
505.71	41565.57
505.88	41638.13
506.06	41233.22
506.23	41598.34
506.41	41736.43
506.58	42094.53
506.76	41851.12
506.93	42373.06
507.11	42131.98
507.28	42295.82
507.46	42344.97
507.63	42880.95
507.81	43100.97
507.98	42593.07
508.16	43281.19
508.33	43185.22
508.50	43421.62
508.68	43379.49
508.85	44126.12
509.03	43594.82
509.20	44201.02
509.38	43679.08
509.55	44378.90
509.73	44388.26
509.90	44334.43
510.08	44594.23
510.25	44430.39
510.42	44666.78
510.60	44891.48
510.77	45059.99
510.95	45296.39
511.12	45144.25
511.30	45062.33
511.47	45137.23
511.64	45933.01
511.82	45668.53
511.99	45258.94
512.17	45855.78
512.34	46216.22
512.51	46298.14
512.69	46237.28
512.86	46157.70
513.04	46520.49
513.21	46232.60
513.38	46450.27
513.56	46887.95
513.73	46487.72
513.90	46443.25
514.08	46710.07
514.25	47377.12
514.43	47103.28
514.60	47234.35
514.77	47267.12
514.95	47337.33
515.12	47562.03
515.29	47482.45
515.47	47915.45
515.64	47845.23
515.81	48041.84
515.99	48090.99
516.16	48163.54
516.33	48282.91
516.51	48512.28
516.68	48245.46
516.85	47955.24
517.03	48612.93
517.20	48788.47
517.37	49085.72
517.54	48683.14
517.72	48765.06
517.89	49251.89
518.06	48837.62
518.24	49104.44
518.41	49134.87
518.58	49242.53
518.75	49434.45
518.93	49345.51
519.10	49155.93
519.27	49565.52
519.45	49640.42
519.62	50150.66
519.79	49869.79
519.96	49940.01
520.14	50176.40
520.31	49815.96
520.48	50101.51
520.65	50171.72
520.83	50571.96
521.00	50342.58
521.17	50274.71
521.34	50375.35
521.52	50576.64
521.69	50387.05
521.86	50967.51
522.03	50916.01
522.20	51313.90
522.38	51524.55
522.55	51194.54
522.72	51133.68
522.89	51241.35
523.07	51728.18
523.24	51466.04
523.41	52011.38
523.58	51468.38
523.75	51828.82
523.92	51402.85
524.10	51697.75
524.27	51924.78
524.44	51880.31
524.61	51796.06
524.78	52175.22
524.96	52076.92
525.13	52336.72
525.30	52135.43
525.47	52231.40
525.64	52121.39
525.81	52472.47
525.98	52149.48
526.16	52626.95
526.33	53013.13
526.50	52795.46
526.67	52767.38
526.84	52711.20
527.01	52783.76
527.18	52582.48
527.36	53024.84
527.53	53148.88
527.70	53389.96
527.87	53165.27
528.04	53144.20
528.21	53120.80
528.38	53088.03
528.55	53588.91
528.72	53354.85
528.89	53081.01
529.07	53029.52
529.24	53471.88
529.41	53797.21
529.58	53771.47
529.75	53694.23
529.92	53743.38
530.09	53717.64
530.26	53890.83
530.43	53897.86
530.60	53738.70
530.77	53792.53
530.94	54078.08
531.11	53785.51
531.28	53872.11
531.46	54192.76
531.63	54127.23
531.80	54045.31
531.97	54199.79
532.14	54230.21
532.31	54644.49
532.48	54316.81
532.65	54567.25
532.82	54494.69
532.99	54649.17
533.16	54372.99
533.33	54621.08
533.50	54801.30
533.67	54574.27
533.84	54417.46
534.01	54614.06
534.18	54571.93
534.35	54997.91
534.52	55058.76
534.69	54962.80
534.86	55292.82
535.03	54913.65
535.20	54944.08
535.37	55316.22
535.54	55058.76
535.71	55192.17
535.88	55402.82
536.05	55489.42
536.22	55629.85
536.38	55419.20
536.55	55679.00
536.72	55498.78
536.89	55454.31
537.06	55629.85
537.23	55622.83
537.40	55718.79
537.57	55447.29
537.74	55774.97
537.91	56053.49
538.08	55870.93
538.25	55812.41
538.42	55966.89
538.59	55894.33
538.75	55817.10
538.92	56156.47
539.09	56133.07
539.26	56161.15
539.43	56154.13
539.60	56196.26
539.77	56285.20
539.94	56413.93
540.11	56369.46
540.28	56399.89
540.44	56535.64
540.61	56357.76
540.78	56353.08
540.95	56266.48
541.12	56404.57
541.29	56552.02
541.46	56657.35
541.62	56458.40
541.79	56615.22
541.96	56491.17
542.13	56676.07
542.30	56528.62
542.47	56860.97
542.63	56612.88
542.80	56921.83
542.97	56956.94
543.14	57027.15
543.31	57120.77
543.48	57132.48
543.64	57373.55
543.81	57165.24
543.98	57382.91
544.15	57223.76
544.32	57523.35
544.48	57645.05
544.65	57301.00
544.82	57382.91
544.99	57382.91
545.16	57235.46
545.32	57237.80
545.49	57565.48
545.66	57616.97
545.83	57609.95
546.00	57565.48
546.16	57429.72
546.33	57347.81
546.50	57251.84
546.67	57663.78
546.83	57403.98
547.00	57719.95
547.17	57698.89
547.34	57668.46
547.50	57958.69
547.67	57965.71
547.84	57855.70
548.00	58183.38
548.17	58010.18
548.34	58026.56
548.51	58141.25
548.67	58213.80
548.84	58155.29
549.01	58040.60
549.18	58305.09
549.34	58232.53
549.51	58305.09
549.68	58241.89
549.84	58288.70
550.01	58539.14
550.18	58274.66
550.34	58106.14
550.51	58403.39
550.68	58281.68
550.84	58190.40
551.01	58457.22
551.18	58323.81
551.34	58239.55
551.51	58724.04
551.68	58672.55
551.84	58464.24
552.01	58394.03
552.18	58604.67
552.34	58452.54
552.51	58660.85
552.68	58344.87
552.84	58529.78
553.01	58607.01
553.18	58707.66
553.34	58864.47
553.51	58623.40
553.67	58733.40
553.84	58747.45
554.01	59035.33
554.17	58808.30
554.34	58960.44
554.51	59025.97
554.67	58986.18
554.84	58925.33
555.00	58897.24
555.17	58918.31
555.33	58944.05
555.50	58932.35
555.67	59040.01
555.83	58866.81
556.00	59000.22
556.16	59208.53
556.33	59274.07
556.50	59138.32
556.66	59206.19
556.83	59121.93
556.99	59391.09
557.16	59285.77
557.32	59426.20
557.49	59501.10
557.65	59185.13
557.82	59250.66
557.98	59292.79
558.15	59243.64
558.32	59405.14
558.48	59494.08
558.65	59529.19
558.81	59430.88
558.98	59318.54
559.14	59400.46
559.31	59639.19
559.47	59470.67
559.64	59728.13
559.80	59587.70
559.97	59744.51
560.13	59484.72
560.30	59576.00
560.46	59639.19
560.63	59604.08
560.79	59749.20
560.96	59732.81
561.12	59798.35
561.29	59831.11
561.45	59473.01
561.61	59924.74
561.78	59803.03
561.94	59725.79
562.11	59664.94
562.27	59863.88
562.44	59966.87
562.60	59957.50
562.77	60055.81
562.93	59807.71
563.10	59807.71
563.26	59676.64
563.42	60130.70
563.59	59922.40
563.75	59824.09
563.92	59922.40
564.08	59990.27
564.24	60046.44
564.41	59971.55
564.57	60009.00
564.74	59835.80
564.90	60037.08
565.07	59945.80
565.23	59992.61
565.39	60261.77
565.56	60140.07
565.72	60229.01
565.88	60027.72
566.05	60097.94
566.21	60001.97
566.38	60076.87
566.54	60163.47
566.70	60397.52
566.87	60280.50
567.03	59966.87
567.19	60264.11
567.36	60275.82
567.52	60158.79
567.68	60441.99
567.85	60189.22
568.01	60357.74
568.17	60116.66
568.34	60179.85
568.50	60261.77
568.66	60303.90
568.83	60282.84
568.99	60411.57
569.15	60451.36
569.32	60280.50
569.48	60388.16
569.64	60432.63
569.81	60420.93
569.97	60317.95
570.13	60322.63
570.30	60264.11
570.46	60481.78
570.62	60313.26
570.78	60446.68
570.95	60320.29
571.11	60406.89
571.27	60362.42
571.43	60413.91
571.60	60715.84
571.76	60449.02
571.92	60329.65
572.09	60554.34
572.25	60647.96
572.41	60544.98
572.57	60533.28
572.74	60598.81
572.90	60533.28
573.06	60617.53
573.22	60694.77
573.38	60584.77
573.55	60427.95
573.71	60664.35
573.87	60676.05
574.03	60636.26
574.20	60561.36
574.36	60420.93
574.52	60781.37
574.68	60449.02
574.84	60540.30
575.01	60657.32
575.17	60727.54
575.33	60659.66
575.49	60467.74
575.65	60636.26
575.82	60753.29
575.98	60640.94
576.14	60914.78
576.30	60718.18
576.46	60631.58
576.62	60631.58
576.79	60519.23
576.95	60425.61
577.11	60746.26
577.27	60626.90
577.43	60736.90
577.59	60631.58
577.75	60725.20
577.92	60533.28
578.08	60706.47
578.24	60828.18
578.40	60828.18
578.56	60896.06
578.72	60748.60
578.88	60865.63
579.04	61048.19
579.21	60748.60
579.37	60802.44
579.53	60781.37
579.69	60533.28
579.85	60769.67
580.01	60804.78
580.17	60753.29
580.33	60896.06
580.49	60795.42
580.65	60860.95
580.82	60757.97
580.98	60654.98
581.14	60795.42
581.30	60708.82
581.46	60835.20
581.62	60844.57
581.78	60825.84
581.94	60900.74
582.10	61034.15
582.26	60830.52
582.42	60575.40
582.58	61127.77
582.74	60814.14
582.90	60867.97
583.06	60725.20
583.22	60818.82
583.38	61006.06
583.54	60654.98
583.70	60924.14
583.86	60959.25
584.02	60900.74
584.18	60999.04
584.34	60917.12
584.50	60999.04
584.66	60802.44
584.82	60715.84
584.98	61113.73
585.14	61120.75
585.30	60867.97
585.46	61003.72
585.62	60811.80
585.78	61113.73
585.94	60884.36
586.10	60802.44
586.26	60814.14
586.42	61078.62
586.58	60956.91
586.74	61083.30
586.90	60914.78
587.06	61090.32
587.22	60931.17
587.38	60999.04
587.54	61003.72
587.70	61216.71
587.86	60889.04
588.02	60973.30
588.18	61130.11
588.34	60977.98
588.49	61059.90
