SpectraSuite Data File
++++++++++++++++++++++++++++++++++++
Date: Fri Oct 25 11:23:35 EDT 2013
User: price-jones
Dark Spectrum Present: No
Reference Spectrum Present: No
Number of Sampled Component Spectra: 1
Spectrometers: USB2+H05261
Integration Time (usec): 100000 (USB2+H05261)
Spectra Averaged: 1 (USB2+H05261)
Boxcar Smoothing: 0 (USB2+H05261)
Correct for Electrical Dark: No (USB2+H05261)
Strobe/Lamp Enabled: No (USB2+H05261)
Correct for Detector Non-linearity: No (USB2+H05261)
Correct for Stray Light: No (USB2+H05261)
Number of Pixels in Processed Spectrum: 2048
>>>>>Begin Processed Spectral Data<<<<<
365.73	311.29
365.92	311.29
366.12	311.29
366.32	112.35
366.52	180.22
366.72	147.45
366.91	191.92
367.11	67.88
367.31	91.28
367.51	74.90
367.70	107.66
367.90	138.09
368.10	84.26
368.30	227.03
368.49	145.11
368.69	145.11
368.89	124.05
369.09	117.03
369.28	154.48
369.48	95.96
369.68	156.82
369.87	198.95
370.07	175.54
370.27	217.67
370.47	285.55
370.66	610.88
370.86	676.41
371.06	641.31
371.25	681.10
371.45	685.78
371.65	692.80
371.84	674.07
372.04	643.65
372.24	636.63
372.44	674.07
372.63	758.33
372.83	709.18
373.03	744.29
373.22	765.36
373.42	695.14
373.62	786.42
373.81	725.57
374.01	770.04
374.21	800.46
374.40	760.67
374.60	798.12
374.79	828.55
374.99	805.14
375.19	774.72
375.38	844.93
375.58	880.04
375.78	847.27
375.97	814.51
376.17	877.70
376.37	807.48
376.56	873.02
376.76	795.78
376.95	884.72
377.15	936.21
377.35	837.91
377.54	870.68
377.74	875.36
377.93	945.58
378.13	954.94
378.33	851.96
378.52	936.21
378.72	912.81
378.91	999.41
379.11	952.60
379.31	924.51
379.50	952.60
379.70	1064.94
379.89	961.96
380.09	1025.15
380.28	1039.20
380.48	950.26
380.68	1015.79
380.87	983.02
381.07	1048.56
381.26	1057.92
381.46	1004.09
381.65	990.05
381.85	997.07
382.04	1022.81
382.24	1067.28
382.43	1100.05
382.63	1078.99
382.83	1104.73
383.02	1062.60
383.22	1093.03
383.41	1107.07
383.61	1160.91
383.80	1107.07
384.00	1074.31
384.19	1179.63
384.39	1177.29
384.58	1111.75
384.78	1123.46
384.97	1135.16
385.17	1135.16
385.36	1102.39
385.56	1142.18
385.75	1088.35
385.95	1167.93
386.14	1203.04
386.34	1186.65
386.53	1238.14
386.72	1203.04
386.92	1301.34
387.11	1167.93
387.31	1212.40
387.50	1174.95
387.70	1273.25
387.89	1238.14
388.09	1299.00
388.28	1371.55
388.48	1214.74
388.67	1411.34
388.86	1277.93
389.06	1289.64
389.25	1247.51
389.45	1345.81
389.64	1390.28
389.84	1369.21
390.03	1378.58
390.22	1317.72
390.42	1362.19
390.61	1317.72
390.81	1390.28
391.00	1490.92
391.19	1448.79
391.39	1462.83
391.58	1448.79
391.78	1533.05
391.97	1479.22
392.16	1406.66
392.36	1591.56
392.55	1605.61
392.75	1432.41
392.94	1467.52
393.13	1507.30
393.33	1451.13
393.52	1493.26
393.71	1593.90
393.91	1612.63
394.10	1523.69
394.29	1654.76
394.49	1626.67
394.68	1591.56
394.88	1600.93
395.07	1661.78
395.26	1717.95
395.46	1687.53
395.65	1748.38
395.84	1750.72
396.04	1701.57
396.23	1643.06
396.42	1717.95
396.62	1771.79
396.81	1832.64
397.00	1734.34
397.19	1724.97
397.39	1764.76
397.58	1785.83
397.77	1923.92
397.97	1893.49
398.16	1778.81
398.35	1949.67
398.55	1834.98
398.74	1830.30
398.93	2043.29
399.12	1909.88
399.32	1942.64
399.51	1968.39
399.70	1966.05
399.90	1884.13
400.09	2047.97
400.28	2104.14
400.47	1994.14
400.67	2134.57
400.86	2071.37
401.05	2059.67
401.24	2003.50
401.44	2157.97
401.63	2101.80
401.82	2228.19
402.01	2122.87
402.21	2179.04
402.40	2129.89
402.59	2200.10
402.78	2174.36
402.97	2193.08
403.17	2307.77
403.36	2244.57
403.55	2272.66
403.74	2434.16
403.93	2342.88
404.13	2389.69
404.32	2319.47
404.51	2373.30
404.70	2471.61
404.89	2331.17
405.09	2387.35
405.28	2399.05
405.47	2483.31
405.66	2499.69
405.85	2441.18
406.05	2523.10
406.24	2668.21
406.43	2602.68
406.62	2703.32
406.81	2689.28
407.00	2612.04
407.20	2565.23
407.39	2682.25
407.58	2726.72
407.77	2649.49
407.96	2724.38
408.15	2738.43
408.34	2672.89
408.54	2780.56
408.73	2897.58
408.92	2768.85
409.11	3005.25
409.30	2850.77
409.49	2860.13
409.68	2857.79
409.87	2925.67
410.07	3012.27
410.26	3052.06
410.45	2946.73
410.64	3157.38
410.83	3215.90
411.02	3087.17
411.21	3211.22
411.40	3026.31
411.59	3253.34
411.78	3164.40
411.98	3192.49
412.17	3178.45
412.36	3424.20
412.55	3318.88
412.74	3485.06
412.93	3407.82
413.12	3384.41
413.31	3562.30
413.50	3541.23
413.69	3424.20
413.88	3676.98
414.07	3742.52
414.26	3660.60
414.45	3667.62
414.64	3637.19
414.83	3749.54
415.02	3735.50
415.22	3840.82
415.41	3915.72
415.60	3812.73
415.79	3948.48
415.98	4032.74
416.17	3892.31
416.36	4011.68
416.55	3976.57
416.74	4159.13
416.93	4044.45
417.12	4114.66
417.31	4180.20
417.50	4180.20
417.69	4271.48
417.88	4191.90
418.07	4156.79
418.26	4351.06
418.45	4315.95
418.64	4519.57
418.83	4425.95
419.02	4430.63
419.21	4550.00
419.39	4498.51
419.58	4489.15
419.77	4400.21
419.96	4702.14
420.15	4603.83
420.34	4664.69
420.53	4620.22
420.72	4624.90
420.91	4762.99
421.10	4791.08
421.29	4835.55
421.48	4678.73
421.67	4786.40
421.86	4823.84
422.05	4739.58
422.24	4765.33
422.43	4943.21
422.61	4837.89
422.80	4968.96
422.99	4856.61
423.18	4849.59
423.37	5153.86
423.56	4950.23
423.75	4983.00
423.94	4947.89
424.13	4737.24
424.32	4807.46
424.50	5022.79
424.69	5242.80
424.88	5057.90
425.07	4940.87
425.26	4994.70
425.45	4915.12
425.64	4945.55
425.83	4791.08
426.01	5071.94
426.20	4800.44
426.39	5034.49
426.58	5102.37
426.77	4997.04
426.96	5151.52
427.15	5078.96
427.33	5167.90
427.52	5114.07
427.71	5303.65
427.90	5252.16
428.09	5249.82
428.28	5343.44
428.46	5537.71
428.65	5392.59
428.84	5619.63
429.03	5703.89
429.22	5298.97
429.40	5591.54
429.59	5488.56
429.78	5242.80
429.97	5329.40
430.16	5518.98
430.34	5404.30
430.53	5678.14
430.72	5643.03
430.91	5720.27
431.10	5551.75
431.28	5654.73
431.47	5689.84
431.66	5874.74
431.85	5701.54
432.03	5977.73
432.22	5984.75
432.41	5858.36
432.60	6029.22
432.79	5907.51
432.97	5947.30
433.16	5926.24
433.35	6076.03
433.54	6076.03
433.72	6146.25
433.91	6221.14
434.10	6118.16
434.28	6216.46
434.47	6115.82
434.66	6310.08
434.85	6469.24
435.03	6319.45
435.22	6265.61
435.41	6590.95
435.59	6429.45
435.78	6511.37
435.97	6593.29
436.16	6452.86
436.34	6438.81
436.53	6581.59
436.72	6722.02
436.90	6548.82
437.09	6504.35
437.28	6623.72
437.46	6661.16
437.65	6731.38
437.84	6843.73
438.02	6586.27
438.21	6764.15
438.40	6684.57
438.58	7061.40
438.77	7073.10
438.96	6960.75
439.14	7087.14
439.33	7169.06
439.52	7215.87
439.70	7126.93
439.89	7332.90
440.08	7337.58
440.26	7438.22
440.45	7339.92
440.63	7424.18
440.82	7482.69
441.01	7480.35
441.19	7721.43
441.38	7707.38
441.57	7831.43
441.75	7749.51
441.94	7985.91
442.12	7911.01
442.31	7997.61
442.50	8039.74
442.68	8152.09
442.87	7985.91
443.05	8210.60
443.24	8278.47
443.43	8100.59
443.61	8301.88
443.80	8571.04
443.98	8009.31
444.17	8006.97
444.35	8236.35
444.54	8262.09
444.73	8358.05
444.91	8308.90
445.10	8454.02
445.28	8299.54
445.47	8383.80
445.65	8222.30
445.84	8308.90
446.02	8683.39
446.21	8273.79
446.39	8411.89
446.58	8631.90
446.77	8463.38
446.95	8320.60
447.14	8374.44
447.32	8505.51
447.51	8315.92
447.69	8468.06
447.88	8489.12
448.06	8416.57
448.25	8439.97
448.43	8692.75
448.62	8514.87
448.80	8566.36
448.99	8458.70
449.17	8858.93
449.36	8594.45
449.54	8851.91
449.73	9153.84
449.91	8954.89
450.10	9039.15
450.28	8999.36
450.46	8964.25
450.65	8950.21
450.83	9151.49
451.02	9011.06
451.20	9039.15
451.39	9186.60
451.57	9172.56
451.76	9102.34
451.94	9320.01
452.13	9348.10
452.31	9284.91
452.49	9263.84
452.68	9528.32
452.86	9369.16
453.05	9448.74
453.23	9369.16
453.42	9139.79
453.60	9509.60
453.78	9727.27
453.97	9444.06
454.15	9404.27
454.34	9387.89
454.52	9734.29
454.70	9628.96
454.89	9771.74
455.07	9809.19
455.26	9975.36
455.44	10022.17
455.62	9898.13
455.81	9923.87
455.99	10099.41
456.17	10106.43
456.36	10171.97
456.54	10174.31
456.73	10289.00
456.91	10581.56
457.09	10403.68
457.28	10551.14
457.46	9935.57
457.64	10523.05
457.83	10513.69
458.01	10476.24
458.19	10923.28
458.38	10649.44
458.56	10726.68
458.74	10960.73
458.93	10785.19
459.11	10794.55
459.29	10691.57
459.48	10874.13
459.66	10785.19
459.84	10729.02
460.03	10972.43
460.21	10815.62
460.39	10949.03
460.57	10974.77
460.76	11030.94
460.94	11075.42
461.12	11047.33
461.31	11122.23
461.49	11124.57
461.67	11061.37
461.85	11375.00
462.04	11344.58
462.22	11447.56
462.40	11527.14
462.59	11508.41
462.77	11424.15
462.95	11613.74
463.13	11630.12
463.32	11786.94
463.50	11822.05
463.68	11538.84
463.86	11932.05
464.05	11693.32
464.23	11644.17
464.41	11878.22
464.59	11655.87
464.78	12161.42
464.96	12035.03
465.14	12016.31
465.32	12217.60
465.50	12135.68
465.69	11939.07
465.87	12453.99
466.05	12390.80
466.23	12292.49
466.41	12194.19
466.60	12451.65
466.78	12283.13
466.96	12353.35
467.14	12297.17
467.32	12332.28
467.51	12716.13
467.69	12149.72
467.87	12692.73
468.05	12610.81
468.23	12388.46
468.41	12477.40
468.60	12521.87
468.78	12844.86
468.96	12627.19
469.14	12666.98
469.32	13046.15
469.50	12741.88
469.69	13048.49
469.87	13165.51
470.05	13231.05
470.23	13195.94
470.41	13018.06
470.59	13483.83
470.77	13263.82
470.95	13528.30
471.14	13612.56
471.32	13181.90
471.50	13371.48
471.68	13687.45
471.86	13916.83
472.04	13654.69
472.22	13944.91
472.40	13654.69
472.58	14003.43
472.77	14047.90
472.95	14047.90
473.13	14672.82
473.31	14251.52
473.49	14195.35
473.67	14265.57
473.85	14185.99
474.03	14813.25
474.21	14492.60
474.39	14911.55
474.57	14773.46
474.75	14974.75
474.93	15005.17
475.12	14885.81
475.30	15204.12
475.48	14902.19
475.66	15140.93
475.84	15222.84
476.02	15606.69
476.20	15440.51
476.38	15730.74
476.56	16177.78
476.74	16194.17
476.92	16121.61
477.10	15735.42
477.28	16240.98
477.46	16084.16
477.64	16624.83
477.82	16390.77
478.00	17053.14
478.18	16982.93
478.36	16819.09
478.54	16992.29
478.72	17104.64
478.90	17261.45
479.08	17465.08
479.26	17729.56
479.44	17771.69
479.62	17661.68
479.80	18050.21
479.98	18200.01
480.16	18651.73
480.34	18410.65
480.52	18335.76
480.70	18733.65
480.88	18532.36
481.06	18719.60
481.24	18869.40
481.41	19035.58
481.59	19510.71
481.77	19728.38
481.95	19618.37
482.13	19829.02
482.31	19899.23
482.49	20194.14
482.67	20238.61
482.85	20327.55
483.03	20730.12
483.21	20929.07
483.39	21174.83
483.57	20947.79
483.74	21315.26
483.92	21249.72
484.10	21577.40
484.28	21530.59
484.46	22214.02
484.64	22073.59
484.82	22462.12
485.00	22679.79
485.18	22810.86
485.35	22995.76
485.53	22965.34
485.71	23318.76
485.89	23470.89
486.07	23765.80
486.25	23513.02
486.43	23779.84
486.61	24112.20
486.78	24086.45
486.96	24236.25
487.14	24215.18
487.32	24739.46
487.50	24802.66
487.68	25205.23
487.85	25734.19
488.03	25678.02
488.21	26232.72
488.39	25867.60
488.57	25975.27
488.75	26436.35
488.92	26579.12
489.10	26801.47
489.28	26752.32
489.46	26974.67
489.64	27192.34
489.81	27372.57
489.99	27831.31
490.17	27789.18
490.35	28362.61
490.53	28027.92
490.70	28744.12
490.88	28077.07
491.06	28821.36
491.24	28999.24
491.41	29106.90
491.59	29441.60
491.77	29610.12
491.95	29947.15
492.13	29937.79
492.30	30106.31
492.48	30249.08
492.66	30319.30
492.84	30349.73
493.01	30986.35
493.19	30487.82
493.37	30967.63
493.54	30974.65
493.72	31433.39
493.90	31433.39
494.08	31906.18
494.25	31871.07
494.43	32299.39
494.61	32552.17
494.79	32479.61
494.96	32341.52
495.14	32697.28
495.32	33261.35
495.49	33301.14
495.67	33364.34
495.85	33736.48
496.02	34190.55
496.20	34024.37
496.38	34185.86
496.55	34518.22
496.73	34969.94
496.91	34675.04
497.09	34841.21
497.26	35386.56
497.44	34841.21
497.62	35321.02
497.79	35821.90
497.97	35208.68
498.14	36322.77
498.32	36102.76
498.50	35842.96
498.67	36659.81
498.85	36566.19
499.03	36797.90
499.20	36715.98
499.38	36910.25
499.56	37095.15
499.73	36889.18
499.91	37376.01
500.08	37401.76
500.26	37694.33
500.44	37762.20
500.61	38242.01
500.79	37624.11
500.97	38574.37
501.14	38696.08
501.32	38499.47
501.49	38733.53
501.67	39145.46
501.84	39168.87
502.02	39213.34
502.20	39304.62
502.37	39100.99
502.55	39459.09
502.72	39536.33
502.90	39686.12
503.07	39552.71
503.25	40065.29
503.43	39845.28
503.60	40177.64
503.78	40074.65
503.95	40282.96
504.13	40638.72
504.30	40643.40
504.48	40545.10
504.65	40720.64
504.83	41287.05
505.01	41701.32
505.18	41411.10
505.36	41806.65
505.53	41357.27
505.71	41242.58
505.88	41579.62
506.06	41591.32
506.23	42031.34
506.41	41933.04
506.58	42246.67
506.76	42103.90
506.93	42525.19
507.11	42373.06
507.28	42705.41
507.46	42953.51
507.63	42951.17
507.81	43386.51
507.98	42892.66
508.16	43033.09
508.33	43718.87
508.50	43648.65
508.68	43805.47
508.85	44142.50
509.03	43653.33
509.20	44055.90
509.38	44554.44
509.55	44446.77
509.73	44711.25
509.90	44863.39
510.08	44444.43
510.25	44811.90
510.42	44619.97
510.60	45359.58
510.77	45312.77
510.95	45944.72
511.12	45219.15
511.30	45572.57
511.47	46064.08
511.64	45436.82
511.82	46122.60
511.99	45659.17
512.17	46007.91
512.34	46050.04
512.51	46291.12
512.69	46403.46
512.86	46347.29
513.04	46583.68
513.21	46490.06
513.38	46862.21
513.56	46920.72
513.73	46986.25
513.90	46906.68
514.08	46836.46
514.25	47384.15
514.43	47555.00
514.60	48107.37
514.77	47433.30
514.95	47819.49
515.12	47665.01
515.29	47650.97
515.47	47978.64
515.64	48428.02
515.81	47908.43
515.99	48465.47
516.16	48477.18
516.33	48514.62
516.51	48659.74
516.68	48348.45
516.85	48624.63
517.03	48718.25
517.20	48748.68
517.37	48886.77
517.54	49198.06
517.72	49069.33
517.89	49244.87
518.06	49382.96
518.24	49436.80
518.41	49331.47
518.58	49272.96
518.75	49478.92
518.93	49867.45
519.10	49499.99
519.27	49748.09
519.45	49645.10
519.62	50223.22
519.79	50028.95
519.96	50117.89
520.14	50167.04
520.31	50199.81
520.48	50298.11
520.65	50614.08
520.83	50684.30
521.00	50862.18
521.17	50272.37
521.34	50717.07
521.52	51150.07
521.69	51011.98
521.86	51086.87
522.03	51304.54
522.20	51508.17
522.38	51257.73
522.55	51657.96
522.72	51793.71
522.89	51571.36
523.07	52046.49
523.24	51564.34
523.41	51686.05
523.58	51810.10
523.75	52193.95
523.92	51831.16
524.10	51999.68
524.27	52296.93
524.44	52231.40
524.61	52128.41
524.78	52360.12
524.96	52474.81
525.13	52360.12
525.30	52507.58
525.47	52559.07
525.64	52357.78
525.81	52821.21
525.98	52701.84
526.16	52758.02
526.33	52795.46
526.50	52671.42
526.67	52961.64
526.84	52971.00
527.01	53284.64
527.18	52875.04
527.36	53324.43
527.53	53176.97
527.70	53460.18
527.87	53078.67
528.04	53413.37
528.21	53654.44
528.38	53483.58
528.55	53837.00
528.72	53525.71
528.89	53464.86
529.07	53408.68
529.24	53315.06
529.41	53715.29
529.58	53542.10
529.75	53710.61
529.92	53979.78
530.09	54204.47
530.26	53731.68
530.43	54244.26
530.60	54129.57
530.77	53916.58
530.94	53858.07
531.11	54064.03
531.28	54328.52
531.46	54384.69
531.63	54183.40
531.80	54291.07
531.97	54380.01
532.14	54433.84
532.31	54518.10
532.48	54597.68
532.65	54546.18
532.82	54520.44
532.99	54876.20
533.16	54838.75
533.33	55152.38
533.50	54810.67
533.67	54817.69
533.84	54768.54
534.01	54911.31
534.18	54988.55
534.35	55515.17
534.52	55213.24
534.69	55381.76
534.86	55185.15
535.03	55344.31
535.20	55292.82
535.37	55370.05
535.54	55456.65
535.71	55264.73
535.88	55545.59
536.05	55557.30
536.22	55753.90
536.38	55716.45
536.55	55695.39
536.72	55669.64
536.89	55430.91
537.06	55735.18
537.23	55887.31
537.40	55618.15
537.57	55674.32
537.74	55554.96
537.91	55964.55
538.08	55997.32
538.25	55496.44
538.42	55952.85
538.59	56229.03
538.75	55994.98
538.92	55992.64
539.09	56285.20
539.26	56341.38
539.43	56303.93
539.60	56039.45
539.77	56519.26
539.94	56477.13
540.11	56371.80
540.28	56603.52
540.44	56701.82
540.61	56577.77
540.78	56619.90
540.95	56530.96
541.12	56280.52
541.29	56537.98
541.46	56690.12
541.62	56788.42
541.79	56872.68
541.96	56624.58
542.13	56493.51
542.30	56676.07
542.47	56708.84
542.63	56907.79
542.80	57024.81
542.97	57064.60
543.14	57256.53
543.31	57324.40
543.48	57209.71
543.64	57605.26
543.81	57359.51
543.98	57270.57
544.15	57387.60
544.32	57331.42
544.48	57759.74
544.65	57347.81
544.82	57652.08
544.99	57272.91
545.16	57738.68
545.32	57401.64
545.49	57609.95
545.66	57858.04
545.83	57666.12
546.00	57872.09
546.16	57860.38
546.33	57565.48
546.50	57549.09
546.67	57867.40
546.83	57427.38
547.00	57696.55
547.17	57654.42
547.34	57846.34
547.50	57822.93
547.67	58073.37
547.84	58211.46
548.00	58108.48
548.17	58363.60
548.34	58209.12
548.51	58286.36
548.67	58239.55
548.84	58445.52
549.01	58281.68
549.18	58230.19
549.34	58185.72
549.51	58377.64
549.68	58328.49
549.84	58384.66
550.01	58571.91
550.18	58452.54
550.34	58529.78
550.51	58323.81
550.68	58599.99
550.84	58279.34
551.01	58660.85
551.18	58539.14
551.34	58501.69
551.51	58529.78
551.68	58759.15
551.84	58424.45
552.01	58522.76
552.18	58592.97
552.34	58445.52
552.51	58735.74
552.68	58756.81
552.84	58798.94
553.01	58857.45
553.18	58672.55
553.34	58855.11
553.51	58707.66
553.67	58787.24
553.84	59196.83
554.01	59056.40
554.17	59124.27
554.34	59014.27
554.51	59213.21
554.67	59241.30
554.84	58901.92
555.00	59119.59
555.17	59002.56
555.33	59220.23
555.50	59032.99
555.67	59168.74
555.83	59040.01
556.00	59283.43
556.16	59367.69
556.33	59437.90
556.50	59377.05
556.66	59320.88
556.83	59269.39
556.99	59435.56
557.16	59618.13
557.32	59578.34
557.49	59608.76
557.65	59257.68
557.82	59370.03
557.98	59451.95
558.15	59526.84
558.32	59440.24
558.48	59358.33
558.65	59433.22
558.81	59505.78
558.98	59484.72
559.14	59543.23
559.31	59632.17
559.47	59667.28
559.64	59739.83
559.80	59749.20
559.97	59723.45
560.13	59550.25
560.30	59732.81
560.46	59784.30
560.63	59803.03
560.79	59985.59
560.96	59952.82
561.12	59971.55
561.29	59973.89
561.45	59992.61
561.61	59828.77
561.78	59863.88
561.94	59896.65
562.11	59929.42
562.27	59964.52
562.44	59744.51
562.60	60219.64
562.77	60060.49
562.93	59840.48
563.10	60205.60
563.26	59922.40
563.42	60170.49
563.59	60079.21
563.75	60147.09
563.92	60069.85
564.08	60114.32
564.24	60243.05
564.41	60203.26
564.57	60161.13
564.74	60123.68
564.90	60102.62
565.07	60065.17
565.23	60329.65
565.39	60189.22
565.56	59990.27
565.72	60163.47
565.88	60229.01
566.05	60034.74
566.21	60350.71
566.38	60186.88
566.54	60250.07
566.70	60439.65
566.87	60322.63
567.03	60392.84
567.19	60299.22
567.36	60397.52
567.52	60285.18
567.68	60507.53
567.85	60362.42
568.01	60544.98
568.17	60350.71
568.34	60390.50
568.50	60491.15
568.66	60413.91
568.83	60437.31
568.99	60376.46
569.15	60423.27
569.32	60568.38
569.48	60385.82
569.64	60456.04
569.81	60577.75
569.97	60512.21
570.13	60547.32
570.30	60388.16
570.46	60631.58
570.62	60591.79
570.78	60612.85
570.95	60465.40
571.11	60458.38
571.27	60418.59
571.43	60659.66
571.60	60640.94
571.76	60830.52
571.92	60697.11
572.09	60636.26
572.25	60430.29
572.41	60741.58
572.57	60629.24
572.74	60985.00
572.90	60781.37
573.06	60713.50
573.22	60701.79
573.38	60692.43
573.55	60638.60
573.71	61031.81
573.87	60870.31
574.03	60493.49
574.20	60912.44
574.36	60856.27
574.52	60846.91
574.68	60821.16
574.84	60743.92
575.01	60830.52
575.17	60690.09
575.33	60685.41
575.49	60603.49
575.65	60886.70
575.82	60870.31
575.98	60844.57
576.14	61127.77
576.30	60664.35
576.46	60846.91
576.62	60807.12
576.79	60849.25
576.95	60669.03
577.11	60865.63
577.27	61116.07
577.43	60825.84
577.59	60762.65
577.75	60563.70
577.92	60683.07
578.08	60603.49
578.24	60832.86
578.40	60935.85
578.56	60942.87
578.72	61041.17
578.88	60849.25
579.04	61080.96
579.21	61036.49
579.37	61186.28
579.53	61003.72
579.69	60739.24
579.85	60741.58
580.01	60835.20
580.17	60830.52
580.33	60949.89
580.49	61043.51
580.65	61095.00
580.82	60842.23
580.98	60790.73
581.14	60718.18
581.30	61022.45
581.46	60907.76
581.62	61106.71
581.78	60830.52
581.94	61022.45
582.10	60992.02
582.26	61024.79
582.42	61003.72
582.58	61057.56
582.74	60860.95
582.90	60956.91
583.06	61116.07
583.22	61031.81
583.38	61027.13
583.54	61027.13
583.70	61080.96
583.86	61219.05
584.02	60748.60
584.18	61008.40
584.34	61080.96
584.50	61244.80
584.66	60975.64
584.82	60858.61
584.98	61219.05
585.14	61076.28
585.30	61017.77
585.46	60942.87
585.62	60992.02
585.78	61212.03
585.94	60802.44
586.10	61085.64
586.26	61055.21
586.42	61111.39
586.58	61078.62
586.74	61078.62
586.90	61118.41
587.06	61242.46
587.22	61319.70
587.38	61153.52
587.54	61197.99
587.70	61183.94
587.86	61085.64
588.02	61120.75
588.18	61153.52
588.34	61071.60
588.49	60914.78
