SpectraSuite Data File
++++++++++++++++++++++++++++++++++++
Date: Fri Oct 25 10:47:34 EDT 2013
User: price-jones
Dark Spectrum Present: No
Reference Spectrum Present: No
Number of Sampled Component Spectra: 1
Spectrometers: USB2+H05261
Integration Time (usec): 100000 (USB2+H05261)
Spectra Averaged: 1 (USB2+H05261)
Boxcar Smoothing: 0 (USB2+H05261)
Correct for Electrical Dark: No (USB2+H05261)
Strobe/Lamp Enabled: No (USB2+H05261)
Correct for Detector Non-linearity: No (USB2+H05261)
Correct for Stray Light: No (USB2+H05261)
Number of Pixels in Processed Spectrum: 2048
>>>>>Begin Processed Spectral Data<<<<<
365.73	105.32
365.92	105.32
366.12	105.32
366.32	0.00
366.52	35.11
366.72	128.73
366.91	119.37
367.11	0.00
367.31	32.77
367.51	98.30
367.70	63.19
367.90	100.64
368.10	72.56
368.30	39.79
368.49	0.00
368.69	91.28
368.89	63.19
369.09	23.41
369.28	79.58
369.48	77.24
369.68	42.13
369.87	88.94
370.07	159.16
370.27	191.92
370.47	203.63
370.66	386.19
370.86	332.36
371.06	437.68
371.25	449.38
371.45	376.83
371.65	465.77
371.84	397.89
372.04	440.02
372.24	472.79
372.44	411.93
372.63	484.49
372.83	538.32
373.03	428.32
373.22	533.64
373.42	458.74
373.62	425.98
373.81	531.30
374.01	456.40
374.21	512.58
374.40	503.22
374.60	557.05
374.79	552.37
374.99	580.45
375.19	512.58
375.38	528.96
375.58	540.66
375.78	603.86
375.97	571.09
376.17	582.79
376.37	512.58
376.56	528.96
376.76	575.77
376.95	519.60
377.15	617.90
377.35	601.52
377.54	627.26
377.74	622.58
377.93	664.71
378.13	596.84
378.33	627.26
378.52	552.37
378.72	643.65
378.91	594.50
379.11	547.69
379.31	573.43
379.50	638.97
379.70	594.50
379.89	629.60
380.09	568.75
380.28	650.67
380.48	655.35
380.68	681.10
380.87	624.92
381.07	650.67
381.26	704.50
381.46	634.29
381.65	664.71
381.85	587.47
382.04	622.58
382.24	709.18
382.43	702.16
382.63	613.22
382.83	660.03
383.02	713.86
383.22	641.31
383.41	802.80
383.61	788.76
383.80	791.10
384.00	716.20
384.19	767.70
384.39	821.53
384.58	767.70
384.78	788.76
384.97	741.95
385.17	791.10
385.36	791.10
385.56	718.54
385.75	912.81
385.95	828.55
386.14	802.80
386.34	774.72
386.53	758.33
386.72	734.93
386.92	830.89
387.11	863.66
387.31	830.89
387.50	826.21
387.70	777.06
387.89	791.10
388.09	781.74
388.28	791.10
388.48	758.33
388.67	805.14
388.86	711.52
389.06	894.08
389.25	802.80
389.45	933.87
389.64	875.36
389.84	802.80
390.03	985.37
390.22	901.11
390.42	870.68
390.61	957.28
390.81	901.11
391.00	1018.13
391.19	901.11
391.39	985.37
391.58	1048.56
391.78	889.40
391.97	931.53
392.16	945.58
392.36	1102.39
392.55	992.39
392.75	915.15
392.94	950.26
393.13	1041.54
393.33	980.68
393.52	994.73
393.71	1029.84
393.91	968.98
394.10	1071.97
394.29	1011.11
394.49	1043.88
394.68	1081.33
394.88	1057.92
395.07	1100.05
395.26	1025.15
395.46	1104.73
395.65	1086.01
395.84	1139.84
396.04	1125.80
396.23	1128.14
396.42	1093.03
396.62	1130.48
396.81	1158.57
397.00	1116.44
397.19	1181.97
397.39	1198.35
397.58	1270.91
397.77	1118.78
397.97	1186.65
398.16	1217.08
398.35	1221.76
398.55	1259.21
398.74	1256.87
398.93	1366.87
399.12	1387.94
399.32	1352.83
399.51	1268.57
399.70	1397.30
399.90	1306.02
400.09	1394.96
400.28	1425.39
400.47	1299.00
400.67	1432.41
400.86	1502.62
401.05	1495.60
401.24	1397.30
401.44	1537.73
401.63	1544.75
401.82	1430.07
402.01	1416.02
402.21	1434.75
402.40	1490.92
402.59	1509.65
402.78	1476.88
402.97	1357.51
403.17	1558.80
403.36	1528.37
403.55	1577.52
403.74	1633.69
403.93	1636.03
404.13	1586.88
404.32	1565.82
404.51	1689.87
404.70	1720.29
404.89	1701.57
405.09	1750.72
405.28	1834.98
405.47	1614.97
405.66	1762.42
405.85	1717.95
406.05	1771.79
406.24	1760.08
406.43	1739.02
406.62	1760.08
406.81	1806.89
407.00	1732.00
407.20	1813.92
407.39	1877.11
407.58	1874.77
407.77	1856.04
407.96	1980.09
408.15	1942.64
408.34	1860.73
408.54	1994.14
408.73	1928.60
408.92	1984.77
409.11	1959.03
409.30	1940.30
409.49	2076.06
409.68	2090.10
409.87	2132.23
410.07	2101.80
410.26	2036.27
410.45	2038.61
410.64	2162.66
410.83	2132.23
411.02	2258.62
411.21	2183.72
411.40	2157.97
411.59	2314.79
411.78	2296.07
411.98	2345.22
412.17	2347.56
412.36	2314.79
412.55	2326.49
412.74	2403.73
412.93	2544.16
413.12	2392.03
413.31	2527.78
413.50	2415.43
413.69	2455.22
413.88	2642.46
414.07	2539.48
414.26	2595.65
414.45	2586.29
414.64	2523.10
414.83	2628.42
415.02	2733.75
415.22	2738.43
415.41	2773.53
415.60	2827.37
415.79	2775.88
415.98	2759.49
416.17	2967.80
416.36	2850.77
416.55	2754.81
416.74	2883.54
416.93	2937.37
417.12	2881.20
417.31	3030.99
417.50	2897.58
417.69	3176.11
417.88	2949.08
418.07	2958.44
418.26	3105.89
418.45	3117.59
418.64	3255.69
418.83	3148.02
419.02	3178.45
419.21	3227.60
419.39	3192.49
419.58	3162.06
419.77	3227.60
419.96	3361.01
420.15	3251.00
420.34	3258.03
420.53	3265.05
420.72	3227.60
420.91	3461.65
421.10	3454.63
421.29	3494.42
421.48	3405.48
421.67	3353.99
421.86	3318.88
422.05	3407.82
422.24	3295.47
422.43	3400.80
422.61	3417.18
422.80	3424.20
422.99	3503.78
423.18	3445.27
423.37	3548.25
423.56	3393.78
423.75	3424.20
423.94	3449.95
424.13	3330.58
424.32	3325.90
424.50	3581.02
424.69	3414.84
424.88	3662.94
425.07	3480.38
425.26	3581.02
425.45	3471.01
425.64	3403.14
425.83	3630.17
426.01	3700.39
426.20	3599.74
426.39	3538.89
426.58	3655.92
426.77	3543.57
426.96	3641.87
427.15	3574.00
427.33	3653.58
427.52	3555.27
427.71	3719.11
427.90	3822.09
428.09	3737.84
428.28	3779.97
428.46	3730.81
428.65	3733.15
428.84	3796.35
429.03	3770.60
429.22	3812.73
429.40	3763.58
429.59	3726.13
429.78	3585.70
429.97	3695.71
430.16	3712.09
430.34	3782.31
430.53	3976.57
430.72	3859.54
430.91	3833.80
431.10	3840.82
431.28	4065.51
431.47	4180.20
431.66	3906.35
431.85	4119.34
432.03	4224.67
432.22	4198.92
432.41	4210.62
432.60	4107.64
432.79	4315.95
432.97	4259.78
433.16	4133.39
433.35	4102.96
433.54	4203.60
433.72	4124.02
433.91	4241.05
434.10	4166.15
434.28	4170.83
434.47	4224.67
434.66	4564.04
434.85	4566.39
435.03	4341.69
435.22	4407.23
435.41	4547.66
435.59	4500.85
435.78	4592.13
435.97	4472.76
436.16	4451.70
436.34	4685.75
436.53	4587.45
436.72	4683.41
436.90	4573.41
437.09	4662.35
437.28	4528.94
437.46	4751.29
437.65	4564.04
437.84	4652.98
438.02	4599.15
438.21	4732.56
438.40	4620.22
438.58	4575.75
438.77	4870.65
438.96	4858.95
439.14	4835.55
439.33	4950.23
439.52	5060.24
439.70	5093.01
439.89	5132.79
440.08	5090.67
440.26	5228.76
440.45	5165.56
440.63	5114.07
440.82	5294.29
441.01	5135.14
441.19	5188.97
441.38	5462.81
441.57	5406.64
441.75	5565.79
441.94	5600.90
442.12	5584.52
442.31	5558.77
442.50	5687.50
442.68	5582.18
442.87	5439.40
443.05	5671.12
443.24	5734.31
443.43	5813.89
443.61	5825.59
443.80	5900.49
443.98	5668.78
444.17	5504.94
444.35	5909.85
444.54	5841.98
444.73	5851.34
444.91	5731.97
445.10	5961.34
445.28	5841.98
445.47	5792.83
445.65	5720.27
445.84	5856.02
446.02	5827.93
446.21	5720.27
446.39	5806.87
446.58	5996.45
446.77	6012.84
446.95	5783.46
447.14	5895.81
447.32	5984.75
447.51	5984.75
447.69	5682.82
447.88	5935.60
448.06	6047.94
448.25	5776.44
448.43	6040.92
448.62	5977.73
448.80	5954.32
448.99	6097.10
449.17	6008.16
449.36	6111.14
449.54	6097.10
449.73	6239.87
449.91	6305.40
450.10	6230.51
450.28	6492.65
450.46	6399.02
450.65	6347.53
450.83	6270.30
451.02	6380.30
451.20	6525.41
451.39	6354.55
451.57	6473.92
451.76	6225.82
451.94	6345.19
452.13	6497.33
452.31	6476.26
452.49	6303.06
452.68	6429.45
452.86	6562.86
453.05	6441.15
453.23	6677.55
453.42	6471.58
453.60	6504.35
453.78	6607.33
453.97	6443.49
454.15	6576.91
454.34	6509.03
454.52	6832.02
454.70	6796.92
454.89	6745.42
455.07	6871.81
455.26	6822.66
455.44	7028.63
455.62	7012.24
455.81	6801.60
455.99	7016.93
456.17	6780.53
456.36	7096.50
456.54	7133.95
456.73	7047.35
456.91	7272.04
457.09	7068.42
457.28	7403.11
457.46	7166.72
457.64	7325.88
457.83	7138.63
458.01	7363.33
458.19	7342.26
458.38	7239.28
458.56	7328.22
458.74	7468.65
458.93	7342.26
459.11	7583.34
459.29	7602.06
459.48	7583.34
459.66	7358.64
459.84	7613.76
460.03	7728.45
460.21	7557.59
460.39	7459.29
460.57	7709.72
460.76	7522.48
460.94	7623.12
461.12	7616.10
461.31	7761.22
461.49	7515.46
461.67	7644.19
461.85	8049.10
462.04	7700.36
462.22	8196.56
462.40	8060.80
462.59	8004.63
462.77	7974.21
462.95	7997.61
463.13	7868.88
463.32	8016.33
463.50	8112.30
463.68	8063.15
463.86	8147.40
464.05	7946.12
464.23	8219.96
464.41	8294.86
464.59	8028.04
464.78	8308.90
464.96	8116.98
465.14	8049.10
465.32	8271.45
465.50	8053.78
465.69	8489.12
465.87	8219.96
466.05	8201.24
466.23	8170.81
466.41	8430.61
466.60	8482.10
466.78	8283.16
466.96	8329.97
467.14	8152.09
467.32	8650.62
467.51	8692.75
467.69	8479.76
467.87	8482.10
468.05	8631.90
468.23	8491.46
468.41	8510.19
468.60	8704.45
468.78	8758.28
468.96	8346.35
469.14	8582.74
469.32	8931.48
469.50	8510.19
469.69	8870.63
469.87	8587.43
470.05	8727.86
470.23	8767.65
470.41	8788.71
470.59	8865.95
470.77	9004.04
470.95	9036.81
471.14	9390.23
471.32	8978.30
471.50	9249.80
471.68	9266.18
471.86	9249.80
472.04	9188.94
472.22	9511.94
472.40	9207.67
472.58	9322.35
472.77	9631.30
472.95	9336.40
473.13	9673.43
473.31	9362.14
473.49	9504.92
473.67	9575.13
473.85	9900.47
474.03	9811.53
474.21	9996.43
474.39	9781.10
474.57	9743.65
474.75	9996.43
474.93	10120.48
475.12	9935.57
475.30	10403.68
475.48	10190.69
475.66	10190.69
475.84	10162.61
476.02	10256.23
476.20	10326.44
476.38	10616.67
476.56	10883.49
476.74	10672.84
476.92	10401.34
477.10	10565.18
477.28	10949.03
477.46	11035.63
477.64	10946.69
477.82	11108.18
478.00	11496.71
478.18	11370.32
478.36	11393.73
478.54	11499.05
478.72	11506.07
478.90	11564.59
479.08	11824.39
479.26	11847.79
479.44	11892.26
479.62	12056.10
479.80	12198.87
479.98	12077.16
480.16	12432.93
480.34	12318.24
480.52	12444.63
480.70	12435.27
480.88	12311.22
481.06	12608.47
481.24	12575.70
481.41	12861.24
481.59	13046.15
481.77	12912.74
481.95	13156.15
482.13	13125.72
482.31	13146.79
482.49	13507.23
482.67	13755.33
482.85	13472.12
483.03	13528.30
483.21	13797.46
483.39	13935.55
483.57	14010.45
483.74	13870.01
483.92	14256.20
484.10	13994.06
484.28	14450.47
484.46	14630.69
484.64	14707.93
484.82	14448.13
485.00	14824.95
485.18	14860.06
485.35	15066.03
485.53	14675.16
485.71	14853.04
485.89	14960.70
486.07	15260.29
486.25	15260.29
486.43	15592.65
486.61	15630.10
486.78	15632.44
486.96	15920.32
487.14	16053.73
487.32	16154.38
487.50	16159.06
487.68	16566.31
487.85	16744.19
488.03	16915.05
488.21	16868.24
488.39	16994.63
488.57	17198.26
488.75	17268.47
488.92	17502.53
489.10	18050.21
489.28	17493.16
489.46	17720.20
489.64	17750.62
489.81	18122.77
489.99	18321.71
490.17	18291.29
490.35	18717.26
490.53	18494.91
490.70	18679.82
490.88	18565.13
491.06	19000.47
491.24	18946.64
491.41	19176.01
491.59	19250.91
491.77	18930.25
491.95	19447.51
492.13	19576.24
492.30	19349.21
492.48	19833.70
492.66	19936.68
492.84	19852.42
493.01	20271.38
493.19	20042.01
493.37	20273.72
493.54	20407.13
493.72	20507.77
493.90	20531.18
494.08	20849.49
494.25	21013.33
494.43	21345.69
494.61	21366.75
494.79	21160.78
494.96	21193.55
495.14	21703.79
495.32	21914.44
495.49	21462.71
495.67	21961.25
495.85	21998.70
496.02	22190.62
496.20	22314.67
496.38	22527.66
496.55	22410.63
496.73	22897.46
496.91	22443.40
497.09	22834.27
497.26	23147.90
497.44	22759.37
497.62	22827.24
497.79	23599.62
497.97	23147.90
498.14	23634.73
498.32	23318.76
498.50	23634.73
498.67	23545.79
498.85	23686.22
499.03	24177.73
499.20	24067.73
499.38	24074.75
499.56	24386.04
499.73	23929.64
499.91	24287.74
500.08	24498.39
500.26	23946.02
500.44	24641.16
500.61	24514.77
500.79	24404.77
500.97	24449.24
501.14	25221.61
501.32	25118.63
501.49	24905.64
501.67	25455.67
501.84	25352.68
502.02	25436.94
502.20	25560.99
502.37	25729.51
502.55	25516.52
502.72	25647.59
502.90	25668.66
503.07	25750.57
503.25	25692.06
503.43	25942.50
503.60	26321.66
503.78	25998.67
503.95	25881.64
504.13	26405.92
504.30	26242.09
504.48	26338.05
504.65	26810.84
504.83	26635.30
505.01	27065.96
505.18	27014.46
505.36	27204.05
505.53	26993.40
505.71	26897.44
505.88	27328.10
506.06	27026.17
506.23	27316.39
506.41	27037.87
506.58	27431.08
506.76	27709.60
506.93	27679.18
507.11	27550.45
507.28	27693.22
507.46	27946.00
507.63	27723.65
507.81	27924.93
507.98	28002.17
508.16	27901.53
508.33	28041.96
508.50	28505.38
508.68	28479.64
508.85	28868.17
509.03	28746.46
509.20	28952.43
509.38	29198.18
509.55	28631.77
509.73	28975.83
509.90	28819.02
510.08	29001.58
510.25	29090.52
510.42	29539.90
510.60	29689.70
510.77	29476.71
510.95	29926.09
511.12	29551.60
511.30	29979.92
511.47	30061.84
511.64	30096.95
511.82	30029.07
511.99	29652.25
512.17	30022.05
512.34	29710.76
512.51	29949.50
512.69	30579.10
512.86	30258.45
513.04	30237.38
513.21	30965.29
513.38	30487.82
513.56	30445.69
513.73	30778.04
513.90	30813.15
514.08	30707.83
514.25	30923.16
514.43	30967.63
514.60	31222.75
514.77	31119.76
514.95	31030.82
515.12	31166.57
515.29	31302.32
515.47	31534.04
515.64	31480.21
515.81	31744.69
515.99	31662.77
516.16	31622.98
516.33	31627.66
516.51	31868.73
516.68	31613.62
516.85	31274.24
517.03	31915.54
517.20	31747.03
517.37	32053.64
517.54	32313.44
517.72	32044.27
517.89	32357.91
518.06	32184.71
518.24	32222.16
518.41	32060.66
518.58	32416.42
518.75	32027.89
518.93	32952.40
519.10	32921.98
519.27	33273.06
519.45	32620.05
519.62	33001.55
519.79	32477.27
519.96	33193.48
520.14	33329.23
520.31	32746.44
520.48	33633.50
520.65	33184.12
520.83	33797.34
521.00	33621.80
521.17	33467.32
521.34	33696.69
521.52	33455.62
521.69	33769.25
521.86	33982.24
522.03	34202.25
522.20	33780.95
522.38	33869.89
522.55	34061.82
522.72	33865.21
522.89	34026.71
523.07	34707.80
523.24	34003.30
523.41	34338.00
523.58	34300.55
523.75	34817.81
523.92	34614.18
524.10	34930.16
524.27	34979.31
524.44	34918.45
524.61	34909.09
524.78	34895.05
524.96	34953.56
525.13	35140.80
525.30	35220.38
525.47	35435.71
525.64	35365.49
525.81	35196.98
525.98	35140.80
526.16	35042.50
526.33	34895.05
526.50	35878.07
526.67	35049.52
526.84	35325.71
527.01	35126.76
527.18	35693.17
527.36	35763.39
527.53	35885.09
527.70	36273.62
527.87	35810.20
528.04	35749.34
528.21	35952.97
528.38	35793.81
528.55	36650.45
528.72	36130.85
528.89	36739.39
529.07	36275.96
529.24	36451.50
529.41	36699.60
529.58	36428.10
529.75	36594.28
529.92	36603.64
530.09	36704.28
530.26	36933.65
530.43	37090.47
530.60	36559.17
530.77	36758.11
530.94	37038.98
531.11	36870.46
531.28	36863.44
531.46	37226.22
531.63	37308.14
531.80	37069.40
531.97	36655.13
532.14	36945.36
532.31	37038.98
532.48	37090.47
532.65	37600.71
532.82	37233.24
532.99	37436.87
533.16	37034.30
533.33	37708.37
533.50	37596.03
533.67	37635.81
533.84	37464.96
534.01	37820.72
534.18	37598.37
534.35	38113.28
534.52	38115.62
534.69	38094.56
534.86	38134.35
535.03	37947.11
535.20	38490.11
535.37	38541.60
535.54	38562.67
535.71	37977.53
535.88	38216.27
536.05	38422.23
536.22	38417.55
536.38	38642.24
536.55	38022.00
536.72	38326.27
536.89	38429.26
537.06	38801.40
537.23	38721.82
537.40	38574.37
537.57	38911.41
537.74	38766.29
537.91	39445.05
538.08	39042.48
538.25	38263.08
538.42	39175.89
538.59	39360.79
538.75	38862.26
538.92	38829.49
539.09	39267.17
539.26	39026.09
539.43	39035.45
539.60	39009.71
539.77	39129.08
539.94	39276.53
540.11	39519.95
540.28	39089.29
540.44	39470.79
540.61	39171.21
540.78	39164.18
540.95	39821.87
541.12	39482.50
541.29	39388.88
541.46	39854.64
541.62	39466.11
541.79	39707.19
541.96	39562.08
542.13	40135.51
542.30	39983.37
542.47	39840.60
542.63	39789.11
542.80	40016.14
542.97	40671.49
543.14	40673.83
543.31	40832.99
543.48	40163.59
543.64	40924.27
543.81	40821.28
543.98	40769.79
544.15	40432.75
544.32	40678.51
544.48	41284.71
544.65	40732.34
544.82	40650.42
544.99	40126.14
545.16	40449.14
545.32	40603.61
545.49	41247.26
545.66	41043.63
545.83	41067.04
546.00	41329.18
546.16	40722.98
546.33	40856.39
546.50	40418.71
546.67	41247.26
546.83	40786.18
547.00	41134.92
547.17	41394.71
547.34	40809.58
547.50	41200.45
547.67	42003.25
547.84	41090.44
548.00	41324.50
548.17	41778.56
548.34	41624.09
548.51	41521.10
548.67	41834.74
548.84	41820.69
549.01	41467.27
549.18	41205.13
549.34	41528.13
549.51	41996.23
549.68	42291.14
549.84	41851.12
550.01	42071.13
550.18	42045.38
550.34	42232.63
550.51	42043.04
550.68	41717.71
550.84	41698.98
551.01	41780.90
551.18	41741.11
551.34	42024.32
551.51	41998.57
551.68	42073.47
551.84	42485.40
552.01	42195.18
552.18	42340.29
552.34	42270.08
552.51	42171.77
552.68	42141.35
552.84	42251.35
553.01	42843.51
553.18	42108.58
553.34	42047.72
553.51	42277.10
553.67	42314.55
553.84	42195.18
554.01	42820.10
554.17	43016.71
554.34	42909.04
554.51	42389.44
554.67	42611.79
554.84	42632.86
555.00	42621.16
555.17	42321.57
555.33	42780.31
555.50	42761.59
555.67	42766.27
555.83	42696.05
556.00	42525.19
556.16	42930.11
556.33	42997.98
556.50	43299.91
556.66	43026.07
556.83	42454.98
556.99	42845.85
557.16	43323.32
557.32	43194.59
557.49	43126.71
557.65	43026.07
557.82	42682.01
557.98	42941.81
558.15	42944.15
558.32	43189.91
558.48	43316.29
558.65	43253.10
558.81	43037.77
558.98	43454.39
559.14	43442.68
559.31	43274.16
559.47	42892.66
559.64	43662.69
559.80	43732.91
559.97	43332.68
560.13	43007.34
560.30	43707.16
560.46	43512.90
560.63	43421.62
560.79	43562.05
560.96	43852.28
561.12	43676.74
561.29	43569.07
561.45	43559.71
561.61	43564.39
561.78	43751.63
561.94	43454.39
562.11	43611.20
562.27	43475.45
562.44	43494.18
562.60	43704.82
562.77	44039.52
562.93	43945.90
563.10	43697.80
563.26	43566.73
563.42	44025.48
563.59	43765.68
563.75	43885.04
563.92	43646.31
564.08	44102.71
564.24	44088.67
564.41	43913.13
564.57	43810.15
564.74	44278.25
564.90	43814.83
565.07	44119.10
565.23	43981.01
565.39	43442.68
565.56	44100.37
565.72	44027.82
565.88	43585.46
566.05	44034.84
566.21	44091.01
566.38	44086.33
566.54	44067.61
566.70	43782.06
566.87	44151.87
567.03	43718.87
567.19	44500.61
567.36	43775.04
567.52	43955.26
567.68	44308.68
567.85	44236.12
568.01	43866.32
568.17	44205.70
568.34	44226.76
568.50	44083.99
568.66	44233.78
568.83	44140.16
568.99	43828.87
569.15	44383.58
569.32	43751.63
569.48	43903.77
569.64	44243.15
569.81	44397.62
569.97	43931.86
570.13	44414.01
570.30	44301.66
570.46	44254.85
570.62	44219.74
570.78	43910.79
570.95	44189.31
571.11	44603.59
571.27	44353.15
571.43	44076.97
571.60	44444.43
571.76	44189.31
571.92	44325.07
572.09	44296.98
572.25	44549.76
572.41	44350.81
572.57	44226.76
572.74	44406.98
572.90	44444.43
573.06	44488.90
573.22	44533.37
573.38	44580.18
573.55	44196.34
573.71	44233.78
573.87	44390.60
574.03	44505.29
574.20	44219.74
574.36	44409.32
574.52	44596.57
574.68	44493.58
574.84	44563.80
575.01	44311.02
575.17	44470.18
575.33	44748.70
575.49	44044.20
575.65	44402.30
575.82	44809.56
575.98	44168.25
576.14	44919.56
576.30	44294.64
576.46	44346.13
576.62	44247.83
576.79	44348.47
576.95	44006.75
577.11	44449.11
577.27	44645.72
577.43	44830.62
577.59	44287.62
577.75	44713.59
577.92	43922.49
578.08	43880.36
578.24	44149.53
578.40	44542.74
578.56	44823.60
578.72	44428.05
578.88	44315.70
579.04	44177.61
579.21	44573.16
579.37	44577.84
579.53	44629.34
579.69	44322.72
579.85	44706.57
580.01	44767.43
580.17	44634.02
580.33	44926.58
580.49	44832.96
580.65	44694.87
580.82	44865.73
580.98	44767.43
581.14	44559.12
581.30	44879.77
581.46	45111.49
581.62	44802.53
581.78	44898.50
581.94	44996.80
582.10	44718.28
582.26	44905.52
582.42	44680.83
582.58	44392.94
582.74	44128.46
582.90	44552.10
583.06	44898.50
583.22	44535.71
583.38	44814.24
583.54	44722.96
583.70	44762.75
583.86	44416.35
584.02	44144.84
584.18	44671.46
584.34	44722.96
584.50	44650.40
584.66	44928.92
584.82	44346.13
584.98	45081.06
585.14	44858.71
585.30	44437.41
585.46	44540.39
585.62	44355.49
585.78	44591.89
585.94	44531.03
586.10	44645.72
586.26	44428.05
586.42	44758.06
586.58	45076.38
586.74	44706.57
586.90	44727.64
587.06	44718.28
587.22	44378.90
587.38	44945.31
587.54	44854.03
587.70	44690.19
587.86	45130.21
588.02	44671.46
588.18	44973.39
588.34	44704.23
588.49	44416.35
588.65	44250.17
588.81	44458.48
588.97	44362.51
589.13	44980.42
589.29	44704.23
589.45	45083.40
589.61	44825.94
589.77	45064.67
589.93	44687.85
590.08	45088.08
590.24	45102.12
