SpectraSuite Data File
++++++++++++++++++++++++++++++++++++
Date: Fri Oct 25 10:43:15 EDT 2013
User: price-jones
Dark Spectrum Present: No
Reference Spectrum Present: No
Number of Sampled Component Spectra: 1
Spectrometers: USB2+H05261
Integration Time (usec): 100000 (USB2+H05261)
Spectra Averaged: 1 (USB2+H05261)
Boxcar Smoothing: 0 (USB2+H05261)
Correct for Electrical Dark: No (USB2+H05261)
Strobe/Lamp Enabled: No (USB2+H05261)
Correct for Detector Non-linearity: No (USB2+H05261)
Correct for Stray Light: No (USB2+H05261)
Number of Pixels in Processed Spectrum: 2048
>>>>>Begin Processed Spectral Data<<<<<
365.73	112.35
365.92	112.35
366.12	112.35
366.32	11.70
366.52	0.00
366.72	21.06
366.91	65.54
367.11	9.36
367.31	0.00
367.51	35.11
367.70	51.49
367.90	0.00
368.10	0.00
368.30	0.00
368.49	30.43
368.69	58.51
368.89	95.96
369.09	51.49
369.28	77.24
369.48	65.54
369.68	67.88
369.87	88.94
370.07	95.96
370.27	121.71
370.47	170.86
370.66	407.25
370.86	393.21
371.06	404.91
371.25	552.37
371.45	486.83
371.65	472.79
371.84	397.89
372.04	381.51
372.24	430.66
372.44	543.00
372.63	482.15
372.83	465.77
373.03	409.59
373.22	517.26
373.42	514.92
373.62	568.75
373.81	477.47
374.01	512.58
374.21	575.77
374.40	521.94
374.60	596.84
374.79	557.05
374.99	589.82
375.19	608.54
375.38	566.41
375.58	617.90
375.78	571.09
375.97	557.05
376.17	655.35
376.37	580.45
376.56	578.11
376.76	596.84
376.95	613.22
377.15	573.43
377.35	624.92
377.54	638.97
377.74	690.46
377.93	648.33
378.13	678.76
378.33	699.82
378.52	585.13
378.72	535.98
378.91	662.37
379.11	615.56
379.31	690.46
379.50	589.82
379.70	638.97
379.89	704.50
380.09	629.60
380.28	690.46
380.48	671.73
380.68	718.54
380.87	648.33
381.07	662.37
381.26	699.82
381.46	667.05
381.65	730.25
381.85	699.82
382.04	692.80
382.24	690.46
382.43	751.31
382.63	664.71
382.83	660.03
383.02	744.29
383.22	685.78
383.41	706.84
383.61	779.40
383.80	800.46
384.00	809.83
384.19	802.80
384.39	732.59
384.58	807.48
384.78	856.64
384.97	812.17
385.17	812.17
385.36	781.74
385.56	791.10
385.75	753.65
385.95	884.72
386.14	866.00
386.34	828.55
386.53	812.17
386.72	847.27
386.92	854.30
387.11	903.45
387.31	919.83
387.50	851.96
387.70	866.00
387.89	947.92
388.09	896.43
388.28	917.49
388.48	938.55
388.67	896.43
388.86	922.17
389.06	959.62
389.25	954.94
389.45	978.34
389.64	922.17
389.84	990.05
390.03	950.26
390.22	994.73
390.42	1050.90
390.61	1004.09
390.81	1004.09
391.00	983.02
391.19	1046.22
391.39	1034.52
391.58	1006.43
391.78	1020.47
391.97	1041.54
392.16	1083.67
392.36	1032.18
392.55	1083.67
392.75	999.41
392.94	945.58
393.13	1055.58
393.33	1008.77
393.52	1011.11
393.71	1043.88
393.91	1004.09
394.10	1057.92
394.29	1093.03
394.49	1177.29
394.68	1163.25
394.88	1191.33
395.07	1256.87
395.26	1228.78
395.46	1156.22
395.65	1359.85
395.84	1219.42
396.04	1284.95
396.23	1132.82
396.42	1137.50
396.62	1203.04
396.81	1095.37
397.00	1261.55
397.19	1174.95
397.39	1254.53
397.58	1366.87
397.77	1409.00
397.97	1439.43
398.16	1483.90
398.35	1481.56
398.55	1451.13
398.74	1526.03
398.93	1493.26
399.12	1526.03
399.32	1423.05
399.51	1493.26
399.70	1659.44
399.90	1652.42
400.09	1528.37
400.28	1603.27
400.47	1671.14
400.67	1584.54
400.86	1596.25
401.05	1680.50
401.24	1696.89
401.44	1682.85
401.63	1713.27
401.82	1732.00
402.01	1668.80
402.21	1724.97
402.40	1614.97
402.59	1769.44
402.78	1755.40
402.97	1748.38
403.17	1832.64
403.36	1851.36
403.55	1722.63
403.74	1860.73
403.93	1825.62
404.13	1816.26
404.32	2022.22
404.51	1809.23
404.70	1902.86
404.89	1881.79
405.09	1940.30
405.28	1968.39
405.47	1928.60
405.66	1881.79
405.85	2019.88
406.05	2043.29
406.24	1968.39
406.43	2005.84
406.62	2099.46
406.81	2237.55
407.00	2092.44
407.20	2017.54
407.39	2143.93
407.58	2141.59
407.77	2143.93
407.96	2232.87
408.15	2181.38
408.34	2183.72
408.54	2317.13
408.73	2246.91
408.92	2197.76
409.11	2328.83
409.30	2396.71
409.49	2326.49
409.68	2246.91
409.87	2223.51
410.07	2244.57
410.26	2342.88
410.45	2406.07
410.64	2485.65
410.83	2424.80
411.02	2469.27
411.21	2499.69
411.40	2565.23
411.59	2637.78
411.78	2682.25
411.98	2602.68
412.17	2703.32
412.36	2586.29
412.55	2672.89
412.74	2766.51
412.93	2745.45
413.12	2710.34
413.31	2923.33
413.50	2764.17
413.69	2843.75
413.88	2920.99
414.07	2928.01
414.26	2960.78
414.45	2897.58
414.64	2995.89
414.83	3052.06
415.02	2960.78
415.22	3119.93
415.41	3080.14
415.60	3204.19
415.79	3021.63
415.98	3105.89
416.17	3141.00
416.36	3344.63
416.55	3258.03
416.74	3304.84
416.93	3206.53
417.12	3190.15
417.31	3215.90
417.50	3356.33
417.69	3421.86
417.88	3382.07
418.07	3393.78
418.26	3471.01
418.45	3396.12
418.64	3623.15
418.83	3691.02
419.02	3419.52
419.21	3531.87
419.39	3588.04
419.58	3417.18
419.77	3691.02
419.96	3662.94
420.15	3634.85
420.34	3644.21
420.53	3786.99
420.72	3801.03
420.91	3728.47
421.10	3768.26
421.29	3756.56
421.48	3782.31
421.67	3801.03
421.86	3812.73
422.05	3712.09
422.24	3730.81
422.43	3805.71
422.61	3871.25
422.80	4051.47
422.99	3861.88
423.18	4028.06
423.37	3997.64
423.56	3983.59
423.75	4004.66
423.94	3920.40
424.13	3719.11
424.32	3770.60
424.50	3971.89
424.69	4154.45
424.88	3967.21
425.07	3936.78
425.26	3791.67
425.45	3882.95
425.64	3901.67
425.83	3815.07
426.01	3906.35
426.20	3747.20
426.39	3927.42
426.58	4058.49
426.77	3880.61
426.96	3978.91
427.15	3854.86
427.33	3894.65
427.52	4079.55
427.71	4114.66
427.90	4166.15
428.09	4243.39
428.28	4093.60
428.46	4306.59
428.65	4072.53
428.84	4271.48
429.03	4322.97
429.22	4124.02
429.40	4285.52
429.59	4119.34
429.78	4018.70
429.97	3936.78
430.16	4035.08
430.34	4114.66
430.53	4255.09
430.72	4285.52
430.91	4339.35
431.10	4381.48
431.28	4552.34
431.47	4491.49
431.66	4568.73
431.85	4573.41
432.03	4723.20
432.22	4704.48
432.41	4704.48
432.60	4732.56
432.79	4596.81
432.97	4720.86
433.16	4634.26
433.35	4671.71
433.54	4608.51
433.72	4678.73
433.91	4596.81
434.10	4802.78
434.28	4706.82
434.47	4842.57
434.66	4847.25
434.85	5020.45
435.03	5093.01
435.22	5078.96
435.41	5043.85
435.59	5198.33
435.78	4957.25
435.97	5139.82
436.16	5245.14
436.34	5217.05
436.53	5224.08
436.72	5268.55
436.90	5078.96
437.09	5144.50
437.28	5111.73
437.46	5170.24
437.65	5146.84
437.84	5210.03
438.02	5186.63
438.21	5203.01
438.40	5151.52
438.58	5441.75
438.77	5434.72
438.96	5460.47
439.14	5544.73
439.33	5645.37
439.52	5659.42
439.70	5741.33
439.89	5633.67
440.08	5778.78
440.26	5757.72
440.45	5851.34
440.63	5853.68
440.82	5846.66
441.01	5989.43
441.19	5893.47
441.38	5984.75
441.57	6022.20
441.75	6263.27
441.94	6319.45
442.12	6179.01
442.31	6293.70
442.50	6361.58
442.68	6340.51
442.87	6349.87
443.05	6487.96
443.24	6567.54
443.43	6504.35
443.61	6497.33
443.80	6726.70
443.98	6354.55
444.17	6232.85
444.35	6628.40
444.54	6509.03
444.73	6546.48
444.91	6424.77
445.10	6417.75
445.28	6427.11
445.47	6487.96
445.65	6417.75
445.84	6347.53
446.02	6602.65
446.21	6483.28
446.39	6506.69
446.58	6679.89
446.77	6623.72
446.95	6579.25
447.14	6579.25
447.32	6860.11
447.51	6626.06
447.69	6679.89
447.88	6841.39
448.06	6623.72
448.25	6740.74
448.43	6902.24
448.62	6752.45
448.80	6815.64
448.99	6822.66
449.17	6836.70
449.36	6890.54
449.54	6848.41
449.73	7122.25
449.91	7140.97
450.10	7119.91
450.28	7241.62
450.46	7117.57
450.65	7227.57
450.83	7328.22
451.02	7190.13
451.20	7211.19
451.39	7000.54
451.57	7267.36
451.76	7143.32
451.94	7162.04
452.13	7255.66
452.31	7119.91
452.49	7171.40
452.68	7253.32
452.86	7227.57
453.05	7339.92
453.23	7466.31
453.42	7375.03
453.60	7215.87
453.78	7534.18
453.97	7279.07
454.15	7368.01
454.34	7403.11
454.52	7705.04
454.70	7492.05
454.89	7513.12
455.07	7620.78
455.26	7595.04
455.44	7651.21
455.62	7915.69
455.81	7735.47
455.99	7819.73
456.17	7786.96
456.36	7679.30
456.54	7740.15
456.73	7946.12
456.91	8175.49
457.09	8224.64
457.28	8273.79
457.46	8138.04
457.64	8241.03
457.83	8252.73
458.01	8016.33
458.19	8236.35
458.38	8327.63
458.56	8301.88
458.74	8011.65
458.93	8318.26
459.11	8386.14
459.29	8285.50
459.48	8615.51
459.66	8348.69
459.84	8585.08
460.03	8723.18
460.21	8365.07
460.39	8514.87
460.57	8461.04
460.76	8645.94
460.94	8603.81
461.12	8669.34
461.31	8629.56
461.49	8669.34
461.67	8692.75
461.85	8746.58
462.04	8856.59
462.22	9104.68
462.40	8954.89
462.59	9083.62
462.77	8966.59
462.95	8730.20
463.13	8863.61
463.32	9015.74
463.50	8915.10
463.68	9020.42
463.86	8992.34
464.05	8917.44
464.23	9006.38
464.41	9179.58
464.59	9217.03
464.78	9284.91
464.96	9308.31
465.14	9046.17
465.32	9259.16
465.50	9308.31
465.69	9320.01
465.87	9165.54
466.05	9146.81
466.23	9011.06
466.41	9090.64
466.60	9540.02
466.78	9334.06
466.96	9282.56
467.14	9352.78
467.32	9418.32
467.51	9586.83
467.69	9397.25
467.87	9287.25
468.05	9380.87
468.23	9420.66
468.41	9535.34
468.60	9504.92
468.78	9376.19
468.96	9401.93
469.14	9659.39
469.32	9659.39
469.50	9589.17
469.69	9848.97
469.87	9682.80
470.05	9689.82
470.23	10090.05
470.41	9954.30
470.59	9872.38
470.77	9916.85
470.95	10026.86
471.14	10094.73
471.32	9809.19
471.50	10354.53
471.68	10319.42
471.86	10382.62
472.04	10389.64
472.22	10509.01
472.40	10223.46
472.58	10373.25
472.77	10363.89
472.95	10731.36
473.13	10963.07
473.31	10441.13
473.49	10595.61
473.67	10509.01
473.85	10546.45
474.03	11035.63
474.21	10794.55
474.39	11133.93
474.57	11136.27
474.75	11187.76
474.93	11049.67
475.12	11105.84
475.30	11337.56
475.48	11183.08
475.66	11372.66
475.84	11330.53
476.02	11232.23
476.20	11379.68
476.38	11625.44
476.56	11761.19
476.74	11978.86
476.92	11660.55
477.10	11810.34
477.28	11913.33
477.46	12056.10
477.64	12271.43
477.82	12353.35
478.00	12446.97
478.18	12341.64
478.36	12535.91
478.54	12856.56
478.72	13006.36
478.90	12915.08
479.08	12926.78
479.26	13170.19
479.44	13132.75
479.62	13235.73
479.80	13277.86
479.98	13446.38
480.16	13788.10
480.34	13345.73
480.52	13879.38
480.70	13678.09
480.88	13675.75
481.06	13888.74
481.24	14026.83
481.41	14326.42
481.59	14469.19
481.77	14221.10
481.95	14181.31
482.13	14523.02
482.31	14361.53
482.49	14993.47
482.67	14761.76
482.85	15073.05
483.03	14869.42
483.21	15147.95
483.39	15260.29
483.57	15405.41
483.74	15255.61
483.92	15723.72
484.10	15417.11
484.28	15815.00
484.46	16109.91
484.64	16135.65
484.82	16025.65
485.00	16503.12
485.18	16554.61
485.35	16074.80
485.53	16208.21
485.71	16100.55
485.89	16425.88
486.07	16290.13
486.25	16514.82
486.43	16379.07
486.61	17048.46
486.78	17238.05
486.96	17092.93
487.14	17680.41
487.32	17846.58
487.50	18005.74
487.68	18019.78
487.85	18562.79
488.03	18370.86
488.21	18642.37
488.39	18214.05
488.57	18766.42
488.75	18747.69
488.92	19070.68
489.10	19360.91
489.28	19220.48
489.46	19604.33
489.64	19529.43
489.81	20313.51
489.99	20184.78
490.17	19929.66
490.35	20552.24
490.53	20013.92
490.70	20320.53
490.88	20577.99
491.06	20833.11
491.24	20666.93
491.41	20734.81
491.59	20685.65
491.77	20964.18
491.95	21085.89
492.13	21242.70
492.30	21759.96
492.48	21516.54
492.66	21591.44
492.84	21661.66
493.01	22185.94
493.19	21652.30
493.37	22265.52
493.54	22347.44
493.72	22342.75
493.90	22501.91
494.08	23040.23
494.25	23070.66
494.43	23281.31
494.61	23513.02
494.79	23466.21
494.96	23550.47
495.14	23782.18
495.32	23674.52
495.49	23880.49
495.67	23955.38
495.85	23939.00
496.02	24676.27
496.20	24116.88
496.38	24498.39
496.55	24561.58
496.73	25565.67
496.91	24938.41
497.09	25137.35
497.26	25453.33
497.44	24732.44
497.62	25340.98
497.79	25380.77
497.97	25310.55
498.14	25523.54
498.32	25490.77
498.50	25486.09
498.67	25919.09
498.85	26087.61
499.03	26150.81
499.20	26291.24
499.38	25944.84
499.56	26223.36
499.73	26679.77
499.91	26555.72
500.08	26518.27
500.26	26316.98
500.44	26581.46
500.61	26546.36
500.79	26600.19
500.97	26857.65
501.14	27199.37
501.32	27452.14
501.49	27225.11
501.67	26962.97
501.84	27410.01
502.02	27517.68
502.20	27681.52
502.37	27585.55
502.55	28074.73
502.72	27805.56
502.90	27955.36
503.07	27686.20
503.25	28245.58
503.43	27910.89
503.60	28126.22
503.78	27999.83
503.95	27976.42
504.13	28332.18
504.30	28505.38
504.48	28343.89
504.65	28727.74
504.83	28849.44
505.01	29132.65
505.18	29106.90
505.36	29413.51
505.53	29315.21
505.71	30153.12
505.88	30022.05
506.06	29193.50
506.23	29598.41
506.41	29511.81
506.58	29617.14
506.76	29759.91
506.93	29792.68
507.11	29713.10
507.28	29921.41
507.46	30085.25
507.63	30319.30
507.81	30323.98
507.98	29584.37
508.16	30085.25
508.33	30387.18
508.50	30555.69
508.68	30958.27
508.85	31002.74
509.03	31269.56
509.20	31175.94
509.38	31075.29
509.55	31096.36
509.73	31084.65
509.90	31161.89
510.08	31405.31
510.25	31494.25
510.42	31299.98
510.60	31604.25
510.77	31613.62
510.95	31983.42
511.12	31999.80
511.30	31957.67
511.47	32343.86
511.64	31978.74
511.82	32205.77
511.99	32496.00
512.17	32507.70
512.34	32332.16
512.51	32383.65
512.69	32802.61
512.86	32479.61
513.04	33022.62
513.21	32680.90
513.38	32982.83
513.56	32568.55
513.73	32669.20
513.90	32781.54
514.08	32781.54
514.25	33273.06
514.43	33160.71
514.60	33055.39
514.77	33462.64
514.95	33490.73
515.12	33673.29
515.29	33752.87
515.47	34068.84
515.64	34005.64
515.81	33656.90
515.99	33699.03
516.16	33855.85
516.33	33638.18
516.51	33708.40
516.68	33071.77
516.85	33153.69
517.03	33357.32
517.20	33727.12
517.37	34239.70
517.54	34558.01
517.72	33996.28
517.89	33773.93
518.06	34005.64
518.24	34403.53
518.41	34209.27
518.58	34663.33
518.75	34375.45
518.93	34649.29
519.10	34527.58
519.27	34946.54
519.45	34698.44
519.62	34988.67
519.79	35576.14
519.96	35381.88
520.14	35314.00
520.31	34850.58
520.48	35332.73
520.65	35318.68
520.83	35599.55
521.00	35957.65
521.17	35779.77
521.34	35903.82
521.52	36332.14
521.69	35906.16
521.86	36311.07
522.03	36456.18
522.20	35899.14
522.38	36364.90
522.55	36439.80
522.72	36172.98
522.89	36231.49
523.07	36732.37
523.24	36456.18
523.41	36708.96
523.58	36669.17
523.75	37067.06
523.92	36795.56
524.10	37509.43
524.27	37462.61
524.44	37146.64
524.61	37219.20
524.78	37415.80
524.96	37703.69
525.13	37713.05
525.30	37493.04
525.47	37834.76
525.64	37930.72
525.81	37778.59
525.98	37282.39
526.16	37446.23
526.33	37446.23
526.50	37584.32
526.67	37275.37
526.84	37507.08
527.01	37303.46
527.18	37240.26
527.36	37867.53
527.53	38218.61
527.70	38036.05
527.87	38153.07
528.04	38183.50
528.21	38499.47
528.38	38476.07
528.55	38590.75
528.72	38345.00
528.89	39077.58
529.07	38979.28
529.24	38660.97
529.41	38579.05
529.58	38653.95
529.75	38710.12
529.92	39194.61
530.09	38466.70
530.26	39243.76
530.43	39309.30
530.60	39005.03
530.77	39559.73
530.94	39569.10
531.11	39030.77
531.28	39285.89
531.46	39337.38
531.63	39622.93
531.80	39299.94
531.97	39154.82
532.14	39248.44
532.31	38927.79
532.48	39304.62
532.65	39599.52
532.82	39599.52
532.99	39306.96
533.16	39807.83
533.33	39775.06
533.50	39957.63
533.67	39763.36
533.84	39866.34
534.01	40093.38
534.18	39878.05
534.35	40208.06
534.52	39651.02
534.69	40524.04
534.86	40748.73
535.03	40004.44
535.20	40313.39
535.37	40648.08
535.54	41001.50
535.71	40730.00
535.88	40882.14
536.05	40212.74
536.22	40715.96
536.38	40767.45
536.55	40966.40
536.72	40308.71
536.89	40999.16
537.06	40678.51
537.23	40765.11
537.40	41230.88
537.57	40886.82
537.74	40875.12
537.91	40996.82
538.08	41038.95
538.25	40957.03
538.42	40926.61
538.59	41399.40
538.75	40978.10
538.92	41015.55
539.09	41514.08
539.26	41581.96
539.43	41294.07
539.60	40907.88
539.77	40882.14
539.94	41170.02
540.11	41118.53
540.28	41261.30
540.44	41715.37
540.61	41303.43
540.78	41326.84
540.95	41305.77
541.12	41270.67
541.29	41729.41
541.46	41684.94
541.62	41560.89
541.79	41951.76
541.96	41549.19
542.13	41713.03
542.30	42197.52
542.47	41846.44
542.63	42209.22
542.80	41918.99
542.97	42780.31
543.14	42632.86
543.31	42667.97
543.48	42663.28
543.64	42885.64
543.81	42738.18
543.98	42557.96
544.15	42831.80
544.32	42892.66
544.48	43082.24
544.65	42801.38
544.82	43103.31
544.99	42557.96
545.16	42728.82
545.32	42534.56
545.49	43285.87
545.66	42990.96
545.83	42902.02
546.00	42948.83
546.16	42993.30
546.33	42871.59
546.50	42529.87
546.67	42993.30
546.83	42581.37
547.00	43150.12
547.17	43360.76
547.34	42829.46
547.50	43014.37
547.67	43250.76
547.84	43330.34
548.00	43782.06
548.17	43557.37
548.34	43599.50
548.51	43871.00
548.67	44126.12
548.84	43800.79
549.01	43828.87
549.18	43496.52
549.34	43604.18
549.51	43625.25
549.68	44016.11
549.84	43676.74
550.01	43765.68
550.18	43793.76
550.34	43962.28
550.51	43817.17
550.68	43807.81
550.84	43442.68
551.01	43964.62
551.18	44018.46
551.34	44046.54
551.51	44194.00
551.68	44002.07
551.84	44062.93
552.01	43847.60
552.18	43660.35
552.34	44009.09
552.51	44423.37
552.68	44091.01
552.84	44643.38
553.01	44626.99
553.18	44198.68
553.34	44257.19
553.51	43936.54
553.67	44252.51
553.84	44739.34
554.01	45076.38
554.17	44837.64
554.34	44891.48
554.51	44453.79
554.67	44236.12
554.84	44486.56
555.00	44364.85
555.17	44275.91
555.33	44439.75
555.50	44701.89
555.67	44856.37
555.83	44832.96
556.00	44360.17
556.16	45249.58
556.33	44727.64
556.50	44725.30
556.66	44797.85
556.83	44575.50
556.99	44664.44
557.16	44957.01
557.32	44383.58
557.49	45188.72
557.65	44619.97
557.82	44825.94
557.98	45085.74
558.15	44935.95
558.32	44879.77
558.48	44322.72
558.65	44865.73
558.81	44437.41
558.98	44371.88
559.14	45237.87
559.31	45024.89
559.47	45064.67
559.64	45036.59
559.80	44655.08
559.97	45436.82
560.13	44713.59
560.30	44886.79
560.46	45352.56
560.63	45212.13
560.79	45305.75
560.96	45549.17
561.12	45202.77
561.29	45111.49
561.45	44994.46
561.61	45097.44
561.78	45052.97
561.94	44795.51
562.11	45261.28
562.27	44957.01
562.44	45392.35
562.60	45818.33
562.77	45214.47
562.93	45256.60
563.10	45947.06
563.26	45460.23
563.42	45790.24
563.59	45268.30
563.75	45151.27
563.92	45478.95
564.08	45141.91
564.24	45572.57
564.41	45528.10
564.57	45579.59
564.74	45549.17
564.90	45277.66
565.07	45666.19
565.23	45420.44
565.39	45507.04
565.56	45113.83
565.72	45153.62
565.88	45216.81
566.05	45212.13
566.21	45223.83
566.38	45464.91
566.54	45799.60
566.70	45844.07
566.87	46110.89
567.03	45556.19
567.19	46401.12
567.36	45380.65
567.52	45584.27
567.68	45949.40
567.85	45455.54
568.01	45925.99
568.17	45425.12
568.34	45701.30
568.50	45837.05
568.66	45495.33
568.83	45874.50
568.99	45326.81
569.15	45331.50
569.32	45628.74
569.48	45464.91
569.64	46045.36
569.81	46380.06
569.97	45593.64
570.13	45860.46
570.30	45074.04
570.46	45879.18
570.62	45485.97
570.78	45251.92
570.95	45247.24
571.11	45612.36
571.27	45579.59
571.43	45563.21
571.60	45844.07
571.76	45631.08
571.92	45331.50
572.09	45631.08
572.25	46092.17
572.41	46141.32
572.57	45666.19
572.74	46225.58
572.90	45958.76
573.06	46096.85
573.22	45759.81
573.38	45844.07
573.55	45801.94
573.71	46328.56
573.87	46047.70
574.03	45481.29
574.20	45633.42
574.36	45794.92
574.52	45975.14
574.68	45483.63
574.84	45883.86
575.01	46216.22
575.17	45565.55
575.33	45460.23
575.49	45563.21
575.65	46005.57
575.82	46003.23
575.98	45764.49
576.14	46078.13
576.30	45918.97
576.46	46190.47
576.62	45640.45
576.79	45528.10
576.95	45549.17
577.11	46188.13
577.27	45933.01
577.43	45818.33
577.59	45560.87
577.75	45567.89
577.92	45736.41
578.08	45207.45
578.24	45375.97
578.40	45691.94
578.56	45979.82
578.72	45584.27
578.88	45888.54
579.04	46347.29
579.21	45902.59
579.37	45867.48
579.53	45874.50
579.69	45633.42
579.85	46185.79
580.01	46057.06
580.17	45799.60
580.33	46010.25
580.49	45869.82
580.65	45867.48
580.82	46146.00
580.98	45886.20
581.14	45710.66
581.30	46169.41
581.46	45958.76
581.62	46050.04
581.78	45645.13
581.94	45687.26
582.10	45762.15
582.26	45804.28
582.42	45738.75
582.58	45574.91
582.74	46052.38
582.90	46384.74
583.06	46351.97
583.22	46143.66
583.38	46422.19
583.54	46429.21
583.70	46148.34
583.86	46183.45
584.02	45745.77
584.18	45808.96
584.34	45851.09
584.50	45806.62
584.66	45984.51
584.82	45961.10
584.98	46314.52
585.14	46150.68
585.30	45794.92
585.46	45839.39
585.62	45336.18
585.78	45785.56
585.94	45876.84
586.10	46073.45
586.26	45984.51
586.42	46272.39
586.58	46071.10
586.74	46117.92
586.90	45694.28
587.06	45928.33
587.22	46043.02
587.38	45673.21
587.54	45715.34
587.70	46024.29
587.86	45717.68
588.02	45872.16
588.18	46124.94
588.34	45907.27
588.49	45703.64
588.65	45083.40
588.81	45368.94
588.97	45507.04
589.13	45593.64
589.29	45921.31
589.45	45895.56
589.61	46066.42
589.77	46209.20
589.93	46518.15
590.08	46358.99
