SpectraSuite Data File
++++++++++++++++++++++++++++++++++++
Date: Fri Oct 25 11:22:41 EDT 2013
User: price-jones
Dark Spectrum Present: No
Reference Spectrum Present: No
Number of Sampled Component Spectra: 1
Spectrometers: USB2+H05261
Integration Time (usec): 100000 (USB2+H05261)
Spectra Averaged: 1 (USB2+H05261)
Boxcar Smoothing: 0 (USB2+H05261)
Correct for Electrical Dark: No (USB2+H05261)
Strobe/Lamp Enabled: No (USB2+H05261)
Correct for Detector Non-linearity: No (USB2+H05261)
Correct for Stray Light: No (USB2+H05261)
Number of Pixels in Processed Spectrum: 2048
>>>>>Begin Processed Spectral Data<<<<<
365.73	287.89
365.92	287.89
366.12	287.89
366.32	217.67
366.52	121.71
366.72	177.88
366.91	124.05
367.11	147.45
367.31	145.11
367.51	112.35
367.70	131.07
367.90	154.48
368.10	161.50
368.30	140.43
368.49	138.09
368.69	114.69
368.89	180.22
369.09	189.58
369.28	182.56
369.48	168.52
369.68	166.18
369.87	234.05
370.07	220.01
370.27	212.99
370.47	318.31
370.66	613.22
370.86	692.80
371.06	638.97
371.25	678.76
371.45	543.00
371.65	711.52
371.84	730.25
372.04	657.69
372.24	648.33
372.44	620.24
372.63	765.36
372.83	767.70
373.03	741.95
373.22	706.84
373.42	774.72
373.62	723.23
373.81	807.48
374.01	755.99
374.21	814.51
374.40	842.59
374.60	837.91
374.79	812.17
374.99	784.08
375.19	833.23
375.38	840.25
375.58	919.83
375.78	798.12
375.97	802.80
376.17	882.38
376.37	903.45
376.56	856.64
376.76	791.10
376.95	805.14
377.15	786.42
377.35	821.53
377.54	858.98
377.74	887.06
377.93	898.77
378.13	873.02
378.33	919.83
378.52	880.04
378.72	938.55
378.91	931.53
379.11	856.64
379.31	898.77
379.50	980.68
379.70	990.05
379.89	983.02
380.09	1064.94
380.28	947.92
380.48	1008.77
380.68	1015.79
380.87	973.66
381.07	968.98
381.26	1046.22
381.46	1001.75
381.65	1165.59
381.85	1121.12
382.04	1039.20
382.24	1081.33
382.43	1046.22
382.63	1078.99
382.83	1004.09
383.02	1100.05
383.22	1071.97
383.41	1179.63
383.61	1142.18
383.80	1137.50
384.00	1132.82
384.19	1160.91
384.39	1125.80
384.58	1078.99
384.78	1083.67
384.97	1095.37
385.17	1153.88
385.36	1221.76
385.56	1219.42
385.75	1184.31
385.95	1177.29
386.14	1177.29
386.34	1158.57
386.53	1240.48
386.72	1179.63
386.92	1357.51
387.11	1198.35
387.31	1256.87
387.50	1184.31
387.70	1273.25
387.89	1256.87
388.09	1167.93
388.28	1313.04
388.48	1299.00
388.67	1277.93
388.86	1277.93
389.06	1387.94
389.25	1301.34
389.45	1385.60
389.64	1399.64
389.84	1376.24
390.03	1329.42
390.22	1427.73
390.42	1334.11
390.61	1343.47
390.81	1371.55
391.00	1387.94
391.19	1427.73
391.39	1406.66
391.58	1387.94
391.78	1444.11
391.97	1577.52
392.16	1383.26
392.36	1486.24
392.55	1558.80
392.75	1465.18
392.94	1504.96
393.13	1488.58
393.33	1544.75
393.52	1523.69
393.71	1509.65
393.91	1640.72
394.10	1523.69
394.29	1631.35
394.49	1572.84
394.68	1600.93
394.88	1629.01
395.07	1699.23
395.26	1596.25
395.46	1636.03
395.65	1706.25
395.84	1591.56
396.04	1825.62
396.23	1736.68
396.42	1877.11
396.62	1757.74
396.81	1739.02
397.00	1757.74
397.19	1788.17
397.39	1792.85
397.58	1872.43
397.77	1919.24
397.97	1743.70
398.16	1830.30
398.35	1806.89
398.55	1926.26
398.74	1916.90
398.93	2078.40
399.12	2036.27
399.32	1888.81
399.51	1900.52
399.70	2017.54
399.90	1989.46
400.09	1919.24
400.28	2008.18
400.47	1902.86
400.67	2047.97
400.86	2015.20
401.05	2071.37
401.24	2076.06
401.44	2174.36
401.63	2253.94
401.82	2267.98
402.01	2038.61
402.21	2286.70
402.40	2214.15
402.59	2207.13
402.78	2256.28
402.97	2218.83
403.17	2354.58
403.36	2228.19
403.55	2389.69
403.74	2415.43
403.93	2429.48
404.13	2335.85
404.32	2443.52
404.51	2345.22
404.70	2483.31
404.89	2342.88
405.09	2525.44
405.28	2399.05
405.47	2546.50
405.66	2480.97
405.85	2506.71
406.05	2548.84
406.24	2492.67
406.43	2527.78
406.62	2616.72
406.81	2649.49
407.00	2473.95
407.20	2693.96
407.39	2649.49
407.58	2766.51
407.77	2705.66
407.96	2654.17
408.15	2768.85
408.34	2722.04
408.54	2834.39
408.73	2785.24
408.92	2888.22
409.11	2888.22
409.30	3009.93
409.49	2848.43
409.68	2874.18
409.87	2965.46
410.07	3030.99
410.26	2958.44
410.45	2923.33
410.64	3042.70
410.83	3082.49
411.02	3255.69
411.21	3178.45
411.40	3084.83
411.59	3316.54
411.78	3211.22
411.98	3187.81
412.17	3243.98
412.36	3314.20
412.55	3335.26
412.74	3396.12
412.93	3398.46
413.12	3365.69
413.31	3438.25
413.50	3543.57
413.69	3506.12
413.88	3634.85
414.07	3581.02
414.26	3590.38
414.45	3733.15
414.64	3740.18
414.83	3747.20
415.02	3852.52
415.22	3861.88
415.41	3889.97
415.60	3988.27
415.79	3819.75
415.98	3995.29
416.17	4007.00
416.36	4063.17
416.55	4095.94
416.74	4203.60
416.93	4105.30
417.12	4070.19
417.31	4238.71
417.50	4147.43
417.69	4386.16
417.88	4346.37
418.07	4262.12
418.26	4297.22
418.45	4435.32
418.64	4477.44
418.83	4418.93
419.02	4365.10
419.21	4564.04
419.39	4500.85
419.58	4447.02
419.77	4547.66
419.96	4498.51
420.15	4482.13
420.34	4608.51
420.53	4622.56
420.72	4550.00
420.91	4620.22
421.10	4851.93
421.29	4912.78
421.48	4844.91
421.67	4755.97
421.86	4793.42
422.05	4777.03
422.24	4894.06
422.43	4959.60
422.61	4880.02
422.80	5097.69
422.99	4943.21
423.18	4964.28
423.37	4983.00
423.56	5022.79
423.75	4959.60
423.94	4940.87
424.13	4629.58
424.32	4791.08
424.50	5039.17
424.69	5032.15
424.88	5153.86
425.07	5006.41
425.26	4924.49
425.45	5144.50
425.64	5039.17
425.83	4961.94
426.01	5137.48
426.20	4933.85
426.39	5074.28
426.58	5015.77
426.77	5163.22
426.96	5235.78
427.15	5287.27
427.33	5331.74
427.52	5053.22
427.71	5401.96
427.90	5184.29
428.09	5294.29
428.28	5383.23
428.46	5507.28
428.65	5287.27
428.84	5633.67
429.03	5521.32
429.22	5317.70
429.40	5460.47
429.59	5675.80
429.78	5453.45
429.97	5184.29
430.16	5528.35
430.34	5640.69
430.53	5680.48
430.72	5521.32
430.91	5603.24
431.10	5675.80
431.28	5830.27
431.47	5724.95
431.66	5909.85
431.85	5762.40
432.03	5811.55
432.22	6076.03
432.41	5949.64
432.60	6031.56
432.79	6001.13
432.97	6076.03
433.16	5963.68
433.35	6022.20
433.54	6270.30
433.72	6284.34
433.91	6148.59
434.10	6258.59
434.28	6272.64
434.47	6239.87
434.66	6232.85
434.85	6319.45
435.03	6253.91
435.22	6352.21
435.41	6342.85
435.59	6394.34
435.78	6282.00
435.97	6401.37
436.16	6434.13
436.34	6408.39
436.53	6429.45
436.72	6619.04
436.90	6516.05
437.09	6516.05
437.28	6485.62
437.46	6516.05
437.65	6654.14
437.84	6616.69
438.02	6764.15
438.21	6778.19
438.40	6796.92
438.58	6960.75
438.77	6939.69
438.96	6913.94
439.14	7150.34
439.33	7140.97
439.52	7262.68
439.70	7176.08
439.89	7360.98
440.08	7499.08
440.26	7307.15
440.45	7452.27
440.63	7545.89
440.82	7700.36
441.01	7421.84
441.19	7822.07
441.38	7714.41
441.57	7868.88
441.75	7955.48
441.94	7929.74
442.12	7967.18
442.31	8138.04
442.50	8147.40
442.68	7939.10
442.87	8004.63
443.05	8208.26
443.24	8236.35
443.43	8217.62
443.61	8276.13
443.80	8531.25
443.98	8152.09
444.17	7850.16
444.35	8170.81
444.54	8418.91
444.73	8341.67
444.91	8439.97
445.10	8613.17
445.28	8461.04
445.47	8219.96
445.65	8306.56
445.84	8648.28
446.02	8425.93
446.21	8596.79
446.39	8320.60
446.58	8755.94
446.77	8500.83
446.95	8475.08
447.14	8559.34
447.32	8439.97
447.51	8545.30
447.69	8390.82
447.88	8547.64
448.06	8655.30
448.25	8734.88
448.43	8561.68
448.62	8592.11
448.80	8650.62
448.99	8830.84
449.17	8762.97
449.36	8844.88
449.54	9022.77
449.73	9074.26
449.91	9125.75
450.10	8980.64
450.28	9151.49
450.46	9111.71
450.65	9050.85
450.83	9121.07
451.02	8978.30
451.20	9200.65
451.39	9158.52
451.57	9207.67
451.76	9146.81
451.94	9181.92
452.13	9378.53
452.31	9373.85
452.49	9500.23
452.68	9533.00
452.86	9408.95
453.05	9486.19
453.23	9500.23
453.42	9411.29
453.60	9380.87
453.78	9572.79
453.97	9605.56
454.15	9722.59
454.34	9593.86
454.52	9591.52
454.70	9755.35
454.89	9902.81
455.07	9919.19
455.26	10033.88
455.44	10059.62
455.62	9998.77
455.81	9848.97
455.99	10094.73
456.17	9921.53
456.36	10176.65
456.54	10160.27
456.73	10267.93
456.91	10583.90
457.09	10438.79
457.28	10663.48
457.46	10696.25
457.64	10581.56
457.83	10663.48
458.01	10597.95
458.19	10761.78
458.38	10717.31
458.56	10895.19
458.74	10576.88
458.93	10621.35
459.11	10628.37
459.29	10953.71
459.48	10937.32
459.66	10801.57
459.84	11075.42
460.03	10995.84
460.21	11033.29
460.39	11098.82
460.57	11241.59
460.76	11295.43
460.94	11082.44
461.12	11239.25
461.31	11178.40
461.49	11208.83
461.67	11290.74
461.85	11487.35
462.04	11321.17
462.22	11875.88
462.40	11674.59
462.59	11698.00
462.77	11370.32
462.95	11838.43
463.13	11702.68
463.32	11882.90
463.50	11882.90
463.68	11737.79
463.86	12067.80
464.05	11655.87
464.23	11941.41
464.41	11932.05
464.59	11768.21
464.78	12109.93
464.96	12025.67
465.14	12058.44
465.32	11939.07
465.50	12278.45
465.69	12058.44
465.87	12105.25
466.05	12236.32
466.23	12131.00
466.41	12262.07
466.60	12627.19
466.78	12404.84
466.96	12463.35
467.14	12128.66
467.32	12425.90
467.51	12699.75
467.69	12217.60
467.87	12287.81
468.05	12507.82
468.23	12531.23
468.41	12695.07
468.60	12514.84
468.78	12807.41
468.96	12856.56
469.14	12662.30
469.32	13114.02
469.50	12613.15
469.69	13252.11
469.87	13228.71
470.05	13226.37
470.23	12870.61
470.41	13348.08
470.59	13394.89
470.77	13350.42
470.95	13371.48
471.14	13628.94
471.32	13422.97
471.50	13724.90
471.68	13685.11
471.86	13645.32
472.04	13961.30
472.22	14115.77
472.40	13687.45
472.58	13736.60
472.77	14129.81
472.95	14150.88
473.13	14827.29
473.31	14036.19
473.49	14260.88
473.67	13991.72
473.85	14572.18
474.03	14621.33
474.21	14705.59
474.39	14803.89
474.57	14803.89
474.75	14888.15
474.93	15033.26
475.12	15314.13
475.30	15140.93
475.48	14946.66
475.66	15346.89
475.84	15337.53
476.02	15573.92
476.20	15367.96
476.38	15679.25
476.56	16224.59
476.74	16184.80
476.92	15957.77
477.10	15768.19
477.28	16173.10
477.46	16278.43
477.64	16477.37
477.82	16397.79
478.00	17184.21
478.18	16791.00
478.36	17043.78
478.54	17287.20
478.72	17172.51
478.90	17373.80
479.08	17579.76
479.26	17907.44
479.44	17930.84
479.62	18036.17
479.80	18443.42
479.98	18340.44
480.16	18726.63
480.34	18565.13
480.52	18918.55
480.70	18654.07
480.88	18478.53
481.06	18787.48
481.24	18890.46
481.41	19262.61
481.59	19358.57
481.77	19754.12
481.95	19709.65
482.13	19868.81
482.31	19868.81
482.49	20271.38
482.67	20432.88
482.85	20725.44
483.03	20779.28
483.21	21027.37
483.39	21092.91
483.57	20889.28
483.74	21467.39
483.92	21715.49
484.10	21149.08
484.28	21687.40
484.46	22244.45
484.64	22377.86
484.82	21926.14
485.00	22775.75
485.18	22696.17
485.35	23131.51
485.53	22923.21
485.71	23028.53
485.89	23559.83
486.07	23688.56
486.25	23461.53
486.43	23735.37
486.61	24182.42
486.78	24381.36
486.96	24430.51
487.14	24819.04
487.32	24755.85
487.50	25050.75
487.68	25060.12
487.85	25647.59
488.03	25453.33
488.21	26059.52
488.39	26155.49
488.57	26160.17
488.75	26405.92
488.92	26490.18
489.10	26658.70
489.28	27147.87
489.46	27793.86
489.64	27091.70
489.81	28086.43
489.99	27901.53
490.17	28058.34
490.35	28177.71
490.53	28465.60
490.70	28503.04
490.88	28212.82
491.06	28999.24
491.24	28849.44
491.41	29252.02
491.59	29317.55
491.77	29364.36
491.95	29394.79
492.13	29912.05
492.30	30328.66
492.48	30270.15
492.66	30700.81
492.84	30490.16
493.01	30834.22
493.19	30551.01
493.37	31473.18
493.54	31232.11
493.72	31672.13
493.90	32004.49
494.08	31519.99
494.25	32182.37
494.43	32203.43
494.61	32465.57
494.79	32858.78
494.96	32610.68
495.14	33577.33
495.32	33179.43
495.49	33495.41
495.67	33457.96
495.85	33745.84
496.02	34015.01
496.20	34143.74
496.38	34298.21
496.55	34349.70
496.73	34789.72
496.91	34700.78
497.09	34881.00
497.26	35398.26
497.44	35211.02
497.62	35611.25
497.79	36048.93
497.97	36046.59
498.14	36165.96
498.32	36385.97
498.50	36374.27
498.67	36608.32
498.85	36952.38
499.03	37060.04
499.20	36774.50
499.38	37085.79
499.56	37422.83
499.73	37258.99
499.91	37333.89
500.08	37874.55
500.26	37729.44
500.44	37912.00
500.61	38401.17
500.79	38754.59
500.97	38307.55
501.14	38981.62
501.32	38490.11
501.49	38925.45
501.67	38728.84
501.84	39421.64
502.02	38930.13
502.20	38925.45
502.37	39292.91
502.55	39388.88
502.72	40037.20
502.90	40095.72
503.07	39491.86
503.25	40130.83
503.43	39718.89
503.60	40631.70
503.78	40542.76
503.95	40509.99
504.13	40526.38
504.30	41188.75
504.48	40793.20
504.65	40942.99
504.83	41265.99
505.01	41596.00
505.18	41294.07
505.36	41816.01
505.53	41532.81
505.71	42054.75
505.88	42080.49
506.06	42057.09
506.23	42052.41
506.41	42211.56
506.58	42569.66
506.76	42368.38
506.93	42953.51
507.11	42595.41
507.28	42555.62
507.46	43180.54
507.63	43395.87
507.81	43672.06
507.98	43306.93
508.16	42967.55
508.33	43164.16
508.50	43861.64
508.68	43519.92
508.85	44259.53
509.03	43854.62
509.20	44048.88
509.38	44755.72
509.55	44636.36
509.73	44629.34
509.90	44842.32
510.08	44854.03
510.25	45008.50
510.42	44816.58
510.60	45141.91
510.77	45202.77
510.95	45780.88
511.12	45464.91
511.30	45364.26
511.47	46143.66
511.64	45823.01
511.82	45984.51
511.99	45851.09
512.17	46525.17
512.34	45921.31
512.51	46607.09
512.69	46436.23
512.86	46520.49
513.04	46983.91
513.21	47185.20
513.38	46754.54
513.56	47147.75
513.73	46820.08
513.90	47601.82
514.08	47154.77
514.25	47824.17
514.43	47686.07
514.60	47559.69
514.77	47562.03
514.95	47870.98
515.12	48037.16
515.29	47381.80
515.47	48446.75
515.64	48554.41
515.81	48116.73
515.99	48311.00
516.16	48769.74
516.33	48559.09
516.51	48994.43
516.68	48882.09
516.85	48671.44
517.03	49144.23
517.20	48903.15
517.37	49034.22
517.54	49223.81
517.72	49272.96
517.89	49382.96
518.06	49549.14
518.24	49050.61
518.41	49579.57
518.58	49954.05
518.75	49425.09
518.93	49741.06
519.10	49705.96
519.27	49958.73
519.45	49954.05
519.62	50017.25
519.79	49916.61
519.96	50190.45
520.14	50433.86
520.31	50618.77
520.48	50522.80
520.65	50883.25
520.83	50595.36
521.00	51182.84
521.17	50660.90
521.34	50806.01
521.52	50908.99
521.69	50852.82
521.86	51302.20
522.03	51550.30
522.20	51650.94
522.38	51681.37
522.55	51545.62
522.72	51648.60
522.89	51760.95
523.07	51777.33
523.24	51667.33
523.41	52175.22
523.58	51777.33
523.75	52165.86
523.92	52126.07
524.10	52240.76
524.27	52339.06
524.44	52390.55
524.61	52163.52
524.78	52500.56
524.96	52376.51
525.13	52556.73
525.30	52638.65
525.47	52884.40
525.64	52727.59
525.81	52779.08
525.98	53078.67
526.16	52982.71
526.33	52872.70
526.50	53268.25
526.67	53078.67
526.84	53073.99
527.01	53130.16
527.18	52949.94
527.36	53453.15
527.53	53034.20
527.70	53670.82
527.87	53806.58
528.04	53176.97
528.21	53659.12
528.38	53420.39
528.55	53785.51
528.72	53755.08
528.89	53368.90
529.07	53532.73
529.24	53722.32
529.41	53895.52
529.58	54007.86
529.75	53965.73
529.92	53806.58
530.09	54181.06
530.26	54181.06
530.43	54260.64
530.60	54045.31
530.77	54164.68
530.94	54410.43
531.11	54475.97
531.28	54312.13
531.46	54429.16
531.63	54518.10
531.80	54588.31
531.97	54621.08
532.14	54794.28
532.31	54782.58
532.48	54911.31
532.65	54820.03
532.82	54756.83
532.99	55025.99
533.16	54869.18
533.33	55168.77
533.50	55220.26
533.67	55089.19
533.84	55077.49
534.01	55145.36
534.18	55194.51
534.35	55407.50
534.52	55121.96
534.69	55458.99
534.86	55746.88
535.03	55569.00
535.20	55423.89
535.37	55428.57
535.54	55662.62
535.71	55395.80
535.88	55594.74
536.05	55533.89
536.22	55793.69
536.38	55774.97
536.55	55786.67
536.72	55859.23
536.89	55774.97
537.06	55817.10
537.23	56095.62
537.40	55604.11
537.57	55753.90
537.74	55962.21
537.91	56051.15
538.08	56034.77
538.25	55936.46
538.42	56198.60
538.59	56334.35
538.75	56224.35
538.92	56165.84
539.09	56465.42
539.26	56114.34
539.43	56168.18
539.60	56315.63
539.77	56484.15
539.94	56435.00
540.11	56217.33
540.28	56381.16
540.44	56477.13
540.61	56439.68
540.78	56631.60
540.95	56594.15
541.12	56671.39
541.29	56399.89
541.46	56706.50
541.62	56795.44
541.79	57041.20
541.96	56580.11
542.13	56512.23
542.30	56865.66
542.47	57034.17
542.63	56952.26
542.80	56935.87
542.97	57120.77
543.14	57488.24
543.31	57235.46
543.48	57359.51
543.64	57439.09
543.81	57682.50
543.98	57340.78
544.15	57689.52
544.32	57605.26
544.48	57656.76
544.65	57333.76
544.82	57675.48
544.99	57460.15
545.16	57525.69
545.32	57586.54
545.49	58042.95
545.66	57958.69
545.83	57883.79
546.00	57968.05
546.16	57834.64
546.33	57682.50
546.50	57696.55
546.67	57890.81
546.83	57598.24
547.00	57998.48
547.17	57764.42
547.34	58028.90
547.50	58274.66
547.67	58314.45
547.84	58227.85
548.00	58080.39
548.17	58365.94
548.34	58230.19
548.51	58447.86
548.67	58494.67
548.84	58403.39
549.01	58244.23
549.18	58295.72
549.34	58454.88
549.51	58431.47
549.68	58632.76
549.84	58567.23
550.01	58546.16
550.18	58529.78
550.34	58649.14
550.51	58499.35
550.68	58534.46
550.84	58525.10
551.01	58759.15
551.18	58646.80
551.34	58712.34
551.51	58843.41
551.68	58873.84
551.84	58623.40
552.01	58557.86
552.18	58623.40
552.34	58810.64
552.51	58983.84
552.68	58784.90
552.84	58684.25
553.01	59049.38
553.18	59037.67
553.34	59161.72
553.51	58930.01
553.67	59011.93
553.84	59274.07
554.01	59016.61
554.17	59077.46
554.34	59089.16
554.51	59250.66
554.67	59316.20
554.84	59152.36
555.00	59021.29
555.17	59124.27
555.33	59217.89
555.50	58969.80
555.67	59152.36
555.83	59189.81
556.00	59201.51
556.16	59601.74
556.33	59571.32
556.50	59522.16
556.66	59753.88
556.83	59440.24
556.99	59484.72
557.16	59578.34
557.32	59576.00
557.49	59714.09
557.65	59327.90
557.82	59725.79
557.98	59728.13
558.15	59573.66
558.32	59765.58
558.48	59580.68
558.65	59522.16
558.81	59536.21
558.98	59667.28
559.14	59866.22
559.31	59634.51
559.47	59976.23
559.64	59966.87
559.80	59980.91
559.97	59901.33
560.13	59693.02
560.30	59835.80
560.46	59852.18
560.63	60055.81
560.79	59828.77
560.96	60065.17
561.12	59952.82
561.29	60079.21
561.45	59955.16
561.61	59934.10
561.78	60069.85
561.94	60016.02
562.11	59931.76
562.27	59957.50
562.44	60097.94
562.60	60165.81
562.77	60111.98
562.93	59838.14
563.10	60278.16
563.26	59962.18
563.42	60193.90
563.59	60254.75
563.75	60060.49
563.92	60271.14
564.08	60062.83
564.24	60301.56
564.41	60247.73
564.57	60336.67
564.74	60133.04
564.90	60205.60
565.07	60189.22
565.23	60200.92
565.39	60177.51
565.56	60404.55
565.72	60200.92
565.88	60430.29
566.05	60266.45
566.21	60299.22
566.38	60437.31
566.54	60512.21
566.70	60544.98
566.87	60364.76
567.03	60317.95
567.19	60659.66
567.36	60626.90
567.52	60568.38
567.68	60945.21
567.85	60676.05
568.01	60645.62
568.17	60526.25
568.34	60537.96
568.50	60549.66
568.66	60441.99
568.83	60364.76
568.99	60617.53
569.15	60608.17
569.32	60514.55
569.48	60528.59
569.64	60816.48
569.81	60566.04
569.97	60392.84
570.13	60626.90
570.30	60753.29
570.46	60720.52
570.62	60743.92
570.78	60746.26
570.95	60591.79
571.11	60828.18
571.27	60664.35
571.43	60683.07
571.60	60863.29
571.76	60650.30
571.92	60762.65
572.09	60800.10
572.25	60903.08
572.41	60706.47
572.57	60638.60
572.74	60977.98
572.90	60776.69
573.06	60818.82
573.22	60701.79
573.38	60748.60
573.55	60835.20
573.71	61106.71
573.87	60697.11
574.03	60676.05
574.20	60973.30
574.36	60664.35
574.52	60900.74
574.68	60893.72
574.84	61008.40
575.01	60924.14
575.17	60926.49
575.33	60722.86
575.49	60570.72
575.65	61125.43
575.82	60975.64
575.98	60938.19
576.14	61059.90
576.30	60963.93
576.46	60839.89
576.62	61064.58
576.79	61064.58
576.95	60814.14
577.11	60985.00
577.27	60914.78
577.43	60914.78
577.59	60816.48
577.75	60863.29
577.92	61024.79
578.08	60963.93
578.24	61071.60
578.40	61160.54
578.56	61095.00
578.72	61141.81
578.88	61195.65
579.04	61183.94
579.21	60865.63
579.37	61162.88
579.53	61050.53
579.69	60797.76
579.85	61008.40
580.01	60949.89
580.17	60912.44
580.33	61017.77
580.49	61158.20
580.65	61106.71
580.82	60882.02
580.98	60846.91
581.14	61038.83
581.30	61186.28
581.46	61013.08
581.62	61102.03
581.78	61010.74
581.94	61165.22
582.10	61045.85
582.26	61134.79
582.42	61216.71
582.58	61244.80
582.74	60933.51
582.90	60968.61
583.06	61160.54
583.22	60994.36
583.38	60910.10
583.54	60966.27
583.70	61097.34
583.86	61188.63
584.02	61120.75
584.18	61109.05
584.34	61162.88
584.50	61090.32
584.66	61127.77
584.82	61045.85
584.98	61237.78
585.14	61310.33
585.30	60977.98
585.46	61174.58
585.62	61270.54
585.78	61364.17
585.94	60697.11
586.10	61160.54
586.26	61132.45
586.42	61188.63
586.58	61109.05
586.74	61324.38
586.90	61090.32
587.06	61099.68
587.22	61432.04
587.38	61214.37
587.54	61300.97
587.70	61329.06
587.86	61338.42
588.02	61167.56
588.18	61352.46
588.34	61207.35
