SpectraSuite Data File
++++++++++++++++++++++++++++++++++++
Date: Fri Oct 25 10:47:29 EDT 2013
User: price-jones
Dark Spectrum Present: No
Reference Spectrum Present: No
Number of Sampled Component Spectra: 1
Spectrometers: USB2+H05261
Integration Time (usec): 100000 (USB2+H05261)
Spectra Averaged: 1 (USB2+H05261)
Boxcar Smoothing: 0 (USB2+H05261)
Correct for Electrical Dark: No (USB2+H05261)
Strobe/Lamp Enabled: No (USB2+H05261)
Correct for Detector Non-linearity: No (USB2+H05261)
Correct for Stray Light: No (USB2+H05261)
Number of Pixels in Processed Spectrum: 2048
>>>>>Begin Processed Spectral Data<<<<<
365.73	154.48
365.92	154.48
366.12	154.48
366.32	51.49
366.52	4.68
366.72	88.94
366.91	58.51
367.11	58.51
367.31	37.45
367.51	105.32
367.70	32.77
367.90	11.70
368.10	14.04
368.30	105.32
368.49	18.72
368.69	156.82
368.89	100.64
369.09	23.41
369.28	74.90
369.48	128.73
369.68	88.94
369.87	53.83
370.07	91.28
370.27	107.66
370.47	182.56
370.66	379.17
370.86	451.72
371.06	444.70
371.25	482.15
371.45	397.89
371.65	477.47
371.84	397.89
372.04	465.77
372.24	418.96
372.44	505.56
372.63	482.15
372.83	550.03
373.03	540.66
373.22	503.22
373.42	514.92
373.62	491.51
373.81	613.22
374.01	587.47
374.21	582.79
374.40	514.92
374.60	613.22
374.79	491.51
374.99	531.30
375.19	519.60
375.38	631.94
375.58	535.98
375.78	601.52
375.97	613.22
376.17	601.52
376.37	545.34
376.56	603.86
376.76	561.73
376.95	571.09
377.15	627.26
377.35	561.73
377.54	601.52
377.74	655.35
377.93	585.13
378.13	622.58
378.33	638.97
378.52	636.63
378.72	566.41
378.91	636.63
379.11	505.56
379.31	585.13
379.50	493.85
379.70	657.69
379.89	638.97
380.09	629.60
380.28	667.05
380.48	634.29
380.68	674.07
380.87	667.05
381.07	629.60
381.26	746.63
381.46	664.71
381.65	615.56
381.85	669.39
382.04	599.18
382.24	692.80
382.43	657.69
382.63	641.31
382.83	699.82
383.02	770.04
383.22	734.93
383.41	683.44
383.61	709.18
383.80	655.35
384.00	662.37
384.19	695.14
384.39	725.57
384.58	732.59
384.78	786.42
384.97	812.17
385.17	718.54
385.36	746.63
385.56	779.40
385.75	739.61
385.95	725.57
386.14	791.10
386.34	851.96
386.53	758.33
386.72	753.65
386.92	706.84
387.11	812.17
387.31	786.42
387.50	866.00
387.70	828.55
387.89	877.70
388.09	767.70
388.28	833.23
388.48	842.59
388.67	779.40
388.86	861.32
389.06	861.32
389.25	809.83
389.45	837.91
389.64	856.64
389.84	830.89
390.03	961.96
390.22	947.92
390.42	898.77
390.61	952.60
390.81	854.30
391.00	917.49
391.19	1036.86
391.39	1004.09
391.58	971.32
391.78	1006.43
391.97	936.21
392.16	1006.43
392.36	971.32
392.55	929.19
392.75	924.51
392.94	952.60
393.13	976.00
393.33	987.71
393.52	997.07
393.71	1088.35
393.91	961.96
394.10	1064.94
394.29	1060.26
394.49	1006.43
394.68	1064.94
394.88	1071.97
395.07	1088.35
395.26	1273.25
395.46	1132.82
395.65	1153.88
395.84	1036.86
396.04	1167.93
396.23	1198.35
396.42	1036.86
396.62	1083.67
396.81	1151.54
397.00	1172.61
397.19	1109.41
397.39	1125.80
397.58	1247.51
397.77	1228.78
397.97	1177.29
398.16	1240.48
398.35	1221.76
398.55	1289.64
398.74	1245.16
398.93	1315.38
399.12	1252.19
399.32	1301.34
399.51	1310.70
399.70	1324.74
399.90	1315.38
400.09	1350.49
400.28	1336.45
400.47	1439.43
400.67	1476.88
400.86	1394.96
401.05	1432.41
401.24	1376.24
401.44	1411.34
401.63	1554.12
401.82	1404.32
402.01	1411.34
402.21	1458.15
402.40	1425.39
402.59	1502.62
402.78	1448.79
402.97	1476.88
403.17	1561.14
403.36	1481.56
403.55	1521.35
403.74	1600.93
403.93	1610.29
404.13	1659.44
404.32	1586.88
404.51	1624.33
404.70	1767.10
404.89	1558.80
405.09	1689.87
405.28	1673.48
405.47	1650.08
405.66	1666.46
405.85	1732.00
406.05	1792.85
406.24	1769.44
406.43	1760.08
406.62	1790.51
406.81	1849.02
407.00	1762.42
407.20	1734.34
407.39	1696.89
407.58	1921.58
407.77	1935.62
407.96	1909.88
408.15	1952.01
408.34	1970.73
408.54	1900.52
408.73	1937.96
408.92	1966.05
409.11	2076.06
409.30	1998.82
409.49	1968.39
409.68	1989.46
409.87	1968.39
410.07	2031.58
410.26	2062.01
410.45	2134.57
410.64	2069.03
410.83	2132.23
411.02	2134.57
411.21	2169.68
411.40	2221.17
411.59	2300.75
411.78	2134.57
411.98	2242.23
412.17	2347.56
412.36	2263.30
412.55	2427.14
412.74	2385.01
412.93	2235.21
413.12	2282.02
413.31	2427.14
413.50	2410.75
413.69	2445.86
413.88	2593.31
414.07	2555.86
414.26	2567.57
414.45	2576.93
414.64	2504.37
414.83	2677.57
415.02	2565.23
415.22	2558.21
415.41	2679.91
415.60	2764.17
415.79	2747.79
415.98	2836.73
416.17	2829.71
416.36	2867.16
416.55	2708.00
416.74	2883.54
416.93	2916.31
417.12	2780.56
417.31	2846.09
417.50	2885.88
417.69	3014.61
417.88	2928.01
418.07	2918.65
418.26	2958.44
418.45	3150.36
418.64	3148.02
418.83	3148.02
419.02	3087.17
419.21	3225.26
419.39	3166.74
419.58	3094.19
419.77	3096.53
419.96	3204.19
420.15	3208.87
420.34	3173.77
420.53	3138.66
420.72	3274.41
420.91	3122.27
421.10	3307.18
421.29	3346.97
421.48	3307.18
421.67	3330.58
421.86	3353.99
422.05	3311.86
422.24	3208.87
422.43	3482.72
422.61	3239.30
422.80	3330.58
422.99	3353.99
423.18	3412.50
423.37	3407.82
423.56	3545.91
423.75	3461.65
423.94	3396.12
424.13	3192.49
424.32	3157.38
424.50	3506.12
424.69	3461.65
424.88	3499.10
425.07	3410.16
425.26	3424.20
425.45	3304.84
425.64	3459.31
425.83	3499.10
426.01	3583.36
426.20	3391.44
426.39	3597.40
426.58	3599.74
426.77	3503.78
426.96	3452.29
427.15	3566.98
427.33	3644.21
427.52	3665.28
427.71	3686.34
427.90	3606.77
428.09	3616.13
428.28	3588.04
428.46	3655.92
428.65	3723.79
428.84	3770.60
429.03	3899.33
429.22	3581.02
429.40	3655.92
429.59	3854.86
429.78	3550.59
429.97	3583.36
430.16	3665.28
430.34	3684.00
430.53	3873.59
430.72	3838.48
430.91	3861.88
431.10	3887.63
431.28	3967.21
431.47	3911.04
431.66	4067.85
431.85	3915.72
432.03	4070.19
432.22	4100.62
432.41	3976.57
432.60	4023.38
432.79	4168.49
432.97	4135.73
433.16	3941.46
433.35	4007.00
433.54	4088.92
433.72	4131.05
433.91	4173.18
434.10	4154.45
434.28	4217.65
434.47	4294.88
434.66	4358.08
434.85	4402.55
435.03	4238.71
435.22	4224.67
435.41	4468.08
435.59	4463.40
435.78	4423.61
435.97	4393.19
436.16	4425.95
436.34	4491.49
436.53	4374.46
436.72	4592.13
436.90	4484.47
437.09	4393.19
437.28	4437.66
437.46	4594.47
437.65	4428.29
437.84	4669.37
438.02	4531.28
438.21	4606.17
438.40	4601.49
438.58	4741.93
438.77	4657.67
438.96	4727.88
439.14	4896.40
439.33	4964.28
439.52	4835.55
439.70	4985.34
439.89	4968.96
440.08	5027.47
440.26	5118.75
440.45	5181.95
440.63	5036.83
440.82	5198.33
441.01	5116.41
441.19	5338.76
441.38	5195.99
441.57	5240.46
441.75	5427.70
441.94	5425.36
442.12	5528.35
442.31	5406.64
442.50	5514.30
442.68	5413.66
442.87	5390.25
443.05	5516.64
443.24	5633.67
443.43	5710.91
443.61	5720.27
443.80	5673.46
443.98	5518.98
444.17	5338.76
444.35	5654.73
444.54	5856.02
444.73	5685.16
444.91	5687.50
445.10	5540.05
445.28	5802.19
445.47	5563.45
445.65	5694.52
445.84	5671.12
446.02	5806.87
446.21	5837.30
446.39	5654.73
446.58	5724.95
446.77	5760.06
446.95	5771.76
447.14	5771.76
447.32	5851.34
447.51	5809.21
447.69	5785.80
447.88	5930.92
448.06	5804.53
448.25	5900.49
448.43	5668.78
448.62	5753.04
448.80	5593.88
448.99	5996.45
449.17	5891.13
449.36	5959.00
449.54	6195.40
449.73	6057.31
449.91	6204.76
450.10	6181.35
450.28	6190.72
450.46	6258.59
450.65	6090.07
450.83	6361.58
451.02	6188.38
451.20	6490.31
451.39	6171.99
451.57	6356.90
451.76	6445.84
451.94	6134.54
452.13	6286.68
452.31	6296.04
452.49	6370.94
452.68	6392.00
452.86	6214.12
453.05	6321.79
453.23	6633.08
453.42	6361.58
453.60	6478.60
453.78	6551.16
453.97	6338.17
454.15	6647.12
454.34	6420.09
454.52	6597.97
454.70	6649.46
454.89	6712.66
455.07	6768.83
455.26	6640.10
455.44	6675.21
455.62	6820.32
455.81	6738.40
455.99	6799.26
456.17	6946.71
456.36	6731.38
456.54	6729.04
456.73	6895.22
456.91	7049.69
457.09	6991.18
457.28	7157.36
457.46	7112.89
457.64	7096.50
457.83	7030.97
458.01	7068.42
458.19	7314.17
458.38	7000.54
458.56	7040.33
458.74	7274.38
458.93	7103.53
459.11	7155.02
459.29	7302.47
459.48	7330.56
459.66	7250.98
459.84	7286.09
460.03	7400.77
460.21	7454.61
460.39	7463.97
460.57	7480.35
460.76	7428.86
460.94	7721.43
461.12	7651.21
461.31	7653.55
461.49	7417.16
461.67	7548.23
461.85	7859.52
462.04	7700.36
462.22	8411.89
462.40	7705.04
462.59	7777.60
462.77	7728.45
462.95	7808.03
463.13	7735.47
463.32	7850.16
463.50	7976.55
463.68	8018.68
463.86	8086.55
464.05	7861.86
464.23	7967.18
464.41	8119.32
464.59	7733.13
464.78	8219.96
464.96	8093.57
465.14	8028.04
465.32	8028.04
465.50	8238.69
465.69	8152.09
465.87	8028.04
466.05	8231.66
466.23	8222.30
466.41	8264.43
466.60	8266.77
466.78	8456.36
466.96	8208.26
467.14	8241.03
467.32	8344.01
467.51	8318.26
467.69	8044.42
467.87	8217.62
468.05	8393.16
468.23	8407.20
468.41	8278.47
468.60	8386.14
468.78	8617.85
468.96	8657.64
469.14	8437.63
469.32	8449.33
469.50	8533.59
469.69	8566.36
469.87	8840.20
470.05	8821.48
470.23	8711.47
470.41	8624.87
470.59	8936.17
470.77	9013.40
470.95	8987.66
471.14	9081.28
471.32	8954.89
471.50	9050.85
471.68	9312.99
471.86	9132.77
472.04	9153.84
472.22	9336.40
472.40	9008.72
472.58	9174.90
472.77	9186.60
472.95	9207.67
473.13	9614.92
473.31	9294.27
473.49	9338.74
473.67	9408.95
473.85	9401.93
474.03	9460.45
474.21	9657.05
474.39	9755.35
474.57	9764.72
474.75	9724.93
474.93	9902.81
475.12	9760.03
475.30	9914.51
475.48	9811.53
475.66	10113.45
475.84	10040.90
476.02	10045.58
476.20	10164.95
476.38	10193.03
476.56	10539.43
476.74	10801.57
476.92	10296.02
477.10	10373.25
477.28	10775.83
477.46	10895.19
477.64	10611.99
477.82	11007.54
478.00	11026.26
478.18	10958.39
478.36	11061.37
478.54	11154.99
478.72	11276.70
478.90	11389.05
479.08	11468.62
479.26	11751.83
479.44	11854.81
479.62	11808.00
479.80	11754.17
479.98	12168.45
480.16	12203.55
480.34	12016.31
480.52	12152.06
480.70	12002.27
480.88	12067.80
481.06	12222.28
481.24	12468.03
481.41	12732.51
481.59	12461.01
481.77	12854.22
481.95	12723.15
482.13	13034.44
482.31	13015.72
482.49	13224.03
482.67	13280.20
482.85	13408.93
483.03	13446.38
483.21	13664.05
483.39	13832.57
483.57	13441.70
483.74	13717.88
483.92	13802.14
484.10	13853.63
484.28	14181.31
484.46	14113.43
484.64	14658.78
484.82	14295.99
485.00	14553.45
485.18	14670.48
485.35	14860.06
485.53	14588.56
485.71	14705.59
485.89	15033.26
486.07	15267.31
486.25	15253.27
486.43	15466.26
486.61	15726.06
486.78	15550.52
486.96	15800.96
487.14	16011.60
487.32	15915.64
487.50	16152.04
487.68	16554.61
487.85	16615.46
488.03	16666.95
488.21	16657.59
488.39	16854.20
488.57	16987.61
488.75	17163.15
488.92	17104.64
489.10	17238.05
489.28	17235.70
489.46	17685.09
489.64	17647.64
489.81	18043.19
489.99	17841.90
490.17	18054.89
490.35	18064.25
490.53	18689.18
490.70	18471.51
490.88	18396.61
491.06	18845.99
491.24	18768.76
491.41	18602.58
491.59	18930.25
491.77	18899.83
491.95	19152.60
492.13	19129.20
492.30	19697.95
492.48	19248.57
492.66	19637.09
492.84	19707.31
493.01	19733.06
493.19	19686.25
493.37	20121.59
493.54	19850.08
493.72	20233.93
493.90	20353.30
494.08	20746.51
494.25	20830.77
494.43	20893.96
494.61	20954.82
494.79	20854.17
494.96	21050.78
495.14	21245.04
495.32	21390.16
495.49	21394.84
495.67	21696.77
495.85	21743.58
496.02	21844.22
496.20	22040.82
496.38	21975.29
496.55	22040.82
496.73	22527.66
496.91	22258.49
497.09	22705.54
497.26	22338.07
497.44	22918.53
497.62	22277.22
497.79	23021.51
497.97	22775.75
498.14	22998.10
498.32	23414.72
498.50	23447.49
498.67	23559.83
498.85	23489.62
499.03	23632.39
499.20	23651.11
499.38	23967.09
499.56	24044.32
499.73	23817.29
499.91	24018.58
500.08	24320.51
500.26	23976.45
500.44	24463.28
500.61	24334.55
500.79	24341.57
500.97	24570.94
501.14	24526.47
501.32	24809.68
501.49	25029.69
501.67	24390.72
501.84	24847.13
502.02	25036.71
502.20	25076.50
502.37	24975.86
502.55	25041.39
502.72	25273.10
502.90	25296.51
503.07	25371.41
503.25	25429.92
503.43	25453.33
503.60	25558.65
503.78	25696.74
503.95	25706.10
504.13	25624.18
504.30	26256.13
504.48	26101.65
504.65	26345.07
504.83	26394.22
505.01	26665.72
505.18	26670.40
505.36	26761.69
505.53	26499.55
505.71	27222.77
505.88	27164.26
506.06	26892.76
506.23	26941.91
506.41	27152.55
506.58	26974.67
506.76	27035.53
506.93	27379.59
507.11	27360.86
507.28	27463.85
507.46	27091.70
507.63	27718.96
507.81	27466.19
507.98	27527.04
508.16	27728.33
508.33	27974.08
508.50	27632.36
508.68	28144.94
508.85	28271.33
509.03	28261.97
509.20	27992.81
509.38	28804.97
509.55	28807.31
509.73	28783.91
509.90	28875.19
510.08	28554.54
510.25	28500.70
510.42	28980.51
510.60	28959.45
510.77	29165.42
510.95	29347.98
511.12	29088.18
511.30	29156.05
511.47	29570.33
511.64	29418.19
511.82	29584.37
511.99	29612.46
512.17	29406.49
512.34	29490.75
512.51	29816.08
512.69	30029.07
512.86	29762.25
513.04	30096.95
513.21	30003.33
513.38	30136.74
513.56	30106.31
513.73	30120.35
513.90	30536.97
514.08	30274.83
514.25	30462.07
514.43	30756.98
514.60	30408.24
514.77	30614.21
514.95	31077.63
515.12	30756.98
515.29	30778.04
515.47	30920.82
515.64	31232.11
515.81	30649.32
515.99	31005.08
516.16	31775.11
516.33	30845.92
516.51	31519.99
516.68	31044.87
516.85	31103.38
517.03	31545.74
517.20	31487.23
517.37	31384.24
517.54	31812.56
517.72	31962.36
517.89	31630.00
518.06	31744.69
518.24	31559.78
518.41	31723.62
518.58	31887.46
518.75	31732.98
518.93	32210.45
519.10	32451.53
519.27	32404.72
519.45	32203.43
519.62	32657.49
519.79	32568.55
519.96	33137.30
520.14	32826.01
520.31	32477.27
520.48	33069.43
520.65	32975.81
520.83	32987.51
521.00	32774.52
521.17	33081.13
521.34	33149.01
521.52	33266.03
521.69	33111.56
521.86	33514.13
522.03	33666.27
522.20	33741.16
522.38	34134.37
522.55	33436.89
522.72	33752.87
522.89	33734.14
523.07	33699.03
523.24	33720.10
523.41	33975.22
523.58	34019.69
523.75	34394.17
523.92	34164.80
524.10	34405.88
524.27	34384.81
524.44	34448.00
524.61	34745.25
524.78	34862.28
524.96	34604.82
525.13	34883.34
525.30	34806.11
525.47	34848.24
525.64	34602.48
525.81	35150.17
525.98	35227.40
526.16	34609.50
526.33	34988.67
526.50	35264.85
526.67	34817.81
526.84	34876.32
527.01	34991.01
527.18	35000.37
527.36	35587.85
527.53	35143.14
527.70	35505.93
527.87	35775.09
528.04	35470.82
528.21	35335.07
528.38	35608.91
528.55	35840.62
528.72	35981.06
528.89	36378.95
529.07	35831.26
529.24	35798.49
529.41	36210.43
529.58	36163.62
529.75	35817.22
529.92	36369.58
530.09	36121.49
530.26	36559.17
530.43	36250.22
530.60	36091.06
530.77	35812.54
530.94	36737.05
531.11	36498.31
531.28	36407.03
531.46	36376.61
531.63	36605.98
531.80	36692.58
531.97	36704.28
532.14	37017.91
532.31	36774.50
532.48	36552.15
532.65	37031.96
532.82	36816.63
532.99	37502.40
533.16	36781.52
533.33	37418.14
533.50	37467.30
533.67	37425.17
533.84	37504.74
534.01	37216.86
534.18	37696.67
534.35	37647.52
534.52	37722.41
534.69	37617.09
534.86	37261.33
535.03	37029.62
535.20	37556.24
535.37	38120.31
535.54	38237.33
535.71	37902.64
535.88	37574.96
536.05	38050.09
536.22	37942.42
536.38	37926.04
536.55	38153.07
536.72	38120.31
536.89	37647.52
537.06	37883.91
537.23	37965.83
537.40	37830.08
537.57	38249.03
537.74	38066.47
537.91	38345.00
538.08	38630.54
538.25	38391.81
538.42	38452.66
538.59	39049.50
538.75	38536.92
538.92	38483.09
539.09	38728.84
539.26	39044.82
539.43	38616.50
539.60	38630.54
539.77	38375.42
539.94	39126.74
540.11	38586.07
540.28	38883.32
540.44	39108.01
540.61	38766.29
540.78	38726.50
540.95	38394.15
541.12	39227.38
541.29	39075.24
541.46	38993.32
541.62	39309.30
541.79	39414.62
541.96	39225.04
542.13	39381.85
542.30	39519.95
542.47	39566.76
542.63	39501.22
542.80	39782.09
542.97	39849.96
543.14	40072.31
543.31	39856.98
543.48	39931.88
543.64	40098.06
543.81	40266.58
543.98	40297.00
544.15	39826.56
544.32	40236.15
544.48	40521.69
544.65	39920.18
544.82	40343.81
544.99	40067.63
545.16	40222.11
545.32	40065.29
545.49	40439.78
545.66	40641.06
545.83	40968.74
546.00	40928.95
546.16	40257.21
546.33	40172.96
546.50	40430.41
546.67	40772.13
546.83	40030.18
547.00	40488.93
547.17	40678.51
547.34	40608.29
547.50	40879.80
547.67	40884.48
547.84	40870.43
548.00	41060.02
548.17	41155.98
548.34	41130.23
548.51	41036.61
548.67	40994.48
548.84	41071.72
549.01	41078.74
549.18	40870.43
549.34	41401.74
549.51	41312.80
549.68	41865.16
549.84	41464.93
550.01	41296.41
550.18	41556.21
550.34	41467.27
550.51	41565.57
550.68	41546.85
550.84	41326.84
551.01	41581.96
551.18	41317.48
551.34	41942.40
551.51	41495.36
551.68	42106.24
551.84	41495.36
552.01	41918.99
552.18	41738.77
552.34	41680.26
552.51	42457.32
552.68	41600.68
552.84	41909.63
553.01	42513.49
553.18	41989.21
553.34	41605.36
553.51	41734.09
553.67	41366.63
553.84	42206.88
554.01	42188.16
554.17	42417.53
554.34	42398.80
554.51	42319.23
554.67	42752.23
554.84	42288.80
555.00	42272.42
555.17	42099.22
555.33	42649.24
555.50	42099.22
555.67	42597.75
555.83	42946.49
556.00	42384.76
556.16	42983.94
556.33	42611.79
556.50	42644.56
556.66	42997.98
556.83	42532.22
556.99	42569.66
557.16	42712.44
557.32	42483.06
557.49	42679.67
557.65	42270.08
557.82	42628.18
557.98	42337.95
558.15	42803.72
558.32	42993.30
558.48	42707.76
558.65	43037.77
558.81	42855.21
558.98	42869.25
559.14	42766.27
559.31	42890.32
559.47	42660.94
559.64	43180.54
559.80	43131.39
559.97	43402.89
560.13	42934.79
560.30	42979.26
560.46	43248.42
560.63	42948.83
560.79	43255.44
560.96	43232.04
561.12	43021.39
561.29	42822.44
561.45	43068.20
561.61	42885.64
561.78	42829.46
561.94	43210.97
562.11	42660.94
562.27	43023.73
562.44	43316.29
562.60	43634.61
562.77	43473.11
562.93	43672.06
563.10	43590.14
563.26	43040.11
563.42	43613.54
563.59	43276.51
563.75	43122.03
563.92	43831.21
564.08	43339.70
564.24	43473.11
564.41	43690.78
564.57	43196.93
564.74	43405.23
564.90	43871.00
565.07	43442.68
565.23	43564.39
565.39	43367.79
565.56	43468.43
565.72	43192.25
565.88	43107.99
566.05	43510.56
566.21	43562.05
566.38	43257.78
566.54	43283.53
566.70	43952.92
566.87	43325.66
567.03	43377.15
567.19	44135.48
567.36	43660.35
567.52	43276.51
567.68	43981.01
567.85	43501.20
568.01	43821.85
568.17	43761.00
568.34	43344.38
568.50	43901.43
568.66	43714.19
568.83	43613.54
568.99	43367.79
569.15	44186.97
569.32	43592.48
569.48	43358.42
569.64	44004.41
569.81	43807.81
569.97	43592.48
570.13	43555.03
570.30	43564.39
570.46	43676.74
570.62	43454.39
570.78	43779.72
570.95	43559.71
571.11	44198.68
571.27	43468.43
571.43	43723.55
571.60	43566.73
571.76	44264.21
571.92	43590.14
572.09	43725.89
572.25	43746.95
572.41	43391.19
572.57	43632.27
572.74	44568.48
572.90	44065.27
573.06	44306.34
573.22	44149.53
573.38	44177.61
573.55	43814.83
573.71	44533.37
573.87	43955.26
574.03	43573.75
574.20	43494.18
574.36	43896.75
574.52	44147.18
574.68	44259.53
574.84	44327.41
575.01	43746.95
575.17	43716.53
575.33	43849.94
575.49	43711.84
575.65	44406.98
575.82	44512.31
575.98	44018.46
576.14	44968.71
576.30	44271.23
576.46	44224.42
576.62	44048.88
576.79	44095.69
576.95	43997.39
577.11	43971.64
577.27	44467.84
577.43	44289.96
577.59	44158.89
577.75	44238.47
577.92	43882.70
578.08	44109.74
578.24	43718.87
578.40	44004.41
578.56	44175.27
578.72	44547.42
578.88	44105.06
579.04	44404.64
579.21	43908.45
579.37	44121.44
579.53	44243.15
579.69	43580.78
579.85	44135.48
580.01	44453.79
580.17	44189.31
580.33	44212.72
580.49	44596.57
580.65	44538.05
580.82	44137.82
580.98	44027.82
581.14	44032.50
581.30	44217.40
581.46	44182.29
581.62	44289.96
581.78	44406.98
581.94	44130.80
582.10	44240.81
582.26	44678.49
582.42	44165.91
582.58	44053.56
582.74	44631.68
582.90	44439.75
583.06	44704.23
583.22	44369.54
583.38	44479.54
583.54	44184.63
583.70	44353.15
583.86	44371.88
584.02	43716.53
584.18	44098.03
584.34	43985.69
584.50	44348.47
584.66	44484.22
584.82	43620.56
584.98	43812.49
585.14	44411.67
585.30	44315.70
585.46	44247.83
585.62	43739.93
585.78	44109.74
585.94	43868.66
586.10	44215.06
586.26	44016.11
586.42	44671.46
586.58	44137.82
586.74	44598.91
586.90	44102.71
587.06	44016.11
587.22	44421.03
587.38	44266.55
587.54	45174.68
587.70	44818.92
587.86	44622.31
588.02	44210.38
588.18	44299.32
588.34	44280.60
588.49	44289.96
588.65	44294.64
588.81	44369.54
588.97	43899.09
589.13	44418.69
589.29	44458.48
589.45	44402.30
589.61	44610.61
589.77	44652.74
589.93	44315.70
590.08	44378.90
590.24	44308.68
