SpectraSuite Data File
++++++++++++++++++++++++++++++++++++
Date: Fri Oct 25 10:44:18 EDT 2013
User: price-jones
Dark Spectrum Present: No
Reference Spectrum Present: No
Number of Sampled Component Spectra: 1
Spectrometers: USB2+H05261
Integration Time (usec): 100000 (USB2+H05261)
Spectra Averaged: 1 (USB2+H05261)
Boxcar Smoothing: 0 (USB2+H05261)
Correct for Electrical Dark: No (USB2+H05261)
Strobe/Lamp Enabled: No (USB2+H05261)
Correct for Detector Non-linearity: No (USB2+H05261)
Correct for Stray Light: No (USB2+H05261)
Number of Pixels in Processed Spectrum: 2048
>>>>>Begin Processed Spectral Data<<<<<
365.73	147.45
365.92	147.45
366.12	147.45
366.32	0.00
366.52	25.75
366.72	11.70
366.91	53.83
367.11	46.81
367.31	23.41
367.51	49.15
367.70	9.36
367.90	0.00
368.10	60.85
368.30	0.00
368.49	95.96
368.69	14.04
368.89	28.09
369.09	0.00
369.28	98.30
369.48	35.11
369.68	84.26
369.87	88.94
370.07	18.72
370.27	102.98
370.47	128.73
370.66	402.57
370.86	407.25
371.06	411.93
371.25	517.26
371.45	465.77
371.65	444.70
371.84	397.89
372.04	393.21
372.24	507.90
372.44	493.85
372.63	519.60
372.83	470.45
373.03	503.22
373.22	533.64
373.42	461.09
373.62	528.96
373.81	564.07
374.01	479.81
374.21	531.30
374.40	566.41
374.60	552.37
374.79	610.88
374.99	566.41
375.19	643.65
375.38	589.82
375.58	648.33
375.78	622.58
375.97	653.01
376.17	594.50
376.37	564.07
376.56	557.05
376.76	608.54
376.95	596.84
377.15	608.54
377.35	641.31
377.54	758.33
377.74	620.24
377.93	730.25
378.13	704.50
378.33	685.78
378.52	676.41
378.72	737.27
378.91	657.69
379.11	699.82
379.31	650.67
379.50	697.48
379.70	653.01
379.89	660.03
380.09	706.84
380.28	697.48
380.48	711.52
380.68	641.31
380.87	699.82
381.07	786.42
381.26	786.42
381.46	798.12
381.65	711.52
381.85	702.16
382.04	784.08
382.24	655.35
382.43	655.35
382.63	741.95
382.83	683.44
383.02	725.57
383.22	791.10
383.41	730.25
383.61	826.21
383.80	763.01
384.00	826.21
384.19	847.27
384.39	854.30
384.58	837.91
384.78	823.87
384.97	812.17
385.17	835.57
385.36	779.40
385.56	772.38
385.75	784.08
385.95	889.40
386.14	901.11
386.34	725.57
386.53	779.40
386.72	826.21
386.92	877.70
387.11	912.81
387.31	894.08
387.50	854.30
387.70	891.74
387.89	922.17
388.09	868.34
388.28	847.27
388.48	912.81
388.67	861.32
388.86	1004.09
389.06	997.07
389.25	1011.11
389.45	938.55
389.64	950.26
389.84	1036.86
390.03	1097.71
390.22	1060.26
390.42	999.41
390.61	961.96
390.81	1100.05
391.00	1130.48
391.19	1214.74
391.39	1074.31
391.58	1015.79
391.78	1050.90
391.97	1057.92
392.16	973.66
392.36	1090.69
392.55	1086.01
392.75	931.53
392.94	1050.90
393.13	980.68
393.33	987.71
393.52	1146.86
393.71	1196.01
393.91	1139.84
394.10	1100.05
394.29	1221.76
394.49	1156.22
394.68	1186.65
394.88	1252.19
395.07	1261.55
395.26	1299.00
395.46	1327.08
395.65	1341.13
395.84	1221.76
396.04	1221.76
396.23	1174.95
396.42	1128.14
396.62	1186.65
396.81	1167.93
397.00	1245.16
397.19	1259.21
397.39	1423.05
397.58	1310.70
397.77	1378.58
397.97	1399.64
398.16	1483.90
398.35	1467.52
398.55	1416.02
398.74	1472.20
398.93	1519.01
399.12	1561.14
399.32	1399.64
399.51	1537.73
399.70	1519.01
399.90	1533.05
400.09	1621.99
400.28	1624.33
400.47	1619.65
400.67	1671.14
400.86	1687.53
401.05	1710.93
401.24	1689.87
401.44	1776.47
401.63	1755.40
401.82	1743.70
402.01	1783.49
402.21	1816.26
402.40	1816.26
402.59	1671.14
402.78	1736.68
402.97	1785.83
403.17	1703.91
403.36	1832.64
403.55	1832.64
403.74	2005.84
403.93	1926.26
404.13	1966.05
404.32	1797.53
404.51	1898.17
404.70	2008.18
404.89	1959.03
405.09	2019.88
405.28	1963.71
405.47	1977.75
405.66	1947.33
405.85	1984.77
406.05	1935.62
406.24	1961.37
406.43	1959.03
406.62	2052.65
406.81	2029.24
407.00	2162.66
407.20	1989.46
407.39	2183.72
407.58	2214.15
407.77	2239.89
407.96	2300.75
408.15	2319.47
408.34	2146.27
408.54	2256.28
408.73	2319.47
408.92	2382.67
409.11	2335.85
409.30	2349.90
409.49	2260.96
409.68	2272.66
409.87	2310.11
410.07	2331.17
410.26	2324.15
410.45	2408.41
410.64	2539.48
410.83	2420.11
411.02	2537.14
411.21	2654.17
411.40	2630.76
411.59	2565.23
411.78	2710.34
411.98	2696.30
412.17	2642.46
412.36	2712.68
412.55	2656.51
412.74	2649.49
412.93	2780.56
413.12	2850.77
413.31	3014.61
413.50	2782.90
413.69	2860.13
413.88	2904.60
414.07	2925.67
414.26	2881.20
414.45	3066.10
414.64	3059.08
414.83	3105.89
415.02	2991.20
415.22	3148.02
415.41	3187.81
415.60	3166.74
415.79	3194.83
415.98	3246.32
416.17	3297.81
416.36	3222.92
416.55	3346.97
416.74	3353.99
416.93	3204.19
417.12	3344.63
417.31	3372.71
417.50	3459.31
417.69	3574.00
417.88	3557.61
418.07	3499.10
418.26	3494.42
418.45	3440.59
418.64	3648.90
418.83	3574.00
419.02	3487.40
419.21	3688.68
419.39	3620.81
419.58	3475.70
419.77	3515.48
419.96	3676.98
420.15	3623.15
420.34	3634.85
420.53	3880.61
420.72	3782.31
420.91	3946.14
421.10	3751.88
421.29	4030.40
421.48	3826.78
421.67	3885.29
421.86	3805.71
422.05	3868.91
422.24	3735.50
422.43	3840.82
422.61	3904.01
422.80	3967.21
422.99	3992.95
423.18	3868.91
423.37	3922.74
423.56	4046.79
423.75	3990.61
423.94	3969.55
424.13	3854.86
424.32	3850.18
424.50	3871.25
424.69	4021.04
424.88	3981.25
425.07	3943.80
425.26	3831.46
425.45	4072.53
425.64	4023.38
425.83	4044.45
426.01	4035.08
426.20	4126.36
426.39	3985.93
426.58	3995.29
426.77	3999.98
426.96	4086.58
427.15	3967.21
427.33	4072.53
427.52	4072.53
427.71	4187.22
427.90	4257.43
428.09	4219.99
428.28	4257.43
428.46	4234.03
428.65	4124.02
428.84	4386.16
429.03	4278.50
429.22	4084.23
429.40	4241.05
429.59	4156.79
429.78	3866.56
429.97	3852.52
430.16	3969.55
430.34	4147.43
430.53	4222.33
430.72	4329.99
430.91	4297.22
431.10	4390.84
431.28	4589.79
431.47	4596.81
431.66	4760.65
431.85	4507.87
432.03	4685.75
432.22	4711.50
432.41	4662.35
432.60	4685.75
432.79	4781.71
432.97	4774.69
433.16	4641.28
433.35	4699.80
433.54	4528.94
433.72	4688.09
433.91	4610.86
434.10	4793.42
434.28	4746.61
434.47	4924.49
434.66	4947.89
434.85	5039.17
435.03	4922.15
435.22	5022.79
435.41	5181.95
435.59	5060.24
435.78	5149.18
435.97	5104.71
436.16	5004.07
436.34	5142.16
436.53	5210.03
436.72	5308.34
436.90	5090.67
437.09	5331.74
437.28	5093.01
437.46	5212.37
437.65	5160.88
437.84	5167.90
438.02	5242.80
438.21	5280.25
438.40	5149.18
438.58	5352.81
438.77	5350.46
438.96	5504.94
439.14	5516.64
439.33	5558.77
439.52	5731.97
439.70	5722.61
439.89	5654.73
440.08	5841.98
440.26	5638.35
440.45	5661.76
440.63	5956.66
440.82	6106.46
441.01	6211.78
441.19	5984.75
441.38	6080.71
441.57	6064.33
441.75	6401.37
441.94	6342.85
442.12	6331.15
442.31	6525.41
442.50	6298.38
442.68	6462.22
442.87	6377.96
443.05	6335.83
443.24	6483.28
443.43	6649.46
443.61	6422.43
443.80	6736.06
443.98	6331.15
444.17	6424.77
444.35	6579.25
444.54	6712.66
444.73	6722.02
444.91	6558.18
445.10	6597.97
445.28	6635.42
445.47	6436.47
445.65	6520.73
445.84	6572.22
446.02	6415.41
446.21	6579.25
446.39	6717.34
446.58	6773.51
446.77	6825.00
446.95	6642.44
447.14	6848.41
447.32	6740.74
447.51	6724.36
447.69	6686.91
447.88	6689.25
448.06	6759.47
448.25	6806.28
448.43	6817.98
448.62	6616.69
448.80	6710.32
448.99	6876.49
449.17	6953.73
449.36	6771.17
449.54	7047.35
449.73	7187.79
449.91	7199.49
450.10	7206.51
450.28	7115.23
450.46	7396.09
450.65	7351.62
450.83	7143.32
451.02	7351.62
451.20	7353.96
451.39	7456.95
451.57	7201.83
451.76	7178.42
451.94	7232.26
452.13	7449.93
452.31	7288.43
452.49	7178.42
452.68	7447.58
452.86	7145.66
453.05	7297.79
453.23	7562.27
453.42	7513.12
453.60	7452.27
453.78	7426.52
453.97	7485.03
454.15	7407.80
454.34	7492.05
454.52	7508.44
454.70	7569.29
454.89	7604.40
455.07	7545.89
455.26	7637.17
455.44	7793.98
455.62	7761.22
455.81	7889.95
455.99	7887.61
456.17	7960.16
456.36	7939.10
456.54	8098.25
456.73	8119.32
456.91	8379.12
457.09	8212.94
457.28	8147.40
457.46	7946.12
457.64	8266.77
457.83	8222.30
458.01	8049.10
458.19	8315.92
458.38	8222.30
458.56	8262.09
458.74	8294.86
458.93	8400.18
459.11	8231.66
459.29	8386.14
459.48	8613.17
459.66	8409.54
459.84	8336.99
460.03	8601.47
460.21	8692.75
460.39	8580.40
460.57	8437.63
460.76	8582.74
460.94	8865.95
461.12	8601.47
461.31	8730.20
461.49	8723.18
461.67	8620.19
461.85	8968.93
462.04	8990.00
462.22	9015.74
462.40	8966.59
462.59	9025.11
462.77	9156.18
462.95	8994.68
463.13	9130.43
463.32	8940.85
463.50	9233.41
463.68	9067.24
463.86	9231.07
464.05	9029.79
464.23	9036.81
464.41	9043.83
464.59	8964.25
464.78	9315.33
464.96	9210.01
465.14	8842.54
465.32	9434.70
465.50	9242.78
465.69	9579.81
465.87	9408.95
466.05	9399.59
466.23	9231.07
466.41	9158.52
466.60	9678.12
466.78	9167.88
466.96	9069.58
467.14	9296.61
467.32	9254.48
467.51	9598.54
467.69	9320.01
467.87	9380.87
468.05	9720.24
468.23	9533.00
468.41	9458.10
468.60	9584.49
468.78	9930.89
468.96	9561.09
469.14	9949.62
469.32	9886.42
469.50	9488.53
469.69	9797.48
469.87	9966.00
470.05	9968.34
470.23	9968.34
470.41	9856.00
470.59	10108.77
470.77	9886.42
470.95	10054.94
471.14	10127.50
471.32	10209.42
471.50	10356.87
471.68	10296.02
471.86	10384.96
472.04	10626.03
472.22	10633.05
472.40	10303.04
472.58	10534.75
472.77	10621.35
472.95	10707.95
473.13	11084.78
473.31	10485.60
473.49	10630.71
473.67	10661.14
473.85	10827.32
474.03	11040.31
474.21	11295.43
474.39	11059.03
474.57	11297.77
474.75	11173.72
474.93	11250.96
475.12	11108.18
475.30	11494.37
475.48	11389.05
475.66	11272.02
475.84	11232.23
476.02	11489.69
476.20	11590.33
476.38	11695.66
476.56	12002.27
476.74	12006.95
476.92	11712.04
477.10	12081.85
477.28	12133.34
477.46	11934.39
477.64	12329.94
477.82	12491.44
478.00	12882.31
478.18	12678.68
478.36	12704.43
478.54	12578.04
478.72	12910.40
478.90	13027.42
479.08	13287.22
479.26	13324.67
479.44	13109.34
479.62	13628.94
479.80	13422.97
479.98	13554.04
480.16	13841.93
480.34	13713.20
480.52	14003.43
480.70	13898.10
480.88	13799.80
481.06	13954.27
481.24	14078.32
481.41	14506.64
481.59	14581.54
481.77	14614.30
481.95	14780.48
482.13	14740.69
482.31	14843.68
482.49	14766.44
482.67	15044.96
482.85	15286.04
483.03	15164.33
483.21	15454.56
483.39	15487.32
483.57	15580.95
483.74	15728.40
483.92	15695.63
484.10	15627.76
484.28	16056.08
484.46	16421.20
484.64	16332.26
484.82	16463.33
485.00	16294.81
485.18	16475.03
485.35	16596.74
485.53	16276.09
485.71	16404.81
485.89	16580.36
486.07	16556.95
486.25	16681.00
486.43	17081.23
486.61	17214.64
486.78	17390.18
486.96	17486.14
487.14	17858.29
487.32	17998.72
487.50	18113.41
487.68	18106.38
487.85	18525.34
488.03	18738.33
488.21	18745.35
488.39	18672.79
488.57	18991.11
488.75	18876.42
488.92	19150.26
489.10	19377.30
489.28	19417.08
489.46	19585.60
489.64	19786.89
489.81	20257.34
489.99	20528.84
490.17	20404.79
490.35	20638.84
490.53	20641.18
490.70	20688.00
490.88	20552.24
491.06	21436.97
491.24	20622.46
491.41	21106.95
491.59	21022.69
491.77	20795.66
491.95	21266.11
492.13	21135.04
492.30	21799.75
492.48	22047.85
492.66	21956.57
492.84	22169.55
493.01	22478.50
493.19	22143.81
493.37	22553.40
493.54	22436.38
493.72	22852.99
493.90	22576.81
494.08	23110.45
494.25	23332.80
494.43	23414.72
494.61	23597.28
494.79	23697.92
494.96	23456.85
495.14	23503.66
495.32	23988.15
495.49	23868.78
495.67	24074.75
495.85	24540.52
496.02	24540.52
496.20	24840.11
496.38	24121.56
496.55	24797.98
496.73	24919.68
496.91	25003.94
497.09	25216.93
497.26	25338.64
497.44	25383.11
497.62	25333.96
497.79	25652.27
497.97	25446.30
498.14	25738.87
498.32	26040.80
498.50	26202.30
498.67	26389.54
498.85	26270.17
499.03	26480.82
499.20	26714.87
499.38	26471.46
499.56	26595.51
499.73	26731.26
499.91	26668.06
500.08	27019.14
500.26	26298.26
500.44	26808.50
500.61	27005.10
500.79	26979.36
500.97	27466.19
501.14	27379.59
501.32	27524.70
501.49	27393.63
501.67	27615.98
501.84	27878.12
502.02	27747.05
502.20	28095.79
502.37	28182.39
502.55	27960.04
502.72	28308.78
502.90	28180.05
503.07	27995.15
503.25	28472.62
503.43	27976.42
503.60	28294.74
503.78	28655.18
503.95	28072.39
504.13	28835.40
504.30	29027.32
504.48	28599.01
504.65	29343.30
504.83	29244.99
505.01	29708.42
505.18	29280.10
505.36	29736.51
505.53	29670.97
505.71	29970.56
505.88	29991.62
506.06	29750.55
506.23	30050.14
506.41	29525.86
506.58	30073.54
506.76	30031.41
506.93	30415.26
507.11	30363.77
507.28	30529.95
507.46	29993.97
507.63	29876.94
507.81	30302.92
507.98	30719.53
508.16	30490.16
508.33	30661.02
508.50	31119.76
508.68	31206.36
508.85	31098.70
509.03	31267.22
509.20	31353.82
509.38	31887.46
509.55	31463.82
509.73	31494.25
509.90	31903.84
510.08	31501.27
510.25	31744.69
510.42	31826.60
510.60	31934.27
510.77	32212.79
510.95	32112.15
511.12	31927.25
511.30	32170.66
511.47	32945.38
511.64	32570.90
511.82	32477.27
511.99	32156.62
512.17	32563.87
512.34	32510.04
512.51	32847.08
512.69	33343.27
512.86	32985.17
513.04	33205.18
513.21	33017.94
513.38	32889.21
513.56	32929.00
513.73	32713.67
513.90	33123.26
514.08	32973.47
514.25	33645.20
514.43	33413.49
514.60	33692.01
514.77	33567.96
514.95	33942.45
515.12	33769.25
515.29	34033.73
515.47	34424.60
515.64	34061.82
515.81	34265.44
515.99	34206.93
516.16	34092.24
516.33	34087.56
516.51	33933.09
516.68	33582.01
516.85	33354.97
517.03	33888.62
517.20	33895.64
517.37	34621.20
517.54	34555.67
517.72	34396.51
517.89	34220.97
518.06	34101.61
518.24	34438.64
518.41	34558.01
518.58	35187.61
518.75	34555.67
518.93	35136.12
519.10	35115.06
519.27	35491.88
519.45	35360.81
519.62	35358.47
519.79	35604.23
519.96	35995.10
520.14	35737.64
520.31	35871.05
520.48	35597.21
520.65	35648.70
520.83	36568.53
521.00	36046.59
521.17	36381.29
521.34	36575.55
521.52	36486.61
521.69	36720.66
521.86	36893.86
522.03	36692.58
522.20	36896.20
522.38	36659.81
522.55	36891.52
522.72	36467.89
522.89	36479.59
523.07	36900.89
523.24	37013.23
523.41	37591.34
523.58	37165.37
523.75	37792.63
523.92	37591.34
524.10	37600.71
524.27	37691.99
524.44	38244.35
524.61	37654.54
524.78	37453.25
524.96	37563.26
525.13	37881.57
525.30	38146.05
525.47	37904.98
525.64	37799.65
525.81	37937.74
525.98	38043.07
526.16	37350.27
526.33	37696.67
526.50	37752.84
526.67	37841.78
526.84	37879.23
527.01	37874.55
527.18	37839.44
527.36	38593.09
527.53	38377.76
527.70	38703.10
527.87	38602.46
528.04	38450.32
528.21	38939.49
528.38	39061.20
528.55	38960.56
528.72	39454.41
528.89	39370.15
529.07	39152.48
529.24	38939.49
529.41	39213.34
529.58	39023.75
529.75	39295.25
529.92	39625.27
530.09	39711.87
530.26	39845.28
530.43	39728.25
530.60	39365.47
530.77	39613.57
530.94	39838.26
531.11	39875.71
531.28	39578.46
531.46	40236.15
531.63	40119.12
531.80	39491.86
531.97	39639.31
532.14	39768.04
532.31	38892.68
532.48	39847.62
532.65	39920.18
532.82	40205.72
532.99	40205.72
533.16	40147.21
533.33	39981.03
533.50	40807.24
533.67	39962.31
533.84	40147.21
534.01	40170.61
534.18	40245.51
534.35	40772.13
534.52	40273.60
534.69	40786.18
534.86	40835.33
535.03	40732.34
535.20	41263.64
535.37	41186.41
535.54	41483.66
535.71	41036.61
535.88	41099.81
536.05	41375.99
536.22	41329.18
536.38	41418.12
536.55	40783.83
536.72	41158.32
536.89	41067.04
537.06	41102.15
537.23	41205.13
537.40	40994.48
537.57	41617.07
537.74	41474.29
537.91	41893.25
538.08	42085.17
538.25	41387.69
538.42	41645.15
538.59	41698.98
538.75	41750.48
538.92	41729.41
539.09	42005.59
539.26	41600.68
539.43	41441.53
539.60	41914.31
539.77	41947.08
539.94	41764.52
540.11	41469.61
540.28	41553.87
540.44	42176.45
540.61	41560.89
540.78	41832.39
540.95	41982.19
541.12	41916.65
541.29	41635.79
541.46	41911.97
541.62	42454.98
541.79	42663.28
541.96	41958.78
542.13	42253.69
542.30	42401.14
542.47	42567.32
542.63	42536.90
542.80	42593.07
542.97	42892.66
543.14	42923.08
543.31	43016.71
543.48	43131.39
543.64	43145.44
543.81	43306.93
543.98	43250.76
544.15	42700.73
544.32	43267.14
544.48	43391.19
544.65	43157.14
544.82	43442.68
544.99	42885.64
545.16	43236.72
545.32	43096.28
545.49	44058.24
545.66	43470.77
545.83	43313.95
546.00	43744.61
546.16	43569.07
546.33	43299.91
546.50	43232.04
546.67	43285.87
546.83	43225.01
547.00	43587.80
547.17	42911.38
547.34	43784.40
547.50	43405.23
547.67	43859.30
547.84	43782.06
548.00	44123.78
548.17	44493.58
548.34	43707.16
548.51	44163.57
548.67	44287.62
548.84	44130.80
549.01	44156.55
549.18	43840.57
549.34	44133.14
549.51	44320.38
549.68	44453.79
549.84	44030.16
550.01	44165.91
550.18	44308.68
550.34	44444.43
550.51	44355.49
550.68	44332.09
550.84	44011.43
551.01	44589.55
551.18	44257.19
551.34	44144.84
551.51	44383.58
551.68	44296.98
551.84	44507.63
552.01	44350.81
552.18	44289.96
552.34	44580.18
552.51	45034.25
552.68	44701.89
552.84	45022.54
553.01	44708.91
553.18	45006.16
553.34	44861.05
553.51	44479.54
553.67	44861.05
553.84	45289.37
554.01	44924.24
554.17	45113.83
554.34	45123.19
554.51	45219.15
554.67	45528.10
554.84	44996.80
555.00	45216.81
555.17	45137.23
555.33	44959.35
555.50	45017.86
555.67	45305.75
555.83	45368.94
556.00	45242.56
556.16	45509.38
556.33	45371.28
556.50	45317.45
556.66	45455.54
556.83	44964.03
556.99	45394.69
557.16	45673.21
557.32	45645.13
557.49	45607.68
557.65	45174.68
557.82	45453.20
557.98	45497.67
558.15	45427.46
558.32	45645.13
558.48	45713.00
558.65	45422.78
558.81	45303.41
558.98	45308.09
559.14	45347.88
559.31	45528.10
559.47	45897.91
559.64	45537.46
559.80	46031.32
559.97	45808.96
560.13	45319.79
560.30	45673.21
560.46	45865.14
560.63	46073.45
560.79	46021.95
560.96	45315.11
561.12	45698.96
561.29	45705.98
561.45	45771.52
561.61	45567.89
561.78	45851.09
561.94	45820.67
562.11	45682.58
562.27	45832.37
562.44	45675.55
562.60	46045.36
562.77	45975.14
562.93	45954.08
563.10	45937.69
563.26	45713.00
563.42	45839.39
563.59	45673.21
563.75	45560.87
563.92	46057.06
564.08	45593.64
564.24	46550.91
564.41	45940.04
564.57	45823.01
564.74	46019.61
564.90	46167.07
565.07	45930.67
565.23	45954.08
565.39	45834.71
565.56	46087.49
565.72	45511.72
565.88	45743.43
566.05	46087.49
566.21	45956.42
566.38	45769.18
566.54	46028.98
566.70	46354.31
566.87	46473.68
567.03	46190.47
567.19	46497.08
567.36	46663.26
567.52	45696.62
567.68	46595.38
567.85	46534.53
568.01	46681.98
568.17	46031.32
568.34	46279.41
568.50	46370.69
568.66	46401.12
568.83	45888.54
568.99	45841.73
569.15	45928.33
569.32	46092.17
569.48	45776.20
569.64	46440.91
569.81	46717.09
569.97	45925.99
570.13	46342.61
570.30	46028.98
570.46	46211.54
570.62	45876.84
570.78	45881.52
570.95	46199.83
571.11	46085.15
571.27	46087.49
571.43	45904.93
571.60	45991.53
571.76	46099.19
571.92	46141.32
572.09	46419.84
572.25	46319.20
572.41	46349.63
572.57	46483.04
572.74	46602.41
572.90	46609.43
573.06	46614.11
573.22	46586.02
573.38	46199.83
573.55	46300.48
573.71	46480.70
573.87	46342.61
574.03	46618.79
574.20	46726.46
574.36	46244.30
574.52	46026.63
574.68	45947.06
574.84	45958.76
575.01	46230.26
575.17	46412.82
575.33	45996.21
575.49	46124.94
575.65	46752.20
575.82	46153.02
575.98	46522.83
576.14	46553.26
576.30	46288.77
576.46	46412.82
576.62	46239.62
576.79	46497.08
576.95	46059.40
577.11	46066.42
577.27	46827.10
577.43	46113.23
577.59	46476.02
577.75	46078.13
577.92	45659.17
578.08	46358.99
578.24	46113.23
578.40	46038.34
578.56	46068.76
578.72	46417.50
578.88	46375.37
579.04	46033.66
579.21	46412.82
579.37	46291.12
579.53	46623.47
579.69	46323.88
579.85	46457.29
580.01	46527.51
580.17	46955.83
580.33	46476.02
580.49	46621.13
580.65	46256.01
580.82	46293.46
580.98	46408.14
581.14	46248.99
581.30	46291.12
581.46	46202.18
581.62	46710.07
581.78	46223.24
581.94	46841.14
582.10	46234.94
582.26	46857.52
582.42	46670.28
582.58	46923.06
582.74	46153.02
582.90	46492.40
583.06	46473.68
583.22	46288.77
583.38	47182.86
583.54	46934.76
583.70	46852.84
583.86	46443.25
584.02	46295.80
584.18	46499.42
584.34	46401.12
584.50	46693.69
584.66	46586.02
584.82	46204.52
584.98	46459.63
585.14	46651.56
585.30	46426.87
585.46	46721.77
585.62	46061.74
585.78	46490.06
585.94	46796.67
586.10	46419.84
586.26	46333.24
586.42	46829.44
586.58	46768.58
586.74	46529.85
586.90	46167.07
587.06	46382.40
587.22	46429.21
587.38	46218.56
587.54	46791.99
587.70	47007.32
587.86	46724.11
588.02	46586.02
588.18	46906.68
588.34	46068.76
588.49	46178.77
588.65	46087.49
588.81	45624.06
588.97	45853.44
589.13	46047.70
589.29	46419.84
589.45	46206.86
589.61	46330.90
589.77	46447.93
589.93	46272.39
