SpectraSuite Data File
++++++++++++++++++++++++++++++++++++
Date: Fri Oct 25 10:48:00 EDT 2013
User: price-jones
Dark Spectrum Present: No
Reference Spectrum Present: No
Number of Sampled Component Spectra: 1
Spectrometers: USB2+H05261
Integration Time (usec): 100000 (USB2+H05261)
Spectra Averaged: 1 (USB2+H05261)
Boxcar Smoothing: 0 (USB2+H05261)
Correct for Electrical Dark: No (USB2+H05261)
Strobe/Lamp Enabled: No (USB2+H05261)
Correct for Detector Non-linearity: No (USB2+H05261)
Correct for Stray Light: No (USB2+H05261)
Number of Pixels in Processed Spectrum: 2048
>>>>>Begin Processed Spectral Data<<<<<
365.73	124.05
365.92	124.05
366.12	124.05
366.32	56.17
366.52	0.00
366.72	86.60
366.91	0.00
367.11	65.54
367.31	39.79
367.51	53.83
367.70	39.79
367.90	81.92
368.10	72.56
368.30	0.00
368.49	46.81
368.69	65.54
368.89	51.49
369.09	46.81
369.28	102.98
369.48	37.45
369.68	72.56
369.87	98.30
370.07	60.85
370.27	184.90
370.47	210.65
370.66	351.08
370.86	374.49
371.06	388.53
371.25	503.22
371.45	397.89
371.65	465.77
371.84	456.40
372.04	442.36
372.24	524.28
372.44	468.11
372.63	463.43
372.83	496.19
373.03	512.58
373.22	489.17
373.42	489.17
373.62	463.43
373.81	482.15
374.01	587.47
374.21	521.94
374.40	507.90
374.60	606.20
374.79	519.60
374.99	479.81
375.19	486.83
375.38	608.54
375.58	547.69
375.78	580.45
375.97	554.71
376.17	538.32
376.37	550.03
376.56	531.30
376.76	603.86
376.95	543.00
377.15	638.97
377.35	568.75
377.54	594.50
377.74	622.58
377.93	615.56
378.13	533.64
378.33	645.99
378.52	608.54
378.72	662.37
378.91	620.24
379.11	603.86
379.31	622.58
379.50	631.94
379.70	582.79
379.89	599.18
380.09	568.75
380.28	559.39
380.48	631.94
380.68	638.97
380.87	589.82
381.07	620.24
381.26	643.65
381.46	716.20
381.65	643.65
381.85	702.16
382.04	720.88
382.24	688.12
382.43	664.71
382.63	711.52
382.83	650.67
383.02	739.61
383.22	779.40
383.41	720.88
383.61	770.04
383.80	791.10
384.00	720.88
384.19	741.95
384.39	692.80
384.58	706.84
384.78	713.86
384.97	788.76
385.17	793.44
385.36	732.59
385.56	760.67
385.75	784.08
385.95	741.95
386.14	840.25
386.34	779.40
386.53	753.65
386.72	725.57
386.92	791.10
387.11	880.04
387.31	753.65
387.50	858.98
387.70	816.85
387.89	858.98
388.09	826.21
388.28	741.95
388.48	802.80
388.67	933.87
388.86	842.59
389.06	933.87
389.25	945.58
389.45	938.55
389.64	898.77
389.84	987.71
390.03	798.12
390.22	917.49
390.42	894.08
390.61	910.47
390.81	933.87
391.00	983.02
391.19	1022.81
391.39	959.62
391.58	936.21
391.78	919.83
391.97	954.94
392.16	980.68
392.36	1008.77
392.55	926.85
392.75	1013.45
392.94	987.71
393.13	938.55
393.33	947.92
393.52	990.05
393.71	1050.90
393.91	1013.45
394.10	1006.43
394.29	1142.18
394.49	1062.60
394.68	1093.03
394.88	1132.82
395.07	1165.59
395.26	1177.29
395.46	1055.58
395.65	1130.48
395.84	1097.71
396.04	1165.59
396.23	1086.01
396.42	1046.22
396.62	1060.26
396.81	1226.44
397.00	1125.80
397.19	1170.27
397.39	1144.52
397.58	1263.89
397.77	1153.88
397.97	1275.59
398.16	1259.21
398.35	1263.89
398.55	1256.87
398.74	1315.38
398.93	1252.19
399.12	1343.47
399.32	1350.49
399.51	1291.98
399.70	1348.15
399.90	1277.93
400.09	1355.17
400.28	1324.74
400.47	1390.28
400.67	1495.60
400.86	1362.19
401.05	1507.30
401.24	1476.88
401.44	1547.09
401.63	1437.09
401.82	1549.43
402.01	1493.26
402.21	1476.88
402.40	1474.54
402.59	1519.01
402.78	1481.56
402.97	1530.71
403.17	1502.62
403.36	1511.99
403.55	1603.27
403.74	1687.53
403.93	1621.99
404.13	1645.40
404.32	1664.12
404.51	1652.42
404.70	1703.91
404.89	1624.33
405.09	1708.59
405.28	1713.27
405.47	1785.83
405.66	1764.76
405.85	1802.21
406.05	1659.44
406.24	1797.53
406.43	1806.89
406.62	1727.32
406.81	1893.49
407.00	1764.76
407.20	1694.55
407.39	1837.32
407.58	1937.96
407.77	1956.69
407.96	1919.24
408.15	1942.64
408.34	1937.96
408.54	2059.67
408.73	1933.28
408.92	1949.67
409.11	2036.27
409.30	2069.03
409.49	2062.01
409.68	2054.99
409.87	2057.33
410.07	2106.48
410.26	2087.76
410.45	2101.80
410.64	2129.89
410.83	2221.17
411.02	2209.47
411.21	2284.36
411.40	2239.89
411.59	2312.45
411.78	2150.95
411.98	2314.79
412.17	2279.68
412.36	2424.80
412.55	2389.69
412.74	2455.22
412.93	2349.90
413.12	2356.92
413.31	2485.65
413.50	2443.52
413.69	2408.41
413.88	2548.84
414.07	2525.44
414.26	2464.58
414.45	2612.04
414.64	2558.21
414.83	2616.72
415.02	2654.17
415.22	2663.53
415.41	2658.85
415.60	2630.76
415.79	2792.26
415.98	2775.88
416.17	2794.60
416.36	2803.96
416.55	2939.71
416.74	2825.03
416.93	2916.31
417.12	2909.29
417.31	2895.24
417.50	3066.10
417.69	3002.91
417.88	3033.33
418.07	2972.48
418.26	2920.99
418.45	2965.46
418.64	3281.43
418.83	3094.19
419.02	3164.40
419.21	3262.71
419.39	3131.64
419.58	3138.66
419.77	3054.40
419.96	3199.51
420.15	3265.05
420.34	3180.79
420.53	3208.87
420.72	3316.54
420.91	3311.86
421.10	3337.60
421.29	3454.63
421.48	3370.37
421.67	3445.27
421.86	3342.28
422.05	3342.28
422.24	3290.79
422.43	3449.95
422.61	3445.27
422.80	3384.41
422.99	3403.14
423.18	3475.70
423.37	3620.81
423.56	3592.72
423.75	3417.18
423.94	3442.93
424.13	3300.16
424.32	3267.39
424.50	3529.53
424.69	3473.36
424.88	3637.19
425.07	3487.40
425.26	3503.78
425.45	3536.55
425.64	3620.81
425.83	3496.76
426.01	3604.42
426.20	3417.18
426.39	3524.85
426.58	3494.42
426.77	3461.65
426.96	3538.89
427.15	3538.89
427.33	3744.86
427.52	3611.45
427.71	3742.52
427.90	3742.52
428.09	3714.43
428.28	3854.86
428.46	3681.66
428.65	3768.26
428.84	3997.64
429.03	3730.81
429.22	3637.19
429.40	3719.11
429.59	3709.75
429.78	3506.12
429.97	3595.06
430.16	3698.05
430.34	3763.58
430.53	3833.80
430.72	3857.20
430.91	3868.91
431.10	3922.74
431.28	3983.59
431.47	4201.26
431.66	4180.20
431.85	4065.51
432.03	4037.42
432.22	4196.58
432.41	4079.55
432.60	4283.18
432.79	4039.76
432.97	4208.28
433.16	4180.20
433.35	4063.17
433.54	4245.73
433.72	4278.50
433.91	4376.80
434.10	4358.08
434.28	4315.95
434.47	4227.01
434.66	4365.10
434.85	4367.44
435.03	4414.25
435.22	4409.57
435.41	4608.51
435.59	4510.21
435.78	4484.47
435.97	4334.67
436.16	4486.81
436.34	4528.94
436.53	4592.13
436.72	4550.00
436.90	4559.36
437.09	4557.02
437.28	4496.17
437.46	4615.54
437.65	4641.28
437.84	4631.92
438.02	4648.30
438.21	4652.98
438.40	4550.00
438.58	4765.33
438.77	4711.50
438.96	4922.15
439.14	5069.60
439.33	4966.62
439.52	5013.43
439.70	5053.22
439.89	4983.00
440.08	5135.14
440.26	5104.71
440.45	5097.69
440.63	5167.90
440.82	5238.12
441.01	5296.63
441.19	5198.33
441.38	5434.72
441.57	5303.65
441.75	5469.83
441.94	5383.23
442.12	5497.92
442.31	5687.50
442.50	5650.05
442.68	5584.52
442.87	5483.88
443.05	5434.72
443.24	5736.65
443.43	5544.73
443.61	5727.29
443.80	5933.26
443.98	5638.35
444.17	5530.69
444.35	5563.45
444.54	5898.15
444.73	5685.16
444.91	5746.02
445.10	5865.38
445.28	5778.78
445.47	5797.51
445.65	5753.04
445.84	5722.61
446.02	5935.60
446.21	5830.27
446.39	5851.34
446.58	5687.50
446.77	5888.79
446.95	5788.14
447.14	5853.68
447.32	6146.25
447.51	6015.18
447.69	5884.11
447.88	5944.96
448.06	5994.11
448.25	6050.28
448.43	5900.49
448.62	5959.00
448.80	5954.32
448.99	6179.01
449.17	6010.50
449.36	5994.11
449.54	6134.54
449.73	6181.35
449.91	6176.67
450.10	6326.47
450.28	6298.38
450.46	6207.10
450.65	6417.75
450.83	6349.87
451.02	6200.08
451.20	6277.32
451.39	6490.31
451.57	6321.79
451.76	6438.81
451.94	6366.26
452.13	6476.26
452.31	6415.41
452.49	6466.90
452.68	6518.39
452.86	6434.13
453.05	6487.96
453.23	6647.12
453.42	6380.30
453.60	6565.20
453.78	6715.00
453.97	6459.88
454.15	6560.52
454.34	6656.48
454.52	6656.48
454.70	6731.38
454.89	6724.36
455.07	6604.99
455.26	6583.93
455.44	6693.93
455.62	6778.19
455.81	6897.56
455.99	6920.96
456.17	6932.67
456.36	7000.54
456.54	6946.71
456.73	6995.86
456.91	7157.36
457.09	7346.94
457.28	7375.03
457.46	7054.37
457.64	7171.40
457.83	7143.32
458.01	7049.69
458.19	7433.54
458.38	7206.51
458.56	7510.78
458.74	7419.50
458.93	7192.47
459.11	7456.95
459.29	7456.95
459.48	7482.69
459.66	7503.76
459.84	7398.43
460.03	7613.76
460.21	7545.89
460.39	7515.46
460.57	7660.57
460.76	7581.00
460.94	7623.12
461.12	7719.09
461.31	7648.87
461.49	7648.87
461.67	7726.11
461.85	7850.16
462.04	7742.49
462.22	8390.82
462.40	8021.02
462.59	7887.61
462.77	7840.79
462.95	8058.46
463.13	7838.45
463.32	7948.46
463.50	7948.46
463.68	7983.57
463.86	7955.48
464.05	8046.76
464.23	7997.61
464.41	8037.40
464.59	7990.59
464.78	8114.64
464.96	8166.13
465.14	7995.27
465.32	8177.83
465.50	8329.97
465.69	8329.97
465.87	8266.77
466.05	8140.38
466.23	8116.98
466.41	8189.53
466.60	8425.93
466.78	8344.01
466.96	8243.37
467.14	8229.32
467.32	8437.63
467.51	8517.21
467.69	8229.32
467.87	8339.33
468.05	8493.80
468.23	8360.39
468.41	8475.08
468.60	8491.46
468.78	8545.30
468.96	8430.61
469.14	8821.48
469.32	8734.88
469.50	8493.80
469.69	8702.11
469.87	8865.95
470.05	8720.84
470.23	8865.95
470.41	8826.16
470.59	8872.97
470.77	8631.90
470.95	8844.88
471.14	9025.11
471.32	8772.33
471.50	9198.31
471.68	9114.05
471.86	9315.33
472.04	9327.03
472.22	9418.32
472.40	9327.03
472.58	9202.99
472.77	9336.40
472.95	9451.08
473.13	9738.97
473.31	9589.17
473.49	9437.04
473.67	9521.30
473.85	9671.09
474.03	9937.91
474.21	9891.10
474.39	9970.68
474.57	9926.21
474.75	9996.43
474.93	10171.97
475.12	10120.48
475.30	10127.50
475.48	9977.70
475.66	10043.24
475.84	10246.87
476.02	10050.26
476.20	10303.04
476.38	10317.08
476.56	10684.55
476.74	10651.78
476.92	10579.22
477.10	10586.24
477.28	10869.45
477.46	10916.26
477.64	10890.51
477.82	10780.51
478.00	11311.81
478.18	11176.06
478.36	11257.98
478.54	11302.45
478.72	11424.15
478.90	11761.19
479.08	11777.58
479.26	11590.33
479.44	11852.47
479.62	11786.94
479.80	12013.97
479.98	12051.42
480.16	12194.19
480.34	11999.93
480.52	12386.12
480.70	12470.37
480.88	12266.75
481.06	12472.71
481.24	12322.92
481.41	12444.63
481.59	12922.10
481.77	13015.72
481.95	12795.71
482.13	13099.98
482.31	13018.06
482.49	13324.67
482.67	13191.26
482.85	13458.08
483.03	13547.02
483.21	13905.12
483.39	14008.11
483.57	13928.53
483.74	14171.94
483.92	14214.07
484.10	14010.45
484.28	14373.23
484.46	14363.87
484.64	14714.95
484.82	14422.38
485.00	14417.70
485.18	14890.49
485.35	14972.41
485.53	14897.51
485.71	14934.96
485.89	15496.69
486.07	14981.77
486.25	15335.19
486.43	15250.93
486.61	15520.09
486.78	15744.78
486.96	15871.17
487.14	16521.84
487.32	15957.77
487.50	16327.58
487.68	16603.76
487.85	16765.26
488.03	17046.12
488.21	16938.46
488.39	16903.35
488.57	16805.05
488.75	17111.66
488.92	17408.90
489.10	17675.73
489.28	17446.35
489.46	17582.10
489.64	17862.97
489.81	17837.22
489.99	17923.82
490.17	18415.34
490.35	18520.66
490.53	18288.95
490.70	18630.66
490.88	18892.80
491.06	18841.31
491.24	18834.29
491.41	19131.54
491.59	19030.90
491.77	19206.44
491.95	19168.99
492.13	19686.25
492.30	19798.59
492.48	19646.46
492.66	19719.01
492.84	19812.63
493.01	20339.26
493.19	20304.15
493.37	20243.29
493.54	20442.24
493.72	20734.81
493.90	20620.12
494.08	20636.50
494.25	21137.38
494.43	20730.12
494.61	21434.63
494.79	21322.28
494.96	21181.85
495.14	21193.55
495.32	21933.16
495.49	21673.36
495.67	22005.72
495.85	22005.72
496.02	22106.36
496.20	22265.52
496.38	22251.47
496.55	22281.90
496.73	22747.67
496.91	22478.50
497.09	22724.26
497.26	22604.89
497.44	22913.84
497.62	22735.96
497.79	23290.67
497.97	23264.92
498.14	23346.84
498.32	23126.83
498.50	23271.95
498.67	23566.85
498.85	23611.32
499.03	23957.72
499.20	23742.39
499.38	24032.62
499.56	24137.94
499.73	24325.19
499.91	24397.74
500.08	24343.91
500.26	24086.45
500.44	24393.06
500.61	24334.55
500.79	24680.95
500.97	24482.00
501.14	25242.68
501.32	25120.97
501.49	24713.72
501.67	24713.72
501.84	25366.73
502.02	25277.79
502.20	25535.24
502.37	25408.86
502.55	25975.27
502.72	25741.21
502.90	25827.81
503.07	25727.17
503.25	25844.20
503.43	25577.37
503.60	26244.43
503.78	25813.77
503.95	26305.28
504.13	26445.71
504.30	26288.90
504.48	26225.70
504.65	26396.56
504.83	26726.58
505.01	26831.90
505.18	26513.59
505.36	27185.32
505.53	26796.79
505.71	27292.99
505.88	27250.86
506.06	27030.85
506.23	27276.60
506.41	26955.95
506.58	27215.75
506.76	27307.03
506.93	27924.93
507.11	27817.27
507.28	27765.78
507.46	27807.90
507.63	27899.19
507.81	28364.95
507.98	27346.82
508.16	27756.41
508.33	28219.84
508.50	28348.57
508.68	28549.85
508.85	28577.94
509.03	28353.25
509.20	28872.85
509.38	28865.83
509.55	29109.24
509.73	28823.70
509.90	28858.81
510.08	28891.57
510.25	29076.48
510.42	28994.56
510.60	29013.28
510.77	29502.45
510.95	29575.01
511.12	29486.07
511.30	29855.87
511.47	29769.27
511.64	29687.36
511.82	29958.86
511.99	29986.94
512.17	29778.64
512.34	29757.57
512.51	30040.78
512.69	30419.94
512.86	30190.57
513.04	30796.77
513.21	30244.40
513.38	30265.47
513.56	30326.32
513.73	30583.78
513.90	30693.79
514.08	30829.54
514.25	30321.64
514.43	30878.69
514.60	30686.76
514.77	30703.15
514.95	31112.74
515.12	31168.91
515.29	31108.06
515.47	31166.57
515.64	31227.43
515.81	31271.90
515.99	31475.52
516.16	31417.01
516.33	31243.81
516.51	31555.10
516.68	31374.88
516.85	31295.30
517.03	31690.85
517.20	31679.15
517.37	31952.99
517.54	32123.85
517.72	32023.21
517.89	32107.47
518.06	32044.27
518.24	32004.49
518.41	31964.70
518.58	32243.22
518.75	32107.47
518.93	32402.38
519.10	32339.18
519.27	32818.99
519.45	32271.31
519.62	32601.32
519.79	32959.42
519.96	32652.81
520.14	33677.97
520.31	33233.27
520.48	33493.07
520.65	33474.34
520.83	33275.40
521.00	33149.01
521.17	33500.09
521.34	33483.70
521.52	33757.55
521.69	33703.71
521.86	33448.60
522.03	33996.28
522.20	33872.23
522.38	33984.58
522.55	34574.39
522.72	33933.09
522.89	33970.54
523.07	34005.64
523.24	33977.56
523.41	34307.57
523.58	34515.88
523.75	34787.38
523.92	34492.47
524.10	34817.81
524.27	34483.11
524.44	34656.31
524.61	34644.61
524.78	34792.06
524.96	35119.74
525.13	35278.89
525.30	35201.66
525.47	35035.48
525.64	35143.14
525.81	35309.32
525.98	35161.87
526.16	35056.54
526.33	35367.84
526.50	35204.00
526.67	35108.04
526.84	35290.60
527.01	35531.67
527.18	35655.72
527.36	35786.79
527.53	36231.49
527.70	35988.08
527.87	35676.79
528.04	36126.17
528.21	35775.09
528.38	36006.80
528.55	36608.32
528.72	36112.13
528.89	36428.10
529.07	35957.65
529.24	36282.98
529.41	36325.11
529.58	36257.24
529.75	36243.20
529.92	36706.62
530.09	36444.48
530.26	36294.69
530.43	36694.92
530.60	36287.67
530.77	36886.84
530.94	37076.43
531.11	36919.61
531.28	37034.30
531.46	36914.93
531.63	37237.92
531.80	37237.92
531.97	37205.16
532.14	37212.18
532.31	36837.69
532.48	37179.41
532.65	37579.64
532.82	37069.40
532.99	37567.94
533.16	37591.34
533.33	37773.91
533.50	37755.18
533.67	37434.53
533.84	37574.96
534.01	37528.15
534.18	37783.27
534.35	37902.64
534.52	37729.44
534.69	38258.40
534.86	37738.80
535.03	37659.22
535.20	38101.58
535.37	38398.83
535.54	38167.12
535.71	38302.87
535.88	38000.94
536.05	38293.50
536.22	38653.95
536.38	38548.62
536.55	38389.47
536.72	38270.10
536.89	38153.07
537.06	38242.01
537.23	38455.00
537.40	38356.70
537.57	38742.89
537.74	38567.35
537.91	39023.75
538.08	38738.21
538.25	38305.21
538.42	38951.20
538.59	38820.13
538.75	39131.42
538.92	39037.80
539.09	39253.12
539.26	39171.21
539.43	38995.67
539.60	39040.14
539.77	39098.65
539.94	39199.29
540.11	39391.22
540.28	39061.20
540.44	39236.74
540.61	39367.81
540.78	39306.96
540.95	39110.35
541.12	39115.03
541.29	39044.82
541.46	39431.01
541.62	39309.30
541.79	39864.00
541.96	39124.40
542.13	39409.94
542.30	39468.45
542.47	39807.83
542.63	39831.24
542.80	39723.57
542.97	40004.44
543.14	39992.73
543.31	40105.08
543.48	40795.54
543.64	40601.27
543.81	40774.47
543.98	40545.10
544.15	40683.19
544.32	40472.54
544.48	40877.46
544.65	40931.29
544.82	40610.64
544.99	40390.62
545.16	40308.71
545.32	40666.81
545.49	40575.53
545.66	40732.34
545.83	40767.45
546.00	41186.41
546.16	41544.51
546.33	41081.08
546.50	40612.98
546.67	40840.01
546.83	40601.27
547.00	40762.77
547.17	40694.89
547.34	41148.96
547.50	41132.57
547.67	41312.80
547.84	41270.67
548.00	40744.05
548.17	41560.89
548.34	41469.61
548.51	41897.93
548.67	41684.94
548.84	41390.03
549.01	41642.81
549.18	41621.75
549.34	41677.92
549.51	41631.11
549.68	41825.37
549.84	41689.62
550.01	41862.82
550.18	41682.60
550.34	42082.83
550.51	41504.72
550.68	41706.01
550.84	41450.89
551.01	41921.34
551.18	41579.62
551.34	41982.19
551.51	41617.07
551.68	41684.94
551.84	42103.90
552.01	41935.38
552.18	42026.66
552.34	42073.47
552.51	42096.88
552.68	41895.59
552.84	42176.45
553.01	42667.97
553.18	42036.02
553.34	41785.58
553.51	42190.50
553.67	42337.95
553.84	42450.30
554.01	42691.37
554.17	42665.63
554.34	42349.65
554.51	42527.53
554.67	42597.75
554.84	42284.12
555.00	42469.02
555.17	42628.18
555.33	42646.90
555.50	42852.87
555.67	43009.68
555.83	42820.10
556.00	42600.09
556.16	42941.81
556.33	42916.06
556.50	43019.05
556.66	42822.44
556.83	42682.01
556.99	43402.89
557.16	42983.94
557.32	42780.31
557.49	43178.20
557.65	42499.45
557.82	42773.29
557.98	42553.28
558.15	42995.64
558.32	43370.13
558.48	42866.91
558.65	42866.91
558.81	43288.21
558.98	42857.55
559.14	43098.62
559.31	43136.07
559.47	43178.20
559.64	43583.12
559.80	43634.61
559.97	43459.07
560.13	43234.38
560.30	43501.20
560.46	43625.25
560.63	43461.41
560.79	43920.15
560.96	43840.57
561.12	43590.14
561.29	43398.21
561.45	43215.65
561.61	43124.37
561.78	43391.19
561.94	43386.51
562.11	43840.57
562.27	43138.41
562.44	43379.49
562.60	43821.85
562.77	43807.81
562.93	43332.68
563.10	43480.13
563.26	43297.57
563.42	44086.33
563.59	43533.96
563.75	43721.21
563.92	44149.53
564.08	43756.32
564.24	44168.25
564.41	43732.91
564.57	43915.47
564.74	43772.70
564.90	43721.21
565.07	43845.26
565.23	43971.64
565.39	43655.67
565.56	43863.98
565.72	43540.99
565.88	43903.77
566.05	44081.65
566.21	43821.85
566.38	43732.91
566.54	43615.88
566.70	44264.21
566.87	44444.43
567.03	44060.58
567.19	44163.57
567.36	44514.65
567.52	44081.65
567.68	43824.19
567.85	43676.74
568.01	44282.94
568.17	43882.70
568.34	44170.59
568.50	43814.83
568.66	43906.11
568.83	44067.61
568.99	43723.55
569.15	44175.27
569.32	43988.03
569.48	44259.53
569.64	44292.30
569.81	44107.40
569.97	44224.42
570.13	43805.47
570.30	43849.94
570.46	44362.51
570.62	43702.48
570.78	44039.52
570.95	44325.07
571.11	44355.49
571.27	43693.12
571.43	44189.31
571.60	44505.29
571.76	44278.25
571.92	44046.54
572.09	43749.29
572.25	43871.00
572.41	43971.64
572.57	44320.38
572.74	44629.34
572.90	44254.85
573.06	44231.44
573.22	44456.14
573.38	44465.50
573.55	43842.92
573.71	44278.25
573.87	44123.78
574.03	44037.18
574.20	44198.68
574.36	44437.41
574.52	44114.42
574.68	44463.16
574.84	44914.88
575.01	44566.14
575.17	44289.96
575.33	43821.85
575.49	44341.45
575.65	44608.27
575.82	44830.62
575.98	44678.49
576.14	44247.83
576.30	44512.31
576.46	44404.64
576.62	44509.97
576.79	44273.57
576.95	43882.70
577.11	44271.23
577.27	44346.13
577.43	44701.89
577.59	44498.26
577.75	44404.64
577.92	44074.63
578.08	44205.70
578.24	44121.44
578.40	44367.20
578.56	43990.37
578.72	44294.64
578.88	44652.74
579.04	44411.67
579.21	44259.53
579.37	44016.11
579.53	44477.20
579.69	44112.08
579.85	44301.66
580.01	44615.29
580.17	44589.55
580.33	44570.82
580.49	44664.44
580.65	44577.84
580.82	44540.39
580.98	44346.13
581.14	44367.20
581.30	44535.71
581.46	44044.20
581.62	44594.23
581.78	44296.98
581.94	44868.07
582.10	44587.21
582.26	44540.39
582.42	44882.11
582.58	44357.83
582.74	44341.45
582.90	44830.62
583.06	44451.45
583.22	44449.11
583.38	44531.03
583.54	44741.68
583.70	44273.57
583.86	44479.54
584.02	44481.88
584.18	44938.29
584.34	44896.16
584.50	43959.94
584.66	44631.68
584.82	44931.26
584.98	44598.91
585.14	44694.87
585.30	44259.53
585.46	44488.90
585.62	44404.64
585.78	44594.23
585.94	44575.50
586.10	44051.22
586.26	44495.92
586.42	44800.19
586.58	44893.82
586.74	44528.69
586.90	44465.50
587.06	44568.48
587.22	44776.79
587.38	44299.32
587.54	44748.70
587.70	45038.93
587.86	45420.44
588.02	44765.09
588.18	44629.34
588.34	44528.69
588.49	44535.71
588.65	44444.43
588.81	44163.57
588.97	44261.87
589.13	44020.80
589.29	44926.58
589.45	44615.29
589.61	44641.04
589.77	44875.09
589.93	44570.82
590.08	44706.57
590.24	44610.61
