SpectraSuite Data File
++++++++++++++++++++++++++++++++++++
Date: Fri Oct 25 11:25:16 EDT 2013
User: price-jones
Dark Spectrum Present: No
Reference Spectrum Present: No
Number of Sampled Component Spectra: 1
Spectrometers: USB2+H05261
Integration Time (usec): 100000 (USB2+H05261)
Spectra Averaged: 1 (USB2+H05261)
Boxcar Smoothing: 0 (USB2+H05261)
Correct for Electrical Dark: No (USB2+H05261)
Strobe/Lamp Enabled: No (USB2+H05261)
Correct for Detector Non-linearity: No (USB2+H05261)
Correct for Stray Light: No (USB2+H05261)
Number of Pixels in Processed Spectrum: 2048
>>>>>Begin Processed Spectral Data<<<<<
365.73	238.73
365.92	238.73
366.12	238.73
366.32	184.90
366.52	112.35
366.72	156.82
366.91	128.73
367.11	133.41
367.31	145.11
367.51	138.09
367.70	119.37
367.90	166.18
368.10	126.39
368.30	95.96
368.49	126.39
368.69	198.95
368.89	147.45
369.09	149.79
369.28	142.77
369.48	161.50
369.68	217.67
369.87	191.92
370.07	135.75
370.27	210.65
370.47	379.17
370.66	547.69
370.86	699.82
371.06	627.26
371.25	720.88
371.45	699.82
371.65	706.84
371.84	669.39
372.04	653.01
372.24	695.14
372.44	727.91
372.63	734.93
372.83	716.20
373.03	681.10
373.22	760.67
373.42	826.21
373.62	760.67
373.81	767.70
374.01	786.42
374.21	842.59
374.40	732.59
374.60	772.38
374.79	765.36
374.99	816.85
375.19	870.68
375.38	828.55
375.58	830.89
375.78	814.51
375.97	784.08
376.17	903.45
376.37	821.53
376.56	823.87
376.76	734.93
376.95	802.80
377.15	861.32
377.35	854.30
377.54	877.70
377.74	933.87
377.93	898.77
378.13	954.94
378.33	945.58
378.52	903.45
378.72	908.13
378.91	987.71
379.11	905.79
379.31	870.68
379.50	912.81
379.70	940.90
379.89	1001.75
380.09	994.73
380.28	968.98
380.48	957.28
380.68	971.32
380.87	908.13
381.07	938.55
381.26	1001.75
381.46	1001.75
381.65	940.90
381.85	1050.90
382.04	1022.81
382.24	1111.75
382.43	1039.20
382.63	1032.18
382.83	1100.05
383.02	1034.52
383.22	1111.75
383.41	1071.97
383.61	1102.39
383.80	1217.08
384.00	1107.07
384.19	1083.67
384.39	1086.01
384.58	1076.65
384.78	1177.29
384.97	1111.75
385.17	1151.54
385.36	1109.41
385.56	1174.95
385.75	1128.14
385.95	1200.69
386.14	1203.04
386.34	1160.91
386.53	1142.18
386.72	1207.72
386.92	1240.48
387.11	1331.76
387.31	1170.27
387.50	1226.44
387.70	1240.48
387.89	1275.59
388.09	1207.72
388.28	1186.65
388.48	1233.46
388.67	1350.49
388.86	1296.66
389.06	1301.34
389.25	1322.40
389.45	1266.23
389.64	1310.70
389.84	1441.77
390.03	1390.28
390.22	1411.34
390.42	1364.53
390.61	1301.34
390.81	1399.64
391.00	1362.19
391.19	1439.43
391.39	1460.49
391.58	1371.55
391.78	1495.60
391.97	1413.68
392.16	1598.59
392.36	1511.99
392.55	1516.67
392.75	1561.14
392.94	1465.18
393.13	1563.48
393.33	1479.22
393.52	1542.41
393.71	1427.73
393.91	1591.56
394.10	1533.05
394.29	1652.42
394.49	1596.25
394.68	1593.90
394.88	1605.61
395.07	1710.93
395.26	1624.33
395.46	1589.22
395.65	1671.14
395.84	1666.46
396.04	1792.85
396.23	1666.46
396.42	1739.02
396.62	1715.61
396.81	1783.49
397.00	1788.17
397.19	1713.27
397.39	1806.89
397.58	1795.19
397.77	1774.13
397.97	1846.68
398.16	1788.17
398.35	1893.49
398.55	1778.81
398.74	1825.62
398.93	1954.35
399.12	1844.34
399.32	1851.36
399.51	1912.22
399.70	1926.26
399.90	1952.01
400.09	1956.69
400.28	2076.06
400.47	2022.22
400.67	2057.33
400.86	2015.20
401.05	2001.16
401.24	2143.93
401.44	2270.32
401.63	2235.21
401.82	2195.42
402.01	2169.68
402.21	2160.31
402.40	2134.57
402.59	2174.36
402.78	2246.91
402.97	2174.36
403.17	2197.76
403.36	2136.91
403.55	2174.36
403.74	2244.57
403.93	2410.75
404.13	2380.32
404.32	2221.17
404.51	2375.64
404.70	2263.30
404.89	2429.48
405.09	2438.84
405.28	2441.18
405.47	2537.14
405.66	2424.80
405.85	2485.65
406.05	2504.37
406.24	2548.84
406.43	2490.33
406.62	2544.16
406.81	2619.06
407.00	2525.44
407.20	2539.48
407.39	2635.44
407.58	2738.43
407.77	2682.25
407.96	2672.89
408.15	2693.96
408.34	2740.77
408.54	2761.83
408.73	2810.98
408.92	2818.00
409.11	2747.79
409.30	2855.45
409.49	2841.41
409.68	2918.65
409.87	2885.88
410.07	3096.53
410.26	3084.83
410.45	2946.73
410.64	3030.99
410.83	3040.36
411.02	3056.74
411.21	3150.36
411.40	3211.22
411.59	3077.80
411.78	3136.32
411.98	3068.44
412.17	3309.52
412.36	3349.31
412.55	3335.26
412.74	3398.46
412.93	3286.11
413.12	3365.69
413.31	3524.85
413.50	3559.95
413.69	3449.95
413.88	3641.87
414.07	3503.78
414.26	3606.77
414.45	3592.72
414.64	3660.60
414.83	3705.07
415.02	3639.53
415.22	3698.05
415.41	3864.22
415.60	3794.01
415.79	3861.88
415.98	3911.04
416.17	3836.14
416.36	3765.92
416.55	3843.16
416.74	4074.87
416.93	4152.11
417.12	4107.64
417.31	4009.34
417.50	4248.07
417.69	4322.97
417.88	4093.60
418.07	4194.24
418.26	4222.33
418.45	4203.60
418.64	4470.42
418.83	4376.80
419.02	4447.02
419.21	4550.00
419.39	4491.49
419.58	4432.97
419.77	4386.16
419.96	4683.41
420.15	4601.49
420.34	4559.36
420.53	4498.51
420.72	4746.61
420.91	4613.20
421.10	4650.64
421.29	4901.08
421.48	4634.26
421.67	4751.29
421.86	4833.21
422.05	4786.40
422.24	4727.88
422.43	4835.55
422.61	4865.97
422.80	4978.32
422.99	4938.53
423.18	4873.00
423.37	5001.72
423.56	4945.55
423.75	4781.71
423.94	4823.84
424.13	4634.26
424.32	4709.16
424.50	4889.38
424.69	5081.30
424.88	4973.64
425.07	5057.90
425.26	4770.01
425.45	4940.87
425.64	5048.54
425.83	4999.38
426.01	5022.79
426.20	5057.90
426.39	4882.36
426.58	4931.51
426.77	5153.86
426.96	5121.09
427.15	4952.57
427.33	5153.86
427.52	5198.33
427.71	5268.55
427.90	5179.61
428.09	5329.40
428.28	5338.76
428.46	5284.93
428.65	5420.68
428.84	5472.17
429.03	5462.81
429.22	5369.19
429.40	5406.64
429.59	5432.38
429.78	5249.82
429.97	5338.76
430.16	5593.88
430.34	5481.53
430.53	5746.02
430.72	5692.18
430.91	5514.30
431.10	5624.31
431.28	5717.93
431.47	5802.19
431.66	5905.17
431.85	5687.50
432.03	5907.51
432.22	5989.43
432.41	5863.04
432.60	5685.16
432.79	5966.03
432.97	5961.34
433.16	6033.90
433.35	5959.00
433.54	6024.54
433.72	6026.88
433.91	6113.48
434.10	6246.89
434.28	6040.92
434.47	6225.82
434.66	6286.68
434.85	6324.13
435.03	6253.91
435.22	6200.08
435.41	6370.94
435.59	6427.11
435.78	6298.38
435.97	6303.06
436.16	6534.78
436.34	6455.20
436.53	6415.41
436.72	6640.10
436.90	6310.08
437.09	6581.59
437.28	6356.90
437.46	6595.63
437.65	6520.73
437.84	6628.40
438.02	6586.27
438.21	6803.94
438.40	6663.51
438.58	6869.47
438.77	6949.05
438.96	6853.09
439.14	7023.95
439.33	7070.76
439.52	7272.04
439.70	7286.09
439.89	7243.96
440.08	7229.91
440.26	7325.88
440.45	7227.57
440.63	7344.60
440.82	7548.23
441.01	7449.93
441.19	7602.06
441.38	7793.98
441.57	7763.56
441.75	8011.65
441.94	7861.86
442.12	7829.09
442.31	8051.44
442.50	7899.31
442.68	7847.82
442.87	7903.99
443.05	7903.99
443.24	8081.87
443.43	8086.55
443.61	8135.70
443.80	8250.39
443.98	8086.55
444.17	8011.65
444.35	8163.79
444.54	8222.30
444.73	8250.39
444.91	8273.79
445.10	8360.39
445.28	8402.52
445.47	8189.53
445.65	8079.53
445.84	8423.59
446.02	8514.87
446.21	8229.32
446.39	8210.60
446.58	8393.16
446.77	8418.91
446.95	8374.44
447.14	8304.22
447.32	8676.37
447.51	8477.42
447.69	8184.85
447.88	8428.27
448.06	8594.45
448.25	8388.48
448.43	8603.81
448.62	8510.19
448.80	8578.06
448.99	8645.94
449.17	8704.45
449.36	8582.74
449.54	8664.66
449.73	8922.12
449.91	8936.17
450.10	8819.14
450.28	9004.04
450.46	9050.85
450.65	9013.40
450.83	9036.81
451.02	9018.08
451.20	9067.24
451.39	8990.00
451.57	9221.71
451.76	9205.33
451.94	9022.77
452.13	9277.88
452.31	9261.50
452.49	8889.35
452.68	9109.36
452.86	9411.29
453.05	9392.57
453.23	9488.53
453.42	9235.75
453.60	9312.99
453.78	9544.70
453.97	9373.85
454.15	9308.31
454.34	9373.85
454.52	9467.47
454.70	9701.52
454.89	9673.43
455.07	9685.14
455.26	9710.88
455.44	9879.40
455.62	10019.83
455.81	9722.59
455.99	9769.40
456.17	9848.97
456.36	9970.68
456.54	10104.09
456.73	10066.64
456.91	10223.46
457.09	10499.64
457.28	10504.32
457.46	10333.47
457.64	10574.54
457.83	10298.36
458.01	10399.00
458.19	10670.50
458.38	10293.68
458.56	10539.43
458.74	10462.19
458.93	10455.17
459.11	10621.35
459.29	10600.29
459.48	10700.93
459.66	10649.44
459.84	10871.79
460.03	10897.53
460.21	10930.30
460.39	10878.81
460.57	10747.74
460.76	11098.82
460.94	11154.99
461.12	10824.98
461.31	11171.38
461.49	11002.86
461.67	11150.31
461.85	11515.44
462.04	11363.30
462.22	11688.64
462.40	11391.39
462.59	11499.05
462.77	11398.41
462.95	11267.34
463.13	11410.11
463.32	11632.46
463.50	11779.92
463.68	11688.64
463.86	11803.32
464.05	11620.76
464.23	11494.37
464.41	11875.88
464.59	11620.76
464.78	12030.35
464.96	12119.29
465.14	11925.03
465.32	11969.50
465.50	11812.68
465.69	12135.68
465.87	11815.02
466.05	11941.41
466.23	12161.42
466.41	12336.96
466.60	12517.18
466.78	11889.92
466.96	12107.59
467.14	12215.26
467.32	12348.67
467.51	12343.99
467.69	12051.42
467.87	12355.69
468.05	12582.72
468.23	12430.59
468.41	12599.10
468.60	12674.00
468.78	12608.47
468.96	12035.03
469.14	12634.21
469.32	12788.69
469.50	12463.35
469.69	12985.29
469.87	12879.97
470.05	13027.42
470.23	12716.13
470.41	13289.56
470.59	13231.05
470.77	12924.44
470.95	13205.30
471.14	13107.00
471.32	13139.77
471.50	13411.27
471.68	13523.62
471.86	13731.92
472.04	13640.64
472.22	13921.51
472.40	13792.78
472.58	13720.22
472.77	13987.04
472.95	13862.99
473.13	14511.32
473.31	14057.26
473.49	14218.75
473.67	14047.90
473.85	14286.63
474.03	14661.12
474.21	14633.03
474.39	14876.44
474.57	14728.99
474.75	14782.82
474.93	15005.17
475.12	14991.13
475.30	15101.14
475.48	14714.95
475.66	15012.20
475.84	14888.15
476.02	15267.31
476.20	15260.29
476.38	15758.83
476.56	15726.06
476.74	15737.76
476.92	15634.78
477.10	15723.72
477.28	15969.48
477.46	15903.94
477.64	15971.82
477.82	16430.56
478.00	16842.50
478.18	16673.98
478.36	16793.34
478.54	17104.64
478.72	16889.31
478.90	17081.23
479.08	17425.29
479.26	17673.39
479.44	17605.51
479.62	17479.12
479.80	17879.35
479.98	17977.65
480.16	18616.62
480.34	18235.11
480.52	18225.75
480.70	18368.52
480.88	18335.76
481.06	18794.50
481.24	18801.52
481.41	18918.55
481.59	18930.25
481.77	19503.68
481.95	19463.90
482.13	19866.47
482.31	19655.82
482.49	20184.78
482.67	20053.71
482.85	20109.88
483.03	20538.20
483.21	20690.34
483.39	20807.36
483.57	20765.23
483.74	21369.09
483.92	20917.37
484.10	20971.20
484.28	21514.20
484.46	21596.12
484.64	22298.28
484.82	21816.13
485.00	22125.08
485.18	22333.39
485.35	22700.86
485.53	22513.61
485.71	22981.72
485.89	23374.93
486.07	23276.63
486.25	23386.63
486.43	23569.19
486.61	23630.05
486.78	23756.44
486.96	24063.05
487.14	24587.33
487.32	24360.30
487.50	24718.40
487.68	24919.68
487.85	25048.41
488.03	25238.00
488.21	25582.06
488.39	25394.81
488.57	26082.93
488.75	26113.36
488.92	26136.76
489.10	26686.79
489.28	26597.85
489.46	26911.48
489.64	26593.17
489.81	27505.98
489.99	27246.18
490.17	27709.60
490.35	27875.78
490.53	28638.80
490.70	28133.24
490.88	27903.87
491.06	29113.92
491.24	28411.76
491.41	29022.64
491.59	29331.59
491.77	28751.14
491.95	29369.04
492.13	29504.79
492.30	29752.89
492.48	29656.93
492.66	29926.09
492.84	30019.71
493.01	30593.14
493.19	30497.18
493.37	30752.30
493.54	30787.41
493.72	31019.12
493.90	31220.41
494.08	31253.17
494.25	31587.87
494.43	31747.03
494.61	31969.38
494.79	32095.77
494.96	32243.22
495.14	32486.64
495.32	32992.19
495.49	32877.51
495.67	33177.09
495.85	33701.37
496.02	33509.45
496.20	33574.98
496.38	34359.06
496.55	33965.85
496.73	34543.97
496.91	34370.77
497.09	34504.18
497.26	34590.78
497.44	34824.83
497.62	34815.47
497.79	35510.61
497.97	35384.22
498.14	35807.86
498.32	36144.89
498.50	35892.12
498.67	36339.16
498.85	36388.31
499.03	36388.31
499.20	36449.16
499.38	36779.18
499.56	36847.05
499.73	36531.08
499.91	36933.65
500.08	37518.79
500.26	37095.15
500.44	37514.11
500.61	37521.13
500.79	37457.93
500.97	37883.91
501.14	38010.30
501.32	38363.72
501.49	38569.69
501.67	38518.20
501.84	38770.97
502.02	38712.46
502.20	39138.44
502.37	39096.31
502.55	39072.90
502.72	39035.45
502.90	39056.52
503.07	39386.54
503.25	39374.83
503.43	39723.57
503.60	39835.92
503.78	39856.98
503.95	39871.03
504.13	40055.93
504.30	40161.25
504.48	40652.76
504.65	40744.05
504.83	40751.07
505.01	41329.18
505.18	41132.57
505.36	41289.39
505.53	40891.50
505.71	41500.04
505.88	41886.23
506.06	41418.12
506.23	42127.30
506.41	41771.54
506.58	41949.42
506.76	42087.51
506.93	42581.37
507.11	42632.86
507.28	42298.16
507.46	42110.92
507.63	42653.92
507.81	42909.04
507.98	42546.26
508.16	42988.62
508.33	43096.28
508.50	43049.47
508.68	43320.98
508.85	43559.71
509.03	43681.42
509.20	43648.65
509.38	43910.79
509.55	44282.94
509.73	44233.78
509.90	44102.71
510.08	44357.83
510.25	44161.23
510.42	44205.70
510.60	44856.37
510.77	44566.14
510.95	45352.56
511.12	45106.80
511.30	44800.19
511.47	45083.40
511.64	45219.15
511.82	45244.90
511.99	45698.96
512.17	45429.80
512.34	45291.71
512.51	46450.27
512.69	45701.30
512.86	46061.74
513.04	46618.79
513.21	46518.15
513.38	46122.60
513.56	46560.28
513.73	46677.30
513.90	46848.16
514.08	46323.88
514.25	47337.33
514.43	47220.31
514.60	46979.23
514.77	47051.79
514.95	47302.23
515.12	47334.99
515.29	47334.99
515.47	47718.84
515.64	48004.39
515.81	47817.14
515.99	48212.70
516.16	47927.15
516.33	48090.99
516.51	48540.37
516.68	48182.27
516.85	48154.18
517.03	48568.46
517.20	48460.79
517.37	48210.35
517.54	48961.67
517.72	48575.48
517.89	48744.00
518.06	49404.03
518.24	49069.33
518.41	48678.46
518.58	49043.59
518.75	49167.63
518.93	49422.75
519.10	49345.51
519.27	49174.66
519.45	49495.31
519.62	49469.56
519.79	49628.72
519.96	49525.74
520.14	49769.15
520.31	49778.51
520.48	50192.79
520.65	50169.38
520.83	50239.60
521.00	50258.32
521.17	50241.94
521.34	50658.56
521.52	50616.43
521.69	50621.11
521.86	51145.39
522.03	50876.22
522.20	51262.41
522.38	51257.73
522.55	51365.40
522.72	51229.65
522.89	51065.81
523.07	51414.55
523.24	51454.34
523.41	51320.93
523.58	51220.28
523.75	51856.91
523.92	51784.35
524.10	51676.69
524.27	51835.84
524.44	51594.77
524.61	51480.08
524.78	51641.58
524.96	51920.10
525.13	51969.26
525.30	52402.25
525.47	52207.99
525.64	52322.68
525.81	52413.96
525.98	52308.63
526.16	52418.64
526.33	52411.62
526.50	52664.39
526.67	52463.11
526.84	52755.68
527.01	52699.50
527.18	52713.55
527.36	52868.02
527.53	52807.17
527.70	53345.49
527.87	53137.18
528.04	52921.85
528.21	53282.30
528.38	53125.48
528.55	53457.84
528.72	53085.69
528.89	53645.08
529.07	52872.70
529.24	53188.67
529.41	53530.39
529.58	53413.37
529.75	53619.33
529.92	53457.84
530.09	53551.46
530.26	53909.56
530.43	53853.39
530.60	53748.06
530.77	53586.57
530.94	53886.15
531.11	53556.14
531.28	53794.87
531.46	53825.30
531.63	53741.04
531.80	54040.63
531.97	54255.96
532.14	54178.72
532.31	54141.27
532.48	54384.69
532.65	54305.11
532.82	53932.96
532.99	54649.17
533.16	54408.09
533.33	54656.19
533.50	54789.60
533.67	54443.20
533.84	54398.73
534.01	54801.30
534.18	54660.87
534.35	55121.96
534.52	54855.14
534.69	54920.67
534.86	55138.34
535.03	54969.82
535.20	55138.34
535.37	55133.66
535.54	55236.64
535.71	54845.77
535.88	55138.34
536.05	55384.10
536.22	55374.73
536.38	55416.86
536.55	55136.00
536.72	55353.67
536.89	55407.50
537.06	55470.70
537.23	55428.57
537.40	55253.03
537.57	55636.87
537.74	55508.14
537.91	55718.79
538.08	55735.18
538.25	55386.44
538.42	55693.05
538.59	55866.25
538.75	55463.67
538.92	55767.94
539.09	55980.93
539.26	55936.46
539.43	56128.39
539.60	55950.51
539.77	56231.37
539.94	56189.24
540.11	56088.60
540.28	56184.56
540.44	56236.05
540.61	56196.26
540.78	56163.50
540.95	56430.32
541.12	55990.30
541.29	56278.18
541.46	56280.52
541.62	56589.47
541.79	56533.30
541.96	56200.94
542.13	56165.84
542.30	56446.70
542.47	56727.56
542.63	56664.37
542.80	56795.44
542.97	57059.92
543.14	57052.90
543.31	57160.56
543.48	57022.47
543.64	57158.22
543.81	57303.34
543.98	57193.33
544.15	57116.09
544.32	57186.31
544.48	57432.07
544.65	57080.98
544.82	57202.69
544.99	56889.06
545.16	57471.85
545.32	57183.97
545.49	57523.35
545.66	57647.39
545.83	57420.36
546.00	57731.65
546.16	57399.30
546.33	57490.58
546.50	57326.74
546.67	57584.20
546.83	57233.12
547.00	57408.66
547.17	57490.58
547.34	57499.94
547.50	57715.27
547.67	58003.16
547.84	57883.79
548.00	57858.04
548.17	57925.92
548.34	57888.47
548.51	57930.60
548.67	58075.71
548.84	57935.28
549.01	57766.76
549.18	57998.48
549.34	58021.88
549.51	58080.39
549.68	58277.00
549.84	58382.32
550.01	58286.36
550.18	58265.30
550.34	58438.50
550.51	58344.87
550.68	58239.55
550.84	58136.57
551.01	58141.25
551.18	58309.77
551.34	58300.40
551.51	58473.60
551.68	58639.78
551.84	58482.97
552.01	58309.77
552.18	58623.40
552.34	58291.04
552.51	58581.27
552.68	58422.11
552.84	58436.16
553.01	58721.70
553.18	58599.99
553.34	58798.94
553.51	58550.84
553.67	58686.59
553.84	58904.26
554.01	58717.02
554.17	58784.90
554.34	58927.67
554.51	58834.05
554.67	58836.39
554.84	58906.60
555.00	58822.34
555.17	58873.84
555.33	58995.54
555.50	58894.90
555.67	58754.47
555.83	58885.54
556.00	58824.68
556.16	59299.81
556.33	59119.59
556.50	59147.68
556.66	59288.11
556.83	58817.66
556.99	59264.70
557.16	59274.07
557.32	59318.54
557.49	59449.61
557.65	59124.27
557.82	59189.81
557.98	59131.29
558.15	59288.11
558.32	59365.35
558.48	59192.15
558.65	59339.60
558.81	59489.40
558.98	59299.81
559.14	59461.31
559.31	59381.73
559.47	59395.77
559.64	59510.46
559.80	59721.11
559.97	59742.17
560.13	59487.06
560.30	59576.00
560.46	59615.79
560.63	59487.06
560.79	59494.08
560.96	59805.37
561.12	59704.73
561.29	59660.26
561.45	59849.84
561.61	59606.42
561.78	59601.74
561.94	59540.89
562.11	59667.28
562.27	59693.02
562.44	59772.60
562.60	59945.80
562.77	59943.46
562.93	59611.10
563.10	59941.12
563.26	59739.83
563.42	59873.24
563.59	59859.20
563.75	59927.08
563.92	59861.54
564.08	60004.31
564.24	59969.21
564.41	59973.89
564.57	60034.74
564.74	59887.29
564.90	59831.11
565.07	59929.42
565.23	59894.31
565.39	59730.47
565.56	60175.17
565.72	59877.93
565.88	59945.80
566.05	59983.25
566.21	59835.80
566.38	59894.31
566.54	60041.76
566.70	60137.72
566.87	60182.19
567.03	60076.87
567.19	60245.39
567.36	60156.45
567.52	60196.24
567.68	60353.05
567.85	60165.81
568.01	60163.47
568.17	60055.81
568.34	60175.17
568.50	60093.25
568.66	60147.09
568.83	60093.25
568.99	60149.43
569.15	60163.47
569.32	60001.97
569.48	60123.68
569.64	60329.65
569.81	60404.55
569.97	60259.43
570.13	60430.29
570.30	60151.77
570.46	60343.69
570.62	60427.95
570.78	60221.98
570.95	60470.08
571.11	60339.01
571.27	60563.70
571.43	60341.35
571.60	60542.64
571.76	60289.86
571.92	60556.68
572.09	60322.63
572.25	60537.96
572.41	60336.67
572.57	60399.86
572.74	60654.98
572.90	60278.16
573.06	60575.40
573.22	60324.97
573.38	60465.40
573.55	60331.99
573.71	60666.69
573.87	60594.13
574.03	60437.31
574.20	60601.15
574.36	60512.21
574.52	60470.08
574.68	60474.76
574.84	60800.10
575.01	60846.91
575.17	60554.34
575.33	60544.98
575.49	60411.57
575.65	60540.30
575.82	60617.53
575.98	60561.36
576.14	60779.03
576.30	60713.50
576.46	60605.83
576.62	60530.93
576.79	60732.22
576.95	60493.49
577.11	60729.88
577.27	60687.75
577.43	60624.56
577.59	60441.99
577.75	60729.88
577.92	60537.96
578.08	60610.51
578.24	60636.26
578.40	60790.73
578.56	60839.89
578.72	60910.10
578.88	60928.83
579.04	60814.14
579.21	60736.90
579.37	60954.57
579.53	60755.63
579.69	60381.14
579.85	60608.17
580.01	60474.76
580.17	60528.59
580.33	60800.10
580.49	60741.58
580.65	60692.43
580.82	60849.25
580.98	60800.10
581.14	60772.01
581.30	60659.66
581.46	60790.73
581.62	60839.89
581.78	60701.79
581.94	60860.95
582.10	60514.55
582.26	60872.65
582.42	60699.45
582.58	60767.33
582.74	60809.46
582.90	60708.82
583.06	60645.62
583.22	60676.05
583.38	60764.99
583.54	61024.79
583.70	60956.91
583.86	60837.54
584.02	60727.54
584.18	60924.14
584.34	60867.97
584.50	60987.34
584.66	60659.66
584.82	60748.60
584.98	60980.32
585.14	60781.37
585.30	60746.26
585.46	61008.40
585.62	60877.33
585.78	61087.98
585.94	60816.48
586.10	60807.12
586.26	61031.81
586.42	60994.36
586.58	60900.74
586.74	60729.88
586.90	60935.85
587.06	60767.33
587.22	61003.72
587.38	60882.02
587.54	60996.70
587.70	60856.27
587.86	60860.95
588.02	60914.78
588.18	61106.71
588.34	60692.43
588.49	60884.36
