SpectraSuite Data File
++++++++++++++++++++++++++++++++++++
Date: Fri Oct 25 10:47:48 EDT 2013
User: price-jones
Dark Spectrum Present: No
Reference Spectrum Present: No
Number of Sampled Component Spectra: 1
Spectrometers: USB2+H05261
Integration Time (usec): 100000 (USB2+H05261)
Spectra Averaged: 1 (USB2+H05261)
Boxcar Smoothing: 0 (USB2+H05261)
Correct for Electrical Dark: No (USB2+H05261)
Strobe/Lamp Enabled: No (USB2+H05261)
Correct for Detector Non-linearity: No (USB2+H05261)
Correct for Stray Light: No (USB2+H05261)
Number of Pixels in Processed Spectrum: 2048
>>>>>Begin Processed Spectral Data<<<<<
365.73	159.16
365.92	159.16
366.12	159.16
366.32	42.13
366.52	91.28
366.72	79.58
366.91	77.24
367.11	95.96
367.31	46.81
367.51	30.43
367.70	72.56
367.90	23.41
368.10	11.70
368.30	14.04
368.49	0.00
368.69	60.85
368.89	126.39
369.09	112.35
369.28	60.85
369.48	107.66
369.68	0.00
369.87	86.60
370.07	56.17
370.27	102.98
370.47	222.35
370.66	358.10
370.86	348.74
371.06	442.36
371.25	493.85
371.45	449.38
371.65	498.53
371.84	482.15
372.04	477.47
372.24	505.56
372.44	571.09
372.63	507.90
372.83	468.11
373.03	505.56
373.22	425.98
373.42	517.26
373.62	456.40
373.81	550.03
374.01	545.34
374.21	575.77
374.40	514.92
374.60	500.87
374.79	449.38
374.99	493.85
375.19	557.05
375.38	519.60
375.58	587.47
375.78	603.86
375.97	552.37
376.17	582.79
376.37	514.92
376.56	573.43
376.76	657.69
376.95	580.45
377.15	608.54
377.35	622.58
377.54	547.69
377.74	636.63
377.93	603.86
378.13	648.33
378.33	725.57
378.52	725.57
378.72	636.63
378.91	582.79
379.11	648.33
379.31	678.76
379.50	648.33
379.70	594.50
379.89	648.33
380.09	631.94
380.28	592.16
380.48	622.58
380.68	594.50
380.87	695.14
381.07	641.31
381.26	723.23
381.46	706.84
381.65	718.54
381.85	606.20
382.04	622.58
382.24	758.33
382.43	723.23
382.63	664.71
382.83	650.67
383.02	648.33
383.22	674.07
383.41	744.29
383.61	791.10
383.80	758.33
384.00	772.38
384.19	713.86
384.39	751.31
384.58	753.65
384.78	713.86
384.97	774.72
385.17	699.82
385.36	814.51
385.56	711.52
385.75	720.88
385.95	777.06
386.14	807.48
386.34	814.51
386.53	798.12
386.72	807.48
386.92	791.10
387.11	763.01
387.31	800.46
387.50	704.50
387.70	901.11
387.89	856.64
388.09	798.12
388.28	898.77
388.48	800.46
388.67	945.58
388.86	849.61
389.06	851.96
389.25	877.70
389.45	929.19
389.64	915.15
389.84	929.19
390.03	880.04
390.22	966.64
390.42	957.28
390.61	933.87
390.81	957.28
391.00	947.92
391.19	1032.18
391.39	964.30
391.58	999.41
391.78	971.32
391.97	959.62
392.16	915.15
392.36	999.41
392.55	1025.15
392.75	1006.43
392.94	1027.50
393.13	1046.22
393.33	954.94
393.52	1043.88
393.71	1018.13
393.91	1025.15
394.10	1088.35
394.29	1118.78
394.49	1057.92
394.68	1036.86
394.88	1036.86
395.07	1100.05
395.26	1132.82
395.46	1172.61
395.65	1107.07
395.84	1203.04
396.04	1116.44
396.23	1177.29
396.42	1111.75
396.62	1050.90
396.81	1121.12
397.00	1109.41
397.19	1158.57
397.39	1273.25
397.58	1242.82
397.77	1179.63
397.97	1268.57
398.16	1287.29
398.35	1413.68
398.55	1261.55
398.74	1301.34
398.93	1399.64
399.12	1378.58
399.32	1336.45
399.51	1343.47
399.70	1343.47
399.90	1345.81
400.09	1409.00
400.28	1324.74
400.47	1460.49
400.67	1476.88
400.86	1474.54
401.05	1472.20
401.24	1504.96
401.44	1476.88
401.63	1486.24
401.82	1589.22
402.01	1495.60
402.21	1495.60
402.40	1657.10
402.59	1554.12
402.78	1612.63
402.97	1645.40
403.17	1619.65
403.36	1598.59
403.55	1636.03
403.74	1643.06
403.93	1638.38
404.13	1638.38
404.32	1713.27
404.51	1668.80
404.70	1717.95
404.89	1746.04
405.09	1788.17
405.28	1633.69
405.47	1790.51
405.66	1781.15
405.85	1797.53
406.05	1713.27
406.24	1781.15
406.43	1750.72
406.62	1863.07
406.81	1879.45
407.00	1776.47
407.20	1783.49
407.39	1820.94
407.58	1933.28
407.77	1944.99
407.96	2057.33
408.15	1956.69
408.34	1940.30
408.54	2054.99
408.73	1970.73
408.92	1923.92
409.11	2059.67
409.30	1998.82
409.49	2038.61
409.68	2017.54
409.87	2101.80
410.07	2122.87
410.26	2111.16
410.45	2125.21
410.64	2186.06
410.83	2188.40
411.02	2246.91
411.21	2263.30
411.40	2328.83
411.59	2275.00
411.78	2242.23
411.98	2340.54
412.17	2345.22
412.36	2342.88
412.55	2420.11
412.74	2382.67
412.93	2392.03
413.12	2410.75
413.31	2520.76
413.50	2506.71
413.69	2459.90
413.88	2609.70
414.07	2623.74
414.26	2597.99
414.45	2553.52
414.64	2668.21
414.83	2696.30
415.02	2693.96
415.22	2771.19
415.41	2820.35
415.60	2848.43
415.79	2726.72
415.98	2885.88
416.17	2729.06
416.36	2972.48
416.55	2958.44
416.74	2944.39
416.93	2836.73
417.12	2864.82
417.31	2984.18
417.50	2960.78
417.69	3063.76
417.88	3080.14
418.07	2963.12
418.26	3056.74
418.45	3030.99
418.64	3274.41
418.83	3066.10
419.02	3241.64
419.21	3178.45
419.39	3148.02
419.58	3243.98
419.77	3199.51
419.96	3269.73
420.15	3311.86
420.34	3213.56
420.53	3463.99
420.72	3337.60
420.91	3283.77
421.10	3386.76
421.29	3492.08
421.48	3351.65
421.67	3407.82
421.86	3365.69
422.05	3527.19
422.24	3424.20
422.43	3307.18
422.61	3459.31
422.80	3466.33
422.99	3566.98
423.18	3538.89
423.37	3574.00
423.56	3595.06
423.75	3552.93
423.94	3506.12
424.13	3288.45
424.32	3398.46
424.50	3517.83
424.69	3447.61
424.88	3576.34
425.07	3522.51
425.26	3503.78
425.45	3478.04
425.64	3480.38
425.83	3571.66
426.01	3609.11
426.20	3592.72
426.39	3508.46
426.58	3737.84
426.77	3634.85
426.96	3620.81
427.15	3595.06
427.33	3592.72
427.52	3604.42
427.71	3822.09
427.90	3765.92
428.09	3859.54
428.28	3721.45
428.46	3854.86
428.65	3819.75
428.84	3880.61
429.03	3801.03
429.22	3808.05
429.40	3808.05
429.59	3854.86
429.78	3733.15
429.97	3611.45
430.16	3737.84
430.34	3922.74
430.53	3871.25
430.72	3850.18
430.91	3990.61
431.10	3906.35
431.28	4060.83
431.47	4170.83
431.66	4217.65
431.85	4081.89
432.03	4102.96
432.22	4341.69
432.41	4112.32
432.60	4411.91
432.79	4016.36
432.97	4187.22
433.16	4236.37
433.35	4124.02
433.54	4248.07
433.72	4388.50
433.91	4337.01
434.10	4383.82
434.28	4273.82
434.47	4442.34
434.66	4442.34
434.85	4454.04
435.03	4440.00
435.22	4287.86
435.41	4697.46
435.59	4704.48
435.78	4545.32
435.97	4528.94
436.16	4634.26
436.34	4606.17
436.53	4620.22
436.72	4844.91
436.90	4676.39
437.09	4732.56
437.28	4524.26
437.46	4741.93
437.65	4688.09
437.84	4758.31
438.02	4692.77
438.21	4833.21
438.40	4692.77
438.58	4807.46
438.77	4990.02
438.96	4971.30
439.14	5130.45
439.33	5027.47
439.52	5011.09
439.70	5018.11
439.89	5114.07
440.08	5097.69
440.26	5135.14
440.45	5022.79
440.63	5233.44
440.82	5341.10
441.01	5399.62
441.19	5458.13
441.38	5514.30
441.57	5458.13
441.75	5523.66
441.94	5654.73
442.12	5619.63
442.31	5565.79
442.50	5799.85
442.68	5696.86
442.87	5736.65
443.05	5746.02
443.24	5863.04
443.43	5764.74
443.61	5806.87
443.80	6003.47
443.98	5778.78
444.17	5682.82
444.35	5715.59
444.54	5891.13
444.73	5846.66
444.91	5891.13
445.10	5715.59
445.28	5893.47
445.47	5729.63
445.65	5731.97
445.84	5991.77
446.02	6015.18
446.21	5963.68
446.39	5956.66
446.58	5930.92
446.77	6001.13
446.95	5849.00
447.14	5970.71
447.32	6059.65
447.51	6069.01
447.69	5975.39
447.88	6080.71
448.06	6174.33
448.25	6029.22
448.43	6003.47
448.62	6012.84
448.80	5968.37
448.99	6076.03
449.17	5984.75
449.36	6118.16
449.54	6214.12
449.73	6279.66
449.91	6478.60
450.10	6317.11
450.28	6415.41
450.46	6415.41
450.65	6539.46
450.83	6438.81
451.02	6527.75
451.20	6555.84
451.39	6548.82
451.57	6403.71
451.76	6422.43
451.94	6574.56
452.13	6527.75
452.31	6555.84
452.49	6375.62
452.68	6597.97
452.86	6590.95
453.05	6553.50
453.23	6642.44
453.42	6490.31
453.60	6436.47
453.78	6712.66
453.97	6600.31
454.15	6696.27
454.34	6698.61
454.52	6857.77
454.70	6846.07
454.89	6958.41
455.07	6984.16
455.26	6752.45
455.44	7016.93
455.62	6888.20
455.81	6956.07
455.99	6984.16
456.17	7019.27
456.36	7075.44
456.54	7002.88
456.73	7232.26
456.91	7241.62
457.09	7201.83
457.28	7431.20
457.46	7091.82
457.64	7220.55
457.83	7368.01
458.01	7164.38
458.19	7148.00
458.38	7466.31
458.56	7463.97
458.74	7529.50
458.93	7447.58
459.11	7592.70
459.29	7473.33
459.48	7632.49
459.66	7314.17
459.84	7368.01
460.03	7683.98
460.21	7733.13
460.39	7737.81
460.57	7618.44
460.76	7691.00
460.94	7639.51
461.12	7754.19
461.31	7763.56
461.49	7936.76
461.67	7653.55
461.85	7901.65
462.04	7903.99
462.22	8336.99
462.40	8088.89
462.59	8208.26
462.77	8049.10
462.95	8131.02
463.13	7971.86
463.32	8109.96
463.50	8037.40
463.68	8184.85
463.86	8215.28
464.05	7992.93
464.23	8109.96
464.41	8332.31
464.59	8250.39
464.78	8280.82
464.96	8425.93
465.14	8142.72
465.32	8131.02
465.50	8461.04
465.69	8449.33
465.87	8465.72
466.05	8250.39
466.23	8397.84
466.41	8475.08
466.60	8510.19
466.78	8346.35
466.96	8610.83
467.14	8325.29
467.32	8622.53
467.51	8645.94
467.69	8404.86
467.87	8718.50
468.05	8711.47
468.23	8507.85
468.41	8631.90
468.60	8882.33
468.78	8767.65
468.96	8760.63
469.14	8966.59
469.32	8847.22
469.50	8753.60
469.69	8863.61
469.87	9055.53
470.05	8901.06
470.23	8826.16
470.41	9004.04
470.59	9020.42
470.77	9165.54
470.95	9191.28
471.14	9238.09
471.32	9186.60
471.50	9401.93
471.68	9217.03
471.86	9441.72
472.04	9392.57
472.22	9542.36
472.40	9355.12
472.58	9387.89
472.77	9516.62
472.95	9753.01
473.13	10059.62
473.31	9626.62
473.49	9633.64
473.67	9722.59
473.85	9617.26
474.03	10106.43
474.21	10129.84
474.39	10153.24
474.57	10083.03
474.75	10045.58
474.93	9956.64
475.12	10141.54
475.30	10228.14
475.48	10347.51
475.66	10326.44
475.84	10345.17
476.02	10338.15
476.20	10525.39
476.38	10518.37
476.56	10855.40
476.74	10923.28
476.92	10689.23
477.10	10881.15
477.28	11035.63
477.46	11152.65
477.64	10995.84
477.82	11316.49
478.00	11489.69
478.18	11501.39
478.36	11438.20
478.54	11618.42
478.72	11660.55
478.90	11903.96
479.08	11908.65
479.26	11927.37
479.44	11632.46
479.62	12030.35
479.80	12114.61
479.98	12100.57
480.16	12503.14
480.34	12430.59
480.52	12564.00
480.70	12524.21
480.88	12580.38
481.06	12688.04
481.24	12716.13
481.41	12730.17
481.59	13048.49
481.77	13261.48
481.95	13163.17
482.13	13151.47
482.31	13362.12
482.49	13376.16
482.67	13661.71
482.85	13687.45
483.03	13720.22
483.21	14146.20
483.39	14104.07
483.57	14083.00
483.74	14073.64
483.92	14508.98
484.10	14406.00
484.28	14534.73
484.46	14927.94
484.64	14932.62
484.82	14724.31
485.00	14799.21
485.18	15068.37
485.35	15197.10
485.53	15243.91
485.71	15021.56
485.89	15126.88
486.07	15321.15
486.25	15496.69
486.43	15634.78
486.61	15470.94
486.78	16163.74
486.96	15908.62
487.14	16343.96
487.32	16233.96
487.50	16379.07
487.68	16627.17
487.85	17128.04
488.03	17088.25
488.21	17195.92
488.39	16947.82
488.57	17242.73
488.75	17280.18
488.92	17638.28
489.10	17804.46
489.28	17771.69
489.46	18045.53
489.64	18192.98
489.81	18455.12
489.99	18427.04
490.17	18773.44
490.35	18696.20
490.53	18523.00
490.70	18888.12
490.88	18916.21
491.06	19101.11
491.24	19108.13
491.41	19096.43
491.59	19215.80
491.77	19335.17
491.95	19449.85
492.13	19667.52
492.30	19908.60
492.48	19800.93
492.66	20049.03
492.84	19850.08
493.01	20505.43
493.19	20418.83
493.37	20617.78
493.54	20709.06
493.72	20891.62
493.90	20847.15
494.08	21123.33
494.25	21383.13
494.43	21188.87
494.61	21263.77
494.79	21617.19
494.96	21455.69
495.14	21708.47
495.32	21860.60
495.49	21696.77
495.67	21893.37
495.85	22005.72
496.02	22356.80
496.20	22471.48
496.38	22654.05
496.55	22593.19
496.73	22787.46
496.91	22710.22
497.09	23051.94
497.26	22967.68
497.44	23049.60
497.62	23199.39
497.79	23522.38
497.97	23339.82
498.14	23807.93
498.32	23506.00
498.50	23676.86
498.67	24058.37
498.85	24166.03
499.03	24439.87
499.20	24697.33
499.38	24364.98
499.56	24168.37
499.73	24388.38
499.91	24718.40
500.08	24762.87
500.26	24308.80
500.44	24709.04
500.61	24968.84
500.79	24592.01
500.97	25385.45
501.14	25268.42
501.32	25392.47
501.49	25198.21
501.67	25235.66
501.84	25450.99
502.02	25710.78
502.20	25455.67
502.37	25752.91
502.55	25743.55
502.72	25788.02
502.90	26464.44
503.07	26045.48
503.25	25979.95
503.43	25963.56
503.60	26345.07
503.78	26380.18
503.95	26417.63
504.13	26724.24
504.30	26885.73
504.48	26518.27
504.65	26738.28
504.83	27009.78
505.01	27119.79
505.18	26820.20
505.36	27166.60
505.53	27262.56
505.71	27503.64
505.88	27702.58
506.06	27082.34
506.23	27524.70
506.41	27147.87
506.58	27470.87
506.76	27793.86
506.93	27845.35
507.11	27707.26
507.28	28053.66
507.46	28046.64
507.63	27922.59
507.81	28395.38
507.98	28144.94
508.16	28257.29
508.33	28552.20
508.50	28479.64
508.68	28596.67
508.85	28643.48
509.03	28851.78
509.20	28718.37
509.38	28868.17
509.55	29214.57
509.73	28833.06
509.90	29006.26
510.08	29067.11
510.25	29003.92
510.42	29619.48
510.60	29530.54
510.77	29844.17
510.95	29933.11
511.12	29663.95
511.30	29717.78
511.47	29984.60
511.64	30005.67
511.82	30284.19
511.99	30155.46
512.17	30628.25
512.34	30108.65
512.51	30398.88
512.69	30433.99
512.86	30588.46
513.04	30565.06
513.21	30632.93
513.38	30490.16
513.56	30609.53
513.73	30417.60
513.90	31138.49
514.08	31211.04
514.25	31108.06
514.43	30726.55
514.60	30941.88
514.77	31384.24
514.95	31498.93
515.12	31154.87
515.29	31604.25
515.47	31838.31
515.64	31915.54
515.81	31459.14
515.99	31672.13
516.16	31864.05
516.33	32011.51
516.51	31601.91
516.68	31887.46
516.85	31681.49
517.03	31901.50
517.20	31896.82
517.37	32074.70
517.54	32175.34
517.72	32194.07
517.89	31894.48
518.06	32130.87
518.24	32226.84
518.41	32357.91
518.58	32437.48
518.75	32170.66
518.93	32950.06
519.10	32957.08
519.27	32982.83
519.45	32830.69
519.62	33050.70
519.79	33479.02
519.96	33191.14
520.14	33439.23
520.31	33326.89
520.48	33663.93
520.65	33443.91
520.83	33336.25
521.00	33944.79
521.17	33998.62
521.34	33823.08
521.52	33666.27
521.69	34082.88
521.86	34242.04
522.03	34178.84
522.20	34370.77
522.38	34300.55
522.55	34600.14
522.72	34085.22
522.89	34508.86
523.07	34457.37
523.24	34232.68
523.41	34347.36
523.58	34653.97
523.75	34565.03
523.92	34504.18
524.10	35264.85
524.27	35407.62
524.44	35346.77
524.61	35400.60
524.78	35236.77
524.96	35667.42
525.13	35519.97
525.30	35372.52
525.47	35372.52
525.64	35608.91
525.81	35559.76
525.98	35791.47
526.16	35342.09
526.33	35126.76
526.50	35384.22
526.67	35409.96
526.84	35732.96
527.01	35597.21
527.18	35864.03
527.36	36121.49
527.53	36119.15
527.70	36271.28
527.87	36233.83
528.04	36266.60
528.21	35957.65
528.38	36102.76
528.55	36669.17
528.72	37043.66
528.89	36388.31
529.07	36580.23
529.24	36381.29
529.41	36598.96
529.58	36297.03
529.75	36769.82
529.92	37057.70
530.09	36769.82
530.26	37020.25
530.43	37137.28
530.60	36746.41
530.77	37020.25
530.94	37268.35
531.11	37020.25
531.28	37127.92
531.46	37397.08
531.63	37254.31
531.80	37298.78
531.97	37134.94
532.14	37319.84
532.31	37074.09
532.48	37352.61
532.65	37717.73
532.82	37560.92
532.99	38073.49
533.16	37549.21
533.33	37734.12
533.50	38410.53
533.67	38330.95
533.84	37804.33
534.01	37912.00
534.18	37745.82
534.35	38415.21
534.52	38071.15
534.69	37886.25
534.86	37944.76
535.03	37872.21
535.20	38293.50
535.37	38782.68
535.54	38836.51
535.71	38665.65
535.88	38232.65
536.05	38108.60
536.22	38778.00
536.38	38382.45
536.55	38778.00
536.72	38902.04
536.89	38483.09
537.06	38590.75
537.23	39189.93
537.40	39203.97
537.57	38925.45
537.74	39016.73
537.91	39215.68
538.08	38852.89
538.25	39037.80
538.42	39365.47
538.59	39269.51
538.75	38866.94
538.92	39552.71
539.09	39239.08
539.26	39318.66
539.43	39643.99
539.60	39201.63
539.77	39470.79
539.94	39807.83
540.11	39173.55
540.28	39225.04
540.44	39442.71
540.61	39269.51
540.78	39651.02
540.95	39243.76
541.12	39611.23
541.29	39824.22
541.46	39709.53
541.62	39571.44
541.79	40414.03
541.96	39482.50
542.13	40119.12
542.30	39819.53
542.47	40069.97
542.63	39962.31
542.80	40418.71
542.97	40844.69
543.14	41153.64
543.31	40793.20
543.48	40346.15
543.64	41029.59
543.81	41060.02
543.98	41331.52
544.15	40755.75
544.32	40811.92
544.48	41511.74
544.65	40776.81
544.82	40910.22
544.99	40170.61
545.16	40835.33
545.32	40519.35
545.49	41336.20
545.66	41118.53
545.83	41022.57
546.00	41633.45
546.16	41422.80
546.33	41249.60
546.50	40968.74
546.67	41223.86
546.83	40898.52
547.00	41390.03
547.17	41287.05
547.34	41366.63
547.50	41469.61
547.67	41572.60
547.84	41876.86
548.00	41979.85
548.17	41879.21
548.34	41277.69
548.51	41942.40
548.67	41710.69
548.84	41841.76
549.01	41804.31
549.18	41783.24
549.34	42244.33
549.51	42422.21
549.68	42267.73
549.84	41855.80
550.01	41631.11
550.18	42113.26
550.34	42054.75
550.51	42059.43
550.68	41806.65
550.84	41790.27
551.01	41848.78
551.18	42312.20
551.34	42185.82
551.51	42424.55
551.68	42213.90
551.84	42197.52
552.01	42424.55
552.18	42368.38
552.34	42230.29
552.51	42588.39
552.68	42946.49
552.84	42548.60
553.01	42937.13
553.18	42279.44
553.34	42717.12
553.51	42256.03
553.67	42394.12
553.84	42672.65
554.01	43126.71
554.17	42787.33
554.34	42806.06
554.51	42724.14
554.67	42895.00
554.84	43068.20
555.00	42803.72
555.17	43075.22
555.33	43171.18
555.50	43302.25
555.67	42829.46
555.83	42586.05
556.00	42873.93
556.16	43203.95
556.33	43054.15
556.50	43480.13
556.66	43332.68
556.83	42792.01
556.99	43288.21
557.16	43445.02
557.32	43519.92
557.49	43229.69
557.65	42972.24
557.82	42939.47
557.98	43164.16
558.15	43199.27
558.32	43349.06
558.48	43323.32
558.65	43704.82
558.81	43271.82
558.98	43461.41
559.14	43583.12
559.31	43250.76
559.47	43353.74
559.64	43805.47
559.80	43653.33
559.97	43599.50
560.13	43751.63
560.30	43557.37
560.46	43779.72
560.63	43690.78
560.79	43838.23
560.96	44105.06
561.12	43718.87
561.29	43913.13
561.45	43814.83
561.61	43632.27
561.78	43709.50
561.94	43959.94
562.11	43405.23
562.27	43433.32
562.44	43854.62
562.60	44112.08
562.77	43854.62
562.93	44165.91
563.10	44116.76
563.26	43779.72
563.42	44266.55
563.59	43938.88
563.75	43646.31
563.92	44257.19
564.08	43887.39
564.24	43976.33
564.41	44041.86
564.57	44123.78
564.74	44409.32
564.90	44179.95
565.07	44079.31
565.23	44318.04
565.39	43618.22
565.56	43854.62
565.72	44374.22
565.88	43997.39
566.05	43981.01
566.21	44203.36
566.38	44208.04
566.54	44491.24
566.70	44591.89
566.87	44776.79
567.03	44170.59
567.19	44446.77
567.36	44526.35
567.52	44088.67
567.68	44395.28
567.85	44608.27
568.01	44318.04
568.17	44858.71
568.34	44201.02
568.50	44423.37
568.66	44149.53
568.83	44406.98
568.99	44329.75
569.15	44477.20
569.32	43828.87
569.48	44259.53
569.64	44327.41
569.81	44608.27
569.97	44540.39
570.13	44580.18
570.30	44196.34
570.46	44161.23
570.62	44357.83
570.78	44217.40
570.95	43941.22
571.11	44493.58
571.27	44414.01
571.43	44128.46
571.60	44701.89
571.76	44481.88
571.92	44392.94
572.09	44435.07
572.25	44687.85
572.41	43920.15
572.57	44409.32
572.74	44905.52
572.90	44753.38
573.06	44996.80
573.22	44676.15
573.38	44610.61
573.55	44353.15
573.71	44439.75
573.87	44624.65
574.03	44044.20
574.20	44580.18
574.36	44451.45
574.52	44786.15
574.68	45155.96
574.84	44423.37
575.01	44222.08
575.17	44509.97
575.33	44556.78
575.49	44554.44
575.65	44734.66
575.82	45001.48
575.98	44282.94
576.14	44968.71
576.30	44966.37
576.46	44430.39
576.62	44879.77
576.79	44418.69
576.95	44041.86
577.11	44296.98
577.27	44999.14
577.43	45017.86
577.59	44514.65
577.75	44898.50
577.92	44128.46
578.08	44409.32
578.24	44683.17
578.40	44748.70
578.56	45067.02
578.72	44699.55
578.88	45001.48
579.04	44823.60
579.21	44608.27
579.37	44589.55
579.53	44753.38
579.69	44479.54
579.85	44715.93
580.01	44671.46
580.17	44657.42
580.33	44385.92
580.49	44804.88
580.65	44753.38
580.82	44912.54
580.98	45083.40
581.14	44411.67
581.30	44741.68
581.46	45024.89
581.62	44788.49
581.78	44961.69
581.94	45083.40
582.10	44729.98
582.26	44577.84
582.42	44692.53
582.58	44629.34
582.74	44886.79
582.90	44554.44
583.06	45221.49
583.22	44818.92
583.38	44746.36
583.54	44753.38
583.70	44671.46
583.86	44465.50
584.02	44706.57
584.18	44790.83
584.34	44605.93
584.50	44547.42
584.66	44470.18
584.82	44954.67
584.98	44804.88
585.14	45036.59
585.30	44933.60
585.46	44947.65
585.62	44942.97
585.78	44566.14
585.94	44500.61
586.10	44552.10
586.26	44648.06
586.42	44463.16
586.58	44886.79
586.74	44847.00
586.90	44851.69
587.06	44502.95
587.22	44727.64
587.38	44673.81
587.54	44844.66
587.70	45427.46
587.86	45322.13
588.02	45221.49
588.18	44945.31
588.34	44556.78
588.49	44987.44
588.65	44622.31
588.81	44720.62
588.97	44505.29
589.13	45116.17
589.29	44793.17
589.45	44832.96
589.61	44650.40
589.77	44992.12
589.93	44849.35
590.08	45544.48
590.24	45022.54
