SpectraSuite Data File
++++++++++++++++++++++++++++++++++++
Date: Fri Oct 25 11:33:57 EDT 2013
User: price-jones
Dark Spectrum Present: No
Reference Spectrum Present: No
Number of Sampled Component Spectra: 1
Spectrometers: USB2+H05261
Integration Time (usec): 100000 (USB2+H05261)
Spectra Averaged: 1 (USB2+H05261)
Boxcar Smoothing: 0 (USB2+H05261)
Correct for Electrical Dark: No (USB2+H05261)
Strobe/Lamp Enabled: No (USB2+H05261)
Correct for Detector Non-linearity: No (USB2+H05261)
Correct for Stray Light: No (USB2+H05261)
Number of Pixels in Processed Spectrum: 2048
>>>>>Begin Processed Spectral Data<<<<<
365.73	327.68
365.92	327.68
366.12	327.68
366.32	142.77
366.52	198.95
366.72	212.99
366.91	273.84
367.11	229.37
367.31	140.43
367.51	140.43
367.70	159.16
367.90	166.18
368.10	119.37
368.30	238.73
368.49	86.60
368.69	241.08
368.89	152.13
369.09	168.52
369.28	142.77
369.48	138.09
369.68	215.33
369.87	273.84
370.07	257.46
370.27	212.99
370.47	360.44
370.66	482.15
370.86	517.26
371.06	568.75
371.25	585.13
371.45	498.53
371.65	533.64
371.84	594.50
372.04	472.79
372.24	540.66
372.44	643.65
372.63	641.31
372.83	667.05
373.03	554.71
373.22	620.24
373.42	622.58
373.62	655.35
373.81	631.94
374.01	594.50
374.21	627.26
374.40	638.97
374.60	641.31
374.79	645.99
374.99	667.05
375.19	641.31
375.38	713.86
375.58	683.44
375.78	695.14
375.97	688.12
376.17	681.10
376.37	615.56
376.56	645.99
376.76	636.63
376.95	744.29
377.15	674.07
377.35	709.18
377.54	676.41
377.74	676.41
377.93	603.86
378.13	683.44
378.33	645.99
378.52	725.57
378.72	753.65
378.91	786.42
379.11	690.46
379.31	704.50
379.50	631.94
379.70	653.01
379.89	648.33
380.09	711.52
380.28	739.61
380.48	725.57
380.68	727.91
380.87	781.74
381.07	737.27
381.26	758.33
381.46	770.04
381.65	748.97
381.85	746.63
382.04	819.19
382.24	706.84
382.43	812.17
382.63	767.70
382.83	861.32
383.02	777.06
383.22	863.66
383.41	826.21
383.61	870.68
383.80	802.80
384.00	765.36
384.19	802.80
384.39	814.51
384.58	737.27
384.78	807.48
384.97	788.76
385.17	849.61
385.36	814.51
385.56	851.96
385.75	837.91
385.95	821.53
386.14	940.90
386.34	849.61
386.53	875.36
386.72	816.85
386.92	828.55
387.11	938.55
387.31	875.36
387.50	784.08
387.70	891.74
387.89	858.98
388.09	866.00
388.28	870.68
388.48	903.45
388.67	936.21
388.86	1011.11
389.06	945.58
389.25	947.92
389.45	901.11
389.64	891.74
389.84	959.62
390.03	1013.45
390.22	1001.75
390.42	983.02
390.61	905.79
390.81	1036.86
391.00	971.32
391.19	1006.43
391.39	950.26
391.58	945.58
391.78	978.34
391.97	1053.24
392.16	1020.47
392.36	1100.05
392.55	1097.71
392.75	1011.11
392.94	1048.56
393.13	1083.67
393.33	1008.77
393.52	1050.90
393.71	1144.52
393.91	1177.29
394.10	1074.31
394.29	1036.86
394.49	1039.20
394.68	1226.44
394.88	1149.20
395.07	1130.48
395.26	1163.25
395.46	1174.95
395.65	1210.06
395.84	1083.67
396.04	1181.97
396.23	1200.69
396.42	1184.31
396.62	1284.95
396.81	1196.01
397.00	1167.93
397.19	1163.25
397.39	1235.80
397.58	1196.01
397.77	1226.44
397.97	1254.53
398.16	1268.57
398.35	1350.49
398.55	1341.13
398.74	1366.87
398.93	1275.59
399.12	1193.67
399.32	1345.81
399.51	1233.46
399.70	1329.42
399.90	1296.66
400.09	1366.87
400.28	1462.83
400.47	1315.38
400.67	1448.79
400.86	1392.62
401.05	1329.42
401.24	1392.62
401.44	1411.34
401.63	1481.56
401.82	1488.58
402.01	1453.47
402.21	1502.62
402.40	1401.98
402.59	1462.83
402.78	1451.13
402.97	1570.50
403.17	1497.94
403.36	1469.86
403.55	1528.37
403.74	1638.38
403.93	1549.43
404.13	1519.01
404.32	1549.43
404.51	1533.05
404.70	1696.89
404.89	1710.93
405.09	1614.97
405.28	1621.99
405.47	1675.82
405.66	1797.53
405.85	1654.76
406.05	1645.40
406.24	1682.85
406.43	1762.42
406.62	1811.57
406.81	1895.83
407.00	1832.64
407.20	1701.57
407.39	1795.19
407.58	1898.17
407.77	1748.38
407.96	1816.26
408.15	1865.41
408.34	1832.64
408.54	1905.20
408.73	1853.70
408.92	1944.99
409.11	1930.94
409.30	2012.86
409.49	1954.35
409.68	1942.64
409.87	2094.78
410.07	2099.46
410.26	2033.93
410.45	1914.56
410.64	2134.57
410.83	2188.40
411.02	2104.14
411.21	2202.44
411.40	2101.80
411.59	2134.57
411.78	2228.19
411.98	2272.66
412.17	2190.74
412.36	2249.25
412.55	2153.29
412.74	2338.20
412.93	2310.11
413.12	2223.51
413.31	2361.60
413.50	2324.15
413.69	2289.04
413.88	2408.41
414.07	2377.98
414.26	2443.52
414.45	2480.97
414.64	2541.82
414.83	2541.82
415.02	2616.72
415.22	2597.99
415.41	2565.23
415.60	2684.59
415.79	2771.19
415.98	2551.18
416.17	2750.13
416.36	2686.94
416.55	2675.23
416.74	2654.17
416.93	2836.73
417.12	2715.02
417.31	2806.30
417.50	2942.05
417.69	2733.75
417.88	2932.69
418.07	2871.84
418.26	2991.20
418.45	3028.65
418.64	3112.91
418.83	2944.39
419.02	3002.91
419.21	3155.04
419.39	3080.14
419.58	3087.17
419.77	3070.78
419.96	3035.67
420.15	3045.04
420.34	3054.40
420.53	3103.55
420.72	3136.32
420.91	3251.00
421.10	3276.75
421.29	3164.40
421.48	3241.64
421.67	3253.34
421.86	3262.71
422.05	3269.73
422.24	3265.05
422.43	3375.05
422.61	3262.71
422.80	3290.79
422.99	3412.50
423.18	3246.32
423.37	3307.18
423.56	3520.17
423.75	3353.99
423.94	3243.98
424.13	3211.22
424.32	3286.11
424.50	3517.83
424.69	3569.32
424.88	3478.04
425.07	3370.37
425.26	3445.27
425.45	3461.65
425.64	3433.57
425.83	3419.52
426.01	3452.29
426.20	3377.39
426.39	3487.40
426.58	3438.25
426.77	3538.89
426.96	3501.44
427.15	3346.97
427.33	3555.27
427.52	3576.34
427.71	3630.17
427.90	3602.08
428.09	3569.32
428.28	3632.51
428.46	3585.70
428.65	3616.13
428.84	3740.18
429.03	3721.45
429.22	3616.13
429.40	3716.77
429.59	3550.59
429.78	3672.30
429.97	3632.51
430.16	3791.67
430.34	3749.54
430.53	3925.08
430.72	3934.44
430.91	3920.40
431.10	3887.63
431.28	3946.14
431.47	3981.25
431.66	4030.40
431.85	3918.06
432.03	4070.19
432.22	3981.25
432.41	4035.08
432.60	4044.45
432.79	3950.82
432.97	4086.58
433.16	4072.53
433.35	4131.05
433.54	4145.09
433.72	4142.75
433.91	4081.89
434.10	4212.96
434.28	4046.79
434.47	4234.03
434.66	4250.41
434.85	4276.16
435.03	4351.06
435.22	4304.25
435.41	4418.93
435.59	4423.61
435.78	4358.08
435.97	4346.37
436.16	4432.97
436.34	4360.42
436.53	4465.74
436.72	4608.51
436.90	4269.14
437.09	4470.42
437.28	4482.13
437.46	4526.60
437.65	4526.60
437.84	4531.28
438.02	4498.51
438.21	4489.15
438.40	4559.36
438.58	4765.33
438.77	4582.77
438.96	4697.46
439.14	4725.54
439.33	4676.39
439.52	4830.87
439.70	4873.00
439.89	4929.17
440.08	5062.58
440.26	4940.87
440.45	4912.78
440.63	5025.13
440.82	5137.48
441.01	5081.30
441.19	5289.61
441.38	5275.57
441.57	5191.31
441.75	5331.74
441.94	5313.02
442.12	5453.45
442.31	5371.53
442.50	5394.93
442.68	5458.13
442.87	5430.04
443.05	5476.85
443.24	5369.19
443.43	5497.92
443.61	5401.96
443.80	5605.58
443.98	5518.98
444.17	5308.34
444.35	5589.20
444.54	5497.92
444.73	5551.75
444.91	5526.00
445.10	5584.52
445.28	5621.97
445.47	5467.49
445.65	5664.10
445.84	5619.63
446.02	5746.02
446.21	5603.24
446.39	5731.97
446.58	5654.73
446.77	5741.33
446.95	5675.80
447.14	5806.87
447.32	5785.80
447.51	5692.18
447.69	5668.78
447.88	5755.38
448.06	5680.48
448.25	5490.90
448.43	5930.92
448.62	5729.63
448.80	5774.10
448.99	5996.45
449.17	5914.53
449.36	5867.72
449.54	5905.17
449.73	5994.11
449.91	6136.88
450.10	5970.71
450.28	6160.29
450.46	6195.40
450.65	6139.23
450.83	6183.70
451.02	6066.67
451.20	6111.14
451.39	6040.92
451.57	6132.20
451.76	6176.67
451.94	6061.99
452.13	6380.30
452.31	6214.12
452.49	6157.95
452.68	6340.51
452.86	6260.93
453.05	6300.72
453.23	6483.28
453.42	6221.14
453.60	6377.96
453.78	6443.49
453.97	6157.95
454.15	6298.38
454.34	6298.38
454.52	6541.80
454.70	6548.82
454.89	6429.45
455.07	6530.09
455.26	6520.73
455.44	6705.63
455.62	6558.18
455.81	6616.69
455.99	6703.29
456.17	6841.39
456.36	6813.30
456.54	6656.48
456.73	6972.46
456.91	7042.67
457.09	6953.73
457.28	7089.48
457.46	7009.90
457.64	7005.22
457.83	7068.42
458.01	7030.97
458.19	7194.81
458.38	7094.16
458.56	7171.40
458.74	7094.16
458.93	7171.40
459.11	7094.16
459.29	7068.42
459.48	7328.22
459.66	7260.34
459.84	7241.62
460.03	7487.37
460.21	7414.82
460.39	7335.24
460.57	7283.75
460.76	7452.27
460.94	7412.48
461.12	7330.56
461.31	7482.69
461.49	7536.52
461.67	7351.62
461.85	7712.07
462.04	7492.05
462.22	7960.16
462.40	7721.43
462.59	7758.88
462.77	7611.42
462.95	7784.62
463.13	7714.41
463.32	7854.84
463.50	7709.72
463.68	7796.32
463.86	7845.48
464.05	7531.84
464.23	7765.90
464.41	7932.08
464.59	7761.22
464.78	8018.68
464.96	8023.36
465.14	7838.45
465.32	7974.21
465.50	8072.51
465.69	7941.44
465.87	8084.21
466.05	8077.19
466.23	8145.06
466.41	8084.21
466.60	8215.28
466.78	8079.53
466.96	7997.61
467.14	7999.95
467.32	8217.62
467.51	8540.61
467.69	7913.35
467.87	8229.32
468.05	8348.69
468.23	8102.93
468.41	8241.03
468.60	8355.71
468.78	8542.96
468.96	8376.78
469.14	8512.53
469.32	8526.57
469.50	8456.36
469.69	8603.81
469.87	8510.19
470.05	8615.51
470.23	8526.57
470.41	8697.43
470.59	8734.88
470.77	8652.96
470.95	8706.79
471.14	8975.95
471.32	8849.57
471.50	8898.72
471.68	9043.83
471.86	9097.66
472.04	9004.04
472.22	9156.18
472.40	8896.38
472.58	9090.64
472.77	9088.30
472.95	9287.25
473.13	9640.67
473.31	9202.99
473.49	9394.91
473.67	9245.12
473.85	9514.28
474.03	9497.89
474.21	9626.62
474.39	9764.72
474.57	9596.20
474.75	9921.53
474.93	9935.57
475.12	9895.78
475.30	9907.49
475.48	9696.84
475.66	9912.17
475.84	9806.84
476.02	9989.41
476.20	10228.14
476.38	10253.89
476.56	10501.98
476.74	10464.54
476.92	10424.75
477.10	10296.02
477.28	10600.29
477.46	10560.50
477.64	10647.10
477.82	10820.30
478.00	11138.61
478.18	11033.29
478.36	11133.93
478.54	10874.13
478.72	11243.93
478.90	11592.67
479.08	11597.35
479.26	11552.88
479.44	11646.51
479.62	11566.93
479.80	11693.32
479.98	12056.10
480.16	12175.47
480.34	12107.59
480.52	12088.87
480.70	11964.82
480.88	11978.86
481.06	12011.63
481.24	12367.39
481.41	12475.06
481.59	12802.73
481.77	12629.53
481.95	12826.14
482.13	12809.75
482.31	12711.45
482.49	13280.20
482.67	13247.43
482.85	13355.10
483.03	13408.93
483.21	13554.04
483.39	13518.93
483.57	13547.02
483.74	13902.78
483.92	13998.74
484.10	13788.10
484.28	14382.59
484.46	14216.41
484.64	14436.42
484.82	14338.12
485.00	14328.76
485.18	14780.48
485.35	14867.08
485.53	14808.57
485.71	15054.33
485.89	15349.23
486.07	15304.76
486.25	15295.40
486.43	15328.17
486.61	15543.50
486.78	15742.44
486.96	15667.55
487.14	16184.80
487.32	16065.44
487.50	16493.76
487.68	16566.31
487.85	16578.01
488.03	16671.64
488.21	16659.93
488.39	16926.75
488.57	16748.87
488.75	16858.88
488.92	17172.51
489.10	17390.18
489.28	17717.86
489.46	17731.90
489.64	17282.52
489.81	18005.74
489.99	18218.73
490.17	18176.60
490.35	18047.87
490.53	18408.31
490.70	18462.15
490.88	18115.75
491.06	18820.25
491.24	18504.28
491.41	18909.19
491.59	18956.00
491.77	19098.77
491.95	19550.49
492.13	19393.68
492.30	19370.27
492.48	19360.91
492.66	19693.27
492.84	19555.18
493.01	19906.26
493.19	19917.96
493.37	20100.52
493.54	20475.01
493.72	20245.63
493.90	20294.79
494.08	20367.34
494.25	20718.42
494.43	20739.49
494.61	20966.52
494.79	21184.19
494.96	20943.11
495.14	21287.17
495.32	21345.69
495.49	21474.42
495.67	21441.65
495.85	21879.33
496.02	21970.61
496.20	22370.84
496.38	22148.49
496.55	22169.55
496.73	22679.79
496.91	22429.35
497.09	22328.71
497.26	22415.31
497.44	22422.33
497.62	22623.62
497.79	23384.29
497.97	23140.88
498.14	23506.00
498.32	23599.62
498.50	23866.44
498.67	23735.37
498.85	23529.41
499.03	23857.08
499.20	24034.96
499.38	23943.68
499.56	23910.91
499.73	24044.32
499.91	24210.50
500.08	24362.64
500.26	24587.33
500.44	24388.38
500.61	24772.23
500.79	24514.77
500.97	24716.06
501.14	24989.90
501.32	25081.18
501.49	25064.80
501.67	25099.90
501.84	25518.86
502.02	25238.00
502.20	25553.97
502.37	25448.64
502.55	25415.88
502.72	25591.42
502.90	25825.47
503.07	25734.19
503.25	25678.02
503.43	25841.85
503.60	26171.87
503.78	26258.47
503.95	26398.90
504.13	26211.66
504.30	26043.14
504.48	26288.90
504.65	26326.35
504.83	26824.88
505.01	26878.71
505.18	26939.57
505.36	26841.26
505.53	27023.83
505.71	27335.12
505.88	27480.23
506.06	27192.34
506.23	27267.24
506.41	27414.69
506.58	27592.58
506.76	27536.40
506.93	27665.13
507.11	27850.03
507.28	28070.04
507.46	28325.16
507.63	27929.61
507.81	28603.69
507.98	28095.79
508.16	28364.95
508.33	28601.35
508.50	28435.17
508.68	28711.35
508.85	28978.17
509.03	28496.02
509.20	28863.49
509.38	28819.02
509.55	28709.01
509.73	29142.01
509.90	29172.44
510.08	29378.40
510.25	29303.51
510.42	29256.70
510.60	29530.54
510.77	29745.87
510.95	29415.85
511.12	29530.54
511.30	29837.15
511.47	30101.63
511.64	29780.98
511.82	30059.50
511.99	29900.34
512.17	30340.36
512.34	30274.83
512.51	30108.65
512.69	30174.19
512.86	30478.46
513.04	30340.36
513.21	30501.86
513.38	30740.60
513.56	31007.42
513.73	30909.11
513.90	30946.56
514.08	31084.65
514.25	31510.63
514.43	31571.49
514.60	31307.01
514.77	31101.04
514.95	31587.87
515.12	31117.42
515.29	31213.38
515.47	31775.11
515.64	31594.89
515.81	31683.83
515.99	31990.44
516.16	32219.81
516.33	31828.95
516.51	31995.12
516.68	31847.67
516.85	32088.74
517.03	32332.16
517.20	32350.88
517.37	32130.87
517.54	32383.65
517.72	32694.94
517.89	32376.63
518.06	32732.39
518.24	32854.10
518.41	32840.06
518.58	32847.08
518.75	33006.23
518.93	33130.28
519.10	33160.71
519.27	33326.89
519.45	33397.10
519.62	33146.67
519.79	33469.66
519.96	33134.96
520.14	33567.96
520.31	33427.53
520.48	33872.23
520.65	33556.26
520.83	34398.85
521.00	33797.34
521.17	33689.67
521.34	34132.03
521.52	34340.34
521.69	34094.58
521.86	34249.06
522.03	33886.28
522.20	34422.26
522.38	34513.54
522.55	34609.50
522.72	34462.05
522.89	34932.50
523.07	35166.55
523.24	34609.50
523.41	34930.16
523.58	34679.72
523.75	35232.08
523.92	34991.01
524.10	35150.17
524.27	35384.22
524.44	35459.12
524.61	35585.50
524.78	35599.55
524.96	35428.69
525.13	35838.28
525.30	35576.14
525.47	36313.41
525.64	35709.55
525.81	35805.52
525.98	36098.08
526.16	35880.41
526.33	35576.14
526.50	36161.28
526.67	36044.25
526.84	36439.80
527.01	36098.08
527.18	36112.13
527.36	36521.72
527.53	36636.41
527.70	36814.29
527.87	36470.23
528.04	36664.49
528.21	36549.81
528.38	36856.42
528.55	36835.35
528.72	36884.50
528.89	36697.26
529.07	36732.37
529.24	36910.25
529.41	37111.53
529.58	37029.62
529.75	36727.69
529.92	37031.96
530.09	37338.57
530.26	37490.70
530.43	37556.24
530.60	36994.51
530.77	37247.29
530.94	37570.28
531.11	37464.96
531.28	37743.48
531.46	37794.97
531.63	37965.83
531.80	37563.26
531.97	37626.45
532.14	38054.77
532.31	38068.81
532.48	38298.19
532.65	38033.71
532.82	37879.23
532.99	38230.31
533.16	38251.38
533.33	38401.17
533.50	38717.14
533.67	38230.31
533.84	38394.15
534.01	38478.41
534.18	38445.64
534.35	38705.44
534.52	38625.86
534.69	39070.56
534.86	38979.28
535.03	38770.97
535.20	39470.79
535.37	38866.94
535.54	39398.24
535.71	39082.27
535.88	39285.89
536.05	38909.07
536.22	39016.73
536.38	39019.07
536.55	39456.75
536.72	39571.44
536.89	38848.21
537.06	39218.02
537.23	39573.78
537.40	39761.02
537.57	39386.54
537.74	39428.66
537.91	39517.60
538.08	39931.88
538.25	39431.01
538.42	40210.40
538.59	39906.13
538.75	39866.34
538.92	39864.00
539.09	40402.33
539.26	39426.32
539.43	39941.24
539.60	40306.37
539.77	40311.05
539.94	40383.60
540.11	40486.59
540.28	40278.28
540.44	40563.82
540.61	40161.25
540.78	40334.45
540.95	40802.56
541.12	40184.66
541.29	40325.09
541.46	40774.47
541.62	41015.55
541.79	41090.44
541.96	40940.65
542.13	40446.80
542.30	41083.42
542.47	40842.35
542.63	40648.08
542.80	41076.40
542.97	41312.80
543.14	41373.65
543.31	41200.45
543.48	41209.81
543.64	42305.18
543.81	41509.40
543.98	41965.81
544.15	41221.52
544.32	41640.47
544.48	42361.36
544.65	41691.96
544.82	41813.67
544.99	41764.52
545.16	41808.99
545.32	41715.37
545.49	42012.62
545.66	42220.92
545.83	42080.49
546.00	42450.30
546.16	42162.41
546.33	41897.93
546.50	42078.15
546.67	42557.96
546.83	41867.50
547.00	41502.38
547.17	41778.56
547.34	42251.35
547.50	42745.20
547.67	43019.05
547.84	42403.49
548.00	42719.46
548.17	42740.52
548.34	42705.41
548.51	42747.54
548.67	42850.53
548.84	42948.83
549.01	42866.91
549.18	43065.86
549.34	43089.26
549.51	43136.07
549.68	43262.46
549.84	42700.73
550.01	43147.78
550.18	42749.88
550.34	43456.73
550.51	43217.99
550.68	43379.49
550.84	43339.70
551.01	43477.79
551.18	43115.01
551.34	43089.26
551.51	43391.19
551.68	43311.61
551.84	42712.44
552.01	43428.64
552.18	43370.13
552.34	43278.85
552.51	43608.86
552.68	43569.07
552.84	43643.97
553.01	43622.90
553.18	43498.86
553.34	43842.92
553.51	44023.14
553.67	44027.82
553.84	43948.24
554.01	43880.36
554.17	43971.64
554.34	44259.53
554.51	43709.50
554.67	44271.23
554.84	44252.51
555.00	44231.44
555.17	43576.09
555.33	44332.09
555.50	44694.87
555.67	44175.27
555.83	44320.38
556.00	44626.99
556.16	44722.96
556.33	44919.56
556.50	44619.97
556.66	44271.23
556.83	44076.97
556.99	44882.11
557.16	45043.61
557.32	44858.71
557.49	44587.21
557.65	44481.88
557.82	44545.08
557.98	44460.82
558.15	44610.61
558.32	45109.14
558.48	44809.56
558.65	44222.08
558.81	44832.96
558.98	45003.82
559.14	44678.49
559.31	44772.11
559.47	44804.88
559.64	44914.88
559.80	44921.90
559.97	45251.92
560.13	44795.51
560.30	44837.64
560.46	45567.89
560.63	45111.49
560.79	45184.04
560.96	45059.99
561.12	45174.68
561.29	45029.57
561.45	45177.02
561.61	45120.85
561.78	44851.69
561.94	45345.54
562.11	45322.13
562.27	44945.31
562.44	45212.13
562.60	45427.46
562.77	45170.00
562.93	45366.60
563.10	45390.01
563.26	45359.58
563.42	45741.09
563.59	45418.10
563.75	45390.01
563.92	45357.24
564.08	45507.04
564.24	45525.76
564.41	45392.35
564.57	45251.92
564.74	45940.04
564.90	45748.11
565.07	45556.19
565.23	45591.30
565.39	46094.51
565.56	45986.85
565.72	45855.78
565.88	45982.16
566.05	45722.37
566.21	45610.02
566.38	45769.18
566.54	45794.92
566.70	46148.34
566.87	45766.84
567.03	45251.92
567.19	46138.98
567.36	46129.62
567.52	45785.56
567.68	46309.84
567.85	45853.44
568.01	46220.90
568.17	45904.93
568.34	46080.47
568.50	46085.15
568.66	45902.59
568.83	46096.85
568.99	46256.01
569.15	45858.12
569.32	46099.19
569.48	46066.42
569.64	46466.66
569.81	45970.46
569.97	46429.21
570.13	46192.81
570.30	45951.74
570.46	46178.77
570.62	46272.39
570.78	45745.77
570.95	45736.41
571.11	46459.63
571.27	46363.67
571.43	46380.06
571.60	46120.26
571.76	45780.88
571.92	45975.14
572.09	46546.23
572.25	45762.15
572.41	45956.42
572.57	46284.09
572.74	46564.96
572.90	46298.14
573.06	46459.63
573.22	46611.77
573.38	46700.71
573.55	46597.73
573.71	47040.09
573.87	46543.89
574.03	46361.33
574.20	47014.34
574.36	46284.09
574.52	46513.47
574.68	46181.11
574.84	46564.96
575.01	46522.83
575.17	46557.94
575.33	46550.91
575.49	46499.42
575.65	46770.93
575.82	46279.41
575.98	46681.98
576.14	46904.34
576.30	47075.19
576.46	46553.26
576.62	46564.96
576.79	46586.02
576.95	46494.74
577.11	46295.80
577.27	46848.16
577.43	46380.06
577.59	46621.13
577.75	46330.90
577.92	46286.43
578.08	46717.09
578.24	46190.47
578.40	46714.75
578.56	46469.00
578.72	46756.88
578.88	46824.76
579.04	46787.31
579.21	46593.04
579.37	47129.03
579.53	46808.37
579.69	46894.97
579.85	46911.36
580.01	46663.26
580.17	46443.25
580.33	46731.14
580.49	46878.59
580.65	46333.24
580.82	46590.70
580.98	46759.22
581.14	46845.82
581.30	46756.88
581.46	46733.48
581.62	46562.62
581.78	46621.13
581.94	46979.23
582.10	46981.57
582.26	46880.93
582.42	47009.66
582.58	46909.02
582.74	46817.74
582.90	46714.75
583.06	47054.13
583.22	46604.75
583.38	46866.89
583.54	47077.54
583.70	47173.50
583.86	47297.55
584.02	46768.58
584.18	47253.08
584.34	46946.47
584.50	47089.24
584.66	47185.20
584.82	46747.52
584.98	47334.99
585.14	47138.39
585.30	46859.87
585.46	46653.90
585.62	46871.57
585.78	47079.88
585.94	46490.06
586.10	46766.24
586.26	46284.09
586.42	46714.75
586.58	46824.76
586.74	46581.34
586.90	46597.73
587.06	46997.96
587.22	47175.84
587.38	46920.72
587.54	47229.67
587.70	47533.94
587.86	47255.42
588.02	46946.47
588.18	46944.12
588.34	47196.90
588.49	47182.86
588.65	47133.71
588.81	47152.43
588.97	47086.90
589.13	46890.29
589.29	47061.15
589.45	46960.51
589.61	47178.18
589.77	47555.00
589.93	46958.17
590.08	47304.57
