SpectraSuite Data File
++++++++++++++++++++++++++++++++++++
Date: Fri Oct 25 10:48:11 EDT 2013
User: price-jones
Dark Spectrum Present: No
Reference Spectrum Present: No
Number of Sampled Component Spectra: 1
Spectrometers: USB2+H05261
Integration Time (usec): 100000 (USB2+H05261)
Spectra Averaged: 1 (USB2+H05261)
Boxcar Smoothing: 0 (USB2+H05261)
Correct for Electrical Dark: No (USB2+H05261)
Strobe/Lamp Enabled: No (USB2+H05261)
Correct for Detector Non-linearity: No (USB2+H05261)
Correct for Stray Light: No (USB2+H05261)
Number of Pixels in Processed Spectrum: 2048
>>>>>Begin Processed Spectral Data<<<<<
365.73	149.79
365.92	149.79
366.12	149.79
366.32	88.94
366.52	49.15
366.72	7.02
366.91	39.79
367.11	147.45
367.31	60.85
367.51	98.30
367.70	65.54
367.90	9.36
368.10	81.92
368.30	37.45
368.49	49.15
368.69	105.32
368.89	0.00
369.09	70.22
369.28	35.11
369.48	128.73
369.68	112.35
369.87	131.07
370.07	110.01
370.27	196.60
370.47	227.03
370.66	395.55
370.86	472.79
371.06	395.55
371.25	416.62
371.45	428.32
371.65	435.34
371.84	409.59
372.04	416.62
372.24	486.83
372.44	456.40
372.63	507.90
372.83	519.60
373.03	550.03
373.22	559.39
373.42	535.98
373.62	493.85
373.81	486.83
374.01	554.71
374.21	533.64
374.40	540.66
374.60	620.24
374.79	554.71
374.99	580.45
375.19	559.39
375.38	585.13
375.58	603.86
375.78	580.45
375.97	573.43
376.17	645.99
376.37	540.66
376.56	552.37
376.76	610.88
376.95	566.41
377.15	636.63
377.35	585.13
377.54	599.18
377.74	664.71
377.93	622.58
378.13	606.20
378.33	648.33
378.52	664.71
378.72	582.79
378.91	667.05
379.11	697.48
379.31	645.99
379.50	585.13
379.70	594.50
379.89	664.71
380.09	610.88
380.28	620.24
380.48	667.05
380.68	615.56
380.87	617.90
381.07	723.23
381.26	690.46
381.46	683.44
381.65	645.99
381.85	608.54
382.04	718.54
382.24	667.05
382.43	699.82
382.63	786.42
382.83	657.69
383.02	709.18
383.22	702.16
383.41	692.80
383.61	653.01
383.80	781.74
384.00	681.10
384.19	692.80
384.39	777.06
384.58	744.29
384.78	751.31
384.97	788.76
385.17	809.83
385.36	758.33
385.56	723.23
385.75	746.63
385.95	760.67
386.14	863.66
386.34	791.10
386.53	802.80
386.72	751.31
386.92	791.10
387.11	837.91
387.31	863.66
387.50	812.17
387.70	894.08
387.89	767.70
388.09	828.55
388.28	770.04
388.48	812.17
388.67	884.72
388.86	837.91
389.06	880.04
389.25	945.58
389.45	898.77
389.64	912.81
389.84	837.91
390.03	938.55
390.22	933.87
390.42	938.55
390.61	933.87
390.81	994.73
391.00	905.79
391.19	978.34
391.39	990.05
391.58	1022.81
391.78	945.58
391.97	945.58
392.16	1036.86
392.36	1015.79
392.55	964.30
392.75	952.60
392.94	947.92
393.13	912.81
393.33	858.98
393.52	1043.88
393.71	1064.94
393.91	1097.71
394.10	1055.58
394.29	1041.54
394.49	1125.80
394.68	1118.78
394.88	1158.57
395.07	1114.10
395.26	1109.41
395.46	1196.01
395.65	1139.84
395.84	1207.72
396.04	1224.10
396.23	1128.14
396.42	1132.82
396.62	1153.88
396.81	1142.18
397.00	1128.14
397.19	1212.40
397.39	1256.87
397.58	1289.64
397.77	1331.76
397.97	1160.91
398.16	1282.61
398.35	1233.46
398.55	1352.83
398.74	1357.51
398.93	1196.01
399.12	1315.38
399.32	1308.36
399.51	1315.38
399.70	1348.15
399.90	1401.98
400.09	1380.92
400.28	1329.42
400.47	1383.26
400.67	1327.08
400.86	1451.13
401.05	1519.01
401.24	1523.69
401.44	1526.03
401.63	1486.24
401.82	1460.49
402.01	1507.30
402.21	1554.12
402.40	1563.48
402.59	1596.25
402.78	1596.25
402.97	1607.95
403.17	1696.89
403.36	1584.54
403.55	1633.69
403.74	1577.52
403.93	1610.29
404.13	1659.44
404.32	1626.67
404.51	1668.80
404.70	1732.00
404.89	1652.42
405.09	1736.68
405.28	1664.12
405.47	1746.04
405.66	1809.23
405.85	1727.32
406.05	1734.34
406.24	1762.42
406.43	1797.53
406.62	1804.55
406.81	1783.49
407.00	1872.43
407.20	1806.89
407.39	1851.36
407.58	1832.64
407.77	1881.79
407.96	1905.20
408.15	1895.83
408.34	1966.05
408.54	2012.86
408.73	2005.84
408.92	1996.48
409.11	1994.14
409.30	1989.46
409.49	2085.42
409.68	2033.93
409.87	2085.42
410.07	2172.02
410.26	2150.95
410.45	2127.55
410.64	2125.21
410.83	2073.71
411.02	2265.64
411.21	2162.66
411.40	2340.54
411.59	2282.02
411.78	2324.15
411.98	2403.73
412.17	2282.02
412.36	2352.24
412.55	2399.05
412.74	2480.97
412.93	2462.24
413.12	2424.80
413.31	2555.86
413.50	2623.74
413.69	2546.50
413.88	2572.25
414.07	2520.76
414.26	2590.97
414.45	2583.95
414.64	2649.49
414.83	2693.96
415.02	2684.59
415.22	2846.09
415.41	2827.37
415.60	2750.13
415.79	2832.05
415.98	2951.42
416.17	2820.35
416.36	2942.05
416.55	2850.77
416.74	2942.05
416.93	2935.03
417.12	2951.42
417.31	3096.53
417.50	2930.35
417.69	3115.25
417.88	2995.89
418.07	3052.06
418.26	2958.44
418.45	3070.78
418.64	3197.17
418.83	3173.77
419.02	3201.85
419.21	3180.79
419.39	3112.91
419.58	3197.17
419.77	3185.47
419.96	3241.64
420.15	3318.88
420.34	3276.75
420.53	3349.31
420.72	3447.61
420.91	3342.28
421.10	3400.80
421.29	3494.42
421.48	3370.37
421.67	3377.39
421.86	3304.84
422.05	3386.76
422.24	3426.54
422.43	3330.58
422.61	3473.36
422.80	3456.97
422.99	3590.38
423.18	3543.57
423.37	3501.44
423.56	3478.04
423.75	3372.71
423.94	3555.27
424.13	3382.07
424.32	3468.67
424.50	3433.57
424.69	3674.64
424.88	3681.66
425.07	3499.10
425.26	3613.79
425.45	3503.78
425.64	3522.51
425.83	3747.20
426.01	3499.10
426.20	3576.34
426.39	3501.44
426.58	3538.89
426.77	3543.57
426.96	3499.10
427.15	3639.53
427.33	3721.45
427.52	3648.90
427.71	3693.37
427.90	3889.97
428.09	3742.52
428.28	3775.28
428.46	3779.97
428.65	3817.41
428.84	4037.42
429.03	3815.07
429.22	3913.38
429.40	3831.46
429.59	3864.22
429.78	3733.15
429.97	3740.18
430.16	3644.21
430.34	3836.14
430.53	3843.16
430.72	3833.80
430.91	3936.78
431.10	3906.35
431.28	4025.72
431.47	4189.56
431.66	4114.66
431.85	4067.85
432.03	4072.53
432.22	4255.09
432.41	4168.49
432.60	4278.50
432.79	4156.79
432.97	4241.05
433.16	4283.18
433.35	4329.99
433.54	4273.82
433.72	4264.46
433.91	4091.26
434.10	4290.20
434.28	4196.58
434.47	4259.78
434.66	4432.97
434.85	4451.70
435.03	4470.42
435.22	4325.31
435.41	4542.98
435.59	4564.04
435.78	4681.07
435.97	4601.49
436.16	4622.56
436.34	4547.66
436.53	4528.94
436.72	4793.42
436.90	4655.33
437.09	4580.43
437.28	4498.51
437.46	4741.93
437.65	4629.58
437.84	4781.71
438.02	4795.76
438.21	4753.63
438.40	4727.88
438.58	4870.65
438.77	5027.47
438.96	4849.59
439.14	5085.98
439.33	5102.37
439.52	4983.00
439.70	5081.30
439.89	5020.45
440.08	5088.32
440.26	5130.45
440.45	5214.71
440.63	5322.38
440.82	5376.21
441.01	5516.64
441.19	5343.44
441.38	5476.85
441.57	5528.35
441.75	5521.32
441.94	5692.18
442.12	5603.24
442.31	5682.82
442.50	5628.99
442.68	5596.22
442.87	5621.97
443.05	5830.27
443.24	5720.27
443.43	5717.93
443.61	5905.17
443.80	5893.47
443.98	5476.85
444.17	5617.29
444.35	5570.48
444.54	5839.64
444.73	5788.14
444.91	5844.32
445.10	5853.68
445.28	5738.99
445.47	5774.10
445.65	5870.06
445.84	5717.93
446.02	5788.14
446.21	5984.75
446.39	6038.58
446.58	6024.54
446.77	5968.37
446.95	5865.38
447.14	5746.02
447.32	6106.46
447.51	5856.02
447.69	6108.80
447.88	6052.63
448.06	6031.56
448.25	5977.73
448.43	6073.69
448.62	6111.14
448.80	5877.09
448.99	6104.12
449.17	5963.68
449.36	6069.01
449.54	6181.35
449.73	6169.65
449.91	6258.59
450.10	6335.83
450.28	6434.13
450.46	6523.07
450.65	6258.59
450.83	6410.73
451.02	6235.19
451.20	6628.40
451.39	6415.41
451.57	6408.39
451.76	6450.52
451.94	6511.37
452.13	6574.56
452.31	6363.92
452.49	6492.65
452.68	6539.46
452.86	6558.18
453.05	6604.99
453.23	6630.74
453.42	6466.90
453.60	6492.65
453.78	6658.82
453.97	6516.05
454.15	6499.67
454.34	6455.20
454.52	6874.15
454.70	6658.82
454.89	6600.31
455.07	6726.70
455.26	6745.42
455.44	6960.75
455.62	6780.53
455.81	7023.95
455.99	7126.93
456.17	6932.67
456.36	7129.27
456.54	7063.74
456.73	7148.00
456.91	7286.09
457.09	7276.73
457.28	7459.29
457.46	7255.66
457.64	7318.86
457.83	7283.75
458.01	7311.83
458.19	7363.33
458.38	7201.83
458.56	7393.75
458.74	7463.97
458.93	7513.12
459.11	7550.57
459.29	7494.40
459.48	7482.69
459.66	7485.03
459.84	7524.82
460.03	7606.74
460.21	7452.27
460.39	7555.25
460.57	7660.57
460.76	7667.60
460.94	7735.47
461.12	7737.81
461.31	7822.07
461.49	7906.33
461.67	7920.37
461.85	7817.39
462.04	7801.01
462.22	8376.78
462.40	8049.10
462.59	7939.10
462.77	7999.95
462.95	7831.43
463.13	8224.64
463.32	8133.36
463.50	8250.39
463.68	8248.05
463.86	8306.56
464.05	7960.16
464.23	8065.49
464.41	8105.28
464.59	8131.02
464.78	8491.46
464.96	8234.00
465.14	8107.62
465.32	8189.53
465.50	8304.22
465.69	8292.52
465.87	8425.93
466.05	8348.69
466.23	8416.57
466.41	8327.63
466.60	8564.02
466.78	8446.99
466.96	8402.52
467.14	8290.18
467.32	8547.64
467.51	8631.90
467.69	8329.97
467.87	8624.87
468.05	8809.78
468.23	8430.61
468.41	8599.13
468.60	8674.03
468.78	8491.46
468.96	8580.40
469.14	8685.73
469.32	8884.67
469.50	8629.56
469.69	8767.65
469.87	9039.15
470.05	9034.47
470.23	8952.55
470.41	8875.31
470.59	8894.04
470.77	8915.10
470.95	8945.53
471.14	9327.03
471.32	9006.38
471.50	9317.67
471.68	9280.22
471.86	9371.50
472.04	9322.35
472.22	9645.35
472.40	9343.42
472.58	9441.72
472.77	9397.25
472.95	9624.28
473.13	9769.40
473.31	9743.65
473.49	9488.53
473.67	9568.11
473.85	9664.07
474.03	10064.30
474.21	9916.85
474.39	10171.97
474.57	10094.73
474.75	10068.98
474.93	10188.35
475.12	10047.92
475.30	10115.80
475.48	10106.43
475.66	10253.89
475.84	10223.46
476.02	10520.71
476.20	10265.59
476.38	10530.07
476.56	10759.44
476.74	10647.10
476.92	10721.99
477.10	10729.02
477.28	11117.54
477.46	10820.30
477.64	10932.64
477.82	11250.96
478.00	11442.88
478.18	11283.72
478.36	11325.85
478.54	11492.03
478.72	11494.37
478.90	11714.38
479.08	11784.60
479.26	12095.89
479.44	11658.21
479.62	12102.91
479.80	12070.14
479.98	12315.90
480.16	12734.85
480.34	12327.60
480.52	12545.27
480.70	12688.04
480.88	12217.60
481.06	12690.38
481.24	12617.83
481.41	12786.35
481.59	13053.17
481.77	13259.13
481.95	13020.40
482.13	13371.48
482.31	13076.57
482.49	13476.80
482.67	13413.61
482.85	13549.36
483.03	13879.38
483.21	14092.37
483.39	14171.94
483.57	14118.11
483.74	14068.96
483.92	14324.08
484.10	14340.46
484.28	14415.36
484.46	14546.43
484.64	14951.34
484.82	14661.12
485.00	15061.35
485.18	15002.83
485.35	15281.36
485.53	14906.87
485.71	14855.38
485.89	15433.49
486.07	15241.57
486.25	15279.02
486.43	15421.79
486.61	15889.90
486.78	15740.10
486.96	15992.88
487.14	16201.19
487.32	16393.11
487.50	16400.13
487.68	16767.60
487.85	16676.32
488.03	17085.91
488.21	17018.04
488.39	17076.55
488.57	17308.26
488.75	17490.82
488.92	17275.49
489.10	17827.86
489.28	17710.83
489.46	17874.67
489.64	18125.11
489.81	18403.63
489.99	18457.46
490.17	18429.38
490.35	18782.80
490.53	18520.66
490.70	19084.73
490.88	18586.19
491.06	19028.56
491.24	18904.51
491.41	19096.43
491.59	18958.34
491.77	19229.84
491.95	19587.94
492.13	19599.65
492.30	19899.23
492.48	19894.55
492.66	19765.82
492.84	20168.40
493.01	20381.38
493.19	20130.95
493.37	20121.59
493.54	20397.77
493.72	21135.04
493.90	21036.74
494.08	20971.20
494.25	21387.82
494.43	20987.58
494.61	21757.62
494.79	21460.37
494.96	21708.47
495.14	21261.43
495.32	22150.83
495.49	21813.79
495.67	21788.05
495.85	22146.15
496.02	22422.33
496.20	22417.65
496.38	22448.08
496.55	22799.16
496.73	22813.20
496.91	22618.94
497.09	23115.13
497.26	23140.88
497.44	23190.03
497.62	23150.24
497.79	23384.29
497.97	23248.54
498.14	23517.70
498.32	23838.36
498.50	23810.27
498.67	23896.87
498.85	23924.96
499.03	24245.61
499.20	24191.78
499.38	24402.43
499.56	24343.91
499.73	24629.46
499.91	24318.17
500.08	24702.01
500.26	24402.43
500.44	24725.42
500.61	24458.60
500.79	24573.28
500.97	25092.88
501.14	25462.69
501.32	25214.59
501.49	25139.69
501.67	25549.29
501.84	25493.12
502.02	25376.09
502.20	25516.52
502.37	25905.05
502.55	25785.68
502.72	25937.82
502.90	26206.98
503.07	26106.34
503.25	26246.77
503.43	26263.15
503.60	26185.91
503.78	26316.98
503.95	26038.46
504.13	26492.52
504.30	26892.76
504.48	26429.33
504.65	26829.56
504.83	26834.24
505.01	26810.84
505.18	27098.72
505.36	27384.27
505.53	27213.41
505.71	27590.24
505.88	27473.21
506.06	27384.27
506.23	27283.62
506.41	27232.13
506.58	27314.05
506.76	27665.13
506.93	27861.74
507.11	28027.92
507.28	28133.24
507.46	28121.54
507.63	27819.61
507.81	28332.18
507.98	28067.70
508.16	28409.42
508.33	28158.99
508.50	28648.16
508.68	28765.18
508.85	28931.36
509.03	28868.17
509.20	29333.93
509.38	28933.70
509.55	28910.30
509.73	29149.03
509.90	29680.33
510.08	29486.07
510.25	29188.82
510.42	29530.54
510.60	29495.43
510.77	29493.09
510.95	29902.68
511.12	29476.71
511.30	29694.38
511.47	30033.75
511.64	30260.79
511.82	30015.03
511.99	29930.77
512.17	30251.42
512.34	29869.92
512.51	30284.19
512.69	30422.28
512.86	30632.93
513.04	30656.34
513.21	30541.65
513.38	30838.90
513.56	30548.67
513.73	30871.67
513.90	30988.69
514.08	30820.17
514.25	31178.28
514.43	30923.16
514.60	30892.73
514.77	31063.59
514.95	31360.84
515.12	31309.35
515.29	31562.12
515.47	31697.88
515.64	31913.20
515.81	31578.51
515.99	31915.54
516.16	31622.98
516.33	31761.07
516.51	31775.11
516.68	31590.21
516.85	31875.76
517.03	31800.86
517.20	32109.81
517.37	32259.60
517.54	32112.15
517.72	32346.20
517.89	32240.88
518.06	32163.64
518.24	31974.06
518.41	32278.33
518.58	32432.80
518.75	32184.71
518.93	33287.10
519.10	32699.62
519.27	32929.00
519.45	33123.26
519.62	33111.56
519.79	33001.55
519.96	33457.96
520.14	33544.56
520.31	33247.31
520.48	33600.73
520.65	33450.94
520.83	33757.55
521.00	33490.73
521.17	33546.90
521.34	33567.96
521.52	33694.35
521.69	33956.49
521.86	34068.84
522.03	34157.78
522.20	34129.69
522.38	34024.37
522.55	34663.33
522.72	34478.43
522.89	34466.73
523.07	34890.37
523.24	33923.72
523.41	34600.14
523.58	34326.30
523.75	34960.58
523.92	34707.80
524.10	34958.24
524.27	34782.70
524.44	34871.64
524.61	35386.56
524.78	35548.06
524.96	35414.65
525.13	35285.92
525.30	35669.76
525.47	35592.53
525.64	35550.40
525.81	35634.66
525.98	35353.79
526.16	35278.89
526.33	35278.89
526.50	35885.09
526.67	35641.68
526.84	35732.96
527.01	35339.75
527.18	35604.23
527.36	36048.93
527.53	35985.74
527.70	36374.27
527.87	36428.10
528.04	36259.58
528.21	36563.85
528.38	36224.47
528.55	36210.43
528.72	36613.00
528.89	36477.25
529.07	36252.56
529.24	36446.82
529.41	36882.16
529.58	36336.82
529.75	36343.84
529.92	37179.41
530.09	36795.56
530.26	37027.28
530.43	36921.95
530.60	36992.17
530.77	36488.95
530.94	36837.69
531.11	37397.08
531.28	37200.47
531.46	37179.41
531.63	37106.85
531.80	37617.09
531.97	37663.90
532.14	37457.93
532.31	37113.87
532.48	37759.86
532.65	37574.96
532.82	37862.85
532.99	37869.87
533.16	37689.65
533.33	37392.40
533.50	38108.60
533.67	38003.28
533.84	37935.40
534.01	37954.13
534.18	37937.74
534.35	38644.59
534.52	38522.88
534.69	38417.55
534.86	38216.27
535.03	37907.32
535.20	38745.23
535.37	38735.87
535.54	38918.43
535.71	38192.86
535.88	38462.02
536.05	38052.43
536.22	38555.64
536.38	38569.69
536.55	38646.93
536.72	38660.97
536.89	37919.02
537.06	38923.11
537.23	38937.15
537.40	38682.03
537.57	38682.03
537.74	39007.37
537.91	39098.65
538.08	39159.50
538.25	38630.54
538.42	38946.51
538.59	39171.21
538.75	38845.87
538.92	39690.80
539.09	39372.49
539.26	39428.66
539.43	39543.35
539.60	39419.30
539.77	39503.56
539.94	39646.33
540.11	39332.70
540.28	39632.29
540.44	39695.49
540.61	39377.17
540.78	39569.10
540.95	39484.84
541.12	39634.63
541.29	39803.15
541.46	39639.31
541.62	40116.78
541.79	40367.22
541.96	39627.61
542.13	39847.62
542.30	39990.39
542.47	40198.70
542.63	40114.44
542.80	40123.80
542.97	40458.50
543.14	40685.53
543.31	40577.87
543.48	40889.16
543.64	41427.48
543.81	40715.96
543.98	40849.37
544.15	40540.42
544.32	40788.52
544.48	40765.11
544.65	40767.45
544.82	40854.05
544.99	40587.23
545.16	40720.64
545.32	41134.92
545.49	41378.33
545.66	41413.44
545.83	41254.28
546.00	41507.06
546.16	41305.77
546.33	41413.44
546.50	40978.10
546.67	40999.16
546.83	40854.05
547.00	41109.17
547.17	40821.28
547.34	40924.27
547.50	41448.55
547.67	41710.69
547.84	41361.95
548.00	41926.02
548.17	41563.23
548.34	41708.35
548.51	42050.06
548.67	41865.16
548.84	41539.83
549.01	41612.38
549.18	41710.69
549.34	41968.15
549.51	42115.60
549.68	41876.86
549.84	42150.71
550.01	42335.61
550.18	42045.38
550.34	41947.08
550.51	42026.66
550.68	42043.04
550.84	41853.46
551.01	42415.19
551.18	42396.46
551.34	42087.51
551.51	42223.26
551.68	42349.65
551.84	42696.05
552.01	41902.61
552.18	42469.02
552.34	41818.35
552.51	42382.42
552.68	42417.53
552.84	42295.82
553.01	42997.98
553.18	42373.06
553.34	42579.03
553.51	42588.39
553.67	42698.39
553.84	42742.86
554.01	42897.34
554.17	42649.24
554.34	43157.14
554.51	42693.71
554.67	43019.05
554.84	42897.34
555.00	42703.07
555.17	42366.04
555.33	42993.30
555.50	42803.72
555.67	43201.61
555.83	42586.05
556.00	43225.01
556.16	43423.96
556.33	43246.08
556.50	43112.67
556.66	43374.81
556.83	42904.36
556.99	43496.52
557.16	43126.71
557.32	43655.67
557.49	43690.78
557.65	42902.02
557.82	43243.74
557.98	43213.31
558.15	43178.20
558.32	43440.34
558.48	43311.61
558.65	43248.42
558.81	43143.09
558.98	43091.60
559.14	43667.37
559.31	43459.07
559.47	43447.36
559.64	44156.55
559.80	43655.67
559.97	43716.53
560.13	43646.31
560.30	43583.12
560.46	43608.86
560.63	43487.15
560.79	44051.22
560.96	43920.15
561.12	43526.94
561.29	43709.50
561.45	43704.82
561.61	43716.53
561.78	43533.96
561.94	43269.48
562.11	43592.48
562.27	43292.89
562.44	43739.93
562.60	44079.31
562.77	44098.03
562.93	43922.49
563.10	44079.31
563.26	43805.47
563.42	44374.22
563.59	43828.87
563.75	43810.15
563.92	44079.31
564.08	44013.77
564.24	44348.47
564.41	43854.62
564.57	44020.80
564.74	44364.85
564.90	44130.80
565.07	43842.92
565.23	43931.86
565.39	44273.57
565.56	44105.06
565.72	43983.35
565.88	44233.78
566.05	44360.17
566.21	44168.25
566.38	44194.00
566.54	44027.82
566.70	44229.10
566.87	44594.23
567.03	44144.84
567.19	44514.65
567.36	44273.57
567.52	43737.59
567.68	44346.13
567.85	44275.91
568.01	45010.84
568.17	44051.22
568.34	44587.21
568.50	43849.94
568.66	44308.68
568.83	44226.76
568.99	44163.57
569.15	44460.82
569.32	44411.67
569.48	44109.74
569.64	44383.58
569.81	44516.99
569.97	44388.26
570.13	44767.43
570.30	44631.68
570.46	44240.81
570.62	44259.53
570.78	44034.84
570.95	44453.79
571.11	44580.18
571.27	44252.51
571.43	44512.31
571.60	44531.03
571.76	43943.56
571.92	44238.47
572.09	44432.73
572.25	44638.70
572.41	44226.76
572.57	44687.85
572.74	44739.34
572.90	44306.34
573.06	44516.99
573.22	44715.93
573.38	44186.97
573.55	44383.58
573.71	44868.07
573.87	44282.94
574.03	44102.71
574.20	44182.29
574.36	44226.76
574.52	44437.41
574.68	44612.95
574.84	44619.97
575.01	44280.60
575.17	44500.61
575.33	44500.61
575.49	44137.82
575.65	44985.10
575.82	44811.90
575.98	44500.61
576.14	44573.16
576.30	44938.29
576.46	44304.00
576.62	44470.18
576.79	44739.34
576.95	44463.16
577.11	44285.28
577.27	44788.49
577.43	44882.11
577.59	44626.99
577.75	44605.93
577.92	44325.07
578.08	44542.74
578.24	44280.60
578.40	44652.74
578.56	44671.46
578.72	44699.55
578.88	44182.29
579.04	44718.28
579.21	44453.79
579.37	44631.68
579.53	44390.60
579.69	44573.16
579.85	44769.77
580.01	44652.74
580.17	44851.69
580.33	45090.42
580.49	44893.82
580.65	44865.73
580.82	44758.06
580.98	44678.49
581.14	44479.54
581.30	44711.25
581.46	44596.57
581.62	44821.26
581.78	44603.59
581.94	45174.68
582.10	44680.83
582.26	44849.35
582.42	44800.19
582.58	44797.85
582.74	45120.85
582.90	44994.46
583.06	44931.26
583.22	45240.21
583.38	44596.57
583.54	44875.09
583.70	44753.38
583.86	44664.44
584.02	44346.13
584.18	44814.24
584.34	45118.51
584.50	44772.11
584.66	44395.28
584.82	44624.65
584.98	45184.04
585.14	45067.02
585.30	44577.84
585.46	44980.42
585.62	44552.10
585.78	45113.83
585.94	44243.15
586.10	44917.22
586.26	44449.11
586.42	45095.10
586.58	44921.90
586.74	44842.32
586.90	44596.57
587.06	44683.17
587.22	44701.89
587.38	44467.84
587.54	45055.31
587.70	45177.02
587.86	45013.18
588.02	45123.19
588.18	44985.10
588.34	44605.93
588.49	44617.63
588.65	44512.31
588.81	44769.77
588.97	44629.34
589.13	44580.18
589.29	44629.34
589.45	44978.07
589.61	44847.00
589.77	45333.84
589.93	44678.49
590.08	45373.63
590.24	45160.64
