SpectraSuite Data File
++++++++++++++++++++++++++++++++++++
Date: Fri Oct 25 10:48:03 EDT 2013
User: price-jones
Dark Spectrum Present: No
Reference Spectrum Present: No
Number of Sampled Component Spectra: 1
Spectrometers: USB2+H05261
Integration Time (usec): 100000 (USB2+H05261)
Spectra Averaged: 1 (USB2+H05261)
Boxcar Smoothing: 0 (USB2+H05261)
Correct for Electrical Dark: No (USB2+H05261)
Strobe/Lamp Enabled: No (USB2+H05261)
Correct for Detector Non-linearity: No (USB2+H05261)
Correct for Stray Light: No (USB2+H05261)
Number of Pixels in Processed Spectrum: 2048
>>>>>Begin Processed Spectral Data<<<<<
365.73	105.32
365.92	105.32
366.12	105.32
366.32	124.05
366.52	44.47
366.72	77.24
366.91	86.60
367.11	32.77
367.31	16.38
367.51	79.58
367.70	0.00
367.90	28.09
368.10	0.00
368.30	77.24
368.49	35.11
368.69	135.75
368.89	93.62
369.09	21.06
369.28	110.01
369.48	88.94
369.68	135.75
369.87	135.75
370.07	95.96
370.27	112.35
370.47	196.60
370.66	348.74
370.86	386.19
371.06	454.06
371.25	454.06
371.45	344.06
371.65	479.81
371.84	383.85
372.04	386.19
372.24	437.68
372.44	463.43
372.63	475.13
372.83	449.38
373.03	510.24
373.22	458.74
373.42	559.39
373.62	535.98
373.81	559.39
374.01	552.37
374.21	566.41
374.40	458.74
374.60	561.73
374.79	554.71
374.99	540.66
375.19	526.62
375.38	592.16
375.58	568.75
375.78	624.92
375.97	601.52
376.17	554.71
376.37	610.88
376.56	552.37
376.76	585.13
376.95	596.84
377.15	606.20
377.35	624.92
377.54	667.05
377.74	594.50
377.93	589.82
378.13	606.20
378.33	681.10
378.52	568.75
378.72	587.47
378.91	622.58
379.11	533.64
379.31	603.86
379.50	638.97
379.70	615.56
379.89	648.33
380.09	631.94
380.28	641.31
380.48	657.69
380.68	655.35
380.87	631.94
381.07	610.88
381.26	688.12
381.46	699.82
381.65	667.05
381.85	638.97
382.04	702.16
382.24	692.80
382.43	730.25
382.63	662.37
382.83	622.58
383.02	627.26
383.22	737.27
383.41	688.12
383.61	667.05
383.80	718.54
384.00	690.46
384.19	692.80
384.39	709.18
384.58	667.05
384.78	669.39
384.97	704.50
385.17	676.41
385.36	751.31
385.56	779.40
385.75	786.42
385.95	723.23
386.14	720.88
386.34	767.70
386.53	791.10
386.72	791.10
386.92	837.91
387.11	791.10
387.31	835.57
387.50	805.14
387.70	809.83
387.89	819.19
388.09	784.08
388.28	847.27
388.48	823.87
388.67	800.46
388.86	912.81
389.06	858.98
389.25	858.98
389.45	922.17
389.64	868.34
389.84	849.61
390.03	973.66
390.22	901.11
390.42	875.36
390.61	976.00
390.81	884.72
391.00	922.17
391.19	938.55
391.39	952.60
391.58	1001.75
391.78	936.21
391.97	973.66
392.16	924.51
392.36	1067.28
392.55	882.38
392.75	1020.47
392.94	943.24
393.13	964.30
393.33	898.77
393.52	940.90
393.71	987.71
393.91	1076.65
394.10	1020.47
394.29	1055.58
394.49	1100.05
394.68	1029.84
394.88	1004.09
395.07	1083.67
395.26	1043.88
395.46	1100.05
395.65	1153.88
395.84	1137.50
396.04	1104.73
396.23	1081.33
396.42	1071.97
396.62	1191.33
396.81	1128.14
397.00	1151.54
397.19	1179.63
397.39	1104.73
397.58	1277.93
397.77	1219.42
397.97	1196.01
398.16	1273.25
398.35	1320.06
398.55	1228.78
398.74	1277.93
398.93	1322.40
399.12	1299.00
399.32	1359.85
399.51	1322.40
399.70	1362.19
399.90	1399.64
400.09	1401.98
400.28	1409.00
400.47	1310.70
400.67	1380.92
400.86	1359.85
401.05	1514.33
401.24	1385.60
401.44	1467.52
401.63	1516.67
401.82	1474.54
402.01	1366.87
402.21	1516.67
402.40	1423.05
402.59	1451.13
402.78	1535.39
402.97	1493.26
403.17	1657.10
403.36	1535.39
403.55	1523.69
403.74	1486.24
403.93	1528.37
404.13	1568.16
404.32	1661.78
404.51	1519.01
404.70	1692.21
404.89	1710.93
405.09	1771.79
405.28	1708.59
405.47	1699.23
405.66	1673.48
405.85	1638.38
406.05	1713.27
406.24	1802.21
406.43	1647.74
406.62	1717.95
406.81	1881.79
407.00	1736.68
407.20	1696.89
407.39	1755.40
407.58	1963.71
407.77	1902.86
407.96	1909.88
408.15	1905.20
408.34	1905.20
408.54	1935.62
408.73	1961.37
408.92	1996.48
409.11	1975.41
409.30	1886.47
409.49	1982.43
409.68	2038.61
409.87	2083.08
410.07	2146.27
410.26	2122.87
410.45	2057.33
410.64	1975.41
410.83	2190.74
411.02	2209.47
411.21	2265.64
411.40	2195.42
411.59	2347.56
411.78	2160.31
411.98	2251.60
412.17	2293.72
412.36	2394.37
412.55	2310.11
412.74	2319.47
412.93	2349.90
413.12	2342.88
413.31	2520.76
413.50	2558.21
413.69	2455.22
413.88	2502.03
414.07	2499.69
414.26	2602.68
414.45	2565.23
414.64	2593.31
414.83	2654.17
415.02	2576.93
415.22	2649.49
415.41	2729.06
415.60	2757.15
415.79	2738.43
415.98	2715.02
416.17	2841.41
416.36	2757.15
416.55	2892.90
416.74	2953.76
416.93	2888.22
417.12	2928.01
417.31	2904.60
417.50	2960.78
417.69	3007.59
417.88	2993.55
418.07	2928.01
418.26	2953.76
418.45	3070.78
418.64	3222.92
418.83	3143.34
419.02	2984.18
419.21	3108.23
419.39	3026.31
419.58	3122.27
419.77	3152.70
419.96	3166.74
420.15	3208.87
420.34	3220.58
420.53	3309.52
420.72	3323.56
420.91	3442.93
421.10	3276.75
421.29	3440.59
421.48	3382.07
421.67	3166.74
421.86	3384.41
422.05	3332.92
422.24	3323.56
422.43	3290.79
422.61	3496.76
422.80	3466.33
422.99	3353.99
423.18	3417.18
423.37	3426.54
423.56	3543.57
423.75	3337.60
423.94	3419.52
424.13	3243.98
424.32	3248.66
424.50	3501.44
424.69	3562.30
424.88	3517.83
425.07	3405.48
425.26	3389.10
425.45	3400.80
425.64	3382.07
425.83	3520.17
426.01	3599.74
426.20	3508.46
426.39	3473.36
426.58	3618.47
426.77	3625.49
426.96	3623.15
427.15	3609.11
427.33	3595.06
427.52	3595.06
427.71	3632.51
427.90	3730.81
428.09	3555.27
428.28	3740.18
428.46	3644.21
428.65	3768.26
428.84	3850.18
429.03	3847.84
429.22	3606.77
429.40	3728.47
429.59	3712.09
429.78	3583.36
429.97	3602.08
430.16	3630.17
430.34	3691.02
430.53	3819.75
430.72	3786.99
430.91	3896.99
431.10	3950.82
431.28	4002.32
431.47	4023.38
431.66	3974.23
431.85	3838.48
432.03	3878.27
432.22	4109.98
432.41	3974.23
432.60	4201.26
432.79	4145.09
432.97	4187.22
433.16	4217.65
433.35	4098.28
433.54	4128.70
433.72	4079.55
433.91	4107.64
434.10	4299.56
434.28	4121.68
434.47	4196.58
434.66	4259.78
434.85	4205.94
435.03	4351.06
435.22	4348.72
435.41	4491.49
435.59	4615.54
435.78	4601.49
435.97	4505.53
436.16	4416.59
436.34	4521.92
436.53	4636.60
436.72	4732.56
436.90	4407.23
437.09	4709.16
437.28	4526.60
437.46	4526.60
437.65	4526.60
437.84	4498.51
438.02	4500.85
438.21	4423.61
438.40	4552.34
438.58	4741.93
438.77	4667.03
438.96	4751.29
439.14	4938.53
439.33	4926.83
439.52	4994.70
439.70	5050.88
439.89	5111.73
440.08	5027.47
440.26	5160.88
440.45	4940.87
440.63	5167.90
440.82	5317.70
441.01	5125.77
441.19	5156.20
441.38	5397.28
441.57	5221.74
441.75	5472.17
441.94	5547.07
442.12	5621.97
442.31	5682.82
442.50	5420.68
442.68	5507.28
442.87	5481.53
443.05	5504.94
443.24	5607.92
443.43	5624.31
443.61	5715.59
443.80	5804.53
443.98	5584.52
444.17	5427.70
444.35	5762.40
444.54	5778.78
444.73	5753.04
444.91	5621.97
445.10	5593.88
445.28	5795.17
445.47	5591.54
445.65	5736.65
445.84	5692.18
446.02	5680.48
446.21	5678.14
446.39	5687.50
446.58	5823.25
446.77	5769.42
446.95	5706.23
447.14	5767.08
447.32	5729.63
447.51	5895.81
447.69	5834.96
447.88	5643.03
448.06	5951.98
448.25	5884.11
448.43	5970.71
448.62	5921.56
448.80	5900.49
448.99	6113.48
449.17	6024.54
449.36	5980.07
449.54	6141.57
449.73	6235.19
449.91	6377.96
450.10	6466.90
450.28	6331.15
450.46	6181.35
450.65	6237.53
450.83	6235.19
451.02	6293.70
451.20	6396.68
451.39	6324.13
451.57	6282.00
451.76	6237.53
451.94	6335.83
452.13	6427.11
452.31	6539.46
452.49	6310.08
452.68	6497.33
452.86	6485.62
453.05	6457.54
453.23	6443.49
453.42	6413.07
453.60	6389.66
453.78	6548.82
453.97	6448.18
454.15	6644.78
454.34	6354.55
454.52	6537.12
454.70	6759.47
454.89	6642.44
455.07	6647.12
455.26	6785.21
455.44	6958.41
455.62	6743.08
455.81	6656.48
455.99	6822.66
456.17	7009.90
456.36	7000.54
456.54	6848.41
456.73	7009.90
456.91	7098.84
457.09	7040.33
457.28	7293.11
457.46	6949.05
457.64	7110.55
457.83	7131.61
458.01	7005.22
458.19	7215.87
458.38	7171.40
458.56	7356.30
458.74	7148.00
458.93	7194.81
459.11	7162.04
459.29	7250.98
459.48	7377.37
459.66	7213.53
459.84	7323.54
460.03	7527.16
460.21	7585.68
460.39	7456.95
460.57	7548.23
460.76	7604.40
460.94	7449.93
461.12	7566.95
461.31	7555.25
461.49	7648.87
461.67	7707.38
461.85	7798.66
462.04	7845.48
462.22	8074.85
462.40	7777.60
462.59	7772.92
462.77	7960.16
462.95	7695.68
463.13	7896.97
463.32	7878.24
463.50	7786.96
463.68	7901.65
463.86	8013.99
464.05	7803.35
464.23	8018.68
464.41	8011.65
464.59	7925.05
464.78	8215.28
464.96	7999.95
465.14	7922.71
465.32	8095.91
465.50	8191.88
465.69	8116.98
465.87	8067.83
466.05	8126.34
466.23	8067.83
466.41	8393.16
466.60	8311.24
466.78	8315.92
466.96	8163.79
467.14	8306.56
467.32	8205.92
467.51	8692.75
467.69	8250.39
467.87	8390.82
468.05	8414.23
468.23	8271.45
468.41	8163.79
468.60	8444.65
468.78	8479.76
468.96	8468.06
469.14	8706.79
469.32	8683.39
469.50	8325.29
469.69	8641.26
469.87	8692.75
470.05	8692.75
470.23	8879.99
470.41	8786.37
470.59	9029.79
470.77	8896.38
470.95	8933.82
471.14	9125.75
471.32	8961.91
471.50	9439.38
471.68	9062.55
471.86	9137.45
472.04	9142.13
472.22	9423.00
472.40	9137.45
472.58	9247.46
472.77	9348.10
472.95	9345.76
473.13	9902.81
473.31	9301.29
473.49	9544.70
473.67	9535.34
473.85	9556.41
474.03	9727.27
474.21	9710.88
474.39	9867.70
474.57	9769.40
474.75	9769.40
474.93	9870.04
475.12	9977.70
475.30	10141.54
475.48	9907.49
475.66	9968.34
475.84	9987.07
476.02	10267.93
476.20	10340.49
476.38	10293.68
476.56	10740.72
476.74	10745.40
476.92	10420.06
477.10	10703.27
477.28	10958.39
477.46	10644.76
477.64	10778.17
477.82	11061.37
478.00	11115.20
478.18	10951.37
478.36	11335.21
478.54	11323.51
478.72	11325.85
478.90	11454.58
479.08	11517.78
479.26	11861.84
479.44	11772.89
479.62	11536.50
479.80	11831.41
479.98	11953.12
480.16	12159.08
480.34	12042.06
480.52	12255.04
480.70	12245.68
480.88	12262.07
481.06	12395.48
481.24	12409.52
481.41	12564.00
481.59	12849.54
481.77	12746.56
481.95	13041.46
482.13	13050.83
482.31	12884.65
482.49	13172.54
482.67	13387.86
482.85	13294.24
483.03	13645.32
483.21	13598.51
483.39	13895.76
483.57	13650.00
483.74	13921.51
483.92	13834.91
484.10	13900.44
484.28	14312.38
484.46	14450.47
484.64	14532.39
484.82	14396.64
485.00	14303.01
485.18	14775.80
485.35	14895.17
485.53	14956.02
485.71	14850.70
485.89	15103.48
486.07	14827.29
486.25	15393.70
486.43	15274.34
486.61	15283.70
486.78	15728.40
486.96	15775.21
487.14	16137.99
487.32	16035.01
487.50	15819.68
487.68	16425.88
487.85	16613.12
488.03	16795.68
488.21	16800.37
488.39	16779.30
488.57	16791.00
488.75	17062.51
488.92	17238.05
489.10	17523.59
489.28	17366.78
489.46	17554.02
489.64	17556.36
489.81	18155.54
489.99	17991.70
490.17	18015.10
490.35	18443.42
490.53	18326.39
490.70	18352.14
490.88	18771.10
491.06	18750.03
491.24	18813.23
491.41	18843.65
491.59	19030.90
491.77	18888.12
491.95	19096.43
492.13	19573.90
492.30	19370.27
492.48	19707.31
492.66	19847.74
492.84	19803.27
493.01	19836.04
493.19	20011.58
493.37	20238.61
493.54	20156.69
493.72	20315.85
493.90	20283.08
494.08	20577.99
494.25	20636.50
494.43	20872.90
494.61	20723.10
494.79	21245.04
494.96	21083.55
495.14	21467.39
495.32	21685.06
495.49	21167.80
495.67	21570.38
495.85	21696.77
496.02	21605.49
496.20	22141.47
496.38	22139.13
496.55	22068.91
496.73	22679.79
496.91	22019.76
497.09	22558.08
497.26	22649.36
497.44	22258.49
497.62	22955.97
497.79	23307.05
497.97	22991.08
498.14	23136.20
498.32	23241.52
498.50	23494.30
498.67	23695.58
498.85	23548.13
499.03	23702.61
499.20	23903.89
499.38	24070.07
499.56	24116.88
499.73	24023.26
499.91	24341.57
500.08	24442.21
500.26	24280.72
500.44	24329.87
500.61	24290.08
500.79	24119.22
500.97	24863.51
501.14	24783.93
501.32	25193.53
501.49	24734.78
501.67	24886.92
501.84	25106.93
502.02	24800.32
502.20	25174.80
502.37	25392.47
502.55	25385.45
502.72	25617.16
502.90	25603.12
503.07	25420.56
503.25	25570.35
503.43	25766.96
503.60	26185.91
503.78	26022.08
503.95	26155.49
504.13	26192.94
504.30	26150.81
504.48	25954.20
504.65	26162.51
504.83	26494.86
505.01	26492.52
505.18	26611.89
505.36	26494.86
505.53	26291.24
505.71	27168.94
505.88	26948.93
506.06	26724.24
506.23	27159.58
506.41	27374.91
506.58	26998.08
506.76	27187.66
506.93	27271.92
507.11	27225.11
507.28	27311.71
507.46	27594.92
507.63	27557.47
507.81	27344.48
507.98	27360.86
508.16	27784.50
508.33	28084.09
508.50	27887.48
508.68	28280.69
508.85	28261.97
509.03	28566.24
509.20	28573.26
509.38	28460.91
509.55	29003.92
509.73	28804.97
509.90	28987.53
510.08	28704.33
510.25	28819.02
510.42	28966.47
510.60	29507.13
510.77	29310.53
510.95	29530.54
511.12	29036.69
511.30	29778.64
511.47	29839.49
511.64	29972.90
511.82	29586.71
511.99	29834.81
512.17	29670.97
512.34	29780.98
512.51	30143.76
512.69	30176.53
512.86	30148.44
513.04	30078.22
513.21	30408.24
513.38	30216.32
513.56	30361.43
513.73	30579.10
513.90	30246.74
514.08	30373.13
514.25	30419.94
514.43	30719.53
514.60	30335.68
514.77	30855.28
514.95	31145.51
515.12	31061.25
515.29	30672.72
515.47	31543.40
515.64	31035.50
515.81	31311.69
515.99	31133.81
516.16	31220.41
516.33	31297.64
516.51	31756.39
516.68	31236.79
516.85	31571.49
517.03	31330.41
517.20	31639.36
517.37	31489.57
517.54	32123.85
517.72	32126.19
517.89	31903.84
518.06	32067.68
518.24	32238.54
518.41	31875.76
518.58	32077.04
518.75	32538.13
518.93	32584.94
519.10	32318.12
519.27	32608.34
519.45	32226.84
519.62	32697.28
519.79	32645.79
519.96	32863.46
520.14	33291.78
520.31	32732.39
520.48	32987.51
520.65	33081.13
520.83	33212.20
521.00	33340.93
521.17	33331.57
521.34	33446.26
521.52	33261.35
521.69	33472.00
521.86	33579.67
522.03	33497.75
522.20	33780.95
522.38	34349.70
522.55	34139.05
522.72	33998.62
522.89	33897.98
523.07	34323.96
523.24	33944.79
523.41	34015.01
523.58	34059.48
523.75	34361.40
523.92	34330.98
524.10	34726.53
524.27	34450.35
524.44	34522.90
524.61	34913.77
524.78	34644.61
524.96	34974.63
525.13	35374.86
525.30	35168.89
525.47	34876.32
525.64	34852.92
525.81	35124.42
525.98	34916.11
526.16	34983.99
526.33	34866.96
526.50	35398.26
526.67	35054.20
526.84	35349.11
527.01	34955.90
527.18	35379.54
527.36	35779.77
527.53	35157.19
527.70	36091.06
527.87	36060.63
528.04	35810.20
528.21	36009.14
528.38	35737.64
528.55	36273.62
528.72	35952.97
528.89	36077.02
529.07	36210.43
529.24	36107.44
529.41	36037.23
529.58	36098.08
529.75	35962.33
529.92	36540.44
530.09	36285.33
530.26	36624.70
530.43	36435.12
530.60	36517.04
530.77	36458.52
530.94	36769.82
531.11	36776.84
531.28	36732.37
531.46	36762.79
531.63	36914.93
531.80	36959.40
531.97	36823.65
532.14	37022.59
532.31	37067.06
532.48	36854.08
532.65	37064.72
532.82	37308.14
532.99	37560.92
533.16	36830.67
533.33	37050.68
533.50	37453.25
533.67	37296.44
533.84	37202.82
534.01	37352.61
534.18	36987.49
534.35	37647.52
534.52	37347.93
534.69	37837.10
534.86	37649.86
535.03	37598.37
535.20	37830.08
535.37	37654.54
535.54	38541.60
535.71	37937.74
535.88	37858.17
536.05	37839.44
536.22	37783.27
536.38	38300.53
536.55	38450.32
536.72	38106.26
536.89	38157.75
537.06	37731.78
537.23	38319.25
537.40	38377.76
537.57	38642.24
537.74	38485.43
537.91	38780.34
538.08	38487.77
538.25	38574.37
538.42	38717.14
538.59	39033.11
538.75	38272.44
538.92	38780.34
539.09	38946.51
539.26	38778.00
539.43	39005.03
539.60	38993.32
539.77	38873.96
539.94	39220.36
540.11	39126.74
540.28	38806.08
540.44	38873.96
540.61	39646.33
540.78	38995.67
540.95	39108.01
541.12	39295.25
541.29	39505.90
541.46	39276.53
541.62	39548.03
541.79	40055.93
541.96	39093.97
542.13	39548.03
542.30	39791.45
542.47	39864.00
542.63	39817.19
542.80	39573.78
542.97	40081.67
543.14	40158.91
543.31	40013.80
543.48	40236.15
543.64	40390.62
543.81	40275.94
543.98	40556.80
544.15	40315.73
544.32	40666.81
544.48	40507.65
544.65	40620.00
544.82	40381.26
544.99	39974.01
545.16	40341.47
545.32	40603.61
545.49	40446.80
545.66	41141.94
545.83	40800.22
546.00	41099.81
546.16	41024.91
546.33	40755.75
546.50	40280.62
546.67	41202.79
546.83	40285.30
547.00	40802.56
547.17	40779.15
547.34	41090.44
547.50	40889.16
547.67	41439.18
547.84	41191.09
548.00	41277.69
548.17	41329.18
548.34	40818.94
548.51	41097.47
548.67	41364.29
548.84	41612.38
549.01	41163.00
549.18	41441.53
549.34	41310.46
549.51	41574.94
549.68	41530.47
549.84	41673.24
550.01	41977.51
550.18	41488.34
550.34	41474.29
550.51	41457.91
550.68	41574.94
550.84	41270.67
551.01	41706.01
551.18	41464.93
551.34	41401.74
551.51	41806.65
551.68	41968.15
551.84	42057.09
552.01	41771.54
552.18	41799.63
552.34	41453.23
552.51	42239.65
552.68	41813.67
552.84	41977.51
553.01	42525.19
553.18	42099.22
553.34	42347.31
553.51	41801.97
553.67	42012.62
553.84	42307.52
554.01	42113.26
554.17	42300.50
554.34	42373.06
554.51	42195.18
554.67	42380.08
554.84	42679.67
555.00	42625.84
555.17	42373.06
555.33	42431.57
555.50	42342.63
555.67	42417.53
555.83	42600.09
556.00	42466.68
556.16	43086.92
556.33	42492.43
556.50	42588.39
556.66	42658.60
556.83	42866.91
556.99	43115.01
557.16	42775.63
557.32	43304.59
557.49	43075.22
557.65	42394.12
557.82	42731.16
557.98	43044.79
558.15	43194.59
558.32	43143.09
558.48	42895.00
558.65	42974.58
558.81	42883.30
558.98	43239.06
559.14	43145.44
559.31	42859.89
559.47	43285.87
559.64	43519.92
559.80	43248.42
559.97	43388.85
560.13	43255.44
560.30	42976.92
560.46	43103.31
560.63	42878.61
560.79	42742.86
560.96	43676.74
561.12	43016.71
561.29	43182.88
561.45	43412.26
561.61	43302.25
561.78	43192.25
561.94	43210.97
562.11	43538.65
562.27	43297.57
562.44	43129.05
562.60	43578.43
562.77	43739.93
562.93	43777.38
563.10	43938.88
563.26	43351.40
563.42	43330.34
563.59	43634.61
563.75	43058.84
563.92	43817.17
564.08	43777.38
564.24	43892.07
564.41	43840.57
564.57	43739.93
564.74	43852.28
564.90	43840.57
565.07	43576.09
565.23	43735.25
565.39	43442.68
565.56	43838.23
565.72	43051.81
565.88	43814.83
566.05	43412.26
566.21	43599.50
566.38	43807.81
566.54	43936.54
566.70	43852.28
566.87	44254.85
567.03	43828.87
567.19	43985.69
567.36	43992.71
567.52	43725.89
567.68	43908.45
567.85	43536.30
568.01	44006.75
568.17	43997.39
568.34	43768.02
568.50	44025.48
568.66	43765.68
568.83	43934.20
568.99	43854.62
569.15	43833.55
569.32	43892.07
569.48	43676.74
569.64	44306.34
569.81	43952.92
569.97	43648.65
570.13	44048.88
570.30	44011.43
570.46	44285.28
570.62	44030.16
570.78	43929.51
570.95	43854.62
571.11	43995.05
571.27	44285.28
571.43	43842.92
571.60	44559.12
571.76	43945.90
571.92	44306.34
572.09	44430.39
572.25	43929.51
572.41	43894.41
572.57	43896.75
572.74	44437.41
572.90	44144.84
573.06	44500.61
573.22	44222.08
573.38	44114.42
573.55	43665.03
573.71	44549.76
573.87	43922.49
574.03	44091.01
574.20	44322.72
574.36	44240.81
574.52	44083.99
574.68	44238.47
574.84	44479.54
575.01	44114.42
575.17	44421.03
575.33	43828.87
575.49	44004.41
575.65	44589.55
575.82	44332.09
575.98	44278.25
576.14	44502.95
576.30	44011.43
576.46	43938.88
576.62	43800.79
576.79	43906.11
576.95	43899.09
577.11	44161.23
577.27	44194.00
577.43	44301.66
577.59	44041.86
577.75	44098.03
577.92	43854.62
578.08	44179.95
578.24	43966.96
578.40	43906.11
578.56	44055.90
578.72	44161.23
578.88	44055.90
579.04	44409.32
579.21	44589.55
579.37	43531.62
579.53	44032.50
579.69	44191.65
579.85	44449.11
580.01	44924.24
580.17	44456.14
580.33	44449.11
580.49	44488.90
580.65	44355.49
580.82	44453.79
580.98	44582.52
581.14	44203.36
581.30	44685.51
581.46	44680.83
581.62	44495.92
581.78	44313.36
581.94	44692.53
582.10	44411.67
582.26	44779.13
582.42	44701.89
582.58	44535.71
582.74	44465.50
582.90	44285.28
583.06	44669.12
583.22	44751.04
583.38	44783.81
583.54	44353.15
583.70	44098.03
583.86	44634.02
584.02	44149.53
584.18	44460.82
584.34	44488.90
584.50	44304.00
584.66	43992.71
584.82	44521.67
584.98	44739.34
585.14	44533.37
585.30	44196.34
585.46	44442.09
585.62	44467.84
585.78	44456.14
585.94	44212.72
586.10	44739.34
586.26	44252.51
586.42	44570.82
586.58	44388.26
586.74	44748.70
586.90	44264.21
587.06	44388.26
587.22	44655.08
587.38	44648.06
587.54	44982.76
587.70	45139.57
587.86	44362.51
588.02	44584.86
588.18	44793.17
588.34	44748.70
588.49	44388.26
588.65	44289.96
588.81	44027.82
588.97	44313.36
589.13	44540.39
589.29	44439.75
589.45	44711.25
589.61	44832.96
589.77	44486.56
589.93	45102.12
590.08	44935.95
590.24	44917.22
