SpectraSuite Data File
++++++++++++++++++++++++++++++++++++
Date: Fri Oct 25 11:22:49 EDT 2013
User: price-jones
Dark Spectrum Present: No
Reference Spectrum Present: No
Number of Sampled Component Spectra: 1
Spectrometers: USB2+H05261
Integration Time (usec): 100000 (USB2+H05261)
Spectra Averaged: 1 (USB2+H05261)
Boxcar Smoothing: 0 (USB2+H05261)
Correct for Electrical Dark: No (USB2+H05261)
Strobe/Lamp Enabled: No (USB2+H05261)
Correct for Detector Non-linearity: No (USB2+H05261)
Correct for Stray Light: No (USB2+H05261)
Number of Pixels in Processed Spectrum: 2048
>>>>>Begin Processed Spectral Data<<<<<
365.73	217.67
365.92	217.67
366.12	217.67
366.32	156.82
366.52	161.50
366.72	194.26
366.91	117.03
367.11	112.35
367.31	117.03
367.51	128.73
367.70	138.09
367.90	154.48
368.10	100.64
368.30	140.43
368.49	42.13
368.69	163.84
368.89	86.60
369.09	145.11
369.28	182.56
369.48	196.60
369.68	182.56
369.87	255.12
370.07	163.84
370.27	220.01
370.47	311.29
370.66	601.52
370.86	587.47
371.06	603.86
371.25	627.26
371.45	617.90
371.65	772.38
371.84	629.60
372.04	765.36
372.24	720.88
372.44	685.78
372.63	704.50
372.83	702.16
373.03	746.63
373.22	753.65
373.42	805.14
373.62	812.17
373.81	800.46
374.01	765.36
374.21	880.04
374.40	739.61
374.60	713.86
374.79	863.66
374.99	844.93
375.19	833.23
375.38	751.31
375.58	887.06
375.78	805.14
375.97	933.87
376.17	851.96
376.37	828.55
376.56	866.00
376.76	849.61
376.95	873.02
377.15	798.12
377.35	905.79
377.54	880.04
377.74	844.93
377.93	891.74
378.13	877.70
378.33	980.68
378.52	985.37
378.72	917.49
378.91	896.43
379.11	945.58
379.31	910.47
379.50	966.64
379.70	1001.75
379.89	994.73
380.09	910.47
380.28	947.92
380.48	936.21
380.68	870.68
380.87	980.68
381.07	971.32
381.26	1062.60
381.46	997.07
381.65	954.94
381.85	1029.84
382.04	1090.69
382.24	1050.90
382.43	1062.60
382.63	1067.28
382.83	1174.95
383.02	1114.10
383.22	1128.14
383.41	1081.33
383.61	1203.04
383.80	1151.54
384.00	1163.25
384.19	1055.58
384.39	1132.82
384.58	1144.52
384.78	1181.97
384.97	1170.27
385.17	1107.07
385.36	1121.12
385.56	1149.20
385.75	1102.39
385.95	1179.63
386.14	1181.97
386.34	1160.91
386.53	1198.35
386.72	1193.67
386.92	1266.23
387.11	1219.42
387.31	1282.61
387.50	1214.74
387.70	1256.87
387.89	1240.48
388.09	1275.59
388.28	1270.91
388.48	1322.40
388.67	1303.68
388.86	1294.32
389.06	1299.00
389.25	1376.24
389.45	1392.62
389.64	1299.00
389.84	1329.42
390.03	1406.66
390.22	1329.42
390.42	1451.13
390.61	1444.11
390.81	1481.56
391.00	1427.73
391.19	1406.66
391.39	1446.45
391.58	1453.47
391.78	1500.28
391.97	1544.75
392.16	1446.45
392.36	1568.16
392.55	1563.48
392.75	1511.99
392.94	1474.54
393.13	1579.86
393.33	1495.60
393.52	1493.26
393.71	1481.56
393.91	1495.60
394.10	1617.31
394.29	1610.29
394.49	1589.22
394.68	1643.06
394.88	1659.44
395.07	1647.74
395.26	1736.68
395.46	1720.29
395.65	1760.08
395.84	1732.00
396.04	1863.07
396.23	1764.76
396.42	1680.50
396.62	1771.79
396.81	1799.87
397.00	1825.62
397.19	1877.11
397.39	1797.53
397.58	1802.21
397.77	1750.72
397.97	1870.09
398.16	1806.89
398.35	1849.02
398.55	1874.77
398.74	1900.52
398.93	1902.86
399.12	1813.92
399.32	1771.79
399.51	1966.05
399.70	2036.27
399.90	1905.20
400.09	1998.82
400.28	2050.31
400.47	2097.12
400.67	2071.37
400.86	2017.54
401.05	2113.50
401.24	2174.36
401.44	2036.27
401.63	2193.08
401.82	2221.17
402.01	2101.80
402.21	2106.48
402.40	2111.16
402.59	2258.62
402.78	2141.59
402.97	2324.15
403.17	2218.83
403.36	2186.06
403.55	2251.60
403.74	2282.02
403.93	2333.51
404.13	2326.49
404.32	2314.79
404.51	2431.82
404.70	2403.73
404.89	2567.57
405.09	2502.03
405.28	2485.65
405.47	2438.84
405.66	2558.21
405.85	2605.02
406.05	2534.80
406.24	2469.27
406.43	2471.61
406.62	2633.10
406.81	2677.57
407.00	2530.12
407.20	2464.58
407.39	2623.74
407.58	2780.56
407.77	2719.70
407.96	2876.52
408.15	2813.32
408.34	2750.13
408.54	2815.66
408.73	2649.49
408.92	2864.82
409.11	2897.58
409.30	2949.08
409.49	2949.08
409.68	2946.73
409.87	2939.71
410.07	3096.53
410.26	3054.40
410.45	3080.14
410.64	3047.38
410.83	2965.46
411.02	3028.65
411.21	3283.77
411.40	3171.43
411.59	3267.39
411.78	3234.62
411.98	3229.94
412.17	3239.30
412.36	3335.26
412.55	3349.31
412.74	3412.50
412.93	3379.73
413.12	3398.46
413.31	3489.74
413.50	3574.00
413.69	3536.55
413.88	3747.20
414.07	3684.00
414.26	3574.00
414.45	3637.19
414.64	3660.60
414.83	3770.60
415.02	3824.44
415.22	3899.33
415.41	3810.39
415.60	3978.91
415.79	3875.93
415.98	4025.72
416.17	4107.64
416.36	4081.89
416.55	4037.42
416.74	4217.65
416.93	4112.32
417.12	4100.62
417.31	4138.07
417.50	4243.39
417.69	4287.86
417.88	4262.12
418.07	4285.52
418.26	4285.52
418.45	4262.12
418.64	4517.23
418.83	4451.70
419.02	4482.13
419.21	4332.33
419.39	4496.17
419.58	4603.83
419.77	4463.40
419.96	4531.28
420.15	4503.19
420.34	4514.89
420.53	4702.14
420.72	4713.84
420.91	4620.22
421.10	4762.99
421.29	4709.16
421.48	4798.10
421.67	4952.57
421.86	4830.87
422.05	4798.10
422.24	4880.02
422.43	4957.25
422.61	4945.55
422.80	4880.02
422.99	4983.00
423.18	4999.38
423.37	5085.98
423.56	5041.51
423.75	4971.30
423.94	4833.21
424.13	4645.96
424.32	4870.65
424.50	4980.66
424.69	5015.77
424.88	5219.39
425.07	5032.15
425.26	4994.70
425.45	5004.07
425.64	4957.25
425.83	5109.39
426.01	5165.56
426.20	5046.20
426.39	5093.01
426.58	5198.33
426.77	5090.67
426.96	5268.55
427.15	5177.26
427.33	5266.21
427.52	5053.22
427.71	5195.99
427.90	5263.86
428.09	5357.49
428.28	5404.30
428.46	5357.49
428.65	5502.60
428.84	5528.35
429.03	5610.26
429.22	5490.90
429.40	5469.83
429.59	5441.75
429.78	5345.78
429.97	5359.83
430.16	5458.13
430.34	5619.63
430.53	5605.58
430.72	5680.48
430.91	5633.67
431.10	5516.64
431.28	5884.11
431.47	5706.23
431.66	5795.17
431.85	5900.49
432.03	5970.71
432.22	5902.83
432.41	5909.85
432.60	5989.43
432.79	5944.96
432.97	6167.31
433.16	5966.03
433.35	6026.88
433.54	6090.07
433.72	6164.97
433.91	6179.01
434.10	6195.40
434.28	6083.05
434.47	6134.54
434.66	6321.79
434.85	6352.21
435.03	6483.28
435.22	6363.92
435.41	6612.01
435.59	6445.84
435.78	6511.37
435.97	6572.22
436.16	6406.05
436.34	6324.13
436.53	6485.62
436.72	6715.00
436.90	6597.97
437.09	6651.80
437.28	6487.96
437.46	6523.07
437.65	6640.10
437.84	6717.34
438.02	6796.92
438.21	6764.15
438.40	6731.38
438.58	6860.11
438.77	6965.43
438.96	7073.10
439.14	7199.49
439.33	7129.27
439.52	7243.96
439.70	7087.14
439.89	7279.07
440.08	7220.55
440.26	7243.96
440.45	7438.22
440.63	7552.91
440.82	7810.37
441.01	7662.91
441.19	7754.19
441.38	7681.64
441.57	7751.85
441.75	7857.18
441.94	8025.70
442.12	7997.61
442.31	8241.03
442.50	8060.80
442.68	7927.39
442.87	8093.57
443.05	8133.36
443.24	8315.92
443.43	8168.47
443.61	8212.94
443.80	8271.45
443.98	8210.60
444.17	7847.82
444.35	8170.81
444.54	8587.43
444.73	8208.26
444.91	8252.73
445.10	8418.91
445.28	8273.79
445.47	8278.47
445.65	8344.01
445.84	8526.57
446.02	8713.81
446.21	8402.52
446.39	8454.02
446.58	8470.40
446.77	8606.15
446.95	8229.32
447.14	8461.04
447.32	8339.33
447.51	8669.34
447.69	8671.68
447.88	8702.11
448.06	8753.60
448.25	8489.12
448.43	8699.77
448.62	8592.11
448.80	8578.06
448.99	8758.28
449.17	8929.14
449.36	8669.34
449.54	9006.38
449.73	9001.70
449.91	9142.13
450.10	9043.83
450.28	9210.01
450.46	8908.08
450.65	8985.32
450.83	9055.53
451.02	9088.30
451.20	9261.50
451.39	9224.05
451.57	9298.95
451.76	9128.09
451.94	9376.19
452.13	9364.48
452.31	9317.67
452.49	9310.65
452.68	9406.61
452.86	9380.87
453.05	9352.78
453.23	9563.43
453.42	9167.88
453.60	9425.34
453.78	9633.64
453.97	9582.15
454.15	9469.81
454.34	9556.41
454.52	9738.97
454.70	9621.94
454.89	9797.48
455.07	9659.39
455.26	9856.00
455.44	9921.53
455.62	9984.73
455.81	9989.41
455.99	10141.54
456.17	10211.76
456.36	10127.50
456.54	10155.58
456.73	10136.86
456.91	10394.32
457.09	10394.32
457.28	10736.04
457.46	10387.30
457.64	10485.60
457.83	10555.82
458.01	10499.64
458.19	10820.30
458.38	10586.24
458.56	10846.04
458.74	10590.92
458.93	10813.28
459.11	10600.29
459.29	10609.65
459.48	11033.29
459.66	10970.09
459.84	11105.84
460.03	11419.47
460.21	10995.84
460.39	11176.06
460.57	11246.27
460.76	11269.68
460.94	11171.38
461.12	11190.10
461.31	11178.40
461.49	11098.82
461.67	11323.51
461.85	11651.19
462.04	11419.47
462.22	11950.78
462.40	11548.20
462.59	11569.27
462.77	11566.93
462.95	11815.02
463.13	11616.08
463.32	11508.41
463.50	11796.30
463.68	11918.01
463.86	11749.49
464.05	11676.93
464.23	11948.43
464.41	11651.19
464.59	11761.19
464.78	12145.04
464.96	11948.43
465.14	12189.51
465.32	12159.08
465.50	12152.06
465.69	12276.11
465.87	12329.94
466.05	12301.86
466.23	12322.92
466.41	12559.31
466.60	12568.68
466.78	11964.82
466.96	12241.00
467.14	12795.71
467.32	12453.99
467.51	12891.67
467.69	11988.22
467.87	12538.25
468.05	12594.42
468.23	12409.52
468.41	12535.91
468.60	12863.58
468.78	12659.96
468.96	12606.13
469.14	12947.84
469.32	13025.08
469.50	12699.75
469.69	12975.93
469.87	13322.33
470.05	13327.01
470.23	13282.54
470.41	13193.60
470.59	13259.13
470.77	13071.89
470.95	13224.03
471.14	13551.70
471.32	13092.96
471.50	13582.13
471.68	13673.41
471.86	13706.18
472.04	13757.67
472.22	13944.91
472.40	13893.42
472.58	14015.13
472.77	14162.58
472.95	13987.04
473.13	14537.07
473.31	13905.12
473.49	14235.14
473.67	14508.98
473.85	14267.91
474.03	14848.36
474.21	14691.54
474.39	14572.18
474.57	14820.27
474.75	14897.51
474.93	15023.90
475.12	15082.41
475.30	15056.67
475.48	15152.63
475.66	15220.50
475.84	15309.44
476.02	15599.67
476.20	15445.20
476.38	15824.36
476.56	16109.91
476.74	16325.24
476.92	15880.53
477.10	15917.98
477.28	16374.39
477.46	16259.70
477.64	16524.18
477.82	16627.17
478.00	17104.64
478.18	17018.04
478.36	17165.49
478.54	17130.38
478.72	17233.36
478.90	17598.49
479.08	17811.48
479.26	17635.94
479.44	17673.39
479.62	18001.06
479.80	17942.55
479.98	18012.76
480.16	18497.25
480.34	18583.85
480.52	19023.87
480.70	18843.65
480.88	18459.81
481.06	18614.28
481.24	19068.34
481.41	19309.42
481.59	19700.29
481.77	19356.23
481.95	19648.80
482.13	19859.45
482.31	20224.57
482.49	20243.29
482.67	20428.20
482.85	20599.05
483.03	20732.47
483.21	21088.23
483.39	21130.36
483.57	21170.15
483.74	21565.70
483.92	21565.70
484.10	21359.73
484.28	21799.75
484.46	22314.67
484.64	22314.67
484.82	22214.02
485.00	22553.40
485.18	22656.39
485.35	22787.46
485.53	23269.61
485.71	23232.16
485.89	23613.66
486.07	23360.89
486.25	23576.22
486.43	23679.20
486.61	23978.79
486.78	24376.68
486.96	24205.82
487.14	24807.34
487.32	24725.42
487.50	25039.05
487.68	25303.53
487.85	25497.80
488.03	25837.17
488.21	26096.97
488.39	25928.45
488.57	26429.33
488.75	26214.00
488.92	26810.84
489.10	26810.84
489.28	26981.70
489.46	27302.35
489.64	27295.33
489.81	27857.06
489.99	27880.46
490.17	27800.88
490.35	28079.41
490.53	28643.48
490.70	28807.31
490.88	28556.88
491.06	28634.11
491.24	29053.07
491.41	29039.03
491.59	29319.89
491.77	29465.00
491.95	29886.30
492.13	30045.46
492.30	29991.62
492.48	29958.86
492.66	30548.67
492.84	30363.77
493.01	30761.66
493.19	31241.47
493.37	31016.78
493.54	31164.23
493.72	31461.48
493.90	31721.28
494.08	32208.11
494.25	31999.80
494.43	32268.97
494.61	32701.96
494.79	32547.49
494.96	32840.06
495.14	33296.46
495.32	33820.74
495.49	33310.50
495.67	33523.49
495.85	33364.34
496.02	34197.57
496.20	34328.64
496.38	34150.76
496.55	34059.48
496.73	35103.35
496.91	34691.42
497.09	35306.98
497.26	35292.94
497.44	34958.24
497.62	35288.26
497.79	36318.09
497.97	35819.56
498.14	36013.82
498.32	36311.07
498.50	36371.92
498.67	36481.93
498.85	36851.73
499.03	36601.30
499.20	36802.58
499.38	36928.97
499.56	37181.75
499.73	37462.61
499.91	37645.18
500.08	37682.62
500.26	37827.74
500.44	37848.80
500.61	37916.68
500.79	38206.90
500.97	38274.78
501.14	38906.73
501.32	38990.98
501.49	38785.02
501.67	39086.95
501.84	39571.44
502.02	39555.05
502.20	39543.35
502.37	39800.81
502.55	39208.65
502.72	40102.74
502.90	39892.09
503.07	39672.08
503.25	40456.16
503.43	40018.48
503.60	40360.20
503.78	40493.61
503.95	40722.98
504.13	40329.77
504.30	41088.10
504.48	40624.68
504.65	41228.54
504.83	41298.75
505.01	41762.18
505.18	41577.28
505.36	42010.28
505.53	41633.45
505.71	41804.31
505.88	42120.28
506.06	41565.57
506.23	41933.04
506.41	41881.55
506.58	42452.64
506.76	42689.03
506.93	42843.51
507.11	42679.67
507.28	43035.43
507.46	43000.32
507.63	43058.84
507.81	43681.42
507.98	43089.26
508.16	43192.25
508.33	43723.55
508.50	43833.55
508.68	44149.53
508.85	44114.42
509.03	44100.37
509.20	44500.61
509.38	44615.29
509.55	44552.10
509.73	44708.91
509.90	45230.85
510.08	44898.50
510.25	44676.15
510.42	45146.59
510.60	45429.80
510.77	45193.40
510.95	46050.04
511.12	45151.27
511.30	45200.43
511.47	45546.82
511.64	45916.63
511.82	46014.93
511.99	46440.91
512.17	46274.73
512.34	45834.71
512.51	46918.38
512.69	47054.13
512.86	46677.30
513.04	47040.09
513.21	46632.83
513.38	46880.93
513.56	47370.10
513.73	47040.09
513.90	47250.74
514.08	47086.90
514.25	47618.20
514.43	47615.86
514.60	48079.28
514.77	47620.54
514.95	48325.04
515.12	47908.43
515.29	48154.18
515.47	48243.12
515.64	48498.24
515.81	48034.81
515.99	48446.75
516.16	48851.66
516.33	48540.37
516.51	48865.70
516.68	48795.49
516.85	48877.41
517.03	49006.14
517.20	49036.56
517.37	49392.33
517.54	49331.47
517.72	49366.58
517.89	49446.16
518.06	49380.62
518.24	49514.03
518.41	49345.51
518.58	49497.65
518.75	49610.00
518.93	49602.97
519.10	49570.21
519.27	50321.52
519.45	49722.34
519.62	50450.25
519.79	50204.49
519.96	50377.69
520.14	50211.51
520.31	50108.53
520.48	50820.05
520.65	50857.50
520.83	51236.67
521.00	50639.83
521.17	50543.87
521.34	50939.42
521.52	51180.49
521.69	51145.39
521.86	50913.67
522.03	51636.90
522.20	51547.96
522.38	51641.58
522.55	51725.84
522.72	51606.47
522.89	51686.05
523.07	51674.35
523.24	52086.28
523.41	51847.55
523.58	51798.40
523.75	52076.92
523.92	52231.40
524.10	52114.37
524.27	52385.87
524.44	52233.74
524.61	52584.82
524.78	51955.21
524.96	52411.62
525.13	52341.40
525.30	52861.00
525.47	52755.68
525.64	52631.63
525.81	52650.35
525.98	53146.54
526.16	52879.72
526.33	52758.02
526.50	53399.32
526.67	52889.09
526.84	53066.97
527.01	53235.48
527.18	53392.30
527.36	53078.67
527.53	53221.44
527.70	53528.05
527.87	53504.65
528.04	53560.82
528.21	53396.98
528.38	53694.23
528.55	53769.13
528.72	53771.47
528.89	53876.79
529.07	53715.29
529.24	53858.07
529.41	53897.86
529.58	53942.33
529.75	53872.11
529.92	54150.63
530.09	53949.35
530.26	54141.27
530.43	54197.44
530.60	53860.41
530.77	54185.74
530.94	54141.27
531.11	54344.90
531.28	54328.52
531.46	54354.26
531.63	54482.99
531.80	54506.40
531.97	54815.35
532.14	54780.24
532.31	54749.81
532.48	54693.64
532.65	54714.70
532.82	54609.38
532.99	55154.72
533.16	54731.09
533.33	55274.09
533.50	55105.57
533.67	54791.94
533.84	54827.05
534.01	55103.23
534.18	55136.00
534.35	55648.58
534.52	55208.56
534.69	55498.78
534.86	55625.17
535.03	55428.57
535.20	55325.58
535.37	55393.46
535.54	55618.15
535.71	55393.46
535.88	55573.68
536.05	55679.00
536.22	55838.16
536.38	55753.90
536.55	55662.62
536.72	55758.58
536.89	55760.92
537.06	55973.91
537.23	55987.95
537.40	55772.63
537.57	56048.81
537.74	56055.83
537.91	56332.01
538.08	56044.13
538.25	56025.40
538.42	56062.85
538.59	56168.18
538.75	56055.83
538.92	56179.88
539.09	56392.87
539.26	56350.74
539.43	56381.16
539.60	56296.91
539.77	56369.46
539.94	56844.59
540.11	56701.82
540.28	56556.70
540.44	56790.76
540.61	56502.87
540.78	56959.28
540.95	56547.34
541.12	56619.90
541.29	56690.12
541.46	56589.47
541.62	56853.95
541.79	56839.91
541.96	56491.17
542.13	56720.54
542.30	56807.14
542.47	56989.70
542.63	56985.02
542.80	57118.43
542.97	57057.58
543.14	57347.81
543.31	57284.61
543.48	57446.11
543.64	57614.63
543.81	57731.65
543.98	57609.95
544.15	57614.63
544.32	57752.72
544.48	57631.01
544.65	57331.42
544.82	57628.67
544.99	57298.65
545.16	57640.37
545.32	57645.05
545.49	57883.79
545.66	58071.03
545.83	58017.20
546.00	57965.71
546.16	57719.95
546.33	57563.14
546.50	57684.84
546.67	57909.53
546.83	57860.38
547.00	57998.48
547.17	58152.95
547.34	57965.71
547.50	58035.92
547.67	58232.53
547.84	57993.79
548.00	58389.34
548.17	58543.82
548.34	58248.91
548.51	58440.84
548.67	58351.90
548.84	58255.93
549.01	58333.17
549.18	58368.28
549.34	58284.02
549.51	58471.26
549.68	58391.68
549.84	58539.14
550.01	58576.59
550.18	58157.63
550.34	58635.10
550.51	58717.02
550.68	58567.23
550.84	58211.46
551.01	58511.05
551.18	58609.35
551.34	58567.23
551.51	58688.93
551.68	58908.94
551.84	58581.27
552.01	58569.57
552.18	58913.62
552.34	58520.41
552.51	58955.75
552.68	58820.00
552.84	59037.67
553.01	59061.08
553.18	58995.54
553.34	59133.63
553.51	59068.10
553.67	58951.07
553.84	59040.01
554.01	59070.44
554.17	58960.44
554.34	59189.81
554.51	59168.74
554.67	59161.72
554.84	59231.94
555.00	59180.45
555.17	59112.57
555.33	59112.57
555.50	59248.32
555.67	59196.83
555.83	59201.51
556.00	59201.51
556.16	59597.06
556.33	59592.38
556.50	59372.37
556.66	59629.83
556.83	59325.56
556.99	59494.08
557.16	59873.24
557.32	59526.84
557.49	59655.57
557.65	59505.78
557.82	59402.80
557.98	59573.66
558.15	59662.60
558.32	59700.04
558.48	59564.29
558.65	59508.12
558.81	59494.08
558.98	59702.38
559.14	59880.27
559.31	59777.28
559.47	59866.22
559.64	59835.80
559.80	60055.81
559.97	59910.69
560.13	59702.38
560.30	60065.17
560.46	59964.52
560.63	59714.09
560.79	59791.33
560.96	60168.15
561.12	59959.84
561.29	59931.76
561.45	60037.08
561.61	59845.16
561.78	60067.51
561.94	60041.76
562.11	59908.35
562.27	60013.68
562.44	59983.25
562.60	60048.78
562.77	60360.08
562.93	60025.38
563.10	60217.30
563.26	59934.10
563.42	60528.59
563.59	60062.83
563.75	60205.60
563.92	60051.12
564.08	60119.00
564.24	60423.27
564.41	60200.92
564.57	60151.77
564.74	60266.45
564.90	60467.74
565.07	60395.18
565.23	60245.39
565.39	60395.18
565.56	60430.29
565.72	60481.78
565.88	60420.93
566.05	60320.29
566.21	60416.25
566.38	60317.95
566.54	60402.21
566.70	60441.99
566.87	60423.27
567.03	60329.65
567.19	60727.54
567.36	60280.50
567.52	60463.06
567.68	60673.71
567.85	60507.53
568.01	60509.87
568.17	60540.30
568.34	60666.69
568.50	60535.62
568.66	60680.73
568.83	60671.37
568.99	60463.06
569.15	60481.78
569.32	60470.08
569.48	60549.66
569.64	60781.37
569.81	60615.19
569.97	60540.30
570.13	60568.38
570.30	60587.11
570.46	60690.09
570.62	60872.65
570.78	60774.35
570.95	60596.47
571.11	60638.60
571.27	60638.60
571.43	60832.86
571.60	60867.97
571.76	60711.16
571.92	60699.45
572.09	60968.61
572.25	60683.07
572.41	60701.79
572.57	60912.44
572.74	61048.19
572.90	60697.11
573.06	60764.99
573.22	60919.46
573.38	60870.31
573.55	60748.60
573.71	60977.98
573.87	60830.52
574.03	60673.71
574.20	60636.26
574.36	60659.66
574.52	60966.27
574.68	60919.46
574.84	61043.51
575.01	60811.80
575.17	61179.26
575.33	60891.38
575.49	60767.33
575.65	61050.53
575.82	60970.96
575.98	61031.81
576.14	61043.51
576.30	60928.83
576.46	60982.66
576.62	60779.03
576.79	60933.51
576.95	60872.65
577.11	61125.43
577.27	61027.13
577.43	61141.81
577.59	60954.57
577.75	60882.02
577.92	60959.25
578.08	61162.88
578.24	60989.68
578.40	61045.85
578.56	61305.65
578.72	61003.72
578.88	61104.37
579.04	61024.79
579.21	60968.61
579.37	61102.03
579.53	61188.63
579.69	60987.34
579.85	60985.00
580.01	61137.13
580.17	60891.38
580.33	61076.28
580.49	61207.35
580.65	61116.07
580.82	60921.80
580.98	61024.79
581.14	60870.31
581.30	61293.95
581.46	60856.27
581.62	61155.86
581.78	61137.13
581.94	61006.06
582.10	61095.00
582.26	61123.09
582.42	60903.08
582.58	61090.32
582.74	61048.19
582.90	61151.18
583.06	61038.83
583.22	61078.62
583.38	61064.58
583.54	61083.30
583.70	61130.11
583.86	61139.47
584.02	61076.28
584.18	61212.03
584.34	61132.45
584.50	60989.68
584.66	60959.25
584.82	60874.99
584.98	61312.67
585.14	61216.71
585.30	61090.32
585.46	61066.92
585.62	60980.32
585.78	61244.80
585.94	60933.51
586.10	61200.33
586.26	61024.79
586.42	61169.90
586.58	61303.31
586.74	61130.11
586.90	60977.98
587.06	61179.26
587.22	61298.63
587.38	61172.24
587.54	61322.04
587.70	61647.37
587.86	61286.93
588.02	60966.27
588.18	61324.38
588.34	61123.09
588.49	61265.86
