SpectraSuite Data File
++++++++++++++++++++++++++++++++++++
Date: Fri Oct 25 11:34:21 EDT 2013
User: price-jones
Dark Spectrum Present: No
Reference Spectrum Present: No
Number of Sampled Component Spectra: 1
Spectrometers: USB2+H05261
Integration Time (usec): 100000 (USB2+H05261)
Spectra Averaged: 1 (USB2+H05261)
Boxcar Smoothing: 0 (USB2+H05261)
Correct for Electrical Dark: No (USB2+H05261)
Strobe/Lamp Enabled: No (USB2+H05261)
Correct for Detector Non-linearity: No (USB2+H05261)
Correct for Stray Light: No (USB2+H05261)
Number of Pixels in Processed Spectrum: 2048
>>>>>Begin Processed Spectral Data<<<<<
365.73	283.20
365.92	283.20
366.12	283.20
366.32	166.18
366.52	257.46
366.72	168.52
366.91	156.82
367.11	205.97
367.31	184.90
367.51	131.07
367.70	170.86
367.90	124.05
368.10	170.86
368.30	163.84
368.49	140.43
368.69	166.18
368.89	187.24
369.09	159.16
369.28	173.20
369.48	224.69
369.68	161.50
369.87	224.69
370.07	215.33
370.27	252.78
370.47	273.84
370.66	477.47
370.86	472.79
371.06	538.32
371.25	557.05
371.45	578.11
371.65	580.45
371.84	538.32
372.04	491.51
372.24	538.32
372.44	505.56
372.63	550.03
372.83	573.43
373.03	606.20
373.22	596.84
373.42	550.03
373.62	650.67
373.81	587.47
374.01	596.84
374.21	676.41
374.40	578.11
374.60	711.52
374.79	662.37
374.99	645.99
375.19	634.29
375.38	627.26
375.58	725.57
375.78	706.84
375.97	688.12
376.17	622.58
376.37	631.94
376.56	650.67
376.76	634.29
376.95	596.84
377.15	711.52
377.35	688.12
377.54	695.14
377.74	664.71
377.93	615.56
378.13	709.18
378.33	648.33
378.52	741.95
378.72	676.41
378.91	653.01
379.11	667.05
379.31	720.88
379.50	688.12
379.70	753.65
379.89	681.10
380.09	660.03
380.28	767.70
380.48	751.31
380.68	653.01
380.87	716.20
381.07	758.33
381.26	753.65
381.46	795.78
381.65	849.61
381.85	685.78
382.04	763.01
382.24	770.04
382.43	723.23
382.63	802.80
382.83	805.14
383.02	833.23
383.22	851.96
383.41	786.42
383.61	770.04
383.80	779.40
384.00	800.46
384.19	784.08
384.39	795.78
384.58	819.19
384.78	875.36
384.97	802.80
385.17	854.30
385.36	746.63
385.56	833.23
385.75	755.99
385.95	800.46
386.14	861.32
386.34	793.44
386.53	809.83
386.72	781.74
386.92	880.04
387.11	866.00
387.31	901.11
387.50	856.64
387.70	908.13
387.89	835.57
388.09	917.49
388.28	851.96
388.48	924.51
388.67	898.77
388.86	933.87
389.06	912.81
389.25	990.05
389.45	905.79
389.64	898.77
389.84	851.96
390.03	961.96
390.22	922.17
390.42	940.90
390.61	943.24
390.81	978.34
391.00	1048.56
391.19	1015.79
391.39	994.73
391.58	1013.45
391.78	1001.75
391.97	1053.24
392.16	1027.50
392.36	1011.11
392.55	1081.33
392.75	985.37
392.94	1046.22
393.13	1018.13
393.33	954.94
393.52	1043.88
393.71	1006.43
393.91	1090.69
394.10	1118.78
394.29	1083.67
394.49	999.41
394.68	1053.24
394.88	1116.44
395.07	1100.05
395.26	1111.75
395.46	1078.99
395.65	1144.52
395.84	1144.52
396.04	1249.85
396.23	1203.04
396.42	1111.75
396.62	1132.82
396.81	1142.18
397.00	1231.12
397.19	1160.91
397.39	1226.44
397.58	1184.31
397.77	1177.29
397.97	1261.55
398.16	1294.32
398.35	1170.27
398.55	1170.27
398.74	1275.59
398.93	1306.02
399.12	1203.04
399.32	1235.80
399.51	1277.93
399.70	1369.21
399.90	1362.19
400.09	1315.38
400.28	1401.98
400.47	1277.93
400.67	1437.09
400.86	1394.96
401.05	1364.53
401.24	1352.83
401.44	1359.85
401.63	1500.28
401.82	1352.83
402.01	1474.54
402.21	1437.09
402.40	1341.13
402.59	1364.53
402.78	1509.65
402.97	1561.14
403.17	1500.28
403.36	1568.16
403.55	1509.65
403.74	1535.39
403.93	1565.82
404.13	1551.78
404.32	1509.65
404.51	1619.65
404.70	1614.97
404.89	1610.29
405.09	1668.80
405.28	1675.82
405.47	1664.12
405.66	1650.08
405.85	1675.82
406.05	1687.53
406.24	1715.61
406.43	1748.38
406.62	1736.68
406.81	1710.93
407.00	1713.27
407.20	1694.55
407.39	1664.12
407.58	1820.94
407.77	1767.10
407.96	1863.07
408.15	1870.09
408.34	1863.07
408.54	1898.17
408.73	1893.49
408.92	1830.30
409.11	1949.67
409.30	2033.93
409.49	1937.96
409.68	1935.62
409.87	1930.94
410.07	1900.52
410.26	1954.35
410.45	2033.93
410.64	2080.74
410.83	2045.63
411.02	2094.78
411.21	2012.86
411.40	2059.67
411.59	2122.87
411.78	2155.63
411.98	2104.14
412.17	2122.87
412.36	2146.27
412.55	2270.32
412.74	2211.81
412.93	2204.78
413.12	2256.28
413.31	2324.15
413.50	2314.79
413.69	2359.26
413.88	2401.39
414.07	2413.09
414.26	2392.03
414.45	2497.35
414.64	2502.03
414.83	2427.14
415.02	2562.89
415.22	2525.44
415.41	2602.68
415.60	2679.91
415.79	2600.34
415.98	2647.15
416.17	2775.88
416.36	2621.40
416.55	2731.41
416.74	2761.83
416.93	2684.59
417.12	2810.98
417.31	2665.87
417.50	2768.85
417.69	2904.60
417.88	2895.24
418.07	2881.20
418.26	2743.11
418.45	2869.50
418.64	2988.86
418.83	2885.88
419.02	2932.69
419.21	3087.17
419.39	2974.82
419.58	2981.84
419.77	2967.80
419.96	3080.14
420.15	3091.85
420.34	3030.99
420.53	3148.02
420.72	3082.49
420.91	3124.62
421.10	3201.85
421.29	3222.92
421.48	3091.85
421.67	3201.85
421.86	3222.92
422.05	3304.84
422.24	3103.55
422.43	3138.66
422.61	3251.00
422.80	3232.28
422.99	3274.41
423.18	3307.18
423.37	3316.54
423.56	3187.81
423.75	3215.90
423.94	3176.11
424.13	3075.46
424.32	3169.09
424.50	3267.39
424.69	3382.07
424.88	3358.67
425.07	3218.24
425.26	3136.32
425.45	3335.26
425.64	3208.87
425.83	3424.20
426.01	3321.22
426.20	3442.93
426.39	3417.18
426.58	3424.20
426.77	3304.84
426.96	3440.59
427.15	3447.61
427.33	3393.78
427.52	3342.28
427.71	3396.12
427.90	3463.99
428.09	3592.72
428.28	3501.44
428.46	3581.02
428.65	3440.59
428.84	3583.36
429.03	3726.13
429.22	3613.79
429.40	3637.19
429.59	3571.66
429.78	3541.23
429.97	3522.51
430.16	3693.37
430.34	3726.13
430.53	3723.79
430.72	3618.47
430.91	3700.39
431.10	3777.62
431.28	3875.93
431.47	3988.27
431.66	3955.51
431.85	3852.52
432.03	3763.58
432.22	3969.55
432.41	3948.48
432.60	3889.97
432.79	3878.27
432.97	4011.68
433.16	4056.15
433.35	4032.74
433.54	3922.74
433.72	3899.33
433.91	4046.79
434.10	4007.00
434.28	4131.05
434.47	4142.75
434.66	4236.37
434.85	4170.83
435.03	4236.37
435.22	4053.81
435.41	4332.33
435.59	4170.83
435.78	4231.69
435.97	4388.50
436.16	4299.56
436.34	4287.86
436.53	4320.63
436.72	4383.82
436.90	4266.80
437.09	4414.25
437.28	4292.54
437.46	4332.33
437.65	4507.87
437.84	4664.69
438.02	4348.72
438.21	4568.73
438.40	4514.89
438.58	4589.79
438.77	4662.35
438.96	4762.99
439.14	4643.62
439.33	4809.80
439.52	4779.37
439.70	4863.63
439.89	4734.90
440.08	4868.31
440.26	4865.97
440.45	4924.49
440.63	4915.12
440.82	5013.43
441.01	4713.84
441.19	4959.60
441.38	5160.88
441.57	5144.50
441.75	5121.09
441.94	5240.46
442.12	5228.76
442.31	5261.52
442.50	5282.59
442.68	5219.39
442.87	5240.46
443.05	5289.61
443.24	5256.84
443.43	5322.38
443.61	5172.58
443.80	5533.03
443.98	5310.68
444.17	5214.71
444.35	5469.83
444.54	5561.11
444.73	5607.92
444.91	5561.11
445.10	5493.24
445.28	5408.98
445.47	5378.55
445.65	5514.30
445.84	5715.59
446.02	5694.52
446.21	5603.24
446.39	5383.23
446.58	5467.49
446.77	5643.03
446.95	5362.17
447.14	5514.30
447.32	5598.56
447.51	5507.28
447.69	5640.69
447.88	5579.84
448.06	5572.82
448.25	5579.84
448.43	5554.09
448.62	5556.43
448.80	5591.54
448.99	5738.99
449.17	5579.84
449.36	5813.89
449.54	5781.12
449.73	5853.68
449.91	5856.02
450.10	5816.23
450.28	6104.12
450.46	5879.43
450.65	5991.77
450.83	6005.81
451.02	5987.09
451.20	5947.30
451.39	6094.76
451.57	6118.16
451.76	5956.66
451.94	5923.90
452.13	6136.88
452.31	6244.55
452.49	6003.47
452.68	6230.51
452.86	6321.79
453.05	6179.01
453.23	6195.40
453.42	5970.71
453.60	6083.05
453.78	6069.01
453.97	6307.74
454.15	6167.31
454.34	6129.86
454.52	6321.79
454.70	6333.49
454.89	6251.57
455.07	6366.26
455.26	6413.07
455.44	6504.35
455.62	6366.26
455.81	6443.49
455.99	6693.93
456.17	6532.44
456.36	6604.99
456.54	6628.40
456.73	6633.08
456.91	6888.20
457.09	6825.00
457.28	6602.65
457.46	6665.85
457.64	6895.22
457.83	6761.81
458.01	6693.93
458.19	6979.48
458.38	6918.62
458.56	6951.39
458.74	7040.33
458.93	6923.30
459.11	6951.39
459.29	6965.43
459.48	7075.44
459.66	6951.39
459.84	7037.99
460.03	7103.53
460.21	7253.32
460.39	7068.42
460.57	7197.15
460.76	7330.56
460.94	7295.45
461.12	7255.66
461.31	7321.20
461.49	7236.94
461.67	7140.97
461.85	7452.27
462.04	7449.93
462.22	7723.77
462.40	7456.95
462.59	7463.97
462.77	7566.95
462.95	7604.40
463.13	7562.27
463.32	7386.73
463.50	7609.08
463.68	7648.87
463.86	7583.34
464.05	7585.68
464.23	7562.27
464.41	7712.07
464.59	7606.74
464.78	7969.52
464.96	7805.69
465.14	7620.78
465.32	7857.18
465.50	7953.14
465.69	7939.10
465.87	7864.20
466.05	7955.48
466.23	7964.84
466.41	7946.12
466.60	7948.46
466.78	7894.63
466.96	7925.05
467.14	8084.21
467.32	8138.04
467.51	8063.15
467.69	7915.69
467.87	8189.53
468.05	8142.72
468.23	8009.31
468.41	8224.64
468.60	8063.15
468.78	8184.85
468.96	8201.24
469.14	8297.20
469.32	8456.36
469.50	8198.90
469.69	8341.67
469.87	8383.80
470.05	8414.23
470.23	8514.87
470.41	8432.95
470.59	8655.30
470.77	8416.57
470.95	8549.98
471.14	8758.28
471.32	8535.93
471.50	8819.14
471.68	8877.65
471.86	8734.88
472.04	8910.42
472.22	9034.47
472.40	8875.31
472.58	9004.04
472.77	8821.48
472.95	9195.96
473.13	9315.33
473.31	8980.64
473.49	9043.83
473.67	9195.96
473.85	9238.09
474.03	9301.29
474.21	9385.55
474.39	9390.23
474.57	9437.04
474.75	9437.04
474.93	9652.37
475.12	9621.94
475.30	9905.15
475.48	9511.94
475.66	9682.80
475.84	9715.56
476.02	10008.13
476.20	9877.06
476.38	10338.15
476.56	10120.48
476.74	10101.75
476.92	10195.37
477.10	10237.50
477.28	10279.63
477.46	10361.55
477.64	10345.17
477.82	10509.01
478.00	10733.70
478.18	10415.38
478.36	10785.19
478.54	11164.36
478.72	10867.11
478.90	10998.18
479.08	11178.40
479.26	11267.34
479.44	11222.87
479.62	11375.00
479.80	11527.14
479.98	11641.82
480.16	11899.28
480.34	11707.36
480.52	11749.49
480.70	11831.41
480.88	11667.57
481.06	11988.22
481.24	12084.19
481.41	12255.04
481.59	12142.70
481.77	12470.37
481.95	12147.38
482.13	12594.42
482.31	12592.08
482.49	13144.45
482.67	13001.68
482.85	13083.59
483.03	13029.76
483.21	13181.90
483.39	13385.52
483.57	13158.49
483.74	13446.38
483.92	13610.22
484.10	13488.51
484.28	13996.40
484.46	13940.23
484.64	14209.39
484.82	13944.91
485.00	14157.90
485.18	14288.97
485.35	14635.37
485.53	14703.25
485.71	14483.24
485.89	15087.09
486.07	15124.54
486.25	14878.79
486.43	15101.14
486.61	15419.45
486.78	15442.85
486.96	15454.56
487.14	15487.32
487.32	15353.91
487.50	15620.74
487.68	15917.98
487.85	15976.50
488.03	16088.84
488.21	16465.67
488.39	16418.86
488.57	16519.50
488.75	16624.83
488.92	16716.11
489.10	16959.52
489.28	16840.15
489.46	17233.36
489.64	16877.60
489.81	17561.04
489.99	17441.67
490.17	17570.40
490.35	17671.04
490.53	17806.80
490.70	17965.95
490.88	18005.74
491.06	18239.79
491.24	18541.72
491.41	18537.04
491.59	18700.88
491.77	18724.29
491.95	18602.58
492.13	18878.76
492.30	18761.73
492.48	18944.30
492.66	19384.32
492.84	19515.39
493.01	19630.07
493.19	19550.49
493.37	19601.99
493.54	19400.70
493.72	19660.50
493.90	19864.13
494.08	20049.03
494.25	20133.29
494.43	20341.60
494.61	20306.49
494.79	20585.01
494.96	20734.81
495.14	20788.64
495.32	21247.38
495.49	20938.43
495.67	20826.09
495.85	21296.53
496.02	20954.82
496.20	21551.65
496.38	21811.45
496.55	21500.16
496.73	22277.22
496.91	21912.10
497.09	21935.50
497.26	22338.07
497.44	22157.85
497.62	22092.32
497.79	22663.41
497.97	22438.72
498.14	22614.26
498.32	22717.24
498.50	22860.01
498.67	23096.41
498.85	22829.59
499.03	23433.44
499.20	23295.35
499.38	23531.75
499.56	23470.89
499.73	23501.32
499.91	23868.78
500.08	23995.17
500.26	23646.43
500.44	24009.22
500.61	24030.28
500.79	23747.08
500.97	24451.58
501.14	24725.42
501.32	24652.86
501.49	24524.13
501.67	24535.84
501.84	24746.48
502.02	24381.36
502.20	24711.38
502.37	25095.22
502.55	24816.70
502.72	24762.87
502.90	25277.79
503.07	25137.35
503.25	25036.71
503.43	25109.27
503.60	25259.06
503.78	25333.96
503.95	25289.49
504.13	25598.44
504.30	25689.72
504.48	25720.15
504.65	26115.70
504.83	25930.80
505.01	26375.50
505.18	26026.76
505.36	26139.10
505.53	25972.92
505.71	26602.53
505.88	26527.63
506.06	26256.13
506.23	26794.45
506.41	26326.35
506.58	26593.17
506.76	26593.17
506.93	26794.45
507.11	27140.85
507.28	27545.76
507.46	27047.23
507.63	27302.35
507.81	27028.51
507.98	27641.73
508.16	27704.92
508.33	27573.85
508.50	27899.19
508.68	27721.30
508.85	27924.93
509.03	27995.15
509.20	28030.26
509.38	28210.48
509.55	28446.87
509.73	28201.11
509.90	28467.94
510.08	28505.38
510.25	28107.49
510.42	28748.80
510.60	28591.98
510.77	28725.39
510.95	28992.22
511.12	28809.65
511.30	28781.57
511.47	28982.85
511.64	29457.98
511.82	29453.30
511.99	29469.69
512.17	29273.08
512.34	29296.49
512.51	29333.93
512.69	29575.01
512.86	29748.21
513.04	30029.07
513.21	29909.71
513.38	29788.00
513.56	30342.70
513.73	30068.86
513.90	30178.87
514.08	29916.73
514.25	30059.50
514.43	30558.03
514.60	30740.60
514.77	30625.91
514.95	30885.71
515.12	30836.56
515.29	30689.10
515.47	30579.10
515.64	31328.07
515.81	30724.21
515.99	31227.43
516.16	31683.83
516.33	31044.87
516.51	31644.04
516.68	31257.85
516.85	31339.77
517.03	31653.40
517.20	31412.33
517.37	31648.72
517.54	31864.05
517.72	31770.43
517.89	32004.49
518.06	31938.95
518.24	31800.86
518.41	31646.38
518.58	31655.75
518.75	31807.88
518.93	32130.87
519.10	32219.81
519.27	32503.02
519.45	32442.17
519.62	32582.60
519.79	32584.94
519.96	32116.83
520.14	32664.52
520.31	32627.07
520.48	32521.74
520.65	32959.42
520.83	33268.37
521.00	33303.48
521.17	33067.09
521.34	33270.72
521.52	33343.27
521.69	33556.26
521.86	33722.44
522.03	33743.50
522.20	33607.75
522.38	33762.23
522.55	34017.35
522.72	34050.11
522.89	33621.80
523.07	34258.42
523.24	34096.92
523.41	34476.09
523.58	34377.79
523.75	34632.91
523.92	34260.76
524.10	34279.49
524.27	34511.20
524.44	34593.12
524.61	34609.50
524.78	34508.86
524.96	34698.44
525.13	34808.45
525.30	35079.95
525.47	35101.01
525.64	34747.59
525.81	34909.09
525.98	34920.79
526.16	34895.05
526.33	35051.86
526.50	35124.42
526.67	34684.40
526.84	35475.50
527.01	35604.23
527.18	35393.58
527.36	35267.19
527.53	35391.24
527.70	35906.16
527.87	35669.76
528.04	35606.57
528.21	35868.71
528.38	35868.71
528.55	36013.82
528.72	35484.86
528.89	36058.29
529.07	36306.39
529.24	35852.33
529.41	35875.73
529.58	36180.00
529.75	36367.24
529.92	36423.42
530.09	36247.88
530.26	36580.23
530.43	36041.91
530.60	36500.65
530.77	36353.20
530.94	36912.59
531.11	36203.41
531.28	36514.70
531.46	36526.40
531.63	36554.49
531.80	36971.10
531.97	36940.68
532.14	36952.38
532.31	36825.99
532.48	37006.21
532.65	37551.56
532.82	36978.12
532.99	37123.24
533.16	36952.38
533.33	37446.23
533.50	37277.71
533.67	37024.93
533.84	36760.45
534.01	37392.40
534.18	37055.36
534.35	38052.43
534.52	37537.51
534.69	37968.17
534.86	37961.15
535.03	37567.94
535.20	37717.73
535.37	38040.73
535.54	38134.35
535.71	38375.42
535.88	38171.80
536.05	38253.72
536.22	38511.17
536.38	38677.35
536.55	38155.41
536.72	38293.50
536.89	38066.47
537.06	38352.02
537.23	38909.07
537.40	38239.67
537.57	38445.64
537.74	38153.07
537.91	38934.81
538.08	38778.00
538.25	38508.83
538.42	38923.11
538.59	39131.42
538.75	38576.71
538.92	38628.20
539.09	39225.04
539.26	38911.41
539.43	39342.06
539.60	39480.16
539.77	39054.18
539.94	39435.69
540.11	39622.93
540.28	39419.30
540.44	39576.12
540.61	39218.02
540.78	39187.59
540.95	39660.38
541.12	39536.33
541.29	39487.18
541.46	39639.31
541.62	39550.37
541.79	40062.95
541.96	39243.76
542.13	39765.70
542.30	40009.12
542.47	39988.05
542.63	39981.03
542.80	39894.43
542.97	40201.04
543.14	40507.65
543.31	40233.81
543.48	40170.61
543.64	40704.26
543.81	40914.90
543.98	40711.28
544.15	40280.62
544.32	40678.51
544.48	41228.54
544.65	40439.78
544.82	40877.46
544.99	40517.01
545.16	41120.87
545.32	40903.20
545.49	41020.23
545.66	41158.32
545.83	40985.12
546.00	41310.46
546.16	41146.62
546.33	41200.45
546.50	41013.21
546.67	41329.18
546.83	41102.15
547.00	41296.41
547.17	41172.36
547.34	41139.60
547.50	41186.41
547.67	42160.07
547.84	41251.94
548.00	41556.21
548.17	42239.65
548.34	41792.61
548.51	41921.34
548.67	41818.35
548.84	41904.95
549.01	41413.44
549.18	41958.78
549.34	41591.32
549.51	42246.67
549.68	41680.26
549.84	42281.78
550.01	42281.78
550.18	41776.22
550.34	41635.79
550.51	42738.18
550.68	42529.87
550.84	41888.57
551.01	42323.91
551.18	42274.76
551.34	41832.39
551.51	42747.54
551.68	42581.37
551.84	42141.35
552.01	42429.23
552.18	42405.83
552.34	42403.49
552.51	42476.04
552.68	42422.21
552.84	42735.84
553.01	42822.44
553.18	42424.55
553.34	42993.30
553.51	42684.35
553.67	43035.43
553.84	42890.32
554.01	42951.17
554.17	43014.37
554.34	43512.90
554.51	42344.97
554.67	43152.46
554.84	42887.98
555.00	42918.40
555.17	43019.05
555.33	43356.08
555.50	43311.61
555.67	43180.54
555.83	43075.22
556.00	43578.43
556.16	44177.61
556.33	43709.50
556.50	43129.05
556.66	43236.72
556.83	42925.42
556.99	43639.29
557.16	43372.47
557.32	43470.77
557.49	43189.91
557.65	43636.95
557.82	42965.21
557.98	43782.06
558.15	43707.16
558.32	43658.01
558.48	43786.74
558.65	43454.39
558.81	43711.84
558.98	43852.28
559.14	43800.79
559.31	43618.22
559.47	43983.35
559.64	43739.93
559.80	43739.93
559.97	44055.90
560.13	43650.99
560.30	43992.71
560.46	44004.41
560.63	44294.64
560.79	44247.83
560.96	44767.43
561.12	44444.43
561.29	44568.48
561.45	44257.19
561.61	44271.23
561.78	43973.98
561.94	44013.77
562.11	44156.55
562.27	44390.60
562.44	44170.59
562.60	44224.42
562.77	44278.25
562.93	43840.57
563.10	44605.93
563.26	44112.08
563.42	44769.77
563.59	44514.65
563.75	44182.29
563.92	44416.35
564.08	44304.00
564.24	44774.45
564.41	44470.18
564.57	44891.48
564.74	44641.04
564.90	44521.67
565.07	44268.89
565.23	44573.16
565.39	44552.10
565.56	45125.53
565.72	44444.43
565.88	44924.24
566.05	44463.16
566.21	44966.37
566.38	44554.44
566.54	44971.05
566.70	44718.28
566.87	44306.34
567.03	44793.17
567.19	44877.43
567.36	44751.04
567.52	44992.12
567.68	45193.40
567.85	44872.75
568.01	45109.14
568.17	45013.18
568.34	44921.90
568.50	45146.59
568.66	44715.93
568.83	44687.85
568.99	44865.73
569.15	45310.43
569.32	44645.72
569.48	44893.82
569.64	45483.63
569.81	45059.99
569.97	45081.06
570.13	44978.07
570.30	45244.90
570.46	45460.23
570.62	45050.63
570.78	45127.87
570.95	44842.32
571.11	45553.85
571.27	44788.49
571.43	45221.49
571.60	45294.05
571.76	45027.23
571.92	45048.29
572.09	44816.58
572.25	44645.72
572.41	45160.64
572.57	45333.84
572.74	45390.01
572.90	45064.67
573.06	45343.20
573.22	45457.88
573.38	45593.64
573.55	45705.98
573.71	45434.48
573.87	45584.27
574.03	45450.86
574.20	45766.84
574.36	45748.11
574.52	45638.11
574.68	45471.93
574.84	45413.41
575.01	45645.13
575.17	45743.43
575.33	46033.66
575.49	45500.01
575.65	45900.25
575.82	45607.68
575.98	45380.65
576.14	45675.55
576.30	45799.60
576.46	45244.90
576.62	45310.43
576.79	45308.09
576.95	45137.23
577.11	45474.27
577.27	45682.58
577.43	45607.68
577.59	45333.84
577.75	45502.35
577.92	45621.72
578.08	45102.12
578.24	45696.62
578.40	45991.53
578.56	45965.78
578.72	45965.78
578.88	45209.79
579.04	45764.49
579.21	45268.30
579.37	45595.98
579.53	45787.90
579.69	45188.72
579.85	45240.21
580.01	45705.98
580.17	45612.36
580.33	45626.40
580.49	45509.38
580.65	45888.54
580.82	45853.44
580.98	45544.48
581.14	45130.21
581.30	45579.59
581.46	45605.34
581.62	45240.21
581.78	45380.65
581.94	45497.67
582.10	45593.64
582.26	45663.85
582.42	45790.24
582.58	46082.81
582.74	45659.17
582.90	45579.59
583.06	46061.74
583.22	45525.76
583.38	45436.82
583.54	46012.59
583.70	45998.55
583.86	45727.05
584.02	45982.16
584.18	45975.14
584.34	45935.35
584.50	45865.14
584.66	45694.28
584.82	45883.86
584.98	45930.67
585.14	46082.81
585.30	45792.58
585.46	45766.84
585.62	45720.02
585.78	45918.97
585.94	45640.45
586.10	46085.15
586.26	45680.24
586.42	45806.62
586.58	45556.19
586.74	45500.01
586.90	45801.94
587.06	45965.78
587.22	45640.45
587.38	45691.94
587.54	45904.93
587.70	46080.47
587.86	46131.96
588.02	46234.94
588.18	45722.37
588.34	46045.36
588.49	46260.69
588.65	45556.19
588.81	46073.45
588.97	46134.30
589.13	46169.41
589.29	46101.53
589.45	46068.76
589.61	45935.35
589.77	46656.24
589.93	46021.95
590.08	46026.63
