SpectraSuite Data File
++++++++++++++++++++++++++++++++++++
Date: Fri Oct 25 11:34:48 EDT 2013
User: price-jones
Dark Spectrum Present: No
Reference Spectrum Present: No
Number of Sampled Component Spectra: 1
Spectrometers: USB2+H05261
Integration Time (usec): 100000 (USB2+H05261)
Spectra Averaged: 1 (USB2+H05261)
Boxcar Smoothing: 0 (USB2+H05261)
Correct for Electrical Dark: No (USB2+H05261)
Strobe/Lamp Enabled: No (USB2+H05261)
Correct for Detector Non-linearity: No (USB2+H05261)
Correct for Stray Light: No (USB2+H05261)
Number of Pixels in Processed Spectrum: 2048
>>>>>Begin Processed Spectral Data<<<<<
365.73	278.52
365.92	278.52
366.12	278.52
366.32	170.86
366.52	168.52
366.72	191.92
366.91	126.39
367.11	194.26
367.31	152.13
367.51	161.50
367.70	180.22
367.90	191.92
368.10	107.66
368.30	248.10
368.49	182.56
368.69	222.35
368.89	241.08
369.09	187.24
369.28	255.12
369.48	229.37
369.68	273.84
369.87	236.39
370.07	250.44
370.27	304.27
370.47	383.85
370.66	498.53
370.86	587.47
371.06	531.30
371.25	589.82
371.45	543.00
371.65	568.75
371.84	505.56
372.04	454.06
372.24	622.58
372.44	587.47
372.63	580.45
372.83	571.09
373.03	615.56
373.22	610.88
373.42	662.37
373.62	627.26
373.81	645.99
374.01	627.26
374.21	589.82
374.40	620.24
374.60	711.52
374.79	615.56
374.99	589.82
375.19	580.45
375.38	678.76
375.58	580.45
375.78	648.33
375.97	678.76
376.17	739.61
376.37	636.63
376.56	748.97
376.76	641.31
376.95	706.84
377.15	685.78
377.35	746.63
377.54	730.25
377.74	662.37
377.93	697.48
378.13	685.78
378.33	685.78
378.52	631.94
378.72	699.82
378.91	716.20
379.11	704.50
379.31	695.14
379.50	727.91
379.70	730.25
379.89	763.01
380.09	620.24
380.28	669.39
380.48	688.12
380.68	730.25
380.87	730.25
381.07	650.67
381.26	765.36
381.46	664.71
381.65	713.86
381.85	758.33
382.04	706.84
382.24	732.59
382.43	730.25
382.63	765.36
382.83	751.31
383.02	774.72
383.22	835.57
383.41	760.67
383.61	725.57
383.80	816.85
384.00	784.08
384.19	828.55
384.39	798.12
384.58	847.27
384.78	802.80
384.97	800.46
385.17	805.14
385.36	758.33
385.56	854.30
385.75	823.87
385.95	844.93
386.14	793.44
386.34	765.36
386.53	809.83
386.72	889.40
386.92	863.66
387.11	774.72
387.31	858.98
387.50	788.76
387.70	826.21
387.89	880.04
388.09	922.17
388.28	863.66
388.48	929.19
388.67	861.32
388.86	854.30
389.06	851.96
389.25	1055.58
389.45	868.34
389.64	938.55
389.84	929.19
390.03	964.30
390.22	952.60
390.42	950.26
390.61	924.51
390.81	910.47
391.00	1022.81
391.19	929.19
391.39	908.13
391.58	1034.52
391.78	968.98
391.97	1027.50
392.16	1050.90
392.36	1027.50
392.55	994.73
392.75	922.17
392.94	894.08
393.13	1069.62
393.33	1001.75
393.52	961.96
393.71	1018.13
393.91	1020.47
394.10	1081.33
394.29	1057.92
394.49	994.73
394.68	1057.92
394.88	1125.80
395.07	1057.92
395.26	1076.65
395.46	1046.22
395.65	1107.07
395.84	1156.22
396.04	1172.61
396.23	1123.46
396.42	1156.22
396.62	1123.46
396.81	1256.87
397.00	1153.88
397.19	1226.44
397.39	1184.31
397.58	1210.06
397.77	1212.40
397.97	1259.21
398.16	1214.74
398.35	1289.64
398.55	1146.86
398.74	1210.06
398.93	1299.00
399.12	1261.55
399.32	1191.33
399.51	1210.06
399.70	1301.34
399.90	1366.87
400.09	1327.08
400.28	1350.49
400.47	1355.17
400.67	1371.55
400.86	1263.89
401.05	1331.76
401.24	1327.08
401.44	1376.24
401.63	1380.92
401.82	1378.58
402.01	1357.51
402.21	1355.17
402.40	1432.41
402.59	1425.39
402.78	1453.47
402.97	1409.00
403.17	1481.56
403.36	1500.28
403.55	1493.26
403.74	1413.68
403.93	1528.37
404.13	1612.63
404.32	1565.82
404.51	1526.03
404.70	1626.67
404.89	1605.61
405.09	1584.54
405.28	1570.50
405.47	1682.85
405.66	1612.63
405.85	1603.27
406.05	1565.82
406.24	1638.38
406.43	1689.87
406.62	1727.32
406.81	1680.50
407.00	1746.04
407.20	1657.10
407.39	1729.66
407.58	1734.34
407.77	1778.81
407.96	1748.38
408.15	1781.15
408.34	1802.21
408.54	1830.30
408.73	1846.68
408.92	1715.61
409.11	1713.27
409.30	1849.02
409.49	1849.02
409.68	1937.96
409.87	1982.43
410.07	1900.52
410.26	1804.55
410.45	1956.69
410.64	1996.48
410.83	1940.30
411.02	1975.41
411.21	1984.77
411.40	2029.24
411.59	2083.08
411.78	2073.71
411.98	1994.14
412.17	2094.78
412.36	2141.59
412.55	2246.91
412.74	2307.77
412.93	2183.72
413.12	2179.04
413.31	2258.62
413.50	2275.00
413.69	2296.07
413.88	2342.88
414.07	2385.01
414.26	2406.07
414.45	2277.34
414.64	2389.69
414.83	2504.37
415.02	2464.58
415.22	2502.03
415.41	2462.24
415.60	2499.69
415.79	2537.14
415.98	2558.21
416.17	2597.99
416.36	2621.40
416.55	2588.63
416.74	2663.53
416.93	2612.04
417.12	2555.86
417.31	2672.89
417.50	2736.09
417.69	2766.51
417.88	2778.22
418.07	2715.02
418.26	2829.71
418.45	2883.54
418.64	2883.54
418.83	2925.67
419.02	2946.73
419.21	2920.99
419.39	2944.39
419.58	2923.33
419.77	2944.39
419.96	3040.36
420.15	3000.57
420.34	2932.69
420.53	3087.17
420.72	3068.44
420.91	3159.72
421.10	3206.53
421.29	3152.70
421.48	2906.95
421.67	3075.46
421.86	3185.47
422.05	3171.43
422.24	3213.56
422.43	3204.19
422.61	3119.93
422.80	3246.32
422.99	3166.74
423.18	3222.92
423.37	3290.79
423.56	3262.71
423.75	3136.32
423.94	3243.98
424.13	3042.70
424.32	3033.33
424.50	3323.56
424.69	3384.41
424.88	3356.33
425.07	3183.13
425.26	3251.00
425.45	3225.26
425.64	3288.45
425.83	3220.58
426.01	3309.52
426.20	3370.37
426.39	3283.77
426.58	3365.69
426.77	3220.58
426.96	3108.23
427.15	3337.60
427.33	3431.23
427.52	3412.50
427.71	3389.10
427.90	3330.58
428.09	3541.23
428.28	3485.06
428.46	3538.89
428.65	3459.31
428.84	3456.97
429.03	3574.00
429.22	3520.17
429.40	3475.70
429.59	3588.04
429.78	3520.17
429.97	3552.93
430.16	3548.25
430.34	3737.84
430.53	3627.83
430.72	3669.96
430.91	3599.74
431.10	3693.37
431.28	3698.05
431.47	3819.75
431.66	3803.37
431.85	3662.94
432.03	3847.84
432.22	3882.95
432.41	3847.84
432.60	3808.05
432.79	3719.11
432.97	3929.76
433.16	3831.46
433.35	3969.55
433.54	4011.68
433.72	3922.74
433.91	3920.40
434.10	3927.42
434.28	4133.39
434.47	4037.42
434.66	4131.05
434.85	4065.51
435.03	4175.52
435.22	4077.21
435.41	4182.54
435.59	4091.26
435.78	4196.58
435.97	4145.09
436.16	4299.56
436.34	4187.22
436.53	4109.98
436.72	4294.88
436.90	4306.59
437.09	4252.75
437.28	4245.73
437.46	4320.63
437.65	4444.68
437.84	4395.53
438.02	4283.18
438.21	4423.61
438.40	4348.72
438.58	4533.62
438.77	4521.92
438.96	4404.89
439.14	4566.39
439.33	4449.36
439.52	4631.92
439.70	4643.62
439.89	4779.37
440.08	4844.91
440.26	4629.58
440.45	4669.37
440.63	4943.21
440.82	4919.81
441.01	4858.95
441.19	4868.31
441.38	5039.17
441.57	4915.12
441.75	4985.34
441.94	5188.97
442.12	5198.33
442.31	4994.70
442.50	5308.34
442.68	5135.14
442.87	5181.95
443.05	5254.50
443.24	5331.74
443.43	5151.52
443.61	5102.37
443.80	5439.40
443.98	5132.79
444.17	5071.94
444.35	5231.10
444.54	5289.61
444.73	5572.82
444.91	5305.99
445.10	5345.78
445.28	5313.02
445.47	5313.02
445.65	5310.68
445.84	5329.40
446.02	5238.12
446.21	5467.49
446.39	5359.83
446.58	5432.38
446.77	5551.75
446.95	5352.81
447.14	5518.98
447.32	5385.57
447.51	5406.64
447.69	5423.02
447.88	5427.70
448.06	5355.15
448.25	5362.17
448.43	5514.30
448.62	5537.71
448.80	5610.26
448.99	5446.43
449.17	5500.26
449.36	5518.98
449.54	5743.67
449.73	5748.36
449.91	5830.27
450.10	5593.88
450.28	5682.82
450.46	5825.59
450.65	5846.66
450.83	5778.78
451.02	5841.98
451.20	5872.40
451.39	5760.06
451.57	5682.82
451.76	5823.25
451.94	5982.41
452.13	5961.34
452.31	5888.79
452.49	5872.40
452.68	6010.50
452.86	6047.94
453.05	6113.48
453.23	6087.73
453.42	6010.50
453.60	5994.11
453.78	6136.88
453.97	5963.68
454.15	6085.39
454.34	6132.20
454.52	6375.62
454.70	6064.33
454.89	6090.07
455.07	6162.63
455.26	6171.99
455.44	6307.74
455.62	6153.27
455.81	6263.27
455.99	6342.85
456.17	6373.28
456.36	6377.96
456.54	6427.11
456.73	6602.65
456.91	6562.86
457.09	6654.14
457.28	6612.01
457.46	6572.22
457.64	6668.19
457.83	6661.16
458.01	6532.44
458.19	6848.41
458.38	6775.85
458.56	6672.87
458.74	6703.29
458.93	6637.76
459.11	6881.18
459.29	6878.83
459.48	6923.30
459.66	6836.70
459.84	7136.29
460.03	7094.16
460.21	7159.70
460.39	6986.50
460.57	7112.89
460.76	7037.99
460.94	7171.40
461.12	7190.13
461.31	7169.06
461.49	7026.29
461.67	7314.17
461.85	7398.43
462.04	7169.06
462.22	7145.66
462.40	7302.47
462.59	7253.32
462.77	7229.91
462.95	7265.02
463.13	7368.01
463.32	7414.82
463.50	7318.86
463.68	7461.63
463.86	7538.87
464.05	7208.85
464.23	7356.30
464.41	7681.64
464.59	7325.88
464.78	7627.81
464.96	7569.29
465.14	7499.08
465.32	7524.82
465.50	7602.06
465.69	7772.92
465.87	7646.53
466.05	7672.28
466.23	7681.64
466.41	7740.15
466.60	7765.90
466.78	7562.27
466.96	7681.64
467.14	7681.64
467.32	7798.66
467.51	7838.45
467.69	7520.14
467.87	7892.29
468.05	7840.79
468.23	7936.76
468.41	7871.22
468.60	7999.95
468.78	8063.15
468.96	7875.90
469.14	8021.02
469.32	8215.28
469.50	8023.36
469.69	8006.97
469.87	8264.43
470.05	8313.58
470.23	8290.18
470.41	8145.06
470.59	8519.55
470.77	8276.13
470.95	8498.49
471.14	8645.94
471.32	8311.24
471.50	8720.84
471.68	8535.93
471.86	8446.99
472.04	8475.08
472.22	8737.22
472.40	8610.83
472.58	8573.38
472.77	8561.68
472.95	8898.72
473.13	9046.17
473.31	8788.71
473.49	8879.99
473.67	8954.89
473.85	8889.35
474.03	9151.49
474.21	9181.92
474.39	9210.01
474.57	9252.14
474.75	9380.87
474.93	9474.49
475.12	9352.78
475.30	9584.49
475.48	9383.21
475.66	9593.86
475.84	9483.85
476.02	9696.84
476.20	9589.17
476.38	9687.48
476.56	9846.63
476.74	10026.86
476.92	10120.48
477.10	9912.17
477.28	10193.03
477.46	10148.56
477.64	10335.81
477.82	10600.29
478.00	10410.70
478.18	10518.37
478.36	10527.73
478.54	10726.68
478.72	10647.10
478.90	10759.44
479.08	10675.18
479.26	10855.40
479.44	11019.24
479.62	11119.89
479.80	11321.17
479.98	11229.89
480.16	11578.63
480.34	11470.97
480.52	11477.99
480.70	11552.88
480.88	11552.88
481.06	11796.30
481.24	11756.51
481.41	11967.16
481.59	11997.59
481.77	12100.57
481.95	11913.33
482.13	12397.82
482.31	12301.86
482.49	12734.85
482.67	12482.08
482.85	12470.37
483.03	12716.13
483.21	12812.09
483.39	13013.38
483.57	12594.42
483.74	13383.18
483.92	13123.38
484.10	13205.30
484.28	13327.01
484.46	13521.27
484.64	13738.94
484.82	13572.77
485.00	14092.37
485.18	13907.46
485.35	14064.28
485.53	13930.87
485.71	14092.37
485.89	14544.09
486.07	14534.73
486.25	14696.22
486.43	14370.89
486.61	14572.18
486.78	14960.70
486.96	15089.43
487.14	15040.28
487.32	15269.66
487.50	15428.81
487.68	15342.21
487.85	15602.01
488.03	15688.61
488.21	15971.82
488.39	16006.92
488.57	15960.11
488.75	16243.32
488.92	16229.27
489.10	16673.98
489.28	16526.52
489.46	16795.68
489.64	16622.48
489.81	16964.20
489.99	16842.50
490.17	17090.59
490.35	17350.39
490.53	17504.87
490.70	17743.60
490.88	17537.63
491.06	17799.77
491.24	17783.39
491.41	17813.82
491.59	18038.51
491.77	17989.36
491.95	18485.55
492.13	18331.08
492.30	18487.89
492.48	18583.85
492.66	18523.00
492.84	18703.22
493.01	18796.84
493.19	19199.41
493.37	19077.71
493.54	18813.23
493.72	19335.17
493.90	19426.45
494.08	19470.92
494.25	19623.05
494.43	19653.48
494.61	19964.77
494.79	19711.99
494.96	20067.75
495.14	20025.62
495.32	20269.04
495.49	20119.24
495.67	20421.17
495.85	21067.16
496.02	20931.41
496.20	20709.06
496.38	20762.89
496.55	20924.39
496.73	21214.62
496.91	21254.40
497.09	21458.03
497.26	21628.89
497.44	21874.65
497.62	21675.70
497.79	22061.89
497.97	21781.03
498.14	21979.97
498.32	22347.44
498.50	22497.23
498.67	22375.52
498.85	22169.55
499.03	22710.22
499.20	22885.76
499.38	23014.49
499.56	22684.47
499.73	22803.84
499.91	22864.69
500.08	23215.77
500.26	23054.28
500.44	22941.93
500.61	22995.76
500.79	23541.11
500.97	23508.34
501.14	23597.28
501.32	23695.58
501.49	23693.24
501.67	23913.25
501.84	24023.26
502.02	24091.13
502.20	24091.13
502.37	24006.87
502.55	24032.62
502.72	24393.06
502.90	24304.12
503.07	24493.71
503.25	24615.41
503.43	24538.18
503.60	24594.35
503.78	24713.72
503.95	24807.34
504.13	24762.87
504.30	25062.46
504.48	24968.84
504.65	25249.70
504.83	25415.88
505.01	25219.27
505.18	25135.01
505.36	25813.77
505.53	25291.83
505.71	25827.81
505.88	25872.28
506.06	25469.71
506.23	25979.95
506.41	25467.37
506.58	26206.98
506.76	26321.66
506.93	26092.29
507.11	26398.90
507.28	26279.54
507.46	26576.78
507.63	26792.11
507.81	26923.18
507.98	26623.59
508.16	26998.08
508.33	27054.25
508.50	26941.91
508.68	27094.04
508.85	27084.68
509.03	27246.18
509.20	27211.07
509.38	27871.10
509.55	27702.58
509.73	27489.59
509.90	27791.52
510.08	27826.63
510.25	27700.24
510.42	27910.89
510.60	28044.30
510.77	27850.03
510.95	28231.54
511.12	28065.36
511.30	28198.77
511.47	28250.27
511.64	28353.25
511.82	28542.83
511.99	28856.46
512.17	28650.50
512.34	28460.91
512.51	28577.94
512.69	29266.06
512.86	28786.25
513.04	29090.52
513.21	28992.22
513.38	29336.27
513.56	29642.88
513.73	29326.91
513.90	29277.76
514.08	29429.90
514.25	29687.36
514.43	29399.47
514.60	29717.78
514.77	29853.53
514.95	29846.51
515.12	29795.02
515.29	29743.53
515.47	30099.29
515.64	30331.00
515.81	30101.63
515.99	30335.68
516.16	30632.93
516.33	30569.74
516.51	30649.32
516.68	30309.94
516.85	30644.63
517.03	30602.50
517.20	30937.20
517.37	30546.33
517.54	30756.98
517.72	30356.75
517.89	30801.45
518.06	31335.09
518.24	31028.48
518.41	31129.12
518.58	30888.05
518.75	30829.54
518.93	31508.29
519.10	31161.89
519.27	31412.33
519.45	31218.07
519.62	31625.32
519.79	31875.76
519.96	31885.12
520.14	32170.66
520.31	31374.88
520.48	31847.67
520.65	31812.56
520.83	32486.64
521.00	32339.18
521.17	31950.65
521.34	32540.47
521.52	32355.57
521.69	32229.18
521.86	32261.94
522.03	33001.55
522.20	32950.06
522.38	32868.14
522.55	32940.70
522.72	32886.87
522.89	32926.66
523.07	33556.26
523.24	33036.66
523.41	33151.35
523.58	32795.59
523.75	33219.22
523.92	33179.43
524.10	33556.26
524.27	33385.40
524.44	33544.56
524.61	33553.92
524.78	33921.38
524.96	33635.84
525.13	33825.42
525.30	34352.04
525.47	33855.85
525.64	33914.36
525.81	34253.74
525.98	34237.36
526.16	34361.40
526.33	33972.88
526.50	34478.43
526.67	34244.38
526.84	34651.63
527.01	34445.66
527.18	34433.96
527.36	34438.64
527.53	34646.95
527.70	35033.14
527.87	34951.22
528.04	34941.86
528.21	34522.90
528.38	34878.66
528.55	35014.41
528.72	34761.64
528.89	35204.00
529.07	35096.33
529.24	35086.97
529.41	35393.58
529.58	34941.86
529.75	35110.38
529.92	35091.65
530.09	35637.00
530.26	35147.82
530.43	35573.80
530.60	34852.92
530.77	35381.88
530.94	35304.64
531.11	35353.79
531.28	35943.61
531.46	35896.80
531.63	35814.88
531.80	35730.62
531.97	36158.94
532.14	36280.64
532.31	35882.75
532.48	36460.87
532.65	36472.57
532.82	36292.35
532.99	36498.31
533.16	36624.70
533.33	36362.56
533.50	36423.42
533.67	36800.24
533.84	36517.04
534.01	36720.66
534.18	36596.62
534.35	36713.64
534.52	37046.00
534.69	37118.56
534.86	37429.85
535.03	36821.31
535.20	36804.92
535.37	36914.93
535.54	37266.01
535.71	37031.96
535.88	37326.86
536.05	37347.93
536.22	37284.73
536.38	37270.69
536.55	37383.04
536.72	37581.98
536.89	37233.24
537.06	37607.73
537.23	37476.66
537.40	37567.94
537.57	37221.54
537.74	37504.74
537.91	37738.80
538.08	37464.96
538.25	37759.86
538.42	37867.53
538.59	37886.25
538.75	37769.22
538.92	37607.73
539.09	38225.63
539.26	38518.20
539.43	38022.00
539.60	38366.06
539.77	38527.56
539.94	38462.02
540.11	38597.77
540.28	38581.39
540.44	38471.39
540.61	38405.85
540.78	38143.71
540.95	38518.20
541.12	38515.86
541.29	38316.91
541.46	38754.59
541.62	38906.73
541.79	38803.74
541.96	37944.76
542.13	38356.70
542.30	38815.44
542.47	38951.20
542.63	38831.83
542.80	38986.30
542.97	39615.91
543.14	39370.15
543.31	38906.73
543.48	39079.92
543.64	39852.30
543.81	39681.44
543.98	39159.50
544.15	39480.16
544.32	39477.82
544.48	39871.03
544.65	39669.74
544.82	39550.37
544.99	39658.04
545.16	39639.31
545.32	39772.72
545.49	39573.78
545.66	40102.74
545.83	40627.02
546.00	40168.27
546.16	40114.44
546.33	39936.56
546.50	39658.04
546.67	40627.02
546.83	39613.57
547.00	39885.07
547.17	39765.70
547.34	40175.30
547.50	40121.46
547.67	40329.77
547.84	40172.96
548.00	40308.71
548.17	41237.90
548.34	40397.65
548.51	40882.14
548.67	40720.64
548.84	40484.25
549.01	41146.62
549.18	40992.14
549.34	40856.39
549.51	40767.45
549.68	40725.32
549.84	40683.19
550.01	41251.94
550.18	40573.19
550.34	40584.89
550.51	41155.98
550.68	41289.39
550.84	41123.21
551.01	41361.95
551.18	40610.64
551.34	41371.31
551.51	41345.56
551.68	41495.36
551.84	41301.09
552.01	41067.04
552.18	40872.78
552.34	41476.63
552.51	41518.76
552.68	41090.44
552.84	41221.52
553.01	41544.51
553.18	41570.25
553.34	41729.41
553.51	41390.03
553.67	41806.65
553.84	41724.73
554.01	41841.76
554.17	41565.57
554.34	42176.45
554.51	41933.04
554.67	42199.86
554.84	42061.77
555.00	41785.58
555.17	41897.93
555.33	42122.62
555.50	42366.04
555.67	41832.39
555.83	42478.38
556.00	42043.04
556.16	42602.43
556.33	42211.56
556.50	42089.85
556.66	42047.72
556.83	42185.82
556.99	42178.79
557.16	42841.17
557.32	42667.97
557.49	43058.84
557.65	42405.83
557.82	42440.93
557.98	42513.49
558.15	42534.56
558.32	42639.88
558.48	42164.75
558.65	42281.78
558.81	42712.44
558.98	42726.48
559.14	42852.87
559.31	42738.18
559.47	42843.51
559.64	42653.92
559.80	42586.05
559.97	42443.27
560.13	42462.00
560.30	42740.52
560.46	43402.89
560.63	43536.30
560.79	43306.93
560.96	43409.92
561.12	42906.70
561.29	42810.74
561.45	43152.46
561.61	43356.08
561.78	42827.12
561.94	42983.94
562.11	43061.18
562.27	43054.15
562.44	42988.62
562.60	43304.59
562.77	43077.56
562.93	43096.28
563.10	43328.00
563.26	42934.79
563.42	43983.35
563.59	43433.32
563.75	43107.99
563.92	43505.88
564.08	42724.14
564.24	43540.99
564.41	43447.36
564.57	43447.36
564.74	43217.99
564.90	43515.24
565.07	43264.80
565.23	43646.31
565.39	43267.14
565.56	43433.32
565.72	43089.26
565.88	43414.60
566.05	43512.90
566.21	43756.32
566.38	43381.83
566.54	43875.68
566.70	43681.42
566.87	43625.25
567.03	43470.77
567.19	43629.93
567.36	43845.26
567.52	43091.60
567.68	43763.34
567.85	43929.51
568.01	43859.30
568.17	43552.69
568.34	44044.20
568.50	43828.87
568.66	43779.72
568.83	43917.81
568.99	43732.91
569.15	43978.67
569.32	43615.88
569.48	43861.64
569.64	44224.42
569.81	44402.30
569.97	44198.68
570.13	43882.70
570.30	43746.95
570.46	43735.25
570.62	44095.69
570.78	44329.75
570.95	43643.97
571.11	44184.63
571.27	43821.85
571.43	43997.39
571.60	44105.06
571.76	44004.41
571.92	43559.71
572.09	43992.71
572.25	44002.07
572.41	43931.86
572.57	43985.69
572.74	44582.52
572.90	43709.50
573.06	44395.28
573.22	44051.22
573.38	44414.01
573.55	44397.62
573.71	44432.73
573.87	44182.29
574.03	44137.82
574.20	44446.77
574.36	44121.44
574.52	44079.31
574.68	44308.68
574.84	44224.42
575.01	44425.71
575.17	44605.93
575.33	44257.19
575.49	44477.20
575.65	44425.71
575.82	44584.86
575.98	44198.68
576.14	44301.66
576.30	44383.58
576.46	44126.12
576.62	43973.98
576.79	44158.89
576.95	43875.68
577.11	43983.35
577.27	43863.98
577.43	44861.05
577.59	44451.45
577.75	44027.82
577.92	44273.57
578.08	44140.16
578.24	44638.70
578.40	44596.57
578.56	44423.37
578.72	44617.63
578.88	44486.56
579.04	44385.92
579.21	44446.77
579.37	44463.16
579.53	45024.89
579.69	44762.75
579.85	44004.41
580.01	44308.68
580.17	44318.04
580.33	44669.12
580.49	44561.46
580.65	44533.37
580.82	44594.23
580.98	44282.94
581.14	44172.93
581.30	44486.56
581.46	44184.63
581.62	44268.89
581.78	44203.36
581.94	44531.03
582.10	44617.63
582.26	44842.32
582.42	45008.50
582.58	44437.41
582.74	44664.44
582.90	44669.12
583.06	44781.47
583.22	44402.30
583.38	44832.96
583.54	44669.12
583.70	44711.25
583.86	44645.72
584.02	44729.98
584.18	44825.94
584.34	44512.31
584.50	45078.72
584.66	45130.21
584.82	44825.94
584.98	45155.96
585.14	44928.92
585.30	44367.20
585.46	44711.25
585.62	44898.50
585.78	45062.33
585.94	44921.90
586.10	44788.49
586.26	44734.66
586.42	44720.62
586.58	45141.91
586.74	44509.97
586.90	44369.54
587.06	44559.12
587.22	44605.93
587.38	44919.56
587.54	44992.12
587.70	45205.11
587.86	44580.18
588.02	44701.89
588.18	44725.30
588.34	45146.59
588.49	44800.19
588.65	45038.93
588.81	44697.21
588.97	44835.30
589.13	44940.63
589.29	44797.85
589.45	45113.83
589.61	44634.02
589.77	45563.21
589.93	45177.02
590.08	45165.32
