SpectraSuite Data File
++++++++++++++++++++++++++++++++++++
Date: Fri Oct 25 11:23:29 EDT 2013
User: price-jones
Dark Spectrum Present: No
Reference Spectrum Present: No
Number of Sampled Component Spectra: 1
Spectrometers: USB2+H05261
Integration Time (usec): 100000 (USB2+H05261)
Spectra Averaged: 1 (USB2+H05261)
Boxcar Smoothing: 0 (USB2+H05261)
Correct for Electrical Dark: No (USB2+H05261)
Strobe/Lamp Enabled: No (USB2+H05261)
Correct for Detector Non-linearity: No (USB2+H05261)
Correct for Stray Light: No (USB2+H05261)
Number of Pixels in Processed Spectrum: 2048
>>>>>Begin Processed Spectral Data<<<<<
365.73	255.12
365.92	255.12
366.12	255.12
366.32	138.09
366.52	84.26
366.72	205.97
366.91	145.11
367.11	110.01
367.31	124.05
367.51	105.32
367.70	84.26
367.90	180.22
368.10	138.09
368.30	145.11
368.49	119.37
368.69	191.92
368.89	131.07
369.09	175.54
369.28	196.60
369.48	161.50
369.68	147.45
369.87	170.86
370.07	170.86
370.27	173.20
370.47	243.42
370.66	603.86
370.86	655.35
371.06	685.78
371.25	739.61
371.45	650.67
371.65	760.67
371.84	699.82
372.04	564.07
372.24	620.24
372.44	695.14
372.63	730.25
372.83	723.23
373.03	777.06
373.22	770.04
373.42	748.97
373.62	697.48
373.81	706.84
374.01	809.83
374.21	793.44
374.40	805.14
374.60	802.80
374.79	828.55
374.99	866.00
375.19	763.01
375.38	844.93
375.58	821.53
375.78	844.93
375.97	823.87
376.17	858.98
376.37	880.04
376.56	889.40
376.76	844.93
376.95	868.34
377.15	889.40
377.35	985.37
377.54	870.68
377.74	957.28
377.93	877.70
378.13	952.60
378.33	994.73
378.52	952.60
378.72	875.36
378.91	945.58
379.11	894.08
379.31	901.11
379.50	936.21
379.70	933.87
379.89	1027.50
380.09	976.00
380.28	950.26
380.48	964.30
380.68	1071.97
380.87	990.05
381.07	999.41
381.26	1039.20
381.46	1041.54
381.65	1057.92
381.85	990.05
382.04	1088.35
382.24	1062.60
382.43	1102.39
382.63	1060.26
382.83	950.26
383.02	1137.50
383.22	1160.91
383.41	1100.05
383.61	1184.31
383.80	1240.48
384.00	1125.80
384.19	1100.05
384.39	1067.28
384.58	1057.92
384.78	1139.84
384.97	1128.14
385.17	1146.86
385.36	1086.01
385.56	1130.48
385.75	1284.95
385.95	1219.42
386.14	1179.63
386.34	1174.95
386.53	1249.85
386.72	1219.42
386.92	1177.29
387.11	1210.06
387.31	1254.53
387.50	1179.63
387.70	1252.19
387.89	1294.32
388.09	1245.16
388.28	1334.11
388.48	1327.08
388.67	1268.57
388.86	1362.19
389.06	1275.59
389.25	1399.64
389.45	1313.04
389.64	1301.34
389.84	1378.58
390.03	1430.07
390.22	1432.41
390.42	1334.11
390.61	1378.58
390.81	1327.08
391.00	1420.71
391.19	1409.00
391.39	1434.75
391.58	1476.88
391.78	1570.50
391.97	1448.79
392.16	1404.32
392.36	1472.20
392.55	1497.94
392.75	1504.96
392.94	1554.12
393.13	1497.94
393.33	1523.69
393.52	1565.82
393.71	1591.56
393.91	1598.59
394.10	1516.67
394.29	1629.01
394.49	1624.33
394.68	1647.74
394.88	1680.50
395.07	1617.31
395.26	1682.85
395.46	1605.61
395.65	1774.13
395.84	1727.32
396.04	1739.02
396.23	1755.40
396.42	1708.59
396.62	1837.32
396.81	1701.57
397.00	1804.55
397.19	1806.89
397.39	1827.96
397.58	1804.55
397.77	1893.49
397.97	1797.53
398.16	1879.45
398.35	1989.46
398.55	1870.09
398.74	1898.17
398.93	2001.16
399.12	1905.20
399.32	1881.79
399.51	2015.20
399.70	2022.22
399.90	1956.69
400.09	2024.56
400.28	2038.61
400.47	2052.65
400.67	2134.57
400.86	2179.04
401.05	2015.20
401.24	2153.29
401.44	2118.18
401.63	2148.61
401.82	2120.53
402.01	2059.67
402.21	2160.31
402.40	2188.40
402.59	2186.06
402.78	2218.83
402.97	2200.10
403.17	2265.64
403.36	2155.63
403.55	2307.77
403.74	2347.56
403.93	2347.56
404.13	2321.81
404.32	2497.35
404.51	2385.01
404.70	2459.90
404.89	2387.35
405.09	2368.62
405.28	2396.71
405.47	2511.39
405.66	2471.61
405.85	2546.50
406.05	2455.22
406.24	2438.84
406.43	2562.89
406.62	2583.95
406.81	2710.34
407.00	2574.59
407.20	2581.61
407.39	2581.61
407.58	2684.59
407.77	2796.94
407.96	2689.28
408.15	2731.41
408.34	2836.73
408.54	2698.64
408.73	2867.16
408.92	2850.77
409.11	2808.64
409.30	2818.00
409.49	2846.09
409.68	2846.09
409.87	2930.35
410.07	3042.70
410.26	2918.65
410.45	2963.12
410.64	3077.80
410.83	3098.87
411.02	3110.57
411.21	3201.85
411.40	3138.66
411.59	3225.26
411.78	3286.11
411.98	3251.00
412.17	3225.26
412.36	3304.84
412.55	3400.80
412.74	3438.25
412.93	3405.48
413.12	3421.86
413.31	3468.67
413.50	3583.36
413.69	3562.30
413.88	3604.42
414.07	3618.47
414.26	3684.00
414.45	3660.60
414.64	3644.21
414.83	3744.86
415.02	3728.47
415.22	3726.13
415.41	3974.23
415.60	3925.08
415.79	3913.38
415.98	3995.29
416.17	3988.27
416.36	4074.87
416.55	4025.72
416.74	4039.76
416.93	4112.32
417.12	4098.28
417.31	4219.99
417.50	4215.30
417.69	4332.33
417.88	4287.86
418.07	4304.25
418.26	4248.07
418.45	4299.56
418.64	4514.89
418.83	4489.15
419.02	4444.68
419.21	4442.34
419.39	4608.51
419.58	4617.88
419.77	4432.97
419.96	4500.85
420.15	4662.35
420.34	4655.33
420.53	4627.24
420.72	4566.39
420.91	4678.73
421.10	4669.37
421.29	4784.06
421.48	4603.83
421.67	4709.16
421.86	4755.97
422.05	4805.12
422.24	4847.25
422.43	4990.02
422.61	4910.44
422.80	5004.07
422.99	4994.70
423.18	4926.83
423.37	5067.26
423.56	5011.09
423.75	4929.17
423.94	4826.18
424.13	4645.96
424.32	4727.88
424.50	4978.32
424.69	5090.67
424.88	5064.92
425.07	5034.49
425.26	4990.02
425.45	4978.32
425.64	5093.01
425.83	4901.08
426.01	4954.91
426.20	4931.51
426.39	5095.35
426.58	5097.69
426.77	5179.61
426.96	5130.45
427.15	5193.65
427.33	5289.61
427.52	4950.23
427.71	5324.72
427.90	5238.12
428.09	5238.12
428.28	5413.66
428.46	5476.85
428.65	5472.17
428.84	5547.07
429.03	5628.99
429.22	5275.57
429.40	5481.53
429.59	5481.53
429.78	5313.02
429.97	5074.28
430.16	5523.66
430.34	5643.03
430.53	5607.92
430.72	5708.57
430.91	5591.54
431.10	5554.09
431.28	5750.70
431.47	5612.60
431.66	5748.36
431.85	5720.27
432.03	5825.59
432.22	6064.33
432.41	5970.71
432.60	5900.49
432.79	5940.28
432.97	6059.65
433.16	6141.57
433.35	5891.13
433.54	6012.84
433.72	6129.86
433.91	6087.73
434.10	6090.07
434.28	5984.75
434.47	6078.37
434.66	6239.87
434.85	6246.89
435.03	6375.62
435.22	6150.93
435.41	6415.41
435.59	6401.37
435.78	6424.77
435.97	6562.86
436.16	6497.33
436.34	6509.03
436.53	6569.88
436.72	6537.12
436.90	6576.91
437.09	6654.14
437.28	6523.07
437.46	6647.12
437.65	6427.11
437.84	6782.87
438.02	6707.98
438.21	6651.80
438.40	6640.10
438.58	6911.60
438.77	7206.51
438.96	7035.65
439.14	7155.02
439.33	7145.66
439.52	7386.73
439.70	7218.21
439.89	7253.32
440.08	7253.32
440.26	7311.83
440.45	7391.41
440.63	7543.55
440.82	7513.12
441.01	7447.58
441.19	7726.11
441.38	7641.85
441.57	7691.00
441.75	7967.18
441.94	7974.21
442.12	7960.16
442.31	8133.36
442.50	8044.42
442.68	7999.95
442.87	8135.70
443.05	8046.76
443.24	8189.53
443.43	8053.78
443.61	8135.70
443.80	8407.20
443.98	8126.34
444.17	7885.26
444.35	8241.03
444.54	8100.59
444.73	8077.19
444.91	8278.47
445.10	8411.89
445.28	8512.53
445.47	8454.02
445.65	8205.92
445.84	8659.98
446.02	8554.66
446.21	8292.52
446.39	8409.54
446.58	8631.90
446.77	8383.80
446.95	8273.79
447.14	8585.08
447.32	8671.68
447.51	8456.36
447.69	8456.36
447.88	8269.11
448.06	8423.59
448.25	8538.27
448.43	8615.51
448.62	8585.08
448.80	8383.80
448.99	8748.92
449.17	8627.21
449.36	8802.75
449.54	8802.75
449.73	9001.70
449.91	9041.49
450.10	8730.20
450.28	8992.34
450.46	9179.58
450.65	9076.60
450.83	9163.20
451.02	8999.36
451.20	8936.17
451.39	9275.54
451.57	9284.91
451.76	8908.08
451.94	9004.04
452.13	9268.52
452.31	9249.80
452.49	9427.68
452.68	9357.46
452.86	9350.44
453.05	9434.70
453.23	9743.65
453.42	9348.10
453.60	9336.40
453.78	9488.53
453.97	9607.90
454.15	9591.52
454.34	9544.70
454.52	9668.75
454.70	9664.07
454.89	9657.05
455.07	9715.56
455.26	9760.03
455.44	9891.10
455.62	9799.82
455.81	9961.32
455.99	9848.97
456.17	10064.30
456.36	10242.18
456.54	10352.19
456.73	10228.14
456.91	10595.61
457.09	10537.09
457.28	10635.39
457.46	10637.73
457.64	10523.05
457.83	10408.36
458.01	10211.76
458.19	10703.27
458.38	10642.42
458.56	10593.26
458.74	10586.24
458.93	10923.28
459.11	10944.34
459.29	10675.18
459.48	10869.45
459.66	10824.98
459.84	10768.80
460.03	11052.01
460.21	10979.45
460.39	10885.83
460.57	11080.10
460.76	11012.22
460.94	11279.04
461.12	11227.55
461.31	11054.35
461.49	11391.39
461.67	11360.96
461.85	11360.96
462.04	11302.45
462.22	11934.39
462.40	11550.54
462.59	11426.50
462.77	11634.80
462.95	11634.80
463.13	11454.58
463.32	11775.24
463.50	11599.70
463.68	11920.35
463.86	11955.46
464.05	11632.46
464.23	11482.67
464.41	11995.25
464.59	11705.02
464.78	12161.42
464.96	12070.14
465.14	11960.14
465.32	12072.48
465.50	12091.21
465.69	12369.73
465.87	12449.31
466.05	12201.21
466.23	12280.79
466.41	12283.13
466.60	12517.18
466.78	12266.75
466.96	12074.82
467.14	12346.33
467.32	12233.98
467.51	12650.60
467.69	12166.10
467.87	12496.12
468.05	12444.63
468.23	12439.95
468.41	12238.66
468.60	12533.57
468.78	12805.07
468.96	12643.57
469.14	12662.30
469.32	12912.74
469.50	12723.15
469.69	12706.77
469.87	13001.68
470.05	13301.26
470.23	13212.32
470.41	13149.13
470.59	13212.32
470.77	13202.96
470.95	13481.49
471.14	13549.36
471.32	13219.35
471.50	13659.37
471.68	13710.86
471.86	13617.24
472.04	13767.03
472.22	14054.92
472.40	13804.48
472.58	13809.16
472.77	13944.91
472.95	14155.56
473.13	14478.55
473.31	14171.94
473.49	14265.57
473.67	14235.14
473.85	14129.81
474.03	14787.50
474.21	14539.41
474.39	14712.61
474.57	14574.52
474.75	14946.66
474.93	15264.97
475.12	14757.08
475.30	15246.25
475.48	15098.80
475.66	15129.22
475.84	15166.67
476.02	15267.31
476.20	15344.55
476.38	15634.78
476.56	15896.92
476.74	16093.52
476.92	15859.47
477.10	15995.22
477.28	15999.90
477.46	16273.74
477.64	16482.05
477.82	16772.28
478.00	17139.74
478.18	16690.36
478.36	17025.06
478.54	17128.04
478.72	17291.88
478.90	17467.42
479.08	17554.02
479.26	17748.28
479.44	17806.80
479.62	18111.07
479.80	17991.70
479.98	18363.84
480.16	18471.51
480.34	18354.48
480.52	18927.91
480.70	18562.79
480.88	18501.93
481.06	18897.49
481.24	18965.36
481.41	19262.61
481.59	19400.70
481.77	19573.90
481.95	19463.90
482.13	19978.81
482.31	19913.28
482.49	20166.06
482.67	20489.05
482.85	20409.47
483.03	20737.15
483.21	20676.29
483.39	21273.13
483.57	20989.92
483.74	21223.98
483.92	21303.56
484.10	21310.58
484.28	21785.71
484.46	21937.84
484.64	22647.02
484.82	22045.51
485.00	22328.71
485.18	22773.41
485.35	22998.10
485.53	22745.33
485.71	22932.57
485.89	23747.08
486.07	23557.49
486.25	23417.06
486.43	23688.56
486.61	23903.89
486.78	24084.11
486.96	24095.82
487.14	24428.17
487.32	24762.87
487.50	24767.55
487.68	24936.07
487.85	25216.93
488.03	25490.77
488.21	25809.09
488.39	26101.65
488.57	25876.96
488.75	26087.61
488.92	26436.35
489.10	26677.43
489.28	27145.53
489.46	27138.51
489.64	27239.15
489.81	27571.51
489.99	27733.01
490.17	27725.99
490.35	27969.40
490.53	28114.52
490.70	28765.18
490.88	28407.08
491.06	29125.63
491.24	28758.16
491.41	29270.74
491.59	29212.23
491.77	29301.17
491.95	29692.04
492.13	29769.27
492.30	30068.86
492.48	30295.89
492.66	30347.39
492.84	30246.74
493.01	30396.54
493.19	30808.47
493.37	30661.02
493.54	31353.82
493.72	31580.85
493.90	31845.33
494.08	32072.36
494.25	32067.68
494.43	31931.93
494.61	31941.29
494.79	32561.53
494.96	32655.15
495.14	32924.32
495.32	33174.75
495.49	33315.19
495.67	33076.45
495.85	33656.90
496.02	33865.21
496.20	34291.19
496.38	34466.73
496.55	34295.87
496.73	35178.25
496.91	34967.60
497.09	34806.11
497.26	35466.14
497.44	34944.20
497.62	35557.42
497.79	36119.15
497.97	35384.22
498.14	36060.63
498.32	35936.59
498.50	36561.51
498.67	36662.15
498.85	36287.67
499.03	36561.51
499.20	36692.58
499.38	36893.86
499.56	37137.28
499.73	37081.11
499.91	37268.35
500.08	37724.75
500.26	37607.73
500.44	37546.87
500.61	37797.31
500.79	37677.94
500.97	38590.75
501.14	38904.38
501.32	38457.34
501.49	38471.39
501.67	38621.18
501.84	38864.60
502.02	38728.84
502.20	39000.35
502.37	39594.84
502.55	38740.55
502.72	39840.60
502.90	39512.92
503.07	39667.40
503.25	39854.64
503.43	39959.97
503.60	39983.37
503.78	40044.23
503.95	40505.31
504.13	40163.59
504.30	40414.03
504.48	40652.76
504.65	40699.58
504.83	40942.99
505.01	41509.40
505.18	41050.66
505.36	41347.90
505.53	41223.86
505.71	41308.11
505.88	41888.57
506.06	40987.46
506.23	42213.90
506.41	41956.44
506.58	42246.67
506.76	42309.86
506.93	42377.74
507.11	42333.27
507.28	42733.50
507.46	42696.05
507.63	43323.32
507.81	43660.35
507.98	43007.34
508.16	43035.43
508.33	43049.47
508.50	43929.51
508.68	43838.23
508.85	44367.20
509.03	44058.24
509.20	44100.37
509.38	44182.29
509.55	44636.36
509.73	44486.56
509.90	44800.19
510.08	44446.77
510.25	43938.88
510.42	45010.84
510.60	44865.73
510.77	45418.10
510.95	45474.27
511.12	45404.05
511.30	45296.39
511.47	45502.35
511.64	45490.65
511.82	46117.92
511.99	45769.18
512.17	45867.48
512.34	45799.60
512.51	46581.34
512.69	46686.67
512.86	46204.52
513.04	46483.04
513.21	46660.92
513.38	47082.22
513.56	46951.15
513.73	46721.77
513.90	47061.15
514.08	46710.07
514.25	47091.58
514.43	47466.06
514.60	47597.13
514.77	47660.33
514.95	47491.81
515.12	47316.27
515.29	47973.96
515.47	48177.59
515.64	48051.20
515.81	47775.02
515.99	47973.96
516.16	48765.06
516.33	48252.48
516.51	48732.29
516.68	48177.59
516.85	48636.33
517.03	48765.06
517.20	49212.10
517.37	49095.08
517.54	48889.11
517.72	49127.84
517.89	49432.11
518.06	49401.69
518.24	49481.27
518.41	49287.00
518.58	49439.14
518.75	49331.47
518.93	49675.53
519.10	49448.50
519.27	50340.24
519.45	49841.71
519.62	49722.34
519.79	50230.24
519.96	50071.08
520.14	50206.83
520.31	50342.58
520.48	50129.59
520.65	50284.07
520.83	50796.65
521.00	50696.00
521.17	50543.87
521.34	50438.54
521.52	51019.00
521.69	50866.86
521.86	50925.38
522.03	51117.30
522.20	51262.41
522.38	51491.79
522.55	51395.82
522.72	51386.46
522.89	51318.59
523.07	51889.68
523.24	51379.44
523.41	51711.80
523.58	51767.97
523.75	51796.06
523.92	52081.60
524.10	52034.79
524.27	51983.30
524.44	52004.36
524.61	52168.20
524.78	52442.04
524.96	52198.63
525.13	52392.89
525.30	52708.86
525.47	52549.71
525.64	52418.64
525.81	52584.82
525.98	52570.77
526.16	52762.70
526.33	52781.42
526.50	53193.36
526.67	53092.71
526.84	53207.40
527.01	52556.73
527.18	52741.63
527.36	52863.34
527.53	53001.43
527.70	53453.15
527.87	53446.13
528.04	52971.00
528.21	53230.80
528.38	53291.66
528.55	53869.77
528.72	53460.18
528.89	53499.97
529.07	53474.22
529.24	53474.22
529.41	53415.71
529.58	53715.29
529.75	53425.07
529.92	53958.71
530.09	54024.25
530.26	53932.96
530.43	54026.59
530.60	53797.21
530.77	53834.66
530.94	54312.13
531.11	54216.17
531.28	54150.63
531.46	54309.79
531.63	54370.64
531.80	54260.64
531.97	54349.58
532.14	54679.60
532.31	54293.41
532.48	54768.54
532.65	54478.31
532.82	54394.05
532.99	54845.77
533.16	54766.20
533.33	54920.67
533.50	55194.51
533.67	54707.68
533.84	54946.42
534.01	54845.77
534.18	55044.72
534.35	55379.42
534.52	55173.45
534.69	55271.75
534.86	55168.77
535.03	55124.30
535.20	55056.42
535.37	55271.75
535.54	55599.43
535.71	55356.01
535.88	55402.82
536.05	55356.01
536.22	55538.57
536.38	55512.83
536.55	55772.63
536.72	55875.61
536.89	55505.80
537.06	55838.16
537.23	56067.53
537.40	55639.22
537.57	55618.15
537.74	55789.01
537.91	55978.59
538.08	55987.95
538.25	55723.47
538.42	56004.34
538.59	56144.77
538.75	56002.00
538.92	56016.04
539.09	56329.67
539.26	56212.65
539.43	56144.77
539.60	56231.37
539.77	56322.65
539.94	56722.88
540.11	56224.35
540.28	56502.87
540.44	56500.53
540.61	56465.42
540.78	56467.76
540.95	56568.41
541.12	56409.25
541.29	56465.42
541.46	56479.47
541.62	56697.14
541.79	56671.39
541.96	56526.28
542.13	56631.60
542.30	56919.49
542.47	57045.88
542.63	56935.87
542.80	56947.57
542.97	57144.18
543.14	57394.62
543.31	56879.70
543.48	57422.70
543.64	57293.97
543.81	57265.89
543.98	57212.06
544.15	57389.94
544.32	57572.50
544.48	57851.02
544.65	57375.89
544.82	57467.17
544.99	57333.76
545.16	57623.99
545.32	57530.37
545.49	57647.39
545.66	57682.50
545.83	57785.49
546.00	57790.17
546.16	57666.12
546.33	57595.90
546.50	57532.71
546.67	57937.62
546.83	57265.89
547.00	57696.55
547.17	57799.53
547.34	57921.24
547.50	58092.10
547.67	58309.77
547.84	58026.56
548.00	58281.68
548.17	58291.04
548.34	58183.38
548.51	58356.58
548.67	58204.44
548.84	58342.53
549.01	58071.03
549.18	58230.19
549.34	58347.21
549.51	58330.83
549.68	58244.23
549.84	58361.26
550.01	58471.26
550.18	58382.32
550.34	58607.01
550.51	58426.79
550.68	58543.82
550.84	58410.41
551.01	58454.88
551.18	58403.39
551.34	58614.04
551.51	58691.27
551.68	58695.95
551.84	58897.24
552.01	58602.33
552.18	58585.95
552.34	58497.01
552.51	58726.38
552.68	58529.78
552.84	58883.20
553.01	59040.01
553.18	58649.14
553.34	59070.44
553.51	58695.95
553.67	58801.28
553.84	59002.56
554.01	58918.31
554.17	59016.61
554.34	58852.77
554.51	58946.39
554.67	59114.91
554.84	58955.75
555.00	59072.78
555.17	59091.51
555.33	59131.29
555.50	58747.45
555.67	58946.39
555.83	59234.28
556.00	58841.07
556.16	59391.09
556.33	59386.41
556.50	59192.15
556.66	59426.20
556.83	59056.40
556.99	59447.27
557.16	59384.07
557.32	59526.84
557.49	59636.85
557.65	59386.41
557.82	59262.36
557.98	59274.07
558.15	59552.59
558.32	59547.91
558.48	59470.67
558.65	59395.77
558.81	59332.58
558.98	59538.55
559.14	59655.57
559.31	59711.75
559.47	59568.97
559.64	59805.37
559.80	59779.62
559.97	59676.64
560.13	59611.10
560.30	59760.90
560.46	59880.27
560.63	59852.18
560.79	59702.38
560.96	59971.55
561.12	59873.24
561.29	59990.27
561.45	59936.44
561.61	59859.20
561.78	59922.40
561.94	59889.63
562.11	59889.63
562.27	60053.47
562.44	60264.11
562.60	60126.02
562.77	59992.61
562.93	59800.69
563.10	60151.77
563.26	59934.10
563.42	60168.15
563.59	60051.12
563.75	59870.90
563.92	60151.77
564.08	60170.49
564.24	60236.03
564.41	60109.64
564.57	60116.66
564.74	60292.20
564.90	60100.28
565.07	59877.93
565.23	60107.30
565.39	60252.41
565.56	60294.54
565.72	60329.65
565.88	60371.78
566.05	60133.04
566.21	60182.19
566.38	60355.39
566.54	60320.29
566.70	60516.89
566.87	60463.06
567.03	60250.07
567.19	60486.46
567.36	60367.10
567.52	60320.29
567.68	60603.49
567.85	60472.42
568.01	60282.84
568.17	60535.62
568.34	60516.89
568.50	60406.89
568.66	60121.34
568.83	60353.05
568.99	60172.83
569.15	60477.10
569.32	60624.56
569.48	60500.51
569.64	60566.04
569.81	60540.30
569.97	60582.43
570.13	60533.28
570.30	60505.19
570.46	60420.93
570.62	60533.28
570.78	60591.79
570.95	60552.00
571.11	60652.64
571.27	60570.72
571.43	60704.13
571.60	60795.42
571.76	60603.49
571.92	60692.43
572.09	60666.69
572.25	60615.19
572.41	60549.66
572.57	60603.49
572.74	60755.63
572.90	60509.87
573.06	60570.72
573.22	60692.43
573.38	60561.36
573.55	60764.99
573.71	60795.42
573.87	60580.09
574.03	60540.30
574.20	60587.11
574.36	60706.47
574.52	60853.93
574.68	60816.48
574.84	60987.34
575.01	60844.57
575.17	60685.41
575.33	60720.52
575.49	60764.99
575.65	60809.46
575.82	60928.83
575.98	60912.44
576.14	60844.57
576.30	60753.29
576.46	60980.32
576.62	60687.75
576.79	60521.57
576.95	60739.24
577.11	60837.54
577.27	60987.34
577.43	60889.04
577.59	60999.04
577.75	60760.31
577.92	60767.33
578.08	60762.65
578.24	60947.55
578.40	60977.98
578.56	61050.53
578.72	60795.42
578.88	61029.47
579.04	61071.60
579.21	60910.10
579.37	60942.87
579.53	61076.28
579.69	60587.11
579.85	60893.72
580.01	60977.98
580.17	60879.67
580.33	61097.34
580.49	60970.96
580.65	60921.80
580.82	60982.66
580.98	60992.02
581.14	61064.58
581.30	60949.89
581.46	60926.49
581.62	61132.45
581.78	60865.63
581.94	61085.64
582.10	60982.66
582.26	60968.61
582.42	60949.89
582.58	60989.68
582.74	60905.42
582.90	60846.91
583.06	61015.43
583.22	60856.27
583.38	61031.81
583.54	61066.92
583.70	61059.90
583.86	60977.98
584.02	60919.46
584.18	61137.13
584.34	61066.92
584.50	60896.06
584.66	60900.74
584.82	61015.43
584.98	61080.96
585.14	61221.39
585.30	60914.78
585.46	60853.93
585.62	61050.53
585.78	61242.46
585.94	60877.33
586.10	60987.34
586.26	61020.11
586.42	61291.61
586.58	61165.22
586.74	61197.99
586.90	61048.19
587.06	60867.97
587.22	61139.47
587.38	61130.11
587.54	61169.90
587.70	61251.82
587.86	60882.02
588.02	61151.18
588.18	61249.48
588.34	61158.20
588.49	61261.18
