SpectraSuite Data File
++++++++++++++++++++++++++++++++++++
Date: Fri Oct 25 11:26:28 EDT 2013
User: price-jones
Dark Spectrum Present: No
Reference Spectrum Present: No
Number of Sampled Component Spectra: 1
Spectrometers: USB2+H05261
Integration Time (usec): 100000 (USB2+H05261)
Spectra Averaged: 1 (USB2+H05261)
Boxcar Smoothing: 0 (USB2+H05261)
Correct for Electrical Dark: No (USB2+H05261)
Strobe/Lamp Enabled: No (USB2+H05261)
Correct for Detector Non-linearity: No (USB2+H05261)
Correct for Stray Light: No (USB2+H05261)
Number of Pixels in Processed Spectrum: 2048
>>>>>Begin Processed Spectral Data<<<<<
365.73	266.82
365.92	266.82
366.12	266.82
366.32	166.18
366.52	168.52
366.72	234.05
366.91	177.88
367.11	163.84
367.31	135.75
367.51	107.66
367.70	168.52
367.90	98.30
368.10	128.73
368.30	145.11
368.49	128.73
368.69	180.22
368.89	142.77
369.09	163.84
369.28	161.50
369.48	184.90
369.68	180.22
369.87	177.88
370.07	210.65
370.27	224.69
370.47	273.84
370.66	568.75
370.86	620.24
371.06	603.86
371.25	690.46
371.45	671.73
371.65	734.93
371.84	655.35
372.04	662.37
372.24	833.23
372.44	685.78
372.63	746.63
372.83	699.82
373.03	816.85
373.22	755.99
373.42	744.29
373.62	807.48
373.81	763.01
374.01	882.38
374.21	755.99
374.40	795.78
374.60	840.25
374.79	779.40
374.99	814.51
375.19	837.91
375.38	847.27
375.58	887.06
375.78	929.19
375.97	748.97
376.17	823.87
376.37	858.98
376.56	844.93
376.76	826.21
376.95	873.02
377.15	851.96
377.35	821.53
377.54	922.17
377.74	924.51
377.93	894.08
378.13	922.17
378.33	973.66
378.52	966.64
378.72	950.26
378.91	1001.75
379.11	940.90
379.31	961.96
379.50	880.04
379.70	999.41
379.89	1006.43
380.09	964.30
380.28	929.19
380.48	971.32
380.68	1011.11
380.87	1006.43
381.07	1074.31
381.26	1025.15
381.46	1015.79
381.65	1027.50
381.85	1013.45
382.04	1027.50
382.24	1050.90
382.43	1001.75
382.63	1057.92
382.83	1076.65
383.02	1060.26
383.22	1163.25
383.41	1142.18
383.61	1095.37
383.80	1137.50
384.00	1142.18
384.19	1125.80
384.39	1144.52
384.58	1191.33
384.78	1181.97
384.97	1196.01
385.17	1205.38
385.36	1179.63
385.56	1181.97
385.75	1200.69
385.95	1207.72
386.14	1153.88
386.34	1226.44
386.53	1228.78
386.72	1212.40
386.92	1268.57
387.11	1224.10
387.31	1306.02
387.50	1242.82
387.70	1214.74
387.89	1193.67
388.09	1247.51
388.28	1242.82
388.48	1219.42
388.67	1437.09
388.86	1327.08
389.06	1268.57
389.25	1315.38
389.45	1280.27
389.64	1390.28
389.84	1329.42
390.03	1441.77
390.22	1306.02
390.42	1329.42
390.61	1345.81
390.81	1483.90
391.00	1474.54
391.19	1425.39
391.39	1488.58
391.58	1453.47
391.78	1406.66
391.97	1439.43
392.16	1460.49
392.36	1493.26
392.55	1577.52
392.75	1563.48
392.94	1542.41
393.13	1528.37
393.33	1570.50
393.52	1547.09
393.71	1643.06
393.91	1570.50
394.10	1495.60
394.29	1668.80
394.49	1652.42
394.68	1549.43
394.88	1673.48
395.07	1617.31
395.26	1652.42
395.46	1600.93
395.65	1694.55
395.84	1797.53
396.04	1813.92
396.23	1781.15
396.42	1687.53
396.62	1706.25
396.81	1753.06
397.00	1776.47
397.19	1746.04
397.39	1739.02
397.58	1790.51
397.77	1823.28
397.97	1853.70
398.16	1771.79
398.35	1844.34
398.55	1881.79
398.74	2036.27
398.93	1989.46
399.12	1900.52
399.32	1919.24
399.51	1797.53
399.70	2073.71
399.90	2040.95
400.09	1987.11
400.28	2136.91
400.47	1973.07
400.67	1996.48
400.86	2122.87
401.05	2083.08
401.24	2057.33
401.44	2106.48
401.63	2104.14
401.82	2043.29
402.01	2094.78
402.21	2232.87
402.40	2174.36
402.59	2078.40
402.78	2111.16
402.97	2169.68
403.17	2207.13
403.36	2228.19
403.55	2258.62
403.74	2363.94
403.93	2310.11
404.13	2352.24
404.32	2377.98
404.51	2359.26
404.70	2338.20
404.89	2413.09
405.09	2392.03
405.28	2478.63
405.47	2502.03
405.66	2466.92
405.85	2492.67
406.05	2586.29
406.24	2663.53
406.43	2565.23
406.62	2644.81
406.81	2612.04
407.00	2579.27
407.20	2579.27
407.39	2553.52
407.58	2609.70
407.77	2668.21
407.96	2642.46
408.15	2766.51
408.34	2715.02
408.54	2916.31
408.73	2911.63
408.92	2836.73
409.11	2963.12
409.30	2960.78
409.49	2951.42
409.68	2911.63
409.87	2965.46
410.07	2979.50
410.26	3035.67
410.45	2939.71
410.64	2920.99
410.83	2939.71
411.02	3225.26
411.21	3108.23
411.40	3164.40
411.59	3225.26
411.78	3122.27
411.98	3262.71
412.17	3082.49
412.36	3276.75
412.55	3473.36
412.74	3332.92
412.93	3311.86
413.12	3297.81
413.31	3559.95
413.50	3492.08
413.69	3478.04
413.88	3623.15
414.07	3524.85
414.26	3602.08
414.45	3548.25
414.64	3641.87
414.83	3667.62
415.02	3810.39
415.22	3810.39
415.41	4011.68
415.60	3922.74
415.79	3932.10
415.98	3871.25
416.17	3922.74
416.36	3997.64
416.55	3997.64
416.74	3927.42
416.93	4114.66
417.12	4266.80
417.31	4168.49
417.50	4205.94
417.69	4262.12
417.88	4299.56
418.07	4241.05
418.26	4318.29
418.45	4315.95
418.64	4505.53
418.83	4299.56
419.02	4493.83
419.21	4444.68
419.39	4517.23
419.58	4353.40
419.77	4493.83
419.96	4627.24
420.15	4594.47
420.34	4451.70
420.53	4711.50
420.72	4887.04
420.91	4594.47
421.10	4779.37
421.29	4636.60
421.48	4615.54
421.67	4795.76
421.86	4723.20
422.05	4861.29
422.24	4702.14
422.43	4903.42
422.61	4739.58
422.80	4856.61
422.99	4903.42
423.18	4865.97
423.37	5104.71
423.56	4990.02
423.75	4840.23
423.94	4793.42
424.13	4713.84
424.32	4786.40
424.50	5013.43
424.69	5043.85
424.88	5142.16
425.07	4882.36
425.26	4936.19
425.45	4943.21
425.64	5025.13
425.83	5050.88
426.01	5118.75
426.20	5085.98
426.39	5100.03
426.58	4980.66
426.77	4994.70
426.96	5121.09
427.15	5097.69
427.33	5158.54
427.52	5078.96
427.71	5294.29
427.90	5224.08
428.09	5320.04
428.28	5387.91
428.46	5352.81
428.65	5245.14
428.84	5535.37
429.03	5537.71
429.22	5252.16
429.40	5621.97
429.59	5579.84
429.78	5212.37
429.97	5336.42
430.16	5469.83
430.34	5561.11
430.53	5504.94
430.72	5760.06
430.91	5680.48
431.10	5621.97
431.28	5760.06
431.47	5689.84
431.66	5860.70
431.85	5760.06
432.03	5954.32
432.22	5991.77
432.41	5839.64
432.60	5898.15
432.79	5767.08
432.97	6120.50
433.16	6045.60
433.35	6083.05
433.54	6071.35
433.72	6040.92
433.91	6052.63
434.10	6059.65
434.28	5914.53
434.47	6193.06
434.66	6267.95
434.85	6263.27
435.03	6324.13
435.22	6193.06
435.41	6490.31
435.59	6410.73
435.78	6403.71
435.97	6534.78
436.16	6434.13
436.34	6462.22
436.53	6413.07
436.72	6647.12
436.90	6583.93
437.09	6516.05
437.28	6462.22
437.46	6745.42
437.65	6677.55
437.84	6810.96
438.02	6633.08
438.21	6719.68
438.40	6595.63
438.58	6895.22
438.77	7042.67
438.96	6927.99
439.14	7204.17
439.33	7035.65
439.52	7286.09
439.70	7201.83
439.89	7370.35
440.08	7391.41
440.26	7358.64
440.45	7314.17
440.63	7463.97
440.82	7552.91
441.01	7592.70
441.19	7632.49
441.38	7756.54
441.57	7789.30
441.75	7770.58
441.94	7698.02
442.12	7887.61
442.31	8067.83
442.50	7990.59
442.68	7918.03
442.87	7906.33
443.05	8093.57
443.24	8060.80
443.43	8121.66
443.61	8271.45
443.80	8587.43
443.98	8039.74
444.17	7775.26
444.35	8004.63
444.54	8252.73
444.73	8112.30
444.91	8131.02
445.10	8526.57
445.28	8463.38
445.47	8196.56
445.65	8306.56
445.84	8388.48
446.02	8489.12
446.21	8435.29
446.39	8346.35
446.58	8332.31
446.77	8344.01
446.95	8325.29
447.14	8329.97
447.32	8346.35
447.51	8531.25
447.69	8407.20
447.88	8580.40
448.06	8397.84
448.25	8428.27
448.43	8606.15
448.62	8769.99
448.80	8655.30
448.99	8641.26
449.17	8659.98
449.36	8479.76
449.54	8938.51
449.73	8929.14
449.91	8896.38
450.10	9018.08
450.28	9076.60
450.46	8926.80
450.65	8997.02
450.83	8924.46
451.02	9130.43
451.20	9296.61
451.39	9004.04
451.57	8961.91
451.76	9018.08
451.94	9249.80
452.13	9357.46
452.31	9125.75
452.49	9256.82
452.68	9322.35
452.86	9254.48
453.05	9458.10
453.23	9631.30
453.42	9385.55
453.60	9364.48
453.78	9628.96
453.97	9135.11
454.15	9359.80
454.34	9523.64
454.52	9507.26
454.70	9757.69
454.89	9734.29
455.07	9895.78
455.26	9628.96
455.44	9975.36
455.62	9729.61
455.81	10033.88
455.99	9928.55
456.17	10176.65
456.36	9966.00
456.54	10270.27
456.73	10279.63
456.91	10359.21
457.09	10387.30
457.28	10415.38
457.46	10356.87
457.64	10553.48
457.83	10399.00
458.01	10417.72
458.19	10686.89
458.38	10382.62
458.56	10483.26
458.74	10590.92
458.93	10588.58
459.11	10710.29
459.29	10686.89
459.48	10834.34
459.66	10647.10
459.84	10970.09
460.03	10902.22
460.21	11124.57
460.39	10946.69
460.57	10911.58
460.76	11101.16
460.94	11138.61
461.12	11098.82
461.31	11346.92
461.49	11211.17
461.67	11082.44
461.85	11358.62
462.04	11302.45
462.22	11592.67
462.40	11550.54
462.59	11576.29
462.77	11644.17
462.95	11845.45
463.13	11634.80
463.32	11606.72
463.50	11573.95
463.68	11737.79
463.86	11857.15
464.05	11714.38
464.23	11616.08
464.41	11985.88
464.59	11562.25
464.78	12105.25
464.96	11852.47
465.14	11903.96
465.32	12030.35
465.50	12123.98
465.69	12095.89
465.87	12046.74
466.05	11772.89
466.23	12147.38
466.41	12311.22
466.60	12463.35
466.78	12301.86
466.96	12175.47
467.14	12329.94
467.32	12231.64
467.51	12599.10
467.69	12149.72
467.87	12468.03
468.05	12442.29
468.23	12329.94
468.41	12655.28
468.60	12390.80
468.78	12784.01
468.96	12542.93
469.14	12980.61
469.32	12720.81
469.50	12561.66
469.69	12968.91
469.87	12861.24
470.05	13151.47
470.23	13029.76
470.41	13242.75
470.59	13219.35
470.77	13090.62
470.95	13589.15
471.14	13570.43
471.32	13172.54
471.50	13521.27
471.68	13659.37
471.86	13790.44
472.04	13638.30
472.22	14031.51
472.40	13785.76
472.58	13792.78
472.77	14087.68
472.95	14164.92
473.13	14401.32
473.31	13872.36
473.49	14225.78
473.67	14291.31
473.85	14331.10
474.03	14862.40
474.21	14712.61
474.39	14516.00
474.57	14761.76
474.75	14930.28
474.93	15110.50
475.12	14888.15
475.30	14902.19
475.48	14977.09
475.66	15470.94
475.84	15098.80
476.02	15477.96
476.20	15260.29
476.38	15456.90
476.56	15955.43
476.74	15957.77
476.92	15557.54
477.10	15880.53
477.28	16056.08
477.46	16154.38
477.64	16400.13
477.82	16489.07
478.00	16999.31
478.18	16655.25
478.36	17032.08
478.54	17174.85
478.72	17013.35
478.90	17509.55
479.08	17645.30
479.26	17689.77
479.44	17671.04
479.62	17823.18
479.80	18310.01
479.98	18099.36
480.16	18506.62
480.34	18604.92
480.52	18555.77
480.70	18352.14
480.88	18452.78
481.06	18719.60
481.24	18853.02
481.41	18995.79
481.59	19307.08
481.77	19204.10
481.95	19489.64
482.13	19829.02
482.31	19400.70
482.49	20233.93
482.67	20135.63
482.85	20397.77
483.03	20650.55
483.21	20767.57
483.39	20783.96
483.57	20959.50
483.74	21338.66
483.92	21195.89
484.10	21284.83
484.28	21860.60
484.46	22017.42
484.64	22164.87
484.82	21544.63
485.00	22539.36
485.18	22689.15
485.35	22640.00
485.53	22623.62
485.71	22654.05
485.89	23447.49
486.07	23161.94
486.25	23199.39
486.43	23683.88
486.61	23819.63
486.78	24098.16
486.96	24229.23
487.14	24477.32
487.32	24741.80
487.50	25109.27
487.68	24683.29
487.85	25228.63
488.03	26031.44
488.21	25511.84
488.39	25862.92
488.57	25778.66
488.75	26295.92
488.92	25965.90
489.10	26712.53
489.28	26778.07
489.46	27335.12
489.64	26958.29
489.81	27505.98
489.99	27674.49
490.17	27718.96
490.35	28210.48
490.53	27625.34
490.70	28451.55
490.88	28463.25
491.06	28435.17
491.24	28849.44
491.41	28882.21
491.59	29095.20
491.77	28999.24
491.95	29394.79
492.13	29755.23
492.30	29949.50
492.48	30150.78
492.66	30597.82
492.84	30295.89
493.01	30639.95
493.19	30932.52
493.37	30845.92
493.54	31194.66
493.72	31793.84
493.90	31463.82
494.08	31484.89
494.25	32130.87
494.43	31683.83
494.61	31906.18
494.79	32180.03
494.96	32500.68
495.14	32631.75
495.32	33125.60
495.49	33184.12
495.67	32954.74
495.85	33567.96
496.02	33605.41
496.20	33799.68
496.38	34073.52
496.55	34220.97
496.73	34714.83
496.91	34714.83
497.09	34604.82
497.26	34890.37
497.44	34813.13
497.62	35372.52
497.79	35480.18
497.97	35299.96
498.14	36378.95
498.32	35758.70
498.50	36339.16
498.67	36481.93
498.85	36488.95
499.03	36418.74
499.20	36444.48
499.38	36723.01
499.56	37221.54
499.73	36900.89
499.91	37144.30
500.08	37565.60
500.26	37500.06
500.44	37684.97
500.61	37682.62
500.79	38003.28
500.97	37846.46
501.14	38220.95
501.32	38342.66
501.49	38352.02
501.67	38670.33
501.84	38906.73
502.02	38536.92
502.20	38384.79
502.37	39337.38
502.55	39206.31
502.72	39281.21
502.90	39531.65
503.07	39313.98
503.25	39763.36
503.43	39789.11
503.60	40313.39
503.78	40645.74
503.95	40334.45
504.13	40390.62
504.30	40786.18
504.48	40547.44
504.65	40823.62
504.83	41076.40
505.01	41296.41
505.18	41134.92
505.36	41532.81
505.53	41261.30
505.71	41570.25
505.88	41752.82
506.06	41588.98
506.23	41691.96
506.41	41528.13
506.58	42314.55
506.76	42281.78
506.93	42623.50
507.11	42567.32
507.28	42667.97
507.46	42808.40
507.63	43047.13
507.81	43000.32
507.98	43154.80
508.16	42941.81
508.33	43648.65
508.50	43438.00
508.68	43470.77
508.85	43735.25
509.03	43555.03
509.20	43686.10
509.38	44205.70
509.55	44355.49
509.73	44533.37
509.90	44605.93
510.08	44626.99
510.25	44449.11
510.42	45109.14
510.60	44964.03
510.77	44921.90
510.95	45476.61
511.12	44868.07
511.30	45191.06
511.47	45151.27
511.64	45647.47
511.82	45797.26
511.99	45301.07
512.17	46197.49
512.34	45921.31
512.51	46085.15
512.69	46106.21
512.86	46239.62
513.04	46082.81
513.21	46344.95
513.38	46560.28
513.56	46480.70
513.73	46333.24
513.90	46925.40
514.08	46504.10
514.25	46866.89
514.43	47208.61
514.60	47590.11
514.77	47571.39
514.95	47583.09
515.12	47821.83
515.29	47679.05
515.47	48121.41
515.64	47899.06
515.81	47861.61
515.99	47908.43
516.16	48013.75
516.33	48432.71
516.51	48624.63
516.68	48325.04
516.85	48465.47
517.03	48486.54
517.20	48863.36
517.37	48720.59
517.54	48891.45
517.72	48968.69
517.89	49078.69
518.06	49221.47
518.24	49289.34
518.41	49364.24
518.58	49425.09
518.75	49120.82
518.93	49574.89
519.10	49144.23
519.27	49797.24
519.45	49354.88
519.62	49909.58
519.79	50003.20
519.96	49762.13
520.14	49759.79
520.31	50017.25
520.48	50527.48
520.65	50167.04
520.83	50660.90
521.00	50721.75
521.17	50497.06
521.34	50583.66
521.52	50749.84
521.69	50857.50
521.86	51035.38
522.03	51079.85
522.20	51154.75
522.38	51257.73
522.55	51260.07
522.72	51231.99
522.89	51522.21
523.07	51636.90
523.24	51449.66
523.41	51529.23
523.58	51613.49
523.75	51695.41
523.92	51700.09
524.10	51688.39
524.27	52268.84
524.44	51927.13
524.61	51779.67
524.78	52025.43
524.96	52556.73
525.13	51831.16
525.30	52505.24
525.47	52556.73
525.64	52591.84
525.81	52250.12
525.98	52727.59
526.16	52516.94
526.33	52580.13
526.50	52999.09
526.67	52603.54
526.84	52921.85
527.01	52844.62
527.18	52839.93
527.36	52985.05
527.53	52971.00
527.70	53176.97
527.87	53169.95
528.04	52996.75
528.21	53066.97
528.38	53441.45
528.55	53574.86
528.72	53195.70
528.89	53305.70
529.07	53240.17
529.24	53389.96
529.41	53792.53
529.58	53396.98
529.75	53581.88
529.92	53757.42
530.09	53722.32
530.26	53736.36
530.43	53759.76
530.60	53750.40
530.77	53888.49
530.94	53979.78
531.11	53916.58
531.28	53986.80
531.46	53982.12
531.63	54012.54
531.80	54160.00
531.97	54183.40
532.14	54480.65
532.31	54396.39
532.48	54363.62
532.65	54623.42
532.82	54305.11
532.99	54639.81
533.16	54387.03
533.33	54614.06
533.50	54784.92
533.67	54623.42
533.84	54742.79
534.01	54894.92
534.18	54583.63
534.35	55248.35
534.52	54955.78
534.69	55201.53
534.86	55025.99
535.03	55107.91
535.20	55157.06
535.37	55164.09
535.54	55339.63
535.71	55105.57
535.88	55346.65
536.05	55533.89
536.22	55276.43
536.38	55412.18
536.55	55529.21
536.72	55356.01
536.89	55353.67
537.06	55466.02
537.23	55828.80
537.40	55561.98
537.57	55728.16
537.74	55833.48
537.91	56016.04
538.08	55831.14
538.25	55290.48
538.42	55669.64
538.59	56104.98
538.75	55664.96
538.92	55964.55
539.09	56294.56
539.26	55913.06
539.43	56154.13
539.60	56310.95
539.77	56280.52
539.94	56254.78
540.11	56165.84
540.28	56376.48
540.44	56537.98
540.61	56324.99
540.78	56322.65
540.95	56198.60
541.12	56147.11
541.29	56411.59
541.46	56406.91
541.62	56549.68
541.79	56816.50
541.96	56170.52
542.13	56601.18
542.30	56678.41
542.47	56699.48
542.63	56786.08
542.80	56877.36
542.97	56868.00
543.14	57127.80
543.31	57052.90
543.48	57286.95
543.64	57352.49
543.81	57102.05
543.98	57408.66
544.15	57338.44
544.32	57448.45
544.48	57546.75
544.65	57221.42
544.82	57286.95
544.99	57202.69
545.16	57345.47
545.32	57560.79
545.49	57752.72
545.66	57797.19
545.83	57677.82
546.00	57698.89
546.16	57645.05
546.33	57621.65
546.50	57296.31
546.67	57645.05
546.83	57357.17
547.00	57666.12
547.17	57602.92
547.34	57696.55
547.50	57902.51
547.67	58117.84
547.84	57827.62
548.00	58085.07
548.17	58152.95
548.34	58085.07
548.51	58171.67
548.67	58117.84
548.84	58078.05
549.01	57946.98
549.18	58064.01
549.34	58443.18
549.51	58312.11
549.68	58358.92
549.84	58415.09
550.01	58457.22
550.18	58071.03
550.34	58225.51
550.51	58387.00
550.68	58241.89
550.84	58309.77
551.01	58433.81
551.18	58255.93
551.34	58314.45
551.51	58656.17
551.68	58473.60
551.84	58464.24
552.01	58291.04
552.18	58571.91
552.34	58429.13
552.51	58775.53
552.68	58473.60
552.84	58513.39
553.01	58754.47
553.18	58763.83
553.34	58717.02
553.51	58761.49
553.67	58782.55
553.84	58976.82
554.01	58960.44
554.17	58862.13
554.34	59068.10
554.51	58922.99
554.67	58899.58
554.84	58899.58
555.00	59021.29
555.17	58988.52
555.33	58972.14
555.50	58908.94
555.67	58962.78
555.83	58899.58
556.00	58939.37
556.16	59316.20
556.33	59143.00
556.50	59159.38
556.66	59290.45
556.83	59047.04
556.99	59295.13
557.16	59512.80
557.32	59381.73
557.49	59536.21
557.65	59161.72
557.82	59370.03
557.98	59215.55
558.15	59416.84
558.32	59552.59
558.48	59440.24
558.65	59320.88
558.81	59529.19
558.98	59437.90
559.14	59433.22
559.31	59557.27
559.47	59554.93
559.64	59632.17
559.80	59739.83
559.97	59749.20
560.13	59468.33
560.30	59695.36
560.46	59873.24
560.63	59723.45
560.79	59791.33
560.96	59931.76
561.12	59889.63
561.29	59568.97
561.45	59870.90
561.61	59739.83
561.78	59824.09
561.94	59693.02
562.11	59613.44
562.27	59917.71
562.44	60135.38
562.60	59821.75
562.77	59819.41
562.93	59826.43
563.10	59966.87
563.26	59732.81
563.42	60126.02
563.59	59796.01
563.75	59952.82
563.92	60004.31
564.08	59770.26
564.24	60324.97
564.41	60163.47
564.57	59973.89
564.74	60060.49
564.90	60016.02
565.07	59854.52
565.23	59971.55
565.39	60107.30
565.56	60165.81
565.72	60095.60
565.88	60030.06
566.05	60133.04
566.21	60006.65
566.38	60018.36
566.54	60142.41
566.70	60310.92
566.87	60123.68
567.03	59875.58
567.19	60285.18
567.36	60346.03
567.52	60357.74
567.68	60397.52
567.85	60245.39
568.01	60327.31
568.17	60329.65
568.34	60299.22
568.50	60264.11
568.66	60210.28
568.83	60467.74
568.99	60271.14
569.15	60449.02
569.32	60404.55
569.48	60308.58
569.64	60584.77
569.81	60327.31
569.97	60200.92
570.13	60460.72
570.30	60313.26
570.46	60399.86
570.62	60367.10
570.78	60320.29
570.95	60519.23
571.11	60570.72
571.27	60240.71
571.43	60310.92
571.60	60612.85
571.76	60493.49
571.92	60472.42
572.09	60549.66
572.25	60589.45
572.41	60617.53
572.57	60491.15
572.74	60781.37
572.90	60587.11
573.06	60451.36
573.22	60547.32
573.38	60629.24
573.55	60519.23
573.71	60685.41
573.87	60535.62
574.03	60420.93
574.20	60636.26
574.36	60603.49
574.52	60657.32
574.68	60769.67
574.84	60519.23
575.01	60732.22
575.17	60704.13
575.33	60687.75
575.49	60622.22
575.65	60498.17
575.82	60816.48
575.98	60631.58
576.14	60844.57
576.30	60753.29
576.46	60533.28
576.62	60774.35
576.79	60727.54
576.95	60559.02
577.11	60811.80
577.27	60844.57
577.43	60858.61
577.59	60739.24
577.75	60711.16
577.92	60699.45
578.08	60669.03
578.24	60708.82
578.40	60956.91
578.56	60846.91
578.72	60896.06
578.88	60863.29
579.04	60994.36
579.21	60917.12
579.37	60846.91
579.53	61043.51
579.69	60589.45
579.85	60566.04
580.01	60928.83
580.17	60706.47
580.33	60732.22
580.49	60809.46
580.65	60893.72
580.82	60828.18
580.98	60809.46
581.14	60729.88
581.30	61029.47
581.46	60842.23
581.62	61010.74
581.78	60711.16
581.94	60783.71
582.10	60830.52
582.26	60807.12
582.42	60790.73
582.58	60804.78
582.74	60851.59
582.90	60788.39
583.06	60704.13
583.22	60879.67
583.38	60898.40
583.54	60926.49
583.70	60973.30
583.86	61078.62
584.02	60926.49
584.18	61078.62
584.34	61062.24
584.50	60954.57
584.66	60811.80
584.82	60856.27
584.98	61083.30
585.14	61006.06
585.30	60996.70
585.46	61036.49
585.62	60956.91
585.78	60924.14
585.94	60788.39
586.10	60858.61
586.26	60973.30
586.42	61080.96
586.58	61013.08
586.74	61087.98
586.90	61059.90
587.06	60970.96
587.22	61104.37
587.38	60961.59
587.54	61073.94
587.70	61242.46
587.86	60870.31
588.02	61045.85
588.18	61228.41
588.34	61048.19
