SpectraSuite Data File
++++++++++++++++++++++++++++++++++++
Date: Fri Oct 25 11:34:00 EDT 2013
User: price-jones
Dark Spectrum Present: No
Reference Spectrum Present: No
Number of Sampled Component Spectra: 1
Spectrometers: USB2+H05261
Integration Time (usec): 100000 (USB2+H05261)
Spectra Averaged: 1 (USB2+H05261)
Boxcar Smoothing: 0 (USB2+H05261)
Correct for Electrical Dark: No (USB2+H05261)
Strobe/Lamp Enabled: No (USB2+H05261)
Correct for Detector Non-linearity: No (USB2+H05261)
Correct for Stray Light: No (USB2+H05261)
Number of Pixels in Processed Spectrum: 2048
>>>>>Begin Processed Spectral Data<<<<<
365.73	318.31
365.92	318.31
366.12	318.31
366.32	205.97
366.52	262.14
366.72	198.95
366.91	222.35
367.11	124.05
367.31	159.16
367.51	149.79
367.70	208.31
367.90	126.39
368.10	248.10
368.30	194.26
368.49	245.76
368.69	224.69
368.89	210.65
369.09	236.39
369.28	161.50
369.48	201.29
369.68	215.33
369.87	231.71
370.07	245.76
370.27	297.25
370.47	304.27
370.66	524.28
370.86	484.49
371.06	587.47
371.25	554.71
371.45	528.96
371.65	603.86
371.84	482.15
372.04	533.64
372.24	524.28
372.44	571.09
372.63	528.96
372.83	561.73
373.03	655.35
373.22	575.77
373.42	615.56
373.62	660.03
373.81	627.26
374.01	566.41
374.21	669.39
374.40	638.97
374.60	706.84
374.79	653.01
374.99	699.82
375.19	692.80
375.38	732.59
375.58	713.86
375.78	657.69
375.97	664.71
376.17	683.44
376.37	617.90
376.56	685.78
376.76	674.07
376.95	641.31
377.15	699.82
377.35	781.74
377.54	692.80
377.74	716.20
377.93	755.99
378.13	723.23
378.33	779.40
378.52	734.93
378.72	744.29
378.91	746.63
379.11	723.23
379.31	723.23
379.50	723.23
379.70	713.86
379.89	699.82
380.09	730.25
380.28	741.95
380.48	739.61
380.68	711.52
380.87	755.99
381.07	784.08
381.26	709.18
381.46	725.57
381.65	734.93
381.85	802.80
382.04	730.25
382.24	779.40
382.43	772.38
382.63	786.42
382.83	734.93
383.02	856.64
383.22	807.48
383.41	793.44
383.61	828.55
383.80	870.68
384.00	821.53
384.19	720.88
384.39	837.91
384.58	774.72
384.78	840.25
384.97	854.30
385.17	809.83
385.36	844.93
385.56	882.38
385.75	840.25
385.95	774.72
386.14	814.51
386.34	887.06
386.53	887.06
386.72	807.48
386.92	891.74
387.11	915.15
387.31	882.38
387.50	898.77
387.70	908.13
387.89	952.60
388.09	849.61
388.28	816.85
388.48	894.08
388.67	884.72
388.86	877.70
389.06	898.77
389.25	929.19
389.45	943.24
389.64	950.26
389.84	917.49
390.03	870.68
390.22	964.30
390.42	968.98
390.61	1057.92
390.81	936.21
391.00	954.94
391.19	985.37
391.39	999.41
391.58	999.41
391.78	992.39
391.97	978.34
392.16	954.94
392.36	1093.03
392.55	1069.62
392.75	943.24
392.94	1048.56
393.13	976.00
393.33	1004.09
393.52	1043.88
393.71	1118.78
393.91	1118.78
394.10	1013.45
394.29	1153.88
394.49	1123.46
394.68	1046.22
394.88	1032.18
395.07	1165.59
395.26	1193.67
395.46	1071.97
395.65	1144.52
395.84	1188.99
396.04	1196.01
396.23	1221.76
396.42	1142.18
396.62	1186.65
396.81	1217.08
397.00	1252.19
397.19	1217.08
397.39	1214.74
397.58	1289.64
397.77	1212.40
397.97	1287.29
398.16	1254.53
398.35	1273.25
398.55	1284.95
398.74	1308.36
398.93	1401.98
399.12	1303.68
399.32	1261.55
399.51	1245.16
399.70	1352.83
399.90	1268.57
400.09	1366.87
400.28	1341.13
400.47	1394.96
400.67	1355.17
400.86	1406.66
401.05	1439.43
401.24	1497.94
401.44	1572.84
401.63	1465.18
401.82	1500.28
402.01	1394.96
402.21	1472.20
402.40	1399.64
402.59	1528.37
402.78	1479.22
402.97	1462.83
403.17	1409.00
403.36	1603.27
403.55	1549.43
403.74	1631.35
403.93	1554.12
404.13	1540.07
404.32	1617.31
404.51	1551.78
404.70	1572.84
404.89	1629.01
405.09	1755.40
405.28	1764.76
405.47	1659.44
405.66	1619.65
405.85	1746.04
406.05	1722.63
406.24	1776.47
406.43	1818.60
406.62	1792.85
406.81	1818.60
407.00	1818.60
407.20	1816.26
407.39	1732.00
407.58	1832.64
407.77	1729.66
407.96	1907.54
408.15	1818.60
408.34	1856.04
408.54	1881.79
408.73	1839.66
408.92	1959.03
409.11	1989.46
409.30	1956.69
409.49	1966.05
409.68	1989.46
409.87	1954.35
410.07	2024.56
410.26	1930.94
410.45	2029.24
410.64	2036.27
410.83	2136.91
411.02	2054.99
411.21	2150.95
411.40	2134.57
411.59	2263.30
411.78	2230.53
411.98	2153.29
412.17	2188.40
412.36	2174.36
412.55	2260.96
412.74	2377.98
412.93	2307.77
413.12	2239.89
413.31	2443.52
413.50	2415.43
413.69	2340.54
413.88	2448.20
414.07	2352.24
414.26	2366.28
414.45	2445.86
414.64	2539.48
414.83	2506.71
415.02	2626.08
415.22	2614.38
415.41	2630.76
415.60	2663.53
415.79	2572.25
415.98	2733.75
416.17	2836.73
416.36	2691.62
416.55	2684.59
416.74	2848.43
416.93	2764.17
417.12	2836.73
417.31	2876.52
417.50	2862.48
417.69	2937.37
417.88	2932.69
418.07	2920.99
418.26	2988.86
418.45	2960.78
418.64	3038.02
418.83	2991.20
419.02	3023.97
419.21	3098.87
419.39	3148.02
419.58	2998.23
419.77	3005.25
419.96	3098.87
420.15	3155.04
420.34	3133.98
420.53	3094.19
420.72	3190.15
420.91	3262.71
421.10	3276.75
421.29	3304.84
421.48	3101.21
421.67	3126.96
421.86	3262.71
422.05	3241.64
422.24	3283.77
422.43	3262.71
422.61	3234.62
422.80	3215.90
422.99	3400.80
423.18	3349.31
423.37	3370.37
423.56	3297.81
423.75	3431.23
423.94	3290.79
424.13	3173.77
424.32	3279.09
424.50	3286.11
424.69	3489.74
424.88	3389.10
425.07	3461.65
425.26	3255.69
425.45	3480.38
425.64	3400.80
425.83	3361.01
426.01	3473.36
426.20	3396.12
426.39	3353.99
426.58	3419.52
426.77	3538.89
426.96	3527.19
427.15	3569.32
427.33	3475.70
427.52	3541.23
427.71	3618.47
427.90	3513.14
428.09	3538.89
428.28	3684.00
428.46	3681.66
428.65	3665.28
428.84	3726.13
429.03	3679.32
429.22	3751.88
429.40	3831.46
429.59	3735.50
429.78	3576.34
429.97	3536.55
430.16	3747.20
430.34	3707.41
430.53	3779.97
430.72	3831.46
430.91	3758.90
431.10	3843.16
431.28	3906.35
431.47	3941.46
431.66	4065.51
431.85	3983.59
432.03	3887.63
432.22	4037.42
432.41	4018.70
432.60	3889.97
432.79	4173.18
432.97	4091.26
433.16	4030.40
433.35	4039.76
433.54	4037.42
433.72	4161.47
433.91	4081.89
434.10	4210.62
434.28	4035.08
434.47	4065.51
434.66	4318.29
434.85	4208.28
435.03	4311.27
435.22	4271.48
435.41	4458.72
435.59	4215.30
435.78	4276.16
435.97	4353.40
436.16	4257.43
436.34	4402.55
436.53	4348.72
436.72	4404.89
436.90	4308.93
437.09	4430.63
437.28	4416.59
437.46	4507.87
437.65	4315.95
437.84	4444.68
438.02	4498.51
438.21	4526.60
438.40	4486.81
438.58	4774.69
438.77	4573.41
438.96	4585.11
439.14	4840.23
439.33	4826.18
439.52	4901.08
439.70	4844.91
439.89	4896.40
440.08	4947.89
440.26	4964.28
440.45	4847.25
440.63	4933.85
440.82	5146.84
441.01	5160.88
441.19	5132.79
441.38	5111.73
441.57	5179.61
441.75	5277.91
441.94	5238.12
442.12	5369.19
442.31	5341.10
442.50	5331.74
442.68	5401.96
442.87	5348.12
443.05	5476.85
443.24	5493.24
443.43	5462.81
443.61	5469.83
443.80	5806.87
443.98	5514.30
444.17	5296.63
444.35	5554.09
444.54	5701.54
444.73	5481.53
444.91	5448.77
445.10	5549.41
445.28	5568.13
445.47	5652.39
445.65	5638.35
445.84	5589.20
446.02	5640.69
446.21	5547.07
446.39	5577.50
446.58	5685.16
446.77	5563.45
446.95	5673.46
447.14	5551.75
447.32	5659.42
447.51	5778.78
447.69	5551.75
447.88	5696.86
448.06	5661.76
448.25	5610.26
448.43	5820.91
448.62	5701.54
448.80	5692.18
448.99	5856.02
449.17	5907.51
449.36	5671.12
449.54	5919.21
449.73	5928.58
449.91	6026.88
450.10	5996.45
450.28	6069.01
450.46	5970.71
450.65	6054.97
450.83	5912.19
451.02	6083.05
451.20	5984.75
451.39	6043.26
451.57	6179.01
451.76	6118.16
451.94	5951.98
452.13	6118.16
452.31	6249.23
452.49	6188.38
452.68	6396.68
452.86	6218.80
453.05	6326.47
453.23	6300.72
453.42	6305.40
453.60	6265.61
453.78	6352.21
453.97	6335.83
454.15	6265.61
454.34	6452.86
454.52	6335.83
454.70	6546.48
454.89	6576.91
455.07	6445.84
455.26	6436.47
455.44	6649.46
455.62	6747.76
455.81	6637.76
455.99	6600.31
456.17	6630.74
456.36	6633.08
456.54	6857.77
456.73	7012.24
456.91	6942.03
457.09	6775.85
457.28	7002.88
457.46	6993.52
457.64	7066.08
457.83	6970.12
458.01	6946.71
458.19	6911.60
458.38	7014.59
458.56	7063.74
458.74	7073.10
458.93	7269.70
459.11	7014.59
459.29	7145.66
459.48	7335.24
459.66	7157.36
459.84	7279.07
460.03	7129.27
460.21	7314.17
460.39	7295.45
460.57	7349.28
460.76	7335.24
460.94	7461.63
461.12	7372.69
461.31	7520.14
461.49	7454.61
461.67	7279.07
461.85	7658.23
462.04	7627.81
462.22	7789.30
462.40	7868.88
462.59	7646.53
462.77	7646.53
462.95	7803.35
463.13	7845.48
463.32	7735.47
463.50	7880.58
463.68	7592.70
463.86	7758.88
464.05	7674.62
464.23	7751.85
464.41	7796.32
464.59	7655.89
464.78	7948.46
464.96	7882.92
465.14	7852.50
465.32	8070.17
465.50	7997.61
465.69	8119.32
465.87	7939.10
466.05	8112.30
466.23	8105.28
466.41	8140.38
466.60	8159.11
466.78	8098.25
466.96	8006.97
467.14	8210.60
467.32	8159.11
467.51	8301.88
467.69	8243.37
467.87	8276.13
468.05	8215.28
468.23	8353.37
468.41	8170.81
468.60	8411.89
468.78	8290.18
468.96	8437.63
469.14	8479.76
469.32	8535.93
469.50	8437.63
469.69	8526.57
469.87	8601.47
470.05	8615.51
470.23	8793.39
470.41	8601.47
470.59	8828.50
470.77	8699.77
470.95	8753.60
471.14	9027.45
471.32	8746.58
471.50	8943.19
471.68	8741.90
471.86	8847.22
472.04	8987.66
472.22	9181.92
472.40	8945.53
472.58	9069.58
472.77	9104.68
472.95	9312.99
473.13	9628.96
473.31	9200.65
473.49	9252.14
473.67	9394.91
473.85	9507.26
474.03	9745.99
474.21	9724.93
474.39	9446.40
474.57	9820.89
474.75	9970.68
474.93	9907.49
475.12	9947.28
475.30	9975.36
475.48	9771.74
475.66	9991.75
475.84	9919.19
476.02	10085.37
476.20	9949.62
476.38	10125.16
476.56	10424.75
476.74	10265.59
476.92	10296.02
477.10	10310.06
477.28	10682.20
477.46	10656.46
477.64	10789.87
477.82	10710.29
478.00	11047.33
478.18	10988.82
478.36	11087.12
478.54	11220.53
478.72	11138.61
478.90	11328.19
479.08	11679.27
479.26	11477.99
479.44	11676.93
479.62	11702.68
479.80	11595.01
479.98	11948.43
480.16	12020.99
480.34	11754.17
480.52	12126.32
480.70	12168.45
480.88	12203.55
481.06	12243.34
481.24	12400.16
481.41	12404.84
481.59	12271.43
481.77	12659.96
481.95	12444.63
482.13	12650.60
482.31	12610.81
482.49	13046.15
482.67	12910.40
482.85	13310.63
483.03	13219.35
483.21	13296.58
483.39	13465.10
483.57	13488.51
483.74	13994.06
483.92	13750.65
484.10	13923.85
484.28	14216.41
484.46	14300.67
484.64	14513.66
484.82	14490.26
485.00	14558.13
485.18	14733.67
485.35	14930.28
485.53	14869.42
485.71	15335.19
485.89	15393.70
486.07	15178.37
486.25	15070.71
486.43	15227.53
486.61	15632.44
486.78	15573.92
486.96	15639.46
487.14	15522.43
487.32	15913.30
487.50	16191.83
487.68	16196.51
487.85	16484.39
488.03	16594.40
488.21	16844.84
488.39	16533.54
488.57	16989.95
488.75	16788.66
488.92	17357.41
489.10	17207.62
489.28	17170.17
489.46	17352.73
489.64	17465.08
489.81	17729.56
489.99	17563.38
490.17	17841.90
490.35	17825.52
490.53	18478.53
490.70	18391.93
490.88	18401.29
491.06	18368.52
491.24	18834.29
491.41	18850.67
491.59	18860.04
491.77	18932.59
491.95	19112.81
492.13	19293.04
492.30	19541.13
492.48	19634.75
492.66	19435.81
492.84	19674.54
493.01	19662.84
493.19	19814.98
493.37	20156.69
493.54	20175.42
493.72	20327.55
493.90	20262.02
494.08	20585.01
494.25	20491.39
494.43	20929.07
494.61	20847.15
494.79	21057.80
494.96	20966.52
495.14	21263.77
495.32	21769.32
495.49	21359.73
495.67	21586.76
495.85	21799.75
496.02	21996.35
496.20	22155.51
496.38	21979.97
496.55	21865.28
496.73	22462.12
496.91	22588.51
497.09	22347.44
497.26	22721.92
497.44	22522.98
497.62	22719.58
497.79	23260.24
497.97	22963.00
498.14	23201.73
498.32	23676.86
498.50	23257.90
498.67	23899.21
498.85	23599.62
499.03	23718.99
499.20	23482.59
499.38	23910.91
499.56	24049.00
499.73	24184.76
499.91	24086.45
500.08	24297.10
500.26	24233.91
500.44	24521.79
500.61	24350.93
500.79	24386.04
500.97	24470.30
501.14	25221.61
501.32	25167.78
501.49	25083.52
501.67	24807.34
501.84	25362.04
502.02	25308.21
502.20	25390.13
502.37	25455.67
502.55	25219.27
502.72	25846.54
502.90	25415.88
503.07	25530.56
503.25	25537.59
503.43	25357.36
503.60	26326.35
503.78	25972.92
503.95	26019.74
504.13	26228.04
504.30	26099.31
504.48	26377.84
504.65	26698.49
504.83	26628.27
505.01	26785.09
505.18	27180.64
505.36	27241.50
505.53	26918.50
505.71	27143.19
505.88	26962.97
506.06	27065.96
506.23	27503.64
506.41	27405.33
506.58	27033.19
506.76	27480.23
506.93	27571.51
507.11	27786.84
507.28	27449.80
507.46	28056.00
507.63	27763.43
507.81	28133.24
507.98	27711.94
508.16	27908.55
508.33	28156.64
508.50	27931.95
508.68	28194.09
508.85	28386.02
509.03	28673.90
509.20	28781.57
509.38	29050.73
509.55	28720.71
509.73	28816.68
509.90	29099.88
510.08	29301.17
510.25	28725.39
510.42	29336.27
510.60	29453.30
510.77	29635.86
510.95	29563.31
511.12	29565.65
511.30	29666.29
511.47	29916.73
511.64	29879.28
511.82	29848.85
511.99	30033.75
512.17	29921.41
512.34	29823.11
512.51	30412.92
512.69	30558.03
512.86	29916.73
513.04	30602.50
513.21	30415.26
513.38	30487.82
513.56	30803.79
513.73	30742.94
513.90	30635.27
514.08	30490.16
514.25	30663.36
514.43	31201.68
514.60	30923.16
514.77	31318.71
514.95	31552.76
515.12	31016.78
515.29	31358.50
515.47	31503.61
515.64	31644.04
515.81	31421.69
515.99	31557.44
516.16	31920.23
516.33	31723.62
516.51	32105.13
516.68	31461.48
516.85	32058.32
517.03	32252.58
517.20	32231.52
517.37	32112.15
517.54	32266.63
517.72	32091.09
517.89	32500.68
518.06	32320.46
518.24	32561.53
518.41	32451.53
518.58	32833.04
518.75	32655.15
518.93	32802.61
519.10	32882.19
519.27	32924.32
519.45	33050.70
519.62	33275.40
519.79	33029.64
519.96	33425.19
520.14	33214.54
520.31	33111.56
520.48	33563.28
520.65	33497.75
520.83	33556.26
521.00	33783.29
521.17	33652.22
521.34	34024.37
521.52	34155.44
521.69	34218.63
521.86	34251.40
522.03	34621.20
522.20	34515.88
522.38	34906.75
522.55	34408.22
522.72	34527.58
522.89	34471.41
523.07	34773.34
523.24	34763.98
523.41	35009.73
523.58	34651.63
523.75	34892.71
523.92	35215.70
524.10	35037.82
524.27	35346.77
524.44	35035.48
524.61	35225.06
524.78	35555.08
524.96	35648.70
525.13	35548.06
525.30	35709.55
525.47	35407.62
525.64	35637.00
525.81	35512.95
525.98	35803.17
526.16	35744.66
526.33	35707.21
526.50	35913.18
526.67	35655.72
526.84	35992.76
527.01	35952.97
527.18	36236.17
527.36	35861.69
527.53	36596.62
527.70	36694.92
527.87	36854.08
528.04	36552.15
528.21	36591.94
528.38	36690.24
528.55	36950.04
528.72	36797.90
528.89	36500.65
529.07	36891.52
529.24	37057.70
529.41	37015.57
529.58	36931.31
529.75	36823.65
529.92	37256.65
530.09	37263.67
530.26	37324.52
530.43	37397.08
530.60	37266.01
530.77	36760.45
530.94	37317.50
531.11	37214.52
531.28	37167.71
531.46	37745.82
531.63	37603.05
531.80	37710.71
531.97	37926.04
532.14	37883.91
532.31	37993.92
532.48	38195.20
532.65	37944.76
532.82	37921.36
532.99	37883.91
533.16	38213.93
533.33	38064.13
533.50	38181.16
533.67	38330.95
533.84	37724.75
534.01	38029.02
534.18	38115.62
534.35	39058.86
534.52	38927.79
534.69	38623.52
534.86	38663.31
535.03	38930.13
535.20	38550.96
535.37	38651.61
535.54	38831.83
535.71	38857.57
535.88	39306.96
536.05	39054.18
536.22	39515.26
536.38	39014.39
536.55	39166.52
536.72	39199.29
536.89	39243.76
537.06	39000.35
537.23	39210.99
537.40	39695.49
537.57	39353.77
537.74	39084.61
537.91	39782.09
538.08	39365.47
538.25	39239.08
538.42	39742.30
538.59	40121.46
538.75	39906.13
538.92	39983.37
539.09	40011.46
539.26	39971.67
539.43	39887.41
539.60	40074.65
539.77	40046.57
539.94	40149.55
540.11	40334.45
540.28	40568.51
540.44	40002.10
540.61	40392.97
540.78	40271.26
540.95	40161.25
541.12	40292.32
541.29	40191.68
541.46	40313.39
541.62	40659.79
541.79	40758.09
541.96	40671.49
542.13	40435.10
542.30	40816.60
542.47	40933.63
542.63	40921.93
542.80	41148.96
542.97	41282.37
543.14	41422.80
543.31	41010.87
543.48	41219.17
543.64	41640.47
543.81	41860.48
543.98	41486.00
544.15	41333.86
544.32	41502.38
544.48	42108.58
544.65	41514.08
544.82	41635.79
544.99	41586.64
545.16	41790.27
545.32	41853.46
545.49	41652.17
545.66	42192.84
545.83	41888.57
546.00	42000.91
546.16	42136.66
546.33	42204.54
546.50	41617.07
546.67	42501.79
546.83	42227.95
547.00	42099.22
547.17	42108.58
547.34	42192.84
547.50	42649.24
547.67	42829.46
547.84	42300.50
548.00	42401.14
548.17	42983.94
548.34	42827.12
548.51	43065.86
548.67	42665.63
548.84	42937.13
549.01	42703.07
549.18	42672.65
549.34	42852.87
549.51	42925.42
549.68	43063.52
549.84	43157.14
550.01	43112.67
550.18	42686.69
550.34	43054.15
550.51	43398.21
550.68	43023.73
550.84	43159.48
551.01	43641.63
551.18	42815.42
551.34	42990.96
551.51	43283.53
551.68	43260.12
551.84	43316.29
552.01	43328.00
552.18	43480.13
552.34	43405.23
552.51	43051.81
552.68	43463.75
552.84	43693.12
553.01	43473.11
553.18	43627.59
553.34	44055.90
553.51	43419.28
553.67	43938.88
553.84	43826.53
554.01	44112.08
554.17	43737.59
554.34	43849.94
554.51	43856.96
554.67	44308.68
554.84	43789.08
555.00	44081.65
555.17	44018.46
555.33	43936.54
555.50	44069.95
555.67	44165.91
555.83	44238.47
556.00	43908.45
556.16	44313.36
556.33	44135.48
556.50	44348.47
556.66	44123.78
556.83	44114.42
556.99	44650.40
557.16	44652.74
557.32	44573.16
557.49	44697.21
557.65	44329.75
557.82	44364.85
557.98	44247.83
558.15	44561.46
558.32	44245.49
558.48	44301.66
558.65	44533.37
558.81	44830.62
558.98	44900.84
559.14	44509.97
559.31	44456.14
559.47	44638.70
559.64	44657.42
559.80	44748.70
559.97	44861.05
560.13	44945.31
560.30	44655.08
560.46	45186.38
560.63	45151.27
560.79	45193.40
560.96	45268.30
561.12	45235.53
561.29	45434.48
561.45	45312.77
561.61	45064.67
561.78	44938.29
561.94	45193.40
562.11	45097.44
562.27	45193.40
562.44	45013.18
562.60	45612.36
562.77	45502.35
562.93	44964.03
563.10	45492.99
563.26	45123.19
563.42	45830.03
563.59	45436.82
563.75	45155.96
563.92	45148.93
564.08	45422.78
564.24	45511.72
564.41	45710.66
564.57	45837.05
564.74	45848.75
564.90	45434.48
565.07	45368.94
565.23	45860.46
565.39	45347.88
565.56	45724.71
565.72	45500.01
565.88	45258.94
566.05	45340.86
566.21	45790.24
566.38	45392.35
566.54	46181.11
566.70	45897.91
566.87	45373.63
567.03	45914.29
567.19	45928.33
567.36	45787.90
567.52	45607.68
567.68	46251.33
567.85	45457.88
568.01	45701.30
568.17	45972.80
568.34	45963.44
568.50	45813.65
568.66	45928.33
568.83	45565.55
568.99	45886.20
569.15	46057.06
569.32	46349.63
569.48	45633.42
569.64	46342.61
569.81	46223.24
569.97	46256.01
570.13	46169.41
570.30	45713.00
570.46	45787.90
570.62	46174.09
570.78	46277.07
570.95	46026.63
571.11	46295.80
571.27	45914.29
571.43	46085.15
571.60	45837.05
571.76	45743.43
571.92	46110.89
572.09	45848.75
572.25	46101.53
572.41	46220.90
572.57	45883.86
572.74	46738.16
572.90	45928.33
573.06	45874.50
573.22	46370.69
573.38	46234.94
573.55	46202.18
573.71	46607.09
573.87	46354.31
574.03	46513.47
574.20	46473.68
574.36	46522.83
574.52	46707.73
574.68	46244.30
574.84	46408.14
575.01	46700.71
575.17	46862.21
575.33	46153.02
575.49	46480.70
575.65	46337.93
575.82	46600.07
575.98	46506.44
576.14	46543.89
576.30	46520.49
576.46	46712.41
576.62	46443.25
576.79	46586.02
576.95	46113.23
577.11	46422.19
577.27	46494.74
577.43	46419.84
577.59	46209.20
577.75	46438.57
577.92	46403.46
578.08	46590.70
578.24	46696.03
578.40	46527.51
578.56	46696.03
578.72	46611.77
578.88	46419.84
579.04	46719.43
579.21	46487.72
579.37	46600.07
579.53	46401.12
579.69	46848.16
579.85	46703.05
580.01	46885.61
580.17	46466.66
580.33	46574.32
580.49	46749.86
580.65	46609.43
580.82	46536.87
580.98	46981.57
581.14	46347.29
581.30	47047.11
581.46	46773.27
581.62	46185.79
581.78	46185.79
581.94	46689.01
582.10	46492.40
582.26	46784.97
582.42	46630.49
582.58	46934.76
582.74	47136.05
582.90	46461.97
583.06	46951.15
583.22	46806.03
583.38	46817.74
583.54	46569.64
583.70	46754.54
583.86	46366.01
584.02	46813.05
584.18	46913.70
584.34	46806.03
584.50	46885.61
584.66	47040.09
584.82	46883.27
584.98	47271.80
585.14	47114.98
585.30	46429.21
585.46	46724.11
585.62	46948.81
585.78	47096.26
585.94	46417.50
586.10	46742.84
586.26	46291.12
586.42	46885.61
586.58	47196.90
586.74	46562.62
586.90	46600.07
587.06	46780.29
587.22	47229.67
587.38	46759.22
587.54	47281.16
587.70	47061.15
587.86	46820.08
588.02	46738.16
588.18	47014.34
588.34	46794.33
588.49	46780.29
588.65	46452.61
588.81	46782.63
588.97	46951.15
589.13	46850.50
589.29	46976.89
589.45	46820.08
589.61	47068.17
589.77	46988.60
589.93	47185.20
590.08	47213.29
