SpectraSuite Data File
++++++++++++++++++++++++++++++++++++
Date: Fri Oct 25 11:25:55 EDT 2013
User: price-jones
Dark Spectrum Present: No
Reference Spectrum Present: No
Number of Sampled Component Spectra: 1
Spectrometers: USB2+H05261
Integration Time (usec): 100000 (USB2+H05261)
Spectra Averaged: 1 (USB2+H05261)
Boxcar Smoothing: 0 (USB2+H05261)
Correct for Electrical Dark: No (USB2+H05261)
Strobe/Lamp Enabled: No (USB2+H05261)
Correct for Detector Non-linearity: No (USB2+H05261)
Correct for Stray Light: No (USB2+H05261)
Number of Pixels in Processed Spectrum: 2048
>>>>>Begin Processed Spectral Data<<<<<
365.73	248.10
365.92	248.10
366.12	248.10
366.32	142.77
366.52	105.32
366.72	128.73
366.91	88.94
367.11	210.65
367.31	145.11
367.51	154.48
367.70	98.30
367.90	184.90
368.10	124.05
368.30	175.54
368.49	114.69
368.69	182.56
368.89	93.62
369.09	142.77
369.28	140.43
369.48	170.86
369.68	177.88
369.87	198.95
370.07	222.35
370.27	191.92
370.47	299.59
370.66	704.50
370.86	641.31
371.06	655.35
371.25	723.23
371.45	681.10
371.65	653.01
371.84	660.03
372.04	648.33
372.24	713.86
372.44	774.72
372.63	709.18
372.83	660.03
373.03	730.25
373.22	718.54
373.42	711.52
373.62	753.65
373.81	760.67
374.01	908.13
374.21	816.85
374.40	767.70
374.60	856.64
374.79	767.70
374.99	791.10
375.19	814.51
375.38	814.51
375.58	798.12
375.78	847.27
375.97	842.59
376.17	903.45
376.37	910.47
376.56	901.11
376.76	884.72
376.95	868.34
377.15	887.06
377.35	910.47
377.54	933.87
377.74	912.81
377.93	863.66
378.13	894.08
378.33	901.11
378.52	968.98
378.72	851.96
378.91	1029.84
379.11	903.45
379.31	945.58
379.50	987.71
379.70	985.37
379.89	943.24
380.09	999.41
380.28	1025.15
380.48	849.61
380.68	952.60
380.87	931.53
381.07	1027.50
381.26	1071.97
381.46	983.02
381.65	990.05
381.85	1043.88
382.04	1041.54
382.24	1102.39
382.43	994.73
382.63	978.34
382.83	1095.37
383.02	1123.46
383.22	1146.86
383.41	1053.24
383.61	1109.41
383.80	1004.09
384.00	1057.92
384.19	1137.50
384.39	1137.50
384.58	1100.05
384.78	1160.91
384.97	1228.78
385.17	1149.20
385.36	1142.18
385.56	1240.48
385.75	1172.61
385.95	1137.50
386.14	1193.67
386.34	1214.74
386.53	1301.34
386.72	1158.57
386.92	1310.70
387.11	1121.12
387.31	1181.97
387.50	1336.45
387.70	1268.57
387.89	1380.92
388.09	1205.38
388.28	1313.04
388.48	1303.68
388.67	1289.64
388.86	1291.98
389.06	1387.94
389.25	1371.55
389.45	1350.49
389.64	1399.64
389.84	1313.04
390.03	1331.76
390.22	1420.71
390.42	1366.87
390.61	1404.32
390.81	1406.66
391.00	1465.18
391.19	1446.45
391.39	1383.26
391.58	1523.69
391.78	1462.83
391.97	1453.47
392.16	1441.77
392.36	1523.69
392.55	1504.96
392.75	1488.58
392.94	1519.01
393.13	1458.15
393.33	1521.35
393.52	1561.14
393.71	1582.20
393.91	1542.41
394.10	1598.59
394.29	1633.69
394.49	1558.80
394.68	1629.01
394.88	1692.21
395.07	1645.40
395.26	1593.90
395.46	1685.19
395.65	1689.87
395.84	1629.01
396.04	1788.17
396.23	1650.08
396.42	1750.72
396.62	1764.76
396.81	1774.13
397.00	1746.04
397.19	1827.96
397.39	1820.94
397.58	1778.81
397.77	1844.34
397.97	1886.47
398.16	1839.66
398.35	1909.88
398.55	1788.17
398.74	1933.28
398.93	1919.24
399.12	2008.18
399.32	1865.41
399.51	1905.20
399.70	2031.58
399.90	1968.39
400.09	2057.33
400.28	2010.52
400.47	1966.05
400.67	2127.55
400.86	2120.53
401.05	2054.99
401.24	2157.97
401.44	2153.29
401.63	2099.46
401.82	2218.83
402.01	2155.63
402.21	2162.66
402.40	2146.27
402.59	2218.83
402.78	2120.53
402.97	2157.97
403.17	2181.38
403.36	2298.41
403.55	2251.60
403.74	2492.67
403.93	2408.41
404.13	2312.45
404.32	2338.20
404.51	2370.96
404.70	2385.01
404.89	2387.35
405.09	2509.05
405.28	2497.35
405.47	2480.97
405.66	2471.61
405.85	2555.86
406.05	2485.65
406.24	2623.74
406.43	2597.99
406.62	2609.70
406.81	2532.46
407.00	2569.91
407.20	2605.02
407.39	2551.18
407.58	2663.53
407.77	2799.28
407.96	2738.43
408.15	2679.91
408.34	2717.36
408.54	2708.00
408.73	2857.79
408.92	2729.06
409.11	2874.18
409.30	2834.39
409.49	2911.63
409.68	2815.66
409.87	2836.73
410.07	3002.91
410.26	3028.65
410.45	2888.22
410.64	2991.20
410.83	3026.31
411.02	3023.97
411.21	3145.68
411.40	3112.91
411.59	3262.71
411.78	3218.24
411.98	3211.22
412.17	3248.66
412.36	3229.94
412.55	3260.37
412.74	3323.56
412.93	3370.37
413.12	3349.31
413.31	3494.42
413.50	3428.88
413.69	3592.72
413.88	3515.48
414.07	3566.98
414.26	3637.19
414.45	3482.72
414.64	3651.24
414.83	3686.34
415.02	3749.54
415.22	3939.12
415.41	3920.40
415.60	3929.76
415.79	3974.23
415.98	3852.52
416.17	3918.06
416.36	3831.46
416.55	4035.08
416.74	4060.83
416.93	4035.08
417.12	4269.14
417.31	4166.15
417.50	4241.05
417.69	4301.90
417.88	4252.75
418.07	4257.43
418.26	4187.22
418.45	4299.56
418.64	4456.38
418.83	4369.78
419.02	4510.21
419.21	4526.60
419.39	4580.43
419.58	4416.59
419.77	4545.32
419.96	4610.86
420.15	4472.76
420.34	4622.56
420.53	4573.41
420.72	4765.33
420.91	4678.73
421.10	4566.39
421.29	4737.24
421.48	4655.33
421.67	4669.37
421.86	4774.69
422.05	4819.16
422.24	4863.63
422.43	4894.06
422.61	4987.68
422.80	4919.81
422.99	4802.78
423.18	4999.38
423.37	4870.65
423.56	4910.44
423.75	4983.00
423.94	4821.50
424.13	4596.81
424.32	4767.67
424.50	5067.26
424.69	5179.61
424.88	5053.22
425.07	5008.75
425.26	4847.25
425.45	4997.04
425.64	4894.06
425.83	5050.88
426.01	4896.40
426.20	5247.48
426.39	5011.09
426.58	5041.51
426.77	5032.15
426.96	5203.01
427.15	4992.36
427.33	5177.26
427.52	5055.56
427.71	5345.78
427.90	5139.82
428.09	5298.97
428.28	5359.83
428.46	5327.06
428.65	5289.61
428.84	5444.09
429.03	5554.09
429.22	5291.95
429.40	5446.43
429.59	5359.83
429.78	5203.01
429.97	5254.50
430.16	5537.71
430.34	5509.62
430.53	5523.66
430.72	5586.86
430.91	5643.03
431.10	5483.88
431.28	5755.38
431.47	5771.76
431.66	5741.33
431.85	5666.44
432.03	5823.25
432.22	5998.79
432.41	6076.03
432.60	5909.85
432.79	6106.46
432.97	5963.68
433.16	6111.14
433.35	5968.37
433.54	6036.24
433.72	6031.56
433.91	6221.14
434.10	6125.18
434.28	6026.88
434.47	6122.84
434.66	6265.61
434.85	6127.52
435.03	6452.86
435.22	6338.17
435.41	6565.20
435.59	6427.11
435.78	6480.94
435.97	6396.68
436.16	6450.52
436.34	6518.39
436.53	6576.91
436.72	6520.73
436.90	6359.24
437.09	6656.48
437.28	6480.94
437.46	6750.10
437.65	6642.44
437.84	6595.63
438.02	6679.89
438.21	6693.93
438.40	6600.31
438.58	6913.94
438.77	7150.34
438.96	6883.52
439.14	7030.97
439.33	7094.16
439.52	7185.44
439.70	7140.97
439.89	7356.30
440.08	7356.30
440.26	7463.97
440.45	7403.11
440.63	7501.42
440.82	7470.99
441.01	7524.82
441.19	7599.72
441.38	7721.43
441.57	7536.52
441.75	7793.98
441.94	7875.90
442.12	7990.59
442.31	7941.44
442.50	8126.34
442.68	7882.92
442.87	8021.02
443.05	8152.09
443.24	8163.79
443.43	8109.96
443.61	8133.36
443.80	8444.65
443.98	8114.64
444.17	7812.71
444.35	8299.54
444.54	8271.45
444.73	8166.13
444.91	8170.81
445.10	8313.58
445.28	8149.75
445.47	8140.38
445.65	8381.46
445.84	8510.19
446.02	8409.54
446.21	8535.93
446.39	8493.80
446.58	8463.38
446.77	8437.63
446.95	8262.09
447.14	8383.80
447.32	8575.72
447.51	8709.13
447.69	8327.63
447.88	8475.08
448.06	8395.50
448.25	8519.55
448.43	8781.69
448.62	8475.08
448.80	8580.40
448.99	8711.47
449.17	8528.91
449.36	8477.42
449.54	8805.10
449.73	8964.25
449.91	8898.72
450.10	9013.40
450.28	9092.98
450.46	8987.66
450.65	8931.48
450.83	8929.14
451.02	9062.55
451.20	9179.58
451.39	8992.34
451.57	9085.96
451.76	8929.14
451.94	9320.01
452.13	9259.16
452.31	9462.79
452.49	9228.73
452.68	9345.76
452.86	9315.33
453.05	9495.55
453.23	9479.17
453.42	9298.95
453.60	9383.21
453.78	9462.79
453.97	9345.76
454.15	9376.19
454.34	9413.63
454.52	9685.14
454.70	9717.90
454.89	9907.49
455.07	9554.07
455.26	9851.31
455.44	10015.15
455.62	9975.36
455.81	9977.70
455.99	10022.17
456.17	9956.64
456.36	10076.01
456.54	10164.95
456.73	10209.42
456.91	10417.72
457.09	10455.17
457.28	10368.57
457.46	10256.23
457.64	10335.81
457.83	10314.74
458.01	10509.01
458.19	10768.80
458.38	10565.18
458.56	10658.80
458.74	10623.69
458.93	10483.26
459.11	10726.68
459.29	10766.46
459.48	10864.77
459.66	10939.66
459.84	10977.11
460.03	11054.35
460.21	10827.32
460.39	10874.13
460.57	10960.73
460.76	11084.78
460.94	11089.46
461.12	11098.82
461.31	11197.12
461.49	11169.04
461.67	11241.59
461.85	11508.41
462.04	11220.53
462.22	11826.73
462.40	11508.41
462.59	11545.86
462.77	11492.03
462.95	11618.42
463.13	11599.70
463.32	11688.64
463.50	11651.19
463.68	11761.19
463.86	11889.92
464.05	11557.57
464.23	11705.02
464.41	12079.50
464.59	11662.89
464.78	11822.05
464.96	11969.50
465.14	11812.68
465.32	12023.33
465.50	12030.35
465.69	11901.62
465.87	11974.18
466.05	12205.89
466.23	12444.63
466.41	12318.24
466.60	12241.00
466.78	12046.74
466.96	12121.63
467.14	11985.88
467.32	12458.67
467.51	12510.16
467.69	12152.06
467.87	12519.53
468.05	12489.10
468.23	12395.48
468.41	12503.14
468.60	12603.78
468.78	12608.47
468.96	12496.12
469.14	12699.75
469.32	12828.48
469.50	12650.60
469.69	12877.63
469.87	12985.29
470.05	13041.46
470.23	13202.96
470.41	13097.64
470.59	13275.52
470.77	13083.59
470.95	12957.21
471.14	13289.56
471.32	13149.13
471.50	13570.43
471.68	13657.03
471.86	13586.81
472.04	13647.66
472.22	13984.70
472.40	13582.13
472.58	13771.71
472.77	13895.76
472.95	14216.41
473.13	14544.09
473.31	13930.87
473.49	14148.54
473.67	14040.87
473.85	14157.90
474.03	14682.18
474.21	14834.32
474.39	14815.59
474.57	14623.67
474.75	14792.19
474.93	14981.77
475.12	14930.28
475.30	15087.09
475.48	14789.85
475.66	15089.43
475.84	15157.31
476.02	15243.91
476.20	15297.74
476.38	15674.57
476.56	16109.91
476.74	15833.72
476.92	15552.86
477.10	15606.69
477.28	16194.17
477.46	15950.75
477.64	16332.26
477.82	16299.49
478.00	17013.35
478.18	16666.95
478.36	17303.58
478.54	17149.11
478.72	17170.17
478.90	17334.01
479.08	17425.29
479.26	17439.33
479.44	17497.84
479.62	17816.16
479.80	18129.79
479.98	18029.15
480.16	18527.68
480.34	18239.79
480.52	18530.02
480.70	18635.35
480.88	18476.19
481.06	18483.21
481.24	18637.69
481.41	19044.94
481.59	19346.87
481.77	19353.89
481.95	19669.86
482.13	19630.07
482.31	19571.56
482.49	20095.84
482.67	20437.56
482.85	20255.00
483.03	20411.81
483.21	20793.32
483.39	21036.74
483.57	20709.06
483.74	20922.05
483.92	21010.99
484.10	21081.21
484.28	21446.33
484.46	21654.64
484.64	22211.68
484.82	21764.64
485.00	22176.58
485.18	22602.55
485.35	22986.40
485.53	22822.56
485.71	23035.55
485.89	23477.91
486.07	23475.57
486.25	23419.40
486.43	23688.56
486.61	24002.19
486.78	24173.05
486.96	24273.70
487.14	24189.44
487.32	24425.83
487.50	25043.73
487.68	24994.58
487.85	25441.62
488.03	25212.25
488.21	25722.49
488.39	25937.82
488.57	25862.92
488.75	25970.58
488.92	25940.16
489.10	26841.26
489.28	26700.83
489.46	26946.59
489.64	26969.99
489.81	27634.71
489.99	27566.83
490.17	27466.19
490.35	28116.86
490.53	28088.77
490.70	28070.04
490.88	28135.58
491.06	28568.58
491.24	28687.95
491.41	29195.84
491.59	28945.41
491.77	29298.83
491.95	29523.52
492.13	29825.45
492.30	29968.22
492.48	30218.66
492.66	29874.60
492.84	30319.30
493.01	30162.48
493.19	30333.34
493.37	31117.42
493.54	31026.14
493.72	31557.44
493.90	31466.16
494.08	31585.53
494.25	32079.38
494.43	31828.95
494.61	32173.00
494.79	32304.07
494.96	32271.31
495.14	32842.40
495.32	32840.06
495.49	33233.27
495.67	32926.66
495.85	33397.10
496.02	33450.94
496.20	33743.50
496.38	34115.65
496.55	33933.09
496.73	34995.69
496.91	34445.66
497.09	34504.18
497.26	34803.77
497.44	34440.98
497.62	35428.69
497.79	36018.50
497.97	35281.24
498.14	35693.17
498.32	35899.14
498.50	36109.78
498.67	36865.78
498.85	36570.87
499.03	36254.90
499.20	36830.67
499.38	36533.42
499.56	37165.37
499.73	37273.03
499.91	37069.40
500.08	37373.67
500.26	37401.76
500.44	37584.32
500.61	37731.78
500.79	37912.00
500.97	37926.04
501.14	38536.92
501.32	38003.28
501.49	38202.22
501.67	38890.34
501.84	38883.32
502.02	39040.14
502.20	38677.35
502.37	39206.31
502.55	38972.26
502.72	39643.99
502.90	39157.16
503.07	39351.43
503.25	39601.86
503.43	40067.63
503.60	39880.39
503.78	40079.33
503.95	40465.52
504.13	40446.80
504.30	40498.29
504.48	40629.36
504.65	40444.46
504.83	40755.75
505.01	41282.37
505.18	41163.00
505.36	41647.49
505.53	40947.67
505.71	41277.69
505.88	41591.32
506.06	41724.73
506.23	42059.43
506.41	41785.58
506.58	42239.65
506.76	42270.08
506.93	42459.66
507.11	42375.40
507.28	42270.08
507.46	42279.44
507.63	42686.69
507.81	43187.56
507.98	42763.93
508.16	43061.18
508.33	43201.61
508.50	42972.24
508.68	43313.95
508.85	43744.61
509.03	43700.14
509.20	43945.90
509.38	44381.24
509.55	44411.67
509.73	44109.74
509.90	44502.95
510.08	44456.14
510.25	44549.76
510.42	44744.02
510.60	45085.74
510.77	45439.16
510.95	45509.38
511.12	45191.06
511.30	45219.15
511.47	45432.14
511.64	45619.38
511.82	46108.55
511.99	45483.63
512.17	45986.85
512.34	45446.18
512.51	46148.34
512.69	46188.13
512.86	46354.31
513.04	46747.52
513.21	46337.93
513.38	46604.75
513.56	46894.97
513.73	46635.17
513.90	46724.11
514.08	46937.10
514.25	47110.30
514.43	47363.08
514.60	47442.66
514.77	47264.78
514.95	47959.92
515.12	47447.34
515.29	47536.28
515.47	47861.61
515.64	48100.35
515.81	47697.78
515.99	47693.10
516.16	48364.83
516.33	48037.16
516.51	48800.17
516.68	47980.98
516.85	48671.44
517.03	49001.46
517.20	48561.44
517.37	48460.79
517.54	48322.70
517.72	48846.98
517.89	49279.98
518.06	48994.43
518.24	49249.55
518.41	49272.96
518.58	49050.61
518.75	49179.34
518.93	49654.47
519.10	49574.89
519.27	49530.42
519.45	49516.37
519.62	49865.11
519.79	49853.41
519.96	49839.37
520.14	49970.44
520.31	49832.35
520.48	50307.47
520.65	50277.05
520.83	50609.40
521.00	51070.49
521.17	50398.76
521.34	50717.07
521.52	50754.52
521.69	50459.61
521.86	51161.77
522.03	51215.60
522.20	51093.89
522.38	51484.76
522.55	51182.84
522.72	51105.60
522.89	51269.43
523.07	51367.74
523.24	51444.98
523.41	51835.84
523.58	51494.13
523.75	52016.07
523.92	51126.66
524.10	51774.99
524.27	52074.58
524.44	52053.51
524.61	51971.60
524.78	52133.09
524.96	52100.32
525.13	52247.78
525.30	52411.62
525.47	52648.01
525.64	52250.12
525.81	52533.32
525.98	52385.87
526.16	52603.54
526.33	52563.75
526.50	52994.41
526.67	52718.23
526.84	52732.27
527.01	53064.63
527.18	52704.18
527.36	52837.59
527.53	53158.25
527.70	53338.47
527.87	53385.28
528.04	53326.77
528.21	53169.95
528.38	53188.67
528.55	53504.65
528.72	53591.25
528.89	53427.41
529.07	53380.60
529.24	53389.96
529.41	53656.78
529.58	53450.81
529.75	53642.74
529.92	53787.85
530.09	53668.48
530.26	53820.62
530.43	54064.03
530.60	53771.47
530.77	53839.34
530.94	54101.48
531.11	54087.44
531.28	54110.85
531.46	53881.47
531.63	54237.23
531.80	54124.89
531.97	54293.41
532.14	54550.87
532.31	54733.43
532.48	54396.39
532.65	54532.14
532.82	54277.02
532.99	54522.78
533.16	54534.48
533.33	54548.53
533.50	54841.09
533.67	54607.04
533.84	54555.55
534.01	54784.92
534.18	54703.00
534.35	55313.88
534.52	55009.61
534.69	55213.24
534.86	55327.92
535.03	55075.15
535.20	55201.53
535.37	55234.30
535.54	55316.22
535.71	55065.78
535.88	55524.53
536.05	55386.44
536.22	55466.02
536.38	55154.72
536.55	55292.82
536.72	55288.13
536.89	55295.16
537.06	55498.78
537.23	55903.70
537.40	55611.13
537.57	55805.39
537.74	55533.89
537.91	55870.93
538.08	55936.46
538.25	55545.59
538.42	55786.67
538.59	55952.85
538.75	55819.44
538.92	55847.52
539.09	56205.62
539.26	55999.66
539.43	56186.90
539.60	55973.91
539.77	56147.11
539.94	56261.80
540.11	56296.91
540.28	56418.61
540.44	56406.91
540.61	56409.25
540.78	56493.51
540.95	56479.47
541.12	56163.50
541.29	56254.78
541.46	56406.91
541.62	56507.55
541.79	56514.58
541.96	56346.06
542.13	56371.80
542.30	56502.87
542.47	56727.56
542.63	56786.08
542.80	56617.56
542.97	57001.41
543.14	57043.54
543.31	57097.37
543.48	57221.42
543.64	57574.84
543.81	57401.64
543.98	57106.73
544.15	57378.23
544.32	57340.78
544.48	57558.45
544.65	57130.14
544.82	57158.22
544.99	57422.70
545.16	57492.92
545.32	57340.78
545.49	57418.02
545.66	57619.31
545.83	57502.28
546.00	57504.62
546.16	57469.51
546.33	57518.67
546.50	57219.08
546.67	57598.24
546.83	57464.83
547.00	57715.27
547.17	57825.28
547.34	57752.72
547.50	57902.51
547.67	58113.16
547.84	57710.59
548.00	58061.67
548.17	57972.73
548.34	57853.36
548.51	58181.04
548.67	58094.44
548.84	58031.24
549.01	58099.12
549.18	58028.90
549.34	58078.05
549.51	58244.23
549.68	58298.06
549.84	58361.26
550.01	58396.37
550.18	58312.11
550.34	58347.21
550.51	58515.73
550.68	58230.19
550.84	58188.06
551.01	58454.88
551.18	58660.85
551.34	58555.52
551.51	58440.84
551.68	58527.44
551.84	58681.91
552.01	58492.33
552.18	58508.71
552.34	58351.90
552.51	58639.78
552.68	58485.31
552.84	58518.07
553.01	58827.02
553.18	58735.74
553.34	58857.45
553.51	58827.02
553.67	58946.39
553.84	59058.74
554.01	58899.58
554.17	59084.48
554.34	58911.28
554.51	58707.66
554.67	59007.25
554.84	59093.85
555.00	58988.52
555.17	58948.73
555.33	59047.04
555.50	58794.26
555.67	59016.61
555.83	58951.07
556.00	59187.47
556.16	59473.01
556.33	59171.08
556.50	59215.55
556.66	59264.70
556.83	58983.84
556.99	59573.66
557.16	59550.25
557.32	59341.94
557.49	59599.40
557.65	59302.15
557.82	59344.28
557.98	59215.55
558.15	59576.00
558.32	59430.88
558.48	59227.26
558.65	59688.34
558.81	59365.35
558.98	59297.47
559.14	59547.91
559.31	59594.72
559.47	59564.29
559.64	59774.94
559.80	59697.70
559.97	59847.50
560.13	59693.02
560.30	59737.49
560.46	59505.78
560.63	59620.47
560.79	59693.02
560.96	59887.29
561.12	59620.47
561.29	59746.86
561.45	59812.39
561.61	59678.98
561.78	59952.82
561.94	59704.73
562.11	59756.22
562.27	59700.04
562.44	60006.65
562.60	59950.48
562.77	60069.85
562.93	59784.30
563.10	60053.47
563.26	59873.24
563.42	60310.92
563.59	59976.23
563.75	59859.20
563.92	60079.21
564.08	59889.63
564.24	60381.14
564.41	59941.12
564.57	60121.34
564.74	60119.00
564.90	60151.77
565.07	59938.78
565.23	59971.55
565.39	59990.27
565.56	60149.43
565.72	60004.31
565.88	60090.91
566.05	60154.11
566.21	60137.72
566.38	60243.05
566.54	60093.25
566.70	60111.98
566.87	60355.39
567.03	60041.76
567.19	60367.10
567.36	60210.28
567.52	60266.45
567.68	60441.99
567.85	60219.64
568.01	60252.41
568.17	60191.56
568.34	60418.59
568.50	60243.05
568.66	60229.01
568.83	60346.03
568.99	60231.35
569.15	60432.63
569.32	60334.33
569.48	60350.71
569.64	60554.34
569.81	60238.37
569.97	60189.22
570.13	60439.65
570.30	60339.01
570.46	60322.63
570.62	60280.50
570.78	60470.08
570.95	60547.32
571.11	60669.03
571.27	60636.26
571.43	60502.85
571.60	60509.87
571.76	60315.61
571.92	60418.59
572.09	60502.85
572.25	60456.04
572.41	60505.19
572.57	60449.02
572.74	60678.39
572.90	60533.28
573.06	60444.33
573.22	60434.97
573.38	60582.43
573.55	60582.43
573.71	60781.37
573.87	60697.11
574.03	60486.46
574.20	60659.66
574.36	60612.85
574.52	60594.13
574.68	60615.19
574.84	60673.71
575.01	60697.11
575.17	60720.52
575.33	60570.72
575.49	60519.23
575.65	60610.51
575.82	60734.56
575.98	60853.93
576.14	60912.44
576.30	60643.28
576.46	60917.12
576.62	60514.55
576.79	60767.33
576.95	60467.74
577.11	60631.58
577.27	60673.71
577.43	60596.47
577.59	60664.35
577.75	60652.64
577.92	60563.70
578.08	60666.69
578.24	60699.45
578.40	60940.53
578.56	60802.44
578.72	60720.52
578.88	60926.49
579.04	60961.59
579.21	60662.00
579.37	61008.40
579.53	60924.14
579.69	60638.60
579.85	60872.65
580.01	60657.32
580.17	60821.16
580.33	60762.65
580.49	60891.38
580.65	60980.32
580.82	61027.13
580.98	60790.73
581.14	60832.86
581.30	60842.23
581.46	60636.26
581.62	60816.48
581.78	60818.82
581.94	60856.27
582.10	60921.80
582.26	60797.76
582.42	61001.38
582.58	60811.80
582.74	60839.89
582.90	60954.57
583.06	60872.65
583.22	60779.03
583.38	60907.76
583.54	61038.83
583.70	60903.08
583.86	60959.25
584.02	60853.93
584.18	61120.75
584.34	60994.36
584.50	60912.44
584.66	60903.08
584.82	60867.97
584.98	60832.86
585.14	60959.25
585.30	60788.39
585.46	60907.76
585.62	61036.49
585.78	61071.60
585.94	61010.74
586.10	60921.80
586.26	60956.91
586.42	60821.16
586.58	61092.66
586.74	61043.51
586.90	60912.44
587.06	60807.12
587.22	60973.30
587.38	60903.08
587.54	61027.13
587.70	61102.03
587.86	61162.88
588.02	60977.98
588.18	61001.38
588.34	61071.60
588.49	60938.19
