SpectraSuite Data File
++++++++++++++++++++++++++++++++++++
Date: Fri Oct 25 11:23:37 EDT 2013
User: price-jones
Dark Spectrum Present: No
Reference Spectrum Present: No
Number of Sampled Component Spectra: 1
Spectrometers: USB2+H05261
Integration Time (usec): 100000 (USB2+H05261)
Spectra Averaged: 1 (USB2+H05261)
Boxcar Smoothing: 0 (USB2+H05261)
Correct for Electrical Dark: No (USB2+H05261)
Strobe/Lamp Enabled: No (USB2+H05261)
Correct for Detector Non-linearity: No (USB2+H05261)
Correct for Stray Light: No (USB2+H05261)
Number of Pixels in Processed Spectrum: 2048
>>>>>Begin Processed Spectral Data<<<<<
365.73	220.01
365.92	220.01
366.12	220.01
366.32	121.71
366.52	72.56
366.72	149.79
366.91	37.45
367.11	98.30
367.31	46.81
367.51	140.43
367.70	121.71
367.90	189.58
368.10	79.58
368.30	81.92
368.49	140.43
368.69	203.63
368.89	180.22
369.09	95.96
369.28	114.69
369.48	184.90
369.68	180.22
369.87	217.67
370.07	135.75
370.27	180.22
370.47	369.80
370.66	531.30
370.86	543.00
371.06	697.48
371.25	669.39
371.45	624.92
371.65	653.01
371.84	678.76
372.04	653.01
372.24	690.46
372.44	669.39
372.63	791.10
372.83	716.20
373.03	681.10
373.22	837.91
373.42	777.06
373.62	734.93
373.81	781.74
374.01	770.04
374.21	863.66
374.40	830.89
374.60	835.57
374.79	781.74
374.99	805.14
375.19	882.38
375.38	851.96
375.58	847.27
375.78	821.53
375.97	809.83
376.17	866.00
376.37	849.61
376.56	908.13
376.76	856.64
376.95	870.68
377.15	819.19
377.35	917.49
377.54	908.13
377.74	875.36
377.93	891.74
378.13	983.02
378.33	910.47
378.52	910.47
378.72	912.81
378.91	1013.45
379.11	961.96
379.31	952.60
379.50	957.28
379.70	938.55
379.89	983.02
380.09	870.68
380.28	1048.56
380.48	940.90
380.68	887.06
380.87	933.87
381.07	940.90
381.26	1029.84
381.46	1018.13
381.65	968.98
381.85	990.05
382.04	1013.45
382.24	990.05
382.43	1020.47
382.63	1060.26
382.83	1004.09
383.02	1104.73
383.22	1074.31
383.41	1121.12
383.61	1088.35
383.80	1170.27
384.00	1153.88
384.19	1135.16
384.39	1156.22
384.58	1067.28
384.78	1036.86
384.97	1193.67
385.17	1181.97
385.36	1210.06
385.56	1174.95
385.75	1153.88
385.95	1203.04
386.14	1224.10
386.34	1181.97
386.53	1282.61
386.72	1174.95
386.92	1160.91
387.11	1233.46
387.31	1268.57
387.50	1280.27
387.70	1315.38
387.89	1308.36
388.09	1207.72
388.28	1266.23
388.48	1275.59
388.67	1430.07
388.86	1299.00
389.06	1240.48
389.25	1275.59
389.45	1366.87
389.64	1362.19
389.84	1329.42
390.03	1373.89
390.22	1350.49
390.42	1357.51
390.61	1453.47
390.81	1390.28
391.00	1432.41
391.19	1572.84
391.39	1444.11
391.58	1502.62
391.78	1413.68
391.97	1387.94
392.16	1401.98
392.36	1614.97
392.55	1399.64
392.75	1446.45
392.94	1547.09
393.13	1458.15
393.33	1495.60
393.52	1509.65
393.71	1626.67
393.91	1629.01
394.10	1530.71
394.29	1577.52
394.49	1636.03
394.68	1666.46
394.88	1643.06
395.07	1659.44
395.26	1596.25
395.46	1703.91
395.65	1783.49
395.84	1750.72
396.04	1853.70
396.23	1624.33
396.42	1783.49
396.62	1832.64
396.81	1762.42
397.00	1750.72
397.19	1732.00
397.39	1858.39
397.58	1830.30
397.77	1851.36
397.97	1858.39
398.16	1846.68
398.35	1944.99
398.55	1900.52
398.74	1851.36
398.93	1881.79
399.12	1860.73
399.32	1902.86
399.51	1961.37
399.70	1919.24
399.90	2062.01
400.09	1914.56
400.28	2031.58
400.47	1947.33
400.67	2045.63
400.86	2076.06
401.05	2015.20
401.24	2057.33
401.44	2143.93
401.63	2235.21
401.82	2104.14
402.01	2174.36
402.21	2113.50
402.40	2218.83
402.59	2146.27
402.78	2246.91
402.97	2300.75
403.17	2251.60
403.36	2342.88
403.55	2359.26
403.74	2406.07
403.93	2401.39
404.13	2307.77
404.32	2490.33
404.51	2401.39
404.70	2349.90
404.89	2438.84
405.09	2422.45
405.28	2534.80
405.47	2424.80
405.66	2593.31
405.85	2464.58
406.05	2530.12
406.24	2595.65
406.43	2525.44
406.62	2738.43
406.81	2668.21
407.00	2635.44
407.20	2502.03
407.39	2665.87
407.58	2736.09
407.77	2722.04
407.96	2761.83
408.15	2672.89
408.34	2719.70
408.54	2759.49
408.73	2771.19
408.92	2717.36
409.11	2832.05
409.30	2855.45
409.49	2911.63
409.68	2818.00
409.87	2867.16
410.07	2970.14
410.26	2963.12
410.45	3094.19
410.64	3038.02
410.83	3063.76
411.02	3080.14
411.21	3166.74
411.40	3166.74
411.59	3281.43
411.78	3220.58
411.98	3229.94
412.17	3241.64
412.36	3222.92
412.55	3349.31
412.74	3426.54
412.93	3330.58
413.12	3384.41
413.31	3574.00
413.50	3520.17
413.69	3475.70
413.88	3623.15
414.07	3557.61
414.26	3571.66
414.45	3726.13
414.64	3749.54
414.83	3637.19
415.02	3765.92
415.22	3831.46
415.41	3854.86
415.60	3733.15
415.79	3920.40
415.98	3962.53
416.17	3911.04
416.36	4021.04
416.55	3976.57
416.74	4079.55
416.93	4208.28
417.12	4290.20
417.31	4245.73
417.50	4091.26
417.69	4397.87
417.88	4339.35
418.07	4212.96
418.26	4163.81
418.45	4407.23
418.64	4533.62
418.83	4425.95
419.02	4409.57
419.21	4465.74
419.39	4505.53
419.58	4407.23
419.77	4493.83
419.96	4573.41
420.15	4606.17
420.34	4552.34
420.53	4545.32
420.72	4737.24
420.91	4741.93
421.10	4683.41
421.29	4833.21
421.48	4720.86
421.67	4713.84
421.86	4755.97
422.05	4873.00
422.24	4788.74
422.43	4861.29
422.61	4875.34
422.80	4933.85
422.99	4903.42
423.18	4961.94
423.37	4971.30
423.56	4992.36
423.75	4924.49
423.94	4812.14
424.13	4601.49
424.32	4667.03
424.50	5013.43
424.69	5085.98
424.88	5118.75
425.07	4945.55
425.26	4840.23
425.45	5081.30
425.64	5076.62
425.83	4975.98
426.01	5043.85
426.20	5090.67
426.39	5022.79
426.58	5144.50
426.77	5203.01
426.96	5298.97
427.15	5123.43
427.33	5102.37
427.52	5153.86
427.71	5289.61
427.90	5203.01
428.09	5399.62
428.28	5441.75
428.46	5394.93
428.65	5256.84
428.84	5460.47
429.03	5474.51
429.22	5551.75
429.40	5514.30
429.59	5533.03
429.78	5434.72
429.97	5273.23
430.16	5378.55
430.34	5577.50
430.53	5734.31
430.72	5818.57
430.91	5717.93
431.10	5701.54
431.28	5832.62
431.47	5778.78
431.66	5846.66
431.85	5825.59
432.03	5916.87
432.22	6010.50
432.41	5902.83
432.60	5806.87
432.79	5921.56
432.97	5982.41
433.16	6101.78
433.35	5905.17
433.54	6080.71
433.72	6188.38
433.91	6076.03
434.10	6043.26
434.28	6115.82
434.47	6026.88
434.66	6384.98
434.85	6483.28
435.03	6282.00
435.22	6181.35
435.41	6544.14
435.59	6431.79
435.78	6450.52
435.97	6471.58
436.16	6452.86
436.34	6352.21
436.53	6544.14
436.72	6452.86
436.90	6553.50
437.09	6834.36
437.28	6518.39
437.46	6698.61
437.65	6656.48
437.84	6590.95
438.02	6619.04
438.21	6595.63
438.40	6579.25
438.58	6939.69
438.77	7077.78
438.96	6932.67
439.14	7183.10
439.33	7110.55
439.52	7173.74
439.70	7379.71
439.89	7522.48
440.08	7358.64
440.26	7440.56
440.45	7595.04
440.63	7585.68
440.82	7559.93
441.01	7478.01
441.19	7503.76
441.38	7880.58
441.57	7735.47
441.75	7808.03
441.94	8084.21
442.12	7836.11
442.31	7922.71
442.50	8121.66
442.68	8011.65
442.87	8142.72
443.05	8107.62
443.24	8126.34
443.43	8091.23
443.61	8250.39
443.80	8430.61
443.98	8086.55
444.17	7957.82
444.35	8306.56
444.54	8322.94
444.73	8341.67
444.91	8395.50
445.10	8334.65
445.28	8287.84
445.47	8182.51
445.65	8407.20
445.84	8341.67
446.02	8573.38
446.21	8589.77
446.39	8449.33
446.58	8510.19
446.77	8559.34
446.95	8283.16
447.14	8393.16
447.32	8662.32
447.51	8659.98
447.69	8437.63
447.88	8393.16
448.06	8430.61
448.25	8484.44
448.43	8650.62
448.62	8442.31
448.80	8538.27
448.99	8746.58
449.17	8685.73
449.36	8748.92
449.54	8905.74
449.73	9050.85
449.91	8823.82
450.10	8760.63
450.28	9043.83
450.46	8940.85
450.65	8912.76
450.83	9254.48
451.02	9228.73
451.20	9310.65
451.39	9249.80
451.57	9067.24
451.76	9114.05
451.94	9310.65
452.13	9247.46
452.31	9184.26
452.49	9153.84
452.68	9488.53
452.86	9420.66
453.05	9418.32
453.23	9661.73
453.42	9556.41
453.60	9355.12
453.78	9837.27
453.97	9476.83
454.15	9600.88
454.34	9479.17
454.52	9886.42
454.70	9687.48
454.89	9834.93
455.07	9757.69
455.26	10036.22
455.44	9825.57
455.62	9935.57
455.81	9916.85
455.99	10136.86
456.17	9998.77
456.36	10094.73
456.54	10167.29
456.73	10312.40
456.91	10513.69
457.09	10277.29
457.28	10513.69
457.46	10389.64
457.64	10485.60
457.83	10424.75
458.01	10501.98
458.19	10794.55
458.38	10635.39
458.56	10663.48
458.74	10731.36
458.93	10633.05
459.11	10743.06
459.29	10864.77
459.48	10693.91
459.66	10810.93
459.84	10813.28
460.03	10993.50
460.21	11007.54
460.39	10895.19
460.57	11077.76
460.76	11119.89
460.94	11262.66
461.12	11056.69
461.31	11307.13
461.49	11330.53
461.67	11131.59
461.85	11358.62
462.04	11234.57
462.22	11611.40
462.40	11473.31
462.59	11555.22
462.77	11632.46
462.95	11452.24
463.13	11527.14
463.32	11768.21
463.50	11859.49
463.68	11559.91
463.86	11981.20
464.05	11833.75
464.23	11616.08
464.41	11859.49
464.59	11662.89
464.78	12215.26
464.96	11936.73
465.14	11932.05
465.32	12077.16
465.50	12437.61
465.69	12030.35
465.87	12180.15
466.05	12100.57
466.23	12194.19
466.41	12100.57
466.60	12437.61
466.78	12198.87
466.96	12140.36
467.14	12308.88
467.32	12470.37
467.51	12486.76
467.69	12196.53
467.87	12343.99
468.05	12472.71
468.23	12453.99
468.41	12542.93
468.60	12676.34
468.78	13050.83
468.96	12585.06
469.14	12788.69
469.32	12875.29
469.50	12781.67
469.69	12940.82
469.87	12996.99
470.05	13060.19
470.23	13074.23
470.41	13125.72
470.59	13142.11
470.77	13188.92
470.95	13263.82
471.14	13666.39
471.32	13312.97
471.50	13710.86
471.68	13650.00
471.86	13689.79
472.04	13813.84
472.22	14174.28
472.40	13879.38
472.58	13905.12
472.77	13984.70
472.95	14338.12
473.13	14822.61
473.31	14073.64
473.49	14342.80
473.67	14417.70
473.85	14490.26
474.03	14841.34
474.21	14745.38
474.39	14642.39
474.57	14684.52
474.75	14911.55
474.93	15332.85
475.12	14918.57
475.30	15187.74
475.48	14949.00
475.66	15246.25
475.84	14932.62
476.02	15499.03
476.20	15321.15
476.38	15679.25
476.56	16079.48
476.74	15953.09
476.92	15826.70
477.10	15908.62
477.28	16262.04
477.46	16156.72
477.64	16456.31
477.82	16556.95
478.00	16851.86
478.18	16713.77
478.36	17055.48
478.54	17373.80
478.72	17160.81
478.90	17500.19
479.08	17436.99
479.26	17860.63
479.44	17745.94
479.62	17909.78
479.80	18209.37
479.98	18092.34
480.16	18562.79
480.34	18380.23
480.52	18565.13
480.70	18820.25
480.88	18375.55
481.06	18773.44
481.24	18867.06
481.41	19117.50
481.59	19482.62
481.77	19393.68
481.95	19300.06
482.13	19496.66
482.31	19948.39
482.49	20346.28
482.67	20414.15
482.85	20533.52
483.03	20489.05
483.21	20987.58
483.39	20652.89
483.57	20851.83
483.74	21022.69
483.92	21362.07
484.10	21231.00
484.28	21598.46
484.46	22101.68
484.64	22375.52
484.82	22122.74
485.00	22405.95
485.18	22661.07
485.35	22965.34
485.53	22895.12
485.71	23108.11
485.89	23985.81
486.07	23454.51
486.25	23407.70
486.43	23538.77
486.61	24273.70
486.78	24332.21
486.96	24187.10
487.14	24851.81
487.32	24797.98
487.50	24601.37
487.68	24933.73
487.85	25406.52
488.03	25490.77
488.21	26031.44
488.39	26064.21
488.57	26270.17
488.75	26089.95
488.92	26527.63
489.10	26703.17
489.28	26838.92
489.46	27344.48
489.64	27124.47
489.81	27515.34
489.99	27470.87
490.17	27800.88
490.35	28187.07
490.53	28112.17
490.70	28577.94
490.88	28140.26
491.06	28650.50
491.24	28875.19
491.41	29261.38
491.59	29369.04
491.77	29104.56
491.95	29535.22
492.13	29851.19
492.30	30274.83
492.48	29820.77
492.66	30171.85
492.84	30560.37
493.01	30771.02
493.19	31098.70
493.37	31288.28
493.54	31077.63
493.72	31742.35
493.90	31786.82
494.08	32187.05
494.25	31768.09
494.43	32299.39
494.61	32442.17
494.79	32753.46
494.96	32591.96
495.14	32861.12
495.32	33261.35
495.49	33574.98
495.67	33287.10
495.85	33483.70
496.02	33743.50
496.20	33958.83
496.38	33954.15
496.55	34218.63
496.73	35381.88
496.91	34635.25
497.09	35133.78
497.26	35007.39
497.44	34934.84
497.62	35297.62
497.79	35765.73
497.97	35615.93
498.14	35948.29
498.32	36140.21
498.50	36240.86
498.67	36748.75
498.85	36285.33
499.03	36940.68
499.20	36814.29
499.38	36931.31
499.56	37256.65
499.73	37525.81
499.91	37605.39
500.08	37830.08
500.26	37188.77
500.44	37706.03
500.61	37600.71
500.79	37956.47
500.97	38820.13
501.14	38319.25
501.32	39035.45
501.49	38593.09
501.67	38796.72
501.84	39407.60
502.02	38693.74
502.20	38813.10
502.37	39707.19
502.55	39271.85
502.72	39786.77
502.90	39754.00
503.07	39555.05
503.25	40126.14
503.43	40011.46
503.60	40341.47
503.78	40203.38
503.95	40179.98
504.13	40701.92
504.30	41219.17
504.48	40149.55
504.65	40439.78
504.83	41329.18
505.01	41418.12
505.18	41614.72
505.36	41593.66
505.53	41607.70
505.71	41764.52
505.88	41937.72
506.06	41710.69
506.23	41839.42
506.41	41748.14
506.58	42211.56
506.76	41986.87
506.93	42328.59
507.11	42469.02
507.28	42560.30
507.46	42824.78
507.63	43138.41
507.81	43489.49
507.98	42735.84
508.16	43147.78
508.33	43505.88
508.50	43625.25
508.68	43723.55
508.85	43896.75
509.03	43875.68
509.20	43910.79
509.38	44666.78
509.55	44334.43
509.73	44580.18
509.90	44531.03
510.08	44561.46
510.25	44566.14
510.42	44971.05
510.60	45251.92
510.77	45483.63
510.95	45766.84
511.12	45382.99
511.30	45432.14
511.47	45212.13
511.64	45792.58
511.82	46010.25
511.99	45823.01
512.17	45855.78
512.34	45799.60
512.51	46054.72
512.69	46473.68
512.86	46766.24
513.04	46843.48
513.21	46920.72
513.38	46588.36
513.56	46939.44
513.73	47058.81
513.90	47304.57
514.08	46976.89
514.25	47796.08
514.43	47533.94
514.60	47199.24
514.77	47290.52
514.95	47679.05
515.12	47512.88
515.29	47971.62
515.47	47922.47
515.64	48236.10
515.81	47952.90
515.99	48381.21
516.16	48786.13
516.33	48493.56
516.51	48809.53
516.68	48648.03
516.85	48402.28
517.03	48975.71
517.20	48882.09
517.37	48722.93
517.54	48760.38
517.72	49455.52
517.89	49284.66
518.06	49549.14
518.24	48980.39
518.41	49375.94
518.58	49476.58
518.75	49212.10
518.93	49982.14
519.10	49743.41
519.27	50113.21
519.45	50183.43
519.62	49977.46
519.79	49963.42
519.96	49808.94
520.14	50281.73
520.31	50312.16
520.48	50658.56
520.65	50586.00
520.83	50630.47
521.00	50649.19
521.17	50749.84
521.34	50789.62
521.52	51112.62
521.69	50906.65
521.86	51215.60
522.03	51222.62
522.20	51519.87
522.38	51482.42
522.55	51667.33
522.72	51302.20
522.89	51716.48
523.07	51990.32
523.24	51405.19
523.41	51679.03
523.58	51625.20
523.75	52044.15
523.92	51641.58
524.10	51978.62
524.27	52023.09
524.44	52243.10
524.61	51936.49
524.78	52252.46
524.96	52252.46
525.13	52257.14
525.30	52755.68
525.47	53003.77
525.64	52477.15
525.81	52884.40
525.98	52760.36
526.16	52685.46
526.33	53069.31
526.50	53064.63
526.67	52807.17
526.84	52963.98
527.01	52776.74
527.18	53045.90
527.36	52903.13
527.53	53179.31
527.70	53413.37
527.87	53469.54
528.04	53116.12
528.21	53352.51
528.38	53584.22
528.55	53352.51
528.72	53467.20
528.89	53883.81
529.07	53340.81
529.24	53642.74
529.41	53624.01
529.58	53514.01
529.75	53837.00
529.92	53539.75
530.09	53673.16
530.26	53937.65
530.43	53874.45
530.60	53764.45
530.77	53902.54
530.94	54169.36
531.11	54148.29
531.28	54300.43
531.46	54190.42
531.63	54468.95
531.80	54089.78
531.97	54557.89
532.14	54436.18
532.31	54915.99
532.48	54525.12
532.65	54700.66
532.82	54417.46
532.99	54735.77
533.16	54443.20
533.33	54927.69
533.50	54871.52
533.67	54791.94
533.84	54850.45
534.01	54965.14
534.18	55138.34
534.35	55152.38
534.52	55131.32
534.69	55632.19
534.86	55110.25
535.03	55164.09
535.20	55126.64
535.37	55461.33
535.54	55583.04
535.71	55175.79
535.88	55377.08
536.05	55442.61
536.22	55700.07
536.38	55657.94
536.55	55723.47
536.72	55620.49
536.89	55576.02
537.06	55732.84
537.23	55749.22
537.40	55796.03
537.57	55714.11
537.74	56030.08
537.91	55957.53
538.08	55863.91
538.25	55884.97
538.42	55833.48
538.59	56123.71
538.75	55854.54
538.92	56126.05
539.09	56142.43
539.26	56416.27
539.43	56123.71
539.60	56133.07
539.77	56069.87
539.94	56484.15
540.11	56605.86
540.28	56507.55
540.44	56435.00
540.61	56655.01
540.78	56575.43
540.95	56533.30
541.12	56666.71
541.29	56324.99
541.46	56603.52
541.62	56495.85
541.79	56626.92
541.96	56505.21
542.13	56868.00
542.30	56601.18
542.47	56898.42
542.63	56870.34
542.80	56807.14
542.97	57146.52
543.14	57331.42
543.31	57181.63
543.48	57406.32
543.64	57322.06
543.81	57385.25
543.98	57275.25
544.15	57296.31
544.32	57401.64
544.48	57607.61
544.65	57481.22
544.82	57364.19
544.99	57099.71
545.16	57577.18
545.32	57588.88
545.49	57649.74
545.66	57668.46
545.83	57736.34
546.00	57893.15
546.16	57825.28
546.33	57439.09
546.50	57570.16
546.67	57972.73
546.83	57642.71
547.00	57869.75
547.17	57925.92
547.34	58031.24
547.50	58145.93
547.67	58176.36
547.84	57991.45
548.00	58124.86
548.17	58237.21
548.34	58316.79
548.51	58328.49
548.67	58183.38
548.84	58248.91
549.01	58152.95
549.18	58232.53
549.34	58298.06
549.51	58384.66
549.68	58492.33
549.84	58482.97
550.01	58576.59
550.18	58262.96
550.34	58443.18
550.51	58447.86
550.68	58497.01
550.84	58183.38
551.01	58621.06
551.18	58536.80
551.34	58777.87
551.51	58534.46
551.68	58604.67
551.84	58625.74
552.01	58548.50
552.18	58904.26
552.34	58625.74
552.51	58761.49
552.68	58646.80
552.84	58714.68
553.01	58927.67
553.18	58862.13
553.34	58894.90
553.51	58777.87
553.67	58822.34
553.84	58822.34
554.01	59105.55
554.17	58983.84
554.34	59306.83
554.51	59098.53
554.67	59035.33
554.84	59135.98
555.00	59124.27
555.17	59161.72
555.33	59040.01
555.50	59007.25
555.67	59135.98
555.83	59021.29
556.00	59096.19
556.16	59454.29
556.33	59557.27
556.50	59166.40
556.66	59430.88
556.83	59295.13
556.99	59510.46
557.16	59501.10
557.32	59262.36
557.49	59540.89
557.65	59372.37
557.82	59505.78
557.98	59288.11
558.15	59634.51
558.32	59522.16
558.48	59372.37
558.65	59566.63
558.81	59538.55
558.98	59700.04
559.14	59435.56
559.31	59723.45
559.47	59896.65
559.64	60065.17
559.80	59735.15
559.97	59751.54
560.13	59550.25
560.30	59671.96
560.46	59873.24
560.63	59898.99
560.79	59929.42
560.96	59990.27
561.12	59948.14
561.29	59931.76
561.45	60083.89
561.61	59976.23
561.78	59898.99
561.94	59849.84
562.11	59920.05
562.27	59927.08
562.44	60100.28
562.60	60016.02
562.77	60030.06
562.93	59859.20
563.10	59987.93
563.26	60009.00
563.42	60170.49
563.59	60175.17
563.75	60114.32
563.92	60133.04
564.08	60126.02
564.24	60130.70
564.41	60343.69
564.57	60226.66
564.74	60156.45
564.90	60186.88
565.07	60044.10
565.23	60252.41
565.39	60280.50
565.56	60200.92
565.72	60224.32
565.88	60119.00
566.05	60240.71
566.21	60214.96
566.38	60301.56
566.54	60420.93
566.70	60507.53
566.87	60355.39
567.03	59959.84
567.19	60549.66
567.36	60360.08
567.52	60418.59
567.68	60463.06
567.85	60378.80
568.01	60425.61
568.17	60392.84
568.34	60488.80
568.50	60437.31
568.66	60378.80
568.83	60488.80
568.99	60549.66
569.15	60591.79
569.32	60666.69
569.48	60343.69
569.64	60779.03
569.81	60514.55
569.97	60397.52
570.13	60582.43
570.30	60369.44
570.46	60690.09
570.62	60500.51
570.78	60615.19
570.95	60376.46
571.11	60662.00
571.27	60561.36
571.43	60605.83
571.60	61034.15
571.76	60596.47
571.92	60666.69
572.09	61006.06
572.25	60650.30
572.41	60662.00
572.57	60598.81
572.74	60860.95
572.90	60516.89
573.06	60814.14
573.22	60704.13
573.38	60725.20
573.55	60645.62
573.71	60905.42
573.87	60734.56
574.03	60589.45
574.20	60638.60
574.36	60692.43
574.52	60718.18
574.68	60748.60
574.84	60734.56
575.01	60982.66
575.17	60790.73
575.33	60917.12
575.49	60732.22
575.65	60942.87
575.82	60910.10
575.98	60907.76
576.14	60884.36
576.30	60664.35
576.46	60779.03
576.62	60863.29
576.79	60566.04
576.95	60692.43
577.11	60987.34
577.27	60879.67
577.43	60921.80
577.59	60797.76
577.75	60818.82
577.92	60507.53
578.08	60755.63
578.24	60985.00
578.40	61134.79
578.56	60739.24
578.72	61027.13
578.88	61109.05
579.04	60963.93
579.21	60963.93
579.37	60921.80
579.53	61190.97
579.69	60882.02
579.85	60842.23
580.01	60931.17
580.17	60718.18
580.33	61041.17
580.49	61062.24
580.65	60809.46
580.82	60825.84
580.98	60996.70
581.14	60874.99
581.30	61085.64
581.46	60907.76
581.62	60879.67
581.78	61006.06
581.94	60982.66
582.10	60968.61
582.26	60870.31
582.42	60877.33
582.58	60987.34
582.74	61006.06
582.90	60889.04
583.06	60938.19
583.22	60863.29
583.38	60968.61
583.54	61169.90
583.70	60940.53
583.86	60987.34
584.02	60882.02
584.18	61064.58
584.34	61078.62
584.50	61043.51
584.66	61090.32
584.82	60865.63
584.98	61247.14
585.14	61165.22
585.30	60968.61
585.46	61050.53
585.62	61146.50
585.78	61148.84
585.94	60853.93
586.10	60989.68
586.26	60886.70
586.42	61155.86
586.58	61233.10
586.74	61174.58
586.90	61109.05
587.06	60975.64
587.22	61249.48
587.38	61069.26
587.54	61181.60
587.70	61317.35
587.86	61092.66
588.02	60985.00
588.18	61371.19
588.34	61146.50
588.49	61029.47
