SpectraSuite Data File
++++++++++++++++++++++++++++++++++++
Date: Fri Oct 25 10:44:16 EDT 2013
User: price-jones
Dark Spectrum Present: No
Reference Spectrum Present: No
Number of Sampled Component Spectra: 1
Spectrometers: USB2+H05261
Integration Time (usec): 100000 (USB2+H05261)
Spectra Averaged: 1 (USB2+H05261)
Boxcar Smoothing: 0 (USB2+H05261)
Correct for Electrical Dark: No (USB2+H05261)
Strobe/Lamp Enabled: No (USB2+H05261)
Correct for Detector Non-linearity: No (USB2+H05261)
Correct for Stray Light: No (USB2+H05261)
Number of Pixels in Processed Spectrum: 2048
>>>>>Begin Processed Spectral Data<<<<<
365.73	135.75
365.92	135.75
366.12	135.75
366.32	44.47
366.52	93.62
366.72	0.00
366.91	25.75
367.11	30.43
367.31	65.54
367.51	56.17
367.70	0.00
367.90	0.00
368.10	0.00
368.30	39.79
368.49	49.15
368.69	95.96
368.89	35.11
369.09	0.00
369.28	84.26
369.48	46.81
369.68	9.36
369.87	121.71
370.07	51.49
370.27	124.05
370.47	138.09
370.66	334.70
370.86	418.96
371.06	472.79
371.25	479.81
371.45	414.27
371.65	500.87
371.84	421.30
372.04	512.58
372.24	468.11
372.44	491.51
372.63	454.06
372.83	498.53
373.03	524.28
373.22	461.09
373.42	463.43
373.62	566.41
373.81	596.84
374.01	479.81
374.21	528.96
374.40	587.47
374.60	606.20
374.79	491.51
374.99	521.94
375.19	582.79
375.38	589.82
375.58	557.05
375.78	629.60
375.97	713.86
376.17	653.01
376.37	571.09
376.56	624.92
376.76	550.03
376.95	622.58
377.15	613.22
377.35	685.78
377.54	631.94
377.74	599.18
377.93	669.39
378.13	615.56
378.33	676.41
378.52	678.76
378.72	648.33
378.91	727.91
379.11	676.41
379.31	641.31
379.50	713.86
379.70	777.06
379.89	674.07
380.09	692.80
380.28	676.41
380.48	720.88
380.68	645.99
380.87	711.52
381.07	748.97
381.26	732.59
381.46	732.59
381.65	657.69
381.85	741.95
382.04	755.99
382.24	664.71
382.43	650.67
382.63	702.16
382.83	727.91
383.02	711.52
383.22	777.06
383.41	723.23
383.61	711.52
383.80	741.95
384.00	837.91
384.19	770.04
384.39	704.50
384.58	835.57
384.78	746.63
384.97	765.36
385.17	807.48
385.36	823.87
385.56	866.00
385.75	798.12
385.95	767.70
386.14	912.81
386.34	908.13
386.53	760.67
386.72	861.32
386.92	889.40
387.11	795.78
387.31	814.51
387.50	774.72
387.70	842.59
387.89	880.04
388.09	994.73
388.28	870.68
388.48	858.98
388.67	882.38
388.86	884.72
389.06	887.06
389.25	997.07
389.45	947.92
389.64	1004.09
389.84	1004.09
390.03	1001.75
390.22	985.37
390.42	978.34
390.61	1093.03
390.81	1086.01
391.00	1081.33
391.19	1053.24
391.39	1046.22
391.58	1081.33
391.78	1069.62
391.97	1001.75
392.16	999.41
392.36	1043.88
392.55	1015.79
392.75	1004.09
392.94	1001.75
393.13	1055.58
393.33	1076.65
393.52	1034.52
393.71	1191.33
393.91	1071.97
394.10	1083.67
394.29	1116.44
394.49	1172.61
394.68	1203.04
394.88	1231.12
395.07	1263.89
395.26	1212.40
395.46	1345.81
395.65	1226.44
395.84	1217.08
396.04	1200.69
396.23	1273.25
396.42	1282.61
396.62	1270.91
396.81	1210.06
397.00	1217.08
397.19	1334.11
397.39	1371.55
397.58	1425.39
397.77	1376.24
397.97	1427.73
398.16	1373.89
398.35	1526.03
398.55	1486.24
398.74	1502.62
398.93	1523.69
399.12	1540.07
399.32	1537.73
399.51	1439.43
399.70	1626.67
399.90	1523.69
400.09	1500.28
400.28	1617.31
400.47	1547.09
400.67	1596.25
400.86	1673.48
401.05	1647.74
401.24	1582.20
401.44	1617.31
401.63	1858.39
401.82	1673.48
402.01	1645.40
402.21	1753.06
402.40	1764.76
402.59	1729.66
402.78	1727.32
402.97	1757.74
403.17	1790.51
403.36	1853.70
403.55	1795.19
403.74	1902.86
403.93	1980.09
404.13	1877.11
404.32	1834.98
404.51	1949.67
404.70	1895.83
404.89	1968.39
405.09	1944.99
405.28	1940.30
405.47	1996.48
405.66	1968.39
405.85	2036.27
406.05	2059.67
406.24	2076.06
406.43	1975.41
406.62	2127.55
406.81	2174.36
407.00	2057.33
407.20	2054.99
407.39	1996.48
407.58	2251.60
407.77	2134.57
407.96	2139.25
408.15	2165.00
408.34	2300.75
408.54	2249.25
408.73	2253.94
408.92	2225.85
409.11	2282.02
409.30	2216.49
409.49	2223.51
409.68	2300.75
409.87	2277.34
410.07	2298.41
410.26	2296.07
410.45	2555.86
410.64	2431.82
410.83	2490.33
411.02	2464.58
411.21	2555.86
411.40	2590.97
411.59	2602.68
411.78	2663.53
411.98	2731.41
412.17	2684.59
412.36	2619.06
412.55	2691.62
412.74	2736.09
412.93	2705.66
413.12	2733.75
413.31	2890.56
413.50	2810.98
413.69	2937.37
413.88	2883.54
414.07	2892.90
414.26	2972.48
414.45	2895.24
414.64	2878.86
414.83	3009.93
415.02	3042.70
415.22	3094.19
415.41	3166.74
415.60	3042.70
415.79	3183.13
415.98	3241.64
416.17	3255.69
416.36	3136.32
416.55	3218.24
416.74	3283.77
416.93	3269.73
417.12	3143.34
417.31	3370.37
417.50	3363.35
417.69	3445.27
417.88	3452.29
418.07	3412.50
418.26	3501.44
418.45	3447.61
418.64	3499.10
418.83	3543.57
419.02	3440.59
419.21	3550.59
419.39	3709.75
419.58	3475.70
419.77	3618.47
419.96	3606.77
420.15	3686.34
420.34	3623.15
420.53	3740.18
420.72	3861.88
420.91	3786.99
421.10	3843.16
421.29	3889.97
421.48	3747.20
421.67	3957.85
421.86	3880.61
422.05	3775.28
422.24	3779.97
422.43	3859.54
422.61	3950.82
422.80	3836.14
422.99	3864.22
423.18	3953.16
423.37	3974.23
423.56	4018.70
423.75	3908.69
423.94	3901.67
424.13	3784.65
424.32	3967.21
424.50	4067.85
424.69	3932.10
424.88	3969.55
425.07	3927.42
425.26	3826.78
425.45	3889.97
425.64	3887.63
425.83	3887.63
426.01	4021.04
426.20	4067.85
426.39	3894.65
426.58	4025.72
426.77	3922.74
426.96	4042.11
427.15	3985.93
427.33	3974.23
427.52	4049.13
427.71	4109.98
427.90	4152.11
428.09	4105.30
428.28	4081.89
428.46	4138.07
428.65	4159.13
428.84	4149.77
429.03	4320.63
429.22	4070.19
429.40	4039.76
429.59	4191.90
429.78	4016.36
429.97	3859.54
430.16	3955.51
430.34	4086.58
430.53	4131.05
430.72	4102.96
430.91	4294.88
431.10	4297.22
431.28	4409.57
431.47	4559.36
431.66	4681.07
431.85	4566.39
432.03	4559.36
432.22	4620.22
432.41	4650.64
432.60	4770.01
432.79	4751.29
432.97	4674.05
433.16	4791.08
433.35	4617.88
433.54	4655.33
433.72	4603.83
433.91	4657.67
434.10	4760.65
434.28	4770.01
434.47	4919.81
434.66	5018.11
434.85	4966.62
435.03	4851.93
435.22	4933.85
435.41	5025.13
435.59	4975.98
435.78	5186.63
435.97	5102.37
436.16	5252.16
436.34	5071.94
436.53	5160.88
436.72	5188.97
436.90	5151.52
437.09	5252.16
437.28	5006.41
437.46	5212.37
437.65	5217.05
437.84	5118.75
438.02	5102.37
438.21	5109.39
438.40	5135.14
438.58	5310.68
438.77	5476.85
438.96	5430.04
439.14	5521.32
439.33	5621.97
439.52	5621.97
439.70	5526.00
439.89	5640.69
440.08	5605.58
440.26	5631.33
440.45	5659.42
440.63	5760.06
440.82	5996.45
441.01	5989.43
441.19	5916.87
441.38	5930.92
441.57	6239.87
441.75	6251.57
441.94	6291.36
442.12	6150.93
442.31	6459.88
442.50	6424.77
442.68	6274.98
442.87	6359.24
443.05	6399.02
443.24	6661.16
443.43	6494.99
443.61	6499.67
443.80	6642.44
443.98	6408.39
444.17	6207.10
444.35	6539.46
444.54	6633.08
444.73	6480.94
444.91	6689.25
445.10	6429.45
445.28	6476.26
445.47	6464.56
445.65	6317.11
445.84	6312.42
446.02	6431.79
446.21	6483.28
446.39	6576.91
446.58	6684.57
446.77	6719.68
446.95	6553.50
447.14	6773.51
447.32	6724.36
447.51	6705.63
447.69	6504.35
447.88	6614.35
448.06	6682.23
448.25	6499.67
448.43	6616.69
448.62	6766.49
448.80	6768.83
448.99	6740.74
449.17	6918.62
449.36	6775.85
449.54	6897.56
449.73	6920.96
449.91	7218.21
450.10	7145.66
450.28	7258.00
450.46	7229.91
450.65	7063.74
450.83	7307.15
451.02	7049.69
451.20	7187.79
451.39	7265.02
451.57	7241.62
451.76	7211.19
451.94	7372.69
452.13	7435.88
452.31	7040.33
452.49	7204.17
452.68	7126.93
452.86	7122.25
453.05	7295.45
453.23	7293.11
453.42	7255.66
453.60	7438.22
453.78	7566.95
453.97	7431.20
454.15	7332.90
454.34	7293.11
454.52	7515.46
454.70	7590.36
454.89	7576.31
455.07	7501.42
455.26	7559.93
455.44	7674.62
455.62	7761.22
455.81	7613.76
455.99	7786.96
456.17	7770.58
456.36	7843.14
456.54	7943.78
456.73	8042.08
456.91	8072.51
457.09	8210.60
457.28	8175.49
457.46	8056.12
457.64	8341.67
457.83	8039.74
458.01	8081.87
458.19	8308.90
458.38	8187.19
458.56	8269.11
458.74	8175.49
458.93	8152.09
459.11	8388.48
459.29	8250.39
459.48	8475.08
459.66	8409.54
459.84	8498.49
460.03	8446.99
460.21	8334.65
460.39	8444.65
460.57	8573.38
460.76	8545.30
460.94	8821.48
461.12	8734.88
461.31	8603.81
461.49	8613.17
461.67	8582.74
461.85	8877.65
462.04	8854.25
462.22	8997.02
462.40	8982.98
462.59	8734.88
462.77	8912.76
462.95	9039.15
463.13	8978.30
463.32	8992.34
463.50	9067.24
463.68	8978.30
463.86	9032.13
464.05	8840.20
464.23	8975.95
464.41	9078.94
464.59	8884.67
464.78	9317.67
464.96	8922.12
465.14	9034.47
465.32	9167.88
465.50	9341.08
465.69	9287.25
465.87	9111.71
466.05	9277.88
466.23	9296.61
466.41	9390.23
466.60	9387.89
466.78	9364.48
466.96	9357.46
467.14	9191.28
467.32	9378.53
467.51	9675.77
467.69	9186.60
467.87	9673.43
468.05	9525.98
468.23	9301.29
468.41	9371.50
468.60	9444.06
468.78	9621.94
468.96	9657.05
469.14	9502.58
469.32	9825.57
469.50	9624.28
469.69	9909.83
469.87	9825.57
470.05	9848.97
470.23	9767.06
470.41	9633.64
470.59	9919.19
470.77	9865.36
470.95	9984.73
471.14	10024.51
471.32	9949.62
471.50	10321.76
471.68	10078.35
471.86	10251.55
472.04	10501.98
472.22	10714.97
472.40	10565.18
472.58	10511.35
472.77	10534.75
472.95	10609.65
473.13	10724.33
473.31	10569.86
473.49	10417.72
473.67	10576.88
473.85	10581.56
474.03	11073.07
474.21	10883.49
474.39	11225.21
474.57	11180.74
474.75	11136.27
474.93	11269.68
475.12	11309.47
475.30	11393.73
475.48	11297.77
475.66	11417.13
475.84	11218.19
476.02	11414.79
476.20	11508.41
476.38	11758.85
476.56	11995.25
476.74	11915.67
476.92	11590.33
477.10	11964.82
477.28	11971.84
477.46	12081.85
477.64	12381.43
477.82	12432.93
478.00	12566.34
478.18	12554.63
478.36	12638.89
478.54	12950.18
478.72	12805.07
478.90	12769.96
479.08	13214.66
479.26	13259.13
479.44	13114.02
479.62	13156.15
479.80	13121.04
479.98	13591.49
480.16	13806.82
480.34	13621.92
480.52	13661.71
480.70	13965.98
480.88	13797.46
481.06	14043.21
481.24	13919.17
481.41	13998.74
481.59	14324.08
481.77	14424.72
481.95	14312.38
482.13	14712.61
482.31	14609.62
482.49	14782.82
482.67	14728.99
482.85	14967.73
483.03	15185.40
483.21	15346.89
483.39	15391.36
483.57	15314.13
483.74	15421.79
483.92	15541.16
484.10	15515.41
484.28	15817.34
484.46	15985.86
484.64	16173.10
484.82	16011.60
485.00	16058.42
485.18	16592.06
485.35	16273.74
485.53	16367.37
485.71	16100.55
485.89	16278.43
486.07	16390.77
486.25	16468.01
486.43	16891.65
486.61	17078.89
486.78	17380.82
486.96	17135.06
487.14	17504.87
487.32	17727.22
487.50	17935.53
487.68	18459.81
487.85	18274.90
488.03	18621.30
488.21	18682.16
488.39	18544.06
488.57	18541.72
488.75	18801.52
488.92	19229.84
489.10	19337.51
489.28	19447.51
489.46	19962.43
489.64	19817.32
489.81	19992.86
489.99	19943.70
490.17	20187.12
490.35	20451.60
490.53	20376.70
490.70	20460.96
490.88	20467.98
491.06	20673.95
491.24	20622.46
491.41	20943.11
491.59	20933.75
491.77	21067.16
491.95	20910.35
492.13	21273.13
492.30	21488.46
492.48	21612.51
492.66	21909.75
492.84	21762.30
493.01	22211.68
493.19	22033.80
493.37	22328.71
493.54	22522.98
493.72	22258.49
493.90	22677.45
494.08	23185.35
494.25	23180.67
494.43	23012.15
494.61	23559.83
494.79	23531.75
494.96	23290.67
495.14	23756.44
495.32	23550.47
495.49	23688.56
495.67	23922.62
495.85	24112.20
496.02	24283.06
496.20	24243.27
496.38	24418.81
496.55	24372.00
496.73	25259.06
496.91	24741.80
497.09	25106.93
497.26	25340.98
497.44	25324.60
497.62	25022.67
497.79	25448.64
497.97	24978.20
498.14	25687.38
498.32	25734.19
498.50	25656.95
498.67	26101.65
498.85	25855.90
499.03	26333.37
499.20	26286.56
499.38	26139.10
499.56	26544.02
499.73	26916.16
499.91	26389.54
500.08	26658.70
500.26	26188.25
500.44	26527.63
500.61	26719.56
500.79	26682.11
500.97	26874.03
501.14	27206.39
501.32	27157.24
501.49	27318.73
501.67	27318.73
501.84	27393.63
502.02	27630.02
502.20	27473.21
502.37	27901.53
502.55	27466.19
502.72	27910.89
502.90	28327.50
503.07	28215.16
503.25	28332.18
503.43	28079.41
503.60	28107.49
503.78	28283.03
503.95	28259.63
504.13	28753.48
504.30	28748.80
504.48	28840.08
504.65	28826.04
504.83	28945.41
505.01	29411.17
505.18	29502.45
505.36	29652.25
505.53	29076.48
505.71	29638.20
505.88	29682.67
506.06	29439.26
506.23	30089.93
506.41	29745.87
506.58	29579.69
506.76	29507.13
506.93	30260.79
507.11	30071.20
507.28	29965.88
507.46	29858.21
507.63	30029.07
507.81	30291.21
507.98	29963.54
508.16	30382.49
508.33	30766.34
508.50	30878.69
508.68	31159.55
508.85	31040.18
509.03	31047.21
509.20	31054.23
509.38	31220.41
509.55	31012.10
509.73	31484.89
509.90	31927.25
510.08	31225.09
510.25	31569.15
510.42	31709.58
510.60	32086.40
510.77	31871.07
510.95	31885.12
511.12	32266.63
511.30	32301.73
511.47	32804.95
511.64	32339.18
511.82	32381.31
511.99	32151.94
512.17	32320.46
512.34	32496.00
512.51	32664.52
512.69	32875.16
512.86	32877.51
513.04	32898.57
513.21	32826.01
513.38	33022.62
513.56	32905.59
513.73	33181.77
513.90	33275.40
514.08	33141.99
514.25	33088.15
514.43	33149.01
514.60	33670.95
514.77	33507.11
514.95	33785.63
515.12	33240.29
515.29	33577.33
515.47	34003.30
515.64	34047.77
515.81	33991.60
515.99	33989.26
516.16	33979.90
516.33	34005.64
516.51	34036.07
516.68	33275.40
516.85	33460.30
517.03	33680.31
517.20	33682.65
517.37	34237.36
517.54	34394.17
517.72	34270.12
517.89	33905.00
518.06	34288.85
518.24	34024.37
518.41	34555.67
518.58	34693.76
518.75	34565.03
518.93	34911.43
519.10	35037.82
519.27	35285.92
519.45	34939.52
519.62	35463.80
519.79	35314.00
519.96	35201.66
520.14	35576.14
520.31	35325.71
520.48	35173.57
520.65	35468.48
520.83	36121.49
521.00	36051.27
521.17	35892.12
521.34	36603.64
521.52	36208.09
521.69	36491.29
521.86	36243.20
522.03	36168.30
522.20	36561.51
522.38	36271.28
522.55	36627.04
522.72	36568.53
522.89	36378.95
523.07	36582.57
523.24	36156.60
523.41	36821.31
523.58	36542.78
523.75	37633.47
523.92	36933.65
524.10	37151.32
524.27	37446.23
524.44	37270.69
524.61	37453.25
524.78	37483.68
524.96	37083.45
525.13	37380.70
525.30	37935.40
525.47	38007.96
525.64	38066.47
525.81	37825.40
525.98	37811.35
526.16	37354.95
526.33	37198.13
526.50	37624.11
526.67	37277.71
526.84	37600.71
527.01	37368.99
527.18	37759.86
527.36	38277.12
527.53	38323.93
527.70	38244.35
527.87	38445.64
528.04	37996.26
528.21	38691.40
528.38	38281.80
528.55	38976.94
528.72	38569.69
528.89	38948.85
529.07	38892.68
529.24	38609.48
529.41	38679.69
529.58	38859.91
529.75	39122.05
529.92	38855.23
530.09	39199.29
530.26	39288.23
530.43	39484.84
530.60	39260.15
530.77	39365.47
530.94	39648.68
531.11	39871.03
531.28	39529.31
531.46	40147.21
531.63	39812.51
531.80	39466.11
531.97	39274.19
532.14	39580.80
532.31	39629.95
532.48	39519.95
532.65	39700.17
532.82	39278.87
532.99	39742.30
533.16	39323.34
533.33	39964.65
533.50	40266.58
533.67	40285.30
533.84	39533.99
534.01	40507.65
534.18	39861.66
534.35	40201.04
534.52	40282.96
534.69	40535.74
534.86	40634.04
535.03	40353.18
535.20	40982.78
535.37	41003.85
535.54	41167.68
535.71	40739.36
535.88	40781.49
536.05	40655.11
536.22	40769.79
536.38	41083.42
536.55	40582.55
536.72	40900.86
536.89	40645.74
537.06	40940.65
537.23	40978.10
537.40	41345.56
537.57	41216.83
537.74	41722.39
537.91	41493.02
538.08	41387.69
538.25	41631.11
538.42	41179.39
538.59	41364.29
538.75	41022.57
538.92	41174.70
539.09	41872.18
539.26	41265.99
539.43	41525.78
539.60	41560.89
539.77	41354.93
539.94	41280.03
540.11	41486.00
540.28	41811.33
540.44	41371.31
540.61	41455.57
540.78	41832.39
540.95	41813.67
541.12	41652.17
541.29	41713.03
541.46	42005.59
541.62	42054.75
541.79	41965.81
541.96	41666.22
542.13	42052.41
542.30	41940.06
542.47	42213.90
542.63	42120.28
542.80	42162.41
542.97	42534.56
543.14	42911.38
543.31	42738.18
543.48	43056.50
543.64	43353.74
543.81	43044.79
543.98	43199.27
544.15	42763.93
544.32	42951.17
544.48	43629.93
544.65	43166.50
544.82	43086.92
544.99	42918.40
545.16	43388.85
545.32	42689.03
545.49	43337.36
545.66	43803.13
545.83	43496.52
546.00	43798.44
546.16	43395.87
546.33	43559.71
546.50	42906.70
546.67	43304.59
546.83	43257.78
547.00	43353.74
547.17	43484.81
547.34	43079.90
547.50	43728.23
547.67	43828.87
547.84	43941.22
548.00	43562.05
548.17	44172.93
548.34	43615.88
548.51	43831.21
548.67	43683.76
548.84	44088.67
549.01	43903.77
549.18	43938.88
549.34	43761.00
549.51	44027.82
549.68	44470.18
549.84	43835.89
550.01	43770.36
550.18	43871.00
550.34	44137.82
550.51	43817.17
550.68	44313.36
550.84	44109.74
551.01	44645.72
551.18	44133.14
551.34	44313.36
551.51	44156.55
551.68	44556.78
551.84	44191.65
552.01	44589.55
552.18	44142.50
552.34	44311.02
552.51	44516.99
552.68	44385.92
552.84	44453.79
553.01	44708.91
553.18	44655.08
553.34	44528.69
553.51	44392.94
553.67	44636.36
553.84	44914.88
554.01	44886.79
554.17	45099.78
554.34	45022.54
554.51	44793.17
554.67	45081.06
554.84	44872.75
555.00	44903.18
555.17	44495.92
555.33	44868.07
555.50	44643.38
555.67	44320.38
555.83	44964.03
556.00	45162.98
556.16	45123.19
556.33	45397.03
556.50	44994.46
556.66	45172.34
556.83	44889.13
556.99	45560.87
557.16	45315.11
557.32	45432.14
557.49	45390.01
557.65	44568.48
557.82	45029.57
557.98	45492.99
558.15	45345.54
558.32	45853.44
558.48	44765.09
558.65	45214.47
558.81	44994.46
558.98	45048.29
559.14	45301.07
559.31	45137.23
559.47	45382.99
559.64	45841.73
559.80	45450.86
559.97	45560.87
560.13	45282.34
560.30	45411.07
560.46	45673.21
560.63	45827.69
560.79	45635.77
560.96	45853.44
561.12	45422.78
561.29	45724.71
561.45	45574.91
561.61	45188.72
561.78	45710.66
561.94	45029.57
562.11	45469.59
562.27	45762.15
562.44	45483.63
562.60	45790.24
562.77	45895.56
562.93	45497.67
563.10	46028.98
563.26	45256.60
563.42	45694.28
563.59	45404.05
563.75	45691.94
563.92	46122.60
564.08	46096.85
564.24	45911.95
564.41	45799.60
564.57	45684.92
564.74	45797.26
564.90	45806.62
565.07	45626.40
565.23	46021.95
565.39	45921.31
565.56	45888.54
565.72	45614.70
565.88	45961.10
566.05	45481.29
566.21	45478.95
566.38	45593.64
566.54	45848.75
566.70	45722.37
566.87	46202.18
567.03	46251.33
567.19	46649.22
567.36	46302.82
567.52	45851.09
567.68	46202.18
567.85	45806.62
568.01	46270.05
568.17	46120.26
568.34	46300.48
568.50	46330.90
568.66	45808.96
568.83	46471.34
568.99	45708.32
569.15	45757.47
569.32	45961.10
569.48	45869.82
569.64	46319.20
569.81	46185.79
569.97	46129.62
570.13	45839.39
570.30	46185.79
570.46	45804.28
570.62	45537.46
570.78	45675.55
570.95	46050.04
571.11	46129.62
571.27	46101.53
571.43	45776.20
571.60	45907.27
571.76	45823.01
571.92	46424.53
572.09	45918.97
572.25	45993.87
572.41	46124.94
572.57	46433.89
572.74	46693.69
572.90	46209.20
573.06	46323.88
573.22	46291.12
573.38	46384.74
573.55	46075.79
573.71	46373.03
573.87	46199.83
574.03	45979.82
574.20	46298.14
574.36	46178.77
574.52	46672.62
574.68	46380.06
574.84	46284.09
575.01	46092.17
575.17	46342.61
575.33	46024.29
575.49	46064.08
575.65	46377.72
575.82	46499.42
575.98	46438.57
576.14	46321.54
576.30	46183.45
576.46	46057.06
576.62	46028.98
576.79	46295.80
576.95	46099.19
577.11	46555.60
577.27	46019.61
577.43	46127.28
577.59	46197.49
577.75	46377.72
577.92	45666.19
578.08	46298.14
578.24	45783.22
578.40	45825.35
578.56	45965.78
578.72	46117.92
578.88	46684.33
579.04	46281.75
579.21	46162.39
579.37	45942.38
579.53	46195.15
579.69	46167.07
579.85	46461.97
580.01	46115.58
580.17	46478.36
580.33	46646.88
580.49	46534.53
580.65	46469.00
580.82	46286.43
580.98	46211.54
581.14	45902.59
581.30	46555.60
581.46	46419.84
581.62	46232.60
581.78	46415.16
581.94	46541.55
582.10	45745.77
582.26	46326.22
582.42	46153.02
582.58	46321.54
582.74	46330.90
582.90	46632.83
583.06	46508.79
583.22	46546.23
583.38	46770.93
583.54	46473.68
583.70	46887.95
583.86	46557.94
584.02	46476.02
584.18	46337.93
584.34	46391.76
584.50	46260.69
584.66	46031.32
584.82	46312.18
584.98	46419.84
585.14	46660.92
585.30	46202.18
585.46	46815.40
585.62	45928.33
585.78	46192.81
585.94	45762.15
586.10	46155.36
586.26	46305.16
586.42	46431.55
586.58	46909.02
586.74	46763.90
586.90	46113.23
587.06	46342.61
587.22	46873.91
587.38	46178.77
587.54	46375.37
587.70	46440.91
587.86	46337.93
588.02	46277.07
588.18	46108.55
588.34	46476.02
588.49	46218.56
588.65	45584.27
588.81	45556.19
588.97	46026.63
589.13	45727.05
589.29	46092.17
589.45	46014.93
589.61	45993.87
589.77	46419.84
589.93	46003.23
