SpectraSuite Data File
++++++++++++++++++++++++++++++++++++
Date: Fri Oct 25 11:25:20 EDT 2013
User: price-jones
Dark Spectrum Present: No
Reference Spectrum Present: No
Number of Sampled Component Spectra: 1
Spectrometers: USB2+H05261
Integration Time (usec): 100000 (USB2+H05261)
Spectra Averaged: 1 (USB2+H05261)
Boxcar Smoothing: 0 (USB2+H05261)
Correct for Electrical Dark: No (USB2+H05261)
Strobe/Lamp Enabled: No (USB2+H05261)
Correct for Detector Non-linearity: No (USB2+H05261)
Correct for Stray Light: No (USB2+H05261)
Number of Pixels in Processed Spectrum: 2048
>>>>>Begin Processed Spectral Data<<<<<
365.73	241.08
365.92	241.08
366.12	241.08
366.32	140.43
366.52	121.71
366.72	145.11
366.91	220.01
367.11	154.48
367.31	117.03
367.51	173.20
367.70	145.11
367.90	184.90
368.10	131.07
368.30	142.77
368.49	117.03
368.69	149.79
368.89	170.86
369.09	159.16
369.28	154.48
369.48	98.30
369.68	149.79
369.87	189.58
370.07	166.18
370.27	227.03
370.47	379.17
370.66	545.34
370.86	610.88
371.06	655.35
371.25	702.16
371.45	650.67
371.65	699.82
371.84	688.12
372.04	716.20
372.24	688.12
372.44	671.73
372.63	753.65
372.83	739.61
373.03	772.38
373.22	734.93
373.42	774.72
373.62	786.42
373.81	812.17
374.01	786.42
374.21	835.57
374.40	791.10
374.60	884.72
374.79	814.51
374.99	753.65
375.19	781.74
375.38	863.66
375.58	720.88
375.78	826.21
375.97	903.45
376.17	851.96
376.37	863.66
376.56	877.70
376.76	870.68
376.95	873.02
377.15	945.58
377.35	905.79
377.54	861.32
377.74	910.47
377.93	894.08
378.13	938.55
378.33	994.73
378.52	844.93
378.72	994.73
378.91	978.34
379.11	973.66
379.31	952.60
379.50	901.11
379.70	945.58
379.89	983.02
380.09	992.39
380.28	959.62
380.48	917.49
380.68	966.64
380.87	968.98
381.07	994.73
381.26	1018.13
381.46	1018.13
381.65	1078.99
381.85	1013.45
382.04	1015.79
382.24	1022.81
382.43	983.02
382.63	1055.58
382.83	1057.92
383.02	1118.78
383.22	1170.27
383.41	1018.13
383.61	1146.86
383.80	1193.67
384.00	1104.73
384.19	1053.24
384.39	1151.54
384.58	1097.71
384.78	1167.93
384.97	1224.10
385.17	1139.84
385.36	1160.91
385.56	1100.05
385.75	1104.73
385.95	1203.04
386.14	1228.78
386.34	1179.63
386.53	1240.48
386.72	1160.91
386.92	1280.27
387.11	1207.72
387.31	1254.53
387.50	1228.78
387.70	1270.91
387.89	1327.08
388.09	1303.68
388.28	1226.44
388.48	1268.57
388.67	1282.61
388.86	1299.00
389.06	1310.70
389.25	1228.78
389.45	1259.21
389.64	1331.76
389.84	1310.70
390.03	1458.15
390.22	1357.51
390.42	1404.32
390.61	1451.13
390.81	1497.94
391.00	1406.66
391.19	1404.32
391.39	1455.81
391.58	1497.94
391.78	1427.73
391.97	1511.99
392.16	1444.11
392.36	1561.14
392.55	1472.20
392.75	1497.94
392.94	1526.03
393.13	1563.48
393.33	1451.13
393.52	1511.99
393.71	1586.88
393.91	1657.10
394.10	1624.33
394.29	1636.03
394.49	1593.90
394.68	1631.35
394.88	1633.69
395.07	1689.87
395.26	1654.76
395.46	1671.14
395.65	1645.40
395.84	1769.44
396.04	1685.19
396.23	1636.03
396.42	1722.63
396.62	1764.76
396.81	1776.47
397.00	1764.76
397.19	1788.17
397.39	1762.42
397.58	1825.62
397.77	1696.89
397.97	1830.30
398.16	1825.62
398.35	1961.37
398.55	1921.58
398.74	1823.28
398.93	1987.11
399.12	1928.60
399.32	1940.30
399.51	1937.96
399.70	2026.90
399.90	2022.22
400.09	1973.07
400.28	2090.10
400.47	2059.67
400.67	2036.27
400.86	1968.39
401.05	1954.35
401.24	2094.78
401.44	2104.14
401.63	2012.86
401.82	2221.17
402.01	2083.08
402.21	2237.55
402.40	2190.74
402.59	2197.76
402.78	2225.85
402.97	2134.57
403.17	2232.87
403.36	2307.77
403.55	2244.57
403.74	2406.07
403.93	2385.01
404.13	2354.58
404.32	2256.28
404.51	2438.84
404.70	2443.52
404.89	2392.03
405.09	2483.31
405.28	2502.03
405.47	2616.72
405.66	2429.48
405.85	2555.86
406.05	2480.97
406.24	2532.46
406.43	2506.71
406.62	2654.17
406.81	2654.17
407.00	2567.57
407.20	2548.84
407.39	2586.29
407.58	2705.66
407.77	2738.43
407.96	2801.62
408.15	2785.24
408.34	2736.09
408.54	2677.57
408.73	2775.88
408.92	2815.66
409.11	2780.56
409.30	2834.39
409.49	2937.37
409.68	2972.48
409.87	2892.90
410.07	2981.84
410.26	2956.10
410.45	3030.99
410.64	3124.62
410.83	3054.40
411.02	3019.29
411.21	3267.39
411.40	3098.87
411.59	3220.58
411.78	3122.27
411.98	3066.10
412.17	3293.13
412.36	3185.47
412.55	3351.65
412.74	3365.69
412.93	3396.12
413.12	3384.41
413.31	3487.40
413.50	3438.25
413.69	3468.67
413.88	3538.89
414.07	3482.72
414.26	3578.68
414.45	3620.81
414.64	3674.64
414.83	3534.21
415.02	3698.05
415.22	3838.48
415.41	3826.78
415.60	3803.37
415.79	3918.06
415.98	3962.53
416.17	3871.25
416.36	3983.59
416.55	3896.99
416.74	4021.04
416.93	4095.94
417.12	4102.96
417.31	4044.45
417.50	4231.69
417.69	4257.43
417.88	4198.92
418.07	3995.29
418.26	4308.93
418.45	4262.12
418.64	4386.16
418.83	4454.04
419.02	4252.75
419.21	4454.04
419.39	4444.68
419.58	4465.74
419.77	4379.14
419.96	4437.66
420.15	4683.41
420.34	4507.87
420.53	4664.69
420.72	4741.93
420.91	4732.56
421.10	4652.98
421.29	4723.20
421.48	4594.47
421.67	4706.82
421.86	4753.63
422.05	4884.70
422.24	4732.56
422.43	4716.18
422.61	4961.94
422.80	5015.77
422.99	4823.84
423.18	4727.88
423.37	4966.62
423.56	4823.84
423.75	4884.70
423.94	4816.82
424.13	4622.56
424.32	4739.58
424.50	4926.83
424.69	5188.97
424.88	4983.00
425.07	4943.21
425.26	4880.02
425.45	4849.59
425.64	4849.59
425.83	4992.36
426.01	5055.56
426.20	5062.58
426.39	4966.62
426.58	5085.98
426.77	5076.62
426.96	4973.64
427.15	5109.39
427.33	5252.16
427.52	5032.15
427.71	5266.21
427.90	5078.96
428.09	5149.18
428.28	5270.89
428.46	5451.11
428.65	5261.52
428.84	5495.58
429.03	5476.85
429.22	5352.81
429.40	5294.29
429.59	5514.30
429.78	5362.17
429.97	5273.23
430.16	5425.36
430.34	5710.91
430.53	5540.05
430.72	5582.18
430.91	5638.35
431.10	5666.44
431.28	5701.54
431.47	5907.51
431.66	5713.25
431.85	5614.95
432.03	5858.36
432.22	5954.32
432.41	5804.53
432.60	6012.84
432.79	5966.03
432.97	5970.71
433.16	5877.09
433.35	5837.30
433.54	6127.52
433.72	6050.28
433.91	6230.51
434.10	6061.99
434.28	6019.86
434.47	6160.29
434.66	6284.34
434.85	6232.85
435.03	6230.51
435.22	6382.64
435.41	6422.43
435.59	6289.02
435.78	6289.02
435.97	6392.00
436.16	6434.13
436.34	6504.35
436.53	6384.98
436.72	6670.53
436.90	6511.37
437.09	6700.95
437.28	6249.23
437.46	6546.48
437.65	6602.65
437.84	6834.36
438.02	6670.53
438.21	6600.31
438.40	6513.71
438.58	6904.58
438.77	7028.63
438.96	6958.41
439.14	6979.48
439.33	7183.10
439.52	7059.06
439.70	7143.32
439.89	7178.42
440.08	7281.41
440.26	7417.16
440.45	7389.07
440.63	7335.24
440.82	7527.16
441.01	7265.02
441.19	7459.29
441.38	7726.11
441.57	7707.38
441.75	7775.26
441.94	7981.23
442.12	7854.84
442.31	8091.23
442.50	7789.30
442.68	7896.97
442.87	8100.59
443.05	8079.53
443.24	8147.40
443.43	7997.61
443.61	7906.33
443.80	8297.20
443.98	7899.31
444.17	7782.28
444.35	8224.64
444.54	8294.86
444.73	8212.94
444.91	8042.08
445.10	8098.25
445.28	8379.12
445.47	8215.28
445.65	8236.35
445.84	8133.36
446.02	8355.71
446.21	8423.59
446.39	8439.97
446.58	8393.16
446.77	8339.33
446.95	8156.77
447.14	8521.89
447.32	8706.79
447.51	8393.16
447.69	8425.93
447.88	8456.36
448.06	8568.70
448.25	8435.29
448.43	8376.78
448.62	8566.36
448.80	8362.73
448.99	8526.57
449.17	8786.37
449.36	8594.45
449.54	8727.86
449.73	8933.82
449.91	8830.84
450.10	8896.38
450.28	8854.25
450.46	9111.71
450.65	8908.08
450.83	9142.13
451.02	8997.02
451.20	9032.13
451.39	9118.73
451.57	9130.43
451.76	9210.01
451.94	9027.45
452.13	9493.21
452.31	9280.22
452.49	9142.13
452.68	9366.82
452.86	9277.88
453.05	9441.72
453.23	9647.69
453.42	9420.66
453.60	9312.99
453.78	9451.08
453.97	9441.72
454.15	9415.98
454.34	9242.78
454.52	9657.05
454.70	9710.88
454.89	9694.50
455.07	9659.39
455.26	9748.33
455.44	9846.63
455.62	9940.26
455.81	9846.63
455.99	9949.62
456.17	9717.90
456.36	10073.67
456.54	9980.04
456.73	10115.80
456.91	10391.98
457.09	10361.55
457.28	10396.66
457.46	10249.21
457.64	10410.70
457.83	10501.98
458.01	10207.08
458.19	10558.16
458.38	10443.47
458.56	10548.79
458.74	10494.96
458.93	10602.63
459.11	10698.59
459.29	10567.52
459.48	10714.97
459.66	10637.73
459.84	10843.70
460.03	10796.89
460.21	10771.15
460.39	11007.54
460.57	11000.52
460.76	11054.35
460.94	11066.05
461.12	10960.73
461.31	10923.28
461.49	11176.06
461.67	11096.48
461.85	11360.96
462.04	11314.15
462.22	11653.53
462.40	11309.47
462.59	11344.58
462.77	11290.74
462.95	11564.59
463.13	11536.50
463.32	11517.78
463.50	11623.10
463.68	11517.78
463.86	11641.82
464.05	11602.04
464.23	11611.40
464.41	11658.21
464.59	11805.66
464.78	12006.95
464.96	12018.65
465.14	11623.10
465.32	11613.74
465.50	11997.59
465.69	12098.23
465.87	12107.59
466.05	12131.00
466.23	12194.19
466.41	12372.07
466.60	12250.36
466.78	11810.34
466.96	12248.02
467.14	12173.13
467.32	12449.31
467.51	12397.82
467.69	11978.86
467.87	12390.80
468.05	12514.84
468.23	12348.67
468.41	12285.47
468.60	12439.95
468.78	12643.57
468.96	12666.98
469.14	12603.78
469.32	12975.93
469.50	12566.34
469.69	12945.50
469.87	12975.93
470.05	12936.14
470.23	12957.21
470.41	12957.21
470.59	13280.20
470.77	13137.43
470.95	13158.49
471.14	13327.01
471.32	12844.86
471.50	13621.92
471.68	13516.59
471.86	13603.19
472.04	13570.43
472.22	14054.92
472.40	13488.51
472.58	13937.89
472.77	13909.80
472.95	14148.54
473.13	14279.61
473.31	13961.30
473.49	13916.83
473.67	14148.54
473.85	14452.81
474.03	14696.22
474.21	14384.93
474.39	14668.14
474.57	14366.21
474.75	14778.14
474.93	14902.19
475.12	14792.19
475.30	15012.20
475.48	15269.66
475.66	15115.18
475.84	14792.19
476.02	15690.95
476.20	15126.88
476.38	15616.05
476.56	15889.90
476.74	15845.43
476.92	15676.91
477.10	15707.34
477.28	16161.40
477.46	15932.03
477.64	15976.50
477.82	16439.92
478.00	16989.95
478.18	16781.64
478.36	17076.55
478.54	17062.51
478.72	16695.04
478.90	16987.61
479.08	17392.52
479.26	17444.01
479.44	17649.98
479.62	17575.08
479.80	17781.05
479.98	17984.68
480.16	18436.40
480.34	18340.44
480.52	18668.11
480.70	18572.15
480.88	18305.33
481.06	18630.66
481.24	18700.88
481.41	18813.23
481.59	19021.53
481.77	19138.56
481.95	19171.33
482.13	19733.06
482.31	19480.28
482.49	20088.82
482.67	20418.83
482.85	20222.23
483.03	20355.64
483.21	20470.33
483.39	20589.69
483.57	20968.86
483.74	21001.63
483.92	21006.31
484.10	21240.36
484.28	21507.18
484.46	21720.17
484.64	22384.88
484.82	21972.95
485.00	22235.09
485.18	22764.05
485.35	22703.20
485.53	22544.04
485.71	22904.48
485.89	23346.84
486.07	23080.02
486.25	23288.33
486.43	23672.18
486.61	23623.03
486.78	23906.23
486.96	24182.42
487.14	24250.29
487.32	24400.08
487.50	24945.43
487.68	24641.16
487.85	24989.90
488.03	25212.25
488.21	25612.48
488.39	25713.13
488.57	25757.60
488.75	25907.39
488.92	26422.31
489.10	26567.42
489.28	26426.99
489.46	26785.09
489.64	26700.83
489.81	27353.84
489.99	27552.79
490.17	27405.33
490.35	27922.59
490.53	28051.32
490.70	28329.84
490.88	28123.88
491.06	28542.83
491.24	28561.56
491.41	29008.60
491.59	28914.98
491.77	29214.57
491.95	29303.51
492.13	29598.41
492.30	29788.00
492.48	29930.77
492.66	29783.32
492.84	30190.57
493.01	30338.02
493.19	30213.98
493.37	30824.86
493.54	30878.69
493.72	31033.16
493.90	31213.38
494.08	31325.73
494.25	31859.37
494.43	31798.52
494.61	31906.18
494.79	32341.52
494.96	32048.96
495.14	32587.28
495.32	33031.98
495.49	33010.92
495.67	33069.43
495.85	33055.39
496.02	33703.71
496.20	33504.77
496.38	33488.38
496.55	33825.42
496.73	34696.10
496.91	34382.47
497.09	34747.59
497.26	35014.41
497.44	34911.43
497.62	35433.37
497.79	35938.93
497.97	34892.71
498.14	35615.93
498.32	35697.85
498.50	35864.03
498.67	36065.31
498.85	36540.44
499.03	36491.29
499.20	36437.46
499.38	36568.53
499.56	36872.80
499.73	37118.56
499.91	37385.38
500.08	36985.15
500.26	36914.93
500.44	37371.33
500.61	37411.12
500.79	37581.98
500.97	37853.48
501.14	38536.92
501.32	38368.40
501.49	38415.21
501.67	38380.10
501.84	38389.47
502.02	38749.91
502.20	39009.71
502.37	38602.46
502.55	39234.40
502.72	39524.63
502.90	39140.78
503.07	39110.35
503.25	39679.10
503.43	39084.61
503.60	40032.52
503.78	39800.81
503.95	40076.99
504.13	39903.79
504.30	40065.29
504.48	40318.07
504.65	40479.57
504.83	40844.69
505.01	40498.29
505.18	40779.15
505.36	41053.00
505.53	40708.94
505.71	41228.54
505.88	42075.81
506.06	41291.73
506.23	41862.82
506.41	41656.85
506.58	41801.97
506.76	42375.40
506.93	42724.14
507.11	41972.83
507.28	42424.55
507.46	42309.86
507.63	42703.07
507.81	43388.85
507.98	42462.00
508.16	42616.47
508.33	43372.47
508.50	43419.28
508.68	43648.65
508.85	43372.47
509.03	43438.00
509.20	44095.69
509.38	43739.93
509.55	44191.65
509.73	43955.26
509.90	43852.28
510.08	43842.92
510.25	44217.40
510.42	44638.70
510.60	44865.73
510.77	44718.28
510.95	45088.08
511.12	44804.88
511.30	44825.94
511.47	45043.61
511.64	45134.89
511.82	45617.04
511.99	45324.47
512.17	46253.67
512.34	45345.54
512.51	45972.80
512.69	45979.82
512.86	46110.89
513.04	46511.13
513.21	46314.52
513.38	46808.37
513.56	46557.94
513.73	46403.46
513.90	46618.79
514.08	46511.13
514.25	46918.38
514.43	46845.82
514.60	47274.14
514.77	46939.44
514.95	47569.05
515.12	47346.70
515.29	47519.90
515.47	47580.75
515.64	47491.81
515.81	47686.07
515.99	48039.50
516.16	48151.84
516.33	47866.30
516.51	48470.15
516.68	48215.04
516.85	48404.62
517.03	48540.37
517.20	48910.17
517.37	48891.45
517.54	48498.24
517.72	48378.87
517.89	48732.29
518.06	48753.36
518.24	48648.03
518.41	48786.13
518.58	49048.27
518.75	48788.47
518.93	49148.91
519.10	49308.07
519.27	49193.38
519.45	49478.92
519.62	49565.52
519.79	49916.61
519.96	49579.57
520.14	49827.66
520.31	49904.90
520.48	49806.60
520.65	49682.55
520.83	50560.25
521.00	50265.34
521.17	50110.87
521.34	50635.15
521.52	50445.57
521.69	50852.82
521.86	50602.38
522.03	50782.60
522.20	50904.31
522.38	51208.58
522.55	51192.20
522.72	50976.87
522.89	51189.86
523.07	51489.45
523.24	51107.94
523.41	51440.29
523.58	51285.82
523.75	51653.28
523.92	51590.09
524.10	51817.12
524.27	51957.55
524.44	51873.29
524.61	51856.91
524.78	51782.01
524.96	52083.94
525.13	51997.34
525.30	52282.89
525.47	52308.63
525.64	52395.23
525.81	52306.29
525.98	52495.88
526.16	52390.55
526.33	52507.58
526.50	52760.36
526.67	52409.28
526.84	52839.93
527.01	52818.87
527.18	52858.66
527.36	52823.55
527.53	52886.74
527.70	53083.35
527.87	53195.70
528.04	52959.30
528.21	53270.59
528.38	53223.78
528.55	53214.42
528.72	53125.48
528.89	52963.98
529.07	53366.55
529.24	53268.25
529.41	53464.86
529.58	53616.99
529.75	53441.45
529.92	53462.52
530.09	53570.18
530.26	53497.62
530.43	54117.87
530.60	53359.53
530.77	53701.25
530.94	54045.31
531.11	53932.96
531.28	53794.87
531.46	53890.83
531.63	53923.60
531.80	53876.79
531.97	54007.86
532.14	54354.26
532.31	54295.75
532.48	54396.39
532.65	54403.41
532.82	54026.59
532.99	54475.97
533.16	54436.18
533.33	54670.23
533.50	54972.16
533.67	54782.58
533.84	54536.82
534.01	54681.94
534.18	54852.80
534.35	54981.52
534.52	54948.76
534.69	54923.01
534.86	55063.44
535.03	54653.85
535.20	55011.95
535.37	55014.29
535.54	55180.47
535.71	55016.63
535.88	55105.57
536.05	55480.06
536.22	55498.78
536.38	55236.64
536.55	55318.56
536.72	55290.48
536.89	55480.06
537.06	55377.08
537.23	55552.62
537.40	55243.66
537.57	55653.26
537.74	55636.87
537.91	55847.52
538.08	55840.50
538.25	55606.45
538.42	55943.48
538.59	55845.18
538.75	55587.72
538.92	55772.63
539.09	55861.57
539.26	55758.58
539.43	55842.84
539.60	56079.24
539.77	55969.23
539.94	56411.59
540.11	56062.85
540.28	56184.56
540.44	56076.90
540.61	56039.45
540.78	56156.47
540.95	56086.26
541.12	56437.34
541.29	56315.63
541.46	56299.25
541.62	56362.44
541.79	56477.13
541.96	56210.31
542.13	56432.66
542.30	56463.08
542.47	56706.50
542.63	56750.97
542.80	56783.74
542.97	57045.88
543.14	57008.43
543.31	56999.07
543.48	57041.20
543.64	57315.04
543.81	57277.59
543.98	57099.71
544.15	57057.58
544.32	57279.93
544.48	57392.28
544.65	57118.43
544.82	57336.10
544.99	57078.64
545.16	57134.82
545.32	57305.68
545.49	57396.96
545.66	57752.72
545.83	57499.94
546.00	57598.24
546.16	57453.13
546.33	57237.80
546.50	57331.42
546.67	57687.18
546.83	57249.50
547.00	57607.61
547.17	57427.38
547.34	57825.28
547.50	57670.80
547.67	57902.51
547.84	57890.81
548.00	57647.39
548.17	58024.22
548.34	57848.68
548.51	58122.52
548.67	57841.66
548.84	57766.76
549.01	58101.46
549.18	57916.56
549.34	58122.52
549.51	58143.59
549.68	58075.71
549.84	58066.35
550.01	58206.78
550.18	57954.00
550.34	58218.49
550.51	58347.21
550.68	58223.17
550.84	57961.03
551.01	58646.80
551.18	58473.60
551.34	58171.67
551.51	58431.47
551.68	58417.43
551.84	58511.05
552.01	58288.70
552.18	58471.26
552.34	58286.36
552.51	58660.85
552.68	58176.36
552.84	58546.16
553.01	58871.49
553.18	58588.29
553.34	58731.06
553.51	58513.39
553.67	58663.19
553.84	58887.88
554.01	58623.40
554.17	58726.38
554.34	58747.45
554.51	58812.98
554.67	58894.90
554.84	58848.09
555.00	58906.60
555.17	58674.89
555.33	58904.26
555.50	58775.53
555.67	58822.34
555.83	58791.92
556.00	59114.91
556.16	59224.92
556.33	59173.42
556.50	59047.04
556.66	59025.97
556.83	58887.88
556.99	59255.34
557.16	59536.21
557.32	59416.84
557.49	59496.42
557.65	59147.68
557.82	59150.02
557.98	59264.70
558.15	59470.67
558.32	59365.35
558.48	59257.68
558.65	59187.47
558.81	59384.07
558.98	59540.89
559.14	59428.54
559.31	59241.30
559.47	59449.61
559.64	59458.97
559.80	59508.12
559.97	59629.83
560.13	59578.34
560.30	59526.84
560.46	59625.15
560.63	59662.60
560.79	59599.40
560.96	59622.81
561.12	59744.51
561.29	59545.57
561.45	59887.29
561.61	59798.35
561.78	59592.38
561.94	59880.27
562.11	59739.83
562.27	59690.68
562.44	59491.74
562.60	59955.16
562.77	59896.65
562.93	59594.72
563.10	59920.05
563.26	59884.95
563.42	59959.84
563.59	59868.56
563.75	59793.67
563.92	59786.64
564.08	59849.84
564.24	60011.34
564.41	59922.40
564.57	59906.01
564.74	59997.29
564.90	59917.71
565.07	60161.13
565.23	60004.31
565.39	59793.67
565.56	60168.15
565.72	60107.30
565.88	60140.07
566.05	59835.80
566.21	59632.17
566.38	60154.11
566.54	59945.80
566.70	60065.17
566.87	60336.67
567.03	59842.82
567.19	60212.62
567.36	59999.63
567.52	60023.04
567.68	60355.39
567.85	60198.58
568.01	60205.60
568.17	60149.43
568.34	60271.14
568.50	60203.26
568.66	60088.57
568.83	60317.95
568.99	60224.32
569.15	60275.82
569.32	60233.69
569.48	60032.40
569.64	60341.35
569.81	60278.16
569.97	60233.69
570.13	60327.31
570.30	60233.69
570.46	60168.15
570.62	60456.04
570.78	60128.36
570.95	60282.84
571.11	60378.80
571.27	60343.69
571.43	60460.72
571.60	60729.88
571.76	60346.03
571.92	60472.42
572.09	60441.99
572.25	60528.59
572.41	60416.25
572.57	60512.21
572.74	60683.07
572.90	60477.10
573.06	60657.32
573.22	60500.51
573.38	60610.51
573.55	60598.81
573.71	60549.66
573.87	60629.24
574.03	60238.37
574.20	60477.10
574.36	60320.29
574.52	60650.30
574.68	60516.89
574.84	60781.37
575.01	60631.58
575.17	60495.83
575.33	60509.87
575.49	60451.36
575.65	60568.38
575.82	60739.24
575.98	60676.05
576.14	60846.91
576.30	60725.20
576.46	60615.19
576.62	60500.51
576.79	60575.40
576.95	60472.42
577.11	60622.22
577.27	60708.82
577.43	60748.60
577.59	60615.19
577.75	60530.93
577.92	60355.39
578.08	60568.38
578.24	60779.03
578.40	60795.42
578.56	60884.36
578.72	60603.49
578.88	60926.49
579.04	60947.55
579.21	60711.16
579.37	60767.33
579.53	60722.86
579.69	60463.06
579.85	60530.93
580.01	60657.32
580.17	60603.49
580.33	60811.80
580.49	60837.54
580.65	60821.16
580.82	60706.47
580.98	60779.03
581.14	60720.52
581.30	60879.67
581.46	60790.73
581.62	60690.09
581.78	60786.05
581.94	60835.20
582.10	60671.37
582.26	60774.35
582.42	60638.60
582.58	60626.90
582.74	60544.98
582.90	60664.35
583.06	60685.41
583.22	60650.30
583.38	60800.10
583.54	60811.80
583.70	60865.63
583.86	60732.22
584.02	60626.90
584.18	60849.25
584.34	60842.23
584.50	60622.22
584.66	60654.98
584.82	60570.72
584.98	60835.20
585.14	60823.50
585.30	60552.00
585.46	60989.68
585.62	60722.86
585.78	60912.44
585.94	60839.89
586.10	60814.14
586.26	60718.18
586.42	60954.57
586.58	60874.99
586.74	60884.36
586.90	60919.46
587.06	60753.29
587.22	60802.44
587.38	60919.46
587.54	61043.51
587.70	61134.79
587.86	60725.20
588.02	60910.10
588.18	60947.55
588.34	61006.06
588.49	60769.67
