SpectraSuite Data File
++++++++++++++++++++++++++++++++++++
Date: Fri Oct 25 10:44:28 EDT 2013
User: price-jones
Dark Spectrum Present: No
Reference Spectrum Present: No
Number of Sampled Component Spectra: 1
Spectrometers: USB2+H05261
Integration Time (usec): 100000 (USB2+H05261)
Spectra Averaged: 1 (USB2+H05261)
Boxcar Smoothing: 0 (USB2+H05261)
Correct for Electrical Dark: No (USB2+H05261)
Strobe/Lamp Enabled: No (USB2+H05261)
Correct for Detector Non-linearity: No (USB2+H05261)
Correct for Stray Light: No (USB2+H05261)
Number of Pixels in Processed Spectrum: 2048
>>>>>Begin Processed Spectral Data<<<<<
365.73	131.07
365.92	131.07
366.12	131.07
366.32	23.41
366.52	0.00
366.72	88.94
366.91	46.81
367.11	0.00
367.31	21.06
367.51	42.13
367.70	30.43
367.90	58.51
368.10	0.00
368.30	0.00
368.49	14.04
368.69	53.83
368.89	58.51
369.09	28.09
369.28	63.19
369.48	14.04
369.68	112.35
369.87	70.22
370.07	100.64
370.27	74.90
370.47	152.13
370.66	454.06
370.86	390.87
371.06	479.81
371.25	479.81
371.45	512.58
371.65	482.15
371.84	500.87
372.04	411.93
372.24	503.22
372.44	454.06
372.63	517.26
372.83	496.19
373.03	400.23
373.22	524.28
373.42	493.85
373.62	519.60
373.81	526.62
374.01	571.09
374.21	631.94
374.40	538.32
374.60	592.16
374.79	568.75
374.99	578.11
375.19	552.37
375.38	580.45
375.58	587.47
375.78	671.73
375.97	582.79
376.17	636.63
376.37	601.52
376.56	599.18
376.76	592.16
376.95	636.63
377.15	634.29
377.35	634.29
377.54	730.25
377.74	601.52
377.93	667.05
378.13	655.35
378.33	748.97
378.52	741.95
378.72	702.16
378.91	641.31
379.11	554.71
379.31	683.44
379.50	603.86
379.70	709.18
379.89	667.05
380.09	671.73
380.28	699.82
380.48	645.99
380.68	650.67
380.87	685.78
381.07	697.48
381.26	798.12
381.46	730.25
381.65	645.99
381.85	732.59
382.04	734.93
382.24	676.41
382.43	657.69
382.63	727.91
382.83	702.16
383.02	681.10
383.22	702.16
383.41	699.82
383.61	777.06
383.80	779.40
384.00	751.31
384.19	828.55
384.39	821.53
384.58	692.80
384.78	894.08
384.97	833.23
385.17	788.76
385.36	767.70
385.56	793.44
385.75	676.41
385.95	830.89
386.14	844.93
386.34	837.91
386.53	793.44
386.72	870.68
386.92	814.51
387.11	947.92
387.31	1032.18
387.50	819.19
387.70	908.13
387.89	978.34
388.09	919.83
388.28	861.32
388.48	854.30
388.67	912.81
388.86	943.24
389.06	868.34
389.25	959.62
389.45	976.00
389.64	1020.47
389.84	1041.54
390.03	1032.18
390.22	976.00
390.42	1004.09
390.61	1043.88
390.81	1088.35
391.00	980.68
391.19	1121.12
391.39	1055.58
391.58	1062.60
391.78	1064.94
391.97	1055.58
392.16	973.66
392.36	990.05
392.55	1043.88
392.75	1083.67
392.94	1001.75
393.13	1086.01
393.33	1013.45
393.52	999.41
393.71	1097.71
393.91	1109.41
394.10	1043.88
394.29	1135.16
394.49	1125.80
394.68	1238.14
394.88	1153.88
395.07	1198.35
395.26	1146.86
395.46	1146.86
395.65	1245.16
395.84	1233.46
396.04	1336.45
396.23	1198.35
396.42	1146.86
396.62	1177.29
396.81	1252.19
397.00	1207.72
397.19	1181.97
397.39	1420.71
397.58	1348.15
397.77	1427.73
397.97	1380.92
398.16	1383.26
398.35	1427.73
398.55	1556.46
398.74	1519.01
398.93	1575.18
399.12	1427.73
399.32	1533.05
399.51	1472.20
399.70	1528.37
399.90	1458.15
400.09	1600.93
400.28	1596.25
400.47	1593.90
400.67	1514.33
400.86	1624.33
401.05	1668.80
401.24	1699.23
401.44	1626.67
401.63	1638.38
401.82	1689.87
402.01	1736.68
402.21	1753.06
402.40	1762.42
402.59	1778.81
402.78	1774.13
402.97	1755.40
403.17	1755.40
403.36	1760.08
403.55	1874.77
403.74	1898.17
403.93	1776.47
404.13	1837.32
404.32	1774.13
404.51	1849.02
404.70	1959.03
404.89	1872.43
405.09	2057.33
405.28	1905.20
405.47	1937.96
405.66	1949.67
405.85	2062.01
406.05	1975.41
406.24	1973.07
406.43	2094.78
406.62	2080.74
406.81	2209.47
407.00	2026.90
407.20	2001.16
407.39	2092.44
407.58	2045.63
407.77	2071.37
407.96	2172.02
408.15	2314.79
408.34	2146.27
408.54	2232.87
408.73	2303.09
408.92	2331.17
409.11	2272.66
409.30	2293.72
409.49	2228.19
409.68	2282.02
409.87	2310.11
410.07	2310.11
410.26	2368.62
410.45	2324.15
410.64	2361.60
410.83	2415.43
411.02	2616.72
411.21	2626.08
411.40	2523.10
411.59	2663.53
411.78	2621.40
411.98	2506.71
412.17	2689.28
412.36	2661.19
412.55	2808.64
412.74	2729.06
412.93	2649.49
413.12	2661.19
413.31	2864.82
413.50	2738.43
413.69	2857.79
413.88	2881.20
414.07	2949.08
414.26	2867.16
414.45	2939.71
414.64	2841.41
414.83	3082.49
415.02	3059.08
415.22	2984.18
415.41	3129.30
415.60	3063.76
415.79	3112.91
415.98	3246.32
416.17	3358.67
416.36	3274.41
416.55	3236.96
416.74	3208.87
416.93	3197.17
417.12	3353.99
417.31	3274.41
417.50	3281.43
417.69	3412.50
417.88	3398.46
418.07	3370.37
418.26	3400.80
418.45	3463.99
418.64	3653.58
418.83	3517.83
419.02	3496.76
419.21	3644.21
419.39	3524.85
419.58	3583.36
419.77	3623.15
419.96	3620.81
420.15	3679.32
420.34	3822.09
420.53	3756.56
420.72	3742.52
420.91	3796.35
421.10	3936.78
421.29	3850.18
421.48	3728.47
421.67	3698.05
421.86	3838.48
422.05	3868.91
422.24	3627.83
422.43	3716.77
422.61	3861.88
422.80	3786.99
422.99	3840.82
423.18	3798.69
423.37	3892.31
423.56	3873.59
423.75	3978.91
423.94	3744.86
424.13	3672.30
424.32	3763.58
424.50	3967.21
424.69	3964.87
424.88	4194.24
425.07	3896.99
425.26	3857.20
425.45	3950.82
425.64	3908.69
425.83	3906.35
426.01	3967.21
426.20	4098.28
426.39	4007.00
426.58	4016.36
426.77	3913.38
426.96	3985.93
427.15	3887.63
427.33	4081.89
427.52	4107.64
427.71	4018.70
427.90	4135.73
428.09	4184.88
428.28	4051.47
428.46	4163.81
428.65	4311.27
428.84	4229.35
429.03	4189.56
429.22	4074.87
429.40	4088.92
429.59	4039.76
429.78	4056.15
429.97	4014.02
430.16	3950.82
430.34	4042.11
430.53	4264.46
430.72	4236.37
430.91	4229.35
431.10	4294.88
431.28	4521.92
431.47	4629.58
431.66	4636.60
431.85	4599.15
432.03	4683.41
432.22	4629.58
432.41	4554.68
432.60	4631.92
432.79	4667.03
432.97	4847.25
433.16	4741.93
433.35	4664.69
433.54	4648.30
433.72	4713.84
433.91	4732.56
434.10	4699.80
434.28	4734.90
434.47	4777.03
434.66	4873.00
434.85	4971.30
435.03	4835.55
435.22	5011.09
435.41	5074.28
435.59	5093.01
435.78	4999.38
435.97	5132.79
436.16	5125.77
436.34	5153.86
436.53	5280.25
436.72	5228.76
436.90	5060.24
437.09	5242.80
437.28	5160.88
437.46	5191.31
437.65	5170.24
437.84	5238.12
438.02	5111.73
438.21	5137.48
438.40	5039.17
438.58	5282.59
438.77	5425.36
438.96	5359.83
439.14	5518.98
439.33	5504.94
439.52	5643.03
439.70	5542.39
439.89	5549.41
440.08	5540.05
440.26	5603.24
440.45	5785.80
440.63	5753.04
440.82	6094.76
441.01	5987.09
441.19	5792.83
441.38	6010.50
441.57	5982.41
441.75	6033.90
441.94	6427.11
442.12	6174.33
442.31	6349.87
442.50	6370.94
442.68	6256.25
442.87	6349.87
443.05	6286.68
443.24	6420.09
443.43	6246.89
443.61	6502.01
443.80	6555.84
443.98	6253.91
444.17	6125.18
444.35	6569.88
444.54	6553.50
444.73	6450.52
444.91	6314.77
445.10	6466.90
445.28	6347.53
445.47	6513.71
445.65	6459.88
445.84	6609.67
446.02	6497.33
446.21	6700.95
446.39	6466.90
446.58	6586.27
446.77	6705.63
446.95	6562.86
447.14	6539.46
447.32	6700.95
447.51	6513.71
447.69	6707.98
447.88	6750.10
448.06	6581.59
448.25	6569.88
448.43	6803.94
448.62	6785.21
448.80	6754.79
448.99	6684.57
449.17	6750.10
449.36	6597.97
449.54	6979.48
449.73	6951.39
449.91	6988.84
450.10	7049.69
450.28	7164.38
450.46	7026.29
450.65	7157.36
450.83	7059.06
451.02	7227.57
451.20	7243.96
451.39	7140.97
451.57	7234.60
451.76	7283.75
451.94	7283.75
452.13	7136.29
452.31	7180.76
452.49	7091.82
452.68	7194.81
452.86	7253.32
453.05	7452.27
453.23	7218.21
453.42	7400.77
453.60	7365.67
453.78	7309.49
453.97	7435.88
454.15	7309.49
454.34	7314.17
454.52	7522.48
454.70	7470.99
454.89	7618.44
455.07	7412.48
455.26	7588.02
455.44	7620.78
455.62	7630.15
455.81	7751.85
455.99	7971.86
456.17	8004.63
456.36	7805.69
456.54	7726.11
456.73	8025.70
456.91	8231.66
457.09	8042.08
457.28	8219.96
457.46	7950.80
457.64	8028.04
457.83	8259.75
458.01	7864.20
458.19	8079.53
458.38	8081.87
458.56	8145.06
458.74	8266.77
458.93	8184.85
459.11	8329.97
459.29	8191.88
459.48	8287.84
459.66	8318.26
459.84	8299.54
460.03	8638.92
460.21	8362.73
460.39	8547.64
460.57	8596.79
460.76	8491.46
460.94	8538.27
461.12	8580.40
461.31	8582.74
461.49	8578.06
461.67	8568.70
461.85	8924.46
462.04	8486.78
462.22	8961.91
462.40	8898.72
462.59	8807.44
462.77	8812.12
462.95	8922.12
463.13	8919.78
463.32	8826.16
463.50	9050.85
463.68	9039.15
463.86	8950.21
464.05	8819.14
464.23	8905.74
464.41	8940.85
464.59	8802.75
464.78	9022.77
464.96	8835.52
465.14	9252.14
465.32	9221.71
465.50	9104.68
465.69	9320.01
465.87	9088.30
466.05	9184.26
466.23	9268.52
466.41	9277.88
466.60	9504.92
466.78	9158.52
466.96	9231.07
467.14	9390.23
467.32	9383.21
467.51	9497.89
467.69	9298.95
467.87	9336.40
468.05	9603.22
468.23	9448.74
468.41	9502.58
468.60	9465.13
468.78	9565.77
468.96	9493.21
469.14	9610.24
469.32	9848.97
469.50	9479.17
469.69	9755.35
469.87	9755.35
470.05	9776.42
470.23	9748.33
470.41	9643.01
470.59	9870.04
470.77	9767.06
470.95	9977.70
471.14	10134.52
471.32	10092.39
471.50	10211.76
471.68	10347.51
471.86	10504.32
472.04	10338.15
472.22	10403.68
472.40	10071.33
472.58	10169.63
472.77	10368.57
472.95	10490.28
473.13	10820.30
473.31	10616.67
473.49	10525.39
473.67	10560.50
473.85	10822.64
474.03	11033.29
474.21	10958.39
474.39	11019.24
474.57	11290.74
474.75	11080.10
474.93	11112.86
475.12	11044.99
475.30	11236.91
475.48	11129.25
475.66	11396.07
475.84	11485.01
476.02	11363.30
476.20	11339.90
476.38	11676.93
476.56	11950.78
476.74	11702.68
476.92	11770.55
477.10	11782.26
477.28	12182.49
477.46	12168.45
477.64	12222.28
477.82	12294.83
478.00	12336.96
478.18	12248.02
478.36	12601.44
478.54	12479.74
478.72	12442.29
478.90	12973.59
479.08	12910.40
479.26	13188.92
479.44	13195.94
479.62	13394.89
479.80	13240.41
479.98	13490.85
480.16	13582.13
480.34	13586.81
480.52	13680.43
480.70	13741.29
480.88	13745.97
481.06	13987.04
481.24	13645.32
481.41	14242.16
481.59	14565.15
481.77	14583.88
481.95	14225.78
482.13	14558.13
482.31	14565.15
482.49	14824.95
482.67	14733.67
482.85	14813.25
483.03	15222.84
483.21	15517.75
483.39	15225.18
483.57	15185.40
483.74	15630.10
483.92	15793.94
484.10	15559.88
484.28	15903.94
484.46	16142.67
484.64	16074.80
484.82	15896.92
485.00	16212.89
485.18	16257.36
485.35	16484.39
485.53	16107.57
485.71	16091.18
485.89	16343.96
486.07	16559.29
486.25	16929.09
486.43	17029.74
486.61	17048.46
486.78	17186.55
486.96	17259.11
487.14	17418.27
487.32	17710.83
487.50	18071.28
487.68	17972.97
487.85	18686.84
488.03	18569.81
488.21	18593.22
488.39	18597.90
488.57	18714.92
488.75	18745.35
488.92	18878.76
489.10	19297.72
489.28	19468.58
489.46	19634.75
489.64	19321.12
489.81	19941.36
489.99	19946.05
490.17	20180.10
490.35	20060.73
490.53	20247.97
490.70	20446.92
490.88	20456.28
491.06	20821.41
491.24	20896.30
491.41	20554.58
491.59	20678.63
491.77	20751.19
491.95	21083.55
492.13	21357.39
492.30	21469.73
492.48	21305.90
492.66	21809.11
492.84	21788.05
493.01	21930.82
493.19	22092.32
493.37	21888.69
493.54	22239.77
493.72	22410.63
493.90	22714.90
494.08	22623.62
494.25	23171.30
494.43	22700.86
494.61	23190.03
494.79	23412.38
494.96	23491.96
495.14	23283.65
495.32	23503.66
495.49	23665.16
495.67	23688.56
495.85	24240.93
496.02	24041.98
496.20	24320.51
496.38	24507.75
496.55	24556.90
496.73	24809.68
496.91	24805.00
497.09	24961.81
497.26	25069.48
497.44	24849.47
497.62	25207.57
497.79	25427.58
497.97	25223.95
498.14	24957.13
498.32	25591.42
498.50	25736.53
498.67	26075.91
498.85	26174.21
499.03	25947.18
499.20	26263.15
499.38	26464.44
499.56	26394.22
499.73	26384.86
499.91	26143.78
500.08	26426.99
500.26	26391.88
500.44	26705.51
500.61	26824.88
500.79	26438.69
500.97	26986.38
501.14	27417.04
501.32	27213.41
501.49	27115.11
501.67	27318.73
501.84	27070.64
502.02	27545.76
502.20	27421.72
502.37	28175.37
502.55	27960.04
502.72	28166.01
502.90	27868.76
503.07	27936.63
503.25	28161.33
503.43	27807.90
503.60	28280.69
503.78	28215.16
503.95	28297.08
504.13	28280.69
504.30	28744.12
504.48	28636.45
504.65	28706.67
504.83	29544.58
505.01	29446.28
505.18	28945.41
505.36	29362.02
505.53	29032.00
505.71	29748.21
505.88	29785.66
506.06	29448.62
506.23	29827.79
506.41	29605.44
506.58	29675.65
506.76	29710.76
506.93	30033.75
507.11	29975.24
507.28	29867.58
507.46	29916.73
507.63	29902.68
507.81	30099.29
507.98	30506.54
508.16	30445.69
508.33	30471.43
508.50	30686.76
508.68	30742.94
508.85	31250.83
509.03	31068.27
509.20	31037.84
509.38	31456.80
509.55	30869.33
509.73	31164.23
509.90	31618.30
510.08	31051.89
510.25	31337.43
510.42	31475.52
510.60	31480.21
510.77	31700.22
510.95	31868.73
511.12	32102.79
511.30	32245.56
511.47	32039.59
511.64	31990.44
511.82	32364.93
511.99	31978.74
512.17	32327.48
512.34	32130.87
512.51	32650.47
512.69	32727.71
512.86	32676.22
513.04	32779.20
513.21	33270.72
513.38	32526.42
513.56	32872.82
513.73	32680.90
513.90	33254.33
514.08	32732.39
514.25	33277.74
514.43	33076.45
514.60	33614.77
514.77	33324.55
514.95	34003.30
515.12	33710.74
515.29	33684.99
515.47	34150.76
515.64	34227.99
515.81	34094.58
515.99	33642.86
516.16	33663.93
516.33	33656.90
516.51	33734.14
516.68	33446.26
516.85	33511.79
517.03	33750.52
517.20	33462.64
517.37	34274.80
517.54	34565.03
517.72	34260.76
517.89	33975.22
518.06	33993.94
518.24	33993.94
518.41	34469.07
518.58	34501.84
518.75	35026.12
518.93	34885.68
519.10	34953.56
519.27	35288.26
519.45	35101.01
519.62	35288.26
519.79	35283.58
519.96	35342.09
520.14	35688.49
520.31	35419.33
520.48	35295.28
520.65	35218.04
520.83	35864.03
521.00	36196.38
521.17	35756.36
521.34	35646.36
521.52	36046.59
521.69	36109.78
521.86	36257.24
522.03	36233.83
522.20	36545.12
522.38	36493.63
522.55	36582.57
522.72	36407.03
522.89	36294.69
523.07	36802.58
523.24	36814.29
523.41	37226.22
523.58	37113.87
523.75	37251.97
523.92	37287.07
524.10	37411.12
524.27	37069.40
524.44	37214.52
524.61	37659.22
524.78	37617.09
524.96	37476.66
525.13	37591.34
525.30	37820.72
525.47	38199.88
525.64	37467.30
525.81	37778.59
525.98	37792.63
526.16	37464.96
526.33	37343.25
526.50	37869.87
526.67	37397.08
526.84	37060.04
527.01	37418.14
527.18	38061.79
527.36	38368.40
527.53	38033.71
527.70	38234.99
527.87	38368.40
528.04	38370.74
528.21	38644.59
528.38	38878.64
528.55	38859.91
528.72	39098.65
528.89	38944.17
529.07	38719.48
529.24	39178.23
529.41	38801.40
529.58	39115.03
529.75	38902.04
529.92	38897.36
530.09	39210.99
530.26	39194.61
530.43	39365.47
530.60	39351.43
530.77	39660.38
530.94	39545.69
531.11	39196.95
531.28	39143.12
531.46	39358.45
531.63	39660.38
531.80	39505.90
531.97	39688.46
532.14	39524.63
532.31	39232.06
532.48	39632.29
532.65	39669.74
532.82	39709.53
532.99	40076.99
533.16	39402.92
533.33	40086.36
533.50	40259.55
533.67	40495.95
533.84	40212.74
534.01	39669.74
534.18	40470.20
534.35	40505.31
534.52	40273.60
534.69	40589.57
534.86	40863.41
535.03	40495.95
535.20	40961.72
535.37	40975.76
535.54	41109.17
535.71	40388.28
535.88	41102.15
536.05	40856.39
536.22	40917.25
536.38	41003.85
536.55	40622.34
536.72	40479.57
536.89	40755.75
537.06	41024.91
537.23	41031.93
537.40	41113.85
537.57	40865.75
537.74	41361.95
537.91	41462.59
538.08	41209.81
538.25	40875.12
538.42	40992.14
538.59	41780.90
538.75	40987.46
538.92	41193.43
539.09	41947.08
539.26	41336.20
539.43	41544.51
539.60	41254.28
539.77	41097.47
539.94	41490.68
540.11	41488.34
540.28	41478.97
540.44	41289.39
540.61	41097.47
540.78	42005.59
540.95	41572.60
541.12	41570.25
541.29	41591.32
541.46	41670.90
541.62	41909.63
541.79	42014.96
541.96	41280.03
542.13	41757.50
542.30	41911.97
542.47	42344.97
542.63	42045.38
542.80	42178.79
542.97	42515.83
543.14	42572.00
543.31	42789.67
543.48	42452.64
543.64	42749.88
543.81	43028.41
543.98	43189.91
544.15	42857.55
544.32	43072.88
544.48	43620.56
544.65	43269.48
544.82	43084.58
544.99	43192.25
545.16	43107.99
545.32	42431.57
545.49	43517.58
545.66	43620.56
545.83	43232.04
546.00	43122.03
546.16	43178.20
546.33	43026.07
546.50	43105.65
546.67	42813.08
546.83	42981.60
547.00	43438.00
547.17	43477.79
547.34	43503.54
547.50	43777.38
547.67	43929.51
547.84	43278.85
548.00	43461.41
548.17	44126.12
548.34	43615.88
548.51	44184.63
548.67	44032.50
548.84	43948.24
549.01	43901.43
549.18	43908.45
549.34	43400.55
549.51	44044.20
549.68	44399.96
549.84	43868.66
550.01	43749.29
550.18	44048.88
550.34	44502.95
550.51	44285.28
550.68	44362.51
550.84	43812.49
551.01	43997.39
551.18	44133.14
551.34	44327.41
551.51	44421.03
551.68	44416.35
551.84	44573.16
552.01	44201.02
552.18	44205.70
552.34	44299.32
552.51	44465.50
552.68	44421.03
552.84	44683.17
553.01	44690.19
553.18	44093.35
553.34	44828.28
553.51	44194.00
553.67	44617.63
553.84	44605.93
554.01	44612.95
554.17	45153.62
554.34	44905.52
554.51	45280.00
554.67	44999.14
554.84	45078.72
555.00	44811.90
555.17	44790.83
555.33	45015.52
555.50	44378.90
555.67	45038.93
555.83	44802.53
556.00	44952.33
556.16	45132.55
556.33	44926.58
556.50	44996.80
556.66	44980.42
556.83	44762.75
556.99	45162.98
557.16	45303.41
557.32	45415.76
557.49	45343.20
557.65	45382.99
557.82	44788.49
557.98	45172.34
558.15	44945.31
558.32	45167.66
558.48	44905.52
558.65	44912.54
558.81	45212.13
558.98	45352.56
559.14	45050.63
559.31	45460.23
559.47	45354.90
559.64	45731.73
559.80	45500.01
559.97	45551.51
560.13	45305.75
560.30	45085.74
560.46	45830.03
560.63	45584.27
560.79	45923.65
560.96	45745.77
561.12	45944.72
561.29	45111.49
561.45	45687.26
561.61	45446.18
561.78	45272.98
561.94	45481.29
562.11	45780.88
562.27	45354.90
562.44	45303.41
562.60	45546.82
562.77	45778.54
562.93	45598.32
563.10	45656.83
563.26	45595.98
563.42	45640.45
563.59	45507.04
563.75	45415.76
563.92	46075.79
564.08	45839.39
564.24	45904.93
564.41	45595.98
564.57	45888.54
564.74	45778.54
564.90	45947.06
565.07	45666.19
565.23	46106.21
565.39	45872.16
565.56	45851.09
565.72	45717.68
565.88	45731.73
566.05	45633.42
566.21	45769.18
566.38	45317.45
566.54	45869.82
566.70	46461.97
566.87	46244.30
567.03	45923.65
567.19	46501.76
567.36	46038.34
567.52	46302.82
567.68	46038.34
567.85	45944.72
568.01	46124.94
568.17	45911.95
568.34	45883.86
568.50	45790.24
568.66	46033.66
568.83	45940.04
568.99	45631.08
569.15	46082.81
569.32	45827.69
569.48	45720.02
569.64	45986.85
569.81	46478.36
569.97	45918.97
570.13	45935.35
570.30	45792.58
570.46	45689.60
570.62	45631.08
570.78	45691.94
570.95	45647.47
571.11	46099.19
571.27	45921.31
571.43	45815.99
571.60	45883.86
571.76	46270.05
571.92	46075.79
572.09	46064.08
572.25	46092.17
572.41	46057.06
572.57	45701.30
572.74	46141.32
572.90	46548.57
573.06	46106.21
573.22	46213.88
573.38	46277.07
573.55	46092.17
573.71	46396.44
573.87	45923.65
574.03	45923.65
574.20	46087.49
574.36	46080.47
574.52	46361.33
574.68	46323.88
574.84	45846.41
575.01	46251.33
575.17	46358.99
575.33	45900.25
575.49	45769.18
575.65	46330.90
575.82	46234.94
575.98	45862.80
576.14	46564.96
576.30	46209.20
576.46	45965.78
576.62	46047.70
576.79	46347.29
576.95	45954.08
577.11	46124.94
577.27	46234.94
577.43	46806.03
577.59	46368.35
577.75	45937.69
577.92	45853.44
578.08	45783.22
578.24	46068.76
578.40	46218.56
578.56	46078.13
578.72	46014.93
578.88	46064.08
579.04	46522.83
579.21	46043.02
579.37	46429.21
579.53	46368.35
579.69	46206.86
579.85	46071.10
580.01	46211.54
580.17	46026.63
580.33	46562.62
580.49	46127.28
580.65	46560.28
580.82	46256.01
580.98	46050.04
581.14	46085.15
581.30	46501.76
581.46	46368.35
581.62	46497.08
581.78	46146.00
581.94	46756.88
582.10	46426.87
582.26	46466.66
582.42	46419.84
582.58	46316.86
582.74	46129.62
582.90	46623.47
583.06	46335.59
583.22	46440.91
583.38	46770.93
583.54	46466.66
583.70	46663.26
583.86	46621.13
584.02	46007.91
584.18	46588.36
584.34	46171.75
584.50	46347.29
584.66	46651.56
584.82	46309.84
584.98	46625.81
585.14	46188.13
585.30	46237.28
585.46	46504.10
585.62	46209.20
585.78	46323.88
585.94	46096.85
586.10	46202.18
586.26	45965.78
586.42	46579.00
586.58	46457.29
586.74	46522.83
586.90	46307.50
587.06	46375.37
587.22	45890.88
587.38	45846.41
587.54	46738.16
587.70	46375.37
587.86	46597.73
588.02	46457.29
588.18	46017.27
588.34	46167.07
588.49	46094.51
588.65	45633.42
588.81	45687.26
588.97	45930.67
589.13	45270.64
589.29	46267.71
589.45	46546.23
589.61	46298.14
589.77	46443.25
589.93	46059.40
