SpectraSuite Data File
++++++++++++++++++++++++++++++++++++
Date: Fri Oct 25 11:33:28 EDT 2013
User: price-jones
Dark Spectrum Present: No
Reference Spectrum Present: No
Number of Sampled Component Spectra: 1
Spectrometers: USB2+H05261
Integration Time (usec): 100000 (USB2+H05261)
Spectra Averaged: 1 (USB2+H05261)
Boxcar Smoothing: 0 (USB2+H05261)
Correct for Electrical Dark: No (USB2+H05261)
Strobe/Lamp Enabled: No (USB2+H05261)
Correct for Detector Non-linearity: No (USB2+H05261)
Correct for Stray Light: No (USB2+H05261)
Number of Pixels in Processed Spectrum: 2048
>>>>>Begin Processed Spectral Data<<<<<
365.73	241.08
365.92	241.08
366.12	241.08
366.32	245.76
366.52	149.79
366.72	308.95
366.91	159.16
367.11	229.37
367.31	131.07
367.51	170.86
367.70	184.90
367.90	184.90
368.10	133.41
368.30	224.69
368.49	147.45
368.69	231.71
368.89	182.56
369.09	210.65
369.28	252.78
369.48	156.82
369.68	198.95
369.87	236.39
370.07	273.84
370.27	299.59
370.47	339.38
370.66	440.02
370.86	538.32
371.06	561.73
371.25	620.24
371.45	538.32
371.65	559.39
371.84	594.50
372.04	543.00
372.24	634.29
372.44	505.56
372.63	568.75
372.83	589.82
373.03	557.05
373.22	627.26
373.42	660.03
373.62	643.65
373.81	550.03
374.01	669.39
374.21	653.01
374.40	683.44
374.60	641.31
374.79	653.01
374.99	641.31
375.19	711.52
375.38	662.37
375.58	634.29
375.78	660.03
375.97	641.31
376.17	657.69
376.37	692.80
376.56	685.78
376.76	627.26
376.95	662.37
377.15	634.29
377.35	737.27
377.54	697.48
377.74	636.63
377.93	634.29
378.13	730.25
378.33	617.90
378.52	676.41
378.72	734.93
378.91	744.29
379.11	781.74
379.31	744.29
379.50	702.16
379.70	716.20
379.89	730.25
380.09	709.18
380.28	688.12
380.48	739.61
380.68	774.72
380.87	716.20
381.07	798.12
381.26	770.04
381.46	746.63
381.65	760.67
381.85	781.74
382.04	758.33
382.24	786.42
382.43	798.12
382.63	772.38
382.83	725.57
383.02	816.85
383.22	884.72
383.41	713.86
383.61	847.27
383.80	746.63
384.00	802.80
384.19	800.46
384.39	814.51
384.58	786.42
384.78	819.19
384.97	770.04
385.17	884.72
385.36	795.78
385.56	898.77
385.75	884.72
385.95	805.14
386.14	842.59
386.34	866.00
386.53	917.49
386.72	917.49
386.92	919.83
387.11	915.15
387.31	844.93
387.50	894.08
387.70	908.13
387.89	875.36
388.09	826.21
388.28	854.30
388.48	875.36
388.67	952.60
388.86	863.66
389.06	933.87
389.25	908.13
389.45	910.47
389.64	898.77
389.84	940.90
390.03	952.60
390.22	1013.45
390.42	999.41
390.61	933.87
390.81	966.64
391.00	931.53
391.19	966.64
391.39	919.83
391.58	1015.79
391.78	1046.22
391.97	1102.39
392.16	1041.54
392.36	1008.77
392.55	980.68
392.75	1093.03
392.94	1062.60
393.13	1034.52
393.33	994.73
393.52	1069.62
393.71	1114.10
393.91	1050.90
394.10	1086.01
394.29	1142.18
394.49	1055.58
394.68	992.39
394.88	1121.12
395.07	1146.86
395.26	1210.06
395.46	1196.01
395.65	1231.12
395.84	1177.29
396.04	1198.35
396.23	1212.40
396.42	1266.23
396.62	1130.48
396.81	1242.82
397.00	1221.76
397.19	1174.95
397.39	1174.95
397.58	1245.16
397.77	1270.91
397.97	1277.93
398.16	1261.55
398.35	1252.19
398.55	1207.72
398.74	1188.99
398.93	1364.53
399.12	1336.45
399.32	1294.32
399.51	1291.98
399.70	1284.95
399.90	1261.55
400.09	1371.55
400.28	1350.49
400.47	1327.08
400.67	1444.11
400.86	1432.41
401.05	1378.58
401.24	1523.69
401.44	1416.02
401.63	1458.15
401.82	1514.33
402.01	1521.35
402.21	1502.62
402.40	1420.71
402.59	1504.96
402.78	1493.26
402.97	1444.11
403.17	1533.05
403.36	1519.01
403.55	1547.09
403.74	1586.88
403.93	1530.71
404.13	1570.50
404.32	1577.52
404.51	1570.50
404.70	1577.52
404.89	1619.65
405.09	1701.57
405.28	1666.46
405.47	1610.29
405.66	1579.86
405.85	1720.29
406.05	1661.78
406.24	1715.61
406.43	1727.32
406.62	1856.04
406.81	1827.96
407.00	1785.83
407.20	1755.40
407.39	1825.62
407.58	1849.02
407.77	1984.77
407.96	1830.30
408.15	1926.26
408.34	1799.87
408.54	1783.49
408.73	1832.64
408.92	1764.76
409.11	1888.81
409.30	2069.03
409.49	1961.37
409.68	2045.63
409.87	1970.73
410.07	2120.53
410.26	2017.54
410.45	1998.82
410.64	2113.50
410.83	2148.61
411.02	2183.72
411.21	2218.83
411.40	2064.35
411.59	2141.59
411.78	2242.23
411.98	2122.87
412.17	2176.70
412.36	2207.13
412.55	2303.09
412.74	2347.56
412.93	2298.41
413.12	2340.54
413.31	2450.54
413.50	2408.41
413.69	2413.09
413.88	2530.12
414.07	2527.78
414.26	2597.99
414.45	2595.65
414.64	2485.65
414.83	2651.83
415.02	2593.31
415.22	2581.61
415.41	2644.81
415.60	2525.44
415.79	2665.87
415.98	2750.13
416.17	2766.51
416.36	2775.88
416.55	2836.73
416.74	2684.59
416.93	2794.60
417.12	2719.70
417.31	2775.88
417.50	2782.90
417.69	3023.97
417.88	2949.08
418.07	2951.42
418.26	3019.29
418.45	2993.55
418.64	3040.36
418.83	2904.60
419.02	3016.95
419.21	3115.25
419.39	2972.48
419.58	3047.38
419.77	2937.37
419.96	3201.85
420.15	3218.24
420.34	3204.19
420.53	3084.83
420.72	3124.62
420.91	3211.22
421.10	3267.39
421.29	3337.60
421.48	3180.79
421.67	3262.71
421.86	3300.16
422.05	3417.18
422.24	3344.63
422.43	3433.57
422.61	3435.91
422.80	3449.95
422.99	3358.67
423.18	3337.60
423.37	3534.21
423.56	3398.46
423.75	3564.64
423.94	3541.23
424.13	3213.56
424.32	3176.11
424.50	3349.31
424.69	3506.12
424.88	3545.91
425.07	3412.50
425.26	3426.54
425.45	3393.78
425.64	3496.76
425.83	3419.52
426.01	3435.91
426.20	3524.85
426.39	3538.89
426.58	3421.86
426.77	3391.44
426.96	3506.12
427.15	3548.25
427.33	3463.99
427.52	3442.93
427.71	3541.23
427.90	3616.13
428.09	3625.49
428.28	3749.54
428.46	3585.70
428.65	3742.52
428.84	3798.69
429.03	3777.62
429.22	3693.37
429.40	3744.86
429.59	3742.52
429.78	3747.20
429.97	3616.13
430.16	3831.46
430.34	3859.54
430.53	3861.88
430.72	3838.48
430.91	3878.27
431.10	3852.52
431.28	3936.78
431.47	3908.69
431.66	3988.27
431.85	3976.57
432.03	3953.16
432.22	3995.29
432.41	4119.34
432.60	4152.11
432.79	4018.70
432.97	4191.90
433.16	4126.36
433.35	4107.64
433.54	4081.89
433.72	4074.87
433.91	4196.58
434.10	4091.26
434.28	4208.28
434.47	4238.71
434.66	4294.88
434.85	4290.20
435.03	4273.82
435.22	4322.97
435.41	4454.04
435.59	4227.01
435.78	4526.60
435.97	4477.44
436.16	4362.76
436.34	4437.66
436.53	4521.92
436.72	4486.81
436.90	4383.82
437.09	4610.86
437.28	4423.61
437.46	4688.09
437.65	4566.39
437.84	4573.41
438.02	4489.15
438.21	4510.21
438.40	4678.73
438.58	4725.54
438.77	4770.01
438.96	4760.65
439.14	4835.55
439.33	4889.38
439.52	4943.21
439.70	4760.65
439.89	4964.28
440.08	5102.37
440.26	5062.58
440.45	5071.94
440.63	5018.11
440.82	5107.05
441.01	5081.30
441.19	5015.77
441.38	5240.46
441.57	5366.85
441.75	5135.14
441.94	5481.53
442.12	5263.86
442.31	5408.98
442.50	5514.30
442.68	5455.79
442.87	5476.85
443.05	5563.45
443.24	5568.13
443.43	5556.43
443.61	5614.95
443.80	5647.71
443.98	5423.02
444.17	5338.76
444.35	5703.89
444.54	5696.86
444.73	5673.46
444.91	5563.45
445.10	5582.18
445.28	5673.46
445.47	5514.30
445.65	5589.20
445.84	5703.89
446.02	5790.49
446.21	5638.35
446.39	5636.01
446.58	5724.95
446.77	5755.38
446.95	5586.86
447.14	5530.69
447.32	5757.72
447.51	5600.90
447.69	5619.63
447.88	5701.54
448.06	5867.72
448.25	5853.68
448.43	6024.54
448.62	5734.31
448.80	5720.27
448.99	5708.57
449.17	5984.75
449.36	5841.98
449.54	5872.40
449.73	6017.52
449.91	6015.18
450.10	5954.32
450.28	6122.84
450.46	6113.48
450.65	6155.61
450.83	6113.48
451.02	6118.16
451.20	6078.37
451.39	6167.31
451.57	6134.54
451.76	6244.55
451.94	6115.82
452.13	6204.76
452.31	6150.93
452.49	6195.40
452.68	6396.68
452.86	6225.82
453.05	6406.05
453.23	6422.43
453.42	6230.51
453.60	6244.55
453.78	6511.37
453.97	6370.94
454.15	6387.32
454.34	6373.28
454.52	6410.73
454.70	6401.37
454.89	6595.63
455.07	6569.88
455.26	6511.37
455.44	6698.61
455.62	6537.12
455.81	6588.61
455.99	6686.91
456.17	6834.36
456.36	6679.89
456.54	6843.73
456.73	7005.22
456.91	7133.95
457.09	7112.89
457.28	7052.03
457.46	6911.60
457.64	7311.83
457.83	6878.83
458.01	6979.48
458.19	7201.83
458.38	7052.03
458.56	7400.77
458.74	7405.46
458.93	7061.40
459.11	7094.16
459.29	7384.39
459.48	7173.74
459.66	7180.76
459.84	7276.73
460.03	7466.31
460.21	7400.77
460.39	7344.60
460.57	7435.88
460.76	7356.30
460.94	7379.71
461.12	7482.69
461.31	7520.14
461.49	7522.48
461.67	7641.85
461.85	7803.35
462.04	7679.30
462.22	8138.04
462.40	7857.18
462.59	7868.88
462.77	7838.45
462.95	7756.54
463.13	7810.37
463.32	7911.01
463.50	7882.92
463.68	7941.44
463.86	7920.37
464.05	7716.75
464.23	7801.01
464.41	8006.97
464.59	7779.94
464.78	8009.31
464.96	8070.17
465.14	7843.14
465.32	8175.49
465.50	7763.56
465.69	8135.70
465.87	8035.06
466.05	8072.51
466.23	7969.52
466.41	8145.06
466.60	8245.71
466.78	8051.44
466.96	8189.53
467.14	8025.70
467.32	8294.86
467.51	8355.71
467.69	8313.58
467.87	8463.38
468.05	8351.03
468.23	8402.52
468.41	8439.97
468.60	8351.03
468.78	8540.61
468.96	8362.73
469.14	8344.01
469.32	8753.60
469.50	8435.29
469.69	8547.64
469.87	8788.71
470.05	8615.51
470.23	8879.99
470.41	8865.95
470.59	8891.70
470.77	8842.54
470.95	8931.48
471.14	9039.15
471.32	8840.20
471.50	9179.58
471.68	9085.96
471.86	9210.01
472.04	9247.46
472.22	9130.43
472.40	9064.89
472.58	9294.27
472.77	9397.25
472.95	9502.58
473.13	9652.37
473.31	9282.56
473.49	9551.73
473.67	9596.20
473.85	9476.83
474.03	9748.33
474.21	9783.44
474.39	9556.41
474.57	9860.68
474.75	9949.62
474.93	10106.43
475.12	9909.83
475.30	10260.91
475.48	10066.64
475.66	9994.09
475.84	10239.84
476.02	10157.92
476.20	10335.81
476.38	10387.30
476.56	10670.50
476.74	10574.54
476.92	10523.05
477.10	10499.64
477.28	10607.31
477.46	10569.86
477.64	10595.61
477.82	10850.72
478.00	11070.73
478.18	11255.64
478.36	11166.70
478.54	11360.96
478.72	11300.11
478.90	11592.67
479.08	11405.43
479.26	11721.40
479.44	11435.86
479.62	11674.59
479.80	11758.85
479.98	12201.21
480.16	12175.47
480.34	12205.89
480.52	12313.56
480.70	12271.43
480.88	12233.98
481.06	12280.79
481.24	12444.63
481.41	12479.74
481.59	12760.60
481.77	12842.52
481.95	12826.14
482.13	13118.70
482.31	13123.38
482.49	13352.76
482.67	13371.48
482.85	13397.23
483.03	13582.13
483.21	13694.47
483.39	13830.23
483.57	13790.44
483.74	13776.39
483.92	13844.27
484.10	14050.24
484.28	14537.07
484.46	14258.54
484.64	14881.13
484.82	14459.83
485.00	14593.24
485.18	14970.07
485.35	15051.99
485.53	15082.41
485.71	15033.26
485.89	15396.04
486.07	15290.72
486.25	15538.82
486.43	15482.64
486.61	15459.24
486.78	15777.55
486.96	15779.89
487.14	15885.22
487.32	16020.97
487.50	16418.86
487.68	16463.33
487.85	16400.13
488.03	16610.78
488.21	16952.50
488.39	17003.99
488.57	17088.25
488.75	17069.53
488.92	17514.23
489.10	17493.16
489.28	17591.47
489.46	17837.22
489.64	17919.14
489.81	17933.18
489.99	18162.56
490.17	17937.87
490.35	18427.04
490.53	18394.27
490.70	18572.15
490.88	18410.65
491.06	18696.20
491.24	18963.02
491.41	19110.47
491.59	19042.60
491.77	19222.82
491.95	19459.21
492.13	19826.68
492.30	19543.47
492.48	19627.73
492.66	19749.44
492.84	19536.45
493.01	20067.75
493.19	20395.43
493.37	20247.97
493.54	20514.80
493.72	20842.47
493.90	20320.53
494.08	20798.00
494.25	21315.26
494.43	20973.54
494.61	21179.51
494.79	21273.13
494.96	21228.66
495.14	21455.69
495.32	21818.47
495.49	21617.19
495.67	22038.48
495.85	22036.14
496.02	22434.03
496.20	22258.49
496.38	22319.35
496.55	22625.96
496.73	22965.34
496.91	22534.68
497.09	23178.33
497.26	22986.40
497.44	22993.42
497.62	23393.65
497.79	23349.18
497.97	23175.98
498.14	23630.05
498.32	23749.42
498.50	23805.59
498.67	23730.69
498.85	23791.55
499.03	23990.49
499.20	24678.61
499.38	24444.56
499.56	24250.29
499.73	24826.06
499.91	24629.46
500.08	24671.59
500.26	24545.20
500.44	24776.91
500.61	25132.67
500.79	24861.17
500.97	24992.24
501.14	25530.56
501.32	25303.53
501.49	25333.96
501.67	25219.27
501.84	25874.62
502.02	25371.41
502.20	25596.10
502.37	25806.75
502.55	25635.89
502.72	25898.03
502.90	25935.48
503.07	25678.02
503.25	26291.24
503.43	26209.32
503.60	26373.16
503.78	26281.88
503.95	26551.04
504.13	26560.40
504.30	26541.68
504.48	26845.94
504.65	26478.48
504.83	27201.71
505.01	26991.06
505.18	27084.68
505.36	27171.28
505.53	27201.71
505.71	27510.66
505.88	27466.19
506.06	27417.04
506.23	27566.83
506.41	27592.58
506.58	27826.63
506.76	27894.50
506.93	28245.58
507.11	27969.40
507.28	28027.92
507.46	28016.21
507.63	28364.95
507.81	28348.57
507.98	28491.34
508.16	28411.76
508.33	28954.77
508.50	28870.51
508.68	29006.26
508.85	29202.86
509.03	28662.20
509.20	28680.92
509.38	29621.82
509.55	29392.45
509.73	29244.99
509.90	29369.04
510.08	29401.81
510.25	29453.30
510.42	29345.64
510.60	29778.64
510.77	29841.83
510.95	30026.73
511.12	30363.77
511.30	30010.35
511.47	30387.18
511.64	30038.44
511.82	30658.68
511.99	30696.13
512.17	30471.43
512.34	30609.53
512.51	30913.80
512.69	30857.62
512.86	30822.51
513.04	31185.30
513.21	30639.95
513.38	31197.00
513.56	31056.57
513.73	30651.66
513.90	31412.33
514.08	31405.31
514.25	31625.32
514.43	31601.91
514.60	31903.84
514.77	31571.49
514.95	31676.81
515.12	31363.18
515.29	31709.58
515.47	32121.51
515.64	31847.67
515.81	31611.28
515.99	32191.73
516.16	32746.44
516.33	32442.17
516.51	32896.23
516.68	32063.00
516.85	32858.78
517.03	32589.62
517.20	32561.53
517.37	32514.72
517.54	32861.12
517.72	33043.68
517.89	32772.18
518.06	33001.55
518.24	33195.82
518.41	33048.36
518.58	33088.15
518.75	32577.92
518.93	33120.92
519.10	33324.55
519.27	33343.27
519.45	33532.86
519.62	33717.76
519.79	33818.40
519.96	33663.93
520.14	33563.28
520.31	33790.31
520.48	34218.63
520.65	34167.14
520.83	34660.99
521.00	34838.87
521.17	34356.72
521.34	34436.30
521.52	34852.92
521.69	34375.45
521.86	35122.08
522.03	34962.92
522.20	35239.11
522.38	35124.42
522.55	34520.56
522.72	34817.81
522.89	35349.11
523.07	34937.18
523.24	35388.90
523.41	35606.57
523.58	35363.15
523.75	35487.20
523.92	35655.72
524.10	35468.48
524.27	35550.40
524.44	35955.31
524.61	35454.44
524.78	35915.52
524.96	36060.63
525.13	36451.50
525.30	35931.90
525.47	36264.26
525.64	35880.41
525.81	36409.37
525.98	36315.75
526.16	36306.39
526.33	36397.67
526.50	36638.75
526.67	36498.31
526.84	36720.66
527.01	36636.41
527.18	36926.63
527.36	36622.36
527.53	36737.05
527.70	37017.91
527.87	37710.71
528.04	37085.79
528.21	37076.43
528.38	37500.06
528.55	36966.42
528.72	36725.35
528.89	37631.13
529.07	37235.58
529.24	36966.42
529.41	37612.41
529.58	37528.15
529.75	37626.45
529.92	37408.78
530.09	37366.65
530.26	37102.17
530.43	37832.42
530.60	37687.31
530.77	37572.62
530.94	37865.19
531.11	37797.31
531.28	37954.13
531.46	38188.18
531.63	38103.92
531.80	38106.26
531.97	38185.84
532.14	38604.80
532.31	38375.42
532.48	38499.47
532.65	38803.74
532.82	38508.83
532.99	38321.59
533.16	38611.82
533.33	38747.57
533.50	38843.53
533.67	38831.83
533.84	38471.39
534.01	38728.84
534.18	38761.61
534.35	39395.90
534.52	39597.18
534.69	39452.07
534.86	39503.56
535.03	39220.36
535.20	39655.70
535.37	39669.74
535.54	39777.40
535.71	39194.61
535.88	39789.11
536.05	39601.86
536.22	40306.37
536.38	39395.90
536.55	39903.79
536.72	39983.37
536.89	39679.10
537.06	39831.24
537.23	40044.23
537.40	40294.66
537.57	39866.34
537.74	39522.29
537.91	40315.73
538.08	39885.07
538.25	39833.58
538.42	40076.99
538.59	40444.46
538.75	40617.66
538.92	40245.51
539.09	40697.24
539.26	40631.70
539.43	40533.40
539.60	40514.67
539.77	40514.67
539.94	41277.69
540.11	40755.75
540.28	40947.67
540.44	40524.04
540.61	40526.38
540.78	40842.35
540.95	41099.81
541.12	40753.41
541.29	40659.79
541.46	40854.05
541.62	41097.47
541.79	41296.41
541.96	40610.64
542.13	40861.07
542.30	41060.02
542.47	41244.92
542.63	41502.38
542.80	41698.98
542.97	41694.30
543.14	41921.34
543.31	41483.66
543.48	41736.43
543.64	42595.41
543.81	42007.94
543.98	42176.45
544.15	42162.41
544.32	42330.93
544.48	42314.55
544.65	41851.12
544.82	42234.97
544.99	42033.68
545.16	42171.77
545.32	42597.75
545.49	42682.01
545.66	42883.30
545.83	42529.87
546.00	42490.09
546.16	42340.29
546.33	42340.29
546.50	42033.68
546.67	42939.47
546.83	42155.39
547.00	42487.74
547.17	42871.59
547.34	42394.12
547.50	43395.87
547.67	43267.14
547.84	43358.42
548.00	43107.99
548.17	42909.04
548.34	43033.09
548.51	43889.73
548.67	43587.80
548.84	43262.46
549.01	43302.25
549.18	43349.06
549.34	43955.26
549.51	43206.29
549.68	43494.18
549.84	43313.95
550.01	43632.27
550.18	43484.81
550.34	43508.22
550.51	43693.12
550.68	43669.72
550.84	43423.96
551.01	43728.23
551.18	44268.89
551.34	43447.36
551.51	44116.76
551.68	44081.65
551.84	43714.19
552.01	43805.47
552.18	44397.62
552.34	43526.94
552.51	44343.79
552.68	43416.94
552.84	44053.56
553.01	44231.44
553.18	44051.22
553.34	44451.45
553.51	44282.94
553.67	44231.44
553.84	44526.35
554.01	44502.95
554.17	44622.31
554.34	44631.68
554.51	44594.23
554.67	45043.61
554.84	44369.54
555.00	44500.61
555.17	44479.54
555.33	44708.91
555.50	44498.26
555.67	44612.95
555.83	44484.22
556.00	44760.40
556.16	45230.85
556.33	44814.24
556.50	44949.99
556.66	45254.26
556.83	44765.09
556.99	45167.66
557.16	45188.72
557.32	45050.63
557.49	45045.95
557.65	44861.05
557.82	44905.52
557.98	45294.05
558.15	45074.04
558.32	45523.42
558.48	45200.43
558.65	45544.48
558.81	45205.11
558.98	45146.59
559.14	45268.30
559.31	45375.97
559.47	45256.60
559.64	45722.37
559.80	45443.84
559.97	45713.00
560.13	45546.82
560.30	45677.90
560.46	45907.27
560.63	45441.50
560.79	46073.45
560.96	46162.39
561.12	46019.61
561.29	45687.26
561.45	45595.98
561.61	45422.78
561.78	45722.37
561.94	45717.68
562.11	45125.53
562.27	45904.93
562.44	45911.95
562.60	45876.84
562.77	45790.24
562.93	45633.42
563.10	45696.62
563.26	45790.24
563.42	46223.24
563.59	45811.31
563.75	45790.24
563.92	45762.15
564.08	45792.58
564.24	46010.25
564.41	45923.65
564.57	45766.84
564.74	46115.58
564.90	45694.28
565.07	45855.78
565.23	45839.39
565.39	46436.23
565.56	46199.83
565.72	46153.02
565.88	46389.42
566.05	46277.07
566.21	46586.02
566.38	46185.79
566.54	46398.78
566.70	46061.74
566.87	46314.52
567.03	46054.72
567.19	46696.03
567.36	46665.60
567.52	46146.00
567.68	46742.84
567.85	46586.02
568.01	46628.15
568.17	46256.01
568.34	46721.77
568.50	46635.17
568.66	46396.44
568.83	46447.93
568.99	46370.69
569.15	46649.22
569.32	46281.75
569.48	46309.84
569.64	46597.73
569.81	46316.86
569.97	46696.03
570.13	47178.18
570.30	46370.69
570.46	46911.36
570.62	46518.15
570.78	47068.17
570.95	46473.68
571.11	46955.83
571.27	46803.69
571.43	46574.32
571.60	46822.42
571.76	46862.21
571.92	46564.96
572.09	46930.08
572.25	46494.74
572.41	46803.69
572.57	46117.92
572.74	47033.07
572.90	46773.27
573.06	46801.35
573.22	46656.24
573.38	46948.81
573.55	46958.17
573.71	47012.00
573.87	46581.34
574.03	47206.26
574.20	47147.75
574.36	46857.52
574.52	47313.93
574.68	47283.50
574.84	46913.70
575.01	47082.22
575.17	47180.52
575.33	47138.39
575.49	46902.00
575.65	47580.75
575.82	47283.50
575.98	46857.52
576.14	47042.43
576.30	47405.21
576.46	47618.20
576.62	47332.65
576.79	47192.22
576.95	46609.43
577.11	46902.00
577.27	47161.79
577.43	47086.90
577.59	46918.38
577.75	46937.10
577.92	46588.36
578.08	46969.87
578.24	47019.02
578.40	47255.42
578.56	47232.01
578.72	47480.11
578.88	47147.75
579.04	47283.50
579.21	47337.33
579.37	47374.78
579.53	47555.00
579.69	46873.91
579.85	47065.83
580.01	47126.69
580.17	47224.99
580.33	47337.33
580.49	47082.22
580.65	47466.06
580.82	47234.35
580.98	47072.85
581.14	46986.25
581.30	47243.71
581.46	47569.05
581.62	47414.57
581.78	46974.55
581.94	47496.49
582.10	46953.49
582.26	47363.08
582.42	47356.06
582.58	47531.60
582.74	47398.19
582.90	47262.44
583.06	47477.77
583.22	47246.05
583.38	47730.54
583.54	47423.93
583.70	47676.71
583.86	47622.88
584.02	47622.88
584.18	47480.11
584.34	47564.37
584.50	47863.96
584.66	47512.88
584.82	47250.74
584.98	47367.76
585.14	47714.16
585.30	47241.37
585.46	47363.08
585.62	47103.28
585.78	47753.95
585.94	46864.55
586.10	47536.28
586.26	47388.83
586.42	47150.09
586.58	47618.20
586.74	47613.52
586.90	47037.75
587.06	47711.82
587.22	47606.50
587.38	47351.38
587.54	47622.88
587.70	47625.22
587.86	47646.29
588.02	47173.50
588.18	47388.83
588.34	47412.23
588.49	47526.92
588.65	47138.39
588.81	47524.58
588.97	48065.24
589.13	47416.91
589.29	47833.53
589.45	47665.01
589.61	48046.52
589.77	47660.33
589.93	47945.87
590.08	47459.04
