SpectraSuite Data File
++++++++++++++++++++++++++++++++++++
Date: Fri Oct 25 10:44:31 EDT 2013
User: price-jones
Dark Spectrum Present: No
Reference Spectrum Present: No
Number of Sampled Component Spectra: 1
Spectrometers: USB2+H05261
Integration Time (usec): 100000 (USB2+H05261)
Spectra Averaged: 1 (USB2+H05261)
Boxcar Smoothing: 0 (USB2+H05261)
Correct for Electrical Dark: No (USB2+H05261)
Strobe/Lamp Enabled: No (USB2+H05261)
Correct for Detector Non-linearity: No (USB2+H05261)
Correct for Stray Light: No (USB2+H05261)
Number of Pixels in Processed Spectrum: 2048
>>>>>Begin Processed Spectral Data<<<<<
365.73	133.41
365.92	133.41
366.12	133.41
366.32	35.11
366.52	102.98
366.72	0.00
366.91	58.51
367.11	35.11
367.31	16.38
367.51	0.00
367.70	0.00
367.90	0.00
368.10	86.60
368.30	77.24
368.49	21.06
368.69	70.22
368.89	58.51
369.09	51.49
369.28	100.64
369.48	53.83
369.68	51.49
369.87	70.22
370.07	133.41
370.27	88.94
370.47	166.18
370.66	344.06
370.86	461.09
371.06	395.55
371.25	491.51
371.45	372.15
371.65	430.66
371.84	458.74
372.04	461.09
372.24	489.17
372.44	486.83
372.63	491.51
372.83	535.98
373.03	592.16
373.22	479.81
373.42	449.38
373.62	496.19
373.81	519.60
374.01	594.50
374.21	557.05
374.40	526.62
374.60	493.85
374.79	606.20
374.99	601.52
375.19	507.90
375.38	557.05
375.58	571.09
375.78	582.79
375.97	566.41
376.17	599.18
376.37	559.39
376.56	564.07
376.76	540.66
376.95	566.41
377.15	641.31
377.35	573.43
377.54	599.18
377.74	594.50
377.93	631.94
378.13	606.20
378.33	629.60
378.52	521.94
378.72	538.32
378.91	685.78
379.11	573.43
379.31	645.99
379.50	573.43
379.70	547.69
379.89	606.20
380.09	629.60
380.28	624.92
380.48	697.48
380.68	608.54
380.87	634.29
381.07	727.91
381.26	767.70
381.46	681.10
381.65	634.29
381.85	695.14
382.04	732.59
382.24	692.80
382.43	662.37
382.63	615.56
382.83	695.14
383.02	669.39
383.22	734.93
383.41	697.48
383.61	650.67
383.80	723.23
384.00	758.33
384.19	802.80
384.39	784.08
384.58	709.18
384.78	763.01
384.97	791.10
385.17	716.20
385.36	781.74
385.56	723.23
385.75	763.01
385.95	910.47
386.14	816.85
386.34	800.46
386.53	863.66
386.72	849.61
386.92	896.43
387.11	814.51
387.31	823.87
387.50	807.48
387.70	858.98
387.89	837.91
388.09	847.27
388.28	805.14
388.48	866.00
388.67	856.64
388.86	912.81
389.06	940.90
389.25	898.77
389.45	802.80
389.64	940.90
389.84	912.81
390.03	994.73
390.22	997.07
390.42	910.47
390.61	961.96
390.81	957.28
391.00	964.30
391.19	994.73
391.39	985.37
391.58	901.11
391.78	966.64
391.97	1071.97
392.16	938.55
392.36	933.87
392.55	997.07
392.75	954.94
392.94	910.47
393.13	933.87
393.33	973.66
393.52	973.66
393.71	952.60
393.91	1097.71
394.10	1123.46
394.29	1104.73
394.49	1046.22
394.68	1179.63
394.88	1242.82
395.07	1153.88
395.26	1212.40
395.46	1107.07
395.65	1212.40
395.84	1151.54
396.04	1158.57
396.23	1057.92
396.42	1210.06
396.62	994.73
396.81	1207.72
397.00	1261.55
397.19	1196.01
397.39	1287.29
397.58	1252.19
397.77	1242.82
397.97	1317.72
398.16	1287.29
398.35	1324.74
398.55	1380.92
398.74	1364.53
398.93	1427.73
399.12	1359.85
399.32	1427.73
399.51	1334.11
399.70	1387.94
399.90	1401.98
400.09	1427.73
400.28	1394.96
400.47	1483.90
400.67	1500.28
400.86	1476.88
401.05	1418.36
401.24	1568.16
401.44	1568.16
401.63	1547.09
401.82	1544.75
402.01	1619.65
402.21	1661.78
402.40	1607.95
402.59	1638.38
402.78	1680.50
402.97	1626.67
403.17	1638.38
403.36	1652.42
403.55	1666.46
403.74	1703.91
403.93	1636.03
404.13	1722.63
404.32	1671.14
404.51	1757.74
404.70	1816.26
404.89	1741.36
405.09	1666.46
405.28	1820.94
405.47	1837.32
405.66	1856.04
405.85	1802.21
406.05	1905.20
406.24	1858.39
406.43	1860.73
406.62	2022.22
406.81	1982.43
407.00	1912.22
407.20	1893.49
407.39	1926.26
407.58	1865.41
407.77	2040.95
407.96	2010.52
408.15	2099.46
408.34	2122.87
408.54	2125.21
408.73	2146.27
408.92	2141.59
409.11	1998.82
409.30	2246.91
409.49	2094.78
409.68	2188.40
409.87	2179.04
410.07	2258.62
410.26	2204.78
410.45	2155.63
410.64	2244.57
410.83	2193.08
411.02	2317.13
411.21	2260.96
411.40	2282.02
411.59	2349.90
411.78	2462.24
411.98	2429.48
412.17	2422.45
412.36	2422.45
412.55	2583.95
412.74	2513.74
412.93	2576.93
413.12	2569.91
413.31	2607.36
413.50	2473.95
413.69	2541.82
413.88	2670.55
414.07	2583.95
414.26	2672.89
414.45	2658.85
414.64	2729.06
414.83	2848.43
415.02	2846.09
415.22	2846.09
415.41	2775.88
415.60	2874.18
415.79	2801.62
415.98	3030.99
416.17	2986.52
416.36	3009.93
416.55	3026.31
416.74	3021.63
416.93	3054.40
417.12	3038.02
417.31	3059.08
417.50	3019.29
417.69	3206.53
417.88	3222.92
418.07	3150.36
418.26	3183.13
418.45	3274.41
418.64	3344.63
418.83	3241.64
419.02	3342.28
419.21	3258.03
419.39	3382.07
419.58	3358.67
419.77	3307.18
419.96	3475.70
420.15	3499.10
420.34	3459.31
420.53	3576.34
420.72	3445.27
420.91	3445.27
421.10	3531.87
421.29	3506.12
421.48	3613.79
421.67	3506.12
421.86	3417.18
422.05	3655.92
422.24	3438.25
422.43	3590.38
422.61	3569.32
422.80	3786.99
422.99	3716.77
423.18	3705.07
423.37	3726.13
423.56	3606.77
423.75	3609.11
423.94	3691.02
424.13	3417.18
424.32	3548.25
424.50	3688.68
424.69	3693.37
424.88	3791.67
425.07	3705.07
425.26	3597.40
425.45	3627.83
425.64	3721.45
425.83	3744.86
426.01	3653.58
426.20	3721.45
426.39	3850.18
426.58	3613.79
426.77	3740.18
426.96	3658.26
427.15	3819.75
427.33	3686.34
427.52	3838.48
427.71	3772.94
427.90	3871.25
428.09	3873.59
428.28	3880.61
428.46	3899.33
428.65	3941.46
428.84	4133.39
429.03	3967.21
429.22	3889.97
429.40	3943.80
429.59	3786.99
429.78	3796.35
429.97	3747.20
430.16	3866.56
430.34	3719.11
430.53	3969.55
430.72	3948.48
430.91	3950.82
431.10	3997.64
431.28	4248.07
431.47	4351.06
431.66	4409.57
431.85	4262.12
432.03	4297.22
432.22	4297.22
432.41	4266.80
432.60	4454.04
432.79	4388.50
432.97	4425.95
433.16	4538.30
433.35	4397.87
433.54	4470.42
433.72	4477.44
433.91	4437.66
434.10	4449.36
434.28	4409.57
434.47	4587.45
434.66	4430.63
434.85	4667.03
435.03	4760.65
435.22	4517.23
435.41	4922.15
435.59	4823.84
435.78	4798.10
435.97	4765.33
436.16	4737.24
436.34	4734.90
436.53	4755.97
436.72	4975.98
436.90	4676.39
437.09	4788.74
437.28	4744.27
437.46	4802.78
437.65	4695.11
437.84	5025.13
438.02	4837.89
438.21	4898.74
438.40	4844.91
438.58	5029.81
438.77	5128.11
438.96	4964.28
439.14	5289.61
439.33	5303.65
439.52	5331.74
439.70	5224.08
439.89	5437.06
440.08	5280.25
440.26	5336.42
440.45	5352.81
440.63	5387.91
440.82	5654.73
441.01	5458.13
441.19	5556.43
441.38	5715.59
441.57	5596.22
441.75	5767.08
441.94	5940.28
442.12	5844.32
442.31	5951.98
442.50	5825.59
442.68	5783.46
442.87	5902.83
443.05	5799.85
443.24	5954.32
443.43	5900.49
443.61	6008.16
443.80	6228.17
443.98	5893.47
444.17	5736.65
444.35	6085.39
444.54	6181.35
444.73	6069.01
444.91	5984.75
445.10	6043.26
445.28	5949.64
445.47	6181.35
445.65	5933.26
445.84	5996.45
446.02	6040.92
446.21	6171.99
446.39	6052.63
446.58	6113.48
446.77	6232.85
446.95	6232.85
447.14	6125.18
447.32	6384.98
447.51	6253.91
447.69	6232.85
447.88	6291.36
448.06	6267.95
448.25	6314.77
448.43	6094.76
448.62	6169.65
448.80	6242.21
448.99	6340.51
449.17	6633.08
449.36	6317.11
449.54	6534.78
449.73	6509.03
449.91	6679.89
450.10	6562.86
450.28	6768.83
450.46	6693.93
450.65	6792.23
450.83	6562.86
451.02	6635.42
451.20	6820.32
451.39	6750.10
451.57	6654.14
451.76	6869.47
451.94	6717.34
452.13	6843.73
452.31	6743.08
452.49	6499.67
452.68	6691.59
452.86	6803.94
453.05	6693.93
453.23	6869.47
453.42	6778.19
453.60	6736.06
453.78	6965.43
453.97	6825.00
454.15	6939.69
454.34	6827.34
454.52	7026.29
454.70	6897.56
454.89	7148.00
455.07	7068.42
455.26	7089.48
455.44	7473.33
455.62	7283.75
455.81	7302.47
455.99	7293.11
456.17	7281.41
456.36	7260.34
456.54	7426.52
456.73	7506.10
456.91	7386.73
457.09	7829.09
457.28	7487.37
457.46	7295.45
457.64	7730.79
457.83	7492.05
458.01	7473.33
458.19	7667.60
458.38	7611.42
458.56	7679.30
458.74	7754.19
458.93	7602.06
459.11	7829.09
459.29	7915.69
459.48	7693.34
459.66	7595.04
459.84	7801.01
460.03	8028.04
460.21	7908.67
460.39	8100.59
460.57	7878.24
460.76	7992.93
460.94	7829.09
461.12	7880.58
461.31	7967.18
461.49	8182.51
461.67	7978.89
461.85	8390.82
462.04	8161.45
462.22	8404.86
462.40	8105.28
462.59	8255.07
462.77	8276.13
462.95	8287.84
463.13	8414.23
463.32	8510.19
463.50	8423.59
463.68	8283.16
463.86	8528.91
464.05	8278.47
464.23	8360.39
464.41	8601.47
464.59	8290.18
464.78	8610.83
464.96	8528.91
465.14	8484.44
465.32	8557.00
465.50	8552.32
465.69	8676.37
465.87	8587.43
466.05	8858.93
466.23	8585.08
466.41	8552.32
466.60	8760.63
466.78	8580.40
466.96	8631.90
467.14	8732.54
467.32	9025.11
467.51	8762.97
467.69	8711.47
467.87	8812.12
468.05	8940.85
468.23	8961.91
468.41	8922.12
468.60	8966.59
468.78	8908.08
468.96	8997.02
469.14	9179.58
469.32	9238.09
469.50	8929.14
469.69	9146.81
469.87	9338.74
470.05	9240.44
470.23	9245.12
470.41	9181.92
470.59	9121.07
470.77	9322.35
470.95	9343.42
471.14	9474.49
471.32	9179.58
471.50	9741.31
471.68	9738.97
471.86	9687.48
472.04	9806.84
472.22	9893.44
472.40	9633.64
472.58	9776.42
472.77	9832.59
472.95	9825.57
473.13	9926.21
473.31	9834.93
473.49	9872.38
473.67	9954.30
473.85	9966.00
474.03	10307.72
474.21	10120.48
474.39	10230.48
474.57	10214.10
474.75	10539.43
474.93	10448.15
475.12	10569.86
475.30	10565.18
475.48	10429.43
475.66	10719.65
475.84	10705.61
476.02	10672.84
476.20	10731.36
476.38	11000.52
476.56	11166.70
476.74	11080.10
476.92	11192.44
477.10	11267.34
477.28	11248.61
477.46	11363.30
477.64	11309.47
477.82	11531.82
478.00	11843.11
478.18	11782.26
478.36	11566.93
478.54	11988.22
478.72	11906.31
478.90	12142.70
479.08	12271.43
479.26	12294.83
479.44	12367.39
479.62	12521.87
479.80	12566.34
479.98	12564.00
480.16	13151.47
480.34	12823.80
480.52	13083.59
480.70	12886.99
480.88	12884.65
481.06	12933.80
481.24	13146.79
481.41	13280.20
481.59	13748.31
481.77	13500.21
481.95	13427.65
482.13	13874.70
482.31	13823.20
482.49	13956.61
482.67	13916.83
482.85	14237.48
483.03	14291.31
483.21	14368.55
483.39	14333.44
483.57	14242.16
483.74	14504.30
483.92	14705.59
484.10	14839.00
484.28	14731.33
484.46	15098.80
484.64	15449.88
484.82	15201.78
485.00	15246.25
485.18	15332.85
485.35	15602.01
485.53	15487.32
485.71	15138.58
485.89	15564.56
486.07	15442.85
486.25	15789.25
486.43	16252.68
486.61	16365.03
486.78	16442.26
486.96	16587.38
487.14	16655.25
487.32	16893.99
487.50	16975.91
487.68	17132.72
487.85	17378.48
488.03	17453.37
488.21	17523.59
488.39	17713.17
488.57	17970.63
488.75	17825.52
488.92	18141.49
489.10	18373.21
489.28	18373.21
489.46	18427.04
489.64	18434.06
489.81	19246.23
489.99	18918.55
490.17	18953.66
490.35	19339.85
490.53	19087.07
490.70	19185.37
490.88	19225.16
491.06	19632.41
491.24	19899.23
491.41	19398.36
491.59	19618.37
491.77	19681.56
491.95	19761.14
492.13	20004.56
492.30	20514.80
492.48	20425.86
492.66	20390.75
492.84	20732.47
493.01	21064.82
493.19	20900.98
493.37	20968.86
493.54	20971.20
493.72	21174.83
493.90	21415.90
494.08	21659.32
494.25	21823.16
494.43	21956.57
494.61	22068.91
494.79	22160.19
494.96	21811.45
495.14	22260.84
495.32	22312.33
495.49	22874.06
495.67	22628.30
495.85	22661.07
496.02	22691.49
496.20	23094.07
496.38	23335.14
496.55	23304.71
496.73	24032.62
496.91	23403.02
497.09	23836.02
497.26	23489.62
497.44	23552.81
497.62	23854.74
497.79	24161.35
497.97	23878.15
498.14	23948.36
498.32	24280.72
498.50	24446.90
498.67	24844.79
498.85	24685.63
499.03	24648.18
499.20	24828.40
499.38	24828.40
499.56	25198.21
499.73	24954.79
499.91	25006.28
500.08	25537.59
500.26	25261.40
500.44	25565.67
500.61	25460.35
500.79	25376.09
500.97	25713.13
501.14	25867.60
501.32	25996.33
501.49	25621.84
501.67	25858.24
501.84	26148.46
502.02	25921.43
502.20	26120.38
502.37	27000.42
502.55	26396.56
502.72	26558.06
502.90	27044.89
503.07	26735.94
503.25	26602.53
503.43	26801.47
503.60	26923.18
503.78	26609.55
503.95	26778.07
504.13	26855.31
504.30	27435.76
504.48	27194.68
504.65	27370.22
504.83	27871.10
505.01	27735.35
505.18	27641.73
505.36	28067.70
505.53	27957.70
505.71	27882.80
505.88	28154.30
506.06	27681.52
506.23	28460.91
506.41	28208.14
506.58	28217.50
506.76	28723.05
506.93	28524.11
507.11	28568.58
507.28	28709.01
507.46	28533.47
507.63	28734.76
507.81	28507.72
507.98	28776.89
508.16	28760.50
508.33	29060.09
508.50	29340.96
508.68	29390.11
508.85	29795.02
509.03	29355.00
509.20	29589.05
509.38	29694.38
509.55	29750.55
509.73	29675.65
509.90	30031.41
510.08	29914.39
510.25	30036.09
510.42	30356.75
510.60	30352.07
510.77	30466.75
510.95	30518.25
511.12	30532.29
511.30	30518.25
511.47	30885.71
511.64	30843.58
511.82	30822.51
511.99	31072.95
512.17	31068.27
512.34	30979.33
512.51	31119.76
512.69	31133.81
512.86	31316.37
513.04	31901.50
513.21	31452.12
513.38	31089.34
513.56	31459.14
513.73	31424.03
513.90	31381.90
514.08	31201.68
514.25	31695.53
514.43	31686.17
514.60	31625.32
514.77	31608.93
514.95	31952.99
515.12	32161.30
515.29	32336.84
515.47	32936.02
515.64	32477.27
515.81	32091.09
515.99	32596.64
516.16	32210.45
516.33	32203.43
516.51	32472.59
516.68	32367.27
516.85	32238.54
517.03	32428.12
517.20	32779.20
517.37	32561.53
517.54	32870.48
517.72	33048.36
517.89	32769.84
518.06	32587.28
518.24	32795.59
518.41	33008.58
518.58	32933.68
518.75	33544.56
518.93	33439.23
519.10	33441.57
519.27	33535.20
519.45	33944.79
519.62	33479.02
519.79	33961.17
519.96	34291.19
520.14	33668.61
520.31	33682.65
520.48	34352.04
520.65	34356.72
520.83	34476.09
521.00	34689.08
521.17	34733.55
521.34	34518.22
521.52	34274.80
521.69	34696.10
521.86	35063.57
522.03	35021.44
522.20	35065.91
522.38	35225.06
522.55	35159.53
522.72	34988.67
522.89	34412.90
523.07	35346.77
523.24	35229.74
523.41	35084.63
523.58	35138.46
523.75	35761.05
523.92	35206.34
524.10	35714.23
524.27	35625.29
524.44	35552.74
524.61	36252.56
524.78	36081.70
524.96	36133.19
525.13	36046.59
525.30	36407.03
525.47	36638.75
525.64	36037.23
525.81	36327.45
525.98	35749.34
526.16	35957.65
526.33	36217.45
526.50	35679.13
526.67	36229.15
526.84	36322.77
527.01	35962.33
527.18	36329.80
527.36	36924.29
527.53	36790.88
527.70	36879.82
527.87	36645.77
528.04	36989.83
528.21	37284.73
528.38	37144.30
528.55	37041.32
528.72	37497.72
528.89	37605.39
529.07	37261.33
529.24	37158.34
529.41	37720.07
529.58	37186.43
529.75	37617.09
529.92	37493.04
530.09	37523.47
530.26	37818.38
530.43	37839.44
530.60	37376.01
530.77	38050.09
530.94	38108.60
531.11	37635.81
531.28	38363.72
531.46	37975.19
531.63	38092.22
531.80	38040.73
531.97	37820.72
532.14	38148.39
532.31	38003.28
532.48	38101.58
532.65	38471.39
532.82	38143.71
532.99	38497.13
533.16	38359.04
533.33	38656.29
533.50	38810.76
533.67	38595.43
533.84	38497.13
534.01	38300.53
534.18	38778.00
534.35	38862.26
534.52	38857.57
534.69	38890.34
534.86	38651.61
535.03	39061.20
535.20	39510.58
535.37	39452.07
535.54	39480.16
535.71	38878.64
535.88	39342.06
536.05	39054.18
536.22	39304.62
536.38	39082.27
536.55	39667.40
536.72	39550.37
536.89	39260.15
537.06	39442.71
537.23	39428.66
537.40	39681.44
537.57	39566.76
537.74	39798.47
537.91	39969.33
538.08	39826.56
538.25	39433.35
538.42	39922.52
538.59	40149.55
538.75	39732.93
538.92	39543.35
539.09	40128.48
539.26	39920.18
539.43	39927.20
539.60	39936.56
539.77	39999.76
539.94	40030.18
540.11	39447.39
540.28	40161.25
540.44	40355.52
540.61	40147.21
540.78	40163.59
540.95	40133.17
541.12	40100.40
541.29	40509.99
541.46	40395.31
541.62	40336.79
541.79	40531.06
541.96	40100.40
542.13	40297.00
542.30	40458.50
542.47	40561.48
542.63	40730.00
542.80	40891.50
542.97	40816.60
543.14	41591.32
543.31	41359.61
543.48	41483.66
543.64	41806.65
543.81	41698.98
543.98	41500.04
544.15	41170.02
544.32	41518.76
544.48	41500.04
544.65	41944.74
544.82	41687.28
544.99	41127.89
545.16	41551.53
545.32	41682.60
545.49	41813.67
545.66	42031.34
545.83	41862.82
546.00	41785.58
546.16	41560.89
546.33	41701.32
546.50	41429.82
546.67	41724.73
546.83	41673.24
547.00	41839.42
547.17	41755.16
547.34	41984.53
547.50	41944.74
547.67	42672.65
547.84	42328.59
548.00	42667.97
548.17	42682.01
548.34	42438.59
548.51	42850.53
548.67	42335.61
548.84	42506.47
549.01	42356.67
549.18	42354.33
549.34	42703.07
549.51	42183.48
549.68	42440.93
549.84	42782.65
550.01	42876.27
550.18	42447.96
550.34	43100.97
550.51	42574.34
550.68	42646.90
550.84	42492.43
551.01	42890.32
551.18	42899.68
551.34	42948.83
551.51	42740.52
551.68	42916.06
551.84	43002.66
552.01	42670.31
552.18	43117.35
552.34	42770.95
552.51	42663.28
552.68	42946.49
552.84	43271.82
553.01	43232.04
553.18	43466.09
553.34	43325.66
553.51	42679.67
553.67	43014.37
553.84	43550.35
554.01	43358.42
554.17	43812.49
554.34	43309.27
554.51	43765.68
554.67	43494.18
554.84	43313.95
555.00	43203.95
555.17	43388.85
555.33	43592.48
555.50	43199.27
555.67	43367.79
555.83	43540.99
556.00	43824.19
556.16	43833.55
556.33	43484.81
556.50	43426.30
556.66	43871.00
556.83	43269.48
556.99	43604.18
557.16	44044.20
557.32	43735.25
557.49	43950.58
557.65	43517.58
557.82	43714.19
557.98	43950.58
558.15	43964.62
558.32	44168.25
558.48	44093.35
558.65	43545.67
558.81	43370.13
558.98	43973.98
559.14	44472.52
559.31	43878.02
559.47	43718.87
559.64	44306.34
559.80	44259.53
559.97	44254.85
560.13	43756.32
560.30	44060.58
560.46	43828.87
560.63	44219.74
560.79	44289.96
560.96	44215.06
561.12	44161.23
561.29	44154.21
561.45	44353.15
561.61	44004.41
561.78	43849.94
561.94	44034.84
562.11	44629.34
562.27	44463.16
562.44	44133.14
562.60	44402.30
562.77	44175.27
562.93	44449.11
563.10	44524.01
563.26	43988.03
563.42	44376.56
563.59	44144.84
563.75	44025.48
563.92	44634.02
564.08	44514.65
564.24	44388.26
564.41	44257.19
564.57	44189.31
564.74	44229.10
564.90	44240.81
565.07	44367.20
565.23	44446.77
565.39	44538.05
565.56	44732.32
565.72	44652.74
565.88	44580.18
566.05	44184.63
566.21	44505.29
566.38	44397.62
566.54	44301.66
566.70	44875.09
566.87	44626.99
567.03	44849.35
567.19	45148.93
567.36	45038.93
567.52	44524.01
567.68	44685.51
567.85	44940.63
568.01	44603.59
568.17	44362.51
568.34	44903.18
568.50	44573.16
568.66	44507.63
568.83	45081.06
568.99	44299.32
569.15	44680.83
569.32	44538.05
569.48	44229.10
569.64	44875.09
569.81	44954.67
569.97	44664.44
570.13	44619.97
570.30	44514.65
570.46	44664.44
570.62	44477.20
570.78	44463.16
570.95	44479.54
571.11	44877.43
571.27	44795.51
571.43	45043.61
571.60	44926.58
571.76	44399.96
571.92	44720.62
572.09	44678.49
572.25	44957.01
572.41	44650.40
572.57	44502.95
572.74	45453.20
572.90	44912.54
573.06	44851.69
573.22	45045.95
573.38	44704.23
573.55	44783.81
573.71	44879.77
573.87	45081.06
574.03	44823.60
574.20	44907.86
574.36	45006.16
574.52	45277.66
574.68	44849.35
574.84	44814.24
575.01	44910.20
575.17	45251.92
575.33	44545.08
575.49	45071.70
575.65	45109.14
575.82	45109.14
575.98	45008.50
576.14	44975.73
576.30	44854.03
576.46	44741.68
576.62	44755.72
576.79	45167.66
576.95	44676.15
577.11	44968.71
577.27	44884.45
577.43	44861.05
577.59	44921.90
577.75	44910.20
577.92	44746.36
578.08	44582.52
578.24	45045.95
578.40	44713.59
578.56	44722.96
578.72	44832.96
578.88	45626.40
579.04	45425.12
579.21	45010.84
579.37	44975.73
579.53	44973.39
579.69	44854.03
579.85	45006.16
580.01	45610.02
580.17	45106.80
580.33	44903.18
580.49	45209.79
580.65	45375.97
580.82	45464.91
580.98	45165.32
581.14	45024.89
581.30	44938.29
581.46	45034.25
581.62	44870.41
581.78	45380.65
581.94	45408.73
582.10	45277.66
582.26	45397.03
582.42	45078.72
582.58	44989.78
582.74	45104.46
582.90	45198.09
583.06	45116.17
583.22	45181.70
583.38	45471.93
583.54	45116.17
583.70	45118.51
583.86	45326.81
584.02	44945.31
584.18	45022.54
584.34	44631.68
584.50	44802.53
584.66	44722.96
584.82	44692.53
584.98	45485.97
585.14	44933.60
585.30	45228.51
585.46	44854.03
585.62	45174.68
585.78	45134.89
585.94	44725.30
586.10	45371.28
586.26	45485.97
586.42	45462.57
586.58	45532.78
586.74	45113.83
586.90	45130.21
587.06	45038.93
587.22	45338.52
587.38	45165.32
587.54	45212.13
587.70	45661.51
587.86	45052.97
588.02	45219.15
588.18	45270.64
588.34	44945.31
588.49	44971.05
588.65	44629.34
588.81	45010.84
588.97	44849.35
589.13	44781.47
589.29	44914.88
589.45	45214.47
589.61	45120.85
589.77	45265.96
589.93	45387.67
590.08	45886.20
590.24	45823.01
