SpectraSuite Data File
++++++++++++++++++++++++++++++++++++
Date: Fri Oct 25 11:22:36 EDT 2013
User: price-jones
Dark Spectrum Present: No
Reference Spectrum Present: No
Number of Sampled Component Spectra: 1
Spectrometers: USB2+H05261
Integration Time (usec): 100000 (USB2+H05261)
Spectra Averaged: 1 (USB2+H05261)
Boxcar Smoothing: 0 (USB2+H05261)
Correct for Electrical Dark: No (USB2+H05261)
Strobe/Lamp Enabled: No (USB2+H05261)
Correct for Detector Non-linearity: No (USB2+H05261)
Correct for Stray Light: No (USB2+H05261)
Number of Pixels in Processed Spectrum: 2048
>>>>>Begin Processed Spectral Data<<<<<
365.73	229.37
365.92	229.37
366.12	229.37
366.32	161.50
366.52	72.56
366.72	187.24
366.91	107.66
367.11	145.11
367.31	124.05
367.51	119.37
367.70	156.82
367.90	152.13
368.10	159.16
368.30	177.88
368.49	140.43
368.69	98.30
368.89	180.22
369.09	124.05
369.28	208.31
369.48	222.35
369.68	98.30
369.87	196.60
370.07	177.88
370.27	159.16
370.47	280.86
370.66	533.64
370.86	662.37
371.06	645.99
371.25	681.10
371.45	650.67
371.65	758.33
371.84	657.69
372.04	641.31
372.24	692.80
372.44	727.91
372.63	753.65
372.83	753.65
373.03	688.12
373.22	664.71
373.42	755.99
373.62	807.48
373.81	828.55
374.01	809.83
374.21	755.99
374.40	847.27
374.60	767.70
374.79	800.46
374.99	788.76
375.19	781.74
375.38	774.72
375.58	889.40
375.78	873.02
375.97	837.91
376.17	945.58
376.37	849.61
376.56	873.02
376.76	814.51
376.95	835.57
377.15	933.87
377.35	844.93
377.54	940.90
377.74	910.47
377.93	947.92
378.13	898.77
378.33	875.36
378.52	849.61
378.72	966.64
378.91	898.77
379.11	943.24
379.31	908.13
379.50	971.32
379.70	1048.56
379.89	968.98
380.09	1029.84
380.28	954.94
380.48	973.66
380.68	1043.88
380.87	968.98
381.07	1008.77
381.26	1039.20
381.46	1074.31
381.65	1078.99
381.85	992.39
382.04	994.73
382.24	1015.79
382.43	1041.54
382.63	1118.78
382.83	1050.90
383.02	1130.48
383.22	1125.80
383.41	1132.82
383.61	1137.50
383.80	1137.50
384.00	1137.50
384.19	1088.35
384.39	1156.22
384.58	1062.60
384.78	1123.46
384.97	1156.22
385.17	1160.91
385.36	1139.84
385.56	1177.29
385.75	1203.04
385.95	1256.87
386.14	1280.27
386.34	1186.65
386.53	1203.04
386.72	1224.10
386.92	1280.27
387.11	1231.12
387.31	1221.76
387.50	1200.69
387.70	1207.72
387.89	1242.82
388.09	1291.98
388.28	1256.87
388.48	1233.46
388.67	1376.24
388.86	1313.04
389.06	1376.24
389.25	1409.00
389.45	1406.66
389.64	1294.32
389.84	1320.06
390.03	1427.73
390.22	1371.55
390.42	1490.92
390.61	1392.62
390.81	1460.49
391.00	1453.47
391.19	1472.20
391.39	1430.07
391.58	1465.18
391.78	1397.30
391.97	1579.86
392.16	1416.02
392.36	1493.26
392.55	1448.79
392.75	1563.48
392.94	1544.75
393.13	1502.62
393.33	1645.40
393.52	1558.80
393.71	1551.78
393.91	1563.48
394.10	1526.03
394.29	1579.86
394.49	1617.31
394.68	1645.40
394.88	1603.27
395.07	1675.82
395.26	1689.87
395.46	1694.55
395.65	1633.69
395.84	1636.03
396.04	1830.30
396.23	1774.13
396.42	1746.04
396.62	1776.47
396.81	1856.04
397.00	1832.64
397.19	1963.71
397.39	1771.79
397.58	1820.94
397.77	1832.64
397.97	1816.26
398.16	1865.41
398.35	1846.68
398.55	1891.15
398.74	1846.68
398.93	1895.83
399.12	1937.96
399.32	2024.56
399.51	1877.11
399.70	2003.50
399.90	1973.07
400.09	2118.18
400.28	2031.58
400.47	1952.01
400.67	2143.93
400.86	2176.70
401.05	2050.31
401.24	2176.70
401.44	2172.02
401.63	2139.25
401.82	2148.61
402.01	2108.82
402.21	2197.76
402.40	2347.56
402.59	2188.40
402.78	2221.17
402.97	2265.64
403.17	2303.09
403.36	2242.23
403.55	2228.19
403.74	2317.13
403.93	2289.04
404.13	2424.80
404.32	2466.92
404.51	2443.52
404.70	2385.01
404.89	2406.07
405.09	2541.82
405.28	2464.58
405.47	2628.42
405.66	2593.31
405.85	2459.90
406.05	2462.24
406.24	2572.25
406.43	2567.57
406.62	2609.70
406.81	2600.34
407.00	2651.83
407.20	2637.78
407.39	2703.32
407.58	2670.55
407.77	2722.04
407.96	2684.59
408.15	2771.19
408.34	2724.38
408.54	2813.32
408.73	2862.48
408.92	2780.56
409.11	2899.92
409.30	2932.69
409.49	2977.16
409.68	2944.39
409.87	2963.12
410.07	3019.29
410.26	3054.40
410.45	3059.08
410.64	3129.30
410.83	3108.23
411.02	3101.21
411.21	3208.87
411.40	3084.83
411.59	3169.09
411.78	3410.16
411.98	3155.04
412.17	3300.16
412.36	3384.41
412.55	3300.16
412.74	3382.07
412.93	3314.20
413.12	3262.71
413.31	3576.34
413.50	3482.72
413.69	3588.04
413.88	3590.38
414.07	3599.74
414.26	3597.40
414.45	3791.67
414.64	3735.50
414.83	3712.09
415.02	3824.44
415.22	3817.41
415.41	3946.14
415.60	3983.59
415.79	3854.86
415.98	3932.10
416.17	3999.98
416.36	3913.38
416.55	4056.15
416.74	4042.11
416.93	4166.15
417.12	4039.76
417.31	4229.35
417.50	4182.54
417.69	4252.75
417.88	4311.27
418.07	4365.10
418.26	4180.20
418.45	4252.75
418.64	4596.81
418.83	4503.19
419.02	4493.83
419.21	4573.41
419.39	4624.90
419.58	4557.02
419.77	4414.25
419.96	4470.42
420.15	4655.33
420.34	4678.73
420.53	4664.69
420.72	4690.43
420.91	4702.14
421.10	4634.26
421.29	4795.76
421.48	4702.14
421.67	4718.52
421.86	4882.36
422.05	4873.00
422.24	4884.70
422.43	4980.66
422.61	4814.48
422.80	5050.88
422.99	4966.62
423.18	5163.22
423.37	5041.51
423.56	5001.72
423.75	5032.15
423.94	4830.87
424.13	4519.57
424.32	4807.46
424.50	4887.04
424.69	5263.86
424.88	5111.73
425.07	4884.70
425.26	4770.01
425.45	4975.98
425.64	4994.70
425.83	4957.25
426.01	4954.91
426.20	5062.58
426.39	5083.64
426.58	5146.84
426.77	5081.30
426.96	5177.26
427.15	5186.63
427.33	5207.69
427.52	5116.41
427.71	5263.86
427.90	5362.17
428.09	5270.89
428.28	5540.05
428.46	5591.54
428.65	5294.29
428.84	5404.30
429.03	5572.82
429.22	5511.96
429.40	5518.98
429.59	5504.94
429.78	5378.55
429.97	5460.47
430.16	5556.43
430.34	5612.60
430.53	5699.20
430.72	5720.27
430.91	5640.69
431.10	5659.42
431.28	5781.12
431.47	5881.77
431.66	5802.19
431.85	5722.61
432.03	6033.90
432.22	5895.81
432.41	5867.72
432.60	6069.01
432.79	6003.47
432.97	6033.90
433.16	6181.35
433.35	6066.67
433.54	6076.03
433.72	6052.63
433.91	6071.35
434.10	6167.31
434.28	6200.08
434.47	6267.95
434.66	6296.04
434.85	6162.63
435.03	6375.62
435.22	6399.02
435.41	6520.73
435.59	6279.66
435.78	6504.35
435.97	6628.40
436.16	6581.59
436.34	6487.96
436.53	6527.75
436.72	6780.53
436.90	6476.26
437.09	6614.35
437.28	6513.71
437.46	6649.46
437.65	6705.63
437.84	6843.73
438.02	6895.22
438.21	6944.37
438.40	6698.61
438.58	7213.53
438.77	7021.61
438.96	7042.67
439.14	7110.55
439.33	7145.66
439.52	7124.59
439.70	7232.26
439.89	7405.46
440.08	7604.40
440.26	7634.83
440.45	7473.33
440.63	7510.78
440.82	7686.32
441.01	7721.43
441.19	7735.47
441.38	7808.03
441.57	7978.89
441.75	7803.35
441.94	8039.74
442.12	7985.91
442.31	8259.75
442.50	8091.23
442.68	7925.05
442.87	8098.25
443.05	8264.43
443.24	8306.56
443.43	8276.13
443.61	8203.58
443.80	8552.32
443.98	8049.10
444.17	7922.71
444.35	8379.12
444.54	8320.60
444.73	8456.36
444.91	8367.42
445.10	8475.08
445.28	8400.18
445.47	8292.52
445.65	8219.96
445.84	8437.63
446.02	8585.08
446.21	8411.89
446.39	8540.61
446.58	8547.64
446.77	8559.34
446.95	8278.47
447.14	8475.08
447.32	8571.04
447.51	8503.17
447.69	8624.87
447.88	8755.94
448.06	8631.90
448.25	8587.43
448.43	8716.16
448.62	8638.92
448.80	8575.72
448.99	8732.54
449.17	8858.93
449.36	8870.63
449.54	8828.50
449.73	9179.58
449.91	9053.19
450.10	8940.85
450.28	9310.65
450.46	9109.36
450.65	9036.81
450.83	9308.31
451.02	9235.75
451.20	9401.93
451.39	9301.29
451.57	9137.45
451.76	9156.18
451.94	9373.85
452.13	9387.89
452.31	9305.97
452.49	9329.38
452.68	9647.69
452.86	9486.19
453.05	9626.62
453.23	9757.69
453.42	9322.35
453.60	9415.98
453.78	9753.01
453.97	9453.42
454.15	9451.08
454.34	9453.42
454.52	9738.97
454.70	9788.12
454.89	9788.12
455.07	9774.08
455.26	9998.77
455.44	10148.56
455.62	10005.79
455.81	10001.11
455.99	10150.90
456.17	10111.11
456.36	10001.11
456.54	10221.12
456.73	10174.31
456.91	10548.79
457.09	10476.24
457.28	10869.45
457.46	10384.96
457.64	10766.46
457.83	10471.56
458.01	10586.24
458.19	10827.32
458.38	10574.54
458.56	10684.55
458.74	10843.70
458.93	11005.20
459.11	10817.96
459.29	10883.49
459.48	10827.32
459.66	10686.89
459.84	10993.50
460.03	11047.33
460.21	10960.73
460.39	11208.83
460.57	11112.86
460.76	11257.98
460.94	11147.97
461.12	11255.64
461.31	11295.43
461.49	11410.11
461.67	11363.30
461.85	11527.14
462.04	11485.01
462.22	11929.71
462.40	11857.15
462.59	11522.46
462.77	11534.16
462.95	11597.35
463.13	11653.53
463.32	11658.21
463.50	11735.45
463.68	11889.92
463.86	12037.38
464.05	11721.40
464.23	11599.70
464.41	12056.10
464.59	11859.49
464.78	12138.02
464.96	12081.85
465.14	11946.09
465.32	12105.25
465.50	12269.09
465.69	12400.16
465.87	12421.22
466.05	12248.02
466.23	12276.11
466.41	12397.82
466.60	12791.03
466.78	12304.20
466.96	12304.20
467.14	12210.57
467.32	12397.82
467.51	12681.02
467.69	12187.17
467.87	12510.16
468.05	12765.28
468.23	12575.70
468.41	12545.27
468.60	12924.44
468.78	12828.48
468.96	12748.90
469.14	13053.17
469.32	12905.71
469.50	12774.64
469.69	12933.80
469.87	13214.66
470.05	12926.78
470.23	13364.46
470.41	13291.90
470.59	13584.47
470.77	13362.12
470.95	13366.80
471.14	13577.45
471.32	13050.83
471.50	13692.13
471.68	13584.47
471.86	13605.53
472.04	13916.83
472.22	14256.20
472.40	13731.92
472.58	13827.88
472.77	14153.22
472.95	14700.90
473.13	14494.94
473.31	14143.86
473.49	14310.04
473.67	14263.22
473.85	14569.83
474.03	14710.27
474.21	14626.01
474.39	14909.21
474.57	14801.55
474.75	14972.41
474.93	15220.50
475.12	15255.61
475.30	15061.35
475.48	15019.22
475.66	15255.61
475.84	15218.16
476.02	15704.99
476.20	15538.82
476.38	15957.77
476.56	16428.22
476.74	16166.08
476.92	16011.60
477.10	15967.13
477.28	16208.21
477.46	16716.11
477.64	16446.94
477.82	16861.22
478.00	17081.23
478.18	16940.80
478.36	17359.75
478.54	17287.20
478.72	17479.12
478.90	17455.72
479.08	17708.49
479.26	17982.34
479.44	17701.47
479.62	17909.78
479.80	18258.52
479.98	18352.14
480.16	18670.45
480.34	18380.23
480.52	18558.11
480.70	18761.73
480.88	18831.95
481.06	19286.01
481.24	19351.55
481.41	19028.56
481.59	19503.68
481.77	19679.22
481.95	19674.54
482.13	19852.42
482.31	20027.96
482.49	20126.27
482.67	20088.82
482.85	20648.21
483.03	20585.01
483.21	21186.53
483.39	21289.51
483.57	20783.96
483.74	21226.32
483.92	21846.56
484.10	21331.64
484.28	21671.02
484.46	22132.11
484.64	22361.48
484.82	22054.87
485.00	22705.54
485.18	23124.49
485.35	23330.46
485.53	23164.28
485.71	23021.51
485.89	23367.91
486.07	23903.89
486.25	23569.19
486.43	23981.13
486.61	23995.17
486.78	24364.98
486.96	24325.19
487.14	24790.95
487.32	24919.68
487.50	25366.73
487.68	25252.04
487.85	25958.88
488.03	26015.05
488.21	26134.42
488.39	26096.97
488.57	26331.03
488.75	26401.24
488.92	27014.46
489.10	26546.36
489.28	26803.82
489.46	27477.89
489.64	27412.35
489.81	28058.34
489.99	27878.12
490.17	28121.54
490.35	28362.61
490.53	28489.00
490.70	28634.11
490.88	28503.04
491.06	29235.63
491.24	29244.99
491.41	29167.76
491.59	29340.96
491.77	29418.19
491.95	29666.29
492.13	29783.32
492.30	30136.74
492.48	30359.09
492.66	30668.04
492.84	30794.43
493.01	31047.21
493.19	30518.25
493.37	31204.02
493.54	31454.46
493.72	31751.71
493.90	31651.06
494.08	32355.57
494.25	32437.48
494.43	32299.39
494.61	32818.99
494.79	32868.14
494.96	32893.89
495.14	33317.53
495.32	33354.97
495.49	33397.10
495.67	33778.61
495.85	33612.43
496.02	33949.47
496.20	34536.94
496.38	34433.96
496.55	34550.99
496.73	35351.45
496.91	34787.38
497.09	35124.42
497.26	35299.96
497.44	35276.55
497.62	35424.01
497.79	35866.37
497.97	35765.73
498.14	36282.98
498.32	36353.20
498.50	36428.10
498.67	36943.02
498.85	36500.65
499.03	37078.77
499.20	36957.06
499.38	37647.52
499.56	37811.35
499.73	37525.81
499.91	37542.19
500.08	38445.64
500.26	37787.95
500.44	38185.84
500.61	38160.09
500.79	38326.27
500.97	38611.82
501.14	39267.17
501.32	39068.22
501.49	39297.59
501.67	39061.20
501.84	39651.02
502.02	38808.42
502.20	39356.11
502.37	39587.82
502.55	39744.64
502.72	39693.15
502.90	40093.38
503.07	39955.29
503.25	40367.22
503.43	40453.82
503.60	40313.39
503.78	40603.61
503.95	40596.59
504.13	40987.46
504.30	41144.28
504.48	40800.22
504.65	41008.53
504.83	41551.53
505.01	41921.34
505.18	41441.53
505.36	41949.42
505.53	41401.74
505.71	42232.63
505.88	42319.23
506.06	41874.52
506.23	42443.27
506.41	42082.83
506.58	42895.00
506.76	42770.95
506.93	43122.03
507.11	42532.22
507.28	42789.67
507.46	43007.34
507.63	43370.13
507.81	43475.45
507.98	43239.06
508.16	43414.60
508.33	43466.09
508.50	44451.45
508.68	44289.96
508.85	44575.50
509.03	44442.09
509.20	44507.63
509.38	44949.99
509.55	44694.87
509.73	45212.13
509.90	45078.72
510.08	44807.22
510.25	45038.93
510.42	45254.26
510.60	45275.32
510.77	45455.54
510.95	45993.87
511.12	45713.00
511.30	45397.03
511.47	45869.82
511.64	46089.83
511.82	46408.14
511.99	46136.64
512.17	46405.80
512.34	46220.90
512.51	46391.76
512.69	46583.68
512.86	46316.86
513.04	46983.91
513.21	47117.32
513.38	47283.50
513.56	47239.03
513.73	47192.22
513.90	47643.94
514.08	47608.84
514.25	47669.69
514.43	47775.02
514.60	48048.86
514.77	47618.20
514.95	47966.94
515.12	47615.86
515.29	47770.33
515.47	48313.34
515.64	48177.59
515.81	48287.59
515.99	48432.71
516.16	48931.24
516.33	49029.54
516.51	49251.89
516.68	49153.59
516.85	49174.66
517.03	49303.38
517.20	49413.39
517.37	49195.72
517.54	49265.94
517.72	49167.63
517.89	49329.13
518.06	49727.02
518.24	49495.31
518.41	49750.43
518.58	49710.64
518.75	49661.49
518.93	49750.43
519.10	50164.70
519.27	50295.77
519.45	50064.06
519.62	50389.39
519.79	50621.11
519.96	50319.18
520.14	50492.38
520.31	50522.80
520.48	50410.46
520.65	50473.65
520.83	50939.42
521.00	51178.15
521.17	51007.29
521.34	51054.11
521.52	51316.25
521.69	51150.07
521.86	51231.99
522.03	51491.79
522.20	51536.26
522.38	51791.37
522.55	51704.77
522.72	51728.18
522.89	51866.27
523.07	52006.70
523.24	52252.46
523.41	52212.67
523.58	51934.15
523.75	52233.74
523.92	51901.38
524.10	52112.03
524.27	52355.44
524.44	52378.85
524.61	52523.96
524.78	52540.35
524.96	52343.74
525.13	52437.36
525.30	52896.11
525.47	53160.59
525.64	52765.04
525.81	53209.74
525.98	52844.62
526.16	52961.64
526.33	52769.72
526.50	53254.21
526.67	52865.68
526.84	53279.96
527.01	53284.64
527.18	53282.30
527.36	53427.41
527.53	53460.18
527.70	53556.14
527.87	53682.53
528.04	53111.44
528.21	53778.49
528.38	53375.92
528.55	53839.34
528.72	53677.85
528.89	53659.12
529.07	53968.07
529.24	53743.38
529.41	53935.30
529.58	54085.10
529.75	53977.43
529.92	53902.54
530.09	54185.74
530.26	54431.50
530.43	54405.75
530.60	54160.00
530.77	54368.30
530.94	54501.71
531.11	54361.28
531.28	54557.89
531.46	54368.30
531.63	54560.23
531.80	54632.78
531.97	54981.52
532.14	54700.66
532.31	54784.92
532.48	54670.23
532.65	54908.97
532.82	54712.36
532.99	54993.23
533.16	55098.55
533.33	55213.24
533.50	55379.42
533.67	55131.32
533.84	54934.71
534.01	55428.57
534.18	55178.13
534.35	55583.04
534.52	55552.62
534.69	55554.96
534.86	55585.38
535.03	55351.33
535.20	55679.00
535.37	55643.90
535.54	55749.22
535.71	55313.88
535.88	55618.15
536.05	55561.98
536.22	55976.25
536.38	55835.82
536.55	55620.49
536.72	56119.02
536.89	55880.29
537.06	55931.78
537.23	56002.00
537.40	55922.42
537.57	56200.94
537.74	56116.68
537.91	56477.13
538.08	56170.52
538.25	56114.34
538.42	55873.27
538.59	56324.99
538.75	56198.60
538.92	56505.21
539.09	56626.92
539.26	56545.00
539.43	56266.48
539.60	56413.93
539.77	56303.93
539.94	56657.35
540.11	56598.83
540.28	56816.50
540.44	56521.60
540.61	56425.64
540.78	56727.56
540.95	56582.45
541.12	56631.60
541.29	56624.58
541.46	56849.27
541.62	57008.43
541.79	56830.55
541.96	56706.50
542.13	56870.34
542.30	57048.22
542.47	57155.88
542.63	57015.45
542.80	57167.58
542.97	57408.66
543.14	57670.80
543.31	57513.98
543.48	57588.88
543.64	57827.62
543.81	57385.25
543.98	57443.77
544.15	57595.90
544.32	57806.55
544.48	57715.27
544.65	57474.20
544.82	57705.91
544.99	57778.46
545.16	57605.26
545.32	57551.43
545.49	57801.87
545.66	57949.32
545.83	57832.30
546.00	58019.54
546.16	58014.86
546.33	57771.44
546.50	57972.73
546.67	57930.60
546.83	57808.89
547.00	58120.18
547.17	57914.22
547.34	57956.35
547.50	58078.05
547.67	58508.71
547.84	58176.36
548.00	58298.06
548.17	58405.73
548.34	58255.93
548.51	58726.38
548.67	58356.58
548.84	58328.49
549.01	58475.94
549.18	58176.36
549.34	58637.44
549.51	58672.55
549.68	58745.11
549.84	58628.08
550.01	58660.85
550.18	58387.00
550.34	58674.89
550.51	58726.38
550.68	58653.82
550.84	58454.88
551.01	58824.68
551.18	58756.81
551.34	58754.47
551.51	58688.93
551.68	58824.68
551.84	58887.88
552.01	58812.98
552.18	58838.73
552.34	59028.31
552.51	59121.93
552.68	58745.11
552.84	58953.41
553.01	59353.65
553.18	58915.96
553.34	59299.81
553.51	59119.59
553.67	58990.86
553.84	59203.85
554.01	59365.35
554.17	59037.67
554.34	59465.99
554.51	58997.88
554.67	59320.88
554.84	59203.85
555.00	59189.81
555.17	59327.90
555.33	59236.62
555.50	59260.02
555.67	59253.00
555.83	59058.74
556.00	59377.05
556.16	59587.70
556.33	59381.73
556.50	59348.96
556.66	59477.69
556.83	59400.46
556.99	59526.84
557.16	59821.75
557.32	59606.42
557.49	59721.11
557.65	59578.34
557.82	59620.47
557.98	59604.08
558.15	59477.69
558.32	59599.40
558.48	59529.19
558.65	59859.20
558.81	59873.24
558.98	59781.96
559.14	59868.56
559.31	59882.61
559.47	59936.44
559.64	60027.72
559.80	59704.73
559.97	59875.58
560.13	59686.00
560.30	59938.78
560.46	60083.89
560.63	59861.54
560.79	60210.28
560.96	60231.35
561.12	59973.89
561.29	60018.36
561.45	60079.21
561.61	59962.18
561.78	60062.83
561.94	60182.19
562.11	60144.75
562.27	60001.97
562.44	60083.89
562.60	60266.45
562.77	60205.60
562.93	59978.57
563.10	60331.99
563.26	60083.89
563.42	60285.18
563.59	60193.90
563.75	60032.40
563.92	60221.98
564.08	60156.45
564.24	60296.88
564.41	60310.92
564.57	60364.76
564.74	60331.99
564.90	60367.10
565.07	60383.48
565.23	60458.38
565.39	60313.26
565.56	60577.75
565.72	60271.14
565.88	60376.46
566.05	60362.42
566.21	60418.59
566.38	60320.29
566.54	60491.15
566.70	60584.77
566.87	60601.15
567.03	60360.08
567.19	60570.72
567.36	60521.57
567.52	60488.80
567.68	60711.16
567.85	60479.44
568.01	60720.52
568.17	60458.38
568.34	60753.29
568.50	60601.15
568.66	60310.92
568.83	60701.79
568.99	60612.85
569.15	60727.54
569.32	60657.32
569.48	60530.93
569.64	60725.20
569.81	60584.77
569.97	60544.98
570.13	60732.22
570.30	60530.93
570.46	60753.29
570.62	60952.23
570.78	60874.99
570.95	60603.49
571.11	60963.93
571.27	60636.26
571.43	60879.67
571.60	60912.44
571.76	60704.13
571.92	60891.38
572.09	60818.82
572.25	60882.02
572.41	60900.74
572.57	60811.80
572.74	61034.15
572.90	60825.84
573.06	60807.12
573.22	60718.18
573.38	60800.10
573.55	60947.55
573.71	61127.77
573.87	60865.63
574.03	60718.18
574.20	60956.91
574.36	60917.12
574.52	60867.97
574.68	60963.93
574.84	61006.06
575.01	61113.73
575.17	60882.02
575.33	60992.02
575.49	60882.02
575.65	61092.66
575.82	60954.57
575.98	60919.46
576.14	61038.83
576.30	61144.16
576.46	61036.49
576.62	60837.54
576.79	61038.83
576.95	60877.33
577.11	60823.50
577.27	61083.30
577.43	61003.72
577.59	60982.66
577.75	61022.45
577.92	60851.59
578.08	60982.66
578.24	61144.16
578.40	61106.71
578.56	61162.88
578.72	61160.54
578.88	61125.43
579.04	61432.04
579.21	61247.14
579.37	61151.18
579.53	61263.52
579.69	60992.02
579.85	60814.14
580.01	61127.77
580.17	60942.87
580.33	61111.39
580.49	61221.39
580.65	61139.47
580.82	61212.03
580.98	61069.26
581.14	60989.68
581.30	61132.45
581.46	61158.20
581.62	61315.01
581.78	61179.26
581.94	61183.94
582.10	60999.04
582.26	61357.14
582.42	61116.07
582.58	61209.69
582.74	61237.78
582.90	61237.78
583.06	61083.30
583.22	60959.25
583.38	61289.27
583.54	61298.63
583.70	61183.94
583.86	61315.01
584.02	61155.86
584.18	61277.57
584.34	61279.91
584.50	61256.50
584.66	61127.77
584.82	61141.81
584.98	61340.76
585.14	61312.67
585.30	61125.43
585.46	61275.22
585.62	61160.54
585.78	61123.09
585.94	60999.04
586.10	61432.04
586.26	61148.84
586.42	61418.00
586.58	61298.63
586.74	61183.94
586.90	61106.71
587.06	61352.46
587.22	61553.75
587.38	61310.33
587.54	61413.32
587.70	61509.28
587.86	61385.23
588.02	61497.58
588.18	61375.87
588.34	61286.93
588.49	61317.35
