SpectraSuite Data File
++++++++++++++++++++++++++++++++++++
Date: Fri Oct 25 11:22:58 EDT 2013
User: price-jones
Dark Spectrum Present: No
Reference Spectrum Present: No
Number of Sampled Component Spectra: 1
Spectrometers: USB2+H05261
Integration Time (usec): 100000 (USB2+H05261)
Spectra Averaged: 1 (USB2+H05261)
Boxcar Smoothing: 0 (USB2+H05261)
Correct for Electrical Dark: No (USB2+H05261)
Strobe/Lamp Enabled: No (USB2+H05261)
Correct for Detector Non-linearity: No (USB2+H05261)
Correct for Stray Light: No (USB2+H05261)
Number of Pixels in Processed Spectrum: 2048
>>>>>Begin Processed Spectral Data<<<<<
365.73	222.35
365.92	222.35
366.12	222.35
366.32	152.13
366.52	149.79
366.72	166.18
366.91	51.49
367.11	93.62
367.31	147.45
367.51	154.48
367.70	98.30
367.90	154.48
368.10	110.01
368.30	95.96
368.49	220.01
368.69	154.48
368.89	180.22
369.09	159.16
369.28	229.37
369.48	187.24
369.68	135.75
369.87	201.29
370.07	149.79
370.27	189.58
370.47	264.48
370.66	578.11
370.86	613.22
371.06	620.24
371.25	685.78
371.45	702.16
371.65	648.33
371.84	660.03
372.04	772.38
372.24	739.61
372.44	718.54
372.63	772.38
372.83	711.52
373.03	657.69
373.22	716.20
373.42	784.08
373.62	697.48
373.81	770.04
374.01	854.30
374.21	802.80
374.40	798.12
374.60	856.64
374.79	840.25
374.99	882.38
375.19	814.51
375.38	833.23
375.58	814.51
375.78	849.61
375.97	891.74
376.17	786.42
376.37	795.78
376.56	840.25
376.76	844.93
376.95	837.91
377.15	882.38
377.35	966.64
377.54	952.60
377.74	980.68
377.93	835.57
378.13	880.04
378.33	922.17
378.52	905.79
378.72	861.32
378.91	898.77
379.11	936.21
379.31	894.08
379.50	898.77
379.70	997.07
379.89	929.19
380.09	985.37
380.28	1011.11
380.48	1006.43
380.68	990.05
380.87	1050.90
381.07	985.37
381.26	980.68
381.46	987.71
381.65	1118.78
381.85	1004.09
382.04	1083.67
382.24	1015.79
382.43	1006.43
382.63	973.66
382.83	1025.15
383.02	1116.44
383.22	1057.92
383.41	1095.37
383.61	1074.31
383.80	1104.73
384.00	1022.81
384.19	1158.57
384.39	1153.88
384.58	1172.61
384.78	1172.61
384.97	1116.44
385.17	1121.12
385.36	1228.78
385.56	1116.44
385.75	1071.97
385.95	1277.93
386.14	1102.39
386.34	1174.95
386.53	1268.57
386.72	1226.44
386.92	1273.25
387.11	1172.61
387.31	1217.08
387.50	1240.48
387.70	1238.14
387.89	1289.64
388.09	1191.33
388.28	1373.89
388.48	1240.48
388.67	1331.76
388.86	1275.59
389.06	1259.21
389.25	1423.05
389.45	1366.87
389.64	1401.98
389.84	1270.91
390.03	1390.28
390.22	1423.05
390.42	1423.05
390.61	1352.83
390.81	1336.45
391.00	1509.65
391.19	1465.18
391.39	1439.43
391.58	1483.90
391.78	1409.00
391.97	1439.43
392.16	1474.54
392.36	1497.94
392.55	1476.88
392.75	1504.96
392.94	1591.56
393.13	1561.14
393.33	1516.67
393.52	1605.61
393.71	1607.95
393.91	1668.80
394.10	1554.12
394.29	1633.69
394.49	1610.29
394.68	1657.10
394.88	1626.67
395.07	1727.32
395.26	1710.93
395.46	1764.76
395.65	1713.27
395.84	1689.87
396.04	1776.47
396.23	1837.32
396.42	1802.21
396.62	1809.23
396.81	1757.74
397.00	1827.96
397.19	1867.75
397.39	1844.34
397.58	1881.79
397.77	1900.52
397.97	1877.11
398.16	1942.64
398.35	1874.77
398.55	1923.92
398.74	1989.46
398.93	2040.95
399.12	1926.26
399.32	1923.92
399.51	1937.96
399.70	1944.99
399.90	1949.67
400.09	1980.09
400.28	2062.01
400.47	2001.16
400.67	2026.90
400.86	2104.14
401.05	1966.05
401.24	2043.29
401.44	2230.53
401.63	2230.53
401.82	2132.23
402.01	2111.16
402.21	2108.82
402.40	2099.46
402.59	2139.25
402.78	2204.78
402.97	2310.11
403.17	2265.64
403.36	2277.34
403.55	2232.87
403.74	2370.96
403.93	2303.09
404.13	2466.92
404.32	2305.43
404.51	2345.22
404.70	2399.05
404.89	2417.77
405.09	2401.39
405.28	2495.01
405.47	2511.39
405.66	2553.52
405.85	2548.84
406.05	2565.23
406.24	2520.76
406.43	2555.86
406.62	2670.55
406.81	2619.06
407.00	2626.08
407.20	2637.78
407.39	2670.55
407.58	2729.06
407.77	2775.88
407.96	2712.68
408.15	2752.47
408.34	2820.35
408.54	2778.22
408.73	2766.51
408.92	2801.62
409.11	2843.75
409.30	2963.12
409.49	3070.78
409.68	2981.84
409.87	2991.20
410.07	3009.93
410.26	2977.16
410.45	2935.03
410.64	3087.17
410.83	3122.27
411.02	3108.23
411.21	3180.79
411.40	3213.56
411.59	3183.13
411.78	3307.18
411.98	3208.87
412.17	3274.41
412.36	3344.63
412.55	3419.52
412.74	3365.69
412.93	3379.73
413.12	3396.12
413.31	3478.04
413.50	3517.83
413.69	3548.25
413.88	3674.64
414.07	3616.13
414.26	3698.05
414.45	3669.96
414.64	3836.14
414.83	3911.04
415.02	3868.91
415.22	3850.18
415.41	3911.04
415.60	3810.39
415.79	3911.04
415.98	4018.70
416.17	4039.76
416.36	3838.48
416.55	4121.68
416.74	4119.34
416.93	4016.36
417.12	4243.39
417.31	4175.52
417.50	4163.81
417.69	4400.21
417.88	4255.09
418.07	4461.06
418.26	4355.74
418.45	4421.27
418.64	4456.38
418.83	4468.08
419.02	4428.29
419.21	4510.21
419.39	4500.85
419.58	4566.39
419.77	4559.36
419.96	4610.86
420.15	4624.90
420.34	4559.36
420.53	4704.48
420.72	4908.10
420.91	4716.18
421.10	4741.93
421.29	4835.55
421.48	4676.39
421.67	4849.59
421.86	4835.55
422.05	4865.97
422.24	4748.95
422.43	4809.80
422.61	4978.32
422.80	4952.57
422.99	4992.36
423.18	4908.10
423.37	4973.64
423.56	5102.37
423.75	5060.24
423.94	4924.49
424.13	4720.86
424.32	4870.65
424.50	5102.37
424.69	5114.07
424.88	5125.77
425.07	4999.38
425.26	5025.13
425.45	4966.62
425.64	4945.55
425.83	5004.07
426.01	5146.84
426.20	5022.79
426.39	5177.26
426.58	5210.03
426.77	5050.88
426.96	5177.26
427.15	5167.90
427.33	5214.71
427.52	5146.84
427.71	5198.33
427.90	5357.49
428.09	5614.95
428.28	5469.83
428.46	5411.32
428.65	5392.59
428.84	5486.22
429.03	5591.54
429.22	5399.62
429.40	5514.30
429.59	5495.58
429.78	5352.81
429.97	5434.72
430.16	5582.18
430.34	5483.88
430.53	5652.39
430.72	5729.63
430.91	5589.20
431.10	5713.25
431.28	5692.18
431.47	5783.46
431.66	5865.38
431.85	5891.13
432.03	5989.43
432.22	6003.47
432.41	6047.94
432.60	5886.45
432.79	6008.16
432.97	5921.56
433.16	6099.44
433.35	5977.73
433.54	6085.39
433.72	6218.80
433.91	6200.08
434.10	6125.18
434.28	6179.01
434.47	6293.70
434.66	6279.66
434.85	6307.74
435.03	6422.43
435.22	6223.48
435.41	6733.72
435.59	6382.64
435.78	6441.15
435.97	6286.68
436.16	6579.25
436.34	6551.16
436.53	6609.67
436.72	6672.87
436.90	6558.18
437.09	6658.82
437.28	6682.23
437.46	6590.95
437.65	6581.59
437.84	6799.26
438.02	6726.70
438.21	6869.47
438.40	6810.96
438.58	7152.68
438.77	7143.32
438.96	7089.48
439.14	7122.25
439.33	7206.51
439.52	7300.13
439.70	7300.13
439.89	7494.40
440.08	7337.58
440.26	7499.08
440.45	7578.65
440.63	7522.48
440.82	7672.28
441.01	7786.96
441.19	7871.22
441.38	7920.37
441.57	7784.62
441.75	7695.68
441.94	8124.00
442.12	8126.34
442.31	8086.55
442.50	8234.00
442.68	8131.02
442.87	8138.04
443.05	8210.60
443.24	8201.24
443.43	8418.91
443.61	8271.45
443.80	8435.29
443.98	8112.30
444.17	8079.53
444.35	8065.49
444.54	8400.18
444.73	8388.48
444.91	8292.52
445.10	8304.22
445.28	8187.19
445.47	8533.59
445.65	8365.07
445.84	8451.67
446.02	8493.80
446.21	8482.10
446.39	8386.14
446.58	8667.00
446.77	8571.04
446.95	8362.73
447.14	8414.23
447.32	8601.47
447.51	8524.23
447.69	8702.11
447.88	8510.19
448.06	8793.39
448.25	8580.40
448.43	8573.38
448.62	8571.04
448.80	8697.43
448.99	8617.85
449.17	8662.32
449.36	8704.45
449.54	8720.84
449.73	9036.81
449.91	8648.28
450.10	8931.48
450.28	9179.58
450.46	9006.38
450.65	9219.37
450.83	9144.47
451.02	9083.62
451.20	9067.24
451.39	9195.96
451.57	9270.86
451.76	9025.11
451.94	9231.07
452.13	9411.29
452.31	9378.53
452.49	9076.60
452.68	9235.75
452.86	9404.27
453.05	9397.25
453.23	9296.61
453.42	9446.40
453.60	9387.89
453.78	9706.20
453.97	9472.15
454.15	9689.82
454.34	9563.43
454.52	9736.63
454.70	9673.43
454.89	9764.72
455.07	9788.12
455.26	9879.40
455.44	9867.70
455.62	9961.32
455.81	9844.29
455.99	10092.39
456.17	10148.56
456.36	10251.55
456.54	10312.40
456.73	10356.87
456.91	10757.10
457.09	10424.75
457.28	10516.03
457.46	10684.55
457.64	10555.82
457.83	10567.52
458.01	10684.55
458.19	10958.39
458.38	10649.44
458.56	10801.57
458.74	10747.74
458.93	10736.04
459.11	10913.92
459.29	11103.50
459.48	11002.86
459.66	10853.06
459.84	11138.61
460.03	11311.81
460.21	11096.48
460.39	11000.52
460.57	11218.19
460.76	11169.04
460.94	11143.29
461.12	11281.38
461.31	11250.96
461.49	11213.51
461.67	11405.43
461.85	11468.62
462.04	11529.48
462.22	11503.73
462.40	11730.76
462.59	11655.87
462.77	11749.49
462.95	11798.64
463.13	11602.04
463.32	11744.81
463.50	11831.41
463.68	11709.70
463.86	11882.90
464.05	11723.74
464.23	11660.55
464.41	12098.23
464.59	11939.07
464.78	12252.70
464.96	12098.23
465.14	11894.60
465.32	12133.34
465.50	12217.60
465.69	12236.32
465.87	12332.28
466.05	12343.99
466.23	12571.02
466.41	12348.67
466.60	12655.28
466.78	12456.33
466.96	12297.17
467.14	12547.61
467.32	12465.69
467.51	12552.29
467.69	12414.20
467.87	12599.10
468.05	12606.13
468.23	12589.74
468.41	12545.27
468.60	12807.41
468.78	12938.48
468.96	12798.05
469.14	12758.26
469.32	13130.41
469.50	12720.81
469.69	13027.42
469.87	13205.30
470.05	13296.58
470.23	13270.84
470.41	13245.09
470.59	13380.84
470.77	13444.04
470.95	13343.39
471.14	13788.10
471.32	13226.37
471.50	13750.65
471.68	13483.83
471.86	13790.44
472.04	13933.21
472.22	14340.46
472.40	13977.68
472.58	14111.09
472.77	14146.20
472.95	13963.64
473.13	14787.50
473.31	14310.04
473.49	14326.42
473.67	14354.51
473.85	14757.08
474.03	14731.33
474.21	14752.40
474.39	14796.87
474.57	14946.66
474.75	14895.17
474.93	15005.17
475.12	14956.02
475.30	15206.46
475.48	15159.65
475.66	15508.39
475.84	15248.59
476.02	15407.75
476.20	15307.10
476.38	16011.60
476.56	15995.22
476.74	16173.10
476.92	15850.11
477.10	15679.25
477.28	16334.60
477.46	16493.76
477.64	16538.23
477.82	16664.61
478.00	16828.45
478.18	16961.86
478.36	17121.02
478.54	17167.83
478.72	17069.53
478.90	17605.51
479.08	17687.43
479.26	17682.75
479.44	18162.56
479.62	17797.43
479.80	18286.61
479.98	18457.46
480.16	18668.11
480.34	18462.15
480.52	18677.48
480.70	18911.53
480.88	18747.69
481.06	18831.95
481.24	18883.44
481.41	19367.93
481.59	19728.38
481.77	19681.56
481.95	19590.28
482.13	20042.01
482.31	20049.03
482.49	20203.50
482.67	20365.00
482.85	20582.67
483.03	21046.10
483.21	21139.72
483.39	21137.38
483.57	20975.88
483.74	21504.84
483.92	21486.12
484.10	21392.50
484.28	21905.07
484.46	22211.68
484.64	22616.60
484.82	22185.94
485.00	22590.85
485.18	23065.98
485.35	23372.59
485.53	23211.09
485.71	23304.71
485.89	23730.69
486.07	23716.65
486.25	23730.69
486.43	23960.06
486.61	24252.63
486.78	24147.31
486.96	24266.67
487.14	24650.52
487.32	24521.79
487.50	25277.79
487.68	25113.95
487.85	25411.20
488.03	25645.25
488.21	25738.87
488.39	26106.34
488.57	26682.11
488.75	26679.77
488.92	26602.53
489.10	26792.11
489.28	27007.44
489.46	27241.50
489.64	27283.62
489.81	27538.74
489.99	28020.89
490.17	28037.28
490.35	28608.37
490.53	28142.60
490.70	28599.01
490.88	28872.85
491.06	29149.03
491.24	29228.61
491.41	29645.23
491.59	29411.17
491.77	29408.83
491.95	30012.69
492.13	30122.69
492.30	30024.39
492.48	30274.83
492.66	30581.44
492.84	30672.72
493.01	30948.90
493.19	31197.00
493.37	31409.99
493.54	31480.21
493.72	31665.11
493.90	31814.90
494.08	32212.79
494.25	31948.31
494.43	32217.47
494.61	32559.19
494.79	32849.42
494.96	33123.26
495.14	32910.27
495.32	33645.20
495.49	33628.82
495.67	33282.42
495.85	33570.30
496.02	34220.97
496.20	34366.09
496.38	34043.09
496.55	34579.07
496.73	34998.03
496.91	34796.74
497.09	35543.38
497.26	35536.35
497.44	35379.54
497.62	35901.48
497.79	36102.76
497.97	35880.41
498.14	36355.54
498.32	36369.58
498.50	36540.44
498.67	37209.84
498.85	36694.92
499.03	37338.57
499.20	36989.83
499.38	37076.43
499.56	37361.97
499.73	37701.35
499.91	37689.65
500.08	38124.99
500.26	38085.20
500.44	37947.11
500.61	38220.95
500.79	38251.38
500.97	38541.60
501.14	38677.35
501.32	39124.40
501.49	39306.96
501.67	39178.23
501.84	39225.04
502.02	39199.29
502.20	39257.81
502.37	39660.38
502.55	39477.82
502.72	39578.46
502.90	40133.17
503.07	39517.60
503.25	40289.98
503.43	39908.47
503.60	40388.28
503.78	40421.05
503.95	40858.73
504.13	40542.76
504.30	40842.35
504.48	40645.74
504.65	41256.62
504.83	41497.70
505.01	41551.53
505.18	41495.36
505.36	41841.76
505.53	41528.13
505.71	42167.09
505.88	42433.91
506.06	41537.49
506.23	42443.27
506.41	42157.73
506.58	42553.28
506.76	42389.44
506.93	43192.25
507.11	42820.10
507.28	43215.65
507.46	43171.18
507.63	43414.60
507.81	43739.93
507.98	43646.31
508.16	43225.01
508.33	43683.76
508.50	43920.15
508.68	44231.44
508.85	44512.31
509.03	43922.49
509.20	44313.36
509.38	44467.84
509.55	44772.11
509.73	44601.25
509.90	45038.93
510.08	44839.98
510.25	44982.76
510.42	45067.02
510.60	45324.47
510.77	45734.07
510.95	45951.74
511.12	45450.86
511.30	45633.42
511.47	45890.88
511.64	46253.67
511.82	46291.12
511.99	45675.55
512.17	46487.72
512.34	46548.57
512.51	46579.00
512.69	46817.74
512.86	46422.19
513.04	46696.03
513.21	46773.27
513.38	46897.31
513.56	47227.33
513.73	47250.74
513.90	47302.23
514.08	47461.38
514.25	47559.69
514.43	48030.13
514.60	47749.27
514.77	47725.86
514.95	48114.39
515.12	47826.51
515.29	47950.56
515.47	48411.64
515.64	48233.76
515.81	48343.77
515.99	48355.47
516.16	48584.84
516.33	48575.48
516.51	48882.09
516.68	48940.60
516.85	49097.42
517.03	49076.35
517.20	49612.34
517.37	48914.86
517.54	49244.87
517.72	49434.45
517.89	49184.02
518.06	49427.43
518.24	49535.10
518.41	49237.85
518.58	50073.42
518.75	49411.05
518.93	50050.02
519.10	49947.03
519.27	50106.19
519.45	49979.80
519.62	50244.28
519.79	50288.75
519.96	50494.72
520.14	50787.28
520.31	50300.45
520.48	50859.84
520.65	50838.78
520.83	51257.73
521.00	51119.64
521.17	50862.18
521.34	51075.17
521.52	51100.92
521.69	50974.53
521.86	51231.99
522.03	51594.77
522.20	51847.55
522.38	52163.52
522.55	51686.05
522.72	51643.92
522.89	51496.47
523.07	52320.34
523.24	51833.50
523.41	51987.98
523.58	51908.40
523.75	52030.11
523.92	52212.67
524.10	52360.12
524.27	52357.78
524.44	52542.69
524.61	52289.91
524.78	52479.49
524.96	52374.17
525.13	52409.28
525.30	52774.40
525.47	52779.08
525.64	52825.89
525.81	52924.19
525.98	53160.59
526.16	52875.04
526.33	52830.57
526.50	53474.22
526.67	53116.12
526.84	53230.80
527.01	53085.69
527.18	53001.43
527.36	53172.29
527.53	53588.91
527.70	53574.86
527.87	53621.67
528.04	53277.61
528.21	53764.45
528.38	53528.05
528.55	53670.82
528.72	53918.92
528.89	53907.22
529.07	53806.58
529.24	53689.55
529.41	54005.52
529.58	54075.74
529.75	53750.40
529.92	54136.59
530.09	54035.95
530.26	54342.56
530.43	54262.98
530.60	54129.57
530.77	54429.16
530.94	54515.76
531.11	54293.41
531.28	54850.45
531.46	54417.46
531.63	54216.17
531.80	54529.80
531.97	54560.23
532.14	54873.86
532.31	54698.32
532.48	54735.77
532.65	54904.29
532.82	54803.64
532.99	54951.10
533.16	54787.26
533.33	55082.17
533.50	55157.06
533.67	55096.21
533.84	55065.78
534.01	55042.38
534.18	55164.09
534.35	55458.99
534.52	55398.14
534.69	55344.31
534.86	55482.40
535.03	55002.59
535.20	55332.60
535.37	55709.43
535.54	55580.70
535.71	55402.82
535.88	55625.17
536.05	55929.44
536.22	55604.11
536.38	55917.74
536.55	55697.73
536.72	55908.38
536.89	55742.20
537.06	55840.50
537.23	56261.80
537.40	55884.97
537.57	55917.74
537.74	55971.57
537.91	56437.34
538.08	56212.65
538.25	55987.95
538.42	56226.69
538.59	56493.51
538.75	56306.27
538.92	56229.03
539.09	56624.58
539.26	56172.86
539.43	56453.72
539.60	56451.38
539.77	56664.37
539.94	56825.87
540.11	56736.93
540.28	57064.60
540.44	56727.56
540.61	56809.48
540.78	56542.66
540.95	56598.83
541.12	56760.33
541.29	56624.58
541.46	56741.61
541.62	56975.66
541.79	56694.80
541.96	56526.28
542.13	56788.42
542.30	57069.28
542.47	57361.85
542.63	56989.70
542.80	57069.28
542.97	57308.02
543.14	57476.54
543.31	57378.23
543.48	57563.14
543.64	57750.38
543.81	57642.71
543.98	57528.03
544.15	57607.61
544.32	57663.78
544.48	57946.98
544.65	57696.55
544.82	57799.53
544.99	57420.36
545.16	57921.24
545.32	57846.34
545.49	57951.66
545.66	57771.44
545.83	58181.04
546.00	58031.24
546.16	57961.03
546.33	57741.02
546.50	57738.68
546.67	57944.64
546.83	57764.42
547.00	57886.13
547.17	58295.72
547.34	58101.46
547.50	58241.89
547.67	58379.98
547.84	58122.52
548.00	58284.02
548.17	58443.18
548.34	58377.64
548.51	58424.45
548.67	58489.99
548.84	58403.39
549.01	58136.57
549.18	58408.07
549.34	58527.44
549.51	58550.84
549.68	58375.30
549.84	58677.23
550.01	58445.52
550.18	58677.23
550.34	58798.94
550.51	58801.28
550.68	58468.92
550.84	58513.39
551.01	58873.84
551.18	58693.61
551.34	58834.05
551.51	58941.71
551.68	58918.31
551.84	58782.55
552.01	58808.30
552.18	58766.17
552.34	58770.85
552.51	59070.44
552.68	58838.73
552.84	58817.66
553.01	59250.66
553.18	59145.34
553.34	59260.02
553.51	59049.38
553.67	59154.70
553.84	59011.93
554.01	59044.69
554.17	59302.15
554.34	59304.49
554.51	59220.23
554.67	59143.00
554.84	59114.91
555.00	59189.81
555.17	59063.42
555.33	59334.92
555.50	58993.20
555.67	59201.51
555.83	59306.83
556.00	59510.46
556.16	59580.68
556.33	59625.15
556.50	59391.09
556.66	59508.12
556.83	59435.56
556.99	59573.66
557.16	59887.29
557.32	59641.53
557.49	59805.37
557.65	59641.53
557.82	59608.76
557.98	59730.47
558.15	59533.87
558.32	59531.53
558.48	59475.35
558.65	59566.63
558.81	59739.83
558.98	59821.75
559.14	59959.84
559.31	59969.21
559.47	59936.44
559.64	60116.66
559.80	59913.03
559.97	59938.78
560.13	59629.83
560.30	60161.13
560.46	60095.60
560.63	60168.15
560.79	60004.31
560.96	60144.75
561.12	60018.36
561.29	60107.30
561.45	59910.69
561.61	60076.87
561.78	60196.24
561.94	59910.69
562.11	59814.73
562.27	60044.10
562.44	60266.45
562.60	60177.51
562.77	60289.86
562.93	60016.02
563.10	60156.45
563.26	60034.74
563.42	60360.08
563.59	60266.45
563.75	60278.16
563.92	60308.58
564.08	60271.14
564.24	60243.05
564.41	60231.35
564.57	60292.20
564.74	60186.88
564.90	60385.82
565.07	60341.35
565.23	60554.34
565.39	60449.02
565.56	60580.09
565.72	60397.52
565.88	60388.16
566.05	60449.02
566.21	60346.03
566.38	60449.02
566.54	60528.59
566.70	60458.38
566.87	60692.43
567.03	60327.31
567.19	60732.22
567.36	60432.63
567.52	60460.72
567.68	60921.80
567.85	60402.21
568.01	60669.03
568.17	60437.31
568.34	60582.43
568.50	60339.01
568.66	60544.98
568.83	60566.04
568.99	60741.58
569.15	60474.76
569.32	60631.58
569.48	60736.90
569.64	60732.22
569.81	60708.82
569.97	60640.94
570.13	60748.60
570.30	60484.12
570.46	60694.77
570.62	60734.56
570.78	60760.31
570.95	60617.53
571.11	60863.29
571.27	60800.10
571.43	60877.33
571.60	60828.18
571.76	60739.24
571.92	60683.07
572.09	60823.50
572.25	60851.59
572.41	60783.71
572.57	60743.92
572.74	61162.88
572.90	60821.16
573.06	60750.94
573.22	60816.48
573.38	60886.70
573.55	61045.85
573.71	61020.11
573.87	60982.66
574.03	60835.20
574.20	61102.03
574.36	60851.59
574.52	60807.12
574.68	61029.47
574.84	61064.58
575.01	60903.08
575.17	61148.84
575.33	60867.97
575.49	60912.44
575.65	61029.47
575.82	61083.30
575.98	60970.96
576.14	61317.35
576.30	61062.24
576.46	60992.02
576.62	60846.91
576.79	60926.49
576.95	60762.65
577.11	60980.32
577.27	61034.15
577.43	61024.79
577.59	61062.24
577.75	60898.40
577.92	60942.87
578.08	61006.06
578.24	61078.62
578.40	61270.54
578.56	61174.58
578.72	61055.21
578.88	61263.52
579.04	61165.22
579.21	60975.64
579.37	61153.52
579.53	61289.27
579.69	61172.24
579.85	61165.22
580.01	61181.60
580.17	60912.44
580.33	61071.60
580.49	61254.16
580.65	61132.45
580.82	60865.63
580.98	60912.44
581.14	60963.93
581.30	61240.12
581.46	61102.03
581.62	61200.33
581.78	61223.73
581.94	61130.11
582.10	61144.16
582.26	61055.21
582.42	61078.62
582.58	61256.50
582.74	61071.60
582.90	60996.70
583.06	61158.20
583.22	61015.43
583.38	61097.34
583.54	61277.57
583.70	61249.48
583.86	61251.82
584.02	60959.25
584.18	61219.05
584.34	61235.44
584.50	61155.86
584.66	61022.45
584.82	61237.78
584.98	61389.91
585.14	61240.12
585.30	61041.17
585.46	61277.57
585.62	61195.65
585.78	61247.14
585.94	61057.56
586.10	61209.69
586.26	61134.79
586.42	61359.48
586.58	61310.33
586.74	61406.30
586.90	61307.99
587.06	61205.01
587.22	61174.58
587.38	61357.14
587.54	61380.55
587.70	61418.00
587.86	61471.83
588.02	61258.84
588.18	61296.29
588.34	61216.71
588.49	61214.37
