SpectraSuite Data File
++++++++++++++++++++++++++++++++++++
Date: Fri Oct 25 11:26:27 EDT 2013
User: price-jones
Dark Spectrum Present: No
Reference Spectrum Present: No
Number of Sampled Component Spectra: 1
Spectrometers: USB2+H05261
Integration Time (usec): 100000 (USB2+H05261)
Spectra Averaged: 1 (USB2+H05261)
Boxcar Smoothing: 0 (USB2+H05261)
Correct for Electrical Dark: No (USB2+H05261)
Strobe/Lamp Enabled: No (USB2+H05261)
Correct for Detector Non-linearity: No (USB2+H05261)
Correct for Stray Light: No (USB2+H05261)
Number of Pixels in Processed Spectrum: 2048
>>>>>Begin Processed Spectral Data<<<<<
365.73	217.67
365.92	217.67
366.12	217.67
366.32	102.98
366.52	145.11
366.72	243.42
366.91	152.13
367.11	161.50
367.31	145.11
367.51	133.41
367.70	147.45
367.90	203.63
368.10	180.22
368.30	159.16
368.49	79.58
368.69	142.77
368.89	133.41
369.09	159.16
369.28	149.79
369.48	161.50
369.68	163.84
369.87	170.86
370.07	194.26
370.27	241.08
370.47	299.59
370.66	540.66
370.86	610.88
371.06	631.94
371.25	702.16
371.45	699.82
371.65	704.50
371.84	664.71
372.04	692.80
372.24	711.52
372.44	671.73
372.63	788.76
372.83	732.59
373.03	760.67
373.22	751.31
373.42	779.40
373.62	746.63
373.81	734.93
374.01	837.91
374.21	908.13
374.40	770.04
374.60	837.91
374.79	814.51
374.99	866.00
375.19	812.17
375.38	861.32
375.58	880.04
375.78	873.02
375.97	837.91
376.17	858.98
376.37	917.49
376.56	856.64
376.76	922.17
376.95	894.08
377.15	940.90
377.35	903.45
377.54	957.28
377.74	837.91
377.93	940.90
378.13	887.06
378.33	903.45
378.52	910.47
378.72	1011.11
378.91	1013.45
379.11	887.06
379.31	933.87
379.50	905.79
379.70	973.66
379.89	938.55
380.09	908.13
380.28	1020.47
380.48	976.00
380.68	1022.81
380.87	1102.39
381.07	1001.75
381.26	983.02
381.46	1032.18
381.65	1018.13
381.85	990.05
382.04	1032.18
382.24	1043.88
382.43	1123.46
382.63	957.28
382.83	1144.52
383.02	1083.67
383.22	1174.95
383.41	1142.18
383.61	1149.20
383.80	1144.52
384.00	1149.20
384.19	1144.52
384.39	1170.27
384.58	1123.46
384.78	1146.86
384.97	1177.29
385.17	1158.57
385.36	1104.73
385.56	1207.72
385.75	1212.40
385.95	1139.84
386.14	1165.59
386.34	1212.40
386.53	1160.91
386.72	1284.95
386.92	1210.06
387.11	1191.33
387.31	1233.46
387.50	1214.74
387.70	1294.32
387.89	1291.98
388.09	1224.10
388.28	1261.55
388.48	1287.29
388.67	1240.48
388.86	1247.51
389.06	1366.87
389.25	1371.55
389.45	1315.38
389.64	1359.85
389.84	1362.19
390.03	1427.73
390.22	1355.17
390.42	1479.22
390.61	1352.83
390.81	1399.64
391.00	1411.34
391.19	1397.30
391.39	1397.30
391.58	1439.43
391.78	1378.58
391.97	1458.15
392.16	1430.07
392.36	1481.56
392.55	1483.90
392.75	1488.58
392.94	1458.15
393.13	1554.12
393.33	1526.03
393.52	1586.88
393.71	1575.18
393.91	1614.97
394.10	1621.99
394.29	1561.14
394.49	1593.90
394.68	1694.55
394.88	1629.01
395.07	1650.08
395.26	1551.78
395.46	1696.89
395.65	1727.32
395.84	1746.04
396.04	1776.47
396.23	1631.35
396.42	1736.68
396.62	1767.10
396.81	1785.83
397.00	1741.36
397.19	1764.76
397.39	1757.74
397.58	1823.28
397.77	1830.30
397.97	1858.39
398.16	1865.41
398.35	1916.90
398.55	1937.96
398.74	1907.54
398.93	1980.09
399.12	1947.33
399.32	1942.64
399.51	1900.52
399.70	1980.09
399.90	1989.46
400.09	2038.61
400.28	1909.88
400.47	2052.65
400.67	1987.11
400.86	1994.14
401.05	2101.80
401.24	2155.63
401.44	2186.06
401.63	2165.00
401.82	2090.10
402.01	2062.01
402.21	2172.02
402.40	2249.25
402.59	2115.84
402.78	2172.02
402.97	2200.10
403.17	2104.14
403.36	2214.15
403.55	2326.49
403.74	2448.20
403.93	2289.04
404.13	2347.56
404.32	2312.45
404.51	2427.14
404.70	2389.69
404.89	2363.94
405.09	2558.21
405.28	2420.11
405.47	2340.54
405.66	2588.63
405.85	2544.16
406.05	2480.97
406.24	2565.23
406.43	2663.53
406.62	2654.17
406.81	2640.12
407.00	2605.02
407.20	2534.80
407.39	2555.86
407.58	2644.81
407.77	2794.60
407.96	2827.37
408.15	2700.98
408.34	2700.98
408.54	2731.41
408.73	2710.34
408.92	2862.48
409.11	2740.77
409.30	2801.62
409.49	2878.86
409.68	2827.37
409.87	2888.22
410.07	2930.35
410.26	2923.33
410.45	3009.93
410.64	2918.65
410.83	3056.74
411.02	3061.42
411.21	3141.00
411.40	3222.92
411.59	3169.09
411.78	3173.77
411.98	3206.53
412.17	3201.85
412.36	3370.37
412.55	3358.67
412.74	3372.71
412.93	3396.12
413.12	3279.09
413.31	3541.23
413.50	3396.12
413.69	3480.38
413.88	3571.66
414.07	3578.68
414.26	3602.08
414.45	3595.06
414.64	3541.23
414.83	3791.67
415.02	3639.53
415.22	3721.45
415.41	3885.29
415.60	3852.52
415.79	3843.16
415.98	4011.68
416.17	3950.82
416.36	3927.42
416.55	4049.13
416.74	4028.06
416.93	3990.61
417.12	4133.39
417.31	4086.58
417.50	4074.87
417.69	4271.48
417.88	4203.60
418.07	4322.97
418.26	4294.88
418.45	4337.01
418.64	4489.15
418.83	4306.59
419.02	4418.93
419.21	4304.25
419.39	4472.76
419.58	4461.06
419.77	4428.29
419.96	4561.70
420.15	4512.55
420.34	4435.32
420.53	4535.96
420.72	4697.46
420.91	4652.98
421.10	4734.90
421.29	4819.16
421.48	4608.51
421.67	4713.84
421.86	4905.76
422.05	4648.30
422.24	4674.05
422.43	4863.63
422.61	4912.78
422.80	4702.14
422.99	4954.91
423.18	4922.15
423.37	5074.28
423.56	4947.89
423.75	4744.27
423.94	4807.46
424.13	4594.47
424.32	4753.63
424.50	4957.25
424.69	4908.10
424.88	5109.39
425.07	4844.91
425.26	4891.72
425.45	5064.92
425.64	4898.74
425.83	5032.15
426.01	5050.88
426.20	4964.28
426.39	4917.47
426.58	5097.69
426.77	4980.66
426.96	5022.79
427.15	5097.69
427.33	5130.45
427.52	5116.41
427.71	5296.63
427.90	5163.22
428.09	5247.48
428.28	5352.81
428.46	5345.78
428.65	5327.06
428.84	5516.64
429.03	5600.90
429.22	5305.99
429.40	5355.15
429.59	5516.64
429.78	5296.63
429.97	5158.54
430.16	5357.49
430.34	5561.11
430.53	5664.10
430.72	5664.10
430.91	5631.33
431.10	5661.76
431.28	5738.99
431.47	5799.85
431.66	5827.93
431.85	5717.93
432.03	5874.74
432.22	5919.21
432.41	5783.46
432.60	5942.62
432.79	5996.45
432.97	5888.79
433.16	6019.86
433.35	6057.31
433.54	5970.71
433.72	5954.32
433.91	6064.33
434.10	6160.29
434.28	6181.35
434.47	6164.97
434.66	6310.08
434.85	6183.70
435.03	6260.93
435.22	6146.25
435.41	6511.37
435.59	6352.21
435.78	6455.20
435.97	6422.43
436.16	6464.56
436.34	6518.39
436.53	6506.69
436.72	6696.27
436.90	6321.79
437.09	6541.80
437.28	6499.67
437.46	6534.78
437.65	6607.33
437.84	6738.40
438.02	6523.07
438.21	6794.58
438.40	6616.69
438.58	7012.24
438.77	7096.50
438.96	6972.46
439.14	7016.93
439.33	7037.99
439.52	7098.84
439.70	7148.00
439.89	7258.00
440.08	7302.47
440.26	7482.69
440.45	7428.86
440.63	7316.51
440.82	7623.12
441.01	7414.82
441.19	7564.61
441.38	7737.81
441.57	7742.49
441.75	7641.85
441.94	7740.15
442.12	7887.61
442.31	7906.33
442.50	7906.33
442.68	7801.01
442.87	8098.25
443.05	8081.87
443.24	7999.95
443.43	7999.95
443.61	8259.75
443.80	8505.51
443.98	7955.48
444.17	7894.63
444.35	8259.75
444.54	8320.60
444.73	8290.18
444.91	8393.16
445.10	8126.34
445.28	7927.39
445.47	8100.59
445.65	8489.12
445.84	8461.04
446.02	8311.24
446.21	8140.38
446.39	8322.94
446.58	8465.72
446.77	8393.16
446.95	8208.26
447.14	8266.77
447.32	8353.37
447.51	8446.99
447.69	8388.48
447.88	8409.54
448.06	8477.42
448.25	8336.99
448.43	8482.10
448.62	8578.06
448.80	8472.74
448.99	8631.90
449.17	8931.48
449.36	8248.05
449.54	8753.60
449.73	8882.33
449.91	8968.93
450.10	8894.04
450.28	8947.87
450.46	8777.01
450.65	8884.67
450.83	8746.58
451.02	9149.15
451.20	9067.24
451.39	9130.43
451.57	9081.28
451.76	9055.53
451.94	8978.30
452.13	9294.27
452.31	9418.32
452.49	9085.96
452.68	9343.42
452.86	9149.15
453.05	9420.66
453.23	9444.06
453.42	9462.79
453.60	9277.88
453.78	9444.06
453.97	9336.40
454.15	9397.25
454.34	9334.06
454.52	9729.61
454.70	9652.37
454.89	9741.31
455.07	9652.37
455.26	9715.56
455.44	10174.31
455.62	9853.66
455.81	9841.95
455.99	9912.17
456.17	9947.28
456.36	10071.33
456.54	10178.99
456.73	10200.05
456.91	10436.45
457.09	10490.28
457.28	10523.05
457.46	10218.78
457.64	10382.62
457.83	10626.03
458.01	10221.12
458.19	10733.70
458.38	10401.34
458.56	10745.40
458.74	10871.79
458.93	10436.45
459.11	10548.79
459.29	10698.59
459.48	10759.44
459.66	10539.43
459.84	10909.24
460.03	11080.10
460.21	10878.81
460.39	10953.71
460.57	10932.64
460.76	11047.33
460.94	11229.89
461.12	11009.88
461.31	10752.42
461.49	11049.67
461.67	11056.69
461.85	11634.80
462.04	11325.85
462.22	11688.64
462.40	11435.86
462.59	11473.31
462.77	11386.71
462.95	11475.65
463.13	11499.05
463.32	11777.58
463.50	11751.83
463.68	11967.16
463.86	11768.21
464.05	11723.74
464.23	11758.85
464.41	11868.86
464.59	11695.66
464.78	12058.44
464.96	12107.59
465.14	11651.19
465.32	12189.51
465.50	11927.37
465.69	12212.92
465.87	12191.85
466.05	12086.53
466.23	12114.61
466.41	12032.69
466.60	12556.97
466.78	12147.38
466.96	12187.17
467.14	12603.78
467.32	12411.86
467.51	12617.83
467.69	12191.85
467.87	12521.87
468.05	12397.82
468.23	12138.02
468.41	12472.71
468.60	12531.23
468.78	12521.87
468.96	12610.81
469.14	12767.62
469.32	12837.84
469.50	12716.13
469.69	12933.80
469.87	12826.14
470.05	13114.02
470.23	12968.91
470.41	13186.58
470.59	13242.75
470.77	13053.17
470.95	13357.44
471.14	13343.39
471.32	12863.58
471.50	13469.78
471.68	13359.78
471.86	13579.79
472.04	13701.50
472.22	13970.66
472.40	13650.00
472.58	13717.88
472.77	13689.79
472.95	14242.16
473.13	14642.39
473.31	13973.00
473.49	13893.42
473.67	13865.33
473.85	14230.46
474.03	14544.09
474.21	14459.83
474.39	14698.56
474.57	14553.45
474.75	14703.25
474.93	14871.76
475.12	14923.26
475.30	15068.37
475.48	14834.32
475.66	15222.84
475.84	14974.75
476.02	15300.08
476.20	15232.21
476.38	15260.29
476.56	16013.95
476.74	15810.32
476.92	15880.53
477.10	15709.68
477.28	16095.86
477.46	16051.39
477.64	16074.80
477.82	16629.51
478.00	16786.32
478.18	16669.30
478.36	16676.32
478.54	16767.60
478.72	16870.58
478.90	16973.56
479.08	17277.83
479.26	17493.16
479.44	17675.73
479.62	17661.68
479.80	17823.18
479.98	17956.59
480.16	18670.45
480.34	18237.45
480.52	18333.42
480.70	18370.86
480.88	18422.36
481.06	18581.51
481.24	18787.48
481.41	18944.30
481.59	19047.28
481.77	19131.54
481.95	19484.96
482.13	19543.47
482.31	19583.26
482.49	20112.22
482.67	20013.92
482.85	20283.08
483.03	20283.08
483.21	20535.86
483.39	20870.56
483.57	20989.92
483.74	21041.42
483.92	21226.32
484.10	20973.54
484.28	21750.60
484.46	21986.99
484.64	22377.86
484.82	22118.06
485.00	22160.19
485.18	22499.57
485.35	22977.04
485.53	22583.83
485.71	22733.62
485.89	23477.91
486.07	23190.03
486.25	23103.43
486.43	23541.11
486.61	23793.89
486.78	24032.62
486.96	24056.03
487.14	24278.38
487.32	24226.89
487.50	24847.13
487.68	24582.65
487.85	25057.78
488.03	25357.36
488.21	25603.12
488.39	25771.64
488.57	26017.40
488.75	26087.61
488.92	25701.42
489.10	26574.44
489.28	26555.72
489.46	27012.12
489.64	26841.26
489.81	27360.86
489.99	27688.54
490.17	27276.60
490.35	28084.09
490.53	27938.97
490.70	27934.29
490.88	28411.76
491.06	28835.40
491.24	28589.64
491.41	28823.70
491.59	28966.47
491.77	29060.09
491.95	29434.58
492.13	29640.54
492.30	30010.35
492.48	29919.07
492.66	30003.33
492.84	30279.51
493.01	30464.41
493.19	30419.94
493.37	30820.17
493.54	30815.49
493.72	31189.98
493.90	31182.96
494.08	31267.22
494.25	31662.77
494.43	31927.25
494.61	31835.97
494.79	32290.03
494.96	32266.63
495.14	32608.34
495.32	32514.72
495.49	33046.02
495.67	33132.62
495.85	33020.28
496.02	33317.53
496.20	33785.63
496.38	34040.75
496.55	34003.30
496.73	34244.38
496.91	34256.08
497.09	34572.05
497.26	34689.08
497.44	34682.06
497.62	35241.45
497.79	35505.93
497.97	35529.33
498.14	35487.20
498.32	35669.76
498.50	35875.73
498.67	36566.19
498.85	35999.78
499.03	36472.57
499.20	36381.29
499.38	36638.75
499.56	37329.20
499.73	36877.48
499.91	36947.70
500.08	37041.32
500.26	37497.72
500.44	37380.70
500.61	37083.45
500.79	37319.84
500.97	37720.07
501.14	38342.66
501.32	38288.82
501.49	38398.83
501.67	38445.64
501.84	38377.76
502.02	38998.01
502.20	38848.21
502.37	39112.69
502.55	38794.38
502.72	38859.91
502.90	39257.81
503.07	39189.93
503.25	39618.25
503.43	39632.29
503.60	39620.59
503.78	40025.50
503.95	39887.41
504.13	40322.75
504.30	40339.13
504.48	39948.26
504.65	40694.89
504.83	40996.82
505.01	41375.99
505.18	40851.71
505.36	41223.86
505.53	41006.19
505.71	41284.71
505.88	41366.63
506.06	41720.05
506.23	41750.48
506.41	41801.97
506.58	41661.54
506.76	42185.82
506.93	42293.48
507.11	41989.21
507.28	42064.11
507.46	42717.12
507.63	42909.04
507.81	42787.33
507.98	42768.61
508.16	43297.57
508.33	42939.47
508.50	43438.00
508.68	43524.60
508.85	43894.41
509.03	43351.40
509.20	43480.13
509.38	44027.82
509.55	43906.11
509.73	44121.44
509.90	44332.09
510.08	44006.75
510.25	44339.11
510.42	44734.66
510.60	44479.54
510.77	45441.50
510.95	45235.53
511.12	44882.11
511.30	45277.66
511.47	45357.24
511.64	45244.90
511.82	45504.70
511.99	45137.23
512.17	45881.52
512.34	45696.62
512.51	45731.73
512.69	46314.52
512.86	46010.25
513.04	46174.09
513.21	46117.92
513.38	46588.36
513.56	47042.43
513.73	46803.69
513.90	46944.12
514.08	47239.03
514.25	47267.12
514.43	47068.17
514.60	47189.88
514.77	46894.97
514.95	47484.79
515.12	47250.74
515.29	46876.25
515.47	47674.37
515.64	47868.64
515.81	47622.88
515.99	47716.50
516.16	48013.75
516.33	48287.59
516.51	48615.27
516.68	48364.83
516.85	48413.98
517.03	48666.76
517.20	48622.29
517.37	48268.87
517.54	48596.54
517.72	48442.07
517.89	48910.17
518.06	48657.40
518.24	49022.52
518.41	49195.72
518.58	49071.67
518.75	49062.31
518.93	49415.73
519.10	49020.18
519.27	49720.00
519.45	49338.49
519.62	49610.00
519.79	49818.30
519.96	49638.08
520.14	50162.36
520.31	50150.66
520.48	50131.93
520.65	49855.75
520.83	50363.65
521.00	50209.17
521.17	49998.52
521.34	50562.59
521.52	50485.36
521.69	50726.43
521.86	51119.64
522.03	50803.67
522.20	51131.34
522.38	50979.21
522.55	50927.72
522.72	51143.05
522.89	51075.17
523.07	51133.68
523.24	51098.58
523.41	51562.00
523.58	51615.83
523.75	51765.63
523.92	51313.90
524.10	51847.55
524.27	51810.10
524.44	51529.23
524.61	51800.74
524.78	52006.70
524.96	52002.02
525.13	52165.86
525.30	52271.18
525.47	52315.65
525.64	52030.11
525.81	52289.91
525.98	52411.62
526.16	52430.34
526.33	52238.42
526.50	52945.26
526.67	52762.70
526.84	52765.04
527.01	52858.66
527.18	52596.52
527.36	52821.21
527.53	53113.78
527.70	53202.72
527.87	53176.97
528.04	53001.43
528.21	53200.38
528.38	53214.42
528.55	53457.84
528.72	53338.47
528.89	53497.62
529.07	53020.16
529.24	53186.33
529.41	53382.94
529.58	53389.96
529.75	53312.72
529.92	53322.08
530.09	53389.96
530.26	53853.39
530.43	53701.25
530.60	53574.86
530.77	53808.92
530.94	54223.19
531.11	53656.78
531.28	53928.28
531.46	53930.62
531.63	54195.10
531.80	54181.06
531.97	54082.76
532.14	54127.23
532.31	54270.00
532.48	54302.77
532.65	54625.76
532.82	54464.27
532.99	54674.91
533.16	54281.70
533.33	54513.42
533.50	54918.33
533.67	54536.82
533.84	54541.50
534.01	54873.86
534.18	54714.70
534.35	54937.05
534.52	54738.11
534.69	54923.01
534.86	55238.98
535.03	54805.98
535.20	55068.12
535.37	55196.85
535.54	55171.11
535.71	54995.57
535.88	55344.31
536.05	55463.67
536.22	55241.32
536.38	55337.29
536.55	55150.04
536.72	55561.98
536.89	55674.32
537.06	55363.03
537.23	55585.38
537.40	55381.76
537.57	55395.80
537.74	55599.43
537.91	55765.60
538.08	55774.97
538.25	55391.12
538.42	55339.63
538.59	56055.83
538.75	55732.84
538.92	55634.53
539.09	56037.11
539.26	55875.61
539.43	55896.67
539.60	55980.93
539.77	55978.59
539.94	56093.28
540.11	56226.69
540.28	56378.82
540.44	56353.08
540.61	56348.40
540.78	56102.64
540.95	56505.21
541.12	56198.60
541.29	56355.42
541.46	56559.05
541.62	56582.45
541.79	56680.75
541.96	56369.46
542.13	56437.34
542.30	56507.55
542.47	56718.20
542.63	56591.81
542.80	56772.03
542.97	56968.64
543.14	57174.61
543.31	56942.89
543.48	57106.73
543.64	57055.24
543.81	57303.34
543.98	57031.83
544.15	57102.05
544.32	57261.21
544.48	57488.24
544.65	57179.29
544.82	57268.23
544.99	57118.43
545.16	57457.81
545.32	57308.02
545.49	57506.96
545.66	57799.53
545.83	57387.60
546.00	57485.90
546.16	57462.49
546.33	57443.77
546.50	57275.25
546.67	57301.00
546.83	57460.15
547.00	57647.39
547.17	57368.87
547.34	57682.50
547.50	57703.57
547.67	57783.15
547.84	57958.69
548.00	57790.17
548.17	58232.53
548.34	57820.59
548.51	57993.79
548.67	58185.72
548.84	57900.17
549.01	57785.49
549.18	57787.83
549.34	58066.35
549.51	58195.08
549.68	58195.08
549.84	58138.91
550.01	58363.60
550.18	58185.72
550.34	58326.15
550.51	58305.09
550.68	58326.15
550.84	58019.54
551.01	58356.58
551.18	58319.13
551.34	58131.89
551.51	58410.41
551.68	58487.65
551.84	58642.12
552.01	58426.79
552.18	58323.81
552.34	58389.34
552.51	58567.23
552.68	58372.96
552.84	58546.16
553.01	58728.72
553.18	58674.89
553.34	58681.91
553.51	58724.04
553.67	58567.23
553.84	58784.90
554.01	58841.07
554.17	58892.56
554.34	59051.72
554.51	58698.30
554.67	58873.84
554.84	58749.79
555.00	58920.65
555.17	58794.26
555.33	59004.91
555.50	58988.52
555.67	58822.34
555.83	58770.85
556.00	59082.14
556.16	59388.75
556.33	59206.19
556.50	59082.14
556.66	59182.79
556.83	58958.09
556.99	59365.35
557.16	59423.86
557.32	59206.19
557.49	59248.32
557.65	59051.72
557.82	59243.64
557.98	59189.81
558.15	59316.20
558.32	59206.19
558.48	59166.40
558.65	59334.92
558.81	59302.15
558.98	59330.24
559.14	59367.69
559.31	59395.77
559.47	59346.62
559.64	59491.74
559.80	59480.03
559.97	59543.23
560.13	59454.29
560.30	59456.63
560.46	59683.66
560.63	59550.25
560.79	59683.66
560.96	59704.73
561.12	59536.21
561.29	59587.70
561.45	59667.28
561.61	59611.10
561.78	59688.34
561.94	59578.34
562.11	59681.32
562.27	59573.66
562.44	59941.12
562.60	59838.14
562.77	59910.69
562.93	59714.09
563.10	60023.04
563.26	59781.96
563.42	59955.16
563.59	59671.96
563.75	59770.26
563.92	59868.56
564.08	59987.93
564.24	60016.02
564.41	59987.93
564.57	60060.49
564.74	59793.67
564.90	60076.87
565.07	60034.74
565.23	60158.79
565.39	60083.89
565.56	60116.66
565.72	60025.38
565.88	60158.79
566.05	59950.48
566.21	59910.69
566.38	60184.54
566.54	59964.52
566.70	60191.56
566.87	60151.77
567.03	60095.60
567.19	60313.26
567.36	60250.07
567.52	59938.78
567.68	60488.80
567.85	60292.20
568.01	60385.82
568.17	60165.81
568.34	60310.92
568.50	60353.05
568.66	60111.98
568.83	60364.76
568.99	60151.77
569.15	60378.80
569.32	60308.58
569.48	60090.91
569.64	60360.08
569.81	60275.82
569.97	60214.96
570.13	60107.30
570.30	60287.52
570.46	60381.14
570.62	60404.55
570.78	60123.68
570.95	60170.49
571.11	60294.54
571.27	60308.58
571.43	60542.64
571.60	60500.51
571.76	60505.19
571.92	60397.52
572.09	60556.68
572.25	60467.74
572.41	60451.36
572.57	60453.70
572.74	60470.08
572.90	60570.72
573.06	60467.74
573.22	60589.45
573.38	60500.51
573.55	60493.49
573.71	60821.16
573.87	60654.98
574.03	60411.57
574.20	60772.01
574.36	60472.42
574.52	60540.30
574.68	60413.91
574.84	60580.09
575.01	60608.17
575.17	60456.04
575.33	60563.70
575.49	60458.38
575.65	60509.87
575.82	60701.79
575.98	60605.83
576.14	60774.35
576.30	60797.76
576.46	60434.97
576.62	60390.50
576.79	60640.94
576.95	60617.53
577.11	60687.75
577.27	60601.15
577.43	60647.96
577.59	60383.48
577.75	60507.53
577.92	60465.40
578.08	60495.83
578.24	60851.59
578.40	60654.98
578.56	60863.29
578.72	60800.10
578.88	60832.86
579.04	60793.07
579.21	60727.54
579.37	60772.01
579.53	60589.45
579.69	60664.35
579.85	60804.78
580.01	60748.60
580.17	60692.43
580.33	60722.86
580.49	61017.77
580.65	60905.42
580.82	60809.46
580.98	60863.29
581.14	60636.26
581.30	60772.01
581.46	60924.14
581.62	60882.02
581.78	60470.08
581.94	60603.49
582.10	60860.95
582.26	60779.03
582.42	60797.76
582.58	60818.82
582.74	60755.63
582.90	60629.24
583.06	60835.20
583.22	60687.75
583.38	60793.07
583.54	60715.84
583.70	60919.46
583.86	60715.84
584.02	60692.43
584.18	60715.84
584.34	60846.91
584.50	60802.44
584.66	60788.39
584.82	60584.77
584.98	60945.21
585.14	60821.16
585.30	60769.67
585.46	60666.69
585.62	60743.92
585.78	61041.17
585.94	60757.97
586.10	60687.75
586.26	60889.04
586.42	60982.66
586.58	60933.51
586.74	60973.30
586.90	60921.80
587.06	60935.85
587.22	61062.24
587.38	60856.27
587.54	61010.74
587.70	61024.79
587.86	60942.87
588.02	60921.80
588.18	61087.98
588.34	60935.85
588.49	60907.76
