SpectraSuite Data File
++++++++++++++++++++++++++++++++++++
Date: Fri Oct 25 11:23:49 EDT 2013
User: price-jones
Dark Spectrum Present: No
Reference Spectrum Present: No
Number of Sampled Component Spectra: 1
Spectrometers: USB2+H05261
Integration Time (usec): 100000 (USB2+H05261)
Spectra Averaged: 1 (USB2+H05261)
Boxcar Smoothing: 0 (USB2+H05261)
Correct for Electrical Dark: No (USB2+H05261)
Strobe/Lamp Enabled: No (USB2+H05261)
Correct for Detector Non-linearity: No (USB2+H05261)
Correct for Stray Light: No (USB2+H05261)
Number of Pixels in Processed Spectrum: 2048
>>>>>Begin Processed Spectral Data<<<<<
365.73	222.35
365.92	222.35
366.12	222.35
366.32	154.48
366.52	128.73
366.72	133.41
366.91	102.98
367.11	81.92
367.31	241.08
367.51	124.05
367.70	166.18
367.90	121.71
368.10	46.81
368.30	121.71
368.49	91.28
368.69	191.92
368.89	201.29
369.09	86.60
369.28	161.50
369.48	131.07
369.68	177.88
369.87	140.43
370.07	187.24
370.27	241.08
370.47	322.99
370.66	678.76
370.86	667.05
371.06	681.10
371.25	685.78
371.45	547.69
371.65	678.76
371.84	711.52
372.04	648.33
372.24	685.78
372.44	711.52
372.63	772.38
372.83	748.97
373.03	795.78
373.22	751.31
373.42	711.52
373.62	835.57
373.81	837.91
374.01	875.36
374.21	816.85
374.40	800.46
374.60	877.70
374.79	809.83
374.99	835.57
375.19	842.59
375.38	819.19
375.58	828.55
375.78	882.38
375.97	903.45
376.17	868.34
376.37	830.89
376.56	863.66
376.76	877.70
376.95	858.98
377.15	823.87
377.35	938.55
377.54	894.08
377.74	784.08
377.93	887.06
378.13	917.49
378.33	919.83
378.52	905.79
378.72	1015.79
378.91	1036.86
379.11	849.61
379.31	842.59
379.50	905.79
379.70	931.53
379.89	1001.75
380.09	922.17
380.28	987.71
380.48	917.49
380.68	1006.43
380.87	936.21
381.07	1039.20
381.26	976.00
381.46	1055.58
381.65	1018.13
381.85	1039.20
382.04	1048.56
382.24	1048.56
382.43	1022.81
382.63	999.41
382.83	1039.20
383.02	1102.39
383.22	1039.20
383.41	1100.05
383.61	1018.13
383.80	1151.54
384.00	1130.48
384.19	1102.39
384.39	1132.82
384.58	1107.07
384.78	1167.93
384.97	1205.38
385.17	1069.62
385.36	1125.80
385.56	1177.29
385.75	1144.52
385.95	1205.38
386.14	1198.35
386.34	1156.22
386.53	1137.50
386.72	1291.98
386.92	1287.29
387.11	1212.40
387.31	1254.53
387.50	1107.07
387.70	1219.42
387.89	1186.65
388.09	1308.36
388.28	1247.51
388.48	1245.16
388.67	1338.79
388.86	1299.00
389.06	1238.14
389.25	1350.49
389.45	1280.27
389.64	1317.72
389.84	1306.02
390.03	1390.28
390.22	1406.66
390.42	1338.79
390.61	1458.15
390.81	1364.53
391.00	1404.32
391.19	1411.34
391.39	1446.45
391.58	1493.26
391.78	1502.62
391.97	1483.90
392.16	1502.62
392.36	1542.41
392.55	1460.49
392.75	1474.54
392.94	1533.05
393.13	1528.37
393.33	1556.46
393.52	1558.80
393.71	1530.71
393.91	1469.86
394.10	1633.69
394.29	1605.61
394.49	1544.75
394.68	1645.40
394.88	1565.82
395.07	1720.29
395.26	1643.06
395.46	1636.03
395.65	1748.38
395.84	1743.70
396.04	1893.49
396.23	1797.53
396.42	1771.79
396.62	1827.96
396.81	1769.44
397.00	1727.32
397.19	1739.02
397.39	1863.07
397.58	1776.47
397.77	1802.21
397.97	1933.28
398.16	1874.77
398.35	1926.26
398.55	1863.07
398.74	1825.62
398.93	1947.33
399.12	1895.83
399.32	1916.90
399.51	1905.20
399.70	1973.07
399.90	1916.90
400.09	1984.77
400.28	2148.61
400.47	1977.75
400.67	2010.52
400.86	2143.93
401.05	2057.33
401.24	2122.87
401.44	2127.55
401.63	2174.36
401.82	2183.72
402.01	2129.89
402.21	2162.66
402.40	2176.70
402.59	2169.68
402.78	2305.43
402.97	2277.34
403.17	2251.60
403.36	2256.28
403.55	2162.66
403.74	2377.98
403.93	2478.63
404.13	2370.96
404.32	2354.58
404.51	2340.54
404.70	2480.97
404.89	2464.58
405.09	2502.03
405.28	2394.37
405.47	2473.95
405.66	2415.43
405.85	2469.27
406.05	2553.52
406.24	2593.31
406.43	2485.65
406.62	2726.72
406.81	2743.11
407.00	2677.57
407.20	2595.65
407.39	2658.85
407.58	2696.30
407.77	2747.79
407.96	2789.92
408.15	2766.51
408.34	2796.94
408.54	2803.96
408.73	2808.64
408.92	2822.69
409.11	2803.96
409.30	2963.12
409.49	2895.24
409.68	2899.92
409.87	2860.13
410.07	3049.72
410.26	3091.85
410.45	2991.20
410.64	3199.51
410.83	3098.87
411.02	3019.29
411.21	3155.04
411.40	3236.96
411.59	3110.57
411.78	3110.57
411.98	3236.96
412.17	3197.17
412.36	3286.11
412.55	3337.60
412.74	3428.88
412.93	3496.76
413.12	3358.67
413.31	3520.17
413.50	3449.95
413.69	3485.06
413.88	3602.08
414.07	3581.02
414.26	3559.95
414.45	3660.60
414.64	3637.19
414.83	3705.07
415.02	3899.33
415.22	3850.18
415.41	3967.21
415.60	3840.82
415.79	3875.93
415.98	3861.88
416.17	4021.04
416.36	3999.98
416.55	4084.23
416.74	4074.87
416.93	3999.98
417.12	4149.77
417.31	4077.21
417.50	4219.99
417.69	4337.01
417.88	4210.62
418.07	4280.84
418.26	4271.48
418.45	4344.03
418.64	4528.94
418.83	4355.74
419.02	4510.21
419.21	4475.10
419.39	4489.15
419.58	4440.00
419.77	4547.66
419.96	4479.79
420.15	4610.86
420.34	4624.90
420.53	4655.33
420.72	4704.48
420.91	4657.67
421.10	4748.95
421.29	4744.27
421.48	4648.30
421.67	4718.52
421.86	4793.42
422.05	4861.29
422.24	4798.10
422.43	4819.16
422.61	4933.85
422.80	4919.81
422.99	4898.74
423.18	5008.75
423.37	5006.41
423.56	4978.32
423.75	4819.16
423.94	4826.18
424.13	4657.67
424.32	4709.16
424.50	5104.71
424.69	5247.48
424.88	5135.14
425.07	4924.49
425.26	4901.08
425.45	5015.77
425.64	5006.41
425.83	4898.74
426.01	5057.90
426.20	5144.50
426.39	5062.58
426.58	5018.11
426.77	5050.88
426.96	5039.17
427.15	5135.14
427.33	5331.74
427.52	5224.08
427.71	5401.96
427.90	5303.65
428.09	5296.63
428.28	5350.46
428.46	5397.28
428.65	5336.42
428.84	5619.63
429.03	5500.26
429.22	5387.91
429.40	5357.49
429.59	5474.51
429.78	5289.61
429.97	5235.78
430.16	5633.67
430.34	5434.72
430.53	5809.21
430.72	5643.03
430.91	5518.98
431.10	5694.52
431.28	5851.34
431.47	5930.92
431.66	5874.74
431.85	5694.52
432.03	6038.58
432.22	6134.54
432.41	6040.92
432.60	6031.56
432.79	5900.49
432.97	6026.88
433.16	6122.84
433.35	5970.71
433.54	6101.78
433.72	6169.65
433.91	6148.59
434.10	6143.91
434.28	6223.48
434.47	6256.25
434.66	6256.25
434.85	6129.86
435.03	6319.45
435.22	6214.12
435.41	6546.48
435.59	6459.88
435.78	6305.40
435.97	6427.11
436.16	6403.71
436.34	6464.56
436.53	6469.24
436.72	6684.57
436.90	6504.35
437.09	6583.93
437.28	6469.24
437.46	6527.75
437.65	6686.91
437.84	6663.51
438.02	6696.27
438.21	6792.23
438.40	6876.49
438.58	7096.50
438.77	6979.48
438.96	6986.50
439.14	6979.48
439.33	7227.57
439.52	7164.38
439.70	7283.75
439.89	7370.35
440.08	7335.24
440.26	7475.67
440.45	7400.77
440.63	7461.63
440.82	7585.68
441.01	7496.74
441.19	7578.65
441.38	7702.70
441.57	7815.05
441.75	7831.43
441.94	8105.28
442.12	8023.36
442.31	7992.93
442.50	8032.72
442.68	8056.12
442.87	8053.78
443.05	8002.29
443.24	8271.45
443.43	8191.88
443.61	8138.04
443.80	8198.90
443.98	8049.10
444.17	7960.16
444.35	8161.45
444.54	8271.45
444.73	8184.85
444.91	8290.18
445.10	8409.54
445.28	8386.14
445.47	8318.26
445.65	8439.97
445.84	8608.49
446.02	8540.61
446.21	8535.93
446.39	8355.71
446.58	8486.78
446.77	8564.02
446.95	8444.65
447.14	8346.35
447.32	8800.41
447.51	8451.67
447.69	8449.33
447.88	8479.76
448.06	8610.83
448.25	8531.25
448.43	8681.05
448.62	8388.48
448.80	8641.26
448.99	8592.11
449.17	8685.73
449.36	8606.15
449.54	8760.63
449.73	8938.51
449.91	9334.06
450.10	9107.02
450.28	8915.10
450.46	9130.43
450.65	9132.77
450.83	9142.13
451.02	9174.90
451.20	9235.75
451.39	9287.25
451.57	9341.08
451.76	9160.86
451.94	9329.38
452.13	9252.14
452.31	9282.56
452.49	8975.95
452.68	9547.05
452.86	9530.66
453.05	9467.47
453.23	9628.96
453.42	9458.10
453.60	9394.91
453.78	9537.68
453.97	9521.30
454.15	9682.80
454.34	9521.30
454.52	9703.86
454.70	9886.42
454.89	9881.74
455.07	10015.15
455.26	9841.95
455.44	10171.97
455.62	10094.73
455.81	9994.09
455.99	9921.53
456.17	10059.62
456.36	10260.91
456.54	10361.55
456.73	10382.62
456.91	10562.84
457.09	10424.75
457.28	10724.33
457.46	10284.31
457.64	10312.40
457.83	10623.69
458.01	10565.18
458.19	10670.50
458.38	10696.25
458.56	10848.38
458.74	10803.91
458.93	10609.65
459.11	10869.45
459.29	10855.40
459.48	10768.80
459.66	10766.46
459.84	10834.34
460.03	10998.18
460.21	10904.56
460.39	11094.14
460.57	10853.06
460.76	11082.44
460.94	11389.05
461.12	11346.92
461.31	11201.80
461.49	11325.85
461.67	11089.46
461.85	11534.16
462.04	11265.00
462.22	11501.39
462.40	11688.64
462.59	11482.67
462.77	11548.20
462.95	11630.12
463.13	11716.72
463.32	11651.19
463.50	11793.96
463.68	11772.89
463.86	12009.29
464.05	11751.83
464.23	11693.32
464.41	11777.58
464.59	11705.02
464.78	12327.60
464.96	12156.74
465.14	11782.26
465.32	12140.36
465.50	12121.63
465.69	12194.19
465.87	12138.02
466.05	12327.60
466.23	12332.28
466.41	12287.81
466.60	12491.44
466.78	12222.28
466.96	12421.22
467.14	12343.99
467.32	12283.13
467.51	12486.76
467.69	12201.21
467.87	12510.16
468.05	12713.79
468.23	12580.38
468.41	12388.46
468.60	12547.61
468.78	12641.23
468.96	12559.31
469.14	12723.15
469.32	12844.86
469.50	13027.42
469.69	13198.28
469.87	13259.13
470.05	13062.53
470.23	13050.83
470.41	13287.22
470.59	13378.50
470.77	13071.89
470.95	13596.17
471.14	13462.76
471.32	13146.79
471.50	13614.90
471.68	13640.64
471.86	13816.18
472.04	13626.60
472.22	13935.55
472.40	13689.79
472.58	14026.83
472.77	14129.81
472.95	14092.37
473.13	14831.97
473.31	14120.45
473.49	14305.35
473.67	14368.55
473.85	14359.19
474.03	14714.95
474.21	14626.01
474.39	14792.19
474.57	14775.80
474.75	15218.16
474.93	15096.46
475.12	14843.68
475.30	15250.93
475.48	15367.96
475.66	15136.24
475.84	15051.99
476.02	15468.60
476.20	15346.89
476.38	15763.51
476.56	16112.25
476.74	16212.89
476.92	16119.27
477.10	15892.24
477.28	16233.96
477.46	16149.70
477.64	16421.20
477.82	16575.67
478.00	16669.30
478.18	16795.68
478.36	17238.05
478.54	17193.58
478.72	17448.69
478.90	17249.75
479.08	17649.98
479.26	17685.09
479.44	17940.21
479.62	18057.23
479.80	18190.64
479.98	18427.04
480.16	18583.85
480.34	18279.58
480.52	18600.24
480.70	18478.53
480.88	18497.25
481.06	18806.20
481.24	18628.32
481.41	19077.71
481.59	19555.18
481.77	19651.14
481.95	19597.31
482.13	20051.37
482.31	19756.46
482.49	20425.86
482.67	20311.17
482.85	20587.35
483.03	20402.45
483.21	21181.85
483.39	20912.69
483.57	20933.75
483.74	21371.43
483.92	21406.54
484.10	21341.00
484.28	22043.17
484.46	21984.65
484.64	22661.07
484.82	22024.44
485.00	22590.85
485.18	23044.91
485.35	23075.34
485.53	22817.88
485.71	22771.07
485.89	23634.73
486.07	23571.54
486.25	23407.70
486.43	23819.63
486.61	24063.05
486.78	24114.54
486.96	24545.20
487.14	24702.01
487.32	24549.88
487.50	24968.84
487.68	25348.00
487.85	25572.69
488.03	25977.61
488.21	26078.25
488.39	25759.94
488.57	26274.85
488.75	26246.77
488.92	26593.17
489.10	27136.17
489.28	26747.64
489.46	27601.94
489.64	27255.54
489.81	27667.47
489.99	27536.40
490.17	27833.65
490.35	28339.21
490.53	28467.94
490.70	28900.94
490.88	28224.52
491.06	29109.24
491.24	29027.32
491.41	29362.02
491.59	29275.42
491.77	29149.03
491.95	29788.00
492.13	29806.72
492.30	30433.99
492.48	30293.55
492.66	30000.99
492.84	30349.73
493.01	30618.89
493.19	30810.81
493.37	30923.16
493.54	31433.39
493.72	31924.91
493.90	31747.03
494.08	32032.57
494.25	32257.26
494.43	31814.90
494.61	32474.93
494.79	32456.21
494.96	32673.88
495.14	32994.53
495.32	33453.28
495.49	33237.95
495.67	33256.67
495.85	33787.97
496.02	33916.70
496.20	34405.88
496.38	34693.76
496.55	34646.95
496.73	34864.62
496.91	34845.90
497.09	35157.19
497.26	35105.70
497.44	35283.58
497.62	35292.94
497.79	35737.64
497.97	36023.19
498.14	36147.23
498.32	36503.00
498.50	36196.38
498.67	36751.09
498.85	36383.63
499.03	37118.56
499.20	37214.52
499.38	37214.52
499.56	37317.50
499.73	37221.54
499.91	37893.27
500.08	38019.66
500.26	37699.01
500.44	37947.11
500.61	38120.31
500.79	38174.14
500.97	38169.46
501.14	38988.64
501.32	39002.69
501.49	38719.48
501.67	38883.32
501.84	38930.13
502.02	39288.23
502.20	39285.89
502.37	39421.64
502.55	39255.46
502.72	39892.09
502.90	39833.58
503.07	39777.40
503.25	40030.18
503.43	39913.16
503.60	39943.58
503.78	40418.71
503.95	40573.19
504.13	40886.82
504.30	40868.09
504.48	40947.67
504.65	40861.07
504.83	41193.43
505.01	41390.03
505.18	41404.08
505.36	41862.82
505.53	41350.24
505.71	41624.09
505.88	42342.63
506.06	41448.55
506.23	42419.87
506.41	41689.62
506.58	42476.04
506.76	42859.89
506.93	42768.61
507.11	42696.05
507.28	42817.76
507.46	42864.57
507.63	42754.57
507.81	43571.41
507.98	43007.34
508.16	43524.60
508.33	43519.92
508.50	43477.79
508.68	43838.23
508.85	43917.81
509.03	44231.44
509.20	44170.59
509.38	44765.09
509.55	44783.81
509.73	44528.69
509.90	45305.75
510.08	44762.75
510.25	45069.36
510.42	44781.47
510.60	45422.78
510.77	45141.91
510.95	45518.74
511.12	45235.53
511.30	45132.55
511.47	45794.92
511.64	45673.21
511.82	46239.62
511.99	45624.06
512.17	46185.79
512.34	45605.34
512.51	46576.66
512.69	46265.37
512.86	46630.49
513.04	46637.51
513.21	46677.30
513.38	46871.57
513.56	46813.05
513.73	46653.90
513.90	46770.93
514.08	47023.70
514.25	47498.83
514.43	47775.02
514.60	48018.43
514.77	47709.48
514.95	47655.65
515.12	47833.53
515.29	48044.18
515.47	47758.63
515.64	48697.19
515.81	47934.17
515.99	48456.11
516.16	48704.21
516.33	48528.67
516.51	48898.47
516.68	48751.02
516.85	48804.85
517.03	49048.27
517.20	49057.63
517.37	49127.84
517.54	49081.03
517.72	49308.07
517.89	49270.62
518.06	49668.51
518.24	49399.35
518.41	49382.96
518.58	49258.91
518.75	49329.13
518.93	49958.73
519.10	49921.29
519.27	49930.65
519.45	49855.75
519.62	50033.63
519.79	50508.76
519.96	50078.10
520.14	50581.32
520.31	49759.79
520.48	50543.87
520.65	50223.22
520.83	50784.94
521.00	50784.94
521.17	50754.52
521.34	50880.91
521.52	50923.04
521.69	51030.70
521.86	51194.54
522.03	51002.61
522.20	51686.05
522.38	51690.73
522.55	51276.46
522.72	51330.29
522.89	51466.04
523.07	51737.54
523.24	51751.59
523.41	51899.04
523.58	51533.92
523.75	52154.16
523.92	51906.06
524.10	52189.27
524.27	52097.98
524.44	52135.43
524.61	52264.16
524.78	52327.36
524.96	52388.21
525.13	52507.58
525.30	52631.63
525.47	52903.13
525.64	52374.17
525.81	52825.89
525.98	52650.35
526.16	52683.12
526.33	52823.55
526.50	53425.07
526.67	52980.37
526.84	53132.50
527.01	53137.18
527.18	52910.15
527.36	53333.79
527.53	53249.53
527.70	53347.83
527.87	53778.49
528.04	53364.21
528.21	53612.31
528.38	53333.79
528.55	53645.08
528.72	53179.31
528.89	53570.18
529.07	53584.22
529.24	53687.21
529.41	53876.79
529.58	53818.28
529.75	53874.45
529.92	53841.68
530.09	53705.93
530.26	54138.93
530.43	53993.82
530.60	53806.58
530.77	53939.99
530.94	54258.30
531.11	53979.78
531.28	54497.03
531.46	54326.17
531.63	54197.44
531.80	54569.59
531.97	54485.33
532.14	54670.23
532.31	54679.60
532.48	54890.24
532.65	54822.37
532.82	54710.02
532.99	55126.64
533.16	54649.17
533.33	54897.27
533.50	55042.38
533.67	55070.46
533.84	54831.73
534.01	55150.04
534.18	55098.55
534.35	55306.86
534.52	55437.93
534.69	55229.62
534.86	55447.29
535.03	55215.58
535.20	55283.45
535.37	55531.55
535.54	55725.81
535.71	55290.48
535.88	55526.87
536.05	55688.37
536.22	55798.37
536.38	55969.23
536.55	55707.09
536.72	55728.16
536.89	55674.32
537.06	55845.18
537.23	56130.73
537.40	55884.97
537.57	55943.48
537.74	55999.66
537.91	56315.63
538.08	55870.93
538.25	55763.26
538.42	55861.57
538.59	56390.53
538.75	56362.44
538.92	56196.26
539.09	56395.21
539.26	56259.46
539.43	56053.49
539.60	56231.37
539.77	56207.97
539.94	56507.55
540.11	56425.64
540.28	56697.14
540.44	56608.20
540.61	56650.33
540.78	56568.41
540.95	56612.88
541.12	56500.53
541.29	56687.78
541.46	56800.12
541.62	56596.49
541.79	56968.64
541.96	56463.08
542.13	56793.10
542.30	56889.06
542.47	56985.02
542.63	56968.64
542.80	57123.11
542.97	57237.80
543.14	57525.69
543.31	57373.55
543.48	57453.13
543.64	57591.22
543.81	57497.60
543.98	57350.15
544.15	57366.53
544.32	57694.21
544.48	57783.15
544.65	57506.96
544.82	57570.16
544.99	57448.45
545.16	57609.95
545.32	57675.48
545.49	58005.50
545.66	57949.32
545.83	57825.28
546.00	57862.72
546.16	57907.19
546.33	57726.97
546.50	57567.82
546.67	58038.26
546.83	57450.79
547.00	57965.71
547.17	57942.30
547.34	57771.44
547.50	58003.16
547.67	58209.12
547.84	58138.91
548.00	58138.91
548.17	58585.95
548.34	58220.83
548.51	58585.95
548.67	58405.73
548.84	58337.85
549.01	58253.59
549.18	58284.02
549.34	58347.21
549.51	58286.36
549.68	58426.79
549.84	58574.25
550.01	58489.99
550.18	58539.14
550.34	58412.75
550.51	58578.93
550.68	58637.44
550.84	58344.87
551.01	58801.28
551.18	58555.52
551.34	58695.95
551.51	58775.53
551.68	58838.73
551.84	58667.87
552.01	58607.01
552.18	58925.33
552.34	58695.95
552.51	59030.65
552.68	58607.01
552.84	58820.00
553.01	59166.40
553.18	59025.97
553.34	58857.45
553.51	58801.28
553.67	59255.34
553.84	59047.04
554.01	59042.35
554.17	59189.81
554.34	59133.63
554.51	59014.27
554.67	59070.44
554.84	59147.68
555.00	59412.16
555.17	59000.22
555.33	59032.99
555.50	59056.40
555.67	59007.25
555.83	59032.99
556.00	59302.15
556.16	59571.32
556.33	59494.08
556.50	59477.69
556.66	59412.16
556.83	59384.07
556.99	59554.93
557.16	59480.03
557.32	59508.12
557.49	59746.86
557.65	59449.61
557.82	59625.15
557.98	59690.68
558.15	59311.52
558.32	59636.85
558.48	59344.28
558.65	59571.32
558.81	59702.38
558.98	59763.24
559.14	59807.71
559.31	59735.15
559.47	59793.67
559.64	59945.80
559.80	59962.18
559.97	59648.55
560.13	59835.80
560.30	59781.96
560.46	60058.15
560.63	59849.84
560.79	59950.48
560.96	60046.44
561.12	59889.63
561.29	59840.48
561.45	60114.32
561.61	60083.89
561.78	59744.51
561.94	59894.31
562.11	59943.46
562.27	60069.85
562.44	60123.68
562.60	60207.94
562.77	60109.64
562.93	60037.08
563.10	60191.56
563.26	60088.57
563.42	60126.02
563.59	59943.46
563.75	60119.00
563.92	60236.03
564.08	60177.51
564.24	60247.73
564.41	60044.10
564.57	60233.69
564.74	60320.29
564.90	60254.75
565.07	60303.90
565.23	60460.72
565.39	60217.30
565.56	60324.97
565.72	60257.09
565.88	60210.28
566.05	60144.75
566.21	60289.86
566.38	60327.31
566.54	60367.10
566.70	60505.19
566.87	60296.88
567.03	60491.15
567.19	60594.13
567.36	60404.55
567.52	60444.33
567.68	60521.57
567.85	60683.07
568.01	60640.94
568.17	60406.89
568.34	60449.02
568.50	60512.21
568.66	60343.69
568.83	60523.91
568.99	60542.64
569.15	60556.68
569.32	60519.23
569.48	60371.78
569.64	60800.10
569.81	60537.96
569.97	60273.48
570.13	60687.75
570.30	60577.75
570.46	60542.64
570.62	60605.83
570.78	60687.75
570.95	60781.37
571.11	60680.73
571.27	60622.22
571.43	60411.57
571.60	60594.13
571.76	60882.02
571.92	60764.99
572.09	60706.47
572.25	60662.00
572.41	60783.71
572.57	60676.05
572.74	60949.89
572.90	60697.11
573.06	60807.12
573.22	60729.88
573.38	60757.97
573.55	60760.31
573.71	60811.80
573.87	60935.85
574.03	60706.47
574.20	60727.54
574.36	60643.28
574.52	60917.12
574.68	60680.73
574.84	60973.30
575.01	60928.83
575.17	60851.59
575.33	60694.77
575.49	60776.69
575.65	60743.92
575.82	60849.25
575.98	60844.57
576.14	61181.60
576.30	61041.17
576.46	60757.97
576.62	60963.93
576.79	60772.01
576.95	60701.79
577.11	60795.42
577.27	60818.82
577.43	60914.78
577.59	60928.83
577.75	60942.87
577.92	60795.42
578.08	60889.04
578.24	61045.85
578.40	61127.77
578.56	60945.21
578.72	60973.30
578.88	61059.90
579.04	61120.75
579.21	61066.92
579.37	61228.41
579.53	61078.62
579.69	60811.80
579.85	60912.44
580.01	61165.22
580.17	61090.32
580.33	61001.38
580.49	61268.20
580.65	61090.32
580.82	61069.26
580.98	61020.11
581.14	60874.99
581.30	61106.71
581.46	60849.25
581.62	61083.30
581.78	61003.72
581.94	61111.39
582.10	60977.98
582.26	61013.08
582.42	60905.42
582.58	61104.37
582.74	60856.27
582.90	60842.23
583.06	61022.45
583.22	61066.92
583.38	61141.81
583.54	61207.35
583.70	61043.51
583.86	61095.00
584.02	60697.11
584.18	61247.14
584.34	61207.35
584.50	61080.96
584.66	61013.08
584.82	60973.30
584.98	61326.72
585.14	61062.24
585.30	60905.42
585.46	61013.08
585.62	60947.55
585.78	61406.30
585.94	60931.17
586.10	61097.34
586.26	61099.68
586.42	61116.07
586.58	61289.27
586.74	61305.65
586.90	61256.50
587.06	61099.68
587.22	61357.14
587.38	61209.69
587.54	61366.51
587.70	61532.68
587.86	61197.99
588.02	61216.71
588.18	61359.48
588.34	61205.01
588.49	61258.84
