SpectraSuite Data File
++++++++++++++++++++++++++++++++++++
Date: Fri Oct 25 11:25:24 EDT 2013
User: price-jones
Dark Spectrum Present: No
Reference Spectrum Present: No
Number of Sampled Component Spectra: 1
Spectrometers: USB2+H05261
Integration Time (usec): 100000 (USB2+H05261)
Spectra Averaged: 1 (USB2+H05261)
Boxcar Smoothing: 0 (USB2+H05261)
Correct for Electrical Dark: No (USB2+H05261)
Strobe/Lamp Enabled: No (USB2+H05261)
Correct for Detector Non-linearity: No (USB2+H05261)
Correct for Stray Light: No (USB2+H05261)
Number of Pixels in Processed Spectrum: 2048
>>>>>Begin Processed Spectral Data<<<<<
365.73	189.58
365.92	189.58
366.12	189.58
366.32	114.69
366.52	154.48
366.72	166.18
366.91	121.71
367.11	117.03
367.31	77.24
367.51	142.77
367.70	37.45
367.90	112.35
368.10	154.48
368.30	173.20
368.49	149.79
368.69	215.33
368.89	65.54
369.09	161.50
369.28	191.92
369.48	168.52
369.68	152.13
369.87	231.71
370.07	245.76
370.27	285.55
370.47	264.48
370.66	596.84
370.86	585.13
371.06	587.47
371.25	688.12
371.45	655.35
371.65	678.76
371.84	709.18
372.04	718.54
372.24	741.95
372.44	800.46
372.63	781.74
372.83	737.27
373.03	706.84
373.22	791.10
373.42	772.38
373.62	770.04
373.81	821.53
374.01	781.74
374.21	844.93
374.40	828.55
374.60	891.74
374.79	812.17
374.99	828.55
375.19	933.87
375.38	844.93
375.58	793.44
375.78	826.21
375.97	870.68
376.17	837.91
376.37	910.47
376.56	887.06
376.76	791.10
376.95	807.48
377.15	854.30
377.35	957.28
377.54	866.00
377.74	919.83
377.93	912.81
378.13	950.26
378.33	910.47
378.52	905.79
378.72	959.62
378.91	973.66
379.11	908.13
379.31	952.60
379.50	880.04
379.70	1060.26
379.89	905.79
380.09	1036.86
380.28	873.02
380.48	1013.45
380.68	936.21
380.87	954.94
381.07	1100.05
381.26	1029.84
381.46	945.58
381.65	1041.54
381.85	1067.28
382.04	945.58
382.24	1064.94
382.43	1043.88
382.63	1090.69
382.83	1001.75
383.02	1193.67
383.22	1097.71
383.41	1046.22
383.61	1060.26
383.80	1095.37
384.00	1191.33
384.19	1093.03
384.39	1135.16
384.58	1174.95
384.78	1184.31
384.97	1104.73
385.17	1174.95
385.36	1188.99
385.56	1200.69
385.75	1132.82
385.95	1212.40
386.14	1214.74
386.34	1093.03
386.53	1280.27
386.72	1212.40
386.92	1165.59
387.11	1245.16
387.31	1174.95
387.50	1130.48
387.70	1214.74
387.89	1188.99
388.09	1266.23
388.28	1350.49
388.48	1397.30
388.67	1348.15
388.86	1301.34
389.06	1336.45
389.25	1324.74
389.45	1331.76
389.64	1273.25
389.84	1392.62
390.03	1380.92
390.22	1394.96
390.42	1228.78
390.61	1362.19
390.81	1425.39
391.00	1327.08
391.19	1425.39
391.39	1345.81
391.58	1350.49
391.78	1577.52
391.97	1483.90
392.16	1418.36
392.36	1383.26
392.55	1490.92
392.75	1600.93
392.94	1495.60
393.13	1554.12
393.33	1582.20
393.52	1497.94
393.71	1582.20
393.91	1593.90
394.10	1633.69
394.29	1455.81
394.49	1575.18
394.68	1696.89
394.88	1547.09
395.07	1724.97
395.26	1643.06
395.46	1619.65
395.65	1717.95
395.84	1748.38
396.04	1664.12
396.23	1673.48
396.42	1636.03
396.62	1678.16
396.81	1818.60
397.00	1706.25
397.19	1764.76
397.39	1748.38
397.58	1846.68
397.77	1827.96
397.97	1888.81
398.16	1799.87
398.35	1954.35
398.55	1881.79
398.74	1834.98
398.93	1865.41
399.12	1923.92
399.32	1921.58
399.51	1944.99
399.70	2017.54
399.90	2052.65
400.09	1949.67
400.28	2106.48
400.47	2122.87
400.67	2078.40
400.86	2069.03
401.05	1952.01
401.24	2073.71
401.44	2062.01
401.63	2155.63
401.82	2052.65
402.01	2104.14
402.21	2078.40
402.40	2036.27
402.59	2256.28
402.78	2209.47
402.97	2197.76
403.17	2174.36
403.36	2326.49
403.55	2272.66
403.74	2218.83
403.93	2296.07
404.13	2321.81
404.32	2272.66
404.51	2289.04
404.70	2352.24
404.89	2385.01
405.09	2523.10
405.28	2438.84
405.47	2342.88
405.66	2583.95
405.85	2410.75
406.05	2431.82
406.24	2537.14
406.43	2607.36
406.62	2616.72
406.81	2541.82
407.00	2520.76
407.20	2558.21
407.39	2541.82
407.58	2619.06
407.77	2656.51
407.96	2803.96
408.15	2736.09
408.34	2712.68
408.54	2799.28
408.73	2832.05
408.92	2693.96
409.11	2820.35
409.30	2977.16
409.49	2850.77
409.68	2895.24
409.87	2960.78
410.07	3049.72
410.26	2904.60
410.45	3056.74
410.64	3014.61
410.83	3014.61
411.02	3077.80
411.21	3047.38
411.40	3117.59
411.59	3199.51
411.78	3124.62
411.98	3187.81
412.17	3141.00
412.36	3300.16
412.55	3342.28
412.74	3363.35
412.93	3353.99
413.12	3375.05
413.31	3562.30
413.50	3424.20
413.69	3468.67
413.88	3557.61
414.07	3604.42
414.26	3709.75
414.45	3679.32
414.64	3618.47
414.83	3637.19
415.02	3838.48
415.22	3808.05
415.41	3887.63
415.60	3901.67
415.79	3922.74
415.98	3875.93
416.17	3913.38
416.36	3955.51
416.55	3925.08
416.74	4037.42
416.93	4039.76
417.12	4065.51
417.31	4100.62
417.50	4201.26
417.69	4227.01
417.88	4238.71
418.07	4255.09
418.26	4152.11
418.45	4259.78
418.64	4348.72
418.83	4360.42
419.02	4297.22
419.21	4440.00
419.39	4442.34
419.58	4554.68
419.77	4313.61
419.96	4486.81
420.15	4697.46
420.34	4620.22
420.53	4596.81
420.72	4545.32
420.91	4748.95
421.10	4837.89
421.29	4741.93
421.48	4720.86
421.67	4793.42
421.86	4739.58
422.05	4835.55
422.24	4711.50
422.43	4828.53
422.61	4929.17
422.80	4938.53
422.99	4777.03
423.18	4961.94
423.37	4924.49
423.56	4875.34
423.75	4915.12
423.94	4793.42
424.13	4533.62
424.32	4732.56
424.50	5041.51
424.69	5142.16
424.88	5163.22
425.07	5050.88
425.26	5036.83
425.45	4873.00
425.64	4968.96
425.83	5107.05
426.01	5179.61
426.20	5050.88
426.39	5093.01
426.58	5027.47
426.77	4980.66
426.96	5006.41
427.15	5116.41
427.33	5249.82
427.52	5128.11
427.71	5186.63
427.90	5095.35
428.09	5184.29
428.28	5310.68
428.46	5404.30
428.65	5200.67
428.84	5387.91
429.03	5598.56
429.22	5378.55
429.40	5397.28
429.59	5427.70
429.78	5411.32
429.97	5193.65
430.16	5268.55
430.34	5619.63
430.53	5610.26
430.72	5483.88
430.91	5614.95
431.10	5589.20
431.28	5661.76
431.47	5659.42
431.66	5774.10
431.85	5734.31
432.03	5935.60
432.22	5818.57
432.41	5937.94
432.60	5638.35
432.79	5825.59
432.97	6017.52
433.16	5844.32
433.35	5951.98
433.54	6139.23
433.72	6118.16
433.91	6001.13
434.10	6139.23
434.28	6008.16
434.47	6122.84
434.66	6258.59
434.85	6272.64
435.03	6141.57
435.22	6345.19
435.41	6392.00
435.59	6286.68
435.78	6342.85
435.97	6349.87
436.16	6527.75
436.34	6431.79
436.53	6429.45
436.72	6576.91
436.90	6466.90
437.09	6530.09
437.28	6370.94
437.46	6614.35
437.65	6525.41
437.84	6539.46
438.02	6590.95
438.21	6745.42
438.40	6715.00
438.58	6979.48
438.77	6925.65
438.96	6864.79
439.14	7080.12
439.33	7180.76
439.52	7215.87
439.70	7080.12
439.89	7300.13
440.08	7330.56
440.26	7318.86
440.45	7206.51
440.63	7431.20
440.82	7562.27
441.01	7529.50
441.19	7550.57
441.38	7639.51
441.57	7419.50
441.75	7698.02
441.94	7786.96
442.12	7702.70
442.31	7903.99
442.50	7974.21
442.68	7803.35
442.87	7985.91
443.05	8018.68
443.24	8304.22
443.43	8072.51
443.61	8053.78
443.80	8336.99
443.98	8074.85
444.17	7873.56
444.35	7925.05
444.54	8280.82
444.73	8250.39
444.91	8044.42
445.10	8203.58
445.28	8500.83
445.47	8264.43
445.65	8182.51
445.84	8269.11
446.02	8252.73
446.21	8334.65
446.39	8322.94
446.58	8397.84
446.77	8196.56
446.95	8201.24
447.14	8362.73
447.32	8578.06
447.51	8311.24
447.69	8292.52
447.88	8372.10
448.06	8306.56
448.25	8369.76
448.43	8779.35
448.62	8645.94
448.80	8634.24
448.99	8514.87
449.17	8486.78
449.36	8636.58
449.54	8879.99
449.73	8926.80
449.91	9137.45
450.10	8835.52
450.28	9020.42
450.46	8950.21
450.65	9036.81
450.83	9008.72
451.02	8898.72
451.20	8875.31
451.39	8919.78
451.57	8961.91
451.76	8940.85
451.94	9256.82
452.13	9261.50
452.31	9156.18
452.49	9231.07
452.68	9249.80
452.86	9413.63
453.05	9254.48
453.23	9329.38
453.42	9427.68
453.60	9277.88
453.78	9455.76
453.97	9413.63
454.15	9362.14
454.34	9345.76
454.52	9682.80
454.70	9692.16
454.89	9750.67
455.07	9813.87
455.26	9675.77
455.44	9722.59
455.62	9886.42
455.81	10033.88
455.99	10029.20
456.17	9783.44
456.36	9837.27
456.54	10216.44
456.73	10164.95
456.91	10349.85
457.09	10176.65
457.28	10434.11
457.46	10101.75
457.64	10106.43
457.83	10293.68
458.01	10228.14
458.19	10759.44
458.38	10429.43
458.56	10473.90
458.74	10415.38
458.93	10780.51
459.11	10609.65
459.29	10621.35
459.48	10794.55
459.66	10766.46
459.84	10792.21
460.03	11248.61
460.21	10934.98
460.39	10951.37
460.57	10736.04
460.76	10988.82
460.94	10981.79
461.12	11021.58
461.31	11154.99
461.49	11026.26
461.67	11236.91
461.85	11382.03
462.04	11344.58
462.22	11749.49
462.40	11754.17
462.59	11386.71
462.77	11412.45
462.95	11414.79
463.13	11513.10
463.32	11477.99
463.50	11473.31
463.68	11571.61
463.86	12086.53
464.05	11536.50
464.23	11627.78
464.41	11779.92
464.59	11660.55
464.78	12077.16
464.96	11885.24
465.14	11812.68
465.32	12224.62
465.50	11999.93
465.69	11955.46
465.87	12109.93
466.05	12042.06
466.23	12086.53
466.41	12044.40
466.60	12332.28
466.78	12163.76
466.96	12205.89
467.14	12348.67
467.32	12262.07
467.51	12299.52
467.69	12184.83
467.87	12212.92
468.05	12369.73
468.23	12198.87
468.41	12676.34
468.60	12545.27
468.78	12814.43
468.96	12383.77
469.14	12631.87
469.32	13064.87
469.50	12585.06
469.69	12952.52
469.87	13097.64
470.05	13074.23
470.23	13195.94
470.41	12966.57
470.59	13165.51
470.77	12826.14
470.95	13083.59
471.14	13378.50
471.32	12964.23
471.50	13631.28
471.68	13399.57
471.86	13570.43
472.04	13556.38
472.22	13846.61
472.40	13422.97
472.58	13638.30
472.77	13827.88
472.95	14373.23
473.13	14230.46
473.31	13818.52
473.49	14328.76
473.67	14113.43
473.85	14295.99
474.03	14466.85
474.21	14576.86
474.39	14490.26
474.57	14712.61
474.75	14803.89
474.93	14789.85
475.12	14602.60
475.30	14986.45
475.48	14867.08
475.66	14867.08
475.84	14970.07
476.02	15035.60
476.20	15229.87
476.38	15445.20
476.56	15960.11
476.74	15648.82
476.92	15768.19
477.10	15639.46
477.28	16044.37
477.46	16280.77
477.64	15920.32
477.82	16416.52
478.00	16559.29
478.18	16657.59
478.36	16673.98
478.54	16837.81
478.72	17216.98
478.90	17268.47
479.08	17528.27
479.26	17348.05
479.44	17689.77
479.62	17568.06
479.80	17877.01
479.98	17834.88
480.16	18415.34
480.34	17879.35
480.52	18267.88
480.70	18448.10
480.88	18171.92
481.06	18490.23
481.24	18356.82
481.41	18937.27
481.59	19131.54
481.77	19281.33
481.95	19321.12
482.13	19342.19
482.31	19653.48
482.49	20163.72
482.67	19950.73
482.85	20292.44
483.03	20285.42
483.21	20533.52
483.39	20842.47
483.57	20800.34
483.74	20957.16
483.92	21553.99
484.10	21160.78
484.28	21598.46
484.46	21790.39
484.64	22111.04
484.82	21961.25
485.00	22464.46
485.18	22686.81
485.35	22890.44
485.53	22452.76
485.71	22984.06
485.89	23510.68
486.07	23073.00
486.25	22876.40
486.43	23599.62
486.61	23817.29
486.78	23990.49
486.96	23889.85
487.14	24456.26
487.32	24458.60
487.50	24608.39
487.68	24854.15
487.85	24980.54
488.03	25247.36
488.21	25490.77
488.39	25387.79
488.57	25844.20
488.75	25907.39
488.92	26075.91
489.10	26567.42
489.28	26581.46
489.46	26857.65
489.64	26876.37
489.81	27498.95
489.99	27021.48
490.17	27559.81
490.35	28013.87
490.53	27866.42
490.70	28072.39
490.88	27681.52
491.06	28484.32
491.24	28811.99
491.41	28802.63
491.59	29099.88
491.77	29083.50
491.95	29392.45
492.13	29558.63
492.30	29748.21
492.48	29717.78
492.66	29841.83
492.84	30366.11
493.01	30443.35
493.19	30235.04
493.37	30789.75
493.54	30707.83
493.72	31126.78
493.90	31002.74
494.08	31393.61
494.25	32130.87
494.43	31709.58
494.61	32362.59
494.79	31941.29
494.96	32503.02
495.14	32142.58
495.32	33198.16
495.49	33137.30
495.67	32627.07
495.85	33010.92
496.02	33500.09
496.20	33926.07
496.38	33956.49
496.55	34031.39
496.73	34536.94
496.91	34115.65
497.09	34630.57
497.26	34609.50
497.44	34965.26
497.62	35161.87
497.79	35756.36
497.97	35398.26
498.14	35346.77
498.32	35660.40
498.50	35887.43
498.67	36400.01
498.85	35868.71
499.03	36308.73
499.20	36425.76
499.38	36299.37
499.56	36297.03
499.73	36783.86
499.91	36921.95
500.08	37460.27
500.26	37193.45
500.44	37542.19
500.61	37523.47
500.79	37383.04
500.97	37727.10
501.14	38684.37
501.32	38185.84
501.49	37921.36
501.67	38314.57
501.84	38918.43
502.02	38614.16
502.20	38604.80
502.37	38855.23
502.55	39133.76
502.72	39119.71
502.90	39136.10
503.07	39487.18
503.25	39454.41
503.43	39578.46
503.60	40086.36
503.78	40205.72
503.95	40114.44
504.13	40636.38
504.30	40313.39
504.48	39929.54
504.65	40292.32
504.83	40456.16
505.01	41233.22
505.18	40844.69
505.36	41565.57
505.53	41429.82
505.71	41759.84
505.88	41633.45
506.06	41230.88
506.23	41862.82
506.41	41387.69
506.58	41799.63
506.76	42099.22
506.93	42389.44
507.11	41743.45
507.28	42410.51
507.46	42347.31
507.63	42099.22
507.81	42632.86
507.98	42625.84
508.16	42974.58
508.33	42529.87
508.50	43044.79
508.68	43526.94
508.85	44062.93
509.03	43386.51
509.20	43620.56
509.38	44179.95
509.55	43559.71
509.73	44018.46
509.90	44392.94
510.08	44210.38
510.25	44266.55
510.42	44673.81
510.60	44854.03
510.77	44692.53
510.95	45251.92
511.12	44634.02
511.30	44772.11
511.47	44964.03
511.64	45256.60
511.82	45783.22
511.99	45848.75
512.17	45720.02
512.34	45713.00
512.51	46162.39
512.69	46085.15
512.86	46138.98
513.04	46181.11
513.21	46103.87
513.38	46403.46
513.56	46389.42
513.73	46490.06
513.90	46571.98
514.08	46581.34
514.25	47487.13
514.43	46986.25
514.60	47012.00
514.77	47040.09
514.95	47313.93
515.12	47129.03
515.29	47309.25
515.47	47437.98
515.64	47688.42
515.81	47452.02
515.99	47973.96
516.16	48289.93
516.33	48140.14
516.51	48105.03
516.68	47978.64
516.85	48470.15
517.03	48470.15
517.20	48645.69
517.37	48465.47
517.54	48261.85
517.72	48587.18
517.89	48893.79
518.06	49017.84
518.24	48631.65
518.41	49022.52
518.58	49212.10
518.75	49139.55
518.93	49198.06
519.10	48884.43
519.27	49361.90
519.45	49315.09
519.62	49553.82
519.79	49577.23
519.96	49813.62
520.14	49741.06
520.31	49851.07
520.48	49986.82
520.65	50131.93
520.83	50405.78
521.00	50473.65
521.17	50525.14
521.34	50522.80
521.52	50642.17
521.69	50616.43
521.86	50642.17
522.03	51028.36
522.20	51227.31
522.38	51426.25
522.55	51222.62
522.72	51110.28
522.89	51021.34
523.07	51175.81
523.24	51257.73
523.41	51086.87
523.58	51014.32
523.75	51655.62
523.92	51573.70
524.10	51803.08
524.27	51725.84
524.44	51950.53
524.61	51732.86
524.78	51763.29
524.96	51774.99
525.13	51927.13
525.30	52467.79
525.47	52432.68
525.64	52224.37
525.81	52191.61
525.98	52301.61
526.16	52402.25
526.33	52147.14
526.50	52746.31
526.67	52542.69
526.84	52746.31
527.01	52465.45
527.18	52549.71
527.36	52598.86
527.53	52790.78
527.70	52736.95
527.87	53132.50
528.04	52823.55
528.21	53338.47
528.38	52926.53
528.55	53305.70
528.72	53319.74
528.89	53008.45
529.07	53352.51
529.24	53406.34
529.41	53509.33
529.58	53579.54
529.75	53382.94
529.92	53715.29
530.09	53462.52
530.26	53628.69
530.43	53797.21
530.60	53642.74
530.77	53750.40
530.94	54082.76
531.11	53593.59
531.28	53965.73
531.46	53904.88
531.63	53930.62
531.80	53893.18
531.97	54052.33
532.14	54396.39
532.31	54372.99
532.48	54529.80
532.65	54244.26
532.82	54408.09
532.99	54518.10
533.16	54363.62
533.33	54768.54
533.50	54782.58
533.67	54419.80
533.84	54539.16
534.01	54775.56
534.18	54724.07
534.35	55044.72
534.52	54777.90
534.69	54775.56
534.86	55058.76
535.03	55070.46
535.20	55182.81
535.37	55248.35
535.54	55171.11
535.71	54958.12
535.88	55262.39
536.05	55267.07
536.22	55236.64
536.38	55468.36
536.55	55213.24
536.72	55629.85
536.89	55072.81
537.06	55227.28
537.23	55669.64
537.40	55466.02
537.57	55681.34
537.74	55648.58
537.91	55976.25
538.08	55903.70
538.25	55510.49
538.42	55714.11
538.59	56161.15
538.75	55576.02
538.92	56009.02
539.09	55983.27
539.26	56076.90
539.43	56097.96
539.60	56123.71
539.77	56095.62
539.94	56250.09
540.11	56233.71
540.28	55955.19
540.44	56137.75
540.61	56156.47
540.78	56058.17
540.95	56273.50
541.12	56109.66
541.29	56123.71
541.46	56109.66
541.62	56460.74
541.79	56397.55
541.96	56116.68
542.13	56495.85
542.30	56545.00
542.47	56697.14
542.63	56498.19
542.80	56655.01
542.97	56900.76
543.14	57186.31
543.31	56963.96
543.48	56821.19
543.64	57357.17
543.81	57244.82
543.98	57165.24
544.15	56994.39
544.32	57315.04
544.48	57368.87
544.65	57371.21
544.82	57202.69
544.99	56966.30
545.16	57275.25
545.32	57041.20
545.49	57476.54
545.66	57420.36
545.83	57296.31
546.00	57724.63
546.16	57530.37
546.33	57352.49
546.50	57059.92
546.67	57502.28
546.83	57317.38
547.00	57375.89
547.17	57432.07
547.34	57860.38
547.50	57542.07
547.67	57771.44
547.84	57827.62
548.00	57911.88
548.17	57881.45
548.34	57652.08
548.51	57902.51
548.67	58092.10
548.84	58033.58
549.01	57783.15
549.18	57855.70
549.34	58047.63
549.51	58021.88
549.68	58178.70
549.84	57977.41
550.01	58115.50
550.18	58136.57
550.34	58262.96
550.51	58309.77
550.68	58267.64
550.84	58049.97
551.01	58117.84
551.18	58225.51
551.34	58277.00
551.51	58216.14
551.68	58365.94
551.84	58314.45
552.01	58365.94
552.18	58459.56
552.34	58293.38
552.51	58464.24
552.68	58372.96
552.84	58382.32
553.01	58478.28
553.18	58382.32
553.34	58780.21
553.51	58705.32
553.67	58670.21
553.84	58836.39
554.01	58913.62
554.17	58775.53
554.34	58791.92
554.51	58754.47
554.67	58663.19
554.84	58967.46
555.00	59058.74
555.17	58883.20
555.33	58852.77
555.50	58962.78
555.67	58822.34
555.83	58859.79
556.00	58885.54
556.16	59208.53
556.33	59032.99
556.50	59070.44
556.66	59154.70
556.83	58944.05
556.99	59220.23
557.16	59444.93
557.32	59430.88
557.49	59388.75
557.65	59243.64
557.82	59164.06
557.98	59124.27
558.15	59306.83
558.32	59360.67
558.48	59288.11
558.65	59199.17
558.81	59199.17
558.98	59592.38
559.14	59468.33
559.31	59451.95
559.47	59264.70
559.64	59601.74
559.80	59608.76
559.97	59501.10
560.13	59405.14
560.30	59456.63
560.46	59690.68
560.63	59634.51
560.79	59583.02
560.96	59716.43
561.12	59746.86
561.29	59737.49
561.45	59681.32
561.61	59381.73
561.78	59625.15
561.94	59643.87
562.11	59700.04
562.27	59812.39
562.44	60055.81
562.60	59856.86
562.77	59898.99
562.93	59615.79
563.10	59758.56
563.26	59662.60
563.42	59765.58
563.59	59744.51
563.75	60051.12
563.92	59835.80
564.08	59985.59
564.24	60046.44
564.41	59936.44
564.57	59950.48
564.74	59824.09
564.90	59826.43
565.07	59814.73
565.23	59788.98
565.39	60013.68
565.56	60055.81
565.72	60058.15
565.88	59924.74
566.05	60041.76
566.21	59945.80
566.38	60233.69
566.54	59934.10
566.70	60271.14
566.87	60420.93
567.03	60025.38
567.19	60315.61
567.36	60165.81
567.52	60020.70
567.68	60331.99
567.85	60182.19
568.01	60306.24
568.17	60069.85
568.34	60168.15
568.50	60074.53
568.66	60271.14
568.83	60111.98
568.99	60090.91
569.15	60238.37
569.32	60329.65
569.48	60261.77
569.64	60196.24
569.81	60491.15
569.97	60313.26
570.13	60523.91
570.30	60313.26
570.46	60341.35
570.62	60296.88
570.78	60221.98
570.95	60189.22
571.11	60547.32
571.27	60278.16
571.43	60191.56
571.60	60542.64
571.76	60446.68
571.92	60458.38
572.09	60357.74
572.25	60390.50
572.41	60418.59
572.57	60507.53
572.74	60750.94
572.90	60371.78
573.06	60362.42
573.22	60364.76
573.38	60472.42
573.55	60472.42
573.71	60795.42
573.87	60481.78
574.03	60322.63
574.20	60544.98
574.36	60346.03
574.52	60622.22
574.68	60596.47
574.84	60636.26
575.01	60615.19
575.17	60596.47
575.33	60273.48
575.49	60364.76
575.65	60561.36
575.82	60741.58
575.98	60626.90
576.14	60603.49
576.30	60734.56
576.46	60629.24
576.62	60481.78
576.79	60645.62
576.95	60243.05
577.11	60764.99
577.27	60713.50
577.43	60528.59
577.59	60477.10
577.75	60643.28
577.92	60547.32
578.08	60678.39
578.24	60720.52
578.40	60748.60
578.56	60690.09
578.72	60645.62
578.88	60769.67
579.04	60582.43
579.21	60669.03
579.37	60921.80
579.53	60949.89
579.69	60509.87
579.85	60659.66
580.01	60591.79
580.17	60647.96
580.33	60659.66
580.49	60898.40
580.65	60793.07
580.82	60800.10
580.98	60587.11
581.14	60610.51
581.30	60811.80
581.46	60764.99
581.62	60853.93
581.78	60846.91
581.94	60818.82
582.10	60657.32
582.26	60542.64
582.42	60683.07
582.58	60594.13
582.74	60673.71
582.90	60610.51
583.06	60912.44
583.22	60701.79
583.38	60797.76
583.54	60800.10
583.70	60867.97
583.86	60853.93
584.02	60704.13
584.18	60797.76
584.34	60809.46
584.50	60790.73
584.66	60598.81
584.82	60718.18
584.98	60977.98
585.14	60832.86
585.30	60837.54
585.46	60912.44
585.62	60992.02
585.78	60956.91
585.94	60736.90
586.10	60877.33
586.26	60851.59
586.42	61027.13
586.58	60947.55
586.74	61102.03
586.90	61013.08
587.06	60814.14
587.22	61066.92
587.38	60816.48
587.54	61013.08
587.70	61095.00
587.86	60842.23
588.02	60898.40
588.18	61020.11
588.34	60905.42
588.49	60814.14
