SpectraSuite Data File
++++++++++++++++++++++++++++++++++++
Date: Fri Oct 25 10:43:23 EDT 2013
User: price-jones
Dark Spectrum Present: No
Reference Spectrum Present: No
Number of Sampled Component Spectra: 1
Spectrometers: USB2+H05261
Integration Time (usec): 100000 (USB2+H05261)
Spectra Averaged: 1 (USB2+H05261)
Boxcar Smoothing: 0 (USB2+H05261)
Correct for Electrical Dark: No (USB2+H05261)
Strobe/Lamp Enabled: No (USB2+H05261)
Correct for Detector Non-linearity: No (USB2+H05261)
Correct for Stray Light: No (USB2+H05261)
Number of Pixels in Processed Spectrum: 2048
>>>>>Begin Processed Spectral Data<<<<<
365.73	154.48
365.92	154.48
366.12	154.48
366.32	39.79
366.52	42.13
366.72	21.06
366.91	0.00
367.11	0.00
367.31	4.68
367.51	0.00
367.70	2.34
367.90	7.02
368.10	0.00
368.30	0.00
368.49	0.00
368.69	102.98
368.89	35.11
369.09	0.00
369.28	25.75
369.48	42.13
369.68	46.81
369.87	135.75
370.07	39.79
370.27	88.94
370.47	173.20
370.66	344.06
370.86	376.83
371.06	470.45
371.25	496.19
371.45	500.87
371.65	458.74
371.84	433.00
372.04	449.38
372.24	451.72
372.44	461.09
372.63	510.24
372.83	507.90
373.03	571.09
373.22	470.45
373.42	554.71
373.62	507.90
373.81	507.90
374.01	528.96
374.21	538.32
374.40	606.20
374.60	613.22
374.79	585.13
374.99	599.18
375.19	648.33
375.38	491.51
375.58	589.82
375.78	557.05
375.97	627.26
376.17	681.10
376.37	571.09
376.56	627.26
376.76	596.84
376.95	608.54
377.15	634.29
377.35	650.67
377.54	622.58
377.74	592.16
377.93	547.69
378.13	564.07
378.33	636.63
378.52	676.41
378.72	678.76
378.91	650.67
379.11	706.84
379.31	587.47
379.50	638.97
379.70	674.07
379.89	636.63
380.09	692.80
380.28	683.44
380.48	704.50
380.68	678.76
380.87	690.46
381.07	702.16
381.26	739.61
381.46	751.31
381.65	748.97
381.85	716.20
382.04	681.10
382.24	660.03
382.43	674.07
382.63	699.82
382.83	734.93
383.02	767.70
383.22	802.80
383.41	685.78
383.61	784.08
383.80	734.93
384.00	674.07
384.19	725.57
384.39	758.33
384.58	753.65
384.78	788.76
384.97	805.14
385.17	849.61
385.36	819.19
385.56	816.85
385.75	798.12
385.95	706.84
386.14	830.89
386.34	828.55
386.53	849.61
386.72	744.29
386.92	807.48
387.11	912.81
387.31	917.49
387.50	990.05
387.70	847.27
387.89	947.92
388.09	901.11
388.28	828.55
388.48	858.98
388.67	903.45
388.86	887.06
389.06	950.26
389.25	983.02
389.45	1025.15
389.64	966.64
389.84	994.73
390.03	1004.09
390.22	985.37
390.42	1050.90
390.61	1062.60
390.81	985.37
391.00	1043.88
391.19	1055.58
391.39	1020.47
391.58	1104.73
391.78	1118.78
391.97	1041.54
392.16	983.02
392.36	1069.62
392.55	1015.79
392.75	994.73
392.94	987.71
393.13	1001.75
393.33	978.34
393.52	1046.22
393.71	1118.78
393.91	1111.75
394.10	1114.10
394.29	1128.14
394.49	1151.54
394.68	1228.78
394.88	1139.84
395.07	1153.88
395.26	1275.59
395.46	1238.14
395.65	1132.82
395.84	1240.48
396.04	1249.85
396.23	1151.54
396.42	1050.90
396.62	1142.18
396.81	1249.85
397.00	1238.14
397.19	1245.16
397.39	1296.66
397.58	1373.89
397.77	1430.07
397.97	1409.00
398.16	1434.75
398.35	1439.43
398.55	1448.79
398.74	1526.03
398.93	1467.52
399.12	1483.90
399.32	1547.09
399.51	1430.07
399.70	1607.95
399.90	1519.01
400.09	1537.73
400.28	1696.89
400.47	1619.65
400.67	1675.82
400.86	1645.40
401.05	1586.88
401.24	1643.06
401.44	1692.21
401.63	1689.87
401.82	1753.06
402.01	1682.85
402.21	1823.28
402.40	1776.47
402.59	1732.00
402.78	1849.02
402.97	1755.40
403.17	1727.32
403.36	1849.02
403.55	1849.02
403.74	1867.75
403.93	1891.15
404.13	1907.54
404.32	1825.62
404.51	1820.94
404.70	1937.96
404.89	1905.20
405.09	1905.20
405.28	1982.43
405.47	1839.66
405.66	2005.84
405.85	2038.61
406.05	1989.46
406.24	2057.33
406.43	1947.33
406.62	2146.27
406.81	2073.71
407.00	2108.82
407.20	2172.02
407.39	2099.46
407.58	2136.91
407.77	2232.87
407.96	2204.78
408.15	2101.80
408.34	2242.23
408.54	2289.04
408.73	2310.11
408.92	2207.13
409.11	2424.80
409.30	2321.81
409.49	2232.87
409.68	2232.87
409.87	2267.98
410.07	2321.81
410.26	2321.81
410.45	2429.48
410.64	2363.94
410.83	2326.49
411.02	2429.48
411.21	2560.55
411.40	2644.81
411.59	2605.02
411.78	2670.55
411.98	2565.23
412.17	2616.72
412.36	2600.34
412.55	2661.19
412.74	2717.36
412.93	2754.81
413.12	2724.38
413.31	2897.58
413.50	2764.17
413.69	2988.86
413.88	2984.18
414.07	2939.71
414.26	2944.39
414.45	2984.18
414.64	2981.84
414.83	3035.67
415.02	2918.65
415.22	3056.74
415.41	3159.72
415.60	3035.67
415.79	3122.27
415.98	3253.34
416.17	3208.87
416.36	3101.21
416.55	3243.98
416.74	3162.06
416.93	3274.41
417.12	3206.53
417.31	3307.18
417.50	3311.86
417.69	3456.97
417.88	3339.94
418.07	3384.41
418.26	3552.93
418.45	3393.78
418.64	3590.38
418.83	3471.01
419.02	3630.17
419.21	3510.80
419.39	3527.19
419.58	3459.31
419.77	3599.74
419.96	3531.87
420.15	3754.22
420.34	3592.72
420.53	3904.01
420.72	3817.41
420.91	3920.40
421.10	3889.97
421.29	3906.35
421.48	3770.60
421.67	3613.79
421.86	3777.62
422.05	3782.31
422.24	3618.47
422.43	3681.66
422.61	3667.62
422.80	3873.59
422.99	3880.61
423.18	3913.38
423.37	4009.34
423.56	3936.78
423.75	3955.51
423.94	3936.78
424.13	3714.43
424.32	3822.09
424.50	3943.80
424.69	3882.95
424.88	4084.23
425.07	3866.56
425.26	3932.10
425.45	3964.87
425.64	3962.53
425.83	3960.19
426.01	4018.70
426.20	3974.23
426.39	4046.79
426.58	3962.53
426.77	3836.14
426.96	4072.53
427.15	3936.78
427.33	3946.14
427.52	4084.23
427.71	4119.34
427.90	4215.30
428.09	4297.22
428.28	4196.58
428.46	4128.70
428.65	4180.20
428.84	4203.60
429.03	4283.18
429.22	4121.68
429.40	4098.28
429.59	4004.66
429.78	3941.46
429.97	3885.29
430.16	4023.38
430.34	4095.94
430.53	4095.94
430.72	4079.55
430.91	4327.65
431.10	4311.27
431.28	4451.70
431.47	4571.07
431.66	4592.13
431.85	4538.30
432.03	4571.07
432.22	4662.35
432.41	4636.60
432.60	4650.64
432.79	4660.01
432.97	4863.63
433.16	4657.67
433.35	4573.41
433.54	4634.26
433.72	4650.64
433.91	4702.14
434.10	4777.03
434.28	4697.46
434.47	4891.72
434.66	4758.31
434.85	4929.17
435.03	4936.19
435.22	4793.42
435.41	5095.35
435.59	5050.88
435.78	5067.26
435.97	5191.31
436.16	4954.91
436.34	4994.70
436.53	5156.20
436.72	5195.99
436.90	5130.45
437.09	5088.32
437.28	5050.88
437.46	5128.11
437.65	5184.29
437.84	5245.14
438.02	5020.45
438.21	5252.16
438.40	5081.30
438.58	5203.01
438.77	5420.68
438.96	5399.62
439.14	5619.63
439.33	5661.76
439.52	5593.88
439.70	5586.86
439.89	5502.60
440.08	5661.76
440.26	5764.74
440.45	5638.35
440.63	5710.91
440.82	5935.60
441.01	5891.13
441.19	6012.84
441.38	5930.92
441.57	6186.04
441.75	6118.16
441.94	6312.42
442.12	6279.66
442.31	6389.66
442.50	6258.59
442.68	6113.48
442.87	6352.21
443.05	6246.89
443.24	6356.90
443.43	6452.86
443.61	6593.29
443.80	6609.67
443.98	6455.20
444.17	6345.19
444.35	6443.49
444.54	6654.14
444.73	6581.59
444.91	6436.47
445.10	6396.68
445.28	6424.77
445.47	6368.60
445.65	6303.06
445.84	6417.75
446.02	6607.33
446.21	6532.44
446.39	6527.75
446.58	6715.00
446.77	6576.91
446.95	6469.24
447.14	6668.19
447.32	6668.19
447.51	6595.63
447.69	6607.33
447.88	6796.92
448.06	6740.74
448.25	6609.67
448.43	6766.49
448.62	6698.61
448.80	6726.70
448.99	6848.41
449.17	6897.56
449.36	6867.13
449.54	7056.72
449.73	7035.65
449.91	6944.37
450.10	7157.36
450.28	7164.38
450.46	7232.26
450.65	7393.75
450.83	7279.07
451.02	7286.09
451.20	7155.02
451.39	7356.30
451.57	7035.65
451.76	7246.30
451.94	7208.85
452.13	7332.90
452.31	7267.36
452.49	7094.16
452.68	6946.71
452.86	7112.89
453.05	7272.04
453.23	7330.56
453.42	7396.09
453.60	7290.77
453.78	7475.67
453.97	7489.71
454.15	7470.99
454.34	7276.73
454.52	7365.67
454.70	7508.44
454.89	7452.27
455.07	7571.63
455.26	7562.27
455.44	7805.69
455.62	7566.95
455.81	7527.16
455.99	7805.69
456.17	7782.28
456.36	7859.52
456.54	7859.52
456.73	8105.28
456.91	8107.62
457.09	8098.25
457.28	8219.96
457.46	7976.55
457.64	8161.45
457.83	8065.49
458.01	8030.38
458.19	8287.84
458.38	8231.66
458.56	8580.40
458.74	8285.50
458.93	8287.84
459.11	8124.00
459.29	8086.55
459.48	8421.25
459.66	8224.64
459.84	8439.97
460.03	8573.38
460.21	8545.30
460.39	8575.72
460.57	8521.89
460.76	8491.46
460.94	8688.07
461.12	8571.04
461.31	8674.03
461.49	8685.73
461.67	8573.38
461.85	8671.68
462.04	8905.74
462.22	9291.93
462.40	8894.04
462.59	8898.72
462.77	8870.63
462.95	9062.55
463.13	8777.01
463.32	8858.93
463.50	9090.64
463.68	8915.10
463.86	8884.67
464.05	8828.50
464.23	8872.97
464.41	8943.19
464.59	8772.33
464.78	9165.54
464.96	9097.66
465.14	9144.47
465.32	9125.75
465.50	9266.18
465.69	9207.67
465.87	9085.96
466.05	9032.13
466.23	9207.67
466.41	8950.21
466.60	9434.70
466.78	9050.85
466.96	9238.09
467.14	9359.80
467.32	9434.70
467.51	9610.24
467.69	9231.07
467.87	9404.27
468.05	9404.27
468.23	9341.08
468.41	9432.36
468.60	9525.98
468.78	9612.58
468.96	9469.81
469.14	9530.66
469.32	9762.37
469.50	9401.93
469.69	9762.37
469.87	9898.13
470.05	9870.04
470.23	9736.63
470.41	9813.87
470.59	9802.16
470.77	9839.61
470.95	9909.83
471.14	10073.67
471.32	9940.26
471.50	10202.40
471.68	10239.84
471.86	10356.87
472.04	10413.04
472.22	10656.46
472.40	10171.97
472.58	10476.24
472.77	10401.34
472.95	10375.59
473.13	11009.88
473.31	10679.86
473.49	10317.08
473.67	10621.35
473.85	10607.31
474.03	10944.34
474.21	11056.69
474.39	11234.57
474.57	11073.07
474.75	11136.27
474.93	11159.67
475.12	11098.82
475.30	11295.43
475.48	11103.50
475.66	11440.54
475.84	11241.59
476.02	11344.58
476.20	11309.47
476.38	11660.55
476.56	11941.41
476.74	11819.71
476.92	11632.46
477.10	11838.43
477.28	12016.31
477.46	12056.10
477.64	12397.82
477.82	12301.86
478.00	12451.65
478.18	12425.90
478.36	12362.71
478.54	12528.89
478.72	12671.66
478.90	12788.69
479.08	13174.88
479.26	13254.45
479.44	13214.66
479.62	13167.85
479.80	12989.97
479.98	13221.69
480.16	13785.76
480.34	13715.54
480.52	13638.30
480.70	13706.18
480.88	13432.33
481.06	13963.64
481.24	13998.74
481.41	14279.61
481.59	14228.12
481.77	14534.73
481.95	14214.07
482.13	14548.77
482.31	14593.24
482.49	14918.57
482.67	14810.91
482.85	15145.61
483.03	15330.51
483.21	15066.03
483.39	15197.10
483.57	15229.87
483.74	15531.80
483.92	15499.03
484.10	15524.77
484.28	15791.59
484.46	16109.91
484.64	16421.20
484.82	15934.37
485.00	16051.39
485.18	16521.84
485.35	16575.67
485.53	16306.51
485.71	16088.84
485.89	16252.68
486.07	16140.33
486.25	16573.33
486.43	16835.47
486.61	17235.70
486.78	17228.68
486.96	17554.02
487.14	17422.95
487.32	17584.44
487.50	17554.02
487.68	18010.42
487.85	18045.53
488.03	18300.65
488.21	18583.85
488.39	18541.72
488.57	18579.17
488.75	18752.37
488.92	18735.99
489.10	19297.72
489.28	19248.57
489.46	19452.19
489.64	19501.34
489.81	19775.19
489.99	20404.79
490.17	19983.49
490.35	20428.20
490.53	19955.41
490.70	20482.03
490.88	20568.63
491.06	20980.56
491.24	20865.88
491.41	20496.07
491.59	20692.68
491.77	20512.46
491.95	20987.58
492.13	21247.38
492.30	21474.42
492.48	21462.71
492.66	21703.79
492.84	21804.43
493.01	22136.79
493.19	21919.12
493.37	22284.24
493.54	22272.54
493.72	22197.64
493.90	22427.01
494.08	22518.29
494.25	22810.86
494.43	22862.35
494.61	23133.86
494.79	23208.75
494.96	23183.01
495.14	23594.94
495.32	23807.93
495.49	23831.33
495.67	23950.70
495.85	24030.28
496.02	24027.94
496.20	24519.45
496.38	24386.04
496.55	24603.71
496.73	25305.87
496.91	24393.06
497.09	24919.68
497.26	24907.98
497.44	24776.91
497.62	25195.87
497.79	25001.60
497.97	25385.45
498.14	25256.72
498.32	25322.26
498.50	25680.36
498.67	26103.99
498.85	25841.85
499.03	25820.79
499.20	26122.72
499.38	26033.78
499.56	26204.64
499.73	26450.39
499.91	26637.64
500.08	26438.69
500.26	26295.92
500.44	26607.21
500.61	26712.53
500.79	26384.86
500.97	26808.50
501.14	27199.37
501.32	27021.48
501.49	26661.04
501.67	26984.04
501.84	27370.22
502.02	27590.24
502.20	27438.10
502.37	27419.38
502.55	27733.01
502.72	27878.12
502.90	28327.50
503.07	28163.67
503.25	28121.54
503.43	27791.52
503.60	28095.79
503.78	28173.03
503.95	28315.80
504.13	28453.89
504.30	28414.10
504.48	28704.33
504.65	28907.96
504.83	28659.86
505.01	29280.10
505.18	29013.28
505.36	29411.17
505.53	29301.17
505.71	29312.87
505.88	29970.56
506.06	29329.25
506.23	29652.25
506.41	29422.87
506.58	29497.77
506.76	29926.09
506.93	29825.45
507.11	29612.46
507.28	29617.14
507.46	30120.35
507.63	30068.86
507.81	30237.38
507.98	29811.40
508.16	30293.55
508.33	30459.73
508.50	30270.15
508.68	30497.18
508.85	30895.07
509.03	30881.03
509.20	30895.07
509.38	31459.14
509.55	31311.69
509.73	31101.04
509.90	31431.05
510.08	31412.33
510.25	30930.18
510.42	31323.39
510.60	31866.39
510.77	31840.65
510.95	32173.00
511.12	32121.51
511.30	31859.37
511.47	32367.27
511.64	32121.51
511.82	32252.58
511.99	31957.67
512.17	32102.79
512.34	31999.80
512.51	32847.08
512.69	32594.30
512.86	32252.58
513.04	32975.81
513.21	32741.75
513.38	32402.38
513.56	32746.44
513.73	32680.90
513.90	33053.05
514.08	32959.42
514.25	32730.05
514.43	33214.54
514.60	33263.69
514.77	33081.13
514.95	33174.75
515.12	33518.81
515.29	33713.08
515.47	33897.98
515.64	33813.72
515.81	33848.83
515.99	33614.77
516.16	33699.03
516.33	33242.63
516.51	33715.42
516.68	33273.06
516.85	33347.95
517.03	33362.00
517.20	33883.94
517.37	33916.70
517.54	34424.60
517.72	34033.73
517.89	33809.04
518.06	33979.90
518.24	34003.30
518.41	33965.85
518.58	34569.71
518.75	34132.03
518.93	34588.44
519.10	34590.78
519.27	34848.24
519.45	35154.85
519.62	35161.87
519.79	35501.25
519.96	35353.79
520.14	35215.70
520.31	35147.82
520.48	35206.34
520.65	35416.99
520.83	35758.70
521.00	35646.36
521.17	35644.02
521.34	35658.06
521.52	36353.20
521.69	36086.38
521.86	36264.26
522.03	35854.67
522.20	36245.54
522.38	36313.41
522.55	36198.73
522.72	36268.94
522.89	35702.53
523.07	36500.65
523.24	36264.26
523.41	36669.17
523.58	36751.09
523.75	37031.96
523.92	36947.70
524.10	36931.31
524.27	37022.59
524.44	36893.86
524.61	36971.10
524.78	37392.40
524.96	37029.62
525.13	37177.07
525.30	37883.91
525.47	37743.48
525.64	37219.20
525.81	37233.24
525.98	37654.54
526.16	37254.31
526.33	37003.87
526.50	37111.53
526.67	36882.16
526.84	37130.26
527.01	37165.37
527.18	37731.78
527.36	37897.95
527.53	38181.16
527.70	38557.99
527.87	38232.65
528.04	38150.73
528.21	38581.39
528.38	38403.51
528.55	38733.53
528.72	38419.89
528.89	38876.30
529.07	39070.56
529.24	38630.54
529.41	38703.10
529.58	38948.85
529.75	38440.96
529.92	39154.82
530.09	38593.09
530.26	38822.47
530.43	38836.51
530.60	38871.62
530.77	39262.49
530.94	39456.75
531.11	39496.54
531.28	39072.90
531.46	39409.94
531.63	39285.89
531.80	39461.43
531.97	39351.43
532.14	39440.37
532.31	39260.15
532.48	39077.58
532.65	39374.83
532.82	39576.12
532.99	39564.42
533.16	39243.76
533.33	39910.82
533.50	39749.32
533.67	39889.75
533.84	40212.74
534.01	39997.41
534.18	39583.14
534.35	40266.58
534.52	39983.37
534.69	40521.69
534.86	40605.95
535.03	40348.50
535.20	40627.02
535.37	40662.13
535.54	40568.51
535.71	40718.30
535.88	40715.96
536.05	40491.27
536.22	40524.04
536.38	40669.15
536.55	40247.85
536.72	40259.55
536.89	40009.12
537.06	40463.18
537.23	40840.01
537.40	40755.75
537.57	40711.28
537.74	41113.85
537.91	41296.41
538.08	40931.29
538.25	40737.02
538.42	40589.57
538.59	41427.48
538.75	40849.37
538.92	41380.67
539.09	41289.39
539.26	41085.76
539.43	41326.84
539.60	41443.87
539.77	40811.92
539.94	41113.85
540.11	41130.23
540.28	41476.63
540.44	41305.77
540.61	41268.33
540.78	41209.81
540.95	41567.91
541.12	41434.50
541.29	41581.96
541.46	41420.46
541.62	41846.44
541.79	41968.15
541.96	41301.09
542.13	41893.25
542.30	41486.00
542.47	42085.17
542.63	41214.49
542.80	41804.31
542.97	42335.61
543.14	42548.60
543.31	42375.40
543.48	42181.13
543.64	42628.18
543.81	43173.52
543.98	42653.92
544.15	42487.74
544.32	42955.85
544.48	43253.10
544.65	43136.07
544.82	42696.05
544.99	42408.17
545.16	42667.97
545.32	42614.13
545.49	43157.14
545.66	43208.63
545.83	43419.28
546.00	42775.63
546.16	42817.76
546.33	43035.43
546.50	42906.70
546.67	43313.95
546.83	43152.46
547.00	43178.20
547.17	42728.82
547.34	42897.34
547.50	43136.07
547.67	43861.64
547.84	43503.54
548.00	43583.12
548.17	43608.86
548.34	43477.79
548.51	43803.13
548.67	43557.37
548.84	43629.93
549.01	43323.32
549.18	43271.82
549.34	43213.31
549.51	43632.27
549.68	43435.66
549.84	44023.14
550.01	43948.24
550.18	43924.83
550.34	43749.29
550.51	43988.03
550.68	43629.93
550.84	43386.51
551.01	43746.95
551.18	43505.88
551.34	43938.88
551.51	43763.34
551.68	44435.07
551.84	44224.42
552.01	43655.67
552.18	44186.97
552.34	43950.58
552.51	44318.04
552.68	44325.07
552.84	44060.58
553.01	44624.65
553.18	43981.01
553.34	44402.30
553.51	44065.27
553.67	44416.35
553.84	44456.14
554.01	44458.48
554.17	44418.69
554.34	44765.09
554.51	44617.63
554.67	45076.38
554.84	44442.09
555.00	44729.98
555.17	44215.06
555.33	44519.33
555.50	44666.78
555.67	44313.36
555.83	44451.45
556.00	44484.22
556.16	44942.97
556.33	44425.71
556.50	44938.29
556.66	44767.43
556.83	43924.83
556.99	44802.53
557.16	44683.17
557.32	44959.35
557.49	44847.00
557.65	44509.97
557.82	44919.56
557.98	44982.76
558.15	44617.63
558.32	44779.13
558.48	44467.84
558.65	45284.68
558.81	44657.42
558.98	44854.03
559.14	44816.58
559.31	44671.46
559.47	45083.40
559.64	44683.17
559.80	44917.22
559.97	45036.59
560.13	44722.96
560.30	44949.99
560.46	45673.21
560.63	45125.53
560.79	45256.60
560.96	45441.50
561.12	45193.40
561.29	44626.99
561.45	45062.33
561.61	45081.06
561.78	45113.83
561.94	45123.19
562.11	45223.83
562.27	45137.23
562.44	45382.99
562.60	45525.76
562.77	45542.14
562.93	45268.30
563.10	45357.24
563.26	45394.69
563.42	45584.27
563.59	45418.10
563.75	45132.55
563.92	45553.85
564.08	45427.46
564.24	45446.18
564.41	45813.65
564.57	45408.73
564.74	45518.74
564.90	45387.67
565.07	45961.10
565.23	45364.26
565.39	45422.78
565.56	45565.55
565.72	45462.57
565.88	45422.78
566.05	45272.98
566.21	45476.61
566.38	45333.84
566.54	45525.76
566.70	45631.08
566.87	45846.41
567.03	45584.27
567.19	46164.73
567.36	45628.74
567.52	45741.09
567.68	45661.51
567.85	45263.62
568.01	45603.00
568.17	45539.80
568.34	45703.64
568.50	45488.31
568.66	45462.57
568.83	45745.77
568.99	45432.14
569.15	45668.53
569.32	45574.91
569.48	45411.07
569.64	45523.42
569.81	45595.98
569.97	45579.59
570.13	45708.32
570.30	45315.11
570.46	45441.50
570.62	45045.95
570.78	45109.14
570.95	45607.68
571.11	45881.52
571.27	45446.18
571.43	45516.40
571.60	45701.30
571.76	45942.38
571.92	45549.17
572.09	45710.66
572.25	45963.44
572.41	45904.93
572.57	45823.01
572.74	46216.22
572.90	46061.74
573.06	45951.74
573.22	45710.66
573.38	45916.63
573.55	45612.36
573.71	45724.71
573.87	45588.95
574.03	45797.26
574.20	45813.65
574.36	45830.03
574.52	45820.67
574.68	45612.36
574.84	45659.17
575.01	45862.80
575.17	45654.49
575.33	45823.01
575.49	45488.31
575.65	46096.85
575.82	45918.97
575.98	46047.70
576.14	45916.63
576.30	46050.04
576.46	46164.73
576.62	45624.06
576.79	46094.51
576.95	45422.78
577.11	45736.41
577.27	45998.55
577.43	45579.59
577.59	45705.98
577.75	45462.57
577.92	45525.76
578.08	45577.25
578.24	45727.05
578.40	45525.76
578.56	45914.29
578.72	46096.85
578.88	46021.95
579.04	46054.72
579.21	45401.71
579.37	45551.51
579.53	46178.77
579.69	45958.76
579.85	45628.74
580.01	45825.35
580.17	45759.81
580.33	45911.95
580.49	45965.78
580.65	45949.40
580.82	46150.68
580.98	45937.69
581.14	45813.65
581.30	46085.15
581.46	45872.16
581.62	45918.97
581.78	46089.83
581.94	46347.29
582.10	46150.68
582.26	46373.03
582.42	45907.27
582.58	45841.73
582.74	46234.94
582.90	46272.39
583.06	46391.76
583.22	45954.08
583.38	46075.79
583.54	46181.11
583.70	45956.42
583.86	46064.08
584.02	45713.00
584.18	45869.82
584.34	45888.54
584.50	46113.23
584.66	45801.94
584.82	45764.49
584.98	46658.58
585.14	46143.66
585.30	45858.12
585.46	45918.97
585.62	45549.17
585.78	45469.59
585.94	45750.45
586.10	45862.80
586.26	45713.00
586.42	45778.54
586.58	45851.09
586.74	45813.65
586.90	46012.59
587.06	46007.91
587.22	46047.70
587.38	45940.04
587.54	45668.53
587.70	45724.71
587.86	46176.43
588.02	46134.30
588.18	46038.34
588.34	45563.21
588.49	45560.87
588.65	45172.34
588.81	45675.55
588.97	45617.04
589.13	45244.90
589.29	45371.28
589.45	45268.30
589.61	46010.25
589.77	46087.49
589.93	46150.68
590.08	46405.80
