SpectraSuite Data File
++++++++++++++++++++++++++++++++++++
Date: Fri Oct 25 11:25:30 EDT 2013
User: price-jones
Dark Spectrum Present: No
Reference Spectrum Present: No
Number of Sampled Component Spectra: 1
Spectrometers: USB2+H05261
Integration Time (usec): 100000 (USB2+H05261)
Spectra Averaged: 1 (USB2+H05261)
Boxcar Smoothing: 0 (USB2+H05261)
Correct for Electrical Dark: No (USB2+H05261)
Strobe/Lamp Enabled: No (USB2+H05261)
Correct for Detector Non-linearity: No (USB2+H05261)
Correct for Stray Light: No (USB2+H05261)
Number of Pixels in Processed Spectrum: 2048
>>>>>Begin Processed Spectral Data<<<<<
365.73	227.03
365.92	227.03
366.12	227.03
366.32	98.30
366.52	88.94
366.72	152.13
366.91	98.30
367.11	147.45
367.31	191.92
367.51	110.01
367.70	135.75
367.90	161.50
368.10	152.13
368.30	173.20
368.49	70.22
368.69	201.29
368.89	177.88
369.09	154.48
369.28	138.09
369.48	194.26
369.68	198.95
369.87	203.63
370.07	161.50
370.27	248.10
370.47	372.15
370.66	594.50
370.86	634.29
371.06	638.97
371.25	655.35
371.45	683.44
371.65	690.46
371.84	638.97
372.04	655.35
372.24	695.14
372.44	737.27
372.63	695.14
372.83	809.83
373.03	842.59
373.22	739.61
373.42	823.87
373.62	793.44
373.81	800.46
374.01	816.85
374.21	781.74
374.40	788.76
374.60	823.87
374.79	861.32
374.99	821.53
375.19	868.34
375.38	814.51
375.58	821.53
375.78	912.81
375.97	849.61
376.17	854.30
376.37	840.25
376.56	847.27
376.76	880.04
376.95	919.83
377.15	898.77
377.35	915.15
377.54	987.71
377.74	833.23
377.93	889.40
378.13	905.79
378.33	931.53
378.52	847.27
378.72	978.34
378.91	980.68
379.11	896.43
379.31	973.66
379.50	1020.47
379.70	931.53
379.89	1078.99
380.09	903.45
380.28	1029.84
380.48	926.85
380.68	1001.75
380.87	936.21
381.07	1036.86
381.26	1076.65
381.46	1067.28
381.65	1055.58
381.85	1086.01
382.04	1025.15
382.24	1020.47
382.43	1055.58
382.63	1036.86
382.83	1067.28
383.02	1121.12
383.22	1116.44
383.41	1008.77
383.61	1107.07
383.80	1196.01
384.00	1067.28
384.19	1177.29
384.39	1053.24
384.58	1139.84
384.78	1219.42
384.97	1198.35
385.17	1123.46
385.36	1137.50
385.56	1060.26
385.75	1186.65
385.95	1196.01
386.14	1210.06
386.34	1233.46
386.53	1233.46
386.72	1233.46
386.92	1198.35
387.11	1219.42
387.31	1284.95
387.50	1282.61
387.70	1277.93
387.89	1153.88
388.09	1282.61
388.28	1235.80
388.48	1200.69
388.67	1336.45
388.86	1284.95
389.06	1306.02
389.25	1345.81
389.45	1334.11
389.64	1364.53
389.84	1366.87
390.03	1390.28
390.22	1406.66
390.42	1369.21
390.61	1331.76
390.81	1439.43
391.00	1352.83
391.19	1427.73
391.39	1376.24
391.58	1458.15
391.78	1469.86
391.97	1465.18
392.16	1458.15
392.36	1586.88
392.55	1504.96
392.75	1519.01
392.94	1612.63
393.13	1621.99
393.33	1416.02
393.52	1547.09
393.71	1614.97
393.91	1577.52
394.10	1561.14
394.29	1596.25
394.49	1502.62
394.68	1600.93
394.88	1631.35
395.07	1661.78
395.26	1720.29
395.46	1650.08
395.65	1671.14
395.84	1682.85
396.04	1820.94
396.23	1708.59
396.42	1781.15
396.62	1790.51
396.81	1781.15
397.00	1839.66
397.19	1844.34
397.39	1778.81
397.58	1750.72
397.77	1783.49
397.97	1830.30
398.16	1764.76
398.35	1912.22
398.55	1877.11
398.74	1769.44
398.93	2038.61
399.12	1905.20
399.32	1966.05
399.51	1973.07
399.70	1952.01
399.90	1870.09
400.09	2012.86
400.28	2008.18
400.47	2024.56
400.67	2043.29
400.86	1977.75
401.05	2022.22
401.24	2132.23
401.44	2083.08
401.63	2106.48
401.82	2249.25
402.01	2113.50
402.21	2200.10
402.40	2179.04
402.59	2162.66
402.78	2193.08
402.97	2312.45
403.17	2188.40
403.36	2270.32
403.55	2324.15
403.74	2328.83
403.93	2335.85
404.13	2492.67
404.32	2431.82
404.51	2317.13
404.70	2375.64
404.89	2340.54
405.09	2527.78
405.28	2389.69
405.47	2464.58
405.66	2459.90
405.85	2546.50
406.05	2480.97
406.24	2518.42
406.43	2495.01
406.62	2668.21
406.81	2754.81
407.00	2574.59
407.20	2583.95
407.39	2567.57
407.58	2654.17
407.77	2750.13
407.96	2661.19
408.15	2764.17
408.34	2782.90
408.54	2789.92
408.73	2810.98
408.92	2855.45
409.11	2827.37
409.30	2864.82
409.49	2897.58
409.68	2836.73
409.87	2911.63
410.07	3082.49
410.26	3023.97
410.45	3000.57
410.64	2928.01
410.83	3045.04
411.02	3016.95
411.21	3206.53
411.40	2958.44
411.59	3077.80
411.78	3213.56
411.98	3192.49
412.17	3194.83
412.36	3318.88
412.55	3344.63
412.74	3459.31
412.93	3372.71
413.12	3262.71
413.31	3545.91
413.50	3447.61
413.69	3499.10
413.88	3466.33
414.07	3592.72
414.26	3564.64
414.45	3545.91
414.64	3557.61
414.83	3693.37
415.02	3744.86
415.22	3749.54
415.41	3779.97
415.60	3768.26
415.79	3812.73
415.98	3939.12
416.17	3974.23
416.36	3878.27
416.55	3857.20
416.74	3929.76
416.93	3899.33
417.12	3913.38
417.31	4133.39
417.50	4205.94
417.69	4180.20
417.88	4234.03
418.07	4102.96
418.26	4418.93
418.45	4287.86
418.64	4500.85
418.83	4341.69
419.02	4320.63
419.21	4320.63
419.39	4311.27
419.58	4585.11
419.77	4451.70
419.96	4676.39
420.15	4657.67
420.34	4601.49
420.53	4542.98
420.72	4674.05
420.91	4683.41
421.10	4650.64
421.29	4725.54
421.48	4835.55
421.67	4727.88
421.86	4636.60
422.05	4737.24
422.24	4702.14
422.43	4919.81
422.61	4795.76
422.80	4961.94
422.99	4830.87
423.18	4849.59
423.37	4952.57
423.56	4971.30
423.75	4732.56
423.94	4767.67
424.13	4608.51
424.32	4643.62
424.50	5029.81
424.69	5074.28
424.88	5046.20
425.07	4968.96
425.26	4940.87
425.45	4865.97
425.64	4812.14
425.83	4954.91
426.01	4992.36
426.20	4973.64
426.39	5006.41
426.58	4975.98
426.77	5048.54
426.96	5046.20
427.15	5088.32
427.33	5118.75
427.52	4997.04
427.71	5200.67
427.90	5294.29
428.09	5186.63
428.28	5226.42
428.46	5357.49
428.65	5355.15
428.84	5430.04
429.03	5418.34
429.22	5343.44
429.40	5596.22
429.59	5371.53
429.78	5280.25
429.97	5383.23
430.16	5425.36
430.34	5600.90
430.53	5514.30
430.72	5526.00
430.91	5544.73
431.10	5547.07
431.28	5799.85
431.47	5802.19
431.66	5865.38
431.85	5696.86
432.03	5874.74
432.22	6153.27
432.41	5870.06
432.60	5926.24
432.79	5865.38
432.97	5851.34
433.16	5872.40
433.35	5926.24
433.54	5940.28
433.72	6024.54
433.91	6071.35
434.10	6059.65
434.28	5923.90
434.47	6129.86
434.66	5954.32
434.85	6118.16
435.03	6223.48
435.22	6406.05
435.41	6384.98
435.59	6193.06
435.78	6307.74
435.97	6193.06
436.16	6155.61
436.34	6558.18
436.53	6527.75
436.72	6586.27
436.90	6551.16
437.09	6553.50
437.28	6452.86
437.46	6773.51
437.65	6663.51
437.84	6757.13
438.02	6579.25
438.21	6817.98
438.40	6492.65
438.58	7016.93
438.77	6925.65
438.96	6951.39
439.14	7009.90
439.33	7138.63
439.52	7089.48
439.70	7091.82
439.89	7187.79
440.08	7396.09
440.26	7353.96
440.45	7138.63
440.63	7379.71
440.82	7620.78
441.01	7337.58
441.19	7611.42
441.38	7639.51
441.57	7655.89
441.75	7723.77
441.94	7866.54
442.12	7899.31
442.31	7765.90
442.50	7913.35
442.68	7957.82
442.87	7981.23
443.05	7847.82
443.24	8140.38
443.43	8072.51
443.61	8145.06
443.80	8360.39
443.98	8016.33
444.17	8006.97
444.35	8114.64
444.54	8252.73
444.73	8224.64
444.91	8301.88
445.10	8301.88
445.28	8372.10
445.47	8264.43
445.65	8278.47
445.84	8386.14
446.02	8215.28
446.21	8140.38
446.39	8264.43
446.58	8386.14
446.77	8484.44
446.95	8393.16
447.14	8395.50
447.32	8439.97
447.51	8231.66
447.69	8507.85
447.88	8496.14
448.06	8435.29
448.25	8439.97
448.43	8617.85
448.62	8542.96
448.80	8524.23
448.99	8711.47
449.17	8566.36
449.36	8634.24
449.54	8578.06
449.73	8571.04
449.91	8793.39
450.10	8830.84
450.28	9116.39
450.46	9020.42
450.65	8858.93
450.83	9053.19
451.02	8936.17
451.20	9303.63
451.39	8910.42
451.57	9170.22
451.76	9018.08
451.94	9006.38
452.13	9200.65
452.31	9256.82
452.49	8945.53
452.68	9130.43
452.86	9071.92
453.05	9305.97
453.23	9427.68
453.42	9221.71
453.60	9277.88
453.78	9612.58
453.97	9371.50
454.15	9481.51
454.34	9373.85
454.52	9467.47
454.70	9713.22
454.89	9467.47
455.07	9928.55
455.26	9659.39
455.44	9760.03
455.62	9736.63
455.81	9811.53
455.99	10003.45
456.17	9914.51
456.36	9891.10
456.54	10106.43
456.73	10228.14
456.91	10101.75
457.09	10342.83
457.28	10473.90
457.46	10174.31
457.64	10497.30
457.83	10537.09
458.01	10541.77
458.19	10520.71
458.38	10443.47
458.56	10635.39
458.74	10499.64
458.93	10579.22
459.11	10534.75
459.29	10640.08
459.48	10487.94
459.66	10721.99
459.84	10778.17
460.03	10721.99
460.21	11033.29
460.39	10817.96
460.57	10860.09
460.76	11173.72
460.94	11157.33
461.12	11220.53
461.31	10944.34
461.49	11047.33
461.67	11267.34
461.85	11431.18
462.04	11269.68
462.22	11817.36
462.40	11321.17
462.59	11412.45
462.77	11274.36
462.95	11536.50
463.13	11639.48
463.32	11466.28
463.50	11789.28
463.68	11651.19
463.86	11808.00
464.05	11688.64
464.23	11527.14
464.41	11730.76
464.59	11445.22
464.78	11988.22
464.96	11798.64
465.14	11761.19
465.32	11719.06
465.50	11964.82
465.69	12231.64
465.87	11850.13
466.05	12156.74
466.23	11990.56
466.41	11735.45
466.60	12140.36
466.78	12109.93
466.96	12095.89
467.14	12149.72
467.32	12250.36
467.51	12556.97
467.69	11995.25
467.87	12395.48
468.05	12505.48
468.23	12409.52
468.41	12313.56
468.60	12514.84
468.78	12879.97
468.96	12496.12
469.14	12725.49
469.32	12807.41
469.50	12367.39
469.69	12798.05
469.87	13083.59
470.05	13128.06
470.23	12957.21
470.41	13027.42
470.59	13046.15
470.77	12954.87
470.95	12938.48
471.14	13401.91
471.32	13050.83
471.50	13558.72
471.68	13467.44
471.86	13362.12
472.04	13832.57
472.22	13982.36
472.40	13886.40
472.58	13610.22
472.77	13799.80
472.95	14094.71
473.13	14520.68
473.31	13818.52
473.49	13804.48
473.67	14061.94
473.85	14387.27
474.03	14134.50
474.21	14441.11
474.39	14406.00
474.57	14579.20
474.75	14691.54
474.93	15051.99
475.12	14511.32
475.30	14956.02
475.48	15166.67
475.66	14918.57
475.84	14899.85
476.02	15176.03
476.20	15293.06
476.38	15562.22
476.56	15859.47
476.74	15822.02
476.92	15681.59
477.10	15604.35
477.28	15908.62
477.46	16086.50
477.64	16276.09
477.82	16329.92
478.00	16847.18
478.18	16460.99
478.36	17027.40
478.54	16893.99
478.72	17202.94
478.90	17135.06
479.08	17413.59
479.26	17635.94
479.44	17748.28
479.62	17558.70
479.80	17933.18
479.98	18040.85
480.16	18265.54
480.34	17926.16
480.52	18352.14
480.70	18588.53
480.88	18293.63
481.06	18506.62
481.24	18775.78
481.41	18808.54
481.59	19323.46
481.77	19468.58
481.95	19234.52
482.13	19761.14
482.31	19536.45
482.49	20025.62
482.67	20065.41
482.85	20273.72
483.03	20339.26
483.21	20695.02
483.39	20762.89
483.57	20662.25
483.74	20762.89
483.92	21266.11
484.10	20954.82
484.28	21214.62
484.46	21680.38
484.64	21909.75
484.82	21823.16
485.00	22157.85
485.18	22490.21
485.35	22586.17
485.53	22434.03
485.71	22836.61
485.89	23548.13
486.07	23133.86
486.25	23110.45
486.43	23110.45
486.61	24006.87
486.78	23969.43
486.96	23831.33
487.14	24549.88
487.32	24266.67
487.50	24643.50
487.68	24514.77
487.85	25226.29
488.03	25296.51
488.21	25799.73
488.39	25378.43
488.57	25659.29
488.75	25886.32
488.92	25998.67
489.10	26403.58
489.28	26455.08
489.46	26946.59
489.64	26977.01
489.81	27278.94
489.99	27384.27
490.17	27501.29
490.35	27948.34
490.53	28285.37
490.70	28114.52
490.88	27927.27
491.06	28383.68
491.24	28563.90
491.41	28652.84
491.59	28975.83
491.77	28779.23
491.95	29235.63
492.13	29769.27
492.30	29390.11
492.48	29490.75
492.66	30050.14
492.84	29738.85
493.01	30520.59
493.19	30714.85
493.37	30628.25
493.54	31241.47
493.72	31285.94
493.90	30953.58
494.08	31559.78
494.25	31637.02
494.43	31695.53
494.61	31978.74
494.79	31667.45
494.96	32229.18
495.14	32575.58
495.32	32713.67
495.49	32865.80
495.67	32584.94
495.85	33493.07
496.02	33181.77
496.20	33483.70
496.38	33989.26
496.55	33914.36
496.73	34354.38
496.91	34485.45
497.09	34574.39
497.26	34993.35
497.44	34352.04
497.62	34962.92
497.79	35264.85
497.97	35278.89
498.14	35817.22
498.32	35906.16
498.50	35683.81
498.67	36311.07
498.85	36086.38
499.03	36215.11
499.20	36573.21
499.38	36528.74
499.56	36708.96
499.73	36741.73
499.91	37258.99
500.08	37193.45
500.26	37024.93
500.44	37291.76
500.61	37752.84
500.79	37743.48
500.97	37710.71
501.14	37979.87
501.32	38354.36
501.49	38366.06
501.67	38298.19
501.84	38382.45
502.02	38469.04
502.20	38295.85
502.37	39210.99
502.55	38932.47
502.72	39049.50
502.90	38838.85
503.07	39332.70
503.25	39676.76
503.43	39222.70
503.60	39817.19
503.78	39847.62
503.95	40062.95
504.13	39922.52
504.30	40620.00
504.48	39992.73
504.65	40367.22
504.83	40907.88
505.01	41191.09
505.18	40666.81
505.36	41399.40
505.53	40968.74
505.71	41078.74
505.88	41378.33
506.06	41104.49
506.23	41748.14
506.41	41324.50
506.58	41607.70
506.76	41516.42
506.93	42220.92
507.11	42394.12
507.28	42192.84
507.46	42047.72
507.63	42513.49
507.81	42499.45
507.98	42504.13
508.16	42927.77
508.33	42759.25
508.50	43243.74
508.68	43660.35
508.85	43732.91
509.03	43594.82
509.20	43510.56
509.38	43833.55
509.55	44158.89
509.73	44154.21
509.90	44376.56
510.08	44105.06
510.25	44296.98
510.42	44589.55
510.60	45052.97
510.77	44921.90
510.95	45095.10
511.12	44638.70
511.30	44919.56
511.47	44889.13
511.64	45340.86
511.82	45638.11
511.99	45132.55
512.17	45689.60
512.34	45476.61
512.51	45387.67
512.69	46323.88
512.86	45993.87
513.04	46246.65
513.21	46171.75
513.38	46520.49
513.56	46890.29
513.73	46663.26
513.90	46740.50
514.08	46649.22
514.25	46714.75
514.43	46328.56
514.60	47047.11
514.77	47070.51
514.95	47557.35
515.12	47482.45
515.29	47650.97
515.47	47592.45
515.64	47814.80
515.81	47505.85
515.99	47690.76
516.16	48175.25
516.33	47941.19
516.51	48474.84
516.68	48463.13
516.85	48325.04
517.03	48725.27
517.20	48839.96
517.37	48250.14
517.54	48697.19
517.72	48608.25
517.89	48718.25
518.06	49120.82
518.24	48746.34
518.41	48992.09
518.58	49207.42
518.75	49279.98
518.93	49188.70
519.10	48956.99
519.27	49387.64
519.45	49106.78
519.62	49336.15
519.79	49591.27
519.96	49539.78
520.14	49928.31
520.31	49680.21
520.48	50033.63
520.65	49792.56
520.83	50115.55
521.00	50302.79
521.17	50134.28
521.34	50279.39
521.52	50742.81
521.69	50508.76
521.86	50880.91
522.03	50822.39
522.20	50759.20
522.38	51330.29
522.55	50988.57
522.72	50883.25
522.89	50586.00
523.07	51414.55
523.24	51154.75
523.41	51267.09
523.58	50997.93
523.75	51664.99
523.92	51398.16
524.10	51845.21
524.27	51643.92
524.44	51636.90
524.61	51992.66
524.78	51791.37
524.96	51831.16
525.13	51952.87
525.30	52074.58
525.47	52282.89
525.64	52090.96
525.81	52219.69
525.98	52671.42
526.16	51971.60
526.33	52493.54
526.50	52488.85
526.67	52292.25
526.84	52397.57
527.01	52694.82
527.18	52523.96
527.36	52811.85
527.53	52713.55
527.70	52933.56
527.87	53345.49
528.04	52868.02
528.21	52945.26
528.38	52914.83
528.55	53132.50
528.72	53055.26
528.89	53097.39
529.07	53378.26
529.24	53041.22
529.41	53317.40
529.58	53659.12
529.75	53389.96
529.92	53455.50
530.09	53647.42
530.26	53748.06
530.43	53680.19
530.60	53499.97
530.77	53762.11
530.94	53717.64
531.11	53883.81
531.28	53895.52
531.46	53815.94
531.63	54141.27
531.80	54340.22
531.97	54059.35
532.14	54295.75
532.31	54368.30
532.48	54129.57
532.65	54363.62
532.82	54340.22
532.99	54635.13
533.16	54209.15
533.33	54490.01
533.50	54745.13
533.67	54518.10
533.84	54508.74
534.01	54855.14
534.18	54632.78
534.35	54925.35
534.52	54658.53
534.69	54777.90
534.86	55082.17
535.03	54672.57
535.20	54908.97
535.37	54934.71
535.54	55117.28
535.71	55168.77
535.88	55437.93
536.05	55208.56
536.22	55089.19
536.38	55276.43
536.55	55288.13
536.72	55447.29
536.89	55210.90
537.06	55112.59
537.23	55501.12
537.40	55430.91
537.57	55547.93
537.74	55299.84
537.91	55875.61
538.08	55597.09
538.25	55561.98
538.42	55753.90
538.59	55798.37
538.75	55758.58
538.92	55789.01
539.09	55732.84
539.26	55840.50
539.43	55810.07
539.60	55964.55
539.77	56182.22
539.94	56037.11
540.11	56086.26
540.28	56175.20
540.44	56299.25
540.61	56226.69
540.78	56069.87
540.95	56170.52
541.12	56163.50
541.29	56233.71
541.46	56446.70
541.62	56662.03
541.79	56402.23
541.96	56200.94
542.13	56446.70
542.30	56402.23
542.47	56587.13
542.63	56516.92
542.80	56830.55
542.97	56893.74
543.14	56938.21
543.31	56947.57
543.48	56975.66
543.64	57352.49
543.81	57118.43
543.98	57179.29
544.15	57162.90
544.32	57102.05
544.48	57249.50
544.65	57209.71
544.82	57420.36
544.99	57003.75
545.16	57340.78
545.32	57350.15
545.49	57626.33
545.66	57694.21
545.83	57506.96
546.00	57572.50
546.16	57549.09
546.33	57443.77
546.50	57228.44
546.67	57432.07
546.83	57176.95
547.00	57464.83
547.17	57289.29
547.34	57668.46
547.50	57563.14
547.67	57932.94
547.84	57593.56
548.00	57829.96
548.17	57874.43
548.34	57855.70
548.51	57900.17
548.67	57858.04
548.84	57958.69
549.01	57743.36
549.18	58031.24
549.34	58019.54
549.51	57949.32
549.68	58258.27
549.84	58246.57
550.01	58227.85
550.18	58092.10
550.34	58272.32
550.51	58412.75
550.68	58206.78
550.84	57979.75
551.01	58190.40
551.18	58148.27
551.34	58216.14
551.51	58389.34
551.68	58178.70
551.84	58712.34
552.01	58440.84
552.18	58464.24
552.34	58335.51
552.51	58482.97
552.68	58408.07
552.84	58518.07
553.01	58824.68
553.18	58848.09
553.34	58791.92
553.51	58604.67
553.67	58663.19
553.84	58663.19
554.01	58742.77
554.17	58543.82
554.34	58871.49
554.51	58841.07
554.67	58897.24
554.84	58836.39
555.00	58686.59
555.17	58747.45
555.33	59068.10
555.50	58562.54
555.67	58918.31
555.83	59058.74
556.00	58990.86
556.16	59355.99
556.33	59124.27
556.50	58937.03
556.66	59292.79
556.83	59112.57
556.99	59091.51
557.16	59297.47
557.32	59454.29
557.49	59463.65
557.65	59192.15
557.82	59267.05
557.98	59313.86
558.15	59227.26
558.32	59217.89
558.48	59154.70
558.65	59297.47
558.81	59405.14
558.98	59234.28
559.14	59238.96
559.31	59379.39
559.47	59426.20
559.64	59557.27
559.80	59578.34
559.97	59718.77
560.13	59358.33
560.30	59437.90
560.46	59407.48
560.63	59517.48
560.79	59625.15
560.96	59704.73
561.12	59531.53
561.29	59508.12
561.45	59751.54
561.61	59608.76
561.78	59545.57
561.94	59601.74
562.11	59662.60
562.27	59714.09
562.44	59861.54
562.60	59793.67
562.77	59561.95
562.93	59554.93
563.10	59730.47
563.26	59585.36
563.42	59854.52
563.59	59817.07
563.75	59763.24
563.92	60046.44
564.08	59723.45
564.24	60048.78
564.41	59854.52
564.57	59929.42
564.74	59817.07
564.90	59936.44
565.07	60114.32
565.23	59983.25
565.39	59863.88
565.56	60168.15
565.72	59840.48
565.88	60023.04
566.05	60128.36
566.21	60053.47
566.38	59966.87
566.54	60165.81
566.70	60214.96
566.87	60259.43
567.03	60079.21
567.19	60121.34
567.36	60219.64
567.52	59990.27
567.68	60390.50
567.85	60104.96
568.01	60357.74
568.17	60069.85
568.34	60341.35
568.50	60140.07
568.66	60151.77
568.83	60065.17
568.99	60236.03
569.15	60434.97
569.32	60346.03
569.48	60303.90
569.64	60189.22
569.81	60217.30
569.97	60079.21
570.13	60264.11
570.30	60060.49
570.46	60491.15
570.62	60317.95
570.78	60245.39
570.95	60320.29
571.11	60526.25
571.27	60331.99
571.43	60250.07
571.60	60317.95
571.76	60324.97
571.92	60533.28
572.09	60374.12
572.25	60350.71
572.41	60310.92
572.57	60385.82
572.74	60570.72
572.90	60371.78
573.06	60285.18
573.22	60453.70
573.38	60268.79
573.55	60516.89
573.71	60598.81
573.87	60385.82
574.03	60413.91
574.20	60444.33
574.36	60444.33
574.52	60596.47
574.68	60664.35
574.84	60610.51
575.01	60453.70
575.17	60659.66
575.33	60449.02
575.49	60343.69
575.65	60573.06
575.82	60463.06
575.98	60685.41
576.14	60575.40
576.30	60594.13
576.46	60549.66
576.62	60493.49
576.79	60640.94
576.95	60486.46
577.11	60776.69
577.27	60570.72
577.43	60692.43
577.59	60472.42
577.75	60505.19
577.92	60229.01
578.08	60814.14
578.24	60750.94
578.40	60657.32
578.56	60748.60
578.72	60673.71
578.88	60846.91
579.04	60865.63
579.21	60739.24
579.37	60772.01
579.53	60699.45
579.69	60568.38
579.85	60346.03
580.01	60645.62
580.17	60477.10
580.33	60722.86
580.49	60825.84
580.65	60680.73
580.82	60570.72
580.98	60701.79
581.14	60549.66
581.30	60631.58
581.46	60832.86
581.62	61013.08
581.78	60828.18
581.94	60664.35
582.10	60924.14
582.26	60563.70
582.42	60512.21
582.58	60631.58
582.74	60776.69
582.90	60762.65
583.06	60816.48
583.22	60470.08
583.38	60664.35
583.54	60844.57
583.70	60905.42
583.86	60781.37
584.02	60963.93
584.18	60893.72
584.34	60633.92
584.50	60832.86
584.66	60687.75
584.82	60596.47
584.98	60992.02
585.14	60975.64
585.30	60647.96
585.46	60973.30
585.62	60924.14
585.78	60891.38
585.94	60514.55
586.10	60849.25
586.26	60917.12
586.42	60863.29
586.58	60942.87
586.74	60837.54
586.90	60671.37
587.06	60769.67
587.22	61013.08
587.38	60666.69
587.54	61029.47
587.70	61043.51
587.86	60837.54
588.02	60715.84
588.18	61099.68
588.34	60832.86
588.49	61036.49
