SpectraSuite Data File
++++++++++++++++++++++++++++++++++++
Date: Fri Oct 25 10:46:55 EDT 2013
User: price-jones
Dark Spectrum Present: No
Reference Spectrum Present: No
Number of Sampled Component Spectra: 1
Spectrometers: USB2+H05261
Integration Time (usec): 100000 (USB2+H05261)
Spectra Averaged: 1 (USB2+H05261)
Boxcar Smoothing: 0 (USB2+H05261)
Correct for Electrical Dark: No (USB2+H05261)
Strobe/Lamp Enabled: No (USB2+H05261)
Correct for Detector Non-linearity: No (USB2+H05261)
Correct for Stray Light: No (USB2+H05261)
Number of Pixels in Processed Spectrum: 2048
>>>>>Begin Processed Spectral Data<<<<<
365.73	133.41
365.92	133.41
366.12	133.41
366.32	65.54
366.52	18.72
366.72	117.03
366.91	25.75
367.11	100.64
367.31	74.90
367.51	77.24
367.70	49.15
367.90	70.22
368.10	14.04
368.30	79.58
368.49	42.13
368.69	7.02
368.89	67.88
369.09	88.94
369.28	79.58
369.48	72.56
369.68	44.47
369.87	138.09
370.07	91.28
370.27	135.75
370.47	250.44
370.66	447.04
370.86	425.98
371.06	505.56
371.25	475.13
371.45	411.93
371.65	477.47
371.84	442.36
372.04	463.43
372.24	498.53
372.44	458.74
372.63	521.94
372.83	559.39
373.03	493.85
373.22	503.22
373.42	524.28
373.62	533.64
373.81	554.71
374.01	638.97
374.21	535.98
374.40	538.32
374.60	543.00
374.79	559.39
374.99	491.51
375.19	627.26
375.38	589.82
375.58	599.18
375.78	641.31
375.97	657.69
376.17	594.50
376.37	669.39
376.56	669.39
376.76	606.20
376.95	601.52
377.15	641.31
377.35	660.03
377.54	629.60
377.74	622.58
377.93	660.03
378.13	662.37
378.33	664.71
378.52	660.03
378.72	699.82
378.91	648.33
379.11	669.39
379.31	732.59
379.50	711.52
379.70	720.88
379.89	664.71
380.09	744.29
380.28	695.14
380.48	653.01
380.68	704.50
380.87	662.37
381.07	755.99
381.26	774.72
381.46	648.33
381.65	723.23
381.85	730.25
382.04	727.91
382.24	709.18
382.43	683.44
382.63	748.97
382.83	683.44
383.02	723.23
383.22	734.93
383.41	784.08
383.61	713.86
383.80	772.38
384.00	784.08
384.19	730.25
384.39	807.48
384.58	835.57
384.78	718.54
384.97	777.06
385.17	868.34
385.36	730.25
385.56	767.70
385.75	908.13
385.95	833.23
386.14	800.46
386.34	826.21
386.53	823.87
386.72	863.66
386.92	842.59
387.11	868.34
387.31	926.85
387.50	880.04
387.70	880.04
387.89	861.32
388.09	837.91
388.28	940.90
388.48	915.15
388.67	1025.15
388.86	1004.09
389.06	903.45
389.25	968.98
389.45	964.30
389.64	971.32
389.84	898.77
390.03	999.41
390.22	1111.75
390.42	1011.11
390.61	910.47
390.81	1006.43
391.00	1018.13
391.19	1163.25
391.39	990.05
391.58	1041.54
391.78	1032.18
391.97	1057.92
392.16	1086.01
392.36	1043.88
392.55	1060.26
392.75	1064.94
392.94	1039.20
393.13	966.64
393.33	950.26
393.52	1048.56
393.71	1146.86
393.91	1151.54
394.10	1090.69
394.29	1104.73
394.49	1095.37
394.68	1238.14
394.88	1163.25
395.07	1308.36
395.26	1242.82
395.46	1186.65
395.65	1249.85
395.84	1299.00
396.04	1263.89
396.23	1196.01
396.42	1086.01
396.62	1247.51
396.81	1303.68
397.00	1198.35
397.19	1247.51
397.39	1287.29
397.58	1394.96
397.77	1373.89
397.97	1242.82
398.16	1413.68
398.35	1497.94
398.55	1455.81
398.74	1409.00
398.93	1469.86
399.12	1444.11
399.32	1469.86
399.51	1502.62
399.70	1558.80
399.90	1589.22
400.09	1570.50
400.28	1631.35
400.47	1547.09
400.67	1624.33
400.86	1647.74
401.05	1633.69
401.24	1619.65
401.44	1633.69
401.63	1736.68
401.82	1703.91
402.01	1746.04
402.21	1785.83
402.40	1638.38
402.59	1727.32
402.78	1804.55
402.97	1771.79
403.17	1755.40
403.36	1809.23
403.55	1785.83
403.74	1806.89
403.93	1767.10
404.13	1937.96
404.32	1792.85
404.51	1832.64
404.70	1877.11
404.89	1762.42
405.09	1926.26
405.28	1776.47
405.47	1827.96
405.66	1994.14
405.85	1947.33
406.05	1991.80
406.24	1923.92
406.43	2026.90
406.62	2015.20
406.81	2118.18
407.00	2003.50
407.20	2045.63
407.39	2162.66
407.58	2157.97
407.77	2106.48
407.96	2239.89
408.15	2209.47
408.34	2076.06
408.54	2267.98
408.73	2169.68
408.92	2200.10
409.11	2424.80
409.30	2165.00
409.49	2157.97
409.68	2237.55
409.87	2340.54
410.07	2417.77
410.26	2354.58
410.45	2382.67
410.64	2401.39
410.83	2516.08
411.02	2436.50
411.21	2499.69
411.40	2375.64
411.59	2534.80
411.78	2605.02
411.98	2626.08
412.17	2607.36
412.36	2626.08
412.55	2736.09
412.74	2693.96
412.93	2708.00
413.12	2708.00
413.31	2871.84
413.50	2745.45
413.69	2841.41
413.88	2918.65
414.07	3063.76
414.26	3002.91
414.45	3042.70
414.64	2944.39
414.83	2869.50
415.02	3108.23
415.22	3038.02
415.41	3070.78
415.60	3110.57
415.79	3131.64
415.98	3194.83
416.17	3243.98
416.36	3204.19
416.55	3258.03
416.74	3201.85
416.93	3220.58
417.12	3251.00
417.31	3283.77
417.50	3309.52
417.69	3379.73
417.88	3300.16
418.07	3428.88
418.26	3358.67
418.45	3459.31
418.64	3609.11
418.83	3630.17
419.02	3503.78
419.21	3602.08
419.39	3527.19
419.58	3583.36
419.77	3442.93
419.96	3529.53
420.15	3695.71
420.34	3637.19
420.53	3782.31
420.72	3843.16
420.91	3744.86
421.10	3754.22
421.29	3810.39
421.48	3695.71
421.67	3786.99
421.86	3691.02
422.05	3808.05
422.24	3637.19
422.43	3744.86
422.61	3754.22
422.80	3852.52
422.99	3782.31
423.18	3786.99
423.37	3971.89
423.56	3946.14
423.75	3889.97
423.94	3833.80
424.13	3801.03
424.32	3744.86
424.50	3988.27
424.69	4018.70
424.88	4014.02
425.07	3946.14
425.26	3789.33
425.45	3906.35
425.64	3861.88
425.83	3929.76
426.01	4070.19
426.20	4046.79
426.39	4051.47
426.58	4030.40
426.77	3864.22
426.96	3885.29
427.15	3934.44
427.33	4030.40
427.52	4046.79
427.71	4070.19
427.90	4100.62
428.09	4250.41
428.28	4131.05
428.46	4037.42
428.65	4173.18
428.84	4250.41
429.03	4276.16
429.22	4058.49
429.40	4238.71
429.59	4152.11
429.78	3978.91
429.97	4021.04
430.16	4074.87
430.34	4093.60
430.53	4152.11
430.72	4056.15
430.91	4135.73
431.10	4308.93
431.28	4496.17
431.47	4505.53
431.66	4615.54
431.85	4430.63
432.03	4606.17
432.22	4744.27
432.41	4690.43
432.60	4507.87
432.79	4692.77
432.97	4557.02
433.16	4699.80
433.35	4592.13
433.54	4667.03
433.72	4601.49
433.91	4795.76
434.10	4870.65
434.28	4732.56
434.47	4819.16
434.66	4851.93
434.85	4959.60
435.03	4954.91
435.22	4929.17
435.41	4952.57
435.59	5046.20
435.78	5032.15
435.97	5163.22
436.16	4985.34
436.34	5041.51
436.53	5046.20
436.72	5165.56
436.90	4952.57
437.09	5146.84
437.28	5142.16
437.46	5102.37
437.65	4980.66
437.84	5268.55
438.02	5015.77
438.21	5160.88
438.40	5043.85
438.58	5334.08
438.77	5371.53
438.96	5287.27
439.14	5423.02
439.33	5605.58
439.52	5619.63
439.70	5565.79
439.89	5652.39
440.08	5731.97
440.26	5699.20
440.45	5680.48
440.63	5898.15
440.82	5921.56
441.01	6008.16
441.19	5942.62
441.38	5935.60
441.57	6251.57
441.75	6001.13
441.94	6317.11
442.12	6174.33
442.31	6286.68
442.50	6153.27
442.68	6333.49
442.87	6263.27
443.05	6310.08
443.24	6410.73
443.43	6406.05
443.61	6377.96
443.80	6562.86
443.98	6253.91
444.17	6129.86
444.35	6328.81
444.54	6413.07
444.73	6363.92
444.91	6361.58
445.10	6445.84
445.28	6331.15
445.47	6471.58
445.65	6473.92
445.84	6445.84
446.02	6502.01
446.21	6548.82
446.39	6401.37
446.58	6443.49
446.77	6576.91
446.95	6595.63
447.14	6476.26
447.32	6670.53
447.51	6417.75
447.69	6691.59
447.88	6558.18
448.06	6574.56
448.25	6698.61
448.43	6612.01
448.62	6705.63
448.80	6834.36
448.99	6602.65
449.17	6654.14
449.36	6698.61
449.54	7059.06
449.73	6972.46
449.91	6850.75
450.10	7012.24
450.28	7098.84
450.46	7178.42
450.65	7208.85
450.83	7129.27
451.02	7150.34
451.20	7037.99
451.39	7115.23
451.57	7056.72
451.76	7070.76
451.94	7082.46
452.13	7089.48
452.31	7019.27
452.49	7059.06
452.68	7164.38
452.86	6974.80
453.05	7201.83
453.23	7276.73
453.42	7452.27
453.60	7309.49
453.78	7410.14
453.97	7480.35
454.15	7353.96
454.34	7283.75
454.52	7363.33
454.70	7384.39
454.89	7400.77
455.07	7260.34
455.26	7585.68
455.44	7634.83
455.62	7513.12
455.81	7555.25
455.99	7609.08
456.17	7824.41
456.36	7730.79
456.54	7786.96
456.73	7854.84
456.91	7941.44
457.09	8063.15
457.28	8154.43
457.46	7932.08
457.64	8039.74
457.83	7864.20
458.01	7866.54
458.19	8306.56
458.38	8156.77
458.56	8224.64
458.74	8278.47
458.93	8140.38
459.11	8388.48
459.29	8126.34
459.48	8299.54
459.66	8313.58
459.84	8336.99
460.03	8461.04
460.21	8318.26
460.39	8430.61
460.57	8372.10
460.76	8327.63
460.94	8423.59
461.12	8613.17
461.31	8657.64
461.49	8404.86
461.67	8470.40
461.85	8891.70
462.04	8711.47
462.22	9172.56
462.40	8959.57
462.59	8816.80
462.77	8917.44
462.95	8917.44
463.13	8821.48
463.32	8912.76
463.50	9004.04
463.68	8961.91
463.86	8835.52
464.05	8732.54
464.23	8816.80
464.41	8908.08
464.59	8877.65
464.78	8919.78
464.96	9018.08
465.14	8875.31
465.32	9160.86
465.50	9200.65
465.69	9298.95
465.87	9151.49
466.05	8931.48
466.23	9032.13
466.41	9137.45
466.60	9341.08
466.78	9062.55
466.96	9149.15
467.14	9303.63
467.32	9486.19
467.51	9390.23
467.69	9207.67
467.87	9446.40
468.05	9317.67
468.23	9305.97
468.41	9364.48
468.60	9437.04
468.78	9167.88
468.96	9472.15
469.14	9542.36
469.32	9776.42
469.50	9277.88
469.69	9589.17
469.87	9736.63
470.05	9816.21
470.23	9760.03
470.41	9914.51
470.59	9951.96
470.77	9715.56
470.95	9970.68
471.14	9942.60
471.32	9898.13
471.50	10183.67
471.68	10356.87
471.86	10319.42
472.04	10253.89
472.22	10583.90
472.40	9951.96
472.58	10132.18
472.77	10324.10
472.95	10567.52
473.13	10771.15
473.31	10305.38
473.49	10485.60
473.67	10607.31
473.85	10743.06
474.03	10871.79
474.21	10902.22
474.39	10848.38
474.57	10883.49
474.75	11052.01
474.93	11281.38
475.12	11136.27
475.30	11091.80
475.48	11318.83
475.66	11204.14
475.84	11173.72
476.02	11557.57
476.20	11363.30
476.38	11576.29
476.56	11918.01
476.74	11686.29
476.92	11723.74
477.10	11990.56
477.28	12011.63
477.46	11927.37
477.64	11934.39
477.82	12245.68
478.00	12201.21
478.18	12468.03
478.36	12379.09
478.54	12631.87
478.72	12706.77
478.90	12725.49
479.08	12753.58
479.26	12961.89
479.44	13273.18
479.62	13144.45
479.80	13095.30
479.98	13097.64
480.16	13521.27
480.34	13448.72
480.52	13605.53
480.70	13769.37
480.88	13699.16
481.06	13717.88
481.24	13930.87
481.41	14157.90
481.59	14279.61
481.77	14291.31
481.95	14462.17
482.13	14492.60
482.31	14560.47
482.49	14817.93
482.67	14565.15
482.85	14803.89
483.03	14930.28
483.21	15309.44
483.39	15166.67
483.57	15300.08
483.74	15564.56
483.92	15796.28
484.10	15484.98
484.28	15768.19
484.46	15796.28
484.64	16163.74
484.82	15985.86
485.00	15859.47
485.18	16416.52
485.35	16343.96
485.53	16159.06
485.71	16035.01
485.89	16498.44
486.07	16465.67
486.25	16713.77
486.43	16884.62
486.61	16933.78
486.78	17174.85
486.96	17081.23
487.14	17703.81
487.32	17825.52
487.50	17699.13
487.68	18047.87
487.85	18391.93
488.03	18405.97
488.21	18494.91
488.39	18616.62
488.57	18640.03
488.75	18558.11
488.92	19054.30
489.10	19276.65
489.28	19384.32
489.46	19367.93
489.64	19660.50
489.81	19901.58
489.99	19892.21
490.17	20095.84
490.35	20025.62
490.53	20402.45
490.70	20189.46
490.88	20430.54
491.06	20931.41
491.24	20496.07
491.41	20774.60
491.59	20840.13
491.77	20802.68
491.95	21041.42
492.13	21404.20
492.30	21759.96
492.48	21434.63
492.66	21649.96
492.84	21553.99
493.01	21926.14
493.19	21921.46
493.37	21947.20
493.54	22146.15
493.72	22258.49
493.90	22632.98
494.08	22632.98
494.25	22944.27
494.43	23044.91
494.61	23234.50
494.79	23227.48
494.96	23386.63
495.14	23346.84
495.32	23531.75
495.49	23824.31
495.67	23882.83
495.85	24016.24
496.02	24177.73
496.20	24144.97
496.38	24496.05
496.55	24245.61
496.73	24748.82
496.91	24978.20
497.09	24760.53
497.26	24915.00
497.44	24999.26
497.62	25062.46
497.79	25376.09
497.97	25170.12
498.14	25027.35
498.32	25462.69
498.50	25631.21
498.67	25804.41
498.85	25771.64
499.03	26066.55
499.20	26038.46
499.38	26064.21
499.56	26251.45
499.73	26426.99
499.91	26387.20
500.08	26656.36
500.26	26703.17
500.44	26609.55
500.61	26529.97
500.79	26897.44
500.97	26815.52
501.14	27234.47
501.32	27260.22
501.49	26815.52
501.67	27077.66
501.84	27227.45
502.02	27508.32
502.20	27484.91
502.37	27527.04
502.55	27618.32
502.72	27754.07
502.90	28051.32
503.07	28212.82
503.25	28140.26
503.43	27845.35
503.60	28128.56
503.78	27995.15
503.95	28327.50
504.13	28084.09
504.30	28952.43
504.48	28844.76
504.65	28929.02
504.83	28891.57
505.01	28950.09
505.18	29209.89
505.36	29551.60
505.53	29413.51
505.71	30057.16
505.88	29858.21
506.06	29165.42
506.23	29355.00
506.41	29233.29
506.58	29326.91
506.76	29919.07
506.93	30127.38
507.11	29654.59
507.28	29537.56
507.46	30085.25
507.63	29902.68
507.81	30059.50
507.98	29933.11
508.16	30305.26
508.33	30426.96
508.50	30796.77
508.68	30714.85
508.85	31122.10
509.03	30700.81
509.20	31115.08
509.38	30939.54
509.55	31157.21
509.73	31260.20
509.90	30988.69
510.08	31194.66
510.25	30972.31
510.42	31637.02
510.60	31489.57
510.77	31655.75
510.95	31803.20
511.12	32072.36
511.30	31761.07
511.47	32095.77
511.64	32268.97
511.82	32329.82
511.99	31999.80
512.17	32435.14
512.34	31868.73
512.51	32341.52
512.69	32580.26
512.86	33193.48
513.04	33188.80
513.21	32807.29
513.38	32884.53
513.56	32938.36
513.73	32479.61
513.90	32896.23
514.08	33280.08
514.25	33378.38
514.43	32755.80
514.60	33242.63
514.77	33481.36
514.95	33462.64
515.12	33605.41
515.29	33642.86
515.47	33851.17
515.64	33675.63
515.81	33624.14
515.99	33935.43
516.16	33886.28
516.33	33567.96
516.51	33858.19
516.68	33200.50
516.85	33118.58
517.03	33464.98
517.20	34256.08
517.37	34464.39
517.54	34108.63
517.72	34253.74
517.89	33811.38
518.06	33986.92
518.24	34073.52
518.41	34342.68
518.58	34382.47
518.75	34511.20
518.93	34913.77
519.10	34672.70
519.27	34866.96
519.45	34850.58
519.62	35330.39
519.79	35342.09
519.96	35314.00
520.14	35686.15
520.31	34955.90
520.48	35498.91
520.65	35299.96
520.83	35920.20
521.00	36077.02
521.17	36388.31
521.34	35803.17
521.52	35613.59
521.69	35833.60
521.86	36245.54
522.03	36203.41
522.20	35992.76
522.38	36247.88
522.55	36573.21
522.72	36449.16
522.89	36149.57
523.07	36479.59
523.24	36498.31
523.41	36596.62
523.58	36943.02
523.75	37282.39
523.92	37158.34
524.10	37195.79
524.27	37062.38
524.44	37137.28
524.61	37392.40
524.78	37600.71
524.96	37645.18
525.13	38127.33
525.30	37422.83
525.47	37998.60
525.64	37738.80
525.81	37736.46
525.98	37715.39
526.16	37228.56
526.33	37661.56
526.50	37558.58
526.67	37170.05
526.84	38087.54
527.01	37193.45
527.18	37638.15
527.36	38014.98
527.53	38745.23
527.70	38440.96
527.87	38270.10
528.04	38183.50
528.21	38815.44
528.38	38279.46
528.55	38602.46
528.72	39007.37
528.89	38850.55
529.07	39218.02
529.24	38595.43
529.41	38728.84
529.58	38724.16
529.75	38946.51
529.92	39105.67
530.09	38466.70
530.26	39140.78
530.43	39580.80
530.60	39615.91
530.77	38834.17
530.94	39082.27
531.11	39316.32
531.28	39335.04
531.46	40034.86
531.63	39880.39
531.80	39426.32
531.97	39323.34
532.14	39686.12
532.31	39161.84
532.48	39690.80
532.65	39896.77
532.82	39571.44
532.99	40048.91
533.16	39508.24
533.33	39800.81
533.50	40259.55
533.67	40187.00
533.84	39758.68
534.01	40074.65
534.18	39618.25
534.35	40568.51
534.52	40294.66
534.69	41055.34
534.86	40208.06
535.03	40289.98
535.20	40879.80
535.37	40786.18
535.54	40598.93
535.71	40627.02
535.88	41273.01
536.05	40652.76
536.22	41106.83
536.38	40931.29
536.55	40762.77
536.72	41001.50
536.89	40727.66
537.06	41462.59
537.23	41319.82
537.40	41078.74
537.57	41139.60
537.74	41326.84
537.91	41787.92
538.08	41179.39
538.25	41209.81
538.42	41373.65
538.59	41530.47
538.75	41067.04
538.92	41598.34
539.09	41486.00
539.26	41198.11
539.43	41464.93
539.60	41502.38
539.77	41593.66
539.94	41720.05
540.11	41411.10
540.28	41846.44
540.44	41614.72
540.61	41794.95
540.78	41792.61
540.95	41689.62
541.12	42206.88
541.29	41584.30
541.46	41834.74
541.62	41935.38
541.79	42504.13
541.96	41914.31
542.13	42061.77
542.30	42103.90
542.47	42417.53
542.63	42075.81
542.80	42134.32
542.97	43019.05
543.14	43030.75
543.31	42569.66
543.48	42368.38
543.64	43119.69
543.81	42972.24
543.98	42703.07
544.15	42983.94
544.32	42913.72
544.48	43337.36
544.65	43000.32
544.82	43250.76
544.99	42611.79
545.16	42927.77
545.32	42923.08
545.49	43178.20
545.66	43445.02
545.83	43590.14
546.00	43164.16
546.16	43573.75
546.33	43007.34
546.50	43033.09
546.67	43578.43
546.83	42995.64
547.00	42972.24
547.17	43161.82
547.34	43356.08
547.50	43592.48
547.67	44018.46
547.84	43566.73
548.00	43667.37
548.17	44196.34
548.34	43377.15
548.51	44093.35
548.67	44137.82
548.84	44215.06
549.01	43906.11
549.18	44011.43
549.34	43849.94
549.51	44105.06
549.68	43835.89
549.84	44196.34
550.01	44374.22
550.18	44465.50
550.34	44156.55
550.51	43817.17
550.68	43871.00
550.84	43966.96
551.01	44306.34
551.18	44535.71
551.34	44081.65
551.51	44201.02
551.68	44505.29
551.84	44065.27
552.01	44083.99
552.18	44839.98
552.34	43821.85
552.51	44793.17
552.68	44282.94
552.84	44690.19
553.01	44706.57
553.18	44554.44
553.34	44690.19
553.51	44648.06
553.67	44729.98
553.84	44935.95
554.01	44701.89
554.17	45167.66
554.34	44952.33
554.51	44868.07
554.67	44671.46
554.84	45088.08
555.00	45003.82
555.17	44793.17
555.33	44856.37
555.50	44769.77
555.67	44800.19
555.83	44971.05
556.00	45151.27
556.16	45338.52
556.33	44868.07
556.50	44671.46
556.66	45354.90
556.83	44449.11
556.99	45294.05
557.16	45265.96
557.32	45127.87
557.49	45275.32
557.65	44987.44
557.82	45120.85
557.98	44994.46
558.15	45209.79
558.32	45303.41
558.48	45134.89
558.65	45485.97
558.81	45291.71
558.98	45263.62
559.14	45446.18
559.31	45102.12
559.47	45469.59
559.64	45701.30
559.80	45921.31
559.97	45720.02
560.13	45394.69
560.30	45359.58
560.46	45792.58
560.63	45663.85
560.79	45909.61
560.96	45640.45
561.12	45682.58
561.29	45495.33
561.45	45588.95
561.61	45624.06
561.78	45359.58
561.94	45450.86
562.11	45434.48
562.27	45249.58
562.44	45722.37
562.60	45799.60
562.77	45996.21
562.93	45961.10
563.10	45832.37
563.26	45626.40
563.42	46288.77
563.59	45549.17
563.75	46010.25
563.92	46089.83
564.08	45961.10
564.24	45968.12
564.41	46241.96
564.57	45504.70
564.74	45818.33
564.90	46206.86
565.07	45940.04
565.23	45783.22
565.39	45844.07
565.56	46167.07
565.72	45708.32
565.88	45617.04
566.05	46071.10
566.21	46153.02
566.38	45797.26
566.54	45830.03
566.70	45970.46
566.87	46337.93
567.03	46122.60
567.19	46314.52
567.36	46284.09
567.52	45977.48
567.68	46110.89
567.85	45972.80
568.01	46209.20
568.17	46241.96
568.34	46206.86
568.50	46131.96
568.66	45883.86
568.83	45759.81
568.99	46021.95
569.15	46204.52
569.32	45691.94
569.48	45808.96
569.64	46438.57
569.81	46188.13
569.97	46014.93
570.13	46326.22
570.30	45848.75
570.46	46227.92
570.62	45743.43
570.78	45696.62
570.95	45460.23
571.11	46124.94
571.27	46227.92
571.43	45827.69
571.60	46494.74
571.76	45904.93
571.92	46213.88
572.09	45937.69
572.25	46342.61
572.41	46047.70
572.57	46143.66
572.74	46754.54
572.90	46351.97
573.06	46443.25
573.22	45961.10
573.38	46571.98
573.55	46073.45
573.71	46621.13
573.87	45673.21
574.03	46347.29
574.20	46314.52
574.36	46047.70
574.52	46471.34
574.68	46188.13
574.84	46689.01
575.01	46667.94
575.17	46349.63
575.33	45860.46
575.49	46059.40
575.65	46508.79
575.82	46555.60
575.98	46174.09
576.14	46443.25
576.30	46593.04
576.46	46270.05
576.62	45806.62
576.79	46686.67
576.95	46129.62
577.11	46401.12
577.27	46391.76
577.43	46595.38
577.59	46206.86
577.75	45944.72
577.92	46078.13
578.08	46579.00
578.24	46143.66
578.40	46094.51
578.56	46167.07
578.72	46012.59
578.88	46382.40
579.04	46476.02
579.21	46366.01
579.37	46543.89
579.53	46698.37
579.69	46419.84
579.85	46445.59
580.01	46459.63
580.17	46354.31
580.33	46548.57
580.49	46265.37
580.65	46677.30
580.82	46707.73
580.98	46335.59
581.14	46576.66
581.30	46777.95
581.46	46604.75
581.62	46721.77
581.78	46611.77
581.94	47040.09
582.10	46232.60
582.26	46527.51
582.42	46354.31
582.58	46373.03
582.74	46244.30
582.90	46618.79
583.06	46761.56
583.22	46621.13
583.38	46831.78
583.54	46574.32
583.70	46852.84
583.86	46539.21
584.02	46113.23
584.18	46768.58
584.34	46562.62
584.50	46548.57
584.66	46653.90
584.82	46234.94
584.98	46527.51
585.14	46932.42
585.30	46347.29
585.46	46258.35
585.62	46045.36
585.78	46506.44
585.94	46251.33
586.10	46712.41
586.26	46209.20
586.42	46848.16
586.58	46616.45
586.74	46644.54
586.90	46197.49
587.06	46279.41
587.22	46618.79
587.38	46050.04
587.54	46656.24
587.70	46607.09
587.86	46424.53
588.02	46579.00
588.18	46417.50
588.34	46803.69
588.49	46199.83
588.65	46012.59
588.81	46461.97
588.97	46277.07
589.13	46038.34
589.29	46375.37
589.45	46321.54
589.61	46321.54
589.77	46927.74
589.93	46525.17
