SpectraSuite Data File
++++++++++++++++++++++++++++++++++++
Date: Fri Oct 25 10:47:59 EDT 2013
User: price-jones
Dark Spectrum Present: No
Reference Spectrum Present: No
Number of Sampled Component Spectra: 1
Spectrometers: USB2+H05261
Integration Time (usec): 100000 (USB2+H05261)
Spectra Averaged: 1 (USB2+H05261)
Boxcar Smoothing: 0 (USB2+H05261)
Correct for Electrical Dark: No (USB2+H05261)
Strobe/Lamp Enabled: No (USB2+H05261)
Correct for Detector Non-linearity: No (USB2+H05261)
Correct for Stray Light: No (USB2+H05261)
Number of Pixels in Processed Spectrum: 2048
>>>>>Begin Processed Spectral Data<<<<<
365.73	149.79
365.92	149.79
366.12	149.79
366.32	18.72
366.52	18.72
366.72	70.22
366.91	16.38
367.11	9.36
367.31	21.06
367.51	53.83
367.70	49.15
367.90	67.88
368.10	0.00
368.30	0.00
368.49	4.68
368.69	21.06
368.89	4.68
369.09	88.94
369.28	70.22
369.48	63.19
369.68	133.41
369.87	105.32
370.07	70.22
370.27	133.41
370.47	196.60
370.66	334.70
370.86	355.76
371.06	479.81
371.25	484.49
371.45	463.43
371.65	416.62
371.84	397.89
372.04	477.47
372.24	479.81
372.44	425.98
372.63	418.96
372.83	414.27
373.03	528.96
373.22	458.74
373.42	564.07
373.62	493.85
373.81	582.79
374.01	517.26
374.21	603.86
374.40	514.92
374.60	540.66
374.79	547.69
374.99	592.16
375.19	573.43
375.38	543.00
375.58	545.34
375.78	557.05
375.97	636.63
376.17	594.50
376.37	648.33
376.56	545.34
376.76	528.96
376.95	545.34
377.15	571.09
377.35	550.03
377.54	526.62
377.74	517.26
377.93	540.66
378.13	596.84
378.33	606.20
378.52	589.82
378.72	594.50
378.91	566.41
379.11	641.31
379.31	561.73
379.50	559.39
379.70	608.54
379.89	620.24
380.09	613.22
380.28	662.37
380.48	704.50
380.68	791.10
380.87	655.35
381.07	660.03
381.26	692.80
381.46	688.12
381.65	739.61
381.85	699.82
382.04	702.16
382.24	645.99
382.43	676.41
382.63	709.18
382.83	678.76
383.02	737.27
383.22	723.23
383.41	641.31
383.61	643.65
383.80	755.99
384.00	741.95
384.19	713.86
384.39	734.93
384.58	765.36
384.78	739.61
384.97	807.48
385.17	695.14
385.36	711.52
385.56	767.70
385.75	809.83
385.95	723.23
386.14	767.70
386.34	812.17
386.53	882.38
386.72	760.67
386.92	873.02
387.11	767.70
387.31	809.83
387.50	847.27
387.70	856.64
387.89	835.57
388.09	809.83
388.28	898.77
388.48	863.66
388.67	919.83
388.86	840.25
389.06	833.23
389.25	931.53
389.45	898.77
389.64	908.13
389.84	908.13
390.03	889.40
390.22	952.60
390.42	889.40
390.61	910.47
390.81	945.58
391.00	957.28
391.19	1029.84
391.39	901.11
391.58	954.94
391.78	973.66
391.97	973.66
392.16	933.87
392.36	999.41
392.55	964.30
392.75	938.55
392.94	964.30
393.13	1027.50
393.33	954.94
393.52	983.02
393.71	997.07
393.91	1093.03
394.10	1067.28
394.29	1020.47
394.49	1034.52
394.68	1100.05
394.88	1137.50
395.07	1125.80
395.26	1086.01
395.46	1132.82
395.65	1193.67
395.84	1198.35
396.04	1186.65
396.23	1121.12
396.42	1062.60
396.62	1121.12
396.81	1067.28
397.00	1123.46
397.19	1191.33
397.39	1191.33
397.58	1184.31
397.77	1210.06
397.97	1200.69
398.16	1100.05
398.35	1240.48
398.55	1329.42
398.74	1235.80
398.93	1376.24
399.12	1228.78
399.32	1219.42
399.51	1401.98
399.70	1357.51
399.90	1308.36
400.09	1348.15
400.28	1465.18
400.47	1303.68
400.67	1390.28
400.86	1434.75
401.05	1451.13
401.24	1444.11
401.44	1420.71
401.63	1378.58
401.82	1540.07
402.01	1509.65
402.21	1568.16
402.40	1455.81
402.59	1511.99
402.78	1568.16
402.97	1453.47
403.17	1495.60
403.36	1563.48
403.55	1591.56
403.74	1572.84
403.93	1535.39
404.13	1633.69
404.32	1717.95
404.51	1596.25
404.70	1591.56
404.89	1589.22
405.09	1729.66
405.28	1610.29
405.47	1682.85
405.66	1675.82
405.85	1830.30
406.05	1792.85
406.24	1760.08
406.43	1755.40
406.62	1832.64
406.81	1823.28
407.00	1781.15
407.20	1790.51
407.39	1870.09
407.58	1930.94
407.77	1804.55
407.96	1933.28
408.15	2005.84
408.34	1858.39
408.54	1989.46
408.73	1973.07
408.92	1994.14
409.11	1959.03
409.30	2047.97
409.49	2012.86
409.68	2054.99
409.87	2076.06
410.07	2043.29
410.26	2078.40
410.45	2148.61
410.64	2179.04
410.83	2176.70
411.02	2146.27
411.21	2340.54
411.40	2216.49
411.59	2216.49
411.78	2244.57
411.98	2218.83
412.17	2193.08
412.36	2293.72
412.55	2377.98
412.74	2356.92
412.93	2361.60
413.12	2427.14
413.31	2513.74
413.50	2523.10
413.69	2499.69
413.88	2487.99
414.07	2532.46
414.26	2480.97
414.45	2588.63
414.64	2684.59
414.83	2588.63
415.02	2525.44
415.22	2733.75
415.41	2724.38
415.60	2750.13
415.79	2780.56
415.98	2953.76
416.17	2771.19
416.36	2810.98
416.55	2876.52
416.74	2944.39
416.93	2892.90
417.12	2829.71
417.31	2712.68
417.50	2944.39
417.69	3054.40
417.88	3047.38
418.07	3059.08
418.26	3070.78
418.45	2979.50
418.64	3166.74
418.83	3143.34
419.02	3042.70
419.21	3040.36
419.39	3197.17
419.58	3222.92
419.77	3138.66
419.96	3269.73
420.15	3300.16
420.34	3297.81
420.53	3155.04
420.72	3307.18
420.91	3361.01
421.10	3414.84
421.29	3442.93
421.48	3389.10
421.67	3428.88
421.86	3353.99
422.05	3419.52
422.24	3234.62
422.43	3332.92
422.61	3414.84
422.80	3466.33
422.99	3562.30
423.18	3452.29
423.37	3440.59
423.56	3527.19
423.75	3431.23
423.94	3487.40
424.13	3260.37
424.32	3365.69
424.50	3407.82
424.69	3510.80
424.88	3562.30
425.07	3449.95
425.26	3496.76
425.45	3405.48
425.64	3557.61
425.83	3536.55
426.01	3585.70
426.20	3557.61
426.39	3639.53
426.58	3602.08
426.77	3604.42
426.96	3449.95
427.15	3569.32
427.33	3719.11
427.52	3730.81
427.71	3597.40
427.90	3667.62
428.09	3747.20
428.28	3681.66
428.46	3742.52
428.65	3822.09
428.84	3845.50
429.03	3915.72
429.22	3812.73
429.40	3819.75
429.59	3571.66
429.78	3737.84
429.97	3527.19
430.16	3705.07
430.34	3934.44
430.53	3896.99
430.72	3885.29
430.91	3964.87
431.10	3943.80
431.28	3985.93
431.47	4081.89
431.66	4168.49
431.85	4014.02
432.03	4098.28
432.22	4234.03
432.41	4257.43
432.60	4177.86
432.79	4168.49
432.97	4215.30
433.16	4154.45
433.35	4196.58
433.54	4329.99
433.72	4086.58
433.91	4208.28
434.10	4145.09
434.28	4189.56
434.47	4278.50
434.66	4514.89
434.85	4278.50
435.03	4447.02
435.22	4332.33
435.41	4519.57
435.59	4559.36
435.78	4510.21
435.97	4444.68
436.16	4648.30
436.34	4496.17
436.53	4587.45
436.72	4702.14
436.90	4550.00
437.09	4615.54
437.28	4652.98
437.46	4514.89
437.65	4578.09
437.84	4648.30
438.02	4587.45
438.21	4816.82
438.40	4592.13
438.58	4964.28
438.77	4870.65
438.96	4840.23
439.14	4823.84
439.33	5008.75
439.52	4994.70
439.70	4905.76
439.89	5135.14
440.08	4957.25
440.26	5137.48
440.45	5207.69
440.63	5064.92
440.82	5336.42
441.01	5095.35
441.19	5303.65
441.38	5408.98
441.57	5270.89
441.75	5259.18
441.94	5493.24
442.12	5535.37
442.31	5631.33
442.50	5521.32
442.68	5504.94
442.87	5746.02
443.05	5762.40
443.24	5715.59
443.43	5769.42
443.61	5755.38
443.80	5846.66
443.98	5575.16
444.17	5575.16
444.35	5603.24
444.54	5881.77
444.73	5778.78
444.91	5778.78
445.10	5731.97
445.28	5830.27
445.47	5614.95
445.65	5881.77
445.84	5776.44
446.02	5987.09
446.21	5645.37
446.39	5738.99
446.58	5769.42
446.77	5849.00
446.95	5628.99
447.14	6017.52
447.32	5951.98
447.51	5813.89
447.69	5818.57
447.88	5998.79
448.06	5933.26
448.25	5940.28
448.43	5973.05
448.62	6015.18
448.80	5802.19
448.99	6015.18
449.17	6038.58
449.36	5937.94
449.54	6146.25
449.73	6265.61
449.91	6225.82
450.10	6221.14
450.28	6235.19
450.46	6197.74
450.65	6284.34
450.83	6462.22
451.02	6361.58
451.20	6338.17
451.39	6567.54
451.57	6352.21
451.76	6415.41
451.94	6296.04
452.13	6527.75
452.31	6406.05
452.49	6289.02
452.68	6382.64
452.86	6462.22
453.05	6520.73
453.23	6569.88
453.42	6406.05
453.60	6321.79
453.78	6513.71
453.97	6373.28
454.15	6443.49
454.34	6534.78
454.52	6518.39
454.70	6766.49
454.89	6764.15
455.07	6726.70
455.26	6747.76
455.44	6956.07
455.62	6761.81
455.81	6885.86
455.99	6881.18
456.17	6960.75
456.36	6979.48
456.54	6949.05
456.73	7028.63
456.91	7239.28
457.09	7096.50
457.28	7342.26
457.46	7225.23
457.64	7276.73
457.83	7136.29
458.01	6991.18
458.19	7360.98
458.38	7162.04
458.56	7215.87
458.74	7265.02
458.93	7452.27
459.11	7459.29
459.29	7363.33
459.48	7506.10
459.66	7405.46
459.84	7564.61
460.03	7473.33
460.21	7737.81
460.39	7559.93
460.57	7452.27
460.76	7431.20
460.94	7632.49
461.12	7878.24
461.31	7698.02
461.49	7566.95
461.67	7531.84
461.85	7873.56
462.04	7707.38
462.22	8278.47
462.40	7896.97
462.59	7667.60
462.77	7838.45
462.95	7786.96
463.13	7943.78
463.32	7985.91
463.50	8095.91
463.68	8032.72
463.86	8065.49
464.05	8030.38
464.23	8145.06
464.41	8224.64
464.59	7992.93
464.78	8205.92
464.96	8109.96
465.14	8074.85
465.32	8257.41
465.50	8358.05
465.69	8226.98
465.87	8224.64
466.05	8271.45
466.23	8149.75
466.41	8360.39
466.60	8411.89
466.78	8299.54
466.96	8407.20
467.14	8238.69
467.32	8297.20
467.51	8484.44
467.69	8203.58
467.87	8409.54
468.05	8528.91
468.23	8365.07
468.41	8475.08
468.60	8547.64
468.78	8535.93
468.96	8416.57
469.14	8678.71
469.32	8713.81
469.50	8641.26
469.69	8760.63
469.87	8971.27
470.05	8992.34
470.23	8901.06
470.41	8964.25
470.59	8882.33
470.77	8762.97
470.95	8973.61
471.14	9158.52
471.32	8910.42
471.50	9219.37
471.68	9116.39
471.86	9200.65
472.04	9268.52
472.22	9504.92
472.40	9247.46
472.58	9212.35
472.77	9287.25
472.95	9387.89
473.13	9753.01
473.31	9525.98
473.49	9481.51
473.67	9387.89
473.85	9617.26
474.03	9944.94
474.21	9774.08
474.39	9837.27
474.57	9884.08
474.75	10015.15
474.93	10097.07
475.12	10078.35
475.30	10012.81
475.48	10155.58
475.66	10267.93
475.84	10059.62
476.02	10246.87
476.20	10319.42
476.38	10614.33
476.56	10841.36
476.74	10696.25
476.92	10527.73
477.10	10539.43
477.28	10771.15
477.46	10771.15
477.64	10817.96
477.82	10991.16
478.00	11339.90
478.18	11389.05
478.36	11246.27
478.54	11363.30
478.72	11459.26
478.90	11538.84
479.08	11777.58
479.26	11770.55
479.44	11836.09
479.62	11772.89
479.80	11946.09
479.98	11941.41
480.16	12339.30
480.34	12266.75
480.52	12528.89
480.70	12285.47
480.88	12315.90
481.06	12519.53
481.24	12341.64
481.41	12594.42
481.59	12915.08
481.77	13254.45
481.95	13144.45
482.13	12861.24
482.31	13071.89
482.49	13411.27
482.67	13233.39
482.85	13483.83
483.03	13804.48
483.21	13937.89
483.39	13949.59
483.57	13752.99
483.74	13961.30
483.92	14272.59
484.10	13862.99
484.28	14391.95
484.46	14312.38
484.64	14516.00
484.82	14551.11
485.00	14640.05
485.18	14883.47
485.35	15147.95
485.53	15026.24
485.71	15159.65
485.89	15248.59
486.07	15215.82
486.25	15222.84
486.43	15433.49
486.61	15805.64
486.78	15723.72
486.96	15885.22
487.14	16285.45
487.32	16133.31
487.50	16498.44
487.68	16535.88
487.85	16465.67
488.03	16933.78
488.21	16884.62
488.39	16805.05
488.57	17181.87
488.75	17214.64
488.92	17619.55
489.10	17542.32
489.28	17750.62
489.46	17937.87
489.64	17827.86
489.81	18029.15
489.99	18225.75
490.17	18286.61
490.35	18513.64
490.53	18281.92
490.70	18551.09
490.88	18710.24
491.06	18698.54
491.24	18803.86
491.41	18787.48
491.59	18927.91
491.77	19178.35
491.95	19356.23
492.13	19557.52
492.30	19686.25
492.48	19889.87
492.66	19791.57
492.84	19859.45
493.01	20137.97
493.19	20140.31
493.37	20084.14
493.54	20123.93
493.72	20678.63
493.90	20697.36
494.08	20870.56
494.25	21207.59
494.43	21078.86
494.61	21069.50
494.79	21357.39
494.96	21085.89
495.14	21214.62
495.32	22221.05
495.49	21511.86
495.67	21979.97
495.85	21813.79
496.02	22008.06
496.20	22043.17
496.38	22345.09
496.55	22167.21
496.73	22984.06
496.91	22506.59
497.09	22651.70
497.26	22487.87
497.44	22590.85
497.62	22953.63
497.79	23213.43
497.97	23271.95
498.14	23737.71
498.32	23520.04
498.50	23613.66
498.67	23552.81
498.85	23749.42
499.03	24144.97
499.20	23557.49
499.38	24224.54
499.56	23992.83
499.73	24149.65
499.91	24280.72
500.08	24430.51
500.26	24254.97
500.44	24613.07
500.61	24664.57
500.79	24582.65
500.97	25076.50
501.14	25158.42
501.32	24748.82
501.49	25223.95
501.67	24694.99
501.84	25270.76
502.02	25160.76
502.20	25755.26
502.37	25736.53
502.55	25324.60
502.72	25736.53
502.90	25415.88
503.07	25652.27
503.25	26003.35
503.43	25446.30
503.60	26136.76
503.78	26087.61
503.95	26026.76
504.13	26338.05
504.30	26412.95
504.48	25956.54
504.65	26581.46
504.83	26712.53
505.01	26796.79
505.18	26771.05
505.36	27054.25
505.53	26801.47
505.71	27096.38
505.88	27498.95
506.06	26974.67
506.23	27283.62
506.41	27122.13
506.58	27482.57
506.76	27325.75
506.93	27517.68
507.11	27477.89
507.28	27821.95
507.46	27985.79
507.63	27630.02
507.81	28056.00
507.98	27840.67
508.16	28233.88
508.33	28100.47
508.50	28280.69
508.68	28819.02
508.85	28226.86
509.03	28575.60
509.20	28589.64
509.38	29296.49
509.55	28851.78
509.73	28662.20
509.90	28851.78
510.08	29036.69
510.25	29013.28
510.42	28896.25
510.60	28914.98
510.77	29158.39
510.95	29890.98
511.12	29546.92
511.30	29773.95
511.47	29872.26
511.64	30141.42
511.82	29687.36
511.99	29696.72
512.17	30125.04
512.34	29701.40
512.51	29902.68
512.69	30492.50
512.86	30515.90
513.04	30485.48
513.21	30644.63
513.38	30235.04
513.56	30380.15
513.73	30410.58
513.90	30913.80
514.08	30473.78
514.25	30742.94
514.43	31129.12
514.60	30817.83
514.77	31002.74
514.95	31337.43
515.12	31267.22
515.29	31536.38
515.47	31555.10
515.64	31510.63
515.81	31164.23
515.99	31349.14
516.16	31601.91
516.33	31552.76
516.51	31873.42
516.68	31417.01
516.85	31690.85
517.03	31569.15
517.20	31798.52
517.37	32149.60
517.54	31761.07
517.72	31810.22
517.89	31941.29
518.06	31814.90
518.24	31859.37
518.41	31866.39
518.58	31796.18
518.75	32402.38
518.93	32758.14
519.10	32730.05
519.27	32802.61
519.45	32549.83
519.62	32980.49
519.79	32786.22
519.96	33013.26
520.14	33167.73
520.31	32690.26
520.48	32926.66
520.65	33137.30
520.83	33099.86
521.00	33481.36
521.17	33434.55
521.34	33111.56
521.52	33521.15
521.69	33731.80
521.86	33710.74
522.03	33518.81
522.20	34096.92
522.38	34061.82
522.55	34169.48
522.72	33692.01
522.89	34466.73
523.07	33977.56
523.24	34092.24
523.41	34616.52
523.58	34323.96
523.75	34691.42
523.92	34649.29
524.10	34913.77
524.27	34628.23
524.44	34665.67
524.61	35079.95
524.78	34682.06
524.96	35042.50
525.13	34752.27
525.30	35395.92
525.47	35131.44
525.64	35426.35
525.81	35594.87
525.98	35831.26
526.16	34958.24
526.33	35016.75
526.50	35739.98
526.67	35281.24
526.84	35367.84
527.01	34881.00
527.18	35386.56
527.36	36025.53
527.53	35901.48
527.70	36205.75
527.87	35866.37
528.04	35515.29
528.21	35938.93
528.38	35637.00
528.55	36093.40
528.72	36348.52
528.89	36493.63
529.07	36037.23
529.24	35910.84
529.41	36657.47
529.58	36217.45
529.75	35929.56
529.92	36676.19
530.09	36409.37
530.26	36636.41
530.43	36552.15
530.60	36655.13
530.77	36741.73
530.94	37067.06
531.11	36783.86
531.28	36917.27
531.46	36891.52
531.63	37141.96
531.80	36940.68
531.97	37277.71
532.14	37069.40
532.31	36854.08
532.48	37626.45
532.65	37706.03
532.82	37036.64
532.99	37308.14
533.16	37212.18
533.33	37546.87
533.50	38054.77
533.67	37640.50
533.84	37186.43
534.01	37605.39
534.18	37493.04
534.35	37989.24
534.52	38171.80
534.69	38319.25
534.86	37902.64
535.03	37738.80
535.20	38106.26
535.37	37764.54
535.54	38487.77
535.71	38375.42
535.88	38497.13
536.05	38153.07
536.22	38515.86
536.38	38462.02
536.55	38656.29
536.72	38251.38
536.89	38483.09
537.06	38263.08
537.23	38761.61
537.40	38342.66
537.57	38562.67
537.74	38553.30
537.91	38721.82
538.08	39166.52
538.25	38160.09
538.42	38958.22
538.59	39077.58
538.75	38686.71
538.92	39171.21
539.09	39370.15
539.26	39215.68
539.43	39171.21
539.60	39328.02
539.77	39232.06
539.94	39068.22
540.11	39239.08
540.28	39112.69
540.44	39526.97
540.61	39571.44
540.78	39173.55
540.95	38909.07
541.12	38902.04
541.29	39466.11
541.46	39442.71
541.62	39704.85
541.79	39508.24
541.96	39625.27
542.13	39648.68
542.30	40030.18
542.47	39613.57
542.63	39744.64
542.80	39763.36
542.97	40154.23
543.14	41010.87
543.31	40308.71
543.48	40514.67
543.64	40741.71
543.81	40589.57
543.98	40730.00
544.15	40226.79
544.32	40624.68
544.48	40694.89
544.65	40987.46
544.82	40807.24
544.99	40369.56
545.16	40648.08
545.32	40500.63
545.49	40804.90
545.66	40730.00
545.83	40554.46
546.00	41350.24
546.16	40875.12
546.33	40938.31
546.50	40474.88
546.67	41242.58
546.83	40378.92
547.00	40952.35
547.17	41031.93
547.34	41155.98
547.50	41282.37
547.67	41202.79
547.84	41413.44
548.00	41296.41
548.17	41546.85
548.34	41408.76
548.51	41352.58
548.67	41399.40
548.84	41394.71
549.01	41256.62
549.18	41563.23
549.34	41469.61
549.51	41738.77
549.68	41467.27
549.84	41921.34
550.01	42068.79
550.18	41904.95
550.34	41619.41
550.51	41638.13
550.68	41675.58
550.84	41701.32
551.01	42033.68
551.18	42359.02
551.34	41528.13
551.51	41659.20
551.68	42478.38
551.84	42176.45
552.01	42026.66
552.18	42237.31
552.34	42122.62
552.51	42026.66
552.68	41993.89
552.84	42270.08
553.01	42625.84
553.18	42469.02
553.34	41804.31
553.51	42117.94
553.67	42117.94
553.84	42761.59
554.01	42333.27
554.17	42581.37
554.34	42476.04
554.51	42672.65
554.67	43192.25
554.84	42735.84
555.00	42483.06
555.17	42103.90
555.33	42731.16
555.50	42707.76
555.67	42550.94
555.83	42422.21
556.00	42801.38
556.16	43339.70
556.33	42941.81
556.50	42763.93
556.66	43217.99
556.83	43107.99
556.99	43243.74
557.16	42845.85
557.32	42707.76
557.49	42927.77
557.65	43136.07
557.82	43044.79
557.98	42946.49
558.15	43051.81
558.32	43442.68
558.48	42721.80
558.65	42944.15
558.81	42672.65
558.98	43309.27
559.14	43019.05
559.31	43037.77
559.47	43920.15
559.64	43049.47
559.80	43508.22
559.97	43215.65
560.13	43117.35
560.30	43391.19
560.46	43119.69
560.63	43438.00
560.79	43388.85
560.96	43959.94
561.12	43697.80
561.29	43665.03
561.45	43227.35
561.61	43566.73
561.78	43592.48
561.94	43316.29
562.11	43386.51
562.27	43515.24
562.44	44100.37
562.60	43639.29
562.77	43681.42
562.93	43658.01
563.10	43971.64
563.26	43098.62
563.42	43688.44
563.59	43601.84
563.75	43487.15
563.92	43723.55
564.08	43810.15
564.24	43807.81
564.41	43906.11
564.57	43665.03
564.74	44032.50
564.90	43807.81
565.07	43866.32
565.23	43758.66
565.39	44088.67
565.56	43957.60
565.72	44006.75
565.88	43784.40
566.05	44098.03
566.21	44222.08
566.38	43772.70
566.54	43941.22
566.70	43903.77
566.87	44074.63
567.03	43735.25
567.19	44634.02
567.36	44046.54
567.52	43768.02
567.68	44360.17
567.85	43761.00
568.01	44011.43
568.17	43917.81
568.34	44133.14
568.50	44133.14
568.66	43772.70
568.83	43966.96
568.99	43817.17
569.15	44186.97
569.32	43613.54
569.48	43976.33
569.64	43896.75
569.81	44360.17
569.97	43983.35
570.13	44205.70
570.30	44037.18
570.46	43672.06
570.62	43999.73
570.78	44027.82
570.95	43957.60
571.11	44236.12
571.27	43899.09
571.43	44411.67
571.60	44524.01
571.76	43971.64
571.92	43973.98
572.09	43531.62
572.25	44074.63
572.41	44109.74
572.57	44634.02
572.74	44662.10
572.90	44519.33
573.06	44107.40
573.22	44531.03
573.38	44126.12
573.55	43636.95
573.71	44268.89
573.87	44376.56
574.03	44165.91
574.20	44194.00
574.36	44243.15
574.52	44430.39
574.68	44575.50
574.84	44423.37
575.01	44423.37
575.17	44296.98
575.33	44458.48
575.49	44163.57
575.65	44353.15
575.82	44526.35
575.98	44406.98
576.14	44921.90
576.30	44563.80
576.46	44088.67
576.62	44493.58
576.79	44563.80
576.95	43861.64
577.11	44531.03
577.27	44488.90
577.43	44760.40
577.59	43854.62
577.75	44341.45
577.92	44135.48
578.08	43922.49
578.24	44238.47
578.40	44186.97
578.56	43756.32
578.72	44509.97
578.88	44467.84
579.04	44690.19
579.21	44538.05
579.37	44006.75
579.53	44175.27
579.69	44205.70
579.85	44411.67
580.01	44526.35
580.17	44694.87
580.33	44453.79
580.49	45031.91
580.65	44432.73
580.82	44989.78
580.98	44402.30
581.14	44500.61
581.30	44491.24
581.46	44449.11
581.62	44776.79
581.78	44610.61
581.94	44849.35
582.10	44533.37
582.26	44755.72
582.42	44507.63
582.58	44708.91
582.74	44650.40
582.90	44519.33
583.06	45090.42
583.22	44940.63
583.38	44687.85
583.54	44802.53
583.70	44673.81
583.86	44516.99
584.02	44009.09
584.18	44299.32
584.34	44619.97
584.50	44282.94
584.66	44086.33
584.82	44516.99
584.98	45104.46
585.14	44596.57
585.30	44411.67
585.46	44767.43
585.62	44116.76
585.78	44626.99
585.94	43983.35
586.10	44655.08
586.26	44205.70
586.42	44472.52
586.58	44879.77
586.74	44769.77
586.90	44746.36
587.06	44376.56
587.22	44746.36
587.38	44397.62
587.54	45003.82
587.70	45226.17
587.86	44786.15
588.02	44650.40
588.18	44940.63
588.34	44636.36
588.49	44884.45
588.65	44203.36
588.81	44692.53
588.97	44414.01
589.13	44725.30
589.29	44868.07
589.45	44807.22
589.61	44790.83
589.77	45083.40
589.93	44825.94
590.08	44942.97
590.24	44568.48
