SpectraSuite Data File
++++++++++++++++++++++++++++++++++++
Date: Fri Oct 25 11:22:45 EDT 2013
User: price-jones
Dark Spectrum Present: No
Reference Spectrum Present: No
Number of Sampled Component Spectra: 1
Spectrometers: USB2+H05261
Integration Time (usec): 100000 (USB2+H05261)
Spectra Averaged: 1 (USB2+H05261)
Boxcar Smoothing: 0 (USB2+H05261)
Correct for Electrical Dark: No (USB2+H05261)
Strobe/Lamp Enabled: No (USB2+H05261)
Correct for Detector Non-linearity: No (USB2+H05261)
Correct for Stray Light: No (USB2+H05261)
Number of Pixels in Processed Spectrum: 2048
>>>>>Begin Processed Spectral Data<<<<<
365.73	156.82
365.92	156.82
366.12	156.82
366.32	124.05
366.52	95.96
366.72	100.64
366.91	126.39
367.11	138.09
367.31	131.07
367.51	74.90
367.70	110.01
367.90	117.03
368.10	135.75
368.30	86.60
368.49	121.71
368.69	100.64
368.89	135.75
369.09	117.03
369.28	196.60
369.48	187.24
369.68	255.12
369.87	138.09
370.07	161.50
370.27	273.84
370.47	381.51
370.66	533.64
370.86	638.97
371.06	753.65
371.25	669.39
371.45	643.65
371.65	723.23
371.84	653.01
372.04	660.03
372.24	664.71
372.44	711.52
372.63	732.59
372.83	777.06
373.03	706.84
373.22	737.27
373.42	828.55
373.62	723.23
373.81	770.04
374.01	767.70
374.21	819.19
374.40	798.12
374.60	793.44
374.79	828.55
374.99	816.85
375.19	765.36
375.38	847.27
375.58	777.06
375.78	842.59
375.97	854.30
376.17	877.70
376.37	807.48
376.56	854.30
376.76	917.49
376.95	908.13
377.15	922.17
377.35	931.53
377.54	940.90
377.74	856.64
377.93	933.87
378.13	959.62
378.33	894.08
378.52	894.08
378.72	973.66
378.91	889.40
379.11	997.07
379.31	968.98
379.50	894.08
379.70	999.41
379.89	964.30
380.09	1022.81
380.28	929.19
380.48	999.41
380.68	968.98
380.87	999.41
381.07	1064.94
381.26	1043.88
381.46	971.32
381.65	1029.84
381.85	1027.50
382.04	997.07
382.24	1067.28
382.43	1060.26
382.63	1109.41
382.83	994.73
383.02	1198.35
383.22	1158.57
383.41	983.02
383.61	1111.75
383.80	1160.91
384.00	1078.99
384.19	1158.57
384.39	1186.65
384.58	1139.84
384.78	1130.48
384.97	1156.22
385.17	1207.72
385.36	1207.72
385.56	1181.97
385.75	1100.05
385.95	1123.46
386.14	1198.35
386.34	1219.42
386.53	1228.78
386.72	1142.18
386.92	1235.80
387.11	1270.91
387.31	1226.44
387.50	1205.38
387.70	1233.46
387.89	1238.14
388.09	1174.95
388.28	1275.59
388.48	1331.76
388.67	1313.04
388.86	1357.51
389.06	1324.74
389.25	1301.34
389.45	1324.74
389.64	1296.66
389.84	1324.74
390.03	1425.39
390.22	1385.60
390.42	1371.55
390.61	1369.21
390.81	1345.81
391.00	1385.60
391.19	1483.90
391.39	1380.92
391.58	1434.75
391.78	1516.67
391.97	1474.54
392.16	1504.96
392.36	1495.60
392.55	1551.78
392.75	1565.82
392.94	1650.08
393.13	1500.28
393.33	1462.83
393.52	1598.59
393.71	1689.87
393.91	1582.20
394.10	1521.35
394.29	1605.61
394.49	1563.48
394.68	1584.54
394.88	1589.22
395.07	1645.40
395.26	1647.74
395.46	1645.40
395.65	1699.23
395.84	1713.27
396.04	1671.14
396.23	1753.06
396.42	1706.25
396.62	1736.68
396.81	1834.98
397.00	1755.40
397.19	1729.66
397.39	1741.36
397.58	1870.09
397.77	1806.89
397.97	1886.47
398.16	1809.23
398.35	1879.45
398.55	1884.13
398.74	1968.39
398.93	1905.20
399.12	1942.64
399.32	1956.69
399.51	1867.75
399.70	1989.46
399.90	1933.28
400.09	1963.71
400.28	2040.95
400.47	1989.46
400.67	2083.08
400.86	2071.37
401.05	2085.42
401.24	2153.29
401.44	2176.70
401.63	2167.34
401.82	2162.66
402.01	2017.54
402.21	2204.78
402.40	2214.15
402.59	2108.82
402.78	2289.04
402.97	2165.00
403.17	2249.25
403.36	2312.45
403.55	2282.02
403.74	2399.05
403.93	2387.35
404.13	2272.66
404.32	2485.65
404.51	2406.07
404.70	2448.20
404.89	2408.41
405.09	2476.29
405.28	2504.37
405.47	2450.54
405.66	2551.18
405.85	2431.82
406.05	2525.44
406.24	2551.18
406.43	2544.16
406.62	2499.69
406.81	2607.36
407.00	2590.97
407.20	2647.15
407.39	2619.06
407.58	2705.66
407.77	2717.36
407.96	2785.24
408.15	2764.17
408.34	2703.32
408.54	2773.53
408.73	2745.45
408.92	2949.08
409.11	2913.97
409.30	2862.48
409.49	3005.25
409.68	2995.89
409.87	2864.82
410.07	3028.65
410.26	3002.91
410.45	3045.04
410.64	3129.30
410.83	2958.44
411.02	3049.72
411.21	3061.42
411.40	3197.17
411.59	3208.87
411.78	3220.58
411.98	3138.66
412.17	3265.05
412.36	3258.03
412.55	3251.00
412.74	3456.97
412.93	3524.85
413.12	3321.22
413.31	3599.74
413.50	3459.31
413.69	3555.27
413.88	3653.58
414.07	3510.80
414.26	3655.92
414.45	3714.43
414.64	3758.90
414.83	3719.11
415.02	3777.62
415.22	3789.33
415.41	3871.25
415.60	3904.01
415.79	3920.40
415.98	3983.59
416.17	4002.32
416.36	3995.29
416.55	3985.93
416.74	4093.60
416.93	4081.89
417.12	4124.02
417.31	4102.96
417.50	4205.94
417.69	4262.12
417.88	4355.74
418.07	4463.40
418.26	4205.94
418.45	4407.23
418.64	4514.89
418.83	4360.42
419.02	4451.70
419.21	4613.20
419.39	4479.79
419.58	4535.96
419.77	4477.44
419.96	4610.86
420.15	4791.08
420.34	4713.84
420.53	4697.46
420.72	4636.60
420.91	4795.76
421.10	4704.48
421.29	4772.35
421.48	4695.11
421.67	4851.93
421.86	4856.61
422.05	4891.72
422.24	4655.33
422.43	4971.30
422.61	4901.08
422.80	4933.85
422.99	5050.88
423.18	4868.31
423.37	4997.04
423.56	4945.55
423.75	4882.36
423.94	4765.33
424.13	4627.24
424.32	4751.29
424.50	4971.30
424.69	5179.61
424.88	5186.63
425.07	4908.10
425.26	5057.90
425.45	5050.88
425.64	4945.55
425.83	4931.51
426.01	5160.88
426.20	5041.51
426.39	4966.62
426.58	5046.20
426.77	5095.35
426.96	5050.88
427.15	5074.28
427.33	5259.18
427.52	5193.65
427.71	5172.58
427.90	5217.05
428.09	5191.31
428.28	5350.46
428.46	5401.96
428.65	5397.28
428.84	5570.48
429.03	5427.70
429.22	5273.23
429.40	5511.96
429.59	5556.43
429.78	5296.63
429.97	5252.16
430.16	5586.86
430.34	5687.50
430.53	5664.10
430.72	5834.96
430.91	5540.05
431.10	5628.99
431.28	5727.29
431.47	5832.62
431.66	5771.76
431.85	5797.51
432.03	5874.74
432.22	6036.24
432.41	5804.53
432.60	5928.58
432.79	5856.02
432.97	5951.98
433.16	5961.34
433.35	5989.43
433.54	6115.82
433.72	6146.25
433.91	6148.59
434.10	6200.08
434.28	6066.67
434.47	6263.27
434.66	6195.40
434.85	6413.07
435.03	6373.28
435.22	6333.49
435.41	6511.37
435.59	6560.52
435.78	6607.33
435.97	6410.73
436.16	6541.80
436.34	6399.02
436.53	6499.67
436.72	6689.25
436.90	6457.54
437.09	6623.72
437.28	6525.41
437.46	6541.80
437.65	6738.40
437.84	6752.45
438.02	6836.70
438.21	6764.15
438.40	6825.00
438.58	7028.63
438.77	6951.39
438.96	6970.12
439.14	7140.97
439.33	7133.95
439.52	7194.81
439.70	7281.41
439.89	7302.47
440.08	7389.07
440.26	7475.67
440.45	7400.77
440.63	7515.46
440.82	7714.41
441.01	7569.29
441.19	7623.12
441.38	7777.60
441.57	7698.02
441.75	7892.29
441.94	8107.62
442.12	7873.56
442.31	7920.37
442.50	8138.04
442.68	8006.97
442.87	8021.02
443.05	8100.59
443.24	8184.85
443.43	8163.79
443.61	8180.17
443.80	8395.50
443.98	8166.13
444.17	8013.99
444.35	8266.77
444.54	8367.42
444.73	8177.83
444.91	8388.48
445.10	8332.31
445.28	8526.57
445.47	8344.01
445.65	8404.86
445.84	8475.08
446.02	8418.91
446.21	8449.33
446.39	8561.68
446.58	8765.31
446.77	8512.53
446.95	8257.41
447.14	8491.46
447.32	8683.39
447.51	8531.25
447.69	8360.39
447.88	8667.00
448.06	8613.17
448.25	8524.23
448.43	8500.83
448.62	8535.93
448.80	8606.15
448.99	8512.53
449.17	8744.24
449.36	8823.82
449.54	8870.63
449.73	8854.25
449.91	8992.34
450.10	8978.30
450.28	9160.86
450.46	8940.85
450.65	9041.49
450.83	9025.11
451.02	9064.89
451.20	9139.79
451.39	9032.13
451.57	8980.64
451.76	9280.22
451.94	9380.87
452.13	9252.14
452.31	9254.48
452.49	9118.73
452.68	9453.42
452.86	9256.82
453.05	9261.50
453.23	9678.12
453.42	9495.55
453.60	9420.66
453.78	9575.13
453.97	9542.36
454.15	9462.79
454.34	9502.58
454.52	9682.80
454.70	9783.44
454.89	9785.78
455.07	9942.60
455.26	9820.89
455.44	9919.19
455.62	9816.21
455.81	9928.55
455.99	9966.00
456.17	10076.01
456.36	10076.01
456.54	10050.26
456.73	10118.14
456.91	10408.36
457.09	10258.57
457.28	10509.01
457.46	10363.89
457.64	10321.76
457.83	10401.34
458.01	10228.14
458.19	10677.52
458.38	10663.48
458.56	10829.66
458.74	10913.92
458.93	10668.16
459.11	10696.25
459.29	10932.64
459.48	10733.70
459.66	10911.58
459.84	11103.50
460.03	11180.74
460.21	10916.26
460.39	10984.13
460.57	10892.85
460.76	11234.57
460.94	11405.43
461.12	11171.38
461.31	11169.04
461.49	11248.61
461.67	11267.34
461.85	11606.72
462.04	11419.47
462.22	11782.26
462.40	11707.36
462.59	11543.52
462.77	11412.45
462.95	11784.60
463.13	11597.35
463.32	11829.07
463.50	11721.40
463.68	11871.20
463.86	11669.91
464.05	11805.66
464.23	11557.57
464.41	11889.92
464.59	11829.07
464.78	12266.75
464.96	12053.76
465.14	11836.09
465.32	12114.61
465.50	12170.79
465.69	12311.22
465.87	12336.96
466.05	12271.43
466.23	12365.05
466.41	12283.13
466.60	12435.27
466.78	12224.62
466.96	12332.28
467.14	12381.43
467.32	12327.60
467.51	12681.02
467.69	12147.38
467.87	12360.37
468.05	12802.73
468.23	12428.24
468.41	12479.74
468.60	12917.42
468.78	12535.91
468.96	12571.02
469.14	12849.54
469.32	13067.21
469.50	12674.00
469.69	12929.12
469.87	13090.62
470.05	13240.41
470.23	12915.08
470.41	13254.45
470.59	13448.72
470.77	13329.35
470.95	13139.77
471.14	13640.64
471.32	13163.17
471.50	13619.58
471.68	13699.16
471.86	13561.06
472.04	13544.68
472.22	13975.34
472.40	13720.22
472.58	13984.70
472.77	14090.02
472.95	14272.59
473.13	14693.88
473.31	14230.46
473.49	14284.29
473.67	14190.67
473.85	14237.48
474.03	14850.70
474.21	14541.75
474.39	14672.82
474.57	14593.24
474.75	15054.33
474.93	15183.06
475.12	14778.14
475.30	15091.77
475.48	15103.48
475.66	15173.69
475.84	15267.31
476.02	15279.02
476.20	15503.71
476.38	15531.80
476.56	16013.95
476.74	16058.42
476.92	16161.40
477.10	15768.19
477.28	16299.49
477.46	16198.85
477.64	16327.58
477.82	16758.24
478.00	16882.28
478.18	16999.31
478.36	16959.52
478.54	17296.56
478.72	17165.49
478.90	17591.47
479.08	17584.44
479.26	17907.44
479.44	17724.88
479.62	17783.39
479.80	17921.48
479.98	18279.58
480.16	18537.04
480.34	18515.98
480.52	18614.28
480.70	18689.18
480.88	18469.17
481.06	19058.98
481.24	18843.65
481.41	19208.78
481.59	19126.86
481.77	19681.56
481.95	19658.16
482.13	19557.52
482.31	19899.23
482.49	20580.33
482.67	20109.88
482.85	20570.97
483.03	20819.07
483.21	20732.47
483.39	21509.52
483.57	20893.96
483.74	21376.11
483.92	21436.97
484.10	21249.72
484.28	21846.56
484.46	21708.47
484.64	22368.50
484.82	22146.15
485.00	22249.13
485.18	22972.36
485.35	23316.42
485.53	22705.54
485.71	23222.80
485.89	23861.76
486.07	23267.27
486.25	23601.96
486.43	23641.75
486.61	23847.72
486.78	24107.52
486.96	24355.61
487.14	24837.76
487.32	24702.01
487.50	25123.31
487.68	25483.75
487.85	25415.88
488.03	25663.97
488.21	26005.69
488.39	25785.68
488.57	26221.02
488.75	26419.97
488.92	26499.55
489.10	26546.36
489.28	26843.60
489.46	27182.98
489.64	27255.54
489.81	27978.76
489.99	27615.98
490.17	28297.08
490.35	28493.68
490.53	28217.50
490.70	28446.87
490.88	28603.69
491.06	28900.94
491.24	29060.09
491.41	29284.78
491.59	29254.36
491.77	29357.34
491.95	29930.77
492.13	29645.23
492.30	30260.79
492.48	30221.00
492.66	30216.32
492.84	30352.07
493.01	30614.21
493.19	30593.14
493.37	31138.49
493.54	31494.25
493.72	31482.55
493.90	31826.60
494.08	31761.07
494.25	31924.91
494.43	32240.88
494.61	32348.54
494.79	32477.27
494.96	32961.76
495.14	32772.18
495.32	33160.71
495.49	33064.75
495.67	33301.14
495.85	33329.23
496.02	33895.64
496.20	34286.51
496.38	34171.82
496.55	34628.23
496.73	35117.40
496.91	34787.38
497.09	35208.68
497.26	35208.68
497.44	35290.60
497.62	35473.16
497.79	35976.37
497.97	35704.87
498.14	36170.64
498.32	36100.42
498.50	36240.86
498.67	36692.58
498.85	36259.58
499.03	36854.08
499.20	36879.82
499.38	37408.78
499.56	37160.69
499.73	37186.43
499.91	37729.44
500.08	37902.64
500.26	37610.07
500.44	37841.78
500.61	37926.04
500.79	37834.76
500.97	37933.06
501.14	38536.92
501.32	38969.92
501.49	38976.94
501.67	38859.91
501.84	39000.35
502.02	39047.16
502.20	38878.64
502.37	39466.11
502.55	39690.80
502.72	39852.30
502.90	39955.29
503.07	39819.53
503.25	39959.97
503.43	39988.05
503.60	40133.17
503.78	40631.70
503.95	40722.98
504.13	40882.14
504.30	40772.13
504.48	40612.98
504.65	40971.08
504.83	41139.60
505.01	41399.40
505.18	41111.51
505.36	41397.06
505.53	41273.01
505.71	41668.56
505.88	42239.65
506.06	41792.61
506.23	42518.17
506.41	42316.89
506.58	42452.64
506.76	42349.65
506.93	42820.10
507.11	42469.02
507.28	43061.18
507.46	42976.92
507.63	42974.58
507.81	43009.68
507.98	42848.19
508.16	43423.96
508.33	43693.12
508.50	43707.16
508.68	43903.77
508.85	44226.76
509.03	43571.41
509.20	44222.08
509.38	44821.26
509.55	44797.85
509.73	44727.64
509.90	44664.44
510.08	44999.14
510.25	45216.81
510.42	45064.67
510.60	45193.40
510.77	45638.11
510.95	45532.78
511.12	45495.33
511.30	45535.12
511.47	45942.38
511.64	45827.69
511.82	46314.52
511.99	45663.85
512.17	46380.06
512.34	46094.51
512.51	46618.79
512.69	46733.48
512.86	46679.64
513.04	47021.36
513.21	46499.42
513.38	47227.33
513.56	47065.83
513.73	47196.90
513.90	47363.08
514.08	47037.75
514.25	47138.39
514.43	47522.24
514.60	47805.44
514.77	47695.44
514.95	47772.67
515.12	47246.05
515.29	47959.92
515.47	47966.94
515.64	48067.58
515.81	48126.10
515.99	48521.65
516.16	48641.01
516.33	48690.16
516.51	48624.63
516.68	48893.79
516.85	48896.13
517.03	49191.04
517.20	48912.52
517.37	49322.11
517.54	49127.84
517.72	49240.19
517.89	49256.57
518.06	49069.33
518.24	49612.34
518.41	49333.81
518.58	49778.51
518.75	49214.44
518.93	49925.97
519.10	49701.28
519.27	50045.33
519.45	50403.44
519.62	50143.64
519.79	50335.56
519.96	50284.07
520.14	50344.92
520.31	49963.42
520.48	50686.64
520.65	50391.73
520.83	50836.44
521.00	50871.54
521.17	50642.17
521.34	50597.70
521.52	51199.22
521.69	50883.25
521.86	51367.74
522.03	51477.74
522.20	51519.87
522.38	51501.15
522.55	51131.34
522.72	51718.82
522.89	51437.95
523.07	51803.08
523.24	51615.83
523.41	51526.89
523.58	51405.19
523.75	52306.29
523.92	52100.32
524.10	51840.53
524.27	52278.21
524.44	52406.94
524.61	52425.66
524.78	52315.65
524.96	52357.78
525.13	52664.39
525.30	52575.45
525.47	52626.95
525.64	52577.79
525.81	52760.36
525.98	53059.94
526.16	52797.80
526.33	52556.73
526.50	53088.03
526.67	52631.63
526.84	52949.94
527.01	53151.23
527.18	53010.79
527.36	53446.13
527.53	53010.79
527.70	53694.23
527.87	53408.68
528.04	53640.40
528.21	53670.82
528.38	53546.78
528.55	53734.02
528.72	53516.35
528.89	53546.78
529.07	53523.37
529.24	53425.07
529.41	53970.41
529.58	53776.15
529.75	53715.29
529.92	53797.21
530.09	53806.58
530.26	54251.28
530.43	54220.85
530.60	53689.55
530.77	53918.92
530.94	54412.77
531.11	53846.36
531.28	54181.06
531.46	54342.56
531.63	54604.70
531.80	54323.83
531.97	54461.93
532.14	54712.36
532.31	54574.27
532.48	54892.58
532.65	54492.35
532.82	54855.14
532.99	54944.08
533.16	54747.47
533.33	55112.59
533.50	55077.49
533.67	55133.66
533.84	54848.11
534.01	55220.26
534.18	55168.77
534.35	55330.26
534.52	55318.56
534.69	55463.67
534.86	55632.19
535.03	55435.59
535.20	55119.62
535.37	55444.95
535.54	55627.51
535.71	55517.51
535.88	55674.32
536.05	55526.87
536.22	55573.68
536.38	55908.38
536.55	55655.60
536.72	55763.26
536.89	55681.34
537.06	55805.39
537.23	55952.85
537.40	55730.50
537.57	55887.31
537.74	55971.57
537.91	56193.92
538.08	55987.95
538.25	55711.77
538.42	55880.29
538.59	56254.78
538.75	56320.31
538.92	56214.99
539.09	56320.31
539.26	56451.38
539.43	56308.61
539.60	56568.41
539.77	56460.74
539.94	56516.92
540.11	56650.33
540.28	56526.28
540.44	56486.49
540.61	56650.33
540.78	56477.13
540.95	56676.07
541.12	56699.48
541.29	56353.08
541.46	56804.80
541.62	56643.30
541.79	56830.55
541.96	56631.60
542.13	56640.96
542.30	56704.16
542.47	56900.76
542.63	56774.37
542.80	56757.99
542.97	57268.23
543.14	57401.64
543.31	57368.87
543.48	57144.18
543.64	57497.60
543.81	57359.51
543.98	57439.09
544.15	57605.26
544.32	57558.45
544.48	57645.05
544.65	57443.77
544.82	57525.69
544.99	57511.64
545.16	57621.65
545.32	57593.56
545.49	57696.55
545.66	57776.12
545.83	57785.49
546.00	57844.00
546.16	57729.31
546.33	57755.06
546.50	57640.37
546.67	57942.30
546.83	57535.05
547.00	58005.50
547.17	57865.06
547.34	58082.73
547.50	58244.23
547.67	58066.35
547.84	58099.12
548.00	58387.00
548.17	58314.45
548.34	58246.57
548.51	58569.57
548.67	58159.97
548.84	58152.95
549.01	58204.44
549.18	58241.89
549.34	58272.32
549.51	58347.21
549.68	58396.37
549.84	58599.99
550.01	58646.80
550.18	58541.48
550.34	58489.99
550.51	58609.35
550.68	58658.51
550.84	58288.70
551.01	58642.12
551.18	58794.26
551.34	58506.37
551.51	58738.08
551.68	58672.55
551.84	58625.74
552.01	58700.64
552.18	58831.71
552.34	58541.48
552.51	58918.31
552.68	58562.54
552.84	58906.60
553.01	59220.23
553.18	58969.80
553.34	59011.93
553.51	58812.98
553.67	58838.73
553.84	59030.65
554.01	59086.82
554.17	59178.10
554.34	58897.24
554.51	58986.18
554.67	59320.88
554.84	59098.53
555.00	59110.23
555.17	59255.34
555.33	59260.02
555.50	59000.22
555.67	59194.49
555.83	59147.68
556.00	59128.95
556.16	59601.74
556.33	59444.93
556.50	59377.05
556.66	59533.87
556.83	59267.05
556.99	59653.23
557.16	59625.15
557.32	59561.95
557.49	59613.44
557.65	59386.41
557.82	59332.58
557.98	59470.67
558.15	59620.47
558.32	59571.32
558.48	59648.55
558.65	59243.64
558.81	59554.93
558.98	59608.76
559.14	59657.91
559.31	59796.01
559.47	59901.33
559.64	59922.40
559.80	59683.66
559.97	60065.17
560.13	59763.24
560.30	59901.33
560.46	59604.08
560.63	59910.69
560.79	59817.07
560.96	60079.21
561.12	60053.47
561.29	59901.33
561.45	60156.45
561.61	59859.20
561.78	60104.96
561.94	59847.50
562.11	60130.70
562.27	59938.78
562.44	59929.42
562.60	60184.54
562.77	60179.85
562.93	59737.49
563.10	60334.33
563.26	59952.82
563.42	60189.22
563.59	59962.18
563.75	60107.30
563.92	60170.49
564.08	59994.95
564.24	60238.37
564.41	60229.01
564.57	60341.35
564.74	60355.39
564.90	60238.37
565.07	60212.62
565.23	60467.74
565.39	60163.47
565.56	60079.21
565.72	60411.57
565.88	60252.41
566.05	60306.24
566.21	60205.60
566.38	60367.10
566.54	60495.83
566.70	60521.57
566.87	60587.11
567.03	60191.56
567.19	60516.89
567.36	60519.23
567.52	60388.16
567.68	60530.93
567.85	60491.15
568.01	60552.00
568.17	60357.74
568.34	60570.72
568.50	60554.34
568.66	60388.16
568.83	60355.39
568.99	60453.70
569.15	60669.03
569.32	60547.32
569.48	60460.72
569.64	60605.83
569.81	60669.03
569.97	60556.68
570.13	60605.83
570.30	60441.99
570.46	60755.63
570.62	60617.53
570.78	60722.86
570.95	60589.45
571.11	60757.97
571.27	60767.33
571.43	60505.19
571.60	60750.94
571.76	60783.71
571.92	60874.99
572.09	60633.92
572.25	60835.20
572.41	60776.69
572.57	60884.36
572.74	60942.87
572.90	60891.38
573.06	60851.59
573.22	60708.82
573.38	60706.47
573.55	60694.77
573.71	60882.02
573.87	60554.34
574.03	60666.69
574.20	60535.62
574.36	60760.31
574.52	60788.39
574.68	60772.01
574.84	60970.96
575.01	60882.02
575.17	60828.18
575.33	60793.07
575.49	60849.25
575.65	60863.29
575.82	60921.80
575.98	60807.12
576.14	61038.83
576.30	60956.91
576.46	60800.10
576.62	60959.25
576.79	60879.67
576.95	60802.44
577.11	60779.03
577.27	60898.40
577.43	60996.70
577.59	60839.89
577.75	60917.12
577.92	60844.57
578.08	60783.71
578.24	60949.89
578.40	61219.05
578.56	61073.94
578.72	60968.61
578.88	61024.79
579.04	61083.30
579.21	61120.75
579.37	61230.75
579.53	61137.13
579.69	60753.29
579.85	60999.04
580.01	61041.17
580.17	60903.08
580.33	61048.19
580.49	61165.22
580.65	61132.45
580.82	60926.49
580.98	60952.23
581.14	60900.74
581.30	61071.60
581.46	61055.21
581.62	60924.14
581.78	61123.09
581.94	61106.71
582.10	61078.62
582.26	61080.96
582.42	61010.74
582.58	61043.51
582.74	60926.49
582.90	60926.49
583.06	61186.28
583.22	61010.74
583.38	61158.20
583.54	61174.58
583.70	61169.90
583.86	61158.20
584.02	60966.27
584.18	61059.90
584.34	61167.56
584.50	61062.24
584.66	61090.32
584.82	60931.17
584.98	61240.12
585.14	61165.22
585.30	61181.60
585.46	61076.28
585.62	61139.47
585.78	61331.40
585.94	60839.89
586.10	61186.28
586.26	61120.75
586.42	61258.84
586.58	61247.14
586.74	61104.37
586.90	61116.07
587.06	60931.17
587.22	61357.14
587.38	61102.03
587.54	61265.86
587.70	61408.64
587.86	61235.44
588.02	61300.97
588.18	61284.59
588.34	61179.26
588.49	61097.34
