SpectraSuite Data File
++++++++++++++++++++++++++++++++++++
Date: Fri Oct 25 11:23:46 EDT 2013
User: price-jones
Dark Spectrum Present: No
Reference Spectrum Present: No
Number of Sampled Component Spectra: 1
Spectrometers: USB2+H05261
Integration Time (usec): 100000 (USB2+H05261)
Spectra Averaged: 1 (USB2+H05261)
Boxcar Smoothing: 0 (USB2+H05261)
Correct for Electrical Dark: No (USB2+H05261)
Strobe/Lamp Enabled: No (USB2+H05261)
Correct for Detector Non-linearity: No (USB2+H05261)
Correct for Stray Light: No (USB2+H05261)
Number of Pixels in Processed Spectrum: 2048
>>>>>Begin Processed Spectral Data<<<<<
365.73	243.42
365.92	243.42
366.12	243.42
366.32	215.33
366.52	189.58
366.72	182.56
366.91	91.28
367.11	135.75
367.31	86.60
367.51	114.69
367.70	124.05
367.90	149.79
368.10	91.28
368.30	156.82
368.49	119.37
368.69	53.83
368.89	145.11
369.09	30.43
369.28	159.16
369.48	140.43
369.68	210.65
369.87	175.54
370.07	149.79
370.27	142.77
370.47	292.57
370.66	528.96
370.86	678.76
371.06	653.01
371.25	660.03
371.45	667.05
371.65	695.14
371.84	634.29
372.04	737.27
372.24	711.52
372.44	674.07
372.63	697.48
372.83	725.57
373.03	737.27
373.22	774.72
373.42	786.42
373.62	699.82
373.81	795.78
374.01	833.23
374.21	814.51
374.40	849.61
374.60	744.29
374.79	809.83
374.99	798.12
375.19	791.10
375.38	840.25
375.58	866.00
375.78	795.78
375.97	905.79
376.17	924.51
376.37	807.48
376.56	917.49
376.76	823.87
376.95	861.32
377.15	847.27
377.35	826.21
377.54	887.06
377.74	966.64
377.93	919.83
378.13	957.28
378.33	905.79
378.52	943.24
378.72	842.59
378.91	903.45
379.11	940.90
379.31	917.49
379.50	903.45
379.70	938.55
379.89	973.66
380.09	896.43
380.28	994.73
380.48	968.98
380.68	994.73
380.87	1025.15
381.07	997.07
381.26	1043.88
381.46	1097.71
381.65	1090.69
381.85	1076.65
382.04	1088.35
382.24	1076.65
382.43	1032.18
382.63	1036.86
382.83	1071.97
383.02	1137.50
383.22	1146.86
383.41	1109.41
383.61	1029.84
383.80	1177.29
384.00	1179.63
384.19	1097.71
384.39	1069.62
384.58	1118.78
384.78	1149.20
384.97	1172.61
385.17	1165.59
385.36	1130.48
385.56	1114.10
385.75	1224.10
385.95	1165.59
386.14	1139.84
386.34	1196.01
386.53	1210.06
386.72	1160.91
386.92	1240.48
387.11	1277.93
387.31	1226.44
387.50	1174.95
387.70	1135.16
387.89	1334.11
388.09	1289.64
388.28	1334.11
388.48	1259.21
388.67	1322.40
388.86	1331.76
389.06	1308.36
389.25	1359.85
389.45	1341.13
389.64	1261.55
389.84	1291.98
390.03	1404.32
390.22	1331.76
390.42	1308.36
390.61	1331.76
390.81	1387.94
391.00	1479.22
391.19	1383.26
391.39	1406.66
391.58	1413.68
391.78	1369.21
391.97	1593.90
392.16	1497.94
392.36	1647.74
392.55	1586.88
392.75	1425.39
392.94	1474.54
393.13	1530.71
393.33	1476.88
393.52	1511.99
393.71	1603.27
393.91	1572.84
394.10	1500.28
394.29	1657.10
394.49	1533.05
394.68	1626.67
394.88	1668.80
395.07	1727.32
395.26	1654.76
395.46	1600.93
395.65	1727.32
395.84	1748.38
396.04	1668.80
396.23	1809.23
396.42	1675.82
396.62	1750.72
396.81	1746.04
397.00	1844.34
397.19	1788.17
397.39	1823.28
397.58	1778.81
397.77	1666.46
397.97	1898.17
398.16	1919.24
398.35	1849.02
398.55	1743.70
398.74	1947.33
398.93	1961.37
399.12	1853.70
399.32	1844.34
399.51	1914.56
399.70	1952.01
399.90	2017.54
400.09	1956.69
400.28	2003.50
400.47	1989.46
400.67	2076.06
400.86	2087.76
401.05	2104.14
401.24	2141.59
401.44	2157.97
401.63	2146.27
401.82	2202.44
402.01	2097.12
402.21	2179.04
402.40	2221.17
402.59	2277.34
402.78	2104.14
402.97	2221.17
403.17	2317.13
403.36	2207.13
403.55	2401.39
403.74	2480.97
403.93	2370.96
404.13	2347.56
404.32	2417.77
404.51	2408.41
404.70	2420.11
404.89	2399.05
405.09	2487.99
405.28	2504.37
405.47	2511.39
405.66	2466.92
405.85	2581.61
406.05	2506.71
406.24	2466.92
406.43	2644.81
406.62	2665.87
406.81	2792.26
407.00	2651.83
407.20	2656.51
407.39	2686.94
407.58	2663.53
407.77	2576.93
407.96	2663.53
408.15	2871.84
408.34	2825.03
408.54	2782.90
408.73	2878.86
408.92	2801.62
409.11	2878.86
409.30	2876.52
409.49	2986.52
409.68	2979.50
409.87	2906.95
410.07	3045.04
410.26	3005.25
410.45	3066.10
410.64	3063.76
410.83	3162.06
411.02	3028.65
411.21	3197.17
411.40	3169.09
411.59	3148.02
411.78	3234.62
411.98	3222.92
412.17	3293.13
412.36	3283.77
412.55	3449.95
412.74	3330.58
412.93	3391.44
413.12	3435.91
413.31	3571.66
413.50	3424.20
413.69	3508.46
413.88	3648.90
414.07	3566.98
414.26	3662.94
414.45	3646.55
414.64	3744.86
414.83	3758.90
415.02	3798.69
415.22	3847.84
415.41	3808.05
415.60	3838.48
415.79	3967.21
415.98	3913.38
416.17	3892.31
416.36	3831.46
416.55	4081.89
416.74	4074.87
416.93	4025.72
417.12	3964.87
417.31	4109.98
417.50	4147.43
417.69	4376.80
417.88	4374.46
418.07	4400.21
418.26	4393.19
418.45	4248.07
418.64	4461.06
418.83	4409.57
419.02	4542.98
419.21	4379.14
419.39	4437.66
419.58	4514.89
419.77	4383.82
419.96	4465.74
420.15	4809.80
420.34	4456.38
420.53	4709.16
420.72	4685.75
420.91	4695.11
421.10	4781.71
421.29	4793.42
421.48	4652.98
421.67	4795.76
421.86	4957.25
422.05	4844.91
422.24	4922.15
422.43	4910.44
422.61	4910.44
422.80	4975.98
422.99	4929.17
423.18	4926.83
423.37	5036.83
423.56	5081.30
423.75	4936.19
423.94	4760.65
424.13	4531.28
424.32	4720.86
424.50	5011.09
424.69	5057.90
424.88	4992.36
425.07	5074.28
425.26	4985.34
425.45	5090.67
425.64	4961.94
425.83	5090.67
426.01	5107.05
426.20	5097.69
426.39	5146.84
426.58	5064.92
426.77	4959.60
426.96	5245.14
427.15	4985.34
427.33	5247.48
427.52	5083.64
427.71	5268.55
427.90	5273.23
428.09	5334.08
428.28	5174.92
428.46	5416.00
428.65	5341.10
428.84	5565.79
429.03	5523.66
429.22	5331.74
429.40	5488.56
429.59	5476.85
429.78	5378.55
429.97	5282.59
430.16	5444.09
430.34	5586.86
430.53	5696.86
430.72	5671.12
430.91	5671.12
431.10	5696.86
431.28	5856.02
431.47	5696.86
431.66	5844.32
431.85	5998.79
432.03	5956.66
432.22	5844.32
432.41	6115.82
432.60	6017.52
432.79	5973.05
432.97	6160.29
433.16	6054.97
433.35	6076.03
433.54	6160.29
433.72	6118.16
433.91	6202.42
434.10	6129.86
434.28	5973.05
434.47	6190.72
434.66	6361.58
434.85	6319.45
435.03	6356.90
435.22	6377.96
435.41	6586.27
435.59	6473.92
435.78	6263.27
435.97	6532.44
436.16	6560.52
436.34	6502.01
436.53	6576.91
436.72	6707.98
436.90	6469.24
437.09	6569.88
437.28	6569.88
437.46	6569.88
437.65	6609.67
437.84	6796.92
438.02	6649.46
438.21	6792.23
438.40	6736.06
438.58	6979.48
438.77	7040.33
438.96	6869.47
439.14	7112.89
439.33	7183.10
439.52	7040.33
439.70	7234.60
439.89	7412.48
440.08	7382.05
440.26	7358.64
440.45	7435.88
440.63	7679.30
440.82	7583.34
441.01	7639.51
441.19	7602.06
441.38	7796.32
441.57	7700.36
441.75	7824.41
441.94	7985.91
442.12	8053.78
442.31	8042.08
442.50	8060.80
442.68	7974.21
442.87	8095.91
443.05	8046.76
443.24	8187.19
443.43	8196.56
443.61	8142.72
443.80	8365.07
443.98	7836.11
444.17	7833.77
444.35	8355.71
444.54	8273.79
444.73	8320.60
444.91	8402.52
445.10	8416.57
445.28	8250.39
445.47	8362.73
445.65	8517.21
445.84	8432.95
446.02	8779.35
446.21	8479.76
446.39	8451.67
446.58	8711.47
446.77	8456.36
446.95	8306.56
447.14	8313.58
447.32	8505.51
447.51	8538.27
447.69	8498.49
447.88	8322.94
448.06	8667.00
448.25	8730.20
448.43	8690.41
448.62	8603.81
448.80	8461.04
448.99	8758.28
449.17	8652.96
449.36	8755.94
449.54	8980.64
449.73	9287.25
449.91	9050.85
450.10	8924.46
450.28	9006.38
450.46	8982.98
450.65	9041.49
450.83	9369.16
451.02	8964.25
451.20	9317.67
451.39	9247.46
451.57	9181.92
451.76	9186.60
451.94	9263.84
452.13	9301.29
452.31	9301.29
452.49	9280.22
452.68	9355.12
452.86	9479.17
453.05	9556.41
453.23	9490.87
453.42	9446.40
453.60	9462.79
453.78	9593.86
453.97	9568.11
454.15	9460.45
454.34	9558.75
454.52	9741.31
454.70	9680.46
454.89	9675.77
455.07	9727.27
455.26	9898.13
455.44	10057.28
455.62	9984.73
455.81	9977.70
455.99	10052.60
456.17	9881.74
456.36	10003.45
456.54	10193.03
456.73	10286.65
456.91	10408.36
457.09	10551.14
457.28	10501.98
457.46	10349.85
457.64	10429.43
457.83	10487.94
458.01	10579.22
458.19	10843.70
458.38	10647.10
458.56	10897.53
458.74	10967.75
458.93	10754.76
459.11	10855.40
459.29	10993.50
459.48	11021.58
459.66	10848.38
459.84	11021.58
460.03	11255.64
460.21	11145.63
460.39	11084.78
460.57	11023.92
460.76	11403.09
460.94	11005.20
461.12	11262.66
461.31	11154.99
461.49	11283.72
461.67	11206.48
461.85	11496.71
462.04	11328.19
462.22	11503.73
462.40	11761.19
462.59	11838.43
462.77	11527.14
462.95	11768.21
463.13	11712.04
463.32	11810.34
463.50	11669.91
463.68	11838.43
463.86	11957.80
464.05	11981.20
464.23	11737.79
464.41	12140.36
464.59	11843.11
464.78	12262.07
464.96	12009.29
465.14	11950.78
465.32	12100.57
465.50	12013.97
465.69	12407.18
465.87	12283.13
466.05	12147.38
466.23	12189.51
466.41	12351.01
466.60	12311.22
466.78	12255.04
466.96	12210.57
467.14	12278.45
467.32	12613.15
467.51	12645.91
467.69	12105.25
467.87	12545.27
468.05	12453.99
468.23	12404.84
468.41	12608.47
468.60	12802.73
468.78	12711.45
468.96	12727.83
469.14	12819.11
469.32	13132.75
469.50	12819.11
469.69	13385.52
469.87	13329.35
470.05	13181.90
470.23	13366.80
470.41	13249.77
470.59	13249.77
470.77	13507.23
470.95	13207.64
471.14	13631.28
471.32	12996.99
471.50	13554.04
471.68	13614.90
471.86	13598.51
472.04	13743.63
472.22	14218.75
472.40	13935.55
472.58	14010.45
472.77	13991.72
472.95	14017.47
473.13	14656.43
473.31	14050.24
473.49	14317.06
473.67	13958.96
473.85	14480.89
474.03	14941.98
474.21	14787.50
474.39	14743.03
474.57	14970.07
474.75	14918.57
474.93	15030.92
475.12	15140.93
475.30	15082.41
475.48	14970.07
475.66	15208.80
475.84	15229.87
476.02	15405.41
476.20	15772.87
476.38	16011.60
476.56	16067.78
476.74	16250.34
476.92	15812.66
477.10	15812.66
477.28	16215.23
477.46	16439.92
477.64	16327.58
477.82	16716.11
478.00	16910.37
478.18	17116.34
478.36	16957.18
478.54	17291.88
478.72	17769.35
478.90	17371.46
479.08	17486.14
479.26	17701.47
479.44	18010.42
479.62	17699.13
479.80	18085.32
479.98	18085.32
480.16	18628.32
480.34	18445.76
480.52	18927.91
480.70	18836.63
480.88	18391.93
481.06	18801.52
481.24	18857.70
481.41	19157.28
481.59	19580.92
481.77	19384.32
481.95	19711.99
482.13	19836.04
482.31	19536.45
482.49	20215.21
482.67	20500.75
482.85	20882.26
483.03	20596.71
483.21	21202.91
483.39	21181.85
483.57	20753.53
483.74	21242.70
483.92	21352.71
484.10	21399.52
484.28	21565.70
484.46	22024.44
484.64	22611.92
484.82	22073.59
485.00	22548.72
485.18	22555.74
485.35	22909.16
485.53	23243.86
485.71	23063.64
485.89	23693.24
486.07	23105.77
486.25	23424.08
486.43	23632.39
486.61	24034.96
486.78	24208.16
486.96	24205.82
487.14	24570.94
487.32	24790.95
487.50	25268.42
487.68	25397.15
487.85	25469.71
488.03	25673.34
488.21	26059.52
488.39	25900.37
488.57	26199.96
488.75	26735.94
488.92	26441.03
489.10	26937.23
489.28	26864.67
489.46	27491.93
489.64	27037.87
489.81	27962.38
489.99	27686.20
490.17	27929.61
490.35	28264.31
490.53	28467.94
490.70	28671.56
490.88	28563.90
491.06	28692.63
491.24	29212.23
491.41	29209.89
491.59	29413.51
491.77	29259.04
491.95	30000.99
492.13	29802.04
492.30	30309.94
492.48	30082.91
492.66	30433.99
492.84	30536.97
493.01	30948.90
493.19	30359.09
493.37	31559.78
493.54	31601.91
493.72	31580.85
493.90	32128.53
494.08	32004.49
494.25	32404.72
494.43	32320.46
494.61	32617.71
494.79	32788.56
494.96	32968.79
495.14	33078.79
495.32	33237.95
495.49	33399.44
495.67	33462.64
495.85	33596.05
496.02	33792.65
496.20	34197.57
496.38	34256.08
496.55	34319.28
496.73	35269.53
496.91	34883.34
497.09	35421.67
497.26	35136.12
497.44	35138.46
497.62	35821.90
497.79	36385.97
497.97	35798.49
498.14	35747.00
498.32	36011.48
498.50	36259.58
498.67	36648.11
498.85	36669.17
499.03	36847.05
499.20	36914.93
499.38	36786.20
499.56	37345.59
499.73	37694.33
499.91	36964.08
500.08	37916.68
500.26	37268.35
500.44	37610.07
500.61	37741.14
500.79	37904.98
500.97	38249.03
501.14	39035.45
501.32	38576.71
501.49	38646.93
501.67	38976.94
501.84	39218.02
502.02	39262.49
502.20	39239.08
502.37	39835.92
502.55	39604.20
502.72	39948.26
502.90	39658.04
503.07	39889.75
503.25	40039.54
503.43	40053.59
503.60	40339.13
503.78	40498.29
503.95	40140.19
504.13	40924.27
504.30	40622.34
504.48	40879.80
504.65	40940.65
504.83	41022.57
505.01	41565.57
505.18	41558.55
505.36	41804.31
505.53	41703.67
505.71	41518.76
505.88	42131.98
506.06	41598.34
506.23	41968.15
506.41	42036.02
506.58	42464.34
506.76	42529.87
506.93	42838.83
507.11	42256.03
507.28	42834.14
507.46	43295.23
507.63	42897.34
507.81	43477.79
507.98	42913.72
508.16	43379.49
508.33	43426.30
508.50	43763.34
508.68	43826.53
508.85	44252.51
509.03	44163.57
509.20	44236.12
509.38	44353.15
509.55	44430.39
509.73	44870.41
509.90	45184.04
510.08	44839.98
510.25	45207.45
510.42	44582.52
510.60	45139.57
510.77	45326.81
510.95	45635.77
511.12	45710.66
511.30	45474.27
511.47	45553.85
511.64	45673.21
511.82	45591.30
511.99	46092.17
512.17	45902.59
512.34	46080.47
512.51	46405.80
512.69	46579.00
512.86	46293.46
513.04	46866.89
513.21	46958.17
513.38	47072.85
513.56	47208.61
513.73	47044.77
513.90	47423.93
514.08	47203.92
514.25	47590.11
514.43	47870.98
514.60	47557.35
514.77	47657.99
514.95	47798.42
515.12	47672.03
515.29	47819.49
515.47	47760.97
515.64	48570.80
515.81	48460.79
515.99	48430.36
516.16	48835.28
516.33	48673.78
516.51	48706.55
516.68	48332.06
516.85	48811.87
517.03	49237.85
517.20	49113.80
517.37	49106.78
517.54	49181.68
517.72	49155.93
517.89	49195.72
518.06	49354.88
518.24	49373.60
518.41	49610.00
518.58	49394.67
518.75	49535.10
518.93	49832.35
519.10	49420.41
519.27	49815.96
519.45	50300.45
519.62	49991.50
519.79	50328.54
519.96	50199.81
520.14	50473.65
520.31	50293.43
520.48	50658.56
520.65	50344.92
520.83	51140.71
521.00	51047.08
521.17	50342.58
521.34	50735.79
521.52	51253.05
521.69	50777.92
521.86	51199.22
522.03	51337.31
522.20	51285.82
522.38	51789.03
522.55	51449.66
522.72	51524.55
522.89	51753.93
523.07	51704.77
523.24	51421.57
523.41	52048.83
523.58	52030.11
523.75	52280.55
523.92	52018.41
524.10	52161.18
524.27	52355.44
524.44	52554.39
524.61	52399.91
524.78	52210.33
524.96	52624.60
525.13	52547.37
525.30	52736.95
525.47	52542.69
525.64	52547.37
525.81	52837.59
525.98	52750.99
526.16	52776.74
526.33	52861.00
526.50	53226.12
526.67	53111.44
526.84	53319.74
527.01	53294.00
527.18	52921.85
527.36	53113.78
527.53	53284.64
527.70	53694.23
527.87	53635.72
528.04	53427.41
528.21	53542.10
528.38	53483.58
528.55	53916.58
528.72	53787.85
528.89	53577.20
529.07	53439.11
529.24	53256.55
529.41	54115.53
529.58	53986.80
529.75	53759.76
529.92	53893.18
530.09	53939.99
530.26	54134.25
530.43	54358.94
530.60	53787.85
530.77	54157.66
530.94	54328.52
531.11	54003.18
531.28	54145.95
531.46	54494.69
531.63	54525.12
531.80	54129.57
531.97	54384.69
532.14	54653.85
532.31	54623.42
532.48	54578.95
532.65	54845.77
532.82	54857.48
532.99	54897.27
533.16	54777.90
533.33	54932.37
533.50	54958.12
533.67	54953.44
533.84	54976.84
534.01	55121.96
534.18	55037.70
534.35	55267.07
534.52	55444.95
534.69	55309.20
534.86	55398.14
535.03	55267.07
535.20	55246.00
535.37	55435.59
535.54	55505.80
535.71	55412.18
535.88	55508.14
536.05	55522.19
536.22	55622.83
536.38	55683.69
536.55	55643.90
536.72	55744.54
536.89	55941.14
537.06	55704.75
537.23	55725.81
537.40	55679.00
537.57	55831.14
537.74	55934.12
537.91	56163.50
538.08	55973.91
538.25	55945.83
538.42	56016.04
538.59	56458.40
538.75	56065.19
538.92	56119.02
539.09	56500.53
539.26	56294.56
539.43	56210.31
539.60	56484.15
539.77	56444.36
539.94	56671.39
540.11	56460.74
540.28	56884.38
540.44	56509.89
540.61	56582.45
540.78	56652.67
540.95	56257.12
541.12	56615.22
541.29	56666.71
541.46	56762.67
541.62	56736.93
541.79	56811.82
541.96	56446.70
542.13	56650.33
542.30	56818.84
542.47	57193.33
542.63	57041.20
542.80	57120.77
542.97	57059.92
543.14	57460.15
543.31	57326.74
543.48	57509.30
543.64	57696.55
543.81	57448.45
543.98	57455.47
544.15	57422.70
544.32	57673.14
544.48	57801.87
544.65	57375.89
544.82	57668.46
544.99	57652.08
545.16	57598.24
545.32	57310.36
545.49	58071.03
545.66	57748.04
545.83	57825.28
546.00	57778.46
546.16	57813.57
546.33	57621.65
546.50	57708.25
546.67	57631.01
546.83	57516.32
547.00	57778.46
547.17	57904.85
547.34	58068.69
547.50	57937.62
547.67	58253.59
547.84	58218.49
548.00	58295.72
548.17	58525.10
548.34	58178.70
548.51	58302.74
548.67	58309.77
548.84	58349.56
549.01	58143.59
549.18	58272.32
549.34	58401.05
549.51	58260.62
549.68	58534.46
549.84	58635.10
550.01	58663.19
550.18	58349.56
550.34	58525.10
550.51	58504.03
550.68	58639.78
550.84	58391.68
551.01	58611.70
551.18	58719.36
551.34	58585.95
551.51	58759.15
551.68	58857.45
551.84	58831.71
552.01	58717.02
552.18	58934.69
552.34	58710.00
552.51	58981.50
552.68	58817.66
552.84	58862.13
553.01	59058.74
553.18	58892.56
553.34	59128.95
553.51	58913.62
553.67	58801.28
553.84	59206.19
554.01	59077.46
554.17	59224.92
554.34	59089.16
554.51	59217.89
554.67	59150.02
554.84	59213.21
555.00	58990.86
555.17	59187.47
555.33	59245.98
555.50	59210.87
555.67	59025.97
555.83	59121.93
556.00	59395.77
556.16	59475.35
556.33	59288.11
556.50	59285.77
556.66	59561.95
556.83	59278.75
556.99	59550.25
557.16	59643.87
557.32	59599.40
557.49	59798.35
557.65	59423.86
557.82	59629.83
557.98	59716.43
558.15	59625.15
558.32	59648.55
558.48	59554.93
558.65	59374.71
558.81	59655.57
558.98	59690.68
559.14	59763.24
559.31	59779.62
559.47	59622.81
559.64	59917.71
559.80	59927.08
559.97	59931.76
560.13	59681.32
560.30	59849.84
560.46	59772.60
560.63	59997.29
560.79	60004.31
560.96	60065.17
561.12	59908.35
561.29	59826.43
561.45	59938.78
561.61	59994.95
561.78	59765.58
561.94	59760.90
562.11	60067.51
562.27	60046.44
562.44	60299.22
562.60	60221.98
562.77	60011.34
562.93	59889.63
563.10	60168.15
563.26	59955.16
563.42	60221.98
563.59	60191.56
563.75	60147.09
563.92	60149.43
564.08	60257.09
564.24	60280.50
564.41	60186.88
564.57	60210.28
564.74	60374.12
564.90	60385.82
565.07	60123.68
565.23	60245.39
565.39	60182.19
565.56	60275.82
565.72	60416.25
565.88	60273.48
566.05	60275.82
566.21	60350.71
566.38	60439.65
566.54	60465.40
566.70	60563.70
566.87	60479.44
567.03	60280.50
567.19	60577.75
567.36	60350.71
567.52	60488.80
567.68	60701.79
567.85	60275.82
568.01	60463.06
568.17	60507.53
568.34	60683.07
568.50	60605.83
568.66	60552.00
568.83	60584.77
568.99	60198.58
569.15	60463.06
569.32	60500.51
569.48	60467.74
569.64	60493.49
569.81	60519.23
569.97	60472.42
570.13	60500.51
570.30	60348.37
570.46	60678.39
570.62	60645.62
570.78	60795.42
570.95	60446.68
571.11	60739.24
571.27	60547.32
571.43	60676.05
571.60	60687.75
571.76	60650.30
571.92	60622.22
572.09	60767.33
572.25	60811.80
572.41	60734.56
572.57	61031.81
572.74	61106.71
572.90	60669.03
573.06	60821.16
573.22	60783.71
573.38	60659.66
573.55	60739.24
573.71	60814.14
573.87	60893.72
574.03	60966.27
574.20	60598.81
574.36	60748.60
574.52	60793.07
574.68	60795.42
574.84	61027.13
575.01	60905.42
575.17	60992.02
575.33	60680.73
575.49	60783.71
575.65	60828.18
575.82	61076.28
575.98	60828.18
576.14	61038.83
576.30	61010.74
576.46	60849.25
576.62	60903.08
576.79	60980.32
576.95	60814.14
577.11	61001.38
577.27	60959.25
577.43	60907.76
577.59	60891.38
577.75	60727.54
577.92	60870.31
578.08	60924.14
578.24	60933.51
578.40	60985.00
578.56	60970.96
578.72	60914.78
578.88	60968.61
579.04	61099.68
579.21	61010.74
579.37	61141.81
579.53	61251.82
579.69	60952.23
579.85	61008.40
580.01	61015.43
580.17	61031.81
580.33	61085.64
580.49	61158.20
580.65	61141.81
580.82	61123.09
580.98	61038.83
581.14	60874.99
581.30	61062.24
581.46	61118.41
581.62	61085.64
581.78	61036.49
581.94	61202.67
582.10	60985.00
582.26	61216.71
582.42	61045.85
582.58	61102.03
582.74	60992.02
582.90	61167.56
583.06	61172.24
583.22	60933.51
583.38	61097.34
583.54	61116.07
583.70	61078.62
583.86	61282.25
584.02	61183.94
584.18	61197.99
584.34	61076.28
584.50	61190.97
584.66	61022.45
584.82	61001.38
584.98	61352.46
585.14	61343.10
585.30	61029.47
585.46	61261.18
585.62	61176.92
585.78	61453.11
585.94	61001.38
586.10	61172.24
586.26	61179.26
586.42	61017.77
586.58	61212.03
586.74	61357.14
586.90	61130.11
587.06	61216.71
587.22	61382.89
587.38	61289.27
587.54	61317.35
587.70	61258.84
587.86	61354.80
588.02	61123.09
588.18	61319.70
588.34	61134.79
588.49	61261.18
