SpectraSuite Data File
++++++++++++++++++++++++++++++++++++
Date: Fri Oct 25 11:33:33 EDT 2013
User: price-jones
Dark Spectrum Present: No
Reference Spectrum Present: No
Number of Sampled Component Spectra: 1
Spectrometers: USB2+H05261
Integration Time (usec): 100000 (USB2+H05261)
Spectra Averaged: 1 (USB2+H05261)
Boxcar Smoothing: 0 (USB2+H05261)
Correct for Electrical Dark: No (USB2+H05261)
Strobe/Lamp Enabled: No (USB2+H05261)
Correct for Detector Non-linearity: No (USB2+H05261)
Correct for Stray Light: No (USB2+H05261)
Number of Pixels in Processed Spectrum: 2048
>>>>>Begin Processed Spectral Data<<<<<
365.73	271.50
365.92	271.50
366.12	271.50
366.32	142.77
366.52	163.84
366.72	212.99
366.91	86.60
367.11	180.22
367.31	110.01
367.51	187.24
367.70	182.56
367.90	203.63
368.10	121.71
368.30	177.88
368.49	236.39
368.69	154.48
368.89	198.95
369.09	152.13
369.28	238.73
369.48	210.65
369.68	210.65
369.87	283.20
370.07	231.71
370.27	292.57
370.47	397.89
370.66	475.13
370.86	482.15
371.06	566.41
371.25	573.43
371.45	580.45
371.65	592.16
371.84	599.18
372.04	503.22
372.24	545.34
372.44	545.34
372.63	582.79
372.83	531.30
373.03	585.13
373.22	578.11
373.42	690.46
373.62	547.69
373.81	596.84
374.01	702.16
374.21	606.20
374.40	685.78
374.60	692.80
374.79	660.03
374.99	674.07
375.19	638.97
375.38	580.45
375.58	648.33
375.78	669.39
375.97	711.52
376.17	732.59
376.37	713.86
376.56	697.48
376.76	629.60
376.95	634.29
377.15	716.20
377.35	697.48
377.54	660.03
377.74	709.18
377.93	739.61
378.13	704.50
378.33	681.10
378.52	692.80
378.72	753.65
378.91	751.31
379.11	730.25
379.31	688.12
379.50	718.54
379.70	699.82
379.89	767.70
380.09	791.10
380.28	800.46
380.48	702.16
380.68	798.12
380.87	643.65
381.07	772.38
381.26	793.44
381.46	730.25
381.65	725.57
381.85	784.08
382.04	814.51
382.24	884.72
382.43	737.27
382.63	760.67
382.83	718.54
383.02	760.67
383.22	863.66
383.41	835.57
383.61	744.29
383.80	809.83
384.00	840.25
384.19	851.96
384.39	823.87
384.58	835.57
384.78	894.08
384.97	844.93
385.17	882.38
385.36	905.79
385.56	849.61
385.75	774.72
385.95	830.89
386.14	882.38
386.34	833.23
386.53	905.79
386.72	870.68
386.92	938.55
387.11	851.96
387.31	896.43
387.50	844.93
387.70	866.00
387.89	873.02
388.09	812.17
388.28	964.30
388.48	926.85
388.67	971.32
388.86	947.92
389.06	931.53
389.25	985.37
389.45	910.47
389.64	1004.09
389.84	959.62
390.03	1004.09
390.22	980.68
390.42	959.62
390.61	933.87
390.81	959.62
391.00	987.71
391.19	929.19
391.39	980.68
391.58	1004.09
391.78	1064.94
391.97	1006.43
392.16	1011.11
392.36	1144.52
392.55	950.26
392.75	1067.28
392.94	1074.31
393.13	1027.50
393.33	1025.15
393.52	1025.15
393.71	1027.50
393.91	1062.60
394.10	1048.56
394.29	1078.99
394.49	1093.03
394.68	1184.31
394.88	1067.28
395.07	1165.59
395.26	1146.86
395.46	1135.16
395.65	1137.50
395.84	1163.25
396.04	1247.51
396.23	1266.23
396.42	1125.80
396.62	1228.78
396.81	1219.42
397.00	1228.78
397.19	1226.44
397.39	1221.76
397.58	1268.57
397.77	1289.64
397.97	1317.72
398.16	1203.04
398.35	1270.91
398.55	1315.38
398.74	1273.25
398.93	1418.36
399.12	1254.53
399.32	1289.64
399.51	1252.19
399.70	1308.36
399.90	1364.53
400.09	1338.79
400.28	1472.20
400.47	1432.41
400.67	1378.58
400.86	1287.29
401.05	1444.11
401.24	1458.15
401.44	1437.09
401.63	1521.35
401.82	1495.60
402.01	1493.26
402.21	1563.48
402.40	1511.99
402.59	1460.49
402.78	1472.20
402.97	1551.78
403.17	1549.43
403.36	1577.52
403.55	1577.52
403.74	1614.97
403.93	1570.50
404.13	1540.07
404.32	1535.39
404.51	1657.10
404.70	1680.50
404.89	1732.00
405.09	1706.25
405.28	1657.10
405.47	1657.10
405.66	1687.53
405.85	1769.44
406.05	1706.25
406.24	1612.63
406.43	1760.08
406.62	1783.49
406.81	1870.09
407.00	1792.85
407.20	1774.13
407.39	1806.89
407.58	1884.13
407.77	1902.86
407.96	1813.92
408.15	1909.88
408.34	1886.47
408.54	1916.90
408.73	1926.26
408.92	1987.11
409.11	1975.41
409.30	2087.76
409.49	1961.37
409.68	2001.16
409.87	1905.20
410.07	1982.43
410.26	2031.58
410.45	2078.40
410.64	2134.57
410.83	1996.48
411.02	2052.65
411.21	2143.93
411.40	2190.74
411.59	2270.32
411.78	2260.96
411.98	2186.06
412.17	2249.25
412.36	2209.47
412.55	2293.72
412.74	2387.35
412.93	2314.79
413.12	2394.37
413.31	2487.99
413.50	2326.49
413.69	2492.67
413.88	2473.95
414.07	2394.37
414.26	2410.75
414.45	2487.99
414.64	2612.04
414.83	2476.29
415.02	2644.81
415.22	2717.36
415.41	2560.55
415.60	2731.41
415.79	2593.31
415.98	2614.38
416.17	2806.30
416.36	2722.04
416.55	2726.72
416.74	2754.81
416.93	2682.25
417.12	2677.57
417.31	2913.97
417.50	2874.18
417.69	2981.84
417.88	2928.01
418.07	2925.67
418.26	2979.50
418.45	3012.27
418.64	2939.71
418.83	3019.29
419.02	3098.87
419.21	3077.80
419.39	3143.34
419.58	3021.63
419.77	3075.46
419.96	3159.72
420.15	3155.04
420.34	3201.85
420.53	3199.51
420.72	3171.43
420.91	3220.58
421.10	3236.96
421.29	3325.90
421.48	3304.84
421.67	3368.03
421.86	3316.54
422.05	3246.32
422.24	3279.09
422.43	3314.20
422.61	3389.10
422.80	3274.41
422.99	3463.99
423.18	3442.93
423.37	3471.01
423.56	3351.65
423.75	3414.84
423.94	3339.94
424.13	3368.03
424.32	3274.41
424.50	3407.82
424.69	3524.85
424.88	3384.41
425.07	3431.23
425.26	3417.18
425.45	3391.44
425.64	3403.14
425.83	3438.25
426.01	3545.91
426.20	3463.99
426.39	3552.93
426.58	3356.33
426.77	3447.61
426.96	3506.12
427.15	3501.44
427.33	3651.24
427.52	3424.20
427.71	3616.13
427.90	3695.71
428.09	3623.15
428.28	3676.98
428.46	3777.62
428.65	3679.32
428.84	3707.41
429.03	3672.30
429.22	3709.75
429.40	3723.79
429.59	3786.99
429.78	3515.48
429.97	3515.48
430.16	3859.54
430.34	3824.44
430.53	3922.74
430.72	3875.93
430.91	3838.48
431.10	3843.16
431.28	3918.06
431.47	4063.17
431.66	4046.79
431.85	3854.86
432.03	4173.18
432.22	4086.58
432.41	4007.00
432.60	4163.81
432.79	4084.23
432.97	4173.18
433.16	4243.39
433.35	4100.62
433.54	4205.94
433.72	4173.18
433.91	4283.18
434.10	4145.09
434.28	4177.86
434.47	4318.29
434.66	4252.75
434.85	4269.14
435.03	4266.80
435.22	4351.06
435.41	4503.19
435.59	4388.50
435.78	4365.10
435.97	4468.08
436.16	4308.93
436.34	4542.98
436.53	4437.66
436.72	4496.17
436.90	4430.63
437.09	4519.57
437.28	4383.82
437.46	4540.64
437.65	4578.09
437.84	4678.73
438.02	4634.26
438.21	4657.67
438.40	4362.76
438.58	4629.58
438.77	4713.84
438.96	4779.37
439.14	4975.98
439.33	4781.71
439.52	4992.36
439.70	4837.89
439.89	5111.73
440.08	4926.83
440.26	5074.28
440.45	5064.92
440.63	4994.70
440.82	5165.56
441.01	5100.03
441.19	5102.37
441.38	5238.12
441.57	5221.74
441.75	5275.57
441.94	5420.68
442.12	5266.21
442.31	5423.02
442.50	5392.59
442.68	5350.46
442.87	5493.24
443.05	5465.15
443.24	5741.33
443.43	5425.36
443.61	5579.84
443.80	5631.33
443.98	5305.99
444.17	5249.82
444.35	5582.18
444.54	5556.43
444.73	5687.50
444.91	5703.89
445.10	5636.01
445.28	5727.29
445.47	5558.77
445.65	5685.16
445.84	5865.38
446.02	5659.42
446.21	5713.25
446.39	5734.31
446.58	5774.10
446.77	5701.54
446.95	5685.16
447.14	5682.82
447.32	5827.93
447.51	5685.16
447.69	5689.84
447.88	5729.63
448.06	5888.79
448.25	5813.89
448.43	5809.21
448.62	5724.95
448.80	5755.38
448.99	6012.84
449.17	6078.37
449.36	5785.80
449.54	6005.81
449.73	6057.31
449.91	6150.93
450.10	6235.19
450.28	5989.43
450.46	6015.18
450.65	6251.57
450.83	6209.44
451.02	6003.47
451.20	6274.98
451.39	6263.27
451.57	6258.59
451.76	5980.07
451.94	6169.65
452.13	6389.66
452.31	6207.10
452.49	6349.87
452.68	6335.83
452.86	6228.17
453.05	6406.05
453.23	6513.71
453.42	6286.68
453.60	6195.40
453.78	6441.15
453.97	6349.87
454.15	6356.90
454.34	6586.27
454.52	6558.18
454.70	6684.57
454.89	6525.41
455.07	6642.44
455.26	6633.08
455.44	6567.54
455.62	6640.10
455.81	6750.10
455.99	6693.93
456.17	6693.93
456.36	6724.36
456.54	6810.96
456.73	6850.75
456.91	6991.18
457.09	6885.86
457.28	7236.94
457.46	7000.54
457.64	7077.78
457.83	7227.57
458.01	6773.51
458.19	7136.29
458.38	7169.06
458.56	7293.11
458.74	7206.51
458.93	7094.16
459.11	7077.78
459.29	7080.12
459.48	7325.88
459.66	7375.03
459.84	7187.79
460.03	7440.56
460.21	7452.27
460.39	7405.46
460.57	7321.20
460.76	7578.65
460.94	7527.16
461.12	7618.44
461.31	7564.61
461.49	7293.11
461.67	7356.30
461.85	7623.12
462.04	7536.52
462.22	7983.57
462.40	7798.66
462.59	7679.30
462.77	7585.68
462.95	7728.45
463.13	7733.13
463.32	7686.32
463.50	8049.10
463.68	7950.80
463.86	8028.04
464.05	7864.20
464.23	7925.05
464.41	8152.09
464.59	7967.18
464.78	8152.09
464.96	7967.18
465.14	7936.76
465.32	8009.31
465.50	8060.80
465.69	8238.69
465.87	8152.09
466.05	8044.42
466.23	8121.66
466.41	8156.77
466.60	8463.38
466.78	8006.97
466.96	8131.02
467.14	8163.79
467.32	8100.59
467.51	8381.46
467.69	8116.98
467.87	8287.84
468.05	8547.64
468.23	8379.12
468.41	8418.91
468.60	8585.08
468.78	8498.49
468.96	8358.05
469.14	8533.59
469.32	8681.05
469.50	8521.89
469.69	8791.05
469.87	8812.12
470.05	8458.70
470.23	8788.71
470.41	8833.18
470.59	9013.40
470.77	8891.70
470.95	8826.16
471.14	8863.61
471.32	8950.21
471.50	8980.64
471.68	9088.30
471.86	9078.94
472.04	9074.26
472.22	9373.85
472.40	8968.93
472.58	9132.77
472.77	9301.29
472.95	9371.50
473.13	9666.41
473.31	9282.56
473.49	9472.15
473.67	9444.06
473.85	9521.30
474.03	9565.77
474.21	9778.76
474.39	9799.82
474.57	9715.56
474.75	9980.04
474.93	9935.57
475.12	9563.43
475.30	9989.41
475.48	10024.51
475.66	10120.48
475.84	10064.30
476.02	10012.81
476.20	10221.12
476.38	10443.47
476.56	10649.44
476.74	10609.65
476.92	10602.63
477.10	10644.76
477.28	10885.83
477.46	10761.78
477.64	10911.58
477.82	10810.93
478.00	11201.80
478.18	11190.10
478.36	11290.74
478.54	11375.00
478.72	11520.12
478.90	11517.78
479.08	11690.98
479.26	11705.02
479.44	11775.24
479.62	11786.94
479.80	12112.27
479.98	11805.66
480.16	12236.32
480.34	12065.46
480.52	12358.03
480.70	12446.97
480.88	12042.06
481.06	12416.54
481.24	12241.00
481.41	12666.98
481.59	12776.98
481.77	12833.16
481.95	12807.41
482.13	12924.44
482.31	12779.32
482.49	13387.86
482.67	13212.32
482.85	13664.05
483.03	13554.04
483.21	13661.71
483.39	13717.88
483.57	13848.95
483.74	14197.69
483.92	14001.08
484.10	13940.23
484.28	14312.38
484.46	14546.43
484.64	14904.53
484.82	14249.18
485.00	14986.45
485.18	14600.26
485.35	15307.10
485.53	14834.32
485.71	15187.74
485.89	15470.94
486.07	15445.20
486.25	15400.72
486.43	15580.95
486.61	15466.26
486.78	15800.96
486.96	15840.75
487.14	16383.75
487.32	16428.22
487.50	16276.09
487.68	16374.39
487.85	16652.91
488.03	16606.10
488.21	16788.66
488.39	17165.49
488.57	17296.56
488.75	17242.73
488.92	17455.72
489.10	17804.46
489.28	17408.90
489.46	17689.77
489.64	17933.18
489.81	18174.26
489.99	18015.10
490.17	18045.53
490.35	18363.84
490.53	18677.48
490.70	18492.57
490.88	18342.78
491.06	19140.90
491.24	18906.85
491.41	19136.22
491.59	19552.84
491.77	19407.72
491.95	19445.17
492.13	19550.49
492.30	19442.83
492.48	19447.51
492.66	19903.92
492.84	19817.32
493.01	20081.80
493.19	20360.32
493.37	20395.43
493.54	20535.86
493.72	20428.20
493.90	20732.47
494.08	20727.78
494.25	21099.93
494.43	20922.05
494.61	21130.36
494.79	21266.11
494.96	21291.85
495.14	21355.05
495.32	21598.46
495.49	21839.54
495.67	21813.79
495.85	22061.89
496.02	22429.35
496.20	22347.44
496.38	22422.33
496.55	22705.54
496.73	23175.98
496.91	22764.05
497.09	22719.58
497.26	22958.31
497.44	22806.18
497.62	23386.63
497.79	23531.75
497.97	23426.42
498.14	23901.55
498.32	23651.11
498.50	23697.92
498.67	24212.84
498.85	23618.35
499.03	23974.11
499.20	24102.84
499.38	24098.16
499.56	24140.29
499.73	24458.60
499.91	24374.34
500.08	24790.95
500.26	24566.26
500.44	24500.73
500.61	25015.65
500.79	24823.72
500.97	25123.31
501.14	25298.85
501.32	25575.03
501.49	25252.04
501.67	25310.55
501.84	25495.46
502.02	25614.82
502.20	25776.32
502.37	25736.53
502.55	25748.23
502.72	26080.59
502.90	25886.32
503.07	25797.38
503.25	26183.57
503.43	26235.06
503.60	26284.22
503.78	26581.46
503.95	26775.73
504.13	26614.23
504.30	26864.67
504.48	26782.75
504.65	26881.05
504.83	26899.78
505.01	27138.51
505.18	27082.34
505.36	27297.67
505.53	27276.60
505.71	27873.44
505.88	27236.81
506.06	27215.75
506.23	27676.83
506.41	27520.02
506.58	27915.57
506.76	27791.52
506.93	28292.40
507.11	28505.38
507.28	28102.81
507.46	28198.77
507.63	28147.28
507.81	28407.08
507.98	28067.70
508.16	28350.91
508.33	28659.86
508.50	28430.49
508.68	28795.61
508.85	29336.27
509.03	28669.22
509.20	28811.99
509.38	29216.91
509.55	29326.91
509.73	29453.30
509.90	29338.62
510.08	29411.17
510.25	29619.48
510.42	29738.85
510.60	30026.73
510.77	29968.22
510.95	29764.59
511.12	29935.45
511.30	29813.74
511.47	30188.23
511.64	30064.18
511.82	30197.59
511.99	30253.76
512.17	30469.09
512.34	30663.36
512.51	31070.61
512.69	30628.25
512.86	30904.43
513.04	31232.11
513.21	31110.40
513.38	31056.57
513.56	31218.07
513.73	31314.03
513.90	31103.38
514.08	31732.98
514.25	31566.81
514.43	31779.79
514.60	32027.89
514.77	31527.02
514.95	32009.17
515.12	31555.10
515.29	31931.93
515.47	31889.80
515.64	32350.88
515.81	32168.32
515.99	32013.85
516.16	32140.24
516.33	32198.75
516.51	32437.48
516.68	32488.98
516.85	32467.91
517.03	32224.50
517.20	32484.30
517.37	33053.05
517.54	33158.37
517.72	32861.12
517.89	32755.80
518.06	32910.27
518.24	33287.10
518.41	32816.65
518.58	33034.32
518.75	32804.95
518.93	33376.04
519.10	33207.52
519.27	33291.78
519.45	33453.28
519.62	33418.17
519.79	33942.45
519.96	33797.34
520.14	34181.18
520.31	33996.28
520.48	34033.73
520.65	34033.73
520.83	34415.24
521.00	34817.81
521.17	34223.31
521.34	34614.18
521.52	34637.59
521.69	34078.20
521.86	34876.32
522.03	34560.35
522.20	35194.64
522.38	34904.41
522.55	35019.10
522.72	35204.00
522.89	34806.11
523.07	35964.67
523.24	35534.01
523.41	35318.68
523.58	35424.01
523.75	35660.40
523.92	35084.63
524.10	35484.86
524.27	35335.07
524.44	35758.70
524.61	35817.22
524.78	35573.80
524.96	36217.45
525.13	35931.90
525.30	35885.09
525.47	36306.39
525.64	36250.22
525.81	35941.27
525.98	36194.04
526.16	36187.02
526.33	36084.04
526.50	36664.49
526.67	36116.81
526.84	36673.85
527.01	36500.65
527.18	36575.55
527.36	37060.04
527.53	37223.88
527.70	37141.96
527.87	37273.03
528.04	37024.93
528.21	36966.42
528.38	37347.93
528.55	37284.73
528.72	37216.86
528.89	37123.24
529.07	37429.85
529.24	37139.62
529.41	37406.44
529.58	37483.68
529.75	37471.98
529.92	37586.66
530.09	37591.34
530.26	37792.63
530.43	37738.80
530.60	37722.41
530.77	37656.88
530.94	37471.98
531.11	37820.72
531.28	38110.94
531.46	38422.23
531.63	38190.52
531.80	37895.61
531.97	38167.12
532.14	38249.03
532.31	37780.93
532.48	38471.39
532.65	38529.90
532.82	38415.21
532.99	38742.89
533.16	38794.38
533.33	38918.43
533.50	39044.82
533.67	38850.55
533.84	38586.07
534.01	38761.61
534.18	38658.63
534.35	39360.79
534.52	39187.59
534.69	39180.57
534.86	39290.57
535.03	39353.77
535.20	39475.48
535.37	39524.63
535.54	39515.26
535.71	39335.04
535.88	39545.69
536.05	39878.05
536.22	39800.81
536.38	40093.38
536.55	39608.89
536.72	40016.14
536.89	39660.38
537.06	39557.39
537.23	40044.23
537.40	39358.45
537.57	39625.27
537.74	39924.86
537.91	40163.59
538.08	40189.34
538.25	39910.82
538.42	39761.02
538.59	40273.60
538.75	40163.59
538.92	40465.52
539.09	40648.08
539.26	41088.10
539.43	40507.65
539.60	40474.88
539.77	41029.59
539.94	41301.09
540.11	40886.82
540.28	41116.19
540.44	40776.81
540.61	40797.88
540.78	40421.05
540.95	40868.09
541.12	40591.91
541.29	40877.46
541.46	40849.37
541.62	41081.08
541.79	41305.77
541.96	40851.71
542.13	40889.16
542.30	41294.07
542.47	41193.43
542.63	41244.92
542.80	41500.04
542.97	41993.89
543.14	41954.10
543.31	41495.36
543.48	42003.25
543.64	41993.89
543.81	41741.11
543.98	42192.84
544.15	42337.95
544.32	42314.55
544.48	42387.10
544.65	42237.31
544.82	42195.18
544.99	41888.57
545.16	41921.34
545.32	42433.91
545.49	42866.91
545.66	42777.97
545.83	42536.90
546.00	42616.47
546.16	42391.78
546.33	42438.59
546.50	42010.28
546.67	42632.86
546.83	42099.22
547.00	42911.38
547.17	42614.13
547.34	42478.38
547.50	43206.29
547.67	43723.55
547.84	42997.98
548.00	43180.54
548.17	43157.14
548.34	43220.33
548.51	42878.61
548.67	43548.01
548.84	43246.08
549.01	43105.65
549.18	43676.74
549.34	43262.46
549.51	43615.88
549.68	43423.96
549.84	43526.94
550.01	43445.02
550.18	43393.53
550.34	43913.13
550.51	43690.78
550.68	44144.84
550.84	43618.22
551.01	43459.07
551.18	43667.37
551.34	43363.11
551.51	43702.48
551.68	43700.14
551.84	43878.02
552.01	44018.46
552.18	43821.85
552.34	43725.89
552.51	43735.25
552.68	43955.26
552.84	44009.09
553.01	44350.81
553.18	44072.29
553.34	44706.57
553.51	44100.37
553.67	44308.68
553.84	44102.71
554.01	44832.96
554.17	44577.84
554.34	44463.16
554.51	44467.84
554.67	44765.09
554.84	44610.61
555.00	44538.05
555.17	44196.34
555.33	44760.40
555.50	44570.82
555.67	44669.12
555.83	45017.86
556.00	44467.84
556.16	45280.00
556.33	44624.65
556.50	44868.07
556.66	44741.68
556.83	44634.02
556.99	45268.30
557.16	45010.84
557.32	45698.96
557.49	45331.50
557.65	45029.57
557.82	45214.47
557.98	45118.51
558.15	44914.88
558.32	45397.03
558.48	45219.15
558.65	45427.46
558.81	45319.79
558.98	45198.09
559.14	45413.41
559.31	45134.89
559.47	45244.90
559.64	45158.30
559.80	45244.90
559.97	45368.94
560.13	45535.12
560.30	45628.74
560.46	45911.95
560.63	45684.92
560.79	45923.65
560.96	45862.80
561.12	45731.73
561.29	45715.34
561.45	45661.51
561.61	45954.08
561.78	45591.30
561.94	45855.78
562.11	45656.83
562.27	45537.46
562.44	45614.70
562.60	46026.63
562.77	45940.04
562.93	45638.11
563.10	45975.14
563.26	45371.28
563.42	46361.33
563.59	45750.45
563.75	45703.64
563.92	46436.23
564.08	45579.59
564.24	45757.47
564.41	45982.16
564.57	46134.30
564.74	45984.51
564.90	45989.19
565.07	45942.38
565.23	46225.58
565.39	46178.77
565.56	45942.38
565.72	46045.36
565.88	46136.64
566.05	46146.00
566.21	46293.46
566.38	46185.79
566.54	46461.97
566.70	46387.08
566.87	46494.74
567.03	46113.23
567.19	46258.35
567.36	46286.43
567.52	46394.10
567.68	46464.32
567.85	46382.40
568.01	46583.68
568.17	46036.00
568.34	46354.31
568.50	46396.44
568.66	46248.99
568.83	45977.48
568.99	46424.53
569.15	46646.88
569.32	46602.41
569.48	46747.52
569.64	46635.17
569.81	46698.37
569.97	46429.21
570.13	46773.27
570.30	46281.75
570.46	46733.48
570.62	46239.62
570.78	46763.90
570.95	46937.10
571.11	47082.22
571.27	46557.94
571.43	46787.31
571.60	46588.36
571.76	46749.86
571.92	46513.47
572.09	46658.58
572.25	46656.24
572.41	46469.00
572.57	46621.13
572.74	47239.03
572.90	46660.92
573.06	46789.65
573.22	46967.53
573.38	47126.69
573.55	47292.86
573.71	47253.08
573.87	46934.76
574.03	46583.68
574.20	47388.83
574.36	46815.40
574.52	46862.21
574.68	46883.27
574.84	47210.95
575.01	47187.54
575.17	47131.37
575.33	46981.57
575.49	46674.96
575.65	47086.90
575.82	46878.59
575.98	47086.90
576.14	47562.03
576.30	47281.16
576.46	47035.41
576.62	46955.83
576.79	46974.55
576.95	46440.91
577.11	47072.85
577.27	46981.57
577.43	47203.92
577.59	47145.41
577.75	46894.97
577.92	46691.35
578.08	47133.71
578.24	47117.32
578.40	46965.19
578.56	47278.82
578.72	47138.39
578.88	47079.88
579.04	47344.36
579.21	47234.35
579.37	47192.22
579.53	47459.04
579.69	47093.92
579.85	47269.46
580.01	47274.14
580.17	47154.77
580.33	47484.79
580.49	47250.74
580.65	47124.35
580.82	47288.18
580.98	47136.05
581.14	47358.40
581.30	47255.42
581.46	46890.29
581.62	46597.73
581.78	47428.62
581.94	47367.76
582.10	47412.23
582.26	47210.95
582.42	47480.11
582.58	47337.33
582.74	47526.92
582.90	47445.00
583.06	47484.79
583.22	47246.05
583.38	47414.57
583.54	47505.85
583.70	47421.59
583.86	47440.32
584.02	47161.79
584.18	47632.24
584.34	47634.58
584.50	47489.47
584.66	47414.57
584.82	47695.44
584.98	47686.07
585.14	47697.78
585.30	47452.02
585.46	47182.86
585.62	47131.37
585.78	47334.99
585.94	47110.30
586.10	47613.52
586.26	47255.42
586.42	47449.68
586.58	47622.88
586.74	47489.47
586.90	47353.72
587.06	47529.26
587.22	47728.20
587.38	47145.41
587.54	47693.10
587.70	47892.04
587.86	47655.65
588.02	47529.26
588.18	47674.37
588.34	47646.29
588.49	47208.61
588.65	47372.44
588.81	47302.23
588.97	47433.30
589.13	47414.57
589.29	47564.37
589.45	47782.04
589.61	47627.56
589.77	47777.36
589.93	47742.25
590.08	47650.97
