SpectraSuite Data File
++++++++++++++++++++++++++++++++++++
Date: Fri Oct 25 11:26:22 EDT 2013
User: price-jones
Dark Spectrum Present: No
Reference Spectrum Present: No
Number of Sampled Component Spectra: 1
Spectrometers: USB2+H05261
Integration Time (usec): 100000 (USB2+H05261)
Spectra Averaged: 1 (USB2+H05261)
Boxcar Smoothing: 0 (USB2+H05261)
Correct for Electrical Dark: No (USB2+H05261)
Strobe/Lamp Enabled: No (USB2+H05261)
Correct for Detector Non-linearity: No (USB2+H05261)
Correct for Stray Light: No (USB2+H05261)
Number of Pixels in Processed Spectrum: 2048
>>>>>Begin Processed Spectral Data<<<<<
365.73	217.67
365.92	217.67
366.12	217.67
366.32	159.16
366.52	152.13
366.72	177.88
366.91	70.22
367.11	163.84
367.31	131.07
367.51	128.73
367.70	121.71
367.90	131.07
368.10	95.96
368.30	86.60
368.49	149.79
368.69	187.24
368.89	248.10
369.09	156.82
369.28	217.67
369.48	133.41
369.68	173.20
369.87	201.29
370.07	163.84
370.27	271.50
370.47	322.99
370.66	634.29
370.86	645.99
371.06	580.45
371.25	725.57
371.45	688.12
371.65	681.10
371.84	667.05
372.04	697.48
372.24	758.33
372.44	709.18
372.63	809.83
372.83	688.12
373.03	727.91
373.22	739.61
373.42	690.46
373.62	812.17
373.81	723.23
374.01	812.17
374.21	844.93
374.40	851.96
374.60	884.72
374.79	788.76
374.99	800.46
375.19	777.06
375.38	758.33
375.58	795.78
375.78	844.93
375.97	854.30
376.17	947.92
376.37	875.36
376.56	863.66
376.76	821.53
376.95	854.30
377.15	908.13
377.35	868.34
377.54	945.58
377.74	915.15
377.93	863.66
378.13	877.70
378.33	877.70
378.52	919.83
378.72	959.62
378.91	961.96
379.11	866.00
379.31	943.24
379.50	978.34
379.70	943.24
379.89	983.02
380.09	952.60
380.28	915.15
380.48	961.96
380.68	1008.77
380.87	1057.92
381.07	1006.43
381.26	1109.41
381.46	1104.73
381.65	1029.84
381.85	1006.43
382.04	1036.86
382.24	1069.62
382.43	940.90
382.63	1043.88
382.83	1174.95
383.02	1076.65
383.22	1081.33
383.41	1139.84
383.61	1086.01
383.80	1156.22
384.00	1151.54
384.19	1177.29
384.39	1121.12
384.58	1188.99
384.78	1067.28
384.97	1095.37
385.17	1125.80
385.36	1146.86
385.56	1151.54
385.75	1158.57
385.95	1095.37
386.14	1193.67
386.34	1151.54
386.53	1235.80
386.72	1177.29
386.92	1252.19
387.11	1289.64
387.31	1242.82
387.50	1256.87
387.70	1196.01
387.89	1259.21
388.09	1245.16
388.28	1254.53
388.48	1193.67
388.67	1200.69
388.86	1313.04
389.06	1301.34
389.25	1336.45
389.45	1303.68
389.64	1439.43
389.84	1411.34
390.03	1355.17
390.22	1469.86
390.42	1364.53
390.61	1373.89
390.81	1369.21
391.00	1385.60
391.19	1434.75
391.39	1390.28
391.58	1469.86
391.78	1425.39
391.97	1427.73
392.16	1481.56
392.36	1476.88
392.55	1551.78
392.75	1516.67
392.94	1509.65
393.13	1472.20
393.33	1486.24
393.52	1584.54
393.71	1600.93
393.91	1624.33
394.10	1582.20
394.29	1605.61
394.49	1586.88
394.68	1561.14
394.88	1467.52
395.07	1689.87
395.26	1692.21
395.46	1556.46
395.65	1654.76
395.84	1638.38
396.04	1844.34
396.23	1818.60
396.42	1717.95
396.62	1734.34
396.81	1813.92
397.00	1778.81
397.19	1818.60
397.39	1914.56
397.58	1706.25
397.77	1750.72
397.97	1741.36
398.16	1844.34
398.35	1860.73
398.55	1806.89
398.74	1909.88
398.93	1980.09
399.12	1926.26
399.32	1998.82
399.51	1912.22
399.70	2010.52
399.90	1865.41
400.09	2003.50
400.28	2040.95
400.47	2045.63
400.67	2148.61
400.86	2069.03
401.05	1996.48
401.24	2008.18
401.44	2085.42
401.63	2146.27
401.82	2085.42
402.01	2094.78
402.21	2179.04
402.40	2186.06
402.59	2221.17
402.78	2195.42
402.97	2272.66
403.17	2286.70
403.36	2232.87
403.55	2310.11
403.74	2359.26
403.93	2373.30
404.13	2361.60
404.32	2389.69
404.51	2445.86
404.70	2403.73
404.89	2279.68
405.09	2422.45
405.28	2375.64
405.47	2441.18
405.66	2420.11
405.85	2576.93
406.05	2434.16
406.24	2455.22
406.43	2689.28
406.62	2710.34
406.81	2616.72
407.00	2548.84
407.20	2487.99
407.39	2590.97
407.58	2586.29
407.77	2658.85
407.96	2869.50
408.15	2747.79
408.34	2766.51
408.54	2712.68
408.73	2719.70
408.92	2708.00
409.11	2810.98
409.30	2906.95
409.49	2949.08
409.68	2839.07
409.87	2925.67
410.07	2909.29
410.26	3023.97
410.45	3033.33
410.64	2979.50
410.83	2953.76
411.02	3084.83
411.21	3126.96
411.40	3138.66
411.59	3248.66
411.78	3112.91
411.98	3199.51
412.17	3314.20
412.36	3346.97
412.55	3295.47
412.74	3342.28
412.93	3461.65
413.12	3370.37
413.31	3489.74
413.50	3524.85
413.69	3365.69
413.88	3602.08
414.07	3531.87
414.26	3630.17
414.45	3676.98
414.64	3618.47
414.83	3782.31
415.02	3763.58
415.22	3833.80
415.41	3868.91
415.60	3674.64
415.79	3889.97
415.98	4002.32
416.17	3887.63
416.36	3981.25
416.55	4070.19
416.74	4011.68
416.93	4004.66
417.12	4124.02
417.31	4117.00
417.50	4159.13
417.69	4231.69
417.88	4301.90
418.07	4255.09
418.26	4306.59
418.45	4262.12
418.64	4500.85
418.83	4341.69
419.02	4418.93
419.21	4475.10
419.39	4514.89
419.58	4461.06
419.77	4339.35
419.96	4491.49
420.15	4662.35
420.34	4524.26
420.53	4535.96
420.72	4580.43
420.91	4652.98
421.10	4760.65
421.29	4877.68
421.48	4638.94
421.67	4652.98
421.86	4779.37
422.05	4821.50
422.24	4587.45
422.43	4856.61
422.61	4884.70
422.80	4959.60
422.99	5025.13
423.18	4851.93
423.37	4964.28
423.56	4844.91
423.75	5081.30
423.94	4861.29
424.13	4545.32
424.32	4704.48
424.50	4894.06
424.69	5046.20
424.88	4945.55
425.07	5064.92
425.26	4891.72
425.45	4903.42
425.64	5097.69
425.83	5062.58
426.01	4985.34
426.20	4887.04
426.39	4999.38
426.58	5039.17
426.77	5123.43
426.96	5137.48
427.15	4983.00
427.33	5158.54
427.52	5018.11
427.71	5235.78
427.90	5200.67
428.09	5249.82
428.28	5301.31
428.46	5226.42
428.65	5310.68
428.84	5481.53
429.03	5526.00
429.22	5394.93
429.40	5448.77
429.59	5425.36
429.78	5315.36
429.97	5121.09
430.16	5387.91
430.34	5504.94
430.53	5565.79
430.72	5692.18
430.91	5561.11
431.10	5411.32
431.28	5521.32
431.47	5694.52
431.66	5706.23
431.85	5621.97
432.03	5872.40
432.22	5914.53
432.41	5806.87
432.60	5736.65
432.79	5935.60
432.97	5928.58
433.16	6045.60
433.35	5893.47
433.54	6033.90
433.72	6115.82
433.91	6207.10
434.10	6071.35
434.28	6054.97
434.47	6214.12
434.66	6291.36
434.85	6310.08
435.03	6230.51
435.22	6197.74
435.41	6389.66
435.59	6347.53
435.78	6373.28
435.97	6504.35
436.16	6251.57
436.34	6331.15
436.53	6424.77
436.72	6630.74
436.90	6370.94
437.09	6525.41
437.28	6333.49
437.46	6506.69
437.65	6619.04
437.84	6939.69
438.02	6696.27
438.21	6738.40
438.40	6595.63
438.58	7019.27
438.77	6932.67
438.96	6958.41
439.14	6993.52
439.33	7166.72
439.52	7211.19
439.70	7187.79
439.89	7262.68
440.08	7431.20
440.26	7351.62
440.45	7215.87
440.63	7211.19
440.82	7609.08
441.01	7447.58
441.19	7435.88
441.38	7705.04
441.57	7672.28
441.75	7651.21
441.94	8004.63
442.12	7786.96
442.31	7903.99
442.50	8161.45
442.68	7826.75
442.87	8021.02
443.05	8102.93
443.24	8294.86
443.43	8077.19
443.61	7913.35
443.80	8308.90
443.98	8243.37
444.17	7740.15
444.35	8173.15
444.54	8329.97
444.73	8250.39
444.91	8208.26
445.10	8463.38
445.28	8329.97
445.47	8280.82
445.65	8322.94
445.84	8372.10
446.02	8542.96
446.21	8285.50
446.39	8437.63
446.58	8449.33
446.77	8521.89
446.95	8294.86
447.14	8201.24
447.32	8442.31
447.51	8571.04
447.69	8341.67
447.88	8652.96
448.06	8390.82
448.25	8454.02
448.43	8409.54
448.62	8638.92
448.80	8542.96
448.99	8695.09
449.17	8716.16
449.36	8510.19
449.54	8887.01
449.73	9025.11
449.91	9039.15
450.10	8933.82
450.28	9046.17
450.46	9018.08
450.65	8997.02
450.83	8999.36
451.02	8994.68
451.20	9088.30
451.39	9088.30
451.57	9123.41
451.76	8945.53
451.94	9235.75
452.13	9249.80
452.31	9343.42
452.49	9064.89
452.68	9146.81
452.86	9301.29
453.05	9399.59
453.23	9551.73
453.42	9327.03
453.60	9303.63
453.78	9423.00
453.97	9378.53
454.15	9341.08
454.34	9329.38
454.52	9694.50
454.70	9764.72
454.89	9816.21
455.07	9678.12
455.26	9703.86
455.44	9884.08
455.62	9926.21
455.81	9818.55
455.99	9947.28
456.17	9956.64
456.36	9891.10
456.54	10136.86
456.73	10291.34
456.91	10406.02
457.09	10331.12
457.28	10377.94
457.46	10209.42
457.64	10335.81
457.83	10401.34
458.01	10272.61
458.19	10560.50
458.38	10394.32
458.56	10293.68
458.74	10494.96
458.93	10658.80
459.11	10700.93
459.29	10509.01
459.48	10754.76
459.66	10642.42
459.84	10792.21
460.03	11002.86
460.21	10953.71
460.39	10860.09
460.57	10888.17
460.76	11026.26
460.94	11342.24
461.12	11192.44
461.31	11014.56
461.49	11080.10
461.67	11260.32
461.85	11384.37
462.04	11143.29
462.22	11695.66
462.40	11419.47
462.59	11384.37
462.77	11585.65
462.95	11580.97
463.13	11527.14
463.32	11545.86
463.50	11606.72
463.68	11840.77
463.86	11786.94
464.05	11492.03
464.23	11611.40
464.41	11810.34
464.59	11726.08
464.78	12011.63
464.96	12025.67
465.14	11751.83
465.32	12156.74
465.50	12042.06
465.69	11953.12
465.87	12020.99
466.05	12250.36
466.23	12180.15
466.41	12009.29
466.60	12224.62
466.78	12091.21
466.96	12056.10
467.14	12105.25
467.32	12264.41
467.51	12374.41
467.69	11880.56
467.87	12332.28
468.05	12500.80
468.23	12217.60
468.41	12343.99
468.60	12507.82
468.78	12615.49
468.96	12451.65
469.14	12587.40
469.32	12798.05
469.50	12496.12
469.69	12784.01
469.87	13174.88
470.05	13132.75
470.23	13165.51
470.41	13020.40
470.59	13343.39
470.77	13060.19
470.95	13137.43
471.14	13392.55
471.32	13121.04
471.50	13455.74
471.68	13785.76
471.86	13586.81
472.04	13638.30
472.22	13865.33
472.40	13523.62
472.58	13806.82
472.77	13792.78
472.95	14134.50
473.13	14490.26
473.31	13989.38
473.49	13958.96
473.67	14295.99
473.85	14057.26
474.03	14516.00
474.21	14420.04
474.39	14471.53
474.57	14860.06
474.75	14815.59
474.93	15007.52
475.12	14911.55
475.30	15248.59
475.48	14747.72
475.66	14892.83
475.84	15091.77
476.02	15309.44
476.20	15044.96
476.38	15480.30
476.56	15981.18
476.74	15700.31
476.92	15604.35
477.10	15674.57
477.28	16187.14
477.46	16123.95
477.64	16233.96
477.82	16219.91
478.00	16882.28
478.18	16702.06
478.36	16952.50
478.54	16898.67
478.72	16952.50
478.90	17008.67
479.08	17572.74
479.26	17514.23
479.44	17605.51
479.62	17554.02
479.80	17937.87
479.98	18143.83
480.16	18340.44
480.34	18033.83
480.52	18515.98
480.70	18604.92
480.88	18005.74
481.06	18487.89
481.24	18773.44
481.41	19311.76
481.59	19325.80
481.77	19351.55
481.95	19524.75
482.13	19503.68
482.31	19590.28
482.49	19990.52
482.67	19686.25
482.85	20142.65
483.03	20629.48
483.21	20435.22
483.39	20819.07
483.57	20833.11
483.74	21006.31
483.92	20936.09
484.10	21010.99
484.28	21532.93
484.46	21759.96
484.64	22359.14
484.82	21771.66
485.00	21891.03
485.18	22422.33
485.35	22551.06
485.53	22412.97
485.71	22974.70
485.89	23569.19
486.07	23213.43
486.25	23515.36
486.43	23194.71
486.61	23683.88
486.78	23852.40
486.96	23777.50
487.14	24102.84
487.32	24409.45
487.50	24655.20
487.68	25050.75
487.85	25015.65
488.03	25120.97
488.21	25596.10
488.39	25605.46
488.57	25912.07
488.75	26232.72
488.92	26366.13
489.10	26476.14
489.28	26302.94
489.46	26588.49
489.64	26574.44
489.81	27384.27
489.99	27267.24
490.17	27782.16
490.35	27676.83
490.53	28276.01
490.70	28222.18
490.88	28020.89
491.06	28606.03
491.24	28451.55
491.41	28720.71
491.59	28704.33
491.77	29326.91
491.95	29497.77
492.13	29717.78
492.30	29181.80
492.48	29544.58
492.66	29734.17
492.84	30452.71
493.01	30490.16
493.19	30710.17
493.37	30717.19
493.54	30850.60
493.72	31180.62
493.90	31421.69
494.08	31468.50
494.25	31372.54
494.43	31845.33
494.61	31983.42
494.79	32002.14
494.96	32383.65
495.14	32921.98
495.32	33039.00
495.49	33097.52
495.67	33343.27
495.85	32828.35
496.02	33071.77
496.20	34089.90
496.38	33558.60
496.55	34019.69
496.73	34483.11
496.91	34117.99
497.09	34827.17
497.26	34740.57
497.44	34288.85
497.62	35187.61
497.79	35393.58
497.97	35040.16
498.14	35295.28
498.32	36032.55
498.50	35838.28
498.67	36037.23
498.85	36070.00
499.03	36327.45
499.20	36503.00
499.38	36219.79
499.56	36573.21
499.73	36961.74
499.91	37331.54
500.08	37202.82
500.26	37200.47
500.44	37198.13
500.61	37628.79
500.79	37680.28
500.97	37748.16
501.14	38239.67
501.32	38326.27
501.49	38312.23
501.67	37914.34
501.84	38361.38
502.02	38595.43
502.20	38768.63
502.37	39262.49
502.55	39030.77
502.72	38911.41
502.90	38904.38
503.07	39473.13
503.25	39522.29
503.43	39484.84
503.60	39683.78
503.78	40109.76
503.95	40046.57
504.13	40233.81
504.30	40280.62
504.48	39952.94
504.65	40767.45
504.83	40673.83
505.01	40971.08
505.18	41219.17
505.36	41043.63
505.53	41099.81
505.71	41092.79
505.88	41352.58
506.06	41352.58
506.23	41312.80
506.41	41572.60
506.58	41834.74
506.76	41947.08
506.93	42241.99
507.11	42096.88
507.28	41867.50
507.46	42595.41
507.63	42354.33
507.81	42623.50
507.98	42630.52
508.16	43040.11
508.33	43178.20
508.50	43098.62
508.68	43358.42
508.85	43363.11
509.03	43379.49
509.20	43658.01
509.38	43782.06
509.55	43667.37
509.73	44367.20
509.90	44245.49
510.08	44521.67
510.25	44465.50
510.42	44622.31
510.60	44779.13
510.77	44865.73
510.95	44935.95
511.12	44999.14
511.30	44741.68
511.47	45174.68
511.64	44912.54
511.82	45701.30
511.99	45132.55
512.17	45897.91
512.34	45677.90
512.51	46160.05
512.69	46174.09
512.86	45972.80
513.04	46571.98
513.21	45780.88
513.38	46302.82
513.56	46387.08
513.73	46272.39
513.90	46513.47
514.08	46508.79
514.25	47206.26
514.43	46946.47
514.60	47051.79
514.77	46997.96
514.95	46937.10
515.12	47295.21
515.29	47208.61
515.47	47627.56
515.64	47966.94
515.81	47669.69
515.99	47782.04
516.16	48184.61
516.33	48067.58
516.51	48388.24
516.68	48179.93
516.85	48486.54
517.03	48535.69
517.20	48311.00
517.37	49034.22
517.54	48545.05
517.72	48343.77
517.89	48804.85
518.06	48605.91
518.24	48734.63
518.41	48952.30
518.58	48985.07
518.75	49291.68
518.93	49062.31
519.10	49081.03
519.27	49361.90
519.45	49048.27
519.62	49689.57
519.79	49488.29
519.96	49762.13
520.14	50237.26
520.31	49872.14
520.48	50021.93
520.65	49874.48
520.83	50483.01
521.00	50567.27
521.17	49930.65
521.34	50394.07
521.52	50564.93
521.69	50539.19
521.86	50731.11
522.03	51035.38
522.20	51089.21
522.38	50848.14
522.55	50862.18
522.72	50901.97
522.89	50976.87
523.07	51503.49
523.24	51180.49
523.41	51664.99
523.58	51470.72
523.75	51735.20
523.92	51370.08
524.10	51358.38
524.27	51756.27
524.44	51777.33
524.61	51700.09
524.78	51749.24
524.96	51990.32
525.13	51899.04
525.30	52435.02
525.47	52229.05
525.64	52114.37
525.81	52371.83
525.98	52250.12
526.16	52317.99
526.33	52416.30
526.50	52594.18
526.67	52336.72
526.84	52790.78
527.01	52505.24
527.18	52650.35
527.36	52575.45
527.53	53092.71
527.70	53055.26
527.87	53174.63
528.04	53052.92
528.21	53048.24
528.38	52781.42
528.55	53118.46
528.72	53202.72
528.89	53205.06
529.07	53071.65
529.24	53085.69
529.41	53682.53
529.58	53443.79
529.75	53488.26
529.92	53820.62
530.09	53727.00
530.26	53989.14
530.43	53851.05
530.60	53525.71
530.77	53563.16
530.94	54110.85
531.11	53495.28
531.28	53911.90
531.46	54045.31
531.63	54202.13
531.80	53865.09
531.97	53930.62
532.14	54244.26
532.31	54148.29
532.48	54344.90
532.65	54443.20
532.82	54152.97
532.99	54822.37
533.16	54258.30
533.33	54707.68
533.50	54759.17
533.67	54227.87
533.84	54670.23
534.01	54618.74
534.18	54623.42
534.35	54932.37
534.52	54836.41
534.69	54969.82
534.86	55000.25
535.03	54883.22
535.20	54843.43
535.37	55131.32
535.54	55082.17
535.71	54990.89
535.88	55524.53
536.05	55421.55
536.22	55201.53
536.38	55423.89
536.55	55236.64
536.72	55583.04
536.89	55313.88
537.06	55430.91
537.23	55360.69
537.40	55348.99
537.57	55554.96
537.74	55632.19
537.91	55856.88
538.08	55566.66
538.25	55676.66
538.42	55599.43
538.59	55866.25
538.75	55737.52
538.92	55707.09
539.09	55838.16
539.26	55875.61
539.43	55737.52
539.60	56137.75
539.77	56039.45
539.94	56327.33
540.11	56147.11
540.28	56100.30
540.44	56264.14
540.61	56219.67
540.78	56236.05
540.95	55964.55
541.12	56369.46
541.29	56222.01
541.46	56303.93
541.62	56516.92
541.79	56636.28
541.96	56247.75
542.13	56406.91
542.30	56552.02
542.47	56545.00
542.63	56767.35
542.80	56640.96
542.97	56959.28
543.14	56853.95
543.31	56968.64
543.48	56746.29
543.64	57326.74
543.81	57130.14
543.98	57066.94
544.15	57020.13
544.32	57375.89
544.48	57169.93
544.65	57261.21
544.82	57153.54
544.99	57092.69
545.16	57462.49
545.32	57195.67
545.49	57609.95
545.66	57455.47
545.83	57305.68
546.00	57549.09
546.16	57165.24
546.33	57469.51
546.50	57368.87
546.67	57462.49
546.83	57291.63
547.00	57602.92
547.17	57560.79
547.34	57673.14
547.50	57762.08
547.67	57684.84
547.84	57860.38
548.00	57986.77
548.17	57902.51
548.34	57668.46
548.51	58003.16
548.67	58049.97
548.84	57925.92
549.01	57968.05
549.18	58099.12
549.34	58122.52
549.51	58143.59
549.68	58075.71
549.84	58110.82
550.01	58251.25
550.18	58136.57
550.34	58148.27
550.51	58108.48
550.68	58342.53
550.84	57928.26
551.01	58656.17
551.18	58337.85
551.34	58379.98
551.51	58426.79
551.68	58412.75
551.84	58408.07
552.01	58349.56
552.18	58447.86
552.34	58468.92
552.51	58529.78
552.68	58419.77
552.84	58248.91
553.01	58688.93
553.18	58454.88
553.34	58756.81
553.51	58698.30
553.67	58351.90
553.84	58789.58
554.01	58787.24
554.17	58749.79
554.34	58770.85
554.51	58932.35
554.67	58967.46
554.84	58712.34
555.00	58543.82
555.17	58822.34
555.33	58660.85
555.50	58592.97
555.67	58796.60
555.83	58841.07
556.00	58791.92
556.16	59082.14
556.33	59128.95
556.50	59187.47
556.66	59021.29
556.83	59025.97
556.99	59107.89
557.16	59187.47
557.32	59192.15
557.49	59543.23
557.65	59021.29
557.82	59147.68
557.98	59215.55
558.15	59241.30
558.32	59264.70
558.48	59164.06
558.65	59480.03
558.81	59133.63
558.98	59334.92
559.14	59346.62
559.31	59428.54
559.47	59339.60
559.64	59409.82
559.80	59529.19
559.97	59695.36
560.13	59473.01
560.30	59618.13
560.46	59306.83
560.63	59786.64
560.79	59456.63
560.96	59482.37
561.12	59683.66
561.29	59597.06
561.45	59896.65
561.61	59625.15
561.78	59580.68
561.94	59770.26
562.11	59601.74
562.27	59552.59
562.44	59793.67
562.60	59796.01
562.77	59777.28
562.93	59529.19
563.10	59901.33
563.26	59676.64
563.42	60046.44
563.59	59791.33
563.75	59716.43
563.92	59756.22
564.08	59742.17
564.24	60037.08
564.41	59852.18
564.57	60048.78
564.74	59873.24
564.90	59882.61
565.07	59973.89
565.23	59810.05
565.39	59901.33
565.56	59922.40
565.72	59812.39
565.88	60179.85
566.05	60025.38
566.21	59819.41
566.38	59936.44
566.54	59980.91
566.70	60184.54
566.87	60142.41
567.03	60025.38
567.19	60172.83
567.36	60126.02
567.52	60203.26
567.68	60294.54
567.85	60388.16
568.01	60135.38
568.17	60093.25
568.34	60278.16
568.50	60133.04
568.66	60006.65
568.83	60416.25
568.99	60111.98
569.15	60299.22
569.32	60336.67
569.48	60327.31
569.64	60533.28
569.81	60327.31
569.97	60137.72
570.13	60224.32
570.30	60264.11
570.46	60350.71
570.62	60163.47
570.78	60294.54
570.95	60266.45
571.11	60184.54
571.27	60243.05
571.43	60493.49
571.60	60507.53
571.76	60432.63
571.92	60467.74
572.09	60577.75
572.25	60439.65
572.41	60257.09
572.57	60261.77
572.74	60533.28
572.90	60362.42
573.06	60535.62
573.22	60310.92
573.38	60437.31
573.55	60371.78
573.71	60676.05
573.87	60523.91
574.03	60261.77
574.20	60807.12
574.36	60362.42
574.52	60657.32
574.68	60544.98
574.84	60582.43
575.01	60622.22
575.17	60509.87
575.33	60509.87
575.49	60430.29
575.65	60303.90
575.82	60809.46
575.98	60516.89
576.14	60736.90
576.30	60563.70
576.46	60453.70
576.62	60397.52
576.79	60526.25
576.95	60385.82
577.11	60516.89
577.27	60542.64
577.43	60669.03
577.59	60563.70
577.75	60657.32
577.92	60589.45
578.08	60664.35
578.24	60559.02
578.40	60736.90
578.56	60839.89
578.72	60645.62
578.88	60846.91
579.04	60846.91
579.21	60662.00
579.37	60676.05
579.53	60814.14
579.69	60598.81
579.85	60495.83
580.01	60626.90
580.17	60481.78
580.33	60734.56
580.49	60725.20
580.65	60795.42
580.82	60533.28
580.98	60629.24
581.14	60612.85
581.30	60816.48
581.46	60708.82
581.62	60980.32
581.78	60774.35
581.94	60809.46
582.10	60851.59
582.26	60673.71
582.42	60804.78
582.58	60963.93
582.74	60760.31
582.90	60835.20
583.06	60797.76
583.22	60406.89
583.38	60526.25
583.54	60683.07
583.70	60853.93
583.86	60711.16
584.02	60631.58
584.18	60889.04
584.34	60729.88
584.50	60797.76
584.66	60690.09
584.82	60830.52
584.98	60910.10
585.14	60963.93
585.30	60598.81
585.46	60961.59
585.62	60645.62
585.78	60823.50
585.94	60729.88
586.10	60865.63
586.26	60889.04
586.42	60832.86
586.58	60891.38
586.74	60926.49
586.90	60774.35
587.06	60734.56
587.22	61106.71
587.38	60769.67
587.54	60907.76
587.70	61120.75
587.86	60933.51
588.02	60886.70
588.18	60912.44
588.34	60797.76
588.49	60732.22
