SpectraSuite Data File
++++++++++++++++++++++++++++++++++++
Date: Fri Oct 25 10:47:14 EDT 2013
User: price-jones
Dark Spectrum Present: No
Reference Spectrum Present: No
Number of Sampled Component Spectra: 1
Spectrometers: USB2+H05261
Integration Time (usec): 100000 (USB2+H05261)
Spectra Averaged: 1 (USB2+H05261)
Boxcar Smoothing: 0 (USB2+H05261)
Correct for Electrical Dark: No (USB2+H05261)
Strobe/Lamp Enabled: No (USB2+H05261)
Correct for Detector Non-linearity: No (USB2+H05261)
Correct for Stray Light: No (USB2+H05261)
Number of Pixels in Processed Spectrum: 2048
>>>>>Begin Processed Spectral Data<<<<<
365.73	110.01
365.92	110.01
366.12	110.01
366.32	9.36
366.52	49.15
366.72	98.30
366.91	0.00
367.11	35.11
367.31	105.32
367.51	39.79
367.70	0.00
367.90	18.72
368.10	88.94
368.30	100.64
368.49	81.92
368.69	86.60
368.89	53.83
369.09	16.38
369.28	37.45
369.48	117.03
369.68	98.30
369.87	79.58
370.07	58.51
370.27	100.64
370.47	241.08
370.66	348.74
370.86	393.21
371.06	440.02
371.25	458.74
371.45	456.40
371.65	397.89
371.84	416.62
372.04	404.91
372.24	475.13
372.44	430.66
372.63	472.79
372.83	390.87
373.03	521.94
373.22	470.45
373.42	461.09
373.62	409.59
373.81	514.92
374.01	608.54
374.21	634.29
374.40	533.64
374.60	493.85
374.79	559.39
374.99	622.58
375.19	533.64
375.38	575.77
375.58	634.29
375.78	486.83
375.97	554.71
376.17	641.31
376.37	568.75
376.56	547.69
376.76	564.07
376.95	550.03
377.15	514.92
377.35	596.84
377.54	603.86
377.74	580.45
377.93	552.37
378.13	615.56
378.33	648.33
378.52	624.92
378.72	660.03
378.91	589.82
379.11	615.56
379.31	636.63
379.50	564.07
379.70	596.84
379.89	638.97
380.09	613.22
380.28	610.88
380.48	671.73
380.68	531.30
380.87	671.73
381.07	690.46
381.26	697.48
381.46	692.80
381.65	580.45
381.85	669.39
382.04	697.48
382.24	674.07
382.43	744.29
382.63	662.37
382.83	683.44
383.02	730.25
383.22	709.18
383.41	744.29
383.61	702.16
383.80	730.25
384.00	758.33
384.19	690.46
384.39	732.59
384.58	802.80
384.78	723.23
384.97	770.04
385.17	746.63
385.36	723.23
385.56	739.61
385.75	655.35
385.95	697.48
386.14	805.14
386.34	730.25
386.53	791.10
386.72	695.14
386.92	795.78
387.11	676.41
387.31	793.44
387.50	795.78
387.70	760.67
387.89	774.72
388.09	791.10
388.28	758.33
388.48	774.72
388.67	863.66
388.86	882.38
389.06	784.08
389.25	938.55
389.45	870.68
389.64	840.25
389.84	901.11
390.03	950.26
390.22	994.73
390.42	870.68
390.61	833.23
390.81	985.37
391.00	954.94
391.19	987.71
391.39	990.05
391.58	931.53
391.78	894.08
391.97	947.92
392.16	894.08
392.36	1029.84
392.55	961.96
392.75	936.21
392.94	940.90
393.13	938.55
393.33	929.19
393.52	978.34
393.71	950.26
393.91	1025.15
394.10	1053.24
394.29	1015.79
394.49	1041.54
394.68	1086.01
394.88	1053.24
395.07	1071.97
395.26	992.39
395.46	1008.77
395.65	1158.57
395.84	1100.05
396.04	1196.01
396.23	1097.71
396.42	1165.59
396.62	1132.82
396.81	1137.50
397.00	1118.78
397.19	1156.22
397.39	1174.95
397.58	1174.95
397.77	1233.46
397.97	1153.88
398.16	1277.93
398.35	1226.44
398.55	1322.40
398.74	1289.64
398.93	1366.87
399.12	1289.64
399.32	1254.53
399.51	1336.45
399.70	1387.94
399.90	1294.32
400.09	1317.72
400.28	1371.55
400.47	1345.81
400.67	1284.95
400.86	1362.19
401.05	1373.89
401.24	1383.26
401.44	1373.89
401.63	1437.09
401.82	1437.09
402.01	1385.60
402.21	1460.49
402.40	1423.05
402.59	1481.56
402.78	1383.26
402.97	1427.73
403.17	1465.18
403.36	1472.20
403.55	1430.07
403.74	1647.74
403.93	1544.75
404.13	1446.45
404.32	1579.86
404.51	1526.03
404.70	1619.65
404.89	1577.52
405.09	1692.21
405.28	1685.19
405.47	1643.06
405.66	1713.27
405.85	1640.72
406.05	1724.97
406.24	1696.89
406.43	1650.08
406.62	1701.57
406.81	1785.83
407.00	1778.81
407.20	1818.60
407.39	1689.87
407.58	1755.40
407.77	1799.87
407.96	1834.98
408.15	1802.21
408.34	1902.86
408.54	1867.75
408.73	1900.52
408.92	1963.71
409.11	1966.05
409.30	1940.30
409.49	1944.99
409.68	1959.03
409.87	1935.62
410.07	1923.92
410.26	2071.37
410.45	2001.16
410.64	2174.36
410.83	2057.33
411.02	2069.03
411.21	2132.23
411.40	2139.25
411.59	2134.57
411.78	2115.84
411.98	2286.70
412.17	2312.45
412.36	2237.55
412.55	2228.19
412.74	2422.45
412.93	2235.21
413.12	2277.34
413.31	2410.75
413.50	2452.88
413.69	2289.04
413.88	2462.24
414.07	2422.45
414.26	2560.55
414.45	2387.35
414.64	2520.76
414.83	2693.96
415.02	2572.25
415.22	2609.70
415.41	2616.72
415.60	2686.94
415.79	2675.23
415.98	2782.90
416.17	2700.98
416.36	2836.73
416.55	2649.49
416.74	2820.35
416.93	2719.70
417.12	2761.83
417.31	2768.85
417.50	2775.88
417.69	3080.14
417.88	2911.63
418.07	2853.11
418.26	2928.01
418.45	3021.63
418.64	3021.63
418.83	2970.14
419.02	3007.59
419.21	3101.21
419.39	3035.67
419.58	3281.43
419.77	3164.40
419.96	3150.36
420.15	3187.81
420.34	3066.10
420.53	3096.53
420.72	3236.96
420.91	3283.77
421.10	3375.05
421.29	3412.50
421.48	3185.47
421.67	3300.16
421.86	3173.77
422.05	3358.67
422.24	3335.26
422.43	3328.24
422.61	3346.97
422.80	3337.60
422.99	3428.88
423.18	3325.90
423.37	3581.02
423.56	3414.84
423.75	3375.05
423.94	3311.86
424.13	3201.85
424.32	3192.49
424.50	3522.51
424.69	3522.51
424.88	3475.70
425.07	3368.03
425.26	3363.35
425.45	3318.88
425.64	3428.88
425.83	3485.06
426.01	3578.68
426.20	3503.78
426.39	3431.23
426.58	3550.59
426.77	3419.52
426.96	3559.95
427.15	3501.44
427.33	3520.17
427.52	3529.53
427.71	3543.57
427.90	3644.21
428.09	3644.21
428.28	3719.11
428.46	3695.71
428.65	3562.30
428.84	3754.22
429.03	3784.65
429.22	3515.48
429.40	3653.58
429.59	3679.32
429.78	3428.88
429.97	3492.08
430.16	3737.84
430.34	3709.75
430.53	3836.14
430.72	3857.20
430.91	3791.67
431.10	3840.82
431.28	3934.44
431.47	4058.49
431.66	4002.32
431.85	3904.01
432.03	4098.28
432.22	3983.59
432.41	4079.55
432.60	4025.72
432.79	4058.49
432.97	4161.47
433.16	3969.55
433.35	4121.68
433.54	4058.49
433.72	4131.05
433.91	4084.23
434.10	4077.21
434.28	4032.74
434.47	4124.02
434.66	4262.12
434.85	4107.64
435.03	4318.29
435.22	4285.52
435.41	4468.08
435.59	4388.50
435.78	4519.57
435.97	4489.15
436.16	4461.06
436.34	4505.53
436.53	4379.14
436.72	4620.22
436.90	4458.72
437.09	4582.77
437.28	4404.89
437.46	4482.13
437.65	4521.92
437.84	4638.94
438.02	4538.30
438.21	4486.81
438.40	4706.82
438.58	4720.86
438.77	4716.18
438.96	4688.09
439.14	4823.84
439.33	4744.27
439.52	4821.50
439.70	4802.78
439.89	4999.38
440.08	5022.79
440.26	5078.96
440.45	4933.85
440.63	5001.72
440.82	5254.50
441.01	5125.77
441.19	5205.35
441.38	5212.37
441.57	5432.38
441.75	5334.08
441.94	5406.64
442.12	5476.85
442.31	5427.70
442.50	5390.25
442.68	5603.24
442.87	5514.30
443.05	5483.88
443.24	5736.65
443.43	5425.36
443.61	5689.84
443.80	5685.16
443.98	5430.04
444.17	5472.17
444.35	5614.95
444.54	5647.71
444.73	5849.00
444.91	5750.70
445.10	5666.44
445.28	5692.18
445.47	5584.52
445.65	5699.20
445.84	5724.95
446.02	5825.59
446.21	5790.49
446.39	5727.29
446.58	5795.17
446.77	5748.36
446.95	5767.08
447.14	5888.79
447.32	5823.25
447.51	5802.19
447.69	5860.70
447.88	5928.58
448.06	5841.98
448.25	5781.12
448.43	5837.30
448.62	5757.72
448.80	5818.57
448.99	5996.45
449.17	6005.81
449.36	5771.76
449.54	5872.40
449.73	6057.31
449.91	6115.82
450.10	5991.77
450.28	6284.34
450.46	6113.48
450.65	6139.23
450.83	6340.51
451.02	6038.58
451.20	6387.32
451.39	6312.42
451.57	6260.93
451.76	6298.38
451.94	6221.14
452.13	6253.91
452.31	6296.04
452.49	6059.65
452.68	6380.30
452.86	6321.79
453.05	6319.45
453.23	6457.54
453.42	6216.46
453.60	6342.85
453.78	6303.06
453.97	6408.39
454.15	6317.11
454.34	6366.26
454.52	6546.48
454.70	6492.65
454.89	6537.12
455.07	6672.87
455.26	6677.55
455.44	6609.67
455.62	6677.55
455.81	6689.25
455.99	6736.06
456.17	6661.16
456.36	6958.41
456.54	6911.60
456.73	6871.81
456.91	7070.76
457.09	6963.09
457.28	6942.03
457.46	6808.62
457.64	7077.78
457.83	7045.01
458.01	6986.50
458.19	7159.70
458.38	7138.63
458.56	7267.36
458.74	7183.10
458.93	7211.19
459.11	7300.13
459.29	7241.62
459.48	7386.73
459.66	7164.38
459.84	7494.40
460.03	7463.97
460.21	7368.01
460.39	7398.43
460.57	7393.75
460.76	7356.30
460.94	7426.52
461.12	7503.76
461.31	7386.73
461.49	7534.18
461.67	7611.42
461.85	7552.91
462.04	7613.76
462.22	8124.00
462.40	7707.38
462.59	7808.03
462.77	7620.78
462.95	7808.03
463.13	7688.66
463.32	7836.11
463.50	8018.68
463.68	7978.89
463.86	7847.82
464.05	7831.43
464.23	7861.86
464.41	8042.08
464.59	7742.49
464.78	7967.18
464.96	7913.35
465.14	7789.30
465.32	8081.87
465.50	8013.99
465.69	8119.32
465.87	7906.33
466.05	8135.70
466.23	7999.95
466.41	8072.51
466.60	8266.77
466.78	8205.92
466.96	7964.84
467.14	8245.71
467.32	8107.62
467.51	8294.86
467.69	8058.46
467.87	8215.28
468.05	8507.85
468.23	8278.47
468.41	8241.03
468.60	8379.12
468.78	8369.76
468.96	8456.36
469.14	8554.66
469.32	8489.12
469.50	8383.80
469.69	8383.80
469.87	8727.86
470.05	8657.64
470.23	8664.66
470.41	8915.10
470.59	8751.26
470.77	8690.41
470.95	8599.13
471.14	8872.97
471.32	8655.30
471.50	9034.47
471.68	8842.54
471.86	9029.79
472.04	9137.45
472.22	9413.63
472.40	9177.24
472.58	9195.96
472.77	9064.89
472.95	9114.05
473.13	9511.94
473.31	9394.91
473.49	9383.21
473.67	9338.74
473.85	9462.79
474.03	9544.70
474.21	9621.94
474.39	9605.56
474.57	9750.67
474.75	9909.83
474.93	9937.91
475.12	9813.87
475.30	9933.23
475.48	10169.63
475.66	10001.11
475.84	10092.39
476.02	10101.75
476.20	10071.33
476.38	10054.94
476.56	10391.98
476.74	10560.50
476.92	10232.82
477.10	10555.82
477.28	10523.05
477.46	10567.52
477.64	10764.12
477.82	10773.49
478.00	11068.39
478.18	11096.48
478.36	11089.46
478.54	11012.22
478.72	11108.18
478.90	11164.36
479.08	11358.62
479.26	11405.43
479.44	11653.53
479.62	11644.17
479.80	11730.76
479.98	11908.65
480.16	12105.25
480.34	12159.08
480.52	12138.02
480.70	12070.14
480.88	11929.71
481.06	12149.72
481.24	12140.36
481.41	12285.47
481.59	12493.78
481.77	12695.07
481.95	12919.76
482.13	12858.90
482.31	12688.04
482.49	13163.17
482.67	13331.69
482.85	13427.65
483.03	13650.00
483.21	13273.18
483.39	13532.98
483.57	13642.98
483.74	13511.91
483.92	13715.54
484.10	13762.35
484.28	13760.01
484.46	14090.02
484.64	14455.15
484.82	14106.41
485.00	14497.28
485.18	14630.69
485.35	14817.93
485.53	14806.23
485.71	14551.11
485.89	14920.92
486.07	14871.76
486.25	15030.92
486.43	15159.65
486.61	15382.00
486.78	15587.97
486.96	15777.55
487.14	15786.91
487.32	15896.92
487.50	16060.76
487.68	16137.99
487.85	16269.06
488.03	16472.69
488.21	16585.04
488.39	16594.40
488.57	16791.00
488.75	16568.65
488.92	17055.48
489.10	17366.78
489.28	17191.23
489.46	17345.71
489.64	17642.96
489.81	17853.61
489.99	17813.82
490.17	18022.12
490.35	18310.01
490.53	18286.61
490.70	18143.83
490.88	18567.47
491.06	18696.20
491.24	18504.28
491.41	18796.84
491.59	18635.35
491.77	18860.04
491.95	18869.40
492.13	19021.53
492.30	19456.87
492.48	19161.97
492.66	19122.18
492.84	19438.15
493.01	19873.49
493.19	19616.03
493.37	20114.56
493.54	20009.24
493.72	19690.93
493.90	20315.85
494.08	20149.67
494.25	20685.65
494.43	20580.33
494.61	20575.65
494.79	20994.61
494.96	20847.15
495.14	21032.05
495.32	21184.19
495.49	21053.12
495.67	21436.97
495.85	21624.21
496.02	21539.95
496.20	21774.00
496.38	21612.51
496.55	21816.13
496.73	22097.00
496.91	22202.32
497.09	22326.37
497.26	22490.21
497.44	22417.65
497.62	22546.38
497.79	22815.54
497.97	22499.57
498.14	22775.75
498.32	23342.16
498.50	23054.28
498.67	23122.15
498.85	22955.97
499.03	23590.26
499.20	23267.27
499.38	23573.88
499.56	23660.48
499.73	23695.58
499.91	23852.40
500.08	23941.34
500.26	24044.32
500.44	24151.99
500.61	24081.77
500.79	23896.87
500.97	24140.29
501.14	24524.13
501.32	24552.22
501.49	24341.57
501.67	24655.20
501.84	24858.83
502.02	24755.85
502.20	25118.63
502.37	25191.19
502.55	24840.11
502.72	25132.67
502.90	25322.26
503.07	25261.40
503.25	25226.29
503.43	25366.73
503.60	25717.81
503.78	25652.27
503.95	25619.50
504.13	26281.88
504.30	25970.58
504.48	25596.10
504.65	26094.63
504.83	26375.50
505.01	26567.42
505.18	26204.64
505.36	26775.73
505.53	26441.03
505.71	26822.54
505.88	26721.90
506.06	26693.81
506.23	26745.30
506.41	26487.84
506.58	27000.42
506.76	27182.98
506.93	27009.78
507.11	27246.18
507.28	26993.40
507.46	27171.28
507.63	27417.04
507.81	27667.47
507.98	27473.21
508.16	27700.24
508.33	27723.65
508.50	27707.26
508.68	27377.25
508.85	28325.16
509.03	27922.59
509.20	28170.69
509.38	28500.70
509.55	28229.20
509.73	28559.22
509.90	28575.60
510.08	28657.52
510.25	28442.19
510.42	28882.21
510.60	28704.33
510.77	28893.91
510.95	29003.92
511.12	28907.96
511.30	29500.11
511.47	29057.75
511.64	29237.97
511.82	29249.67
511.99	29373.72
512.17	29413.51
512.34	29670.97
512.51	29509.47
512.69	29584.37
512.86	30223.34
513.04	29879.28
513.21	30089.93
513.38	30373.13
513.56	29876.94
513.73	29806.72
513.90	30232.70
514.08	30033.75
514.25	30529.95
514.43	30202.27
514.60	30658.68
514.77	30438.67
514.95	30504.20
515.12	30597.82
515.29	30677.40
515.47	31101.04
515.64	31402.97
515.81	30794.43
515.99	31082.31
516.16	31049.55
516.33	31309.35
516.51	31110.40
516.68	30866.98
516.85	31194.66
517.03	31199.34
517.20	31187.64
517.37	31346.79
517.54	31367.86
517.72	31761.07
517.89	31470.84
518.06	31510.63
518.24	31519.99
518.41	31679.15
518.58	31606.59
518.75	31702.56
518.93	32081.72
519.10	31908.52
519.27	32079.38
519.45	32243.22
519.62	32311.10
519.79	32409.40
519.96	32479.61
520.14	32863.46
520.31	32755.80
520.48	33010.92
520.65	32851.76
520.83	33242.63
521.00	32826.01
521.17	33338.59
521.34	33055.39
521.52	32936.02
521.69	33113.90
521.86	33184.12
522.03	33369.02
522.20	33188.80
522.38	34066.50
522.55	33586.69
522.72	33511.79
522.89	33163.05
523.07	33883.94
523.24	33638.18
523.41	34244.38
523.58	33558.60
523.75	34450.35
523.92	34136.71
524.10	34103.95
524.27	34249.06
524.44	34267.78
524.61	34368.43
524.78	34274.80
524.96	34433.96
525.13	34925.47
525.30	34850.58
525.47	34628.23
525.64	34700.78
525.81	34565.03
525.98	34855.26
526.16	34440.98
526.33	35021.44
526.50	35208.68
526.67	34733.55
526.84	35126.76
527.01	34703.12
527.18	34892.71
527.36	35009.73
527.53	35428.69
527.70	35515.29
527.87	35161.87
528.04	35548.06
528.21	35484.86
528.38	35707.21
528.55	35498.91
528.72	35489.54
528.89	35779.77
529.07	35763.39
529.24	35948.29
529.41	35718.92
529.58	35739.98
529.75	35505.93
529.92	35910.84
530.09	36102.76
530.26	36657.47
530.43	36130.85
530.60	35936.59
530.77	36039.57
530.94	36442.14
531.11	36217.45
531.28	36552.15
531.46	36341.50
531.63	36608.32
531.80	36369.58
531.97	36503.00
532.14	36596.62
532.31	36636.41
532.48	36715.98
532.65	36648.11
532.82	37333.89
532.99	36935.99
533.16	37041.32
533.33	37141.96
533.50	37434.53
533.67	36950.04
533.84	37240.26
534.01	37041.32
534.18	37130.26
534.35	37205.16
534.52	36914.93
534.69	37315.16
534.86	37589.00
535.03	37565.60
535.20	37680.28
535.37	37514.11
535.54	37935.40
535.71	36999.19
535.88	37907.32
536.05	37799.65
536.22	38054.77
536.38	37947.11
536.55	37546.87
536.72	37766.88
536.89	37542.19
537.06	37989.24
537.23	38288.82
537.40	38464.36
537.57	38129.67
537.74	37893.27
537.91	38522.88
538.08	38225.63
538.25	38124.99
538.42	37984.55
538.59	38244.35
538.75	38230.31
538.92	38672.67
539.09	38651.61
539.26	38562.67
539.43	38426.92
539.60	38368.40
539.77	39082.27
539.94	39009.71
540.11	38515.86
540.28	39000.35
540.44	38532.24
540.61	38646.93
540.78	38859.91
540.95	38857.57
541.12	38841.19
541.29	38642.24
541.46	38873.96
541.62	39161.84
541.79	39166.52
541.96	38855.23
542.13	39023.75
542.30	39318.66
542.47	39234.40
542.63	38742.89
542.80	39386.54
542.97	39564.42
543.14	40172.96
543.31	40114.44
543.48	39938.90
543.64	40289.98
543.81	39992.73
543.98	40060.61
544.15	39672.08
544.32	40231.47
544.48	40294.66
544.65	39988.05
544.82	40247.85
544.99	39821.87
545.16	40495.95
545.32	40133.17
545.49	40414.03
545.66	40568.51
545.83	40182.32
546.00	40676.17
546.16	40465.52
546.33	40018.48
546.50	39952.94
546.67	40650.42
546.83	39814.85
547.00	40760.43
547.17	40652.76
547.34	40577.87
547.50	40692.55
547.67	41146.62
547.84	40678.51
548.00	40664.47
548.17	41109.17
548.34	40907.88
548.51	41294.07
548.67	41132.57
548.84	41352.58
549.01	40961.72
549.18	41031.93
549.34	41486.00
549.51	41368.97
549.68	41244.92
549.84	40947.67
550.01	41067.04
550.18	41031.93
550.34	41626.43
550.51	41151.30
550.68	41612.38
550.84	40863.41
551.01	41546.85
551.18	41214.49
551.34	41666.22
551.51	41621.75
551.68	41415.78
551.84	41420.46
552.01	41254.28
552.18	41778.56
552.34	41390.03
552.51	42136.66
552.68	41991.55
552.84	42073.47
553.01	41923.68
553.18	41956.44
553.34	41904.95
553.51	41745.80
553.67	41642.81
553.84	41724.73
554.01	42206.88
554.17	42550.94
554.34	42335.61
554.51	41790.27
554.67	42101.56
554.84	42270.08
555.00	42113.26
555.17	41970.49
555.33	42124.96
555.50	41947.08
555.67	42188.16
555.83	42597.75
556.00	42316.89
556.16	42937.13
556.33	42295.82
556.50	42071.13
556.66	42689.03
556.83	42281.78
556.99	42775.63
557.16	42469.02
557.32	42356.67
557.49	42525.19
557.65	42560.30
557.82	42316.89
557.98	42576.69
558.15	42586.05
558.32	42700.73
558.48	43063.52
558.65	42590.73
558.81	42997.98
558.98	42506.47
559.14	42916.06
559.31	42735.84
559.47	42808.40
559.64	42836.48
559.80	42698.39
559.97	43105.65
560.13	42899.68
560.30	42859.89
560.46	43035.43
560.63	43068.20
560.79	42696.05
560.96	42925.42
561.12	42735.84
561.29	43217.99
561.45	42761.59
561.61	43072.88
561.78	42817.76
561.94	42890.32
562.11	43019.05
562.27	43119.69
562.44	42843.51
562.60	42911.38
562.77	43126.71
562.93	42909.04
563.10	43360.76
563.26	43210.97
563.42	43945.90
563.59	43124.37
563.75	43292.89
563.92	43997.39
564.08	43489.49
564.24	43133.73
564.41	43400.55
564.57	43129.05
564.74	43683.76
564.90	43433.32
565.07	43412.26
565.23	43386.51
565.39	43129.05
565.56	43882.70
565.72	43742.27
565.88	43461.41
566.05	43159.48
566.21	43033.09
566.38	43388.85
566.54	43601.84
566.70	43297.57
566.87	43817.17
567.03	43592.48
567.19	44023.14
567.36	43423.96
567.52	43419.28
567.68	43540.99
567.85	43800.79
568.01	43854.62
568.17	43445.02
568.34	43995.05
568.50	43714.19
568.66	43566.73
568.83	43573.75
568.99	43313.95
569.15	43611.20
569.32	43484.81
569.48	43784.40
569.64	44002.07
569.81	43477.79
569.97	44105.06
570.13	43845.26
570.30	43381.83
570.46	43456.73
570.62	43655.67
570.78	43730.57
570.95	43660.35
571.11	43976.33
571.27	43749.29
571.43	43555.03
571.60	43805.47
571.76	43433.32
571.92	43555.03
572.09	43763.34
572.25	43428.64
572.41	43903.77
572.57	43868.66
572.74	43704.82
572.90	43540.99
573.06	43913.13
573.22	43941.22
573.38	44114.42
573.55	43646.31
573.71	43852.28
573.87	43983.35
574.03	43569.07
574.20	43580.78
574.36	43688.44
574.52	44189.31
574.68	43948.24
574.84	43796.10
575.01	43945.90
575.17	44032.50
575.33	43934.20
575.49	43662.69
575.65	44172.93
575.82	44414.01
575.98	43878.02
576.14	44030.16
576.30	44032.50
576.46	43421.62
576.62	43896.75
576.79	43878.02
576.95	43503.54
577.11	44030.16
577.27	44004.41
577.43	44355.49
577.59	43873.34
577.75	44041.86
577.92	43800.79
578.08	44161.23
578.24	43646.31
578.40	43882.70
578.56	44135.48
578.72	44205.70
578.88	44296.98
579.04	44589.55
579.21	43992.71
579.37	43878.02
579.53	43737.59
579.69	43770.36
579.85	44367.20
580.01	44332.09
580.17	44811.90
580.33	44072.29
580.49	44189.31
580.65	44437.41
580.82	44437.41
580.98	44252.51
581.14	44179.95
581.30	44568.48
581.46	44418.69
581.62	44039.52
581.78	44027.82
581.94	44566.14
582.10	44261.87
582.26	44622.31
582.42	44142.50
582.58	44128.46
582.74	44081.65
582.90	44194.00
583.06	44729.98
583.22	44346.13
583.38	44514.65
583.54	43952.92
583.70	44210.38
583.86	43903.77
584.02	43674.40
584.18	44306.34
584.34	43973.98
584.50	44446.77
584.66	44140.16
584.82	43962.28
584.98	44243.15
585.14	44238.47
585.30	43981.01
585.46	44306.34
585.62	43693.12
585.78	44304.00
585.94	43847.60
586.10	44353.15
586.26	44016.11
586.42	44093.35
586.58	44477.20
586.74	44016.11
586.90	43812.49
587.06	44208.04
587.22	44390.60
587.38	44095.69
587.54	44666.78
587.70	44390.60
587.86	44425.71
588.02	44112.08
588.18	44715.93
588.34	44575.50
588.49	44023.14
588.65	43936.54
588.81	43854.62
588.97	44346.13
589.13	44088.67
589.29	44170.59
589.45	44378.90
589.61	44411.67
589.77	44821.26
589.93	44601.25
590.08	44566.14
590.24	44582.52
590.40	44811.90
