SpectraSuite Data File
++++++++++++++++++++++++++++++++++++
Date: Fri Oct 25 10:43:36 EDT 2013
User: price-jones
Dark Spectrum Present: No
Reference Spectrum Present: No
Number of Sampled Component Spectra: 1
Spectrometers: USB2+H05261
Integration Time (usec): 100000 (USB2+H05261)
Spectra Averaged: 1 (USB2+H05261)
Boxcar Smoothing: 0 (USB2+H05261)
Correct for Electrical Dark: No (USB2+H05261)
Strobe/Lamp Enabled: No (USB2+H05261)
Correct for Detector Non-linearity: No (USB2+H05261)
Correct for Stray Light: No (USB2+H05261)
Number of Pixels in Processed Spectrum: 2048
>>>>>Begin Processed Spectral Data<<<<<
365.73	159.16
365.92	159.16
366.12	159.16
366.32	35.11
366.52	72.56
366.72	0.00
366.91	0.00
367.11	16.38
367.31	18.72
367.51	0.00
367.70	70.22
367.90	60.85
368.10	32.77
368.30	21.06
368.49	37.45
368.69	53.83
368.89	51.49
369.09	56.17
369.28	7.02
369.48	63.19
369.68	25.75
369.87	102.98
370.07	35.11
370.27	110.01
370.47	163.84
370.66	334.70
370.86	397.89
371.06	458.74
371.25	540.66
371.45	435.34
371.65	484.49
371.84	428.32
372.04	484.49
372.24	440.02
372.44	461.09
372.63	519.60
372.83	507.90
373.03	486.83
373.22	472.79
373.42	507.90
373.62	568.75
373.81	458.74
374.01	524.28
374.21	578.11
374.40	519.60
374.60	582.79
374.79	596.84
374.99	557.05
375.19	610.88
375.38	599.18
375.58	533.64
375.78	589.82
375.97	601.52
376.17	678.76
376.37	589.82
376.56	603.86
376.76	589.82
376.95	624.92
377.15	641.31
377.35	662.37
377.54	678.76
377.74	655.35
377.93	718.54
378.13	645.99
378.33	664.71
378.52	650.67
378.72	610.88
378.91	660.03
379.11	610.88
379.31	657.69
379.50	641.31
379.70	606.20
379.89	830.89
380.09	599.18
380.28	781.74
380.48	760.67
380.68	709.18
380.87	671.73
381.07	732.59
381.26	755.99
381.46	793.44
381.65	674.07
381.85	690.46
382.04	629.60
382.24	748.97
382.43	674.07
382.63	699.82
382.83	720.88
383.02	781.74
383.22	744.29
383.41	664.71
383.61	753.65
383.80	894.08
384.00	779.40
384.19	819.19
384.39	802.80
384.58	805.14
384.78	863.66
384.97	812.17
385.17	858.98
385.36	868.34
385.56	755.99
385.75	809.83
385.95	812.17
386.14	863.66
386.34	873.02
386.53	847.27
386.72	858.98
386.92	901.11
387.11	802.80
387.31	919.83
387.50	905.79
387.70	891.74
387.89	884.72
388.09	875.36
388.28	830.89
388.48	826.21
388.67	882.38
388.86	943.24
389.06	1004.09
389.25	908.13
389.45	945.58
389.64	961.96
389.84	936.21
390.03	1015.79
390.22	1090.69
390.42	1043.88
390.61	1032.18
390.81	1029.84
391.00	1043.88
391.19	1081.33
391.39	1125.80
391.58	1020.47
391.78	1025.15
391.97	1025.15
392.16	999.41
392.36	1125.80
392.55	1060.26
392.75	968.98
392.94	1034.52
393.13	1046.22
393.33	1015.79
393.52	1001.75
393.71	1097.71
393.91	1142.18
394.10	1060.26
394.29	1191.33
394.49	1249.85
394.68	1245.16
394.88	1107.07
395.07	1233.46
395.26	1240.48
395.46	1275.59
395.65	1277.93
395.84	1238.14
396.04	1207.72
396.23	1203.04
396.42	1118.78
396.62	1226.44
396.81	1235.80
397.00	1116.44
397.19	1266.23
397.39	1392.62
397.58	1432.41
397.77	1437.09
397.97	1476.88
398.16	1432.41
398.35	1392.62
398.55	1341.13
398.74	1516.67
398.93	1554.12
399.12	1549.43
399.32	1614.97
399.51	1495.60
399.70	1633.69
399.90	1563.48
400.09	1610.29
400.28	1685.19
400.47	1668.80
400.67	1671.14
400.86	1666.46
401.05	1699.23
401.24	1661.78
401.44	1774.13
401.63	1696.89
401.82	1743.70
402.01	1783.49
402.21	1837.32
402.40	1788.17
402.59	1825.62
402.78	1849.02
402.97	1727.32
403.17	1846.68
403.36	1865.41
403.55	1844.34
403.74	1947.33
403.93	1872.43
404.13	1961.37
404.32	1923.92
404.51	1870.09
404.70	1968.39
404.89	1923.92
405.09	1952.01
405.28	2019.88
405.47	2015.20
405.66	1928.60
405.85	2090.10
406.05	2024.56
406.24	2026.90
406.43	2186.06
406.62	2193.08
406.81	2150.95
407.00	2097.12
407.20	2092.44
407.39	2101.80
407.58	2069.03
407.77	2195.42
407.96	2251.60
408.15	2298.41
408.34	2260.96
408.54	2312.45
408.73	2310.11
408.92	2359.26
409.11	2347.56
409.30	2314.79
409.49	2333.51
409.68	2260.96
409.87	2263.30
410.07	2422.45
410.26	2387.35
410.45	2305.43
410.64	2513.74
410.83	2394.37
411.02	2513.74
411.21	2672.89
411.40	2682.25
411.59	2579.27
411.78	2693.96
411.98	2621.40
412.17	2736.09
412.36	2705.66
412.55	2768.85
412.74	2794.60
412.93	2691.62
413.12	2867.16
413.31	2876.52
413.50	2932.69
413.69	2843.75
413.88	2951.42
414.07	2998.23
414.26	3042.70
414.45	2895.24
414.64	3052.06
414.83	3220.58
415.02	3026.31
415.22	3227.60
415.41	3281.43
415.60	3260.37
415.79	3162.06
415.98	3283.77
416.17	3279.09
416.36	3290.79
416.55	3307.18
416.74	3370.37
416.93	3318.88
417.12	3419.52
417.31	3356.33
417.50	3442.93
417.69	3487.40
417.88	3571.66
418.07	3435.91
418.26	3581.02
418.45	3506.12
418.64	3653.58
418.83	3623.15
419.02	3674.64
419.21	3693.37
419.39	3637.19
419.58	3613.79
419.77	3595.06
419.96	3637.19
420.15	3709.75
420.34	3852.52
420.53	3742.52
420.72	3815.07
420.91	3833.80
421.10	3833.80
421.29	3852.52
421.48	3833.80
421.67	3920.40
421.86	3913.38
422.05	3850.18
422.24	3779.97
422.43	3857.20
422.61	3918.06
422.80	4084.23
422.99	3922.74
423.18	3995.29
423.37	4030.40
423.56	4100.62
423.75	4084.23
423.94	3906.35
424.13	3768.26
424.32	3927.42
424.50	3950.82
424.69	4051.47
424.88	4133.39
425.07	4084.23
425.26	4039.76
425.45	3967.21
425.64	4070.19
425.83	4086.58
426.01	4100.62
426.20	4011.68
426.39	4175.52
426.58	4058.49
426.77	4086.58
426.96	4184.88
427.15	3971.89
427.33	4095.94
427.52	4102.96
427.71	4238.71
427.90	4189.56
428.09	4271.48
428.28	4121.68
428.46	4234.03
428.65	4227.01
428.84	4287.86
429.03	4259.78
429.22	4250.41
429.40	4304.25
429.59	4126.36
429.78	3950.82
429.97	3955.51
430.16	4109.98
430.34	4133.39
430.53	4149.77
430.72	4278.50
430.91	4170.83
431.10	4505.53
431.28	4564.04
431.47	4685.75
431.66	4699.80
431.85	4596.81
432.03	4697.46
432.22	4737.24
432.41	4779.37
432.60	4737.24
432.79	4758.31
432.97	4919.81
433.16	4816.82
433.35	4755.97
433.54	4751.29
433.72	4692.77
433.91	4835.55
434.10	4898.74
434.28	4753.63
434.47	4973.64
434.66	4940.87
434.85	5006.41
435.03	5039.17
435.22	5032.15
435.41	5130.45
435.59	5195.99
435.78	5231.10
435.97	5256.84
436.16	5268.55
436.34	5233.44
436.53	5275.57
436.72	5301.31
436.90	5172.58
437.09	5193.65
437.28	5198.33
437.46	5280.25
437.65	5261.52
437.84	5266.21
438.02	5233.44
438.21	5179.61
438.40	5118.75
438.58	5521.32
438.77	5502.60
438.96	5441.75
439.14	5593.88
439.33	5657.07
439.52	5607.92
439.70	5806.87
439.89	5830.27
440.08	5900.49
440.26	5788.14
440.45	5753.04
440.63	6087.73
440.82	6061.99
441.01	6001.13
441.19	6043.26
441.38	6164.97
441.57	6286.68
441.75	6338.17
441.94	6314.77
442.12	6326.47
442.31	6459.88
442.50	6436.47
442.68	6363.92
442.87	6443.49
443.05	6408.39
443.24	6696.27
443.43	6604.99
443.61	6572.22
443.80	6595.63
443.98	6487.96
444.17	6445.84
444.35	6651.80
444.54	6686.91
444.73	6691.59
444.91	6750.10
445.10	6637.76
445.28	6572.22
445.47	6513.71
445.65	6513.71
445.84	6527.75
446.02	6672.87
446.21	6539.46
446.39	6696.27
446.58	6761.81
446.77	6745.42
446.95	6724.36
447.14	6616.69
447.32	6960.75
447.51	6775.85
447.69	6853.09
447.88	6794.58
448.06	6883.52
448.25	6888.20
448.43	6904.58
448.62	6932.67
448.80	6832.02
448.99	6967.77
449.17	7026.29
449.36	6906.92
449.54	7098.84
449.73	7253.32
449.91	7372.69
450.10	7082.46
450.28	7510.78
450.46	7363.33
450.65	7360.98
450.83	7363.33
451.02	7379.71
451.20	7363.33
451.39	7428.86
451.57	7314.17
451.76	7307.15
451.94	7328.22
452.13	7330.56
452.31	7372.69
452.49	7180.76
452.68	7232.26
452.86	7328.22
453.05	7229.91
453.23	7492.05
453.42	7360.98
453.60	7475.67
453.78	7566.95
453.97	7531.84
454.15	7375.03
454.34	7541.21
454.52	7592.70
454.70	7695.68
454.89	7719.09
455.07	7669.94
455.26	7611.42
455.44	7943.78
455.62	7808.03
455.81	7896.97
455.99	7981.23
456.17	8065.49
456.36	7859.52
456.54	8084.21
456.73	8147.40
456.91	8416.57
457.09	8252.73
457.28	8531.25
457.46	8142.72
457.64	8203.58
457.83	8269.11
458.01	8159.11
458.19	8489.12
458.38	8358.05
458.56	8409.54
458.74	8477.42
458.93	8325.29
459.11	8402.52
459.29	8360.39
459.48	8528.91
459.66	8566.36
459.84	8667.00
460.03	8711.47
460.21	8505.51
460.39	8667.00
460.57	8641.26
460.76	8786.37
460.94	8704.45
461.12	8652.96
461.31	8746.58
461.49	9128.09
461.67	8847.22
461.85	8898.72
462.04	8973.61
462.22	9266.18
462.40	9043.83
462.59	9029.79
462.77	9100.00
462.95	9118.73
463.13	9193.62
463.32	8957.23
463.50	9252.14
463.68	9376.19
463.86	9179.58
464.05	8851.91
464.23	9270.86
464.41	9270.86
464.59	9041.49
464.78	9322.35
464.96	9280.22
465.14	9135.11
465.32	9502.58
465.50	9441.72
465.69	9661.73
465.87	9469.81
466.05	9270.86
466.23	9476.83
466.41	9081.28
466.60	9635.99
466.78	9193.62
466.96	9418.32
467.14	9423.00
467.32	9525.98
467.51	9586.83
467.69	9238.09
467.87	9544.70
468.05	9785.78
468.23	9476.83
468.41	9617.26
468.60	9614.92
468.78	9963.66
468.96	9624.28
469.14	9802.16
469.32	9848.97
469.50	9760.03
469.69	9954.30
469.87	9916.85
470.05	9958.98
470.23	10054.94
470.41	10010.47
470.59	10132.18
470.77	9928.55
470.95	10136.86
471.14	10396.66
471.32	10141.54
471.50	10429.43
471.68	10448.15
471.86	10506.66
472.04	10438.79
472.22	10965.41
472.40	10492.62
472.58	10506.66
472.77	10581.56
472.95	10616.67
473.13	11117.54
473.31	10860.09
473.49	10649.44
473.67	10729.02
473.85	10920.94
474.03	11185.42
474.21	11077.76
474.39	11213.51
474.57	11426.50
474.75	11323.51
474.93	11557.57
475.12	11201.80
475.30	11386.71
475.48	11428.84
475.66	11501.39
475.84	11679.27
476.02	11676.93
476.20	11520.12
476.38	11875.88
476.56	12051.42
476.74	11927.37
476.92	12056.10
477.10	12074.82
477.28	12372.07
477.46	12215.26
477.64	12503.14
477.82	12482.08
478.00	12725.49
478.18	12533.57
478.36	12582.72
478.54	12952.52
478.72	12943.16
478.90	13078.91
479.08	13116.36
479.26	13453.40
479.44	13427.65
479.62	13486.17
479.80	13504.89
479.98	13530.64
480.16	13900.44
480.34	13841.93
480.52	13998.74
480.70	14118.11
480.88	14015.13
481.06	14101.73
481.24	14483.24
481.41	14403.66
481.59	14679.84
481.77	14497.28
481.95	14698.56
482.13	14693.88
482.31	15033.26
482.49	14710.27
482.67	15082.41
482.85	15264.97
483.03	15637.12
483.21	15356.25
483.39	15447.54
483.57	15564.56
483.74	15791.59
483.92	15915.64
484.10	15550.52
484.28	16156.72
484.46	16421.20
484.64	16662.27
484.82	16390.77
485.00	16451.63
485.18	16732.49
485.35	16751.21
485.53	16339.28
485.71	16149.70
485.89	16568.65
486.07	16414.18
486.25	16982.93
486.43	17121.02
486.61	17341.03
486.78	17446.35
486.96	17434.65
487.14	17867.65
487.32	18604.92
487.50	18305.33
487.68	18448.10
487.85	18654.07
488.03	18948.98
488.21	18773.44
488.39	18691.52
488.57	18841.31
488.75	19016.85
488.92	19218.14
489.10	19803.27
489.28	19644.12
489.46	20266.70
489.64	19634.75
489.81	20421.17
489.99	20575.65
490.17	20287.76
490.35	20725.44
490.53	20510.11
490.70	20753.53
490.88	20858.85
491.06	21144.40
491.24	20835.45
491.41	20987.58
491.59	21025.03
491.77	21219.30
491.95	21434.63
492.13	21710.81
492.30	22111.04
492.48	22183.60
492.66	22059.55
492.84	22235.09
493.01	22569.79
493.19	22394.25
493.37	22508.93
493.54	22724.26
493.72	22838.95
493.90	22867.03
494.08	23372.59
494.25	23468.55
494.43	23630.05
494.61	23770.48
494.79	23667.50
494.96	23934.32
495.14	24034.96
495.32	23777.50
495.49	24065.39
495.67	24173.05
495.85	24718.40
496.02	24409.45
496.20	24938.41
496.38	24556.90
496.55	25015.65
496.73	25429.92
496.91	25020.33
497.09	25528.22
497.26	25319.92
497.44	25348.00
497.62	25628.87
497.79	25656.95
497.97	25387.79
498.14	25607.80
498.32	26099.31
498.50	25776.32
498.67	26424.65
498.85	26279.54
499.03	26506.57
499.20	26749.98
499.38	27002.76
499.56	26632.96
499.73	26993.40
499.91	26747.64
500.08	27285.97
500.26	26759.34
500.44	26672.74
500.61	26712.53
500.79	27084.68
500.97	27225.11
501.14	27314.05
501.32	27562.15
501.49	27461.51
501.67	27669.81
501.84	27819.61
502.02	28025.57
502.20	27934.29
502.37	28158.99
502.55	28109.83
502.72	28411.76
502.90	28512.41
503.07	28383.68
503.25	28491.34
503.43	28552.20
503.60	28706.67
503.78	28877.53
503.95	28617.73
504.13	28446.87
504.30	28875.19
504.48	28732.42
504.65	28959.45
504.83	29345.64
505.01	29333.93
505.18	29015.62
505.36	29710.76
505.53	29886.30
505.71	30047.80
505.88	29998.65
506.06	29858.21
506.23	30008.01
506.41	29685.01
506.58	29661.61
506.76	30368.45
506.93	30197.59
507.11	30197.59
507.28	30256.11
507.46	30527.61
507.63	29933.11
507.81	30852.94
507.98	30443.35
508.16	30733.57
508.33	30782.73
508.50	31101.04
508.68	31299.98
508.85	31466.16
509.03	31189.98
509.20	31358.50
509.38	31702.56
509.55	31840.65
509.73	32275.99
509.90	31971.72
510.08	31775.11
510.25	32041.93
510.42	32168.32
510.60	31812.56
510.77	32116.83
510.95	32341.52
511.12	32102.79
511.30	32650.47
511.47	32563.87
511.64	33158.37
511.82	32687.92
511.99	32563.87
512.17	33043.68
512.34	32465.57
512.51	33092.83
512.69	33039.00
512.86	33095.18
513.04	33570.30
513.21	33294.12
513.38	33062.41
513.56	33226.24
513.73	33104.54
513.90	33572.64
514.08	33502.43
514.25	33827.76
514.43	33919.04
514.60	33916.70
514.77	33923.72
514.95	34029.05
515.12	33670.95
515.29	34075.86
515.47	34272.46
515.64	34216.29
515.81	34293.53
515.99	34249.06
516.16	34230.33
516.33	33909.68
516.51	34223.31
516.68	33783.29
516.85	33486.04
517.03	33811.38
517.20	34483.11
517.37	34494.82
517.54	34747.59
517.72	34792.06
517.89	34223.31
518.06	34288.85
518.24	34824.83
518.41	34579.07
518.58	34881.00
518.75	34927.81
518.93	35257.83
519.10	34656.31
519.27	35386.56
519.45	35360.81
519.62	35637.00
519.79	35791.47
519.96	35814.88
520.14	35948.29
520.31	35147.82
520.48	35878.07
520.65	35852.33
520.83	36140.21
521.00	36290.01
521.17	35864.03
521.34	36313.41
521.52	36428.10
521.69	36589.59
521.86	36744.07
522.03	37043.66
522.20	36566.19
522.38	36917.27
522.55	36816.63
522.72	36732.37
522.89	37008.55
523.07	37177.07
523.24	36821.31
523.41	37118.56
523.58	37415.80
523.75	37694.33
523.92	37490.70
524.10	37574.96
524.27	37930.72
524.44	37598.37
524.61	37715.39
524.78	37874.55
524.96	37516.45
525.13	37888.59
525.30	37904.98
525.47	38403.51
525.64	37897.95
525.81	37984.55
525.98	37993.92
526.16	37558.58
526.33	37329.20
526.50	37820.72
526.67	37631.13
526.84	37825.40
527.01	37656.88
527.18	37820.72
527.36	38277.12
527.53	38731.18
527.70	38845.87
527.87	38447.98
528.04	38761.61
528.21	38609.48
528.38	38885.66
528.55	39248.44
528.72	39295.25
528.89	39339.72
529.07	39168.87
529.24	38960.56
529.41	38909.07
529.58	39325.68
529.75	39323.34
529.92	39686.12
530.09	39943.58
530.26	39461.43
530.43	39615.91
530.60	39702.51
530.77	39723.57
530.94	39852.30
531.11	39515.26
531.28	39903.79
531.46	39861.66
531.63	40069.97
531.80	40500.63
531.97	39770.38
532.14	39758.68
532.31	39435.69
532.48	40170.61
532.65	40346.15
532.82	39597.18
532.99	39945.92
533.16	39985.71
533.33	40240.83
533.50	40453.82
533.67	39945.92
533.84	40051.25
534.01	40142.53
534.18	40737.02
534.35	41387.69
534.52	40404.67
534.69	40561.48
534.86	40762.77
535.03	41097.47
535.20	41078.74
535.37	41132.57
535.54	41083.42
535.71	41097.47
535.88	41081.08
536.05	40942.99
536.22	40964.06
536.38	41186.41
536.55	41181.73
536.72	40811.92
536.89	40912.56
537.06	40884.48
537.23	41490.68
537.40	41146.62
537.57	41390.03
537.74	41654.51
537.91	41500.04
538.08	41933.04
538.25	41790.27
538.42	41411.10
538.59	41759.84
538.75	41591.32
538.92	41874.52
539.09	41820.69
539.26	41970.49
539.43	41916.65
539.60	41481.31
539.77	41598.34
539.94	41841.76
540.11	41715.37
540.28	41780.90
540.44	41745.80
540.61	42040.70
540.78	41621.75
540.95	41855.80
541.12	41970.49
541.29	42110.92
541.46	41975.17
541.62	42298.16
541.79	42429.23
541.96	42040.70
542.13	42462.00
542.30	42073.47
542.47	42370.72
542.63	42967.55
542.80	42590.73
542.97	42494.77
543.14	42686.69
543.31	42700.73
543.48	42869.25
543.64	43412.26
543.81	43618.22
543.98	43459.07
544.15	42967.55
544.32	43159.48
544.48	43856.96
544.65	43718.87
544.82	43152.46
544.99	42726.48
545.16	43466.09
545.32	43143.09
545.49	43620.56
545.66	44060.58
545.83	44065.27
546.00	43578.43
546.16	43332.68
546.33	43337.36
546.50	43449.70
546.67	43215.65
546.83	43295.23
547.00	43650.99
547.17	43533.96
547.34	43346.72
547.50	43402.89
547.67	43922.49
547.84	43828.87
548.00	43973.98
548.17	44418.69
548.34	44194.00
548.51	44474.86
548.67	44282.94
548.84	44336.77
549.01	44184.63
549.18	44041.86
549.34	44072.29
549.51	43966.96
549.68	44306.34
549.84	44275.91
550.01	44601.25
550.18	44133.14
550.34	44299.32
550.51	44437.41
550.68	44399.96
550.84	43498.86
551.01	44769.77
551.18	44229.10
551.34	44182.29
551.51	44446.77
551.68	44907.86
551.84	44470.18
552.01	44399.96
552.18	44652.74
552.34	44334.43
552.51	45263.62
552.68	44942.97
552.84	44837.64
553.01	45092.76
553.18	44397.62
553.34	44882.11
553.51	45392.35
553.67	44931.26
553.84	44891.48
554.01	45371.28
554.17	45027.23
554.34	45083.40
554.51	45120.85
554.67	45092.76
554.84	45460.23
555.00	44835.30
555.17	45050.63
555.33	45413.41
555.50	45464.91
555.67	45048.29
555.83	45029.57
556.00	45237.87
556.16	45467.25
556.33	45425.12
556.50	45413.41
556.66	44964.03
556.83	44509.97
556.99	45415.76
557.16	45647.47
557.32	45502.35
557.49	45308.09
557.65	45631.08
557.82	45329.16
557.98	45214.47
558.15	45453.20
558.32	45340.86
558.48	45315.11
558.65	45043.61
558.81	44933.60
558.98	45518.74
559.14	45717.68
559.31	45556.19
559.47	45359.58
559.64	45443.84
559.80	45668.53
559.97	45488.31
560.13	45542.14
560.30	45750.45
560.46	45787.90
560.63	45778.54
560.79	46349.63
560.96	45933.01
561.12	45972.80
561.29	45287.03
561.45	45881.52
561.61	45556.19
561.78	45497.67
561.94	45361.92
562.11	45518.74
562.27	45874.50
562.44	45240.21
562.60	45930.67
562.77	46197.49
562.93	45827.69
563.10	46213.88
563.26	46075.79
563.42	45815.99
563.59	45865.14
563.75	45956.42
563.92	46293.46
564.08	45970.46
564.24	46459.63
564.41	46071.10
564.57	45949.40
564.74	46047.70
564.90	45975.14
565.07	45713.00
565.23	45925.99
565.39	45736.41
565.56	45708.32
565.72	45785.56
565.88	45593.64
566.05	46101.53
566.21	45701.30
566.38	45713.00
566.54	46246.65
566.70	46478.36
566.87	46206.86
567.03	45914.29
567.19	45783.22
567.36	46380.06
567.52	46150.68
567.68	46066.42
567.85	45900.25
568.01	46153.02
568.17	46085.15
568.34	46162.39
568.50	45979.82
568.66	45832.37
568.83	46438.57
568.99	46038.34
569.15	45916.63
569.32	45832.37
569.48	46497.08
569.64	46312.18
569.81	46176.43
569.97	46155.36
570.13	46277.07
570.30	45890.88
570.46	45612.36
570.62	45858.12
570.78	45876.84
570.95	45893.22
571.11	46031.32
571.27	45975.14
571.43	46003.23
571.60	46469.00
571.76	45902.59
571.92	46202.18
572.09	46017.27
572.25	46389.42
572.41	46363.67
572.57	46335.59
572.74	46667.94
572.90	46258.35
573.06	46277.07
573.22	46707.73
573.38	46351.97
573.55	46162.39
573.71	46433.89
573.87	46380.06
574.03	46108.55
574.20	46066.42
574.36	46211.54
574.52	46288.77
574.68	46307.50
574.84	46380.06
575.01	46464.32
575.17	46188.13
575.33	46211.54
575.49	46190.47
575.65	46321.54
575.82	46347.29
575.98	46309.84
576.14	46134.30
576.30	46469.00
576.46	46604.75
576.62	45991.53
576.79	46555.60
576.95	45900.25
577.11	46321.54
577.27	46340.27
577.43	46265.37
577.59	45984.51
577.75	46174.09
577.92	45844.07
578.08	45933.01
578.24	46155.36
578.40	46342.61
578.56	46124.94
578.72	46492.40
578.88	46483.04
579.04	45998.55
579.21	45778.54
579.37	46272.39
579.53	45858.12
579.69	46403.46
579.85	46000.89
580.01	46384.74
580.17	46080.47
580.33	46665.60
580.49	46784.97
580.65	46176.43
580.82	46185.79
580.98	46300.48
581.14	46050.04
581.30	46593.04
581.46	46586.02
581.62	46869.23
581.78	46532.19
581.94	46864.55
582.10	46541.55
582.26	46223.24
582.42	46667.94
582.58	46637.51
582.74	46726.46
582.90	46632.83
583.06	46967.53
583.22	46780.29
583.38	46660.92
583.54	46579.00
583.70	46646.88
583.86	46515.81
584.02	46286.43
584.18	46391.76
584.34	46277.07
584.50	46529.85
584.66	46686.67
584.82	45811.31
584.98	46373.03
585.14	46609.43
585.30	45825.35
585.46	46347.29
585.62	46047.70
585.78	46370.69
585.94	46026.63
586.10	46059.40
586.26	46717.09
586.42	46328.56
586.58	46686.67
586.74	46394.10
586.90	46342.61
587.06	46443.25
587.22	46426.87
587.38	46244.30
587.54	46590.70
587.70	46939.44
587.86	46361.33
588.02	46358.99
588.18	46440.91
588.34	46227.92
588.49	45841.73
588.65	45909.61
588.81	45874.50
588.97	46260.69
589.13	45947.06
589.29	46136.64
589.45	46459.63
589.61	46424.53
589.77	46536.87
589.93	46712.41
