SpectraSuite Data File
++++++++++++++++++++++++++++++++++++
Date: Fri Oct 25 11:23:30 EDT 2013
User: price-jones
Dark Spectrum Present: No
Reference Spectrum Present: No
Number of Sampled Component Spectra: 1
Spectrometers: USB2+H05261
Integration Time (usec): 100000 (USB2+H05261)
Spectra Averaged: 1 (USB2+H05261)
Boxcar Smoothing: 0 (USB2+H05261)
Correct for Electrical Dark: No (USB2+H05261)
Strobe/Lamp Enabled: No (USB2+H05261)
Correct for Detector Non-linearity: No (USB2+H05261)
Correct for Stray Light: No (USB2+H05261)
Number of Pixels in Processed Spectrum: 2048
>>>>>Begin Processed Spectral Data<<<<<
365.73	259.80
365.92	259.80
366.12	259.80
366.32	126.39
366.52	74.90
366.72	88.94
366.91	128.73
367.11	51.49
367.31	166.18
367.51	124.05
367.70	156.82
367.90	152.13
368.10	88.94
368.30	117.03
368.49	77.24
368.69	159.16
368.89	102.98
369.09	135.75
369.28	156.82
369.48	117.03
369.68	187.24
369.87	175.54
370.07	189.58
370.27	269.16
370.47	351.08
370.66	528.96
370.86	568.75
371.06	627.26
371.25	777.06
371.45	580.45
371.65	681.10
371.84	723.23
372.04	678.76
372.24	706.84
372.44	699.82
372.63	688.12
372.83	676.41
373.03	741.95
373.22	755.99
373.42	739.61
373.62	814.51
373.81	763.01
374.01	854.30
374.21	774.72
374.40	901.11
374.60	819.19
374.79	866.00
374.99	826.21
375.19	788.76
375.38	816.85
375.58	760.67
375.78	849.61
375.97	812.17
376.17	891.74
376.37	903.45
376.56	910.47
376.76	882.38
376.95	851.96
377.15	814.51
377.35	819.19
377.54	903.45
377.74	887.06
377.93	950.26
378.13	800.46
378.33	999.41
378.52	903.45
378.72	985.37
378.91	943.24
379.11	971.32
379.31	990.05
379.50	957.28
379.70	976.00
379.89	1004.09
380.09	840.25
380.28	1001.75
380.48	971.32
380.68	1025.15
380.87	1001.75
381.07	1004.09
381.26	1053.24
381.46	957.28
381.65	1055.58
381.85	1001.75
382.04	1086.01
382.24	983.02
382.43	976.00
382.63	987.71
382.83	1060.26
383.02	1100.05
383.22	1165.59
383.41	1156.22
383.61	1090.69
383.80	1125.80
384.00	1132.82
384.19	1114.10
384.39	1158.57
384.58	1160.91
384.78	1144.52
384.97	1226.44
385.17	1142.18
385.36	1207.72
385.56	1130.48
385.75	1144.52
385.95	1130.48
386.14	1203.04
386.34	1217.08
386.53	1277.93
386.72	1252.19
386.92	1224.10
387.11	1217.08
387.31	1266.23
387.50	1261.55
387.70	1205.38
387.89	1203.04
388.09	1228.78
388.28	1303.68
388.48	1188.99
388.67	1348.15
388.86	1411.34
389.06	1259.21
389.25	1373.89
389.45	1380.92
389.64	1320.06
389.84	1322.40
390.03	1434.75
390.22	1453.47
390.42	1364.53
390.61	1310.70
390.81	1371.55
391.00	1406.66
391.19	1317.72
391.39	1385.60
391.58	1446.45
391.78	1474.54
391.97	1458.15
392.16	1348.15
392.36	1502.62
392.55	1544.75
392.75	1523.69
392.94	1474.54
393.13	1460.49
393.33	1465.18
393.52	1486.24
393.71	1673.48
393.91	1589.22
394.10	1554.12
394.29	1561.14
394.49	1614.97
394.68	1629.01
394.88	1650.08
395.07	1685.19
395.26	1607.95
395.46	1680.50
395.65	1844.34
395.84	1776.47
396.04	1797.53
396.23	1858.39
396.42	1675.82
396.62	1830.30
396.81	1739.02
397.00	1753.06
397.19	1785.83
397.39	1739.02
397.58	1799.87
397.77	1788.17
397.97	1788.17
398.16	1827.96
398.35	1996.48
398.55	1827.96
398.74	1879.45
398.93	1989.46
399.12	1898.17
399.32	1881.79
399.51	1806.89
399.70	1956.69
399.90	1994.14
400.09	1998.82
400.28	2033.93
400.47	2146.27
400.67	2047.97
400.86	2052.65
401.05	2153.29
401.24	2036.27
401.44	2099.46
401.63	2080.74
401.82	2267.98
402.01	2139.25
402.21	2087.76
402.40	2118.18
402.59	2214.15
402.78	2267.98
402.97	2263.30
403.17	2305.43
403.36	2305.43
403.55	2265.64
403.74	2340.54
403.93	2361.60
404.13	2333.51
404.32	2319.47
404.51	2333.51
404.70	2347.56
404.89	2370.96
405.09	2499.69
405.28	2406.07
405.47	2471.61
405.66	2457.56
405.85	2476.29
406.05	2452.88
406.24	2497.35
406.43	2555.86
406.62	2579.27
406.81	2794.60
407.00	2595.65
407.20	2509.05
407.39	2665.87
407.58	2583.95
407.77	2843.75
407.96	2715.02
408.15	2719.70
408.34	2750.13
408.54	2764.17
408.73	2691.62
408.92	2780.56
409.11	2864.82
409.30	2876.52
409.49	2939.71
409.68	2939.71
409.87	2874.18
410.07	2988.86
410.26	2988.86
410.45	2925.67
410.64	3119.93
410.83	3126.96
411.02	3105.89
411.21	3166.74
411.40	3152.70
411.59	3248.66
411.78	3133.98
411.98	3110.57
412.17	3314.20
412.36	3307.18
412.55	3234.62
412.74	3419.52
412.93	3358.67
413.12	3419.52
413.31	3548.25
413.50	3447.61
413.69	3421.86
413.88	3581.02
414.07	3541.23
414.26	3686.34
414.45	3564.64
414.64	3667.62
414.83	3758.90
415.02	3803.37
415.22	3836.14
415.41	3815.07
415.60	3985.93
415.79	3957.85
415.98	3915.72
416.17	3974.23
416.36	4004.66
416.55	4023.38
416.74	4018.70
416.93	4032.74
417.12	4060.83
417.31	4217.65
417.50	4170.83
417.69	4287.86
417.88	4205.94
418.07	4341.69
418.26	4327.65
418.45	4381.48
418.64	4482.13
418.83	4245.73
419.02	4456.38
419.21	4472.76
419.39	4526.60
419.58	4489.15
419.77	4292.54
419.96	4540.64
420.15	4643.62
420.34	4568.73
420.53	4613.20
420.72	4711.50
420.91	4770.01
421.10	4596.81
421.29	4856.61
421.48	4877.68
421.67	4695.11
421.86	4837.89
422.05	4805.12
422.24	4746.61
422.43	4884.70
422.61	4821.50
422.80	5111.73
422.99	4952.57
423.18	5036.83
423.37	4987.68
423.56	4994.70
423.75	4924.49
423.94	4910.44
424.13	4650.64
424.32	4683.41
424.50	5107.05
424.69	5097.69
424.88	5076.62
425.07	4966.62
425.26	4840.23
425.45	4891.72
425.64	5036.83
425.83	5078.96
426.01	5125.77
426.20	5041.51
426.39	5102.37
426.58	5062.58
426.77	5062.58
426.96	5093.01
427.15	5156.20
427.33	5102.37
427.52	5266.21
427.71	5121.09
427.90	5172.58
428.09	5310.68
428.28	5341.10
428.46	5516.64
428.65	5291.95
428.84	5514.30
429.03	5521.32
429.22	5336.42
429.40	5547.07
429.59	5490.90
429.78	5238.12
429.97	5331.74
430.16	5575.16
430.34	5533.03
430.53	5846.66
430.72	5792.83
430.91	5818.57
431.10	5633.67
431.28	5767.08
431.47	5743.67
431.66	5762.40
431.85	5738.99
432.03	5951.98
432.22	5870.06
432.41	5891.13
432.60	6106.46
432.79	6033.90
432.97	5907.51
433.16	6001.13
433.35	5884.11
433.54	6171.99
433.72	6122.84
433.91	6132.20
434.10	6176.67
434.28	6050.28
434.47	6188.38
434.66	6073.69
434.85	6455.20
435.03	6340.51
435.22	6300.72
435.41	6539.46
435.59	6354.55
435.78	6492.65
435.97	6480.94
436.16	6399.02
436.34	6499.67
436.53	6436.47
436.72	6803.94
436.90	6422.43
437.09	6593.29
437.28	6656.48
437.46	6607.33
437.65	6675.21
437.84	6647.12
438.02	6707.98
438.21	6775.85
438.40	6738.40
438.58	6958.41
438.77	6913.94
438.96	6862.45
439.14	7140.97
439.33	7133.95
439.52	7176.08
439.70	7274.38
439.89	7400.77
440.08	7475.67
440.26	7279.07
440.45	7400.77
440.63	7489.71
440.82	7648.87
441.01	7723.77
441.19	7646.53
441.38	7716.75
441.57	7822.07
441.75	7805.69
441.94	7819.73
442.12	7985.91
442.31	7878.24
442.50	8023.36
442.68	7964.84
442.87	8212.94
443.05	8280.82
443.24	8414.23
443.43	8184.85
443.61	8128.68
443.80	8477.42
443.98	8072.51
444.17	7903.99
444.35	8446.99
444.54	8266.77
444.73	8400.18
444.91	8472.74
445.10	8306.56
445.28	8266.77
445.47	8273.79
445.65	8449.33
445.84	8271.45
446.02	8585.08
446.21	8390.82
446.39	8322.94
446.58	8641.26
446.77	8552.32
446.95	8301.88
447.14	8348.69
447.32	8547.64
447.51	8582.74
447.69	8353.37
447.88	8486.78
448.06	8561.68
448.25	8608.49
448.43	8554.66
448.62	8463.38
448.80	8561.68
448.99	8592.11
449.17	8636.58
449.36	8615.51
449.54	9020.42
449.73	9015.74
449.91	8805.10
450.10	8847.22
450.28	9067.24
450.46	8917.44
450.65	9088.30
450.83	9137.45
451.02	9085.96
451.20	9053.19
451.39	9179.58
451.57	9277.88
451.76	9060.21
451.94	9013.40
452.13	9294.27
452.31	9221.71
452.49	9224.05
452.68	9303.63
452.86	9249.80
453.05	9357.46
453.23	9643.01
453.42	9345.76
453.60	9387.89
453.78	9750.67
453.97	9397.25
454.15	9561.09
454.34	9525.98
454.52	9778.76
454.70	9699.18
454.89	9881.74
455.07	9823.23
455.26	9984.73
455.44	10122.82
455.62	9881.74
455.81	9935.57
455.99	10066.64
456.17	9916.85
456.36	10040.90
456.54	10104.09
456.73	10431.77
456.91	10445.81
457.09	10270.27
457.28	10527.73
457.46	10272.61
457.64	10677.52
457.83	10614.33
458.01	10548.79
458.19	10501.98
458.38	10628.37
458.56	10808.59
458.74	10766.46
458.93	10743.06
459.11	10651.78
459.29	10553.48
459.48	10857.75
459.66	10752.42
459.84	10923.28
460.03	11094.14
460.21	11098.82
460.39	10899.87
460.57	10946.69
460.76	11145.63
460.94	11283.72
461.12	11133.93
461.31	11211.17
461.49	11075.42
461.67	11154.99
461.85	11407.77
462.04	11225.21
462.22	11714.38
462.40	11637.14
462.59	11520.12
462.77	11407.77
462.95	11538.84
463.13	11749.49
463.32	11700.34
463.50	11630.12
463.68	11606.72
463.86	11793.96
464.05	11527.14
464.23	11779.92
464.41	12020.99
464.59	11770.55
464.78	12297.17
464.96	12035.03
465.14	12072.48
465.32	12182.49
465.50	12142.70
465.69	12346.33
465.87	12072.48
466.05	12168.45
466.23	12243.34
466.41	12475.06
466.60	12374.41
466.78	12006.95
466.96	12301.86
467.14	12369.73
467.32	12496.12
467.51	12547.61
467.69	12276.11
467.87	12521.87
468.05	12528.89
468.23	12346.33
468.41	12453.99
468.60	12688.04
468.78	12739.54
468.96	12805.07
469.14	12795.71
469.32	12762.94
469.50	12627.19
469.69	13160.83
469.87	12936.14
470.05	13099.98
470.23	13160.83
470.41	13202.96
470.59	13369.14
470.77	13238.07
470.95	13287.22
471.14	13486.17
471.32	13081.25
471.50	13575.11
471.68	13324.67
471.86	13582.13
472.04	13593.83
472.22	13914.48
472.40	13877.04
472.58	13998.74
472.77	13954.27
472.95	14352.16
473.13	14675.16
473.31	14171.94
473.49	14050.24
473.67	14277.27
473.85	14499.62
474.03	14483.24
474.21	14534.73
474.39	14754.74
474.57	14616.65
474.75	14895.17
474.93	14703.25
475.12	14988.79
475.30	15246.25
475.48	14773.46
475.66	15316.47
475.84	14993.47
476.02	15536.48
476.20	15583.29
476.38	15871.17
476.56	16168.42
476.74	15932.03
476.92	16004.58
477.10	15936.71
477.28	16283.11
477.46	16325.24
477.64	16688.02
477.82	16575.67
478.00	17128.04
478.18	16882.28
478.36	17008.67
478.54	17104.64
478.72	17116.34
478.90	17518.91
479.08	17825.52
479.26	17848.93
479.44	17720.20
479.62	18216.39
479.80	18146.17
479.98	18061.91
480.16	18480.87
480.34	18375.55
480.52	18618.96
480.70	19047.28
480.88	18445.76
481.06	18670.45
481.24	18965.36
481.41	19091.75
481.59	19241.54
481.77	19758.80
481.95	19744.76
482.13	19936.68
482.31	19585.60
482.49	20201.16
482.67	19922.64
482.85	20292.44
483.03	20650.55
483.21	20959.50
483.39	21099.93
483.57	20945.45
483.74	21282.49
483.92	21568.04
484.10	21081.21
484.28	21853.58
484.46	21933.16
484.64	22195.30
484.82	21785.71
485.00	22419.99
485.18	22827.24
485.35	23049.60
485.53	22661.07
485.71	23281.31
485.89	23510.68
486.07	23363.23
486.25	23468.55
486.43	23604.30
486.61	24009.22
486.78	23934.32
486.96	24556.90
487.14	24519.45
487.32	24278.38
487.50	24952.45
487.68	25025.01
487.85	25645.25
488.03	25518.86
488.21	25516.52
488.39	25972.92
488.57	26185.91
488.75	26279.54
488.92	26328.69
489.10	26621.25
489.28	26707.85
489.46	27056.59
489.64	26803.82
489.81	28037.28
489.99	27613.64
490.17	27742.37
490.35	28046.64
490.53	28236.22
490.70	28580.28
490.88	28133.24
491.06	28947.75
491.24	28914.98
491.41	29408.83
491.59	29282.44
491.77	29692.04
491.95	29570.33
492.13	29474.37
492.30	30319.30
492.48	29919.07
492.66	30164.82
492.84	30527.61
493.01	30927.84
493.19	30984.01
493.37	31068.27
493.54	31234.45
493.72	31819.58
493.90	31648.72
494.08	31967.04
494.25	32067.68
494.43	32477.27
494.61	32116.83
494.79	32790.91
494.96	32542.81
495.14	32954.74
495.32	33074.11
495.49	33191.14
495.67	33184.12
495.85	33909.68
496.02	33350.29
496.20	34148.42
496.38	34129.69
496.55	34391.83
496.73	35058.88
496.91	34356.72
497.09	34775.68
497.26	34639.93
497.44	34780.36
497.62	35302.30
497.79	35941.27
497.97	35702.53
498.14	35985.74
498.32	36114.47
498.50	35906.16
498.67	36774.50
498.85	36187.02
499.03	36821.31
499.20	37439.21
499.38	36931.31
499.56	36755.77
499.73	37184.09
499.91	37626.45
500.08	37544.53
500.26	37392.40
500.44	37794.97
500.61	38192.86
500.79	37907.32
500.97	38295.85
501.14	38787.36
501.32	38738.21
501.49	38724.16
501.67	38979.28
501.84	39377.17
502.02	39110.35
502.20	39484.84
502.37	38866.94
502.55	39299.94
502.72	39786.77
502.90	39428.66
503.07	39651.02
503.25	39903.79
503.43	39566.76
503.60	40318.07
503.78	40364.88
503.95	40519.35
504.13	40669.15
504.30	41057.68
504.48	40734.68
504.65	40645.74
504.83	41303.43
505.01	41556.21
505.18	41254.28
505.36	41626.43
505.53	41455.57
505.71	41532.81
505.88	42064.11
506.06	41560.89
506.23	41998.57
506.41	42064.11
506.58	41972.83
506.76	42541.58
506.93	42665.63
507.11	42490.09
507.28	42864.57
507.46	42831.80
507.63	42784.99
507.81	43557.37
507.98	42693.71
508.16	43196.93
508.33	43552.69
508.50	43344.38
508.68	44194.00
508.85	44114.42
509.03	43971.64
509.20	44004.41
509.38	44643.38
509.55	44240.81
509.73	44666.78
509.90	44638.70
510.08	44158.89
510.25	44648.06
510.42	44823.60
510.60	45027.23
510.77	45155.96
510.95	45804.28
511.12	45059.99
511.30	45354.90
511.47	45986.85
511.64	45773.86
511.82	45748.11
511.99	46031.32
512.17	46129.62
512.34	45996.21
512.51	46646.88
512.69	46131.96
512.86	46366.01
513.04	46571.98
513.21	46632.83
513.38	47267.12
513.56	47159.45
513.73	46934.76
513.90	47084.56
514.08	47000.30
514.25	47227.33
514.43	47356.06
514.60	47559.69
514.77	47171.16
514.95	47798.42
515.12	47878.00
515.29	47753.95
515.47	48175.25
515.64	47945.87
515.81	47955.24
515.99	48238.44
516.16	48453.77
516.33	48629.31
516.51	48444.41
516.68	48456.11
516.85	48587.18
517.03	49104.44
517.20	48900.81
517.37	48844.64
517.54	48821.23
517.72	49347.86
517.89	49228.49
518.06	49352.54
518.24	49413.39
518.41	49256.57
518.58	49518.71
518.75	49837.03
518.93	49549.14
519.10	49272.96
519.27	49640.42
519.45	49738.72
519.62	49729.36
519.79	50382.37
519.96	50241.94
520.14	50129.59
520.31	50485.36
520.48	50686.64
520.65	50534.51
520.83	50899.63
521.00	50738.13
521.17	50616.43
521.34	50763.88
521.52	50871.54
521.69	51131.34
521.86	51203.90
522.03	51248.37
522.20	51428.59
522.38	51877.97
522.55	51337.31
522.72	51552.64
522.89	51349.01
523.07	51613.49
523.24	51599.45
523.41	51744.56
523.58	51798.40
523.75	51763.29
523.92	51990.32
524.10	52154.16
524.27	51915.42
524.44	52191.61
524.61	52315.65
524.78	51861.59
524.96	52233.74
525.13	52282.89
525.30	52479.49
525.47	52507.58
525.64	52528.64
525.81	52493.54
525.98	52692.48
526.16	52952.28
526.33	52460.77
526.50	53116.12
526.67	52818.87
526.84	53249.53
527.01	53207.40
527.18	52865.68
527.36	52914.83
527.53	53326.77
527.70	53279.96
527.87	53457.84
528.04	53200.38
528.21	53719.98
528.38	53432.09
528.55	53551.46
528.72	53642.74
528.89	53352.51
529.07	53731.68
529.24	53340.81
529.41	53904.88
529.58	53712.95
529.75	53574.86
529.92	53911.90
530.09	53656.78
530.26	54178.72
530.43	53961.05
530.60	53937.65
530.77	53694.23
530.94	54237.23
531.11	53944.67
531.28	54279.36
531.46	54363.62
531.63	54646.83
531.80	54307.45
531.97	54457.24
532.14	54595.34
532.31	54305.11
532.48	54644.49
532.65	54639.81
532.82	54698.32
532.99	54740.45
533.16	54447.88
533.33	54951.10
533.50	54939.39
533.67	54614.06
533.84	54773.22
534.01	54752.15
534.18	55070.46
534.35	55356.01
534.52	55068.12
534.69	55068.12
534.86	55157.06
535.03	54979.18
535.20	55433.25
535.37	55112.59
535.54	55428.57
535.71	55309.20
535.88	55517.51
536.05	55433.25
536.22	55688.37
536.38	55590.06
536.55	55559.64
536.72	55688.37
536.89	55707.09
537.06	55744.54
537.23	55611.13
537.40	55564.32
537.57	55765.60
537.74	55934.12
537.91	56231.37
538.08	56060.51
538.25	55669.64
538.42	55997.32
538.59	56364.78
538.75	55838.16
538.92	56135.41
539.09	56200.94
539.26	56222.01
539.43	56243.07
539.60	56245.41
539.77	56442.02
539.94	56348.40
540.11	56287.54
540.28	56465.42
540.44	56303.93
540.61	56521.60
540.78	56442.02
540.95	56479.47
541.12	56210.31
541.29	56439.68
541.46	56685.43
541.62	56626.92
541.79	56718.20
541.96	56498.19
542.13	56633.94
542.30	56830.55
542.47	56963.96
542.63	56996.73
542.80	56992.04
542.97	57186.31
543.14	57268.23
543.31	57160.56
543.48	57350.15
543.64	57385.25
543.81	57050.56
543.98	57347.81
544.15	57326.74
544.32	57429.72
544.48	57886.13
544.65	57581.86
544.82	57350.15
544.99	57249.50
545.16	57616.97
545.32	57436.75
545.49	57673.14
545.66	57771.44
545.83	57635.69
546.00	57621.65
546.16	57673.14
546.33	57556.11
546.50	57490.58
546.67	57710.59
546.83	57663.78
547.00	57729.31
547.17	57954.00
547.34	57825.28
547.50	57829.96
547.67	58342.53
547.84	57839.32
548.00	58152.95
548.17	58288.70
548.34	58019.54
548.51	58445.52
548.67	58197.42
548.84	58197.42
549.01	58239.55
549.18	58342.53
549.34	58384.66
549.51	58260.62
549.68	58513.39
549.84	58302.74
550.01	58461.90
550.18	58248.91
550.34	58712.34
550.51	58497.01
550.68	58646.80
550.84	58433.81
551.01	58784.90
551.18	58520.41
551.34	58553.18
551.51	58581.27
551.68	58595.31
551.84	58539.14
552.01	58440.84
552.18	58724.04
552.34	58656.17
552.51	58782.55
552.68	58504.03
552.84	58766.17
553.01	59143.00
553.18	58974.48
553.34	58934.69
553.51	58576.59
553.67	58812.98
553.84	59004.91
554.01	59000.22
554.17	59000.22
554.34	59154.70
554.51	59032.99
554.67	59068.10
554.84	59079.80
555.00	58892.56
555.17	58894.90
555.33	59255.34
555.50	58927.67
555.67	59056.40
555.83	58993.20
556.00	59089.16
556.16	59519.82
556.33	59477.69
556.50	59515.14
556.66	59489.40
556.83	59121.93
556.99	59484.72
557.16	59477.69
557.32	59557.27
557.49	59896.65
557.65	59437.90
557.82	59290.45
557.98	59241.30
558.15	59306.83
558.32	59545.57
558.48	59571.32
558.65	59503.44
558.81	59447.27
558.98	59592.38
559.14	59571.32
559.31	59702.38
559.47	59791.33
559.64	59737.49
559.80	59943.46
559.97	59854.52
560.13	59583.02
560.30	59770.26
560.46	59833.46
560.63	59880.27
560.79	59992.61
560.96	59887.29
561.12	60107.30
561.29	59863.88
561.45	59831.11
561.61	59962.18
561.78	59812.39
561.94	59711.75
562.11	59880.27
562.27	59983.25
562.44	60058.15
562.60	59934.10
562.77	59959.84
562.93	59702.38
563.10	60130.70
563.26	59969.21
563.42	60233.69
563.59	60093.25
563.75	60065.17
563.92	60154.11
564.08	60151.77
564.24	60151.77
564.41	60346.03
564.57	60193.90
564.74	60296.88
564.90	60111.98
565.07	60203.26
565.23	60140.07
565.39	60348.37
565.56	60273.48
565.72	60402.21
565.88	60390.50
566.05	60243.05
566.21	60339.01
566.38	60432.63
566.54	60233.69
566.70	60477.10
566.87	60530.93
567.03	60023.04
567.19	60474.76
567.36	60371.78
567.52	60474.76
567.68	60662.00
567.85	60310.92
568.01	60505.19
568.17	60378.80
568.34	60453.70
568.50	60182.19
568.66	60500.51
568.83	60399.86
568.99	60411.57
569.15	60411.57
569.32	60367.10
569.48	60420.93
569.64	60516.89
569.81	60378.80
569.97	60446.68
570.13	60418.59
570.30	60413.91
570.46	60392.84
570.62	60591.79
570.78	60680.73
570.95	60434.97
571.11	60570.72
571.27	60559.02
571.43	60617.53
571.60	60762.65
571.76	60509.87
571.92	60633.92
572.09	60526.25
572.25	60671.37
572.41	60605.83
572.57	60769.67
572.74	60966.27
572.90	60729.88
573.06	60795.42
573.22	60505.19
573.38	60664.35
573.55	60694.77
573.71	60874.99
573.87	60617.53
574.03	60420.93
574.20	60776.69
574.36	60456.04
574.52	60706.47
574.68	60774.35
574.84	60846.91
575.01	60821.16
575.17	60783.71
575.33	60757.97
575.49	60692.43
575.65	60797.76
575.82	61099.68
575.98	60970.96
576.14	60919.46
576.30	60692.43
576.46	60870.31
576.62	60800.10
576.79	60772.01
576.95	60640.94
577.11	60802.44
577.27	60863.29
577.43	61010.74
577.59	60640.94
577.75	60893.72
577.92	60828.18
578.08	60874.99
578.24	60795.42
578.40	61038.83
578.56	60945.21
578.72	60917.12
578.88	61153.52
579.04	61048.19
579.21	61092.66
579.37	60938.19
579.53	61064.58
579.69	60727.54
579.85	60954.57
580.01	61083.30
580.17	60933.51
580.33	60767.33
580.49	60975.64
580.65	60912.44
580.82	60945.21
580.98	60767.33
581.14	60753.29
581.30	61036.49
581.46	60842.23
581.62	61071.60
581.78	60963.93
581.94	60968.61
582.10	60938.19
582.26	61120.75
582.42	60893.72
582.58	61071.60
582.74	60952.23
582.90	61104.37
583.06	61130.11
583.22	60809.46
583.38	60945.21
583.54	61003.72
583.70	61017.77
583.86	61310.33
584.02	60828.18
584.18	61052.87
584.34	61006.06
584.50	60956.91
584.66	60809.46
584.82	60912.44
584.98	61329.06
585.14	61181.60
585.30	60910.10
585.46	60912.44
585.62	60973.30
585.78	61151.18
585.94	60970.96
586.10	61022.45
586.26	61104.37
586.42	61125.43
586.58	61214.37
586.74	61001.38
586.90	61207.35
587.06	60905.42
587.22	61134.79
587.38	60987.34
587.54	61099.68
587.70	61244.80
587.86	61045.85
588.02	61172.24
588.18	61242.46
588.34	61087.98
588.49	61020.11
