SpectraSuite Data File
++++++++++++++++++++++++++++++++++++
Date: Fri Oct 25 10:43:35 EDT 2013
User: price-jones
Dark Spectrum Present: No
Reference Spectrum Present: No
Number of Sampled Component Spectra: 1
Spectrometers: USB2+H05261
Integration Time (usec): 100000 (USB2+H05261)
Spectra Averaged: 1 (USB2+H05261)
Boxcar Smoothing: 0 (USB2+H05261)
Correct for Electrical Dark: No (USB2+H05261)
Strobe/Lamp Enabled: No (USB2+H05261)
Correct for Detector Non-linearity: No (USB2+H05261)
Correct for Stray Light: No (USB2+H05261)
Number of Pixels in Processed Spectrum: 2048
>>>>>Begin Processed Spectral Data<<<<<
365.73	140.43
365.92	140.43
366.12	140.43
366.32	145.11
366.52	49.15
366.72	0.00
366.91	0.00
367.11	32.77
367.31	0.00
367.51	0.00
367.70	0.00
367.90	30.43
368.10	42.13
368.30	23.41
368.49	0.00
368.69	30.43
368.89	7.02
369.09	35.11
369.28	88.94
369.48	60.85
369.68	74.90
369.87	119.37
370.07	133.41
370.27	128.73
370.47	205.97
370.66	276.18
370.86	428.32
371.06	444.70
371.25	491.51
371.45	484.49
371.65	465.77
371.84	461.09
372.04	493.85
372.24	458.74
372.44	477.47
372.63	449.38
372.83	519.60
373.03	519.60
373.22	463.43
373.42	510.24
373.62	503.22
373.81	519.60
374.01	500.87
374.21	592.16
374.40	526.62
374.60	543.00
374.79	545.34
374.99	585.13
375.19	627.26
375.38	557.05
375.58	603.86
375.78	629.60
375.97	653.01
376.17	648.33
376.37	634.29
376.56	627.26
376.76	655.35
376.95	631.94
377.15	725.57
377.35	711.52
377.54	615.56
377.74	573.43
377.93	653.01
378.13	650.67
378.33	737.27
378.52	688.12
378.72	671.73
378.91	727.91
379.11	725.57
379.31	610.88
379.50	575.77
379.70	624.92
379.89	697.48
380.09	706.84
380.28	702.16
380.48	723.23
380.68	741.95
380.87	709.18
381.07	692.80
381.26	755.99
381.46	748.97
381.65	741.95
381.85	674.07
382.04	741.95
382.24	650.67
382.43	753.65
382.63	699.82
382.83	683.44
383.02	763.01
383.22	760.67
383.41	741.95
383.61	744.29
383.80	791.10
384.00	823.87
384.19	800.46
384.39	779.40
384.58	751.31
384.78	873.02
384.97	716.20
385.17	770.04
385.36	826.21
385.56	908.13
385.75	840.25
385.95	863.66
386.14	791.10
386.34	809.83
386.53	898.77
386.72	807.48
386.92	877.70
387.11	952.60
387.31	978.34
387.50	905.79
387.70	840.25
387.89	884.72
388.09	964.30
388.28	833.23
388.48	919.83
388.67	903.45
388.86	976.00
389.06	980.68
389.25	912.81
389.45	999.41
389.64	961.96
389.84	950.26
390.03	957.28
390.22	994.73
390.42	1048.56
390.61	1020.47
390.81	976.00
391.00	1013.45
391.19	1149.20
391.39	1039.20
391.58	1083.67
391.78	980.68
391.97	994.73
392.16	999.41
392.36	1132.82
392.55	987.71
392.75	1039.20
392.94	985.37
393.13	1053.24
393.33	1025.15
393.52	1053.24
393.71	1069.62
393.91	1144.52
394.10	1057.92
394.29	1245.16
394.49	1193.67
394.68	1268.57
394.88	1256.87
395.07	1240.48
395.26	1273.25
395.46	1254.53
395.65	1238.14
395.84	1144.52
396.04	1238.14
396.23	1226.44
396.42	1158.57
396.62	1238.14
396.81	1188.99
397.00	1231.12
397.19	1238.14
397.39	1397.30
397.58	1469.86
397.77	1287.29
397.97	1392.62
398.16	1465.18
398.35	1434.75
398.55	1495.60
398.74	1556.46
398.93	1516.67
399.12	1549.43
399.32	1432.41
399.51	1582.20
399.70	1636.03
399.90	1687.53
400.09	1598.59
400.28	1638.38
400.47	1593.90
400.67	1692.21
400.86	1715.61
401.05	1755.40
401.24	1696.89
401.44	1699.23
401.63	1753.06
401.82	1685.19
402.01	1806.89
402.21	1783.49
402.40	1668.80
402.59	1727.32
402.78	1739.02
402.97	1874.77
403.17	1799.87
403.36	1834.98
403.55	1905.20
403.74	1858.39
403.93	1921.58
404.13	1923.92
404.32	1961.37
404.51	1940.30
404.70	1900.52
404.89	1898.17
405.09	1947.33
405.28	1949.67
405.47	2108.82
405.66	2031.58
405.85	1952.01
406.05	2010.52
406.24	2094.78
406.43	2001.16
406.62	2160.31
406.81	2197.76
407.00	2155.63
407.20	2059.67
407.39	2132.23
407.58	2232.87
407.77	2134.57
407.96	2279.68
408.15	2176.70
408.34	2305.43
408.54	2232.87
408.73	2331.17
408.92	2284.36
409.11	2272.66
409.30	2286.70
409.49	2352.24
409.68	2200.10
409.87	2258.62
410.07	2328.83
410.26	2466.92
410.45	2520.76
410.64	2525.44
410.83	2532.46
411.02	2626.08
411.21	2724.38
411.40	2722.04
411.59	2649.49
411.78	2630.76
411.98	2558.21
412.17	2724.38
412.36	2689.28
412.55	2605.02
412.74	2743.11
412.93	2792.26
413.12	2768.85
413.31	3033.33
413.50	2853.11
413.69	2876.52
413.88	2988.86
414.07	2911.63
414.26	2918.65
414.45	3014.61
414.64	2967.80
414.83	3126.96
415.02	3131.64
415.22	3098.87
415.41	3082.49
415.60	3155.04
415.79	3314.20
415.98	3363.35
416.17	3255.69
416.36	3236.96
416.55	3253.34
416.74	3445.27
416.93	3393.78
417.12	3419.52
417.31	3475.70
417.50	3386.76
417.69	3536.55
417.88	3466.33
418.07	3536.55
418.26	3391.44
418.45	3609.11
418.64	3742.52
418.83	3789.33
419.02	3623.15
419.21	3681.66
419.39	3705.07
419.58	3538.89
419.77	3655.92
419.96	3662.94
420.15	3763.58
420.34	3620.81
420.53	3779.97
420.72	3927.42
420.91	3920.40
421.10	3770.60
421.29	3826.78
421.48	3964.87
421.67	3978.91
421.86	3894.65
422.05	3974.23
422.24	3779.97
422.43	3894.65
422.61	3934.44
422.80	4091.26
422.99	3911.04
423.18	4198.92
423.37	4053.81
423.56	3976.57
423.75	4063.17
423.94	3896.99
424.13	3789.33
424.32	3845.50
424.50	4035.08
424.69	4004.66
424.88	4145.09
425.07	3960.19
425.26	3899.33
425.45	3854.86
425.64	3992.95
425.83	4074.87
426.01	4042.11
426.20	4159.13
426.39	4037.42
426.58	4124.02
426.77	3913.38
426.96	4044.45
427.15	3971.89
427.33	4035.08
427.52	4037.42
427.71	4138.07
427.90	4285.52
428.09	4271.48
428.28	4170.83
428.46	4320.63
428.65	4191.90
428.84	4449.36
429.03	4224.67
429.22	4215.30
429.40	4194.24
429.59	4077.21
429.78	3852.52
429.97	3929.76
430.16	4014.02
430.34	4231.69
430.53	4212.96
430.72	4308.93
430.91	4346.37
431.10	4320.63
431.28	4571.07
431.47	4615.54
431.66	4847.25
431.85	4730.22
432.03	4667.03
432.22	4777.03
432.41	4835.55
432.60	4774.69
432.79	4746.61
432.97	4788.74
433.16	4664.69
433.35	4716.18
433.54	4809.80
433.72	4795.76
433.91	4777.03
434.10	4765.33
434.28	4959.60
434.47	5069.60
434.66	5046.20
434.85	4938.53
435.03	5057.90
435.22	5027.47
435.41	5256.84
435.59	5203.01
435.78	5249.82
435.97	5153.86
436.16	5420.68
436.34	5149.18
436.53	5097.69
436.72	5287.27
436.90	5116.41
437.09	5242.80
437.28	4990.02
437.46	5324.72
437.65	5320.04
437.84	5308.34
438.02	5247.48
438.21	5214.71
438.40	5193.65
438.58	5455.79
438.77	5572.82
438.96	5554.09
439.14	5563.45
439.33	5638.35
439.52	5750.70
439.70	5626.65
439.89	5837.30
440.08	5863.04
440.26	5902.83
440.45	5743.67
440.63	5966.03
440.82	6197.74
441.01	5968.37
441.19	6054.97
441.38	6122.84
441.57	6211.78
441.75	6228.17
441.94	6436.47
442.12	6424.77
442.31	6305.40
442.50	6396.68
442.68	6516.05
442.87	6572.22
443.05	6555.84
443.24	6532.44
443.43	6499.67
443.61	6668.19
443.80	6705.63
443.98	6455.20
444.17	6303.06
444.35	6581.59
444.54	6771.17
444.73	6761.81
444.91	6523.07
445.10	6644.78
445.28	6635.42
445.47	6469.24
445.65	6347.53
445.84	6525.41
446.02	6743.08
446.21	6766.49
446.39	6649.46
446.58	6747.76
446.77	6691.59
446.95	6736.06
447.14	6717.34
447.32	6942.03
447.51	6789.89
447.69	6913.94
447.88	6815.64
448.06	6820.32
448.25	6843.73
448.43	6864.79
448.62	6857.77
448.80	7012.24
448.99	6867.13
449.17	6972.46
449.36	6960.75
449.54	7075.44
449.73	7412.48
449.91	7377.37
450.10	7368.01
450.28	7480.35
450.46	7229.91
450.65	7389.07
450.83	7325.88
451.02	7410.14
451.20	7426.52
451.39	7143.32
451.57	7412.48
451.76	7346.94
451.94	7419.50
452.13	7543.55
452.31	7297.79
452.49	7059.06
452.68	7328.22
452.86	7246.30
453.05	7342.26
453.23	7468.65
453.42	7494.40
453.60	7400.77
453.78	7485.03
453.97	7531.84
454.15	7513.12
454.34	7609.08
454.52	7627.81
454.70	7691.00
454.89	7665.25
455.07	7887.61
455.26	7852.50
455.44	8037.40
455.62	7955.48
455.81	7962.50
455.99	7943.78
456.17	8177.83
456.36	8049.10
456.54	8166.13
456.73	8016.33
456.91	8285.50
457.09	8362.73
457.28	8344.01
457.46	8163.79
457.64	8491.46
457.83	8456.36
458.01	8149.75
458.19	8355.71
458.38	8367.42
458.56	8461.04
458.74	8386.14
458.93	8222.30
459.11	8376.78
459.29	8557.00
459.48	8402.52
459.66	8418.91
459.84	8517.21
460.03	8547.64
460.21	8704.45
460.39	8533.59
460.57	8730.20
460.76	8910.42
460.94	8814.46
461.12	8805.10
461.31	8915.10
461.49	8739.56
461.67	8781.69
461.85	8943.19
462.04	8706.79
462.22	9427.68
462.40	9076.60
462.59	9130.43
462.77	9109.36
462.95	9167.88
463.13	9022.77
463.32	9029.79
463.50	9205.33
463.68	9048.51
463.86	9202.99
464.05	9029.79
464.23	9118.73
464.41	9132.77
464.59	9114.05
464.78	9420.66
464.96	9434.70
465.14	9242.78
465.32	9383.21
465.50	9476.83
465.69	9451.08
465.87	9132.77
466.05	9245.12
466.23	9289.59
466.41	9399.59
466.60	9493.21
466.78	9217.03
466.96	9413.63
467.14	9350.44
467.32	9694.50
467.51	9537.68
467.69	9444.06
467.87	9668.75
468.05	9741.31
468.23	9472.15
468.41	9692.16
468.60	9650.03
468.78	9966.00
468.96	9647.69
469.14	9837.27
469.32	9797.48
469.50	9598.54
469.69	9858.34
469.87	9860.68
470.05	10054.94
470.23	10076.01
470.41	9944.94
470.59	10052.60
470.77	10078.35
470.95	10178.99
471.14	10291.34
471.32	10073.67
471.50	10324.10
471.68	10544.11
471.86	10354.53
472.04	10633.05
472.22	10607.31
472.40	10483.26
472.58	10312.40
472.77	10747.74
472.95	10626.03
473.13	11009.88
473.31	10871.79
473.49	10768.80
473.67	10792.21
473.85	10949.03
474.03	11136.27
474.21	11377.34
474.39	11150.31
474.57	11440.54
474.75	11426.50
474.93	11370.32
475.12	11356.28
475.30	11463.94
475.48	11325.85
475.66	11393.73
475.84	11541.18
476.02	11524.80
476.20	11424.15
476.38	11946.09
476.56	12100.57
476.74	12138.02
476.92	11948.43
477.10	11999.93
477.28	12315.90
477.46	11978.86
477.64	12461.01
477.82	12437.61
478.00	12751.24
478.18	12692.73
478.36	12762.94
478.54	12821.45
478.72	13034.44
478.90	13107.00
479.08	13053.17
479.26	13170.19
479.44	13310.63
479.62	13516.59
479.80	13387.86
479.98	13687.45
480.16	13830.23
480.34	13699.16
480.52	13820.86
480.70	13963.64
480.88	13888.74
481.06	14078.32
481.24	14249.18
481.41	14380.25
481.59	14925.60
481.77	14672.82
481.95	14534.73
482.13	14665.80
482.31	14824.95
482.49	14995.81
482.67	15197.10
482.85	15229.87
483.03	15482.64
483.21	15311.78
483.39	15508.39
483.57	15562.22
483.74	15716.70
483.92	15604.35
484.10	15915.64
484.28	16114.59
484.46	16484.39
484.64	16402.47
484.82	16142.67
485.00	16238.64
485.18	16589.72
485.35	16861.22
485.53	16404.81
485.71	16311.19
485.89	16538.23
486.07	16449.28
486.25	16748.87
486.43	17212.30
486.61	17392.52
486.78	17561.04
486.96	17591.47
487.14	17975.31
487.32	17970.63
487.50	18263.20
487.68	18408.31
487.85	18670.45
488.03	18618.96
488.21	18913.87
488.39	18970.04
488.57	18881.10
488.75	19171.33
488.92	19218.14
489.10	19522.41
489.28	19428.79
489.46	19957.75
489.64	19733.06
489.81	20210.53
489.99	20467.98
490.17	20634.16
490.35	20879.92
490.53	20748.85
490.70	20629.48
490.88	21034.39
491.06	21219.30
491.24	20587.35
491.41	21043.76
491.59	20931.41
491.77	21067.16
491.95	21422.92
492.13	21582.08
492.30	21837.20
492.48	21907.41
492.66	22092.32
492.84	22082.95
493.01	22375.52
493.19	22398.93
493.37	22623.62
493.54	22740.64
493.72	22991.08
493.90	22923.21
494.08	23143.22
494.25	23494.30
494.43	23611.32
494.61	23681.54
494.79	23939.00
494.96	23449.83
495.14	23669.84
495.32	24205.82
495.49	23714.31
495.67	24173.05
495.85	24402.43
496.02	24594.35
496.20	24584.99
496.38	24432.85
496.55	24767.55
496.73	25254.38
496.91	25085.86
497.09	25280.13
497.26	25582.06
497.44	25427.58
497.62	25689.72
497.79	25479.07
497.97	25488.43
498.14	25930.80
498.32	26120.38
498.50	26443.37
498.67	26546.36
498.85	26529.97
499.03	26829.56
499.20	26632.96
499.38	26717.22
499.56	26581.46
499.73	26628.27
499.91	26817.86
500.08	26651.68
500.26	26522.95
500.44	26789.77
500.61	26932.54
500.79	26916.16
500.97	27627.68
501.14	27213.41
501.32	27515.34
501.49	27498.95
501.67	27515.34
501.84	27508.32
502.02	27669.81
502.20	28222.18
502.37	28149.62
502.55	28236.22
502.72	28343.89
502.90	28437.51
503.07	28477.30
503.25	28510.07
503.43	28467.94
503.60	28325.16
503.78	28184.73
503.95	28493.68
504.13	28540.49
504.30	28893.91
504.48	28954.77
504.65	29230.95
504.83	29575.01
505.01	29874.60
505.18	29275.42
505.36	29736.51
505.53	29750.55
505.71	30335.68
505.88	30036.09
506.06	29731.83
506.23	29680.33
506.41	29766.93
506.58	30073.54
506.76	30216.32
506.93	30656.34
507.11	30618.89
507.28	30466.75
507.46	30267.81
507.63	30352.07
507.81	30150.78
507.98	30363.77
508.16	30560.37
508.33	30520.59
508.50	30712.51
508.68	31292.96
508.85	31828.95
509.03	31597.23
509.20	31508.29
509.38	31985.76
509.55	31917.89
509.73	31845.33
509.90	31840.65
510.08	31901.50
510.25	31828.95
510.42	31969.38
510.60	32170.66
510.77	32121.51
510.95	32510.04
511.12	32203.43
511.30	32339.18
511.47	32353.23
511.64	32596.64
511.82	32542.81
511.99	32580.26
512.17	32669.20
512.34	32329.82
512.51	33240.29
512.69	33186.46
512.86	32921.98
513.04	32994.53
513.21	33083.47
513.38	33172.41
513.56	33535.20
513.73	33408.81
513.90	33369.02
514.08	33373.70
514.25	33333.91
514.43	33493.07
514.60	33266.03
514.77	33668.61
514.95	34326.30
515.12	33713.08
515.29	33750.52
515.47	34424.60
515.64	34347.36
515.81	33968.19
515.99	34167.14
516.16	34316.93
516.33	33956.49
516.51	34183.52
516.68	34085.22
516.85	33247.31
517.03	34040.75
517.20	34199.91
517.37	34323.96
517.54	34761.64
517.72	34220.97
517.89	34436.30
518.06	34363.75
518.24	34256.08
518.41	34244.38
518.58	34499.50
518.75	34953.56
518.93	35377.20
519.10	35009.73
519.27	35508.27
519.45	35725.94
519.62	35849.99
519.79	35896.80
519.96	35452.09
520.14	35835.94
520.31	35693.17
520.48	35791.47
520.65	36147.23
520.83	36261.92
521.00	36093.40
521.17	36135.53
521.34	36849.39
521.52	36191.70
521.69	36624.70
521.86	36842.37
522.03	36493.63
522.20	36575.55
522.38	36725.35
522.55	36701.94
522.72	36755.77
522.89	36730.03
523.07	37186.43
523.24	36774.50
523.41	37490.70
523.58	37333.89
523.75	37743.48
523.92	37736.46
524.10	37652.20
524.27	37448.57
524.44	37179.41
524.61	37897.95
524.78	37436.87
524.96	37745.82
525.13	37895.61
525.30	38101.58
525.47	38127.33
525.64	37834.76
525.81	37937.74
525.98	37766.88
526.16	37727.10
526.33	37666.24
526.50	37603.05
526.67	37361.97
526.84	37809.01
527.01	37813.70
527.18	37675.60
527.36	38703.10
527.53	38333.29
527.70	38925.45
527.87	38597.77
528.04	38536.92
528.21	38684.37
528.38	38635.22
528.55	39297.59
528.72	39091.63
528.89	39433.35
529.07	39325.68
529.24	39171.21
529.41	39196.95
529.58	39185.25
529.75	39124.40
529.92	39250.78
530.09	39351.43
530.26	39842.94
530.43	39573.78
530.60	39768.04
530.77	39814.85
530.94	39976.35
531.11	39672.08
531.28	39606.55
531.46	40100.40
531.63	40041.88
531.80	39545.69
531.97	39779.74
532.14	39608.89
532.31	39267.17
532.48	39545.69
532.65	39627.61
532.82	39835.92
532.99	40081.67
533.16	39665.06
533.33	40109.76
533.50	40254.87
533.67	40573.19
533.84	40332.11
534.01	40694.89
534.18	40498.29
534.35	40470.20
534.52	40278.28
534.69	40701.92
534.86	41223.86
535.03	40547.44
535.20	41284.71
535.37	41214.49
535.54	41357.27
535.71	40954.69
535.88	41134.92
536.05	41301.09
536.22	41064.70
536.38	41291.73
536.55	41013.21
536.72	40718.30
536.89	41008.53
537.06	41081.08
537.23	41221.52
537.40	41471.95
537.57	41528.13
537.74	41453.23
537.91	41607.70
538.08	41134.92
538.25	41024.91
538.42	41584.30
538.59	42026.66
538.75	41104.49
538.92	41340.88
539.09	41921.34
539.26	41514.08
539.43	41834.74
539.60	41933.04
539.77	41881.55
539.94	41338.54
540.11	41628.77
540.28	41853.46
540.44	41825.37
540.61	41869.84
540.78	41490.68
540.95	41434.50
541.12	42007.94
541.29	42113.26
541.46	42094.53
541.62	42466.68
541.79	42164.75
541.96	41570.25
542.13	42045.38
542.30	41926.02
542.47	42319.23
542.63	42396.46
542.80	42227.95
542.97	42110.92
543.14	42876.27
543.31	42981.60
543.48	42899.68
543.64	43318.64
543.81	43222.67
543.98	42932.45
544.15	42852.87
544.32	42972.24
544.48	43140.75
544.65	43164.16
544.82	43445.02
544.99	42895.00
545.16	43075.22
545.32	42913.72
545.49	43482.47
545.66	43985.69
545.83	43405.23
546.00	43285.87
546.16	43449.70
546.33	43480.13
546.50	42920.74
546.67	43508.22
546.83	42951.17
547.00	43445.02
547.17	43550.35
547.34	43374.81
547.50	43723.55
547.67	44252.51
547.84	43599.50
548.00	44142.50
548.17	43917.81
548.34	44194.00
548.51	44367.20
548.67	44086.33
548.84	44868.07
549.01	43999.73
549.18	44161.23
549.34	43992.71
549.51	44069.95
549.68	44271.23
549.84	44217.40
550.01	44449.11
550.18	44507.63
550.34	44334.43
550.51	44046.54
550.68	44554.44
550.84	43641.63
551.01	44449.11
551.18	44212.72
551.34	44205.70
551.51	44741.68
551.68	44666.78
551.84	44421.03
552.01	44905.52
552.18	44638.70
552.34	44144.84
552.51	44690.19
552.68	44451.45
552.84	44699.55
553.01	45174.68
553.18	44612.95
553.34	44493.58
553.51	44442.09
553.67	44669.12
553.84	45399.37
554.01	45237.87
554.17	45099.78
554.34	45603.00
554.51	45319.79
554.67	45160.64
554.84	44657.42
555.00	44945.31
555.17	44968.71
555.33	45024.89
555.50	44952.33
555.67	45308.09
555.83	44807.22
556.00	44933.60
556.16	45607.68
556.33	44968.71
556.50	45010.84
556.66	45106.80
556.83	44957.01
556.99	45289.37
557.16	45373.63
557.32	45212.13
557.49	45284.68
557.65	45331.50
557.82	45500.01
557.98	45202.77
558.15	45123.19
558.32	45567.89
558.48	45247.24
558.65	45083.40
558.81	45207.45
558.98	44891.48
559.14	45092.76
559.31	45139.57
559.47	45411.07
559.64	45382.99
559.80	45649.81
559.97	45256.60
560.13	45289.37
560.30	45787.90
560.46	45823.01
560.63	45640.45
560.79	45736.41
560.96	45886.20
561.12	45441.50
561.29	45488.31
561.45	45825.35
561.61	45511.72
561.78	45434.48
561.94	45170.00
562.11	45345.54
562.27	45769.18
562.44	45893.22
562.60	46075.79
562.77	46075.79
562.93	45560.87
563.10	46010.25
563.26	45881.52
563.42	45933.01
563.59	45560.87
563.75	46019.61
563.92	46281.75
564.08	45900.25
564.24	45933.01
564.41	46012.59
564.57	46138.98
564.74	45684.92
564.90	46120.26
565.07	45937.69
565.23	45811.31
565.39	45624.06
565.56	46284.09
565.72	45661.51
565.88	45815.99
566.05	46019.61
566.21	46120.26
566.38	45921.31
566.54	45553.85
566.70	46251.33
566.87	46550.91
567.03	45904.93
567.19	46419.84
567.36	46045.36
567.52	46117.92
567.68	46141.32
567.85	46117.92
568.01	46410.48
568.17	46082.81
568.34	46724.11
568.50	46265.37
568.66	45787.90
568.83	46239.62
568.99	45691.94
569.15	45984.51
569.32	45727.05
569.48	46307.50
569.64	46366.01
569.81	46483.04
569.97	46043.02
570.13	46906.68
570.30	45766.84
570.46	45666.19
570.62	45677.90
570.78	45610.02
570.95	45715.34
571.11	46012.59
571.27	45710.66
571.43	45947.06
571.60	46108.55
571.76	45893.22
571.92	46031.32
572.09	46490.06
572.25	46377.72
572.41	46387.08
572.57	46141.32
572.74	46422.19
572.90	46349.63
573.06	46366.01
573.22	46326.22
573.38	45961.10
573.55	45600.66
573.71	46326.22
573.87	46490.06
574.03	46440.91
574.20	46469.00
574.36	46075.79
574.52	45937.69
574.68	46169.41
574.84	46363.67
575.01	46115.58
575.17	45736.41
575.33	45827.69
575.49	45626.40
575.65	46342.61
575.82	46204.52
575.98	46092.17
576.14	46916.04
576.30	46248.99
576.46	46115.58
576.62	46169.41
576.79	46227.92
576.95	46061.74
577.11	46382.40
577.27	46251.33
577.43	45989.19
577.59	46005.57
577.75	45603.00
577.92	45743.43
578.08	45865.14
578.24	46061.74
578.40	46010.25
578.56	46241.96
578.72	46122.60
578.88	46635.17
579.04	46213.88
579.21	46223.24
579.37	46036.00
579.53	46445.59
579.69	46014.93
579.85	46183.45
580.01	46679.64
580.17	46351.97
580.33	46415.16
580.49	46550.91
580.65	46511.13
580.82	46426.87
580.98	46466.66
581.14	46054.72
581.30	46689.01
581.46	46146.00
581.62	46520.49
581.78	46237.28
581.94	46824.76
582.10	46412.82
582.26	46623.47
582.42	46412.82
582.58	46529.85
582.74	46155.36
582.90	46986.25
583.06	46710.07
583.22	46728.80
583.38	46614.11
583.54	46621.13
583.70	46803.69
583.86	46314.52
584.02	45832.37
584.18	46443.25
584.34	46005.57
584.50	46181.11
584.66	46356.65
584.82	46487.72
584.98	46225.58
585.14	46337.93
585.30	46564.96
585.46	46653.90
585.62	46241.96
585.78	45935.35
585.94	45963.44
586.10	46248.99
586.26	45918.97
586.42	46391.76
586.58	46169.41
586.74	46396.44
586.90	45914.29
587.06	46244.30
587.22	46539.21
587.38	46389.42
587.54	46581.34
587.70	46974.55
587.86	46197.49
588.02	46501.76
588.18	46342.61
588.34	46043.02
588.49	45839.39
588.65	45734.07
588.81	45610.02
588.97	45968.12
589.13	45247.24
589.29	45790.24
589.45	45984.51
589.61	46358.99
589.77	46649.22
589.93	45872.16
