SpectraSuite Data File
++++++++++++++++++++++++++++++++++++
Date: Fri Oct 25 11:23:08 EDT 2013
User: price-jones
Dark Spectrum Present: No
Reference Spectrum Present: No
Number of Sampled Component Spectra: 1
Spectrometers: USB2+H05261
Integration Time (usec): 100000 (USB2+H05261)
Spectra Averaged: 1 (USB2+H05261)
Boxcar Smoothing: 0 (USB2+H05261)
Correct for Electrical Dark: No (USB2+H05261)
Strobe/Lamp Enabled: No (USB2+H05261)
Correct for Detector Non-linearity: No (USB2+H05261)
Correct for Stray Light: No (USB2+H05261)
Number of Pixels in Processed Spectrum: 2048
>>>>>Begin Processed Spectral Data<<<<<
365.73	273.84
365.92	273.84
366.12	273.84
366.32	201.29
366.52	173.20
366.72	182.56
366.91	210.65
367.11	152.13
367.31	53.83
367.51	142.77
367.70	149.79
367.90	156.82
368.10	98.30
368.30	93.62
368.49	121.71
368.69	112.35
368.89	161.50
369.09	86.60
369.28	156.82
369.48	156.82
369.68	243.42
369.87	229.37
370.07	170.86
370.27	170.86
370.47	344.06
370.66	561.73
370.86	620.24
371.06	648.33
371.25	716.20
371.45	634.29
371.65	709.18
371.84	730.25
372.04	664.71
372.24	748.97
372.44	660.03
372.63	674.07
372.83	725.57
373.03	716.20
373.22	802.80
373.42	746.63
373.62	734.93
373.81	772.38
374.01	763.01
374.21	847.27
374.40	870.68
374.60	800.46
374.79	833.23
374.99	793.44
375.19	816.85
375.38	884.72
375.58	866.00
375.78	905.79
375.97	819.19
376.17	887.06
376.37	866.00
376.56	877.70
376.76	854.30
376.95	884.72
377.15	891.74
377.35	929.19
377.54	924.51
377.74	809.83
377.93	873.02
378.13	940.90
378.33	964.30
378.52	854.30
378.72	917.49
378.91	978.34
379.11	884.72
379.31	976.00
379.50	882.38
379.70	1013.45
379.89	1032.18
380.09	994.73
380.28	1053.24
380.48	966.64
380.68	966.64
380.87	1062.60
381.07	1022.81
381.26	1081.33
381.46	1015.79
381.65	1034.52
381.85	1041.54
382.04	1104.73
382.24	1135.16
382.43	1139.84
382.63	1027.50
382.83	1107.07
383.02	1121.12
383.22	1102.39
383.41	1036.86
383.61	1086.01
383.80	1139.84
384.00	1217.08
384.19	1142.18
384.39	1130.48
384.58	1167.93
384.78	1167.93
384.97	1139.84
385.17	1165.59
385.36	1177.29
385.56	1198.35
385.75	1181.97
385.95	1153.88
386.14	1224.10
386.34	1174.95
386.53	1214.74
386.72	1263.89
386.92	1268.57
387.11	1198.35
387.31	1167.93
387.50	1221.76
387.70	1214.74
387.89	1268.57
388.09	1247.51
388.28	1261.55
388.48	1214.74
388.67	1315.38
388.86	1306.02
389.06	1296.66
389.25	1296.66
389.45	1406.66
389.64	1392.62
389.84	1390.28
390.03	1324.74
390.22	1413.68
390.42	1411.34
390.61	1460.49
390.81	1371.55
391.00	1446.45
391.19	1493.26
391.39	1427.73
391.58	1427.73
391.78	1453.47
391.97	1490.92
392.16	1540.07
392.36	1638.38
392.55	1607.95
392.75	1488.58
392.94	1514.33
393.13	1537.73
393.33	1570.50
393.52	1504.96
393.71	1593.90
393.91	1509.65
394.10	1671.14
394.29	1542.41
394.49	1607.95
394.68	1598.59
394.88	1570.50
395.07	1629.01
395.26	1727.32
395.46	1689.87
395.65	1673.48
395.84	1689.87
396.04	1820.94
396.23	1626.67
396.42	1685.19
396.62	1788.17
396.81	1729.66
397.00	1825.62
397.19	1802.21
397.39	1832.64
397.58	1746.04
397.77	1830.30
397.97	1818.60
398.16	1860.73
398.35	1923.92
398.55	1954.35
398.74	1966.05
398.93	1994.14
399.12	1923.92
399.32	1902.86
399.51	1879.45
399.70	2040.95
399.90	1982.43
400.09	2057.33
400.28	2059.67
400.47	2076.06
400.67	2132.23
400.86	2033.93
401.05	2179.04
401.24	2059.67
401.44	2146.27
401.63	2108.82
401.82	2092.44
402.01	2062.01
402.21	2157.97
402.40	2157.97
402.59	2160.31
402.78	2157.97
402.97	2239.89
403.17	2307.77
403.36	2363.94
403.55	2399.05
403.74	2455.22
403.93	2408.41
404.13	2410.75
404.32	2359.26
404.51	2319.47
404.70	2466.92
404.89	2368.62
405.09	2532.46
405.28	2441.18
405.47	2562.89
405.66	2534.80
405.85	2509.05
406.05	2640.12
406.24	2504.37
406.43	2558.21
406.62	2644.81
406.81	2670.55
407.00	2520.76
407.20	2506.71
407.39	2846.09
407.58	2679.91
407.77	2773.53
407.96	2843.75
408.15	2799.28
408.34	2672.89
408.54	2775.88
408.73	2803.96
408.92	2902.26
409.11	2974.82
409.30	2956.10
409.49	2883.54
409.68	2909.29
409.87	2974.82
410.07	3105.89
410.26	2995.89
410.45	2911.63
410.64	3091.85
410.83	3115.25
411.02	3047.38
411.21	3251.00
411.40	3166.74
411.59	3276.75
411.78	3225.26
411.98	3187.81
412.17	3325.90
412.36	3330.58
412.55	3527.19
412.74	3368.03
412.93	3412.50
413.12	3286.11
413.31	3452.29
413.50	3613.79
413.69	3426.54
413.88	3749.54
414.07	3588.04
414.26	3730.81
414.45	3684.00
414.64	3686.34
414.83	3716.77
415.02	3761.24
415.22	3878.27
415.41	3831.46
415.60	3840.82
415.79	4002.32
415.98	4093.60
416.17	4046.79
416.36	4063.17
416.55	4182.54
416.74	4219.99
416.93	4175.52
417.12	4102.96
417.31	4283.18
417.50	4189.56
417.69	4386.16
417.88	4212.96
418.07	4418.93
418.26	4411.91
418.45	4355.74
418.64	4638.94
418.83	4437.66
419.02	4299.56
419.21	4566.39
419.39	4592.13
419.58	4496.17
419.77	4468.08
419.96	4589.79
420.15	4664.69
420.34	4552.34
420.53	4751.29
420.72	4800.44
420.91	4709.16
421.10	4788.74
421.29	4770.01
421.48	4739.58
421.67	4908.10
421.86	4887.04
422.05	4741.93
422.24	4849.59
422.43	5041.51
422.61	4987.68
422.80	5018.11
422.99	4947.89
423.18	5053.22
423.37	5039.17
423.56	4938.53
423.75	5025.13
423.94	4805.12
424.13	4655.33
424.32	4842.57
424.50	5036.83
424.69	5109.39
424.88	5214.71
425.07	5041.51
425.26	4933.85
425.45	4945.55
425.64	4919.81
425.83	5083.64
426.01	5053.22
426.20	5076.62
426.39	5125.77
426.58	5203.01
426.77	5193.65
426.96	5270.89
427.15	5198.33
427.33	5273.23
427.52	5502.60
427.71	5301.31
427.90	5275.57
428.09	5252.16
428.28	5408.98
428.46	5444.09
428.65	5462.81
428.84	5561.11
429.03	5757.72
429.22	5455.79
429.40	5542.39
429.59	5523.66
429.78	5355.15
429.97	5245.14
430.16	5420.68
430.34	5671.12
430.53	5610.26
430.72	5556.43
430.91	5853.68
431.10	5589.20
431.28	5949.64
431.47	5774.10
431.66	5832.62
431.85	5893.47
432.03	5926.24
432.22	6043.26
432.41	6066.67
432.60	5996.45
432.79	6033.90
432.97	6061.99
433.16	6122.84
433.35	6061.99
433.54	6216.46
433.72	6024.54
433.91	6073.69
434.10	6169.65
434.28	6057.31
434.47	6345.19
434.66	6263.27
434.85	6242.21
435.03	6604.99
435.22	6408.39
435.41	6513.71
435.59	6483.28
435.78	6509.03
435.97	6649.46
436.16	6296.04
436.34	6424.77
436.53	6642.44
436.72	6689.25
436.90	6651.80
437.09	6780.53
437.28	6483.28
437.46	6619.04
437.65	6785.21
437.84	6850.75
438.02	6827.34
438.21	6857.77
438.40	6825.00
438.58	6974.80
438.77	7040.33
438.96	7009.90
439.14	7379.71
439.33	7070.76
439.52	7262.68
439.70	7349.28
439.89	7403.11
440.08	7494.40
440.26	7463.97
440.45	7243.96
440.63	7599.72
440.82	7801.01
441.01	7613.76
441.19	7510.78
441.38	7892.29
441.57	7801.01
441.75	7859.52
441.94	8180.17
442.12	8166.13
442.31	8109.96
442.50	7997.61
442.68	7927.39
442.87	7971.86
443.05	8245.71
443.24	8236.35
443.43	8159.11
443.61	8311.24
443.80	8425.93
443.98	8070.17
444.17	7992.93
444.35	8259.75
444.54	8561.68
444.73	8397.84
444.91	8290.18
445.10	8458.70
445.28	8339.33
445.47	8322.94
445.65	8489.12
445.84	8510.19
446.02	8592.11
446.21	8446.99
446.39	8573.38
446.58	8418.91
446.77	8685.73
446.95	8400.18
447.14	8390.82
447.32	8545.30
447.51	8432.95
447.69	8610.83
447.88	8514.87
448.06	8643.60
448.25	8594.45
448.43	8800.41
448.62	8676.37
448.80	8870.63
448.99	8634.24
449.17	8945.53
449.36	8730.20
449.54	8961.91
449.73	9095.32
449.91	9125.75
450.10	8908.08
450.28	9149.15
450.46	9336.40
450.65	9029.79
450.83	9205.33
451.02	9305.97
451.20	9467.47
451.39	9334.06
451.57	9160.86
451.76	9195.96
451.94	9357.46
452.13	9423.00
452.31	9488.53
452.49	9170.22
452.68	9500.23
452.86	9458.10
453.05	9664.07
453.23	9727.27
453.42	9652.37
453.60	9514.28
453.78	9610.24
453.97	9570.45
454.15	9715.56
454.34	9589.17
454.52	9989.41
454.70	9790.46
454.89	9977.70
455.07	9811.53
455.26	10090.05
455.44	10115.80
455.62	10101.75
455.81	10003.45
455.99	10197.71
456.17	10134.52
456.36	10097.07
456.54	10321.76
456.73	10490.28
456.91	10518.37
457.09	10583.90
457.28	10602.63
457.46	10611.99
457.64	10661.14
457.83	10691.57
458.01	10497.30
458.19	10939.66
458.38	10574.54
458.56	10501.98
458.74	10850.72
458.93	10586.24
459.11	10813.28
459.29	10729.02
459.48	11080.10
459.66	10869.45
459.84	10951.37
460.03	10984.13
460.21	11094.14
460.39	11117.54
460.57	11126.91
460.76	11208.83
460.94	11393.73
461.12	11279.04
461.31	11133.93
461.49	11220.53
461.67	11201.80
461.85	11751.83
462.04	11433.52
462.22	11475.65
462.40	11651.19
462.59	11487.35
462.77	11826.73
462.95	11765.87
463.13	11651.19
463.32	11908.65
463.50	11618.42
463.68	11901.62
463.86	12032.69
464.05	11878.22
464.23	11882.90
464.41	11962.48
464.59	11955.46
464.78	12140.36
464.96	11995.25
465.14	12166.10
465.32	12255.04
465.50	12224.62
465.69	12383.77
465.87	12287.81
466.05	12152.06
466.23	12269.09
466.41	12346.33
466.60	12582.72
466.78	12339.30
466.96	12241.00
467.14	12528.89
467.32	12535.91
467.51	12805.07
467.69	12519.53
467.87	12489.10
468.05	12828.48
468.23	12517.18
468.41	12631.87
468.60	12912.74
468.78	13186.58
468.96	13032.10
469.14	13015.72
469.32	13263.82
469.50	12723.15
469.69	13303.60
469.87	13238.07
470.05	13102.32
470.23	13399.57
470.41	13493.19
470.59	13364.46
470.77	13247.43
470.95	13249.77
471.14	13846.61
471.32	13195.94
471.50	13991.72
471.68	13448.72
471.86	13717.88
472.04	13853.63
472.22	14073.64
472.40	13848.95
472.58	13891.08
472.77	14008.11
472.95	14235.14
473.13	14902.19
473.31	14207.05
473.49	14324.08
473.67	14204.71
473.85	14569.83
474.03	14633.03
474.21	14665.80
474.39	15161.99
474.57	15037.94
474.75	15005.17
474.93	15075.39
475.12	15194.76
475.30	15559.88
475.48	15225.18
475.66	15152.63
475.84	15311.78
476.02	15571.58
476.20	15492.01
476.38	15719.04
476.56	16297.15
476.74	16088.84
476.92	16091.18
477.10	16182.46
477.28	16315.87
477.46	16198.85
477.64	16566.31
477.82	16659.93
478.00	17156.13
478.18	16922.07
478.36	17249.75
478.54	17776.37
478.72	17495.50
478.90	17720.20
479.08	17638.28
479.26	18047.87
479.44	17905.10
479.62	18260.86
479.80	18333.42
479.98	18319.37
480.16	18625.98
480.34	18368.52
480.52	18927.91
480.70	18682.16
480.88	18621.30
481.06	19089.41
481.24	18965.36
481.41	19239.20
481.59	19417.08
481.77	19580.92
481.95	19840.72
482.13	20077.12
482.31	20168.40
482.49	20524.16
482.67	20266.70
482.85	20652.89
483.03	20877.58
483.21	21120.99
483.39	21209.93
483.57	21261.43
483.74	21301.22
483.92	21434.63
484.10	21546.97
484.28	21912.10
484.46	21909.75
484.64	22600.21
484.82	22359.14
485.00	22462.12
485.18	22787.46
485.35	23489.62
485.53	23262.58
485.71	23274.29
485.89	23417.06
486.07	23665.16
486.25	24187.10
486.43	23957.72
486.61	23955.38
486.78	24493.71
486.96	24830.74
487.14	24716.06
487.32	25202.89
487.50	25083.52
487.68	25331.62
487.85	25441.62
488.03	26031.44
488.21	26366.13
488.39	26085.27
488.57	26541.68
488.75	26600.19
488.92	26754.66
489.10	27037.87
489.28	27133.83
489.46	27494.27
489.64	27281.28
489.81	28013.87
489.99	27562.15
490.17	28166.01
490.35	28699.65
490.53	28870.51
490.70	28620.07
490.88	28912.64
491.06	29336.27
491.24	29305.85
491.41	29387.77
491.59	29441.60
491.77	29579.69
491.95	29860.55
492.13	30518.25
492.30	30522.93
492.48	30707.83
492.66	30359.09
492.84	30925.50
493.01	31108.06
493.19	30895.07
493.37	31297.64
493.54	31550.42
493.72	31899.16
493.90	31861.71
494.08	32116.83
494.25	32620.05
494.43	32290.03
494.61	32971.13
494.79	32786.22
494.96	32758.14
495.14	33160.71
495.32	33701.37
495.49	33083.47
495.67	33778.61
495.85	33914.36
496.02	34036.07
496.20	34459.71
496.38	34323.96
496.55	34651.63
496.73	35122.08
496.91	35030.80
497.09	34976.97
497.26	35302.30
497.44	35232.08
497.62	35606.57
497.79	36486.61
497.97	35742.32
498.14	36027.87
498.32	36697.26
498.50	36802.58
498.67	37186.43
498.85	36961.74
499.03	37036.64
499.20	37305.80
499.38	37064.72
499.56	37394.74
499.73	37654.54
499.91	37818.38
500.08	38398.83
500.26	37572.62
500.44	38068.81
500.61	38426.92
500.79	38108.60
500.97	38452.66
501.14	39000.35
501.32	38789.70
501.49	38913.75
501.67	39103.33
501.84	39241.42
502.02	39056.52
502.20	39388.88
502.37	39508.24
502.55	39751.66
502.72	39899.11
502.90	40130.83
503.07	40034.86
503.25	40187.00
503.43	40346.15
503.60	40835.33
503.78	40666.81
503.95	41064.70
504.13	41001.50
504.30	40793.20
504.48	40795.54
504.65	40751.07
504.83	41801.97
505.01	41792.61
505.18	41539.83
505.36	42005.59
505.53	41804.31
505.71	42087.51
505.88	41951.76
506.06	41731.75
506.23	42323.91
506.41	42443.27
506.58	42597.75
506.76	42831.80
506.93	43019.05
507.11	43070.54
507.28	42932.45
507.46	43309.27
507.63	43285.87
507.81	43599.50
507.98	43346.72
508.16	43892.07
508.33	43665.03
508.50	43889.73
508.68	44184.63
508.85	44252.51
509.03	43981.01
509.20	44367.20
509.38	44734.66
509.55	44903.18
509.73	44666.78
509.90	45038.93
510.08	45296.39
510.25	45144.25
510.42	45481.29
510.60	45521.08
510.77	45757.47
510.95	45509.38
511.12	45883.86
511.30	45567.89
511.47	46108.55
511.64	45492.99
511.82	46216.22
511.99	46457.29
512.17	46192.81
512.34	46178.77
512.51	46916.04
512.69	46759.22
512.86	46681.98
513.04	47129.03
513.21	46705.39
513.38	47089.24
513.56	47756.29
513.73	47147.75
513.90	47299.89
514.08	47330.31
514.25	47342.02
514.43	47819.49
514.60	47927.15
514.77	47442.66
514.95	48362.49
515.12	47896.72
515.29	48250.14
515.47	48051.20
515.64	48369.51
515.81	48451.43
515.99	48421.00
516.16	48945.28
516.33	48596.54
516.51	49429.77
516.68	48868.05
516.85	49214.44
517.03	49347.86
517.20	49127.84
517.37	49226.15
517.54	49436.80
517.72	49485.95
517.89	49167.63
518.06	49530.42
518.24	49771.49
518.41	49418.07
518.58	50017.25
518.75	49495.31
518.93	50050.02
519.10	49907.24
519.27	50251.30
519.45	50068.74
519.62	50295.77
519.79	50595.36
519.96	50351.94
520.14	50534.51
520.31	50398.76
520.48	50995.59
520.65	50532.17
520.83	51019.00
521.00	50927.72
521.17	51105.60
521.34	51114.96
521.52	51503.49
521.69	51107.94
521.86	51447.32
522.03	51749.24
522.20	51693.07
522.38	52013.73
522.55	51613.49
522.72	51494.13
522.89	51831.16
523.07	51922.44
523.24	52137.77
523.41	52231.40
523.58	52013.73
523.75	52112.03
523.92	51835.84
524.10	52383.53
524.27	52325.02
524.44	52549.71
524.61	52640.99
524.78	52662.05
524.96	52547.37
525.13	52605.88
525.30	52825.89
525.47	53251.87
525.64	52935.90
525.81	53137.18
525.98	52956.96
526.16	52729.93
526.33	53003.77
526.50	53413.37
526.67	53230.80
526.84	53237.83
527.01	53277.61
527.18	53357.19
527.36	53415.71
527.53	53162.93
527.70	53722.32
527.87	53832.32
528.04	53338.47
528.21	53530.39
528.38	53567.84
528.55	54319.15
528.72	53815.94
528.89	53806.58
529.07	53783.17
529.24	53902.54
529.41	53989.14
529.58	54417.46
529.75	53855.73
529.92	54176.38
530.09	54195.10
530.26	54272.34
530.43	54330.86
530.60	54014.88
530.77	54164.68
530.94	54468.95
531.11	54293.41
531.28	54541.50
531.46	54623.42
531.63	54674.91
531.80	54588.31
531.97	54560.23
532.14	54667.89
532.31	54958.12
532.48	55044.72
532.65	55028.34
532.82	54735.77
532.99	55089.19
533.16	54869.18
533.33	55131.32
533.50	55384.10
533.67	55208.56
533.84	55068.12
534.01	55276.43
534.18	55412.18
534.35	55716.45
534.52	55391.12
534.69	55707.09
534.86	55400.48
535.03	55320.90
535.20	55688.37
535.37	55597.09
535.54	55428.57
535.71	55557.30
535.88	55814.76
536.05	55742.20
536.22	55618.15
536.38	55789.01
536.55	55938.80
536.72	56051.15
536.89	55657.94
537.06	55931.78
537.23	56144.77
537.40	55847.52
537.57	55997.32
537.74	56121.37
537.91	56444.36
538.08	56147.11
538.25	56116.68
538.42	56250.09
538.59	56374.14
538.75	56306.27
538.92	56203.28
539.09	56589.47
539.26	56460.74
539.43	56507.55
539.60	56388.19
539.77	56657.35
539.94	56835.23
540.11	56683.09
540.28	56573.09
540.44	56542.66
540.61	56673.73
540.78	56662.03
540.95	56594.15
541.12	56680.75
541.29	56647.99
541.46	56889.06
541.62	57080.98
541.79	56978.00
541.96	56486.49
542.13	56821.19
542.30	56949.92
542.47	57083.33
542.63	57308.02
542.80	57099.71
542.97	57158.22
543.14	57485.90
543.31	57570.16
543.48	57418.02
543.64	57532.71
543.81	57453.13
543.98	57415.68
544.15	57640.37
544.32	57951.66
544.48	57743.36
544.65	57631.01
544.82	57836.98
544.99	57696.55
545.16	57963.37
545.32	57638.03
545.49	57832.30
545.66	57937.62
545.83	57970.39
546.00	58206.78
546.16	57911.88
546.33	57879.11
546.50	57708.25
546.67	58232.53
546.83	57769.10
547.00	58056.99
547.17	58019.54
547.34	57993.79
547.50	58183.38
547.67	58520.41
547.84	58204.44
548.00	58415.09
548.17	58403.39
548.34	58529.78
548.51	58471.26
548.67	58623.40
548.84	58445.52
549.01	58394.03
549.18	58387.00
549.34	58529.78
549.51	58581.27
549.68	58571.91
549.84	58546.16
550.01	58557.86
550.18	58384.66
550.34	58712.34
550.51	58731.06
550.68	58700.64
550.84	58520.41
551.01	58684.25
551.18	58932.35
551.34	58693.61
551.51	58920.65
551.68	58817.66
551.84	58812.98
552.01	58812.98
552.18	58976.82
552.34	58899.58
552.51	59121.93
552.68	58904.26
552.84	58827.02
553.01	59224.92
553.18	59128.95
553.34	59143.00
553.51	59009.59
553.67	58960.44
553.84	59285.77
554.01	59243.64
554.17	59348.96
554.34	59363.01
554.51	59100.87
554.67	59262.36
554.84	59398.12
555.00	59365.35
555.17	59150.02
555.33	59346.62
555.50	59260.02
555.67	59253.00
555.83	59386.41
556.00	59381.73
556.16	59784.30
556.33	59533.87
556.50	59543.23
556.66	59543.23
556.83	59578.34
556.99	59594.72
557.16	59821.75
557.32	59709.41
557.49	59711.75
557.65	59739.83
557.82	59669.62
557.98	59416.84
558.15	59653.23
558.32	59746.86
558.48	59725.79
558.65	59639.19
558.81	59704.73
558.98	59941.12
559.14	59814.73
559.31	60114.32
559.47	60100.28
559.64	59758.56
559.80	59903.67
559.97	60170.49
560.13	59800.69
560.30	60048.78
560.46	59903.67
560.63	60051.12
560.79	60184.54
560.96	60018.36
561.12	60161.13
561.29	60048.78
561.45	60175.17
561.61	60306.24
561.78	60062.83
561.94	60030.06
562.11	60093.25
562.27	60186.88
562.44	60210.28
562.60	60493.49
562.77	60299.22
562.93	60058.15
563.10	60294.54
563.26	60079.21
563.42	60479.44
563.59	60322.63
563.75	60348.37
563.92	60245.39
564.08	60348.37
564.24	60425.61
564.41	60420.93
564.57	60416.25
564.74	60556.68
564.90	60488.80
565.07	60594.13
565.23	60257.09
565.39	60315.61
565.56	60378.80
565.72	60303.90
565.88	60601.15
566.05	60437.31
566.21	60423.27
566.38	60519.23
566.54	60470.08
566.70	60605.83
566.87	60617.53
567.03	60460.72
567.19	60816.48
567.36	60552.00
567.52	60584.77
567.68	60654.98
567.85	60580.09
568.01	60762.65
568.17	60594.13
568.34	60725.20
568.50	60713.50
568.66	60671.37
568.83	60713.50
568.99	60704.13
569.15	60718.18
569.32	60547.32
569.48	60617.53
569.64	60760.31
569.81	60680.73
569.97	60746.26
570.13	60769.67
570.30	60657.32
570.46	60933.51
570.62	60783.71
570.78	60664.35
570.95	60739.24
571.11	60685.41
571.27	60818.82
571.43	60940.53
571.60	60912.44
571.76	60863.29
571.92	60898.40
572.09	60903.08
572.25	60949.89
572.41	60914.78
572.57	60769.67
572.74	61076.28
572.90	60900.74
573.06	60867.97
573.22	60809.46
573.38	60891.38
573.55	60835.20
573.71	61190.97
573.87	60935.85
574.03	60853.93
574.20	60952.23
574.36	60809.46
574.52	60858.61
574.68	60975.64
574.84	61284.59
575.01	60917.12
575.17	61010.74
575.33	60839.89
575.49	60952.23
575.65	60973.30
575.82	61066.92
575.98	61080.96
576.14	61256.50
576.30	61258.84
576.46	60977.98
576.62	61165.22
576.79	61015.43
576.95	60811.80
577.11	60987.34
577.27	61127.77
577.43	61048.19
577.59	61123.09
577.75	60973.30
577.92	60825.84
578.08	61179.26
578.24	60977.98
578.40	61123.09
578.56	61261.18
578.72	61015.43
578.88	61333.74
579.04	61427.36
579.21	61062.24
579.37	61394.59
579.53	61212.03
579.69	61048.19
579.85	60942.87
580.01	61031.81
580.17	60945.21
580.33	61062.24
580.49	61172.24
580.65	61010.74
580.82	61050.53
580.98	61038.83
581.14	61076.28
581.30	61418.00
581.46	61141.81
581.62	61258.84
581.78	60928.83
581.94	61160.54
582.10	61230.75
582.26	61045.85
582.42	61305.65
582.58	61324.38
582.74	61123.09
582.90	61226.07
583.06	60999.04
583.22	61029.47
583.38	61305.65
583.54	61322.04
583.70	61132.45
583.86	61235.44
584.02	61120.75
584.18	61090.32
584.34	61289.27
584.50	61219.05
584.66	61031.81
584.82	61219.05
584.98	61418.00
585.14	61345.44
585.30	61022.45
585.46	61195.65
585.62	61186.28
585.78	61338.42
585.94	61279.91
586.10	61251.82
586.26	61361.82
586.42	61205.01
586.58	61373.53
586.74	61200.33
586.90	61263.52
587.06	61361.82
587.22	61396.93
587.38	61394.59
587.54	61399.27
587.70	61291.61
587.86	61378.21
588.02	61485.87
588.18	61453.11
588.34	61186.28
