SpectraSuite Data File
++++++++++++++++++++++++++++++++++++
Date: Fri Oct 25 10:43:18 EDT 2013
User: price-jones
Dark Spectrum Present: No
Reference Spectrum Present: No
Number of Sampled Component Spectra: 1
Spectrometers: USB2+H05261
Integration Time (usec): 100000 (USB2+H05261)
Spectra Averaged: 1 (USB2+H05261)
Boxcar Smoothing: 0 (USB2+H05261)
Correct for Electrical Dark: No (USB2+H05261)
Strobe/Lamp Enabled: No (USB2+H05261)
Correct for Detector Non-linearity: No (USB2+H05261)
Correct for Stray Light: No (USB2+H05261)
Number of Pixels in Processed Spectrum: 2048
>>>>>Begin Processed Spectral Data<<<<<
365.73	135.75
365.92	135.75
366.12	135.75
366.32	28.09
366.52	0.00
366.72	2.34
366.91	140.43
367.11	30.43
367.31	0.00
367.51	79.58
367.70	0.00
367.90	23.41
368.10	0.00
368.30	42.13
368.49	0.00
368.69	44.47
368.89	0.00
369.09	18.72
369.28	39.79
369.48	9.36
369.68	65.54
369.87	102.98
370.07	135.75
370.27	161.50
370.47	217.67
370.66	435.34
370.86	421.30
371.06	491.51
371.25	465.77
371.45	503.22
371.65	496.19
371.84	482.15
372.04	451.72
372.24	449.38
372.44	456.40
372.63	402.57
372.83	507.90
373.03	503.22
373.22	451.72
373.42	535.98
373.62	484.49
373.81	489.17
374.01	543.00
374.21	566.41
374.40	486.83
374.60	585.13
374.79	552.37
374.99	603.86
375.19	552.37
375.38	505.56
375.58	594.50
375.78	596.84
375.97	603.86
376.17	650.67
376.37	690.46
376.56	606.20
376.76	505.56
376.95	770.04
377.15	573.43
377.35	629.60
377.54	641.31
377.74	575.77
377.93	601.52
378.13	688.12
378.33	732.59
378.52	592.16
378.72	709.18
378.91	610.88
379.11	641.31
379.31	720.88
379.50	566.41
379.70	718.54
379.89	744.29
380.09	706.84
380.28	720.88
380.48	674.07
380.68	643.65
380.87	629.60
381.07	748.97
381.26	725.57
381.46	603.86
381.65	582.79
381.85	643.65
382.04	697.48
382.24	653.01
382.43	741.95
382.63	688.12
382.83	697.48
383.02	723.23
383.22	709.18
383.41	699.82
383.61	739.61
383.80	763.01
384.00	737.27
384.19	781.74
384.39	781.74
384.58	828.55
384.78	847.27
384.97	784.08
385.17	795.78
385.36	784.08
385.56	854.30
385.75	718.54
385.95	828.55
386.14	870.68
386.34	807.48
386.53	884.72
386.72	828.55
386.92	875.36
387.11	823.87
387.31	901.11
387.50	760.67
387.70	947.92
387.89	842.59
388.09	905.79
388.28	835.57
388.48	910.47
388.67	891.74
388.86	910.47
389.06	917.49
389.25	985.37
389.45	997.07
389.64	931.53
389.84	1015.79
390.03	1015.79
390.22	959.62
390.42	917.49
390.61	994.73
390.81	1025.15
391.00	1025.15
391.19	1011.11
391.39	1078.99
391.58	1011.11
391.78	1020.47
391.97	987.71
392.16	1034.52
392.36	1057.92
392.55	976.00
392.75	976.00
392.94	1001.75
393.13	1001.75
393.33	933.87
393.52	894.08
393.71	1076.65
393.91	1078.99
394.10	1034.52
394.29	1142.18
394.49	1259.21
394.68	1156.22
394.88	1156.22
395.07	1210.06
395.26	1245.16
395.46	1132.82
395.65	1167.93
395.84	1256.87
396.04	1207.72
396.23	1235.80
396.42	1109.41
396.62	1219.42
396.81	1151.54
397.00	1186.65
397.19	1266.23
397.39	1277.93
397.58	1331.76
397.77	1357.51
397.97	1366.87
398.16	1404.32
398.35	1469.86
398.55	1502.62
398.74	1514.33
398.93	1458.15
399.12	1465.18
399.32	1441.77
399.51	1507.30
399.70	1533.05
399.90	1526.03
400.09	1621.99
400.28	1600.93
400.47	1624.33
400.67	1636.03
400.86	1610.29
401.05	1565.82
401.24	1638.38
401.44	1605.61
401.63	1610.29
401.82	1732.00
402.01	1722.63
402.21	1734.34
402.40	1734.34
402.59	1764.76
402.78	1755.40
402.97	1724.97
403.17	1837.32
403.36	1783.49
403.55	1797.53
403.74	1706.25
403.93	1767.10
404.13	1935.62
404.32	1785.83
404.51	1820.94
404.70	1813.92
404.89	1877.11
405.09	1980.09
405.28	1902.86
405.47	1935.62
405.66	1944.99
405.85	1884.13
406.05	1963.71
406.24	2012.86
406.43	2024.56
406.62	1977.75
406.81	2120.53
407.00	1989.46
407.20	2001.16
407.39	2090.10
407.58	2228.19
407.77	2160.31
407.96	2172.02
408.15	2256.28
408.34	2111.16
408.54	2349.90
408.73	2232.87
408.92	2239.89
409.11	2333.51
409.30	2237.55
409.49	2239.89
409.68	2228.19
409.87	2221.17
410.07	2380.32
410.26	2347.56
410.45	2368.62
410.64	2324.15
410.83	2462.24
411.02	2495.01
411.21	2513.74
411.40	2516.08
411.59	2612.04
411.78	2534.80
411.98	2670.55
412.17	2600.34
412.36	2602.68
412.55	2768.85
412.74	2689.28
412.93	2696.30
413.12	2719.70
413.31	2928.01
413.50	2789.92
413.69	2698.64
413.88	2876.52
414.07	2782.90
414.26	2890.56
414.45	2942.05
414.64	2923.33
414.83	2956.10
415.02	2942.05
415.22	3089.51
415.41	3089.51
415.60	2986.52
415.79	3112.91
415.98	3192.49
416.17	3176.11
416.36	3185.47
416.55	3302.50
416.74	3208.87
416.93	3136.32
417.12	3218.24
417.31	3309.52
417.50	3148.02
417.69	3478.04
417.88	3501.44
418.07	3276.75
418.26	3393.78
418.45	3328.24
418.64	3515.48
418.83	3534.21
419.02	3604.42
419.21	3524.85
419.39	3548.25
419.58	3466.33
419.77	3550.59
419.96	3592.72
420.15	3606.77
420.34	3728.47
420.53	3796.35
420.72	3812.73
420.91	3819.75
421.10	3936.78
421.29	3920.40
421.48	3756.56
421.67	3810.39
421.86	3861.88
422.05	3751.88
422.24	3698.05
422.43	3691.02
422.61	3871.25
422.80	3758.90
422.99	3815.07
423.18	3981.25
423.37	3911.04
423.56	3702.73
423.75	3831.46
423.94	3950.82
424.13	3648.90
424.32	3733.15
424.50	4021.04
424.69	4049.13
424.88	3962.53
425.07	3939.12
425.26	3922.74
425.45	3946.14
425.64	3911.04
425.83	4025.72
426.01	4018.70
426.20	3999.98
426.39	3826.78
426.58	3971.89
426.77	3794.01
426.96	4004.66
427.15	3854.86
427.33	3957.85
427.52	4147.43
427.71	4191.90
427.90	4177.86
428.09	4051.47
428.28	4093.60
428.46	4126.36
428.65	4021.04
428.84	4182.54
429.03	4266.80
429.22	4011.68
429.40	4037.42
429.59	4049.13
429.78	3843.16
429.97	3913.38
430.16	4018.70
430.34	4021.04
430.53	4086.58
430.72	4042.11
430.91	4224.67
431.10	4269.14
431.28	4430.63
431.47	4561.70
431.66	4589.79
431.85	4552.34
432.03	4521.92
432.22	4599.15
432.41	4552.34
432.60	4564.04
432.79	4599.15
432.97	4620.22
433.16	4540.64
433.35	4493.83
433.54	4592.13
433.72	4816.82
433.91	4699.80
434.10	4772.35
434.28	4711.50
434.47	4830.87
434.66	4779.37
434.85	4858.95
435.03	4889.38
435.22	4931.51
435.41	5093.01
435.59	5018.11
435.78	5046.20
435.97	5039.17
436.16	5032.15
436.34	4992.36
436.53	5060.24
436.72	5135.14
436.90	5060.24
437.09	5214.71
437.28	4901.08
437.46	5095.35
437.65	5102.37
437.84	5184.29
438.02	5055.56
438.21	5153.86
438.40	5013.43
438.58	5359.83
438.77	5327.06
438.96	5397.28
439.14	5425.36
439.33	5514.30
439.52	5523.66
439.70	5446.43
439.89	5671.12
440.08	5598.56
440.26	5673.46
440.45	5720.27
440.63	5813.89
440.82	5891.13
441.01	5895.81
441.19	5956.66
441.38	6118.16
441.57	5830.27
441.75	6141.57
441.94	6094.76
442.12	6289.02
442.31	6331.15
442.50	6160.29
442.68	6319.45
442.87	6263.27
443.05	6225.82
443.24	6305.40
443.43	6445.84
443.61	6347.53
443.80	6612.01
443.98	6441.15
444.17	6174.33
444.35	6441.15
444.54	6553.50
444.73	6415.41
444.91	6593.29
445.10	6356.90
445.28	6483.28
445.47	6258.59
445.65	6342.85
445.84	6347.53
446.02	6546.48
446.21	6600.31
446.39	6431.79
446.58	6415.41
446.77	6476.26
446.95	6443.49
447.14	6670.53
447.32	6626.06
447.51	6757.13
447.69	6597.97
447.88	6520.73
448.06	6619.04
448.25	6649.46
448.43	6670.53
448.62	6670.53
448.80	6600.31
448.99	6773.51
449.17	6527.75
449.36	6593.29
449.54	6799.26
449.73	7068.42
449.91	7145.66
450.10	7049.69
450.28	7166.72
450.46	6913.94
450.65	7112.89
450.83	7276.73
451.02	7066.08
451.20	7187.79
451.39	7250.98
451.57	6998.20
451.76	6988.84
451.94	7248.64
452.13	7159.70
452.31	7117.57
452.49	7129.27
452.68	7126.93
452.86	7110.55
453.05	7087.14
453.23	7356.30
453.42	7239.28
453.60	7276.73
453.78	7283.75
453.97	7117.57
454.15	7318.86
454.34	7180.76
454.52	7438.22
454.70	7393.75
454.89	7234.60
455.07	7262.68
455.26	7592.70
455.44	7470.99
455.62	7641.85
455.81	7602.06
455.99	7524.82
456.17	7735.47
456.36	7810.37
456.54	7941.44
456.73	7950.80
456.91	7981.23
457.09	7908.67
457.28	8212.94
457.46	7864.20
457.64	7962.50
457.83	8098.25
458.01	7709.72
458.19	8229.32
458.38	8140.38
458.56	8109.96
458.74	7971.86
458.93	8306.56
459.11	7964.84
459.29	8163.79
459.48	8372.10
459.66	8086.55
459.84	8379.12
460.03	8470.40
460.21	8496.14
460.39	8624.87
460.57	8568.70
460.76	8538.27
460.94	8580.40
461.12	8547.64
461.31	8610.83
461.49	8615.51
461.67	8545.30
461.85	8919.78
462.04	8767.65
462.22	8987.66
462.40	8912.76
462.59	8669.34
462.77	8802.75
462.95	8606.15
463.13	8676.37
463.32	8688.07
463.50	8865.95
463.68	9015.74
463.86	9036.81
464.05	8748.92
464.23	8840.20
464.41	8877.65
464.59	8699.77
464.78	8959.57
464.96	9060.21
465.14	8826.16
465.32	9195.96
465.50	8933.82
465.69	9121.07
465.87	9137.45
466.05	9076.60
466.23	8924.46
466.41	8931.48
466.60	9558.75
466.78	9008.72
466.96	9071.92
467.14	9226.39
467.32	9259.16
467.51	9284.91
467.69	9217.03
467.87	9111.71
468.05	9633.64
468.23	9359.80
468.41	9289.59
468.60	9537.68
468.78	9582.15
468.96	9193.62
469.14	9528.32
469.32	9638.33
469.50	9350.44
469.69	9591.52
469.87	9593.86
470.05	9661.73
470.23	9593.86
470.41	9818.55
470.59	9905.15
470.77	9895.78
470.95	9921.53
471.14	9949.62
471.32	9785.78
471.50	10349.85
471.68	10307.72
471.86	10443.47
472.04	10267.93
472.22	10434.11
472.40	10146.22
472.58	10396.66
472.77	10415.38
472.95	10523.05
473.13	10892.85
473.31	10480.92
473.49	10485.60
473.67	10609.65
473.85	10740.72
474.03	10817.96
474.21	10693.91
474.39	10909.24
474.57	10799.23
474.75	11133.93
474.93	11215.85
475.12	11063.71
475.30	11103.50
475.48	11096.48
475.66	11178.40
475.84	10960.73
476.02	11358.62
476.20	11417.13
476.38	11396.07
476.56	11920.35
476.74	12002.27
476.92	11800.98
477.10	11859.49
477.28	11800.98
477.46	11955.46
477.64	12126.32
477.82	12329.94
478.00	12297.17
478.18	12121.63
478.36	12629.53
478.54	12610.81
478.72	12524.21
478.90	12901.03
479.08	12772.30
479.26	12945.50
479.44	12877.63
479.62	13142.11
479.80	13226.37
479.98	13109.34
480.16	13509.57
480.34	13547.02
480.52	13514.25
480.70	13350.42
480.88	13355.10
481.06	13802.14
481.24	13785.76
481.41	13968.32
481.59	14427.06
481.77	14279.61
481.95	14120.45
482.13	14597.92
482.31	14310.04
482.49	14593.24
482.67	14647.07
482.85	14871.76
483.03	15115.18
483.21	15283.70
483.39	15166.67
483.57	15021.56
483.74	15332.85
483.92	15360.94
484.10	15627.76
484.28	15655.84
484.46	16086.50
484.64	16032.67
484.82	15768.19
485.00	15840.75
485.18	16238.64
485.35	16538.23
485.53	16133.31
485.71	16149.70
485.89	16018.63
486.07	16198.85
486.25	16369.71
486.43	16681.00
486.61	16498.44
486.78	17064.85
486.96	17114.00
487.14	17392.52
487.32	17345.71
487.50	17752.96
487.68	17708.49
487.85	18127.45
488.03	18331.08
488.21	18207.03
488.39	18328.74
488.57	18445.76
488.75	18553.43
488.92	18771.10
489.10	18801.52
489.28	19150.26
489.46	19440.49
489.64	19419.42
489.81	19735.40
489.99	20116.90
490.17	20100.52
490.35	20159.03
490.53	20236.27
490.70	19995.20
490.88	20313.51
491.06	20414.15
491.24	20613.10
491.41	20664.59
491.59	20582.67
491.77	20329.89
491.95	20872.90
492.13	20985.24
492.30	21319.94
492.48	21591.44
492.66	21568.04
492.84	21839.54
493.01	22284.24
493.19	21783.37
493.37	22228.07
493.54	22017.42
493.72	22473.82
493.90	22204.66
494.08	22902.14
494.25	22787.46
494.43	23049.60
494.61	23049.60
494.79	23456.85
494.96	23103.43
495.14	23531.75
495.32	23166.62
495.49	23426.42
495.67	23569.19
495.85	23999.85
496.02	23929.64
496.20	24191.78
496.38	24301.78
496.55	24318.17
496.73	24542.86
496.91	24257.31
497.09	24739.46
497.26	24893.94
497.44	25139.69
497.62	24725.42
497.79	25359.70
497.97	25113.95
498.14	25064.80
498.32	25446.30
498.50	25427.58
498.67	25427.58
498.85	25605.46
499.03	25827.81
499.20	25713.13
499.38	26174.21
499.56	26398.90
499.73	26122.72
499.91	26024.42
500.08	26532.31
500.26	26061.87
500.44	26225.70
500.61	26642.32
500.79	26132.08
500.97	26808.50
501.14	26717.22
501.32	26689.13
501.49	26700.83
501.67	27129.15
501.84	27285.97
502.02	27489.59
502.20	27496.61
502.37	27428.74
502.55	27300.01
502.72	27515.34
502.90	27580.87
503.07	27763.43
503.25	28046.64
503.43	27714.28
503.60	27936.63
503.78	27969.40
503.95	27938.97
504.13	27931.95
504.30	28423.47
504.48	28467.94
504.65	28634.11
504.83	28252.61
505.01	28952.43
505.18	28751.14
505.36	29303.51
505.53	29158.39
505.71	29305.85
505.88	29364.36
506.06	29181.80
506.23	29404.15
506.41	29535.22
506.58	29420.53
506.76	29469.69
506.93	29724.80
507.11	29600.76
507.28	29652.25
507.46	29497.77
507.63	29582.03
507.81	29785.66
507.98	29839.49
508.16	30237.38
508.33	30237.38
508.50	30604.84
508.68	30457.39
508.85	30845.92
509.03	30696.13
509.20	30941.88
509.38	31496.59
509.55	30883.37
509.73	31047.21
509.90	31285.94
510.08	31372.54
510.25	31054.23
510.42	31211.04
510.60	31435.74
510.77	31812.56
510.95	31782.13
511.12	31185.30
511.30	31646.38
511.47	32161.30
511.64	31971.72
511.82	31873.42
511.99	32006.83
512.17	32322.80
512.34	31908.52
512.51	32327.48
512.69	32273.65
512.86	32554.51
513.04	32706.65
513.21	32851.76
513.38	32524.08
513.56	32327.48
513.73	32175.34
513.90	32697.28
514.08	32676.22
514.25	32793.25
514.43	33102.20
514.60	33214.54
514.77	32943.04
514.95	33270.72
515.12	32896.23
515.29	33195.82
515.47	33647.54
515.64	33937.77
515.81	33567.96
515.99	33619.46
516.16	33006.23
516.33	33450.94
516.51	33640.52
516.68	33195.82
516.85	32947.72
517.03	33420.51
517.20	34073.52
517.37	34164.80
517.54	34768.66
517.72	33818.40
517.89	33640.52
518.06	33479.02
518.24	33429.87
518.41	34075.86
518.58	34345.02
518.75	34387.15
518.93	34227.99
519.10	34192.89
519.27	34871.64
519.45	34927.81
519.62	34822.49
519.79	35225.06
519.96	34948.88
520.14	35023.78
520.31	34944.20
520.48	35665.08
520.65	35204.00
520.83	35683.81
521.00	35646.36
521.17	35503.59
521.34	35470.82
521.52	35538.69
521.69	35744.66
521.86	35910.84
522.03	36137.87
522.20	36287.67
522.38	36355.54
522.55	36034.89
522.72	36039.57
522.89	35889.77
523.07	36786.20
523.24	36240.86
523.41	36034.89
523.58	36208.09
523.75	36938.33
523.92	36514.70
524.10	37387.72
524.27	37146.64
524.44	36514.70
524.61	37251.97
524.78	37069.40
524.96	37216.86
525.13	37132.60
525.30	37053.02
525.47	37226.22
525.64	37186.43
525.81	37479.00
525.98	37085.79
526.16	36755.77
526.33	36982.80
526.50	37312.82
526.67	37090.47
526.84	37078.77
527.01	36919.61
527.18	37237.92
527.36	37773.91
527.53	37769.22
527.70	38007.96
527.87	38274.78
528.04	37563.26
528.21	38263.08
528.38	38321.59
528.55	38206.90
528.72	38265.42
528.89	38499.47
529.07	37963.49
529.24	38057.11
529.41	38359.04
529.58	38047.75
529.75	38691.40
529.92	38759.27
530.09	39051.84
530.26	38822.47
530.43	38628.20
530.60	38794.38
530.77	39129.08
530.94	39484.84
531.11	38878.64
531.28	38845.87
531.46	39306.96
531.63	39173.55
531.80	39002.69
531.97	39030.77
532.14	38632.88
532.31	38553.30
532.48	39299.94
532.65	39241.42
532.82	39005.03
532.99	39510.58
533.16	39328.02
533.33	39477.82
533.50	39803.15
533.67	39805.49
533.84	39433.35
534.01	40252.53
534.18	39573.78
534.35	40273.60
534.52	39772.72
534.69	40002.10
534.86	40233.81
535.03	39662.72
535.20	40629.36
535.37	40589.57
535.54	40643.40
535.71	40612.98
535.88	40053.59
536.05	40147.21
536.22	40610.64
536.38	40526.38
536.55	40472.54
536.72	40395.31
536.89	39814.85
537.06	39962.31
537.23	40133.17
537.40	40446.80
537.57	40641.06
537.74	40896.18
537.91	41188.75
538.08	41038.95
538.25	40568.51
538.42	40734.68
538.59	40954.69
538.75	40928.95
538.92	41137.26
539.09	40879.80
539.26	40718.30
539.43	41205.13
539.60	41081.08
539.77	41008.53
539.94	40678.51
540.11	41277.69
540.28	41141.94
540.44	41422.80
540.61	41247.26
540.78	41291.73
540.95	41188.75
541.12	41219.17
541.29	41626.43
541.46	41188.75
541.62	41537.49
541.79	41495.36
541.96	41195.77
542.13	41256.62
542.30	41752.82
542.47	41654.51
542.63	41696.64
542.80	41469.61
542.97	42171.77
543.14	42000.91
543.31	41858.14
543.48	42066.45
543.64	42089.85
543.81	42487.74
543.98	42417.53
544.15	42223.26
544.32	42630.52
544.48	42712.44
544.65	42054.75
544.82	42466.68
544.99	42223.26
545.16	42579.03
545.32	42586.05
545.49	42913.72
545.66	42792.01
545.83	42534.56
546.00	42913.72
546.16	43075.22
546.33	42394.12
546.50	42335.61
546.67	42817.76
546.83	42541.58
547.00	42728.82
547.17	43234.38
547.34	42539.24
547.50	43040.11
547.67	43086.92
547.84	42913.72
548.00	43400.55
548.17	43758.66
548.34	43590.14
548.51	43625.25
548.67	43522.26
548.84	43103.31
549.01	43070.54
549.18	43232.04
549.34	43477.79
549.51	43377.15
549.68	43789.08
549.84	43573.75
550.01	43849.94
550.18	43304.59
550.34	43878.02
550.51	43620.56
550.68	43674.40
550.84	43271.82
551.01	43627.59
551.18	43690.78
551.34	43569.07
551.51	43908.45
551.68	43889.73
551.84	43966.96
552.01	43667.37
552.18	43606.52
552.34	43601.84
552.51	44126.12
552.68	44172.93
552.84	44044.20
553.01	44238.47
553.18	44086.33
553.34	43983.35
553.51	44325.07
553.67	44449.11
553.84	44327.41
554.01	44353.15
554.17	44245.49
554.34	44603.59
554.51	44584.86
554.67	44446.77
554.84	44306.34
555.00	44378.90
555.17	44416.35
555.33	44360.17
555.50	44322.72
555.67	44505.29
555.83	44083.99
556.00	44458.48
556.16	44584.86
556.33	44491.24
556.50	44339.11
556.66	44987.44
556.83	44353.15
556.99	44882.11
557.16	44732.32
557.32	44800.19
557.49	44706.57
557.65	44296.98
557.82	44367.20
557.98	45050.63
558.15	44650.40
558.32	44638.70
558.48	44327.41
558.65	44535.71
558.81	44498.26
558.98	44669.12
559.14	44839.98
559.31	44423.37
559.47	44779.13
559.64	44690.19
559.80	44671.46
559.97	44526.35
560.13	44540.39
560.30	44926.58
560.46	44542.74
560.63	45205.11
560.79	44708.91
560.96	45504.70
561.12	45064.67
561.29	44692.53
561.45	45263.62
561.61	44788.49
561.78	44816.58
561.94	44463.16
562.11	44699.55
562.27	44863.39
562.44	45188.72
562.60	45530.44
562.77	45177.02
562.93	44985.10
563.10	45289.37
563.26	44671.46
563.42	45097.44
563.59	45179.36
563.75	45170.00
563.92	45010.84
564.08	45059.99
564.24	45291.71
564.41	45151.27
564.57	45263.62
564.74	45308.09
564.90	45340.86
565.07	45380.65
565.23	45338.52
565.39	45483.63
565.56	45549.17
565.72	44905.52
565.88	45497.67
566.05	45151.27
566.21	44858.71
566.38	45322.13
566.54	45099.78
566.70	45464.91
566.87	45638.11
567.03	45434.48
567.19	46110.89
567.36	45504.70
567.52	45544.48
567.68	45490.65
567.85	44982.76
568.01	45865.14
568.17	45535.12
568.34	45668.53
568.50	45324.47
568.66	45139.57
568.83	45771.52
568.99	45310.43
569.15	45289.37
569.32	45170.00
569.48	44999.14
569.64	45535.12
569.81	45720.02
569.97	45399.37
570.13	45588.95
570.30	44882.11
570.46	45193.40
570.62	45095.10
570.78	45188.72
570.95	45146.59
571.11	45350.22
571.27	45710.66
571.43	45546.82
571.60	45502.35
571.76	45333.84
571.92	45724.71
572.09	45385.33
572.25	45509.38
572.41	45869.82
572.57	45961.10
572.74	46064.08
572.90	45595.98
573.06	45476.61
573.22	45666.19
573.38	45558.53
573.55	45886.20
573.71	45853.44
573.87	45968.12
574.03	45614.70
574.20	45467.25
574.36	45495.33
574.52	45710.66
574.68	45923.65
574.84	45406.39
575.01	46021.95
575.17	45666.19
575.33	45481.29
575.49	45441.50
575.65	45535.12
575.82	45347.88
575.98	45963.44
576.14	45989.19
576.30	45469.59
576.46	45237.87
576.62	45443.84
576.79	45553.85
576.95	45375.97
577.11	45581.93
577.27	45436.82
577.43	45418.10
577.59	45551.51
577.75	45357.24
577.92	45151.27
578.08	44886.79
578.24	45544.48
578.40	45399.37
578.56	45420.44
578.72	45556.19
578.88	45937.69
579.04	45654.49
579.21	45312.77
579.37	45453.20
579.53	45642.79
579.69	45460.23
579.85	45326.81
580.01	45556.19
580.17	45258.94
580.33	45888.54
580.49	45439.16
580.65	45382.99
580.82	45387.67
580.98	45530.44
581.14	45511.72
581.30	45593.64
581.46	45390.01
581.62	46061.74
581.78	45415.76
581.94	45888.54
582.10	45713.00
582.26	45834.71
582.42	45799.60
582.58	45752.79
582.74	45656.83
582.90	45872.16
583.06	46043.02
583.22	46031.32
583.38	45986.85
583.54	45757.47
583.70	45741.09
583.86	46066.42
584.02	45886.20
584.18	45984.51
584.34	45521.08
584.50	45722.37
584.66	45862.80
584.82	45813.65
584.98	45996.21
585.14	45879.18
585.30	45408.73
585.46	45345.54
585.62	45418.10
585.78	46005.57
585.94	45312.77
586.10	45666.19
586.26	45603.00
586.42	45867.48
586.58	45869.82
586.74	45514.06
586.90	45914.29
587.06	45759.81
587.22	45464.91
587.38	45752.79
587.54	45785.56
587.70	46010.25
587.86	45893.22
588.02	45570.23
588.18	45853.44
588.34	45436.82
588.49	45268.30
588.65	45027.23
588.81	44989.78
588.97	45331.50
589.13	45237.87
589.29	45736.41
589.45	45141.91
589.61	45823.01
589.77	45975.14
589.93	45654.49
590.08	45837.05
