SpectraSuite Data File
++++++++++++++++++++++++++++++++++++
Date: Fri Oct 25 10:43:48 EDT 2013
User: price-jones
Dark Spectrum Present: No
Reference Spectrum Present: No
Number of Sampled Component Spectra: 1
Spectrometers: USB2+H05261
Integration Time (usec): 100000 (USB2+H05261)
Spectra Averaged: 1 (USB2+H05261)
Boxcar Smoothing: 0 (USB2+H05261)
Correct for Electrical Dark: No (USB2+H05261)
Strobe/Lamp Enabled: No (USB2+H05261)
Correct for Detector Non-linearity: No (USB2+H05261)
Correct for Stray Light: No (USB2+H05261)
Number of Pixels in Processed Spectrum: 2048
>>>>>Begin Processed Spectral Data<<<<<
365.73	156.82
365.92	156.82
366.12	156.82
366.32	21.06
366.52	42.13
366.72	58.51
366.91	21.06
367.11	9.36
367.31	35.11
367.51	4.68
367.70	0.00
367.90	0.00
368.10	46.81
368.30	42.13
368.49	16.38
368.69	35.11
368.89	0.00
369.09	0.00
369.28	131.07
369.48	11.70
369.68	65.54
369.87	72.56
370.07	159.16
370.27	128.73
370.47	170.86
370.66	411.93
370.86	407.25
371.06	376.83
371.25	372.15
371.45	435.34
371.65	414.27
371.84	437.68
372.04	482.15
372.24	479.81
372.44	477.47
372.63	451.72
372.83	535.98
373.03	463.43
373.22	507.90
373.42	486.83
373.62	543.00
373.81	545.34
374.01	491.51
374.21	589.82
374.40	561.73
374.60	545.34
374.79	561.73
374.99	610.88
375.19	535.98
375.38	582.79
375.58	573.43
375.78	634.29
375.97	585.13
376.17	571.09
376.37	608.54
376.56	599.18
376.76	566.41
376.95	671.73
377.15	641.31
377.35	678.76
377.54	711.52
377.74	634.29
377.93	578.11
378.13	695.14
378.33	697.48
378.52	650.67
378.72	692.80
378.91	697.48
379.11	627.26
379.31	622.58
379.50	559.39
379.70	711.52
379.89	676.41
380.09	653.01
380.28	755.99
380.48	671.73
380.68	629.60
380.87	624.92
381.07	688.12
381.26	755.99
381.46	671.73
381.65	678.76
381.85	683.44
382.04	685.78
382.24	641.31
382.43	690.46
382.63	699.82
382.83	674.07
383.02	760.67
383.22	765.36
383.41	763.01
383.61	702.16
383.80	763.01
384.00	786.42
384.19	772.38
384.39	753.65
384.58	861.32
384.78	805.14
384.97	798.12
385.17	795.78
385.36	809.83
385.56	821.53
385.75	763.01
385.95	877.70
386.14	847.27
386.34	851.96
386.53	866.00
386.72	875.36
386.92	847.27
387.11	880.04
387.31	868.34
387.50	875.36
387.70	875.36
387.89	880.04
388.09	922.17
388.28	884.72
388.48	863.66
388.67	887.06
388.86	992.39
389.06	999.41
389.25	945.58
389.45	884.72
389.64	1001.75
389.84	1020.47
390.03	1104.73
390.22	1025.15
390.42	1022.81
390.61	976.00
390.81	1111.75
391.00	1032.18
391.19	1074.31
391.39	1062.60
391.58	1001.75
391.78	990.05
391.97	1022.81
392.16	1004.09
392.36	1104.73
392.55	922.17
392.75	1025.15
392.94	957.28
393.13	994.73
393.33	1006.43
393.52	1048.56
393.71	1121.12
393.91	1086.01
394.10	1128.14
394.29	1167.93
394.49	1123.46
394.68	1163.25
394.88	1207.72
395.07	1254.53
395.26	1205.38
395.46	1240.48
395.65	1221.76
395.84	1186.65
396.04	1261.55
396.23	1219.42
396.42	1219.42
396.62	1205.38
396.81	1149.20
397.00	1177.29
397.19	1235.80
397.39	1268.57
397.58	1357.51
397.77	1411.34
397.97	1338.79
398.16	1462.83
398.35	1425.39
398.55	1355.17
398.74	1409.00
398.93	1617.31
399.12	1533.05
399.32	1479.22
399.51	1511.99
399.70	1568.16
399.90	1486.24
400.09	1479.22
400.28	1629.01
400.47	1556.46
400.67	1666.46
400.86	1579.86
401.05	1694.55
401.24	1668.80
401.44	1685.19
401.63	1720.29
401.82	1643.06
402.01	1694.55
402.21	1767.10
402.40	1771.79
402.59	1802.21
402.78	1809.23
402.97	1685.19
403.17	1792.85
403.36	1757.74
403.55	1785.83
403.74	1750.72
403.93	1884.13
404.13	1860.73
404.32	1872.43
404.51	1900.52
404.70	1839.66
404.89	2005.84
405.09	2054.99
405.28	2031.58
405.47	1886.47
405.66	2022.22
405.85	2019.88
406.05	1977.75
406.24	1994.14
406.43	2015.20
406.62	2008.18
406.81	2190.74
407.00	2069.03
407.20	2069.03
407.39	2087.76
407.58	2148.61
407.77	2190.74
407.96	2179.04
408.15	2183.72
408.34	2195.42
408.54	2232.87
408.73	2396.71
408.92	2258.62
409.11	2242.23
409.30	2319.47
409.49	2230.53
409.68	2223.51
409.87	2188.40
410.07	2307.77
410.26	2282.02
410.45	2445.86
410.64	2335.85
410.83	2555.86
411.02	2464.58
411.21	2576.93
411.40	2612.04
411.59	2637.78
411.78	2640.12
411.98	2630.76
412.17	2717.36
412.36	2705.66
412.55	2579.27
412.74	2649.49
412.93	2675.23
413.12	2689.28
413.31	2832.05
413.50	2799.28
413.69	2857.79
413.88	2906.95
414.07	2773.53
414.26	3019.29
414.45	2937.37
414.64	2972.48
414.83	3049.72
415.02	3009.93
415.22	3124.62
415.41	3087.17
415.60	3206.53
415.79	3045.04
415.98	3309.52
416.17	3255.69
416.36	3136.32
416.55	3185.47
416.74	3269.73
416.93	3311.86
417.12	3302.50
417.31	3190.15
417.50	3328.24
417.69	3492.08
417.88	3400.80
418.07	3375.05
418.26	3358.67
418.45	3471.01
418.64	3576.34
418.83	3590.38
419.02	3632.51
419.21	3639.53
419.39	3527.19
419.58	3496.76
419.77	3527.19
419.96	3616.13
420.15	3602.08
420.34	3758.90
420.53	3709.75
420.72	3896.99
420.91	3887.63
421.10	3700.39
421.29	3868.91
421.48	3765.92
421.67	3829.12
421.86	3758.90
422.05	3901.67
422.24	3733.15
422.43	3754.22
422.61	3955.51
422.80	3840.82
422.99	3868.91
423.18	3896.99
423.37	3838.48
423.56	3971.89
423.75	4028.06
423.94	3742.52
424.13	3644.21
424.32	3716.77
424.50	3929.76
424.69	3988.27
424.88	3962.53
425.07	3885.29
425.26	3932.10
425.45	3887.63
425.64	4011.68
425.83	3985.93
426.01	3992.95
426.20	3925.08
426.39	3899.33
426.58	3983.59
426.77	3974.23
426.96	3964.87
427.15	3901.67
427.33	3976.57
427.52	4028.06
427.71	4262.12
427.90	4112.32
428.09	4109.98
428.28	4023.38
428.46	4077.21
428.65	4093.60
428.84	4224.67
429.03	4278.50
429.22	4058.49
429.40	4072.53
429.59	4079.55
429.78	3859.54
429.97	3999.98
430.16	4016.36
430.34	4102.96
430.53	4194.24
430.72	4159.13
430.91	4241.05
431.10	4250.41
431.28	4472.76
431.47	4667.03
431.66	4622.56
431.85	4437.66
432.03	4631.92
432.22	4744.27
432.41	4641.28
432.60	4533.62
432.79	4617.88
432.97	4620.22
433.16	4704.48
433.35	4730.22
433.54	4753.63
433.72	4725.54
433.91	4664.69
434.10	4805.12
434.28	4645.96
434.47	4933.85
434.66	5036.83
434.85	4856.61
435.03	4917.47
435.22	5006.41
435.41	5085.98
435.59	5156.20
435.78	4950.23
435.97	5291.95
436.16	5095.35
436.34	5090.67
436.53	5121.09
436.72	5287.27
436.90	5022.79
437.09	5149.18
437.28	5151.52
437.46	5247.48
437.65	5214.71
437.84	5165.56
438.02	5191.31
438.21	5207.69
438.40	5107.05
438.58	5380.89
438.77	5371.53
438.96	5369.19
439.14	5411.32
439.33	5439.40
439.52	5671.12
439.70	5619.63
439.89	5647.71
440.08	5565.79
440.26	5715.59
440.45	5624.31
440.63	5858.36
440.82	5987.09
441.01	5790.49
441.19	6059.65
441.38	5996.45
441.57	6003.47
441.75	6132.20
441.94	6289.02
442.12	6279.66
442.31	6375.62
442.50	6319.45
442.68	6136.88
442.87	6101.78
443.05	6296.04
443.24	6462.22
443.43	6307.74
443.61	6541.80
443.80	6630.74
443.98	6310.08
444.17	6354.55
444.35	6403.71
444.54	6626.06
444.73	6698.61
444.91	6274.98
445.10	6516.05
445.28	6455.20
445.47	6406.05
445.65	6438.81
445.84	6628.40
446.02	6441.15
446.21	6574.56
446.39	6621.38
446.58	6546.48
446.77	6743.08
446.95	6537.12
447.14	6623.72
447.32	6810.96
447.51	6586.27
447.69	6422.43
447.88	6654.14
448.06	6656.48
448.25	6679.89
448.43	6679.89
448.62	6761.81
448.80	6754.79
448.99	6712.66
449.17	6839.05
449.36	6799.26
449.54	6820.32
449.73	7012.24
449.91	7204.17
450.10	7061.40
450.28	7318.86
450.46	7204.17
450.65	7328.22
450.83	7211.19
451.02	7180.76
451.20	7140.97
451.39	7115.23
451.57	7211.19
451.76	7265.02
451.94	7117.57
452.13	7220.55
452.31	7190.13
452.49	7075.44
452.68	7091.82
452.86	7246.30
453.05	7253.32
453.23	7290.77
453.42	7166.72
453.60	7311.83
453.78	7384.39
453.97	7470.99
454.15	7232.26
454.34	7176.08
454.52	7552.91
454.70	7433.54
454.89	7693.34
455.07	7590.36
455.26	7552.91
455.44	7775.26
455.62	7728.45
455.81	7646.53
455.99	7747.17
456.17	7847.82
456.36	7934.42
456.54	7934.42
456.73	7817.39
456.91	8091.23
457.09	8025.70
457.28	8212.94
457.46	8023.36
457.64	8067.83
457.83	8079.53
458.01	8154.43
458.19	8287.84
458.38	7927.39
458.56	8138.04
458.74	8126.34
458.93	8231.66
459.11	8170.81
459.29	8301.88
459.48	8238.69
459.66	8166.13
459.84	8159.11
460.03	8610.83
460.21	8545.30
460.39	8287.84
460.57	8313.58
460.76	8535.93
460.94	8592.11
461.12	8386.14
461.31	8599.13
461.49	8521.89
461.67	8603.81
461.85	8627.21
462.04	8709.13
462.22	9020.42
462.40	8716.16
462.59	8933.82
462.77	8936.17
462.95	8821.48
463.13	8767.65
463.32	8917.44
463.50	8891.70
463.68	8968.93
463.86	8805.10
464.05	8929.14
464.23	8812.12
464.41	8833.18
464.59	8741.90
464.78	9048.51
464.96	9221.71
465.14	9071.92
465.32	9118.73
465.50	9036.81
465.69	9179.58
465.87	9170.22
466.05	9179.58
466.23	9261.50
466.41	9090.64
466.60	9364.48
466.78	9067.24
466.96	9270.86
467.14	9011.06
467.32	9174.90
467.51	9341.08
467.69	9074.26
467.87	9350.44
468.05	9507.26
468.23	9593.86
468.41	9324.69
468.60	9514.28
468.78	9633.64
468.96	9540.02
469.14	9575.13
469.32	9628.96
469.50	9338.74
469.69	9710.88
469.87	9804.50
470.05	10029.20
470.23	9909.83
470.41	9731.95
470.59	9919.19
470.77	9703.86
470.95	10064.30
471.14	10071.33
471.32	9563.43
471.50	10134.52
471.68	10115.80
471.86	10085.37
472.04	10349.85
472.22	10630.71
472.40	10225.80
472.58	10235.16
472.77	10303.04
472.95	10445.81
473.13	10916.26
473.31	10476.24
473.49	10579.22
473.67	10506.66
473.85	10724.33
474.03	11037.97
474.21	10949.03
474.39	11075.42
474.57	10930.30
474.75	11087.12
474.93	11091.80
475.12	10930.30
475.30	11274.36
475.48	10965.41
475.66	11201.80
475.84	11236.91
476.02	11440.54
476.20	11178.40
476.38	11480.33
476.56	11819.71
476.74	11808.00
476.92	11625.44
477.10	11740.13
477.28	12056.10
477.46	12053.76
477.64	12243.34
477.82	12404.84
478.00	12634.21
478.18	12582.72
478.36	12603.78
478.54	12613.15
478.72	12477.40
478.90	12851.88
479.08	12915.08
479.26	13146.79
479.44	13116.36
479.62	13231.05
479.80	13261.48
479.98	13378.50
480.16	13689.79
480.34	13654.69
480.52	13738.94
480.70	13884.06
480.88	13788.10
481.06	13895.76
481.24	13757.67
481.41	14061.94
481.59	14354.51
481.77	14544.09
481.95	14277.27
482.13	14452.81
482.31	14506.64
482.49	14881.13
482.67	14857.72
482.85	15110.50
483.03	15382.00
483.21	15372.64
483.39	15391.36
483.57	15147.95
483.74	15283.70
483.92	15557.54
484.10	15517.75
484.28	15838.41
484.46	16308.85
484.64	16149.70
484.82	15894.58
485.00	16079.48
485.18	16313.53
485.35	16503.12
485.53	16149.70
485.71	16042.03
485.89	16369.71
486.07	16285.45
486.25	16692.70
486.43	16463.33
486.61	17067.19
486.78	17078.89
486.96	17481.46
487.14	17654.66
487.32	17565.72
487.50	17905.10
487.68	17710.83
487.85	17881.69
488.03	18747.69
488.21	18476.19
488.39	18658.75
488.57	18691.52
488.75	18523.00
488.92	18810.89
489.10	19461.55
489.28	19449.85
489.46	19590.28
489.64	19609.01
489.81	20084.14
489.99	19929.66
490.17	20009.24
490.35	20231.59
490.53	20453.94
490.70	20121.59
490.88	20442.24
491.06	20690.34
491.24	20365.00
491.41	20365.00
491.59	20643.52
491.77	20680.97
491.95	20985.24
492.13	21394.84
492.30	21223.98
492.48	21387.82
492.66	21640.59
492.84	21759.96
493.01	22237.43
493.19	22052.53
493.37	21982.31
493.54	22092.32
493.72	22441.06
493.90	22752.35
494.08	22923.21
494.25	22792.14
494.43	23087.04
494.61	23295.35
494.79	23332.80
494.96	23159.60
495.14	23133.86
495.32	23613.66
495.49	23536.43
495.67	23405.36
495.85	23866.44
496.02	23992.83
496.20	24189.44
496.38	24451.58
496.55	24156.67
496.73	24863.51
496.91	24671.59
497.09	25081.18
497.26	25355.02
497.44	24819.04
497.62	25090.54
497.79	25188.85
497.97	24919.68
498.14	25275.45
498.32	25074.16
498.50	25202.89
498.67	25961.22
498.85	25715.47
499.03	25975.27
499.20	25998.67
499.38	26127.40
499.56	26448.05
499.73	26197.62
499.91	26527.63
500.08	26602.53
500.26	26111.02
500.44	26656.36
500.61	26696.15
500.79	26270.17
500.97	26728.92
501.14	26939.57
501.32	27101.06
501.49	26897.44
501.67	27129.15
501.84	27026.17
502.02	27276.60
502.20	27660.45
502.37	27828.97
502.55	27611.30
502.72	27896.85
502.90	28009.19
503.07	27639.39
503.25	28058.34
503.43	28212.82
503.60	28079.41
503.78	27880.46
503.95	27850.03
504.13	28158.99
504.30	28655.18
504.48	28610.71
504.65	29118.60
504.83	28954.77
505.01	28929.02
505.18	29088.18
505.36	29420.53
505.53	29322.23
505.71	29713.10
505.88	29544.58
506.06	28804.97
506.23	29523.52
506.41	29427.56
506.58	29675.65
506.76	29820.77
506.93	30148.44
507.11	29675.65
507.28	29759.91
507.46	29862.90
507.63	29982.26
507.81	29923.75
507.98	29986.94
508.16	30448.03
508.33	30520.59
508.50	30443.35
508.68	31012.10
508.85	30962.95
509.03	30761.66
509.20	31072.95
509.38	30918.48
509.55	31335.09
509.73	31225.09
509.90	31398.29
510.08	31096.36
510.25	31534.04
510.42	31405.31
510.60	31466.16
510.77	31627.66
510.95	31915.54
511.12	31683.83
511.30	31718.94
511.47	32261.94
511.64	32325.14
511.82	32538.13
511.99	31974.06
512.17	32395.35
512.34	32081.72
512.51	32601.32
512.69	32554.51
512.86	32425.78
513.04	32980.49
513.21	32556.85
513.38	32950.06
513.56	32898.57
513.73	32395.35
513.90	32465.57
514.08	32809.63
514.25	33118.58
514.43	32765.16
514.60	33354.97
514.77	33329.23
514.95	33336.25
515.12	33085.81
515.29	33404.13
515.47	33984.58
515.64	33790.31
515.81	33834.78
515.99	33769.25
516.16	33469.66
516.33	33223.90
516.51	33722.44
516.68	33139.65
516.85	33528.17
517.03	33212.20
517.20	33687.33
517.37	34274.80
517.54	34403.53
517.72	33778.61
517.89	34050.11
518.06	34190.55
518.24	33713.08
518.41	34164.80
518.58	34487.79
518.75	34424.60
518.93	34742.91
519.10	34726.53
519.27	35007.39
519.45	34778.02
519.62	35072.93
519.79	35101.01
519.96	35344.43
520.14	35206.34
520.31	35030.80
520.48	35278.89
520.65	35459.12
520.83	35622.95
521.00	35723.60
521.17	35782.11
521.34	35849.99
521.52	35969.35
521.69	35913.18
521.86	36170.64
522.03	35934.24
522.20	35990.42
522.38	35967.01
522.55	36311.07
522.72	36299.37
522.89	36474.91
523.07	36364.90
523.24	36575.55
523.41	36861.10
523.58	36725.35
523.75	37153.66
523.92	36863.44
524.10	37001.53
524.27	37294.10
524.44	36964.08
524.61	37443.89
524.78	37392.40
524.96	37397.08
525.13	37486.02
525.30	37610.07
525.47	37663.90
525.64	36912.59
525.81	37366.65
525.98	37083.45
526.16	37214.52
526.33	36973.44
526.50	37530.49
526.67	37237.92
526.84	37031.96
527.01	37471.98
527.18	37528.15
527.36	37755.18
527.53	38368.40
527.70	38014.98
527.87	38164.78
528.04	38129.67
528.21	38426.92
528.38	38974.60
528.55	38897.36
528.72	38731.18
528.89	38836.51
529.07	38480.75
529.24	38499.47
529.41	38979.28
529.58	38321.59
529.75	38906.73
529.92	39005.03
530.09	38728.84
530.26	38925.45
530.43	38850.55
530.60	38625.86
530.77	38955.88
530.94	39110.35
531.11	39253.12
531.28	39505.90
531.46	39363.13
531.63	39222.70
531.80	39461.43
531.97	39236.74
532.14	39501.22
532.31	39009.71
532.48	39133.76
532.65	39601.86
532.82	39295.25
532.99	39566.76
533.16	39248.44
533.33	39718.89
533.50	40093.38
533.67	39819.53
533.84	39386.54
534.01	39686.12
534.18	40271.26
534.35	40135.51
534.52	39913.16
534.69	40465.52
534.86	40786.18
535.03	40425.73
535.20	40563.82
535.37	40931.29
535.54	40762.77
535.71	40055.93
535.88	40484.25
536.05	40158.91
536.22	40575.53
536.38	40800.22
536.55	40446.80
536.72	40514.67
536.89	40657.45
537.06	40521.69
537.23	40683.19
537.40	40889.16
537.57	40832.99
537.74	41151.30
537.91	41067.04
538.08	41383.01
538.25	41226.20
538.42	40835.33
538.59	41006.19
538.75	40891.50
538.92	41083.42
539.09	41619.41
539.26	40849.37
539.43	41095.13
539.60	41209.81
539.77	41235.56
539.94	41556.21
540.11	41258.96
540.28	41577.28
540.44	41743.45
540.61	41167.68
540.78	40992.14
540.95	41446.21
541.12	41303.43
541.29	41233.22
541.46	41773.88
541.62	41928.36
541.79	41776.22
541.96	41095.13
542.13	41823.03
542.30	41626.43
542.47	41921.34
542.63	42031.34
542.80	42202.20
542.97	42260.71
543.14	42307.52
543.31	42478.38
543.48	42146.03
543.64	42731.16
543.81	43019.05
543.98	42838.83
544.15	42462.00
544.32	42567.32
544.48	43007.34
544.65	42693.71
544.82	42770.95
544.99	42607.11
545.16	42731.16
545.32	42637.54
545.49	43250.76
545.66	43089.26
545.83	43208.63
546.00	43166.50
546.16	42887.98
546.33	42735.84
546.50	42955.85
546.67	43192.25
546.83	42838.83
547.00	43351.40
547.17	42721.80
547.34	42674.99
547.50	43402.89
547.67	43330.34
547.84	43519.92
548.00	43536.30
548.17	43475.45
548.34	43653.33
548.51	43777.38
548.67	43793.76
548.84	43377.15
549.01	43824.19
549.18	43559.71
549.34	44083.99
549.51	43604.18
549.68	43695.46
549.84	43973.98
550.01	43924.83
550.18	43688.44
550.34	43449.70
550.51	43807.81
550.68	43704.82
550.84	43157.14
551.01	44053.56
551.18	43583.12
551.34	44086.33
551.51	44123.78
551.68	44053.56
551.84	44025.48
552.01	44215.06
552.18	44194.00
552.34	44161.23
552.51	44177.61
552.68	44271.23
552.84	44142.50
553.01	44273.57
553.18	43927.17
553.34	44313.36
553.51	44594.23
553.67	44793.17
553.84	45134.89
554.01	44559.12
554.17	44708.91
554.34	44570.82
554.51	44889.13
554.67	44739.34
554.84	44795.51
555.00	44521.67
555.17	44404.64
555.33	45113.83
555.50	44559.12
555.67	44755.72
555.83	44430.39
556.00	44561.46
556.16	44917.22
556.33	44528.69
556.50	44416.35
556.66	44563.80
556.83	44500.61
556.99	44889.13
557.16	44851.69
557.32	44910.20
557.49	45071.70
557.65	44854.03
557.82	44722.96
557.98	45254.26
558.15	45001.48
558.32	45074.04
558.48	44921.90
558.65	45244.90
558.81	44821.26
558.98	45024.89
559.14	45036.59
559.31	44924.24
559.47	45059.99
559.64	45132.55
559.80	45153.62
559.97	45146.59
560.13	44914.88
560.30	45221.49
560.46	44870.41
560.63	45038.93
560.79	45387.67
560.96	45368.94
561.12	44996.80
561.29	45268.30
561.45	45528.10
561.61	45354.90
561.78	45537.46
561.94	45464.91
562.11	45006.16
562.27	45111.49
562.44	45441.50
562.60	45603.00
562.77	45387.67
562.93	45352.56
563.10	45715.34
563.26	45462.57
563.42	45902.59
563.59	44961.69
563.75	45338.52
563.92	45698.96
564.08	45666.19
564.24	45815.99
564.41	45614.70
564.57	45507.04
564.74	45462.57
564.90	45408.73
565.07	45427.46
565.23	46005.57
565.39	45666.19
565.56	45738.75
565.72	45347.88
565.88	45441.50
566.05	45247.24
566.21	45663.85
566.38	45703.64
566.54	45277.66
566.70	45991.53
566.87	45996.21
567.03	45858.12
567.19	46148.34
567.36	45659.17
567.52	46038.34
567.68	45808.96
567.85	45666.19
568.01	45125.53
568.17	45490.65
568.34	46092.17
568.50	45560.87
568.66	45380.65
568.83	45614.70
568.99	45439.16
569.15	45350.22
569.32	45492.99
569.48	45607.68
569.64	45998.55
569.81	45371.28
569.97	45401.71
570.13	45881.52
570.30	45184.04
570.46	45179.36
570.62	45532.78
570.78	45586.61
570.95	45289.37
571.11	45769.18
571.27	45846.41
571.43	45448.52
571.60	45736.41
571.76	45607.68
571.92	45703.64
572.09	45808.96
572.25	45757.47
572.41	45806.62
572.57	46239.62
572.74	46340.27
572.90	45895.56
573.06	46241.96
573.22	46375.37
573.38	45970.46
573.55	45736.41
573.71	46078.13
573.87	45951.74
574.03	45652.15
574.20	45848.75
574.36	46068.76
574.52	46258.35
574.68	46075.79
574.84	45811.31
575.01	45528.10
575.17	45827.69
575.33	45495.33
575.49	45617.04
575.65	46167.07
575.82	45942.38
575.98	45844.07
576.14	46670.28
576.30	45958.76
576.46	45972.80
576.62	45804.28
576.79	46014.93
576.95	45893.22
577.11	46169.41
577.27	46333.24
577.43	45832.37
577.59	45820.67
577.75	45729.39
577.92	45446.18
578.08	45848.75
578.24	45521.08
578.40	45823.01
578.56	46014.93
578.72	46293.46
578.88	46232.60
579.04	45968.12
579.21	45921.31
579.37	45984.51
579.53	45738.75
579.69	45715.34
579.85	46054.72
580.01	45713.00
580.17	45937.69
580.33	46073.45
580.49	45904.93
580.65	45738.75
580.82	46000.89
580.98	46050.04
581.14	45799.60
581.30	46288.77
581.46	45907.27
581.62	46403.46
581.78	45766.84
581.94	46820.08
582.10	45722.37
582.26	46277.07
582.42	46146.00
582.58	46099.19
582.74	45902.59
582.90	46106.21
583.06	46415.16
583.22	46422.19
583.38	46178.77
583.54	46230.26
583.70	46234.94
583.86	45989.19
584.02	45951.74
584.18	45591.30
584.34	46202.18
584.50	46073.45
584.66	45902.59
584.82	45996.21
584.98	46206.86
585.14	46223.24
585.30	45947.06
585.46	46181.11
585.62	45619.38
585.78	45904.93
585.94	46019.61
586.10	46028.98
586.26	45865.14
586.42	46370.69
586.58	46028.98
586.74	45993.87
586.90	45900.25
587.06	46113.23
587.22	46057.06
587.38	45989.19
587.54	46389.42
587.70	46127.28
587.86	46293.46
588.02	46153.02
588.18	45947.06
588.34	46054.72
588.49	45359.58
588.65	45097.44
588.81	45598.32
588.97	45303.41
589.13	45443.84
589.29	45727.05
589.45	46089.83
589.61	45989.19
589.77	46040.68
589.93	46061.74
