SpectraSuite Data File
++++++++++++++++++++++++++++++++++++
Date: Fri Oct 25 10:48:12 EDT 2013
User: price-jones
Dark Spectrum Present: No
Reference Spectrum Present: No
Number of Sampled Component Spectra: 1
Spectrometers: USB2+H05261
Integration Time (usec): 100000 (USB2+H05261)
Spectra Averaged: 1 (USB2+H05261)
Boxcar Smoothing: 0 (USB2+H05261)
Correct for Electrical Dark: No (USB2+H05261)
Strobe/Lamp Enabled: No (USB2+H05261)
Correct for Detector Non-linearity: No (USB2+H05261)
Correct for Stray Light: No (USB2+H05261)
Number of Pixels in Processed Spectrum: 2048
>>>>>Begin Processed Spectral Data<<<<<
365.73	215.33
365.92	215.33
366.12	215.33
366.32	95.96
366.52	81.92
366.72	25.75
366.91	2.34
367.11	88.94
367.31	53.83
367.51	100.64
367.70	77.24
367.90	100.64
368.10	88.94
368.30	14.04
368.49	14.04
368.69	28.09
368.89	63.19
369.09	131.07
369.28	25.75
369.48	56.17
369.68	91.28
369.87	154.48
370.07	105.32
370.27	152.13
370.47	191.92
370.66	374.49
370.86	440.02
371.06	437.68
371.25	505.56
371.45	468.11
371.65	526.62
371.84	512.58
372.04	461.09
372.24	418.96
372.44	517.26
372.63	461.09
372.83	528.96
373.03	517.26
373.22	493.85
373.42	564.07
373.62	528.96
373.81	468.11
374.01	559.39
374.21	545.34
374.40	589.82
374.60	580.45
374.79	510.24
374.99	592.16
375.19	676.41
375.38	550.03
375.58	557.05
375.78	545.34
375.97	613.22
376.17	676.41
376.37	610.88
376.56	561.73
376.76	596.84
376.95	622.58
377.15	603.86
377.35	657.69
377.54	676.41
377.74	613.22
377.93	688.12
378.13	606.20
378.33	636.63
378.52	608.54
378.72	638.97
378.91	622.58
379.11	662.37
379.31	615.56
379.50	631.94
379.70	657.69
379.89	669.39
380.09	622.58
380.28	613.22
380.48	671.73
380.68	655.35
380.87	671.73
381.07	669.39
381.26	725.57
381.46	641.31
381.65	716.20
381.85	751.31
382.04	737.27
382.24	681.10
382.43	706.84
382.63	695.14
382.83	723.23
383.02	744.29
383.22	709.18
383.41	692.80
383.61	683.44
383.80	753.65
384.00	772.38
384.19	758.33
384.39	828.55
384.58	795.78
384.78	812.17
384.97	866.00
385.17	751.31
385.36	779.40
385.56	809.83
385.75	765.36
385.95	821.53
386.14	844.93
386.34	830.89
386.53	770.04
386.72	812.17
386.92	819.19
387.11	919.83
387.31	774.72
387.50	772.38
387.70	863.66
387.89	931.53
388.09	767.70
388.28	805.14
388.48	814.51
388.67	915.15
388.86	842.59
389.06	873.02
389.25	908.13
389.45	936.21
389.64	842.59
389.84	950.26
390.03	917.49
390.22	926.85
390.42	908.13
390.61	912.81
390.81	980.68
391.00	968.98
391.19	966.64
391.39	1020.47
391.58	1032.18
391.78	976.00
391.97	938.55
392.16	908.13
392.36	1048.56
392.55	987.71
392.75	1022.81
392.94	943.24
393.13	994.73
393.33	999.41
393.52	987.71
393.71	976.00
393.91	994.73
394.10	1013.45
394.29	1076.65
394.49	1060.26
394.68	1093.03
394.88	1125.80
395.07	1137.50
395.26	1071.97
395.46	1144.52
395.65	1104.73
395.84	1116.44
396.04	1142.18
396.23	1128.14
396.42	1121.12
396.62	1107.07
396.81	1142.18
397.00	1200.69
397.19	1097.71
397.39	1193.67
397.58	1261.55
397.77	1303.68
397.97	1331.76
398.16	1231.12
398.35	1313.04
398.55	1240.48
398.74	1362.19
398.93	1261.55
399.12	1324.74
399.32	1317.72
399.51	1366.87
399.70	1427.73
399.90	1359.85
400.09	1306.02
400.28	1533.05
400.47	1418.36
400.67	1397.30
400.86	1483.90
401.05	1432.41
401.24	1434.75
401.44	1547.09
401.63	1507.30
401.82	1493.26
402.01	1481.56
402.21	1504.96
402.40	1507.30
402.59	1561.14
402.78	1591.56
402.97	1614.97
403.17	1526.03
403.36	1685.19
403.55	1575.18
403.74	1549.43
403.93	1727.32
404.13	1771.79
404.32	1645.40
404.51	1694.55
404.70	1678.16
404.89	1502.62
405.09	1748.38
405.28	1722.63
405.47	1820.94
405.66	1825.62
405.85	1792.85
406.05	1727.32
406.24	1710.93
406.43	1799.87
406.62	1795.19
406.81	1853.70
407.00	1818.60
407.20	1844.34
407.39	1767.10
407.58	1921.58
407.77	1851.36
407.96	1919.24
408.15	1912.22
408.34	1949.67
408.54	2024.56
408.73	2050.31
408.92	1975.41
409.11	2099.46
409.30	1984.77
409.49	2052.65
409.68	2078.40
409.87	2015.20
410.07	2108.82
410.26	2214.15
410.45	2073.71
410.64	2141.59
410.83	2263.30
411.02	2356.92
411.21	2275.00
411.40	2230.53
411.59	2338.20
411.78	2202.44
411.98	2342.88
412.17	2368.62
412.36	2396.71
412.55	2434.16
412.74	2363.94
412.93	2438.84
413.12	2506.71
413.31	2562.89
413.50	2562.89
413.69	2602.68
413.88	2555.86
414.07	2408.41
414.26	2581.61
414.45	2558.21
414.64	2607.36
414.83	2745.45
415.02	2698.64
415.22	2897.58
415.41	2754.81
415.60	2736.09
415.79	2773.53
415.98	2935.03
416.17	3028.65
416.36	2876.52
416.55	2946.73
416.74	2986.52
416.93	2909.29
417.12	3087.17
417.31	2918.65
417.50	3023.97
417.69	3176.11
417.88	3229.94
418.07	3133.98
418.26	3021.63
418.45	3115.25
418.64	3183.13
418.83	3098.87
419.02	3157.38
419.21	3269.73
419.39	3243.98
419.58	3159.72
419.77	3260.37
419.96	3152.70
420.15	3283.77
420.34	3304.84
420.53	3218.24
420.72	3435.91
420.91	3325.90
421.10	3407.82
421.29	3473.36
421.48	3459.31
421.67	3452.29
421.86	3424.20
422.05	3428.88
422.24	3365.69
422.43	3478.04
422.61	3391.44
422.80	3510.80
422.99	3492.08
423.18	3410.16
423.37	3552.93
423.56	3513.14
423.75	3499.10
423.94	3428.88
424.13	3351.65
424.32	3293.13
424.50	3480.38
424.69	3501.44
424.88	3637.19
425.07	3471.01
425.26	3431.23
425.45	3517.83
425.64	3531.87
425.83	3534.21
426.01	3524.85
426.20	3616.13
426.39	3735.50
426.58	3611.45
426.77	3578.68
426.96	3590.38
427.15	3686.34
427.33	3798.69
427.52	3665.28
427.71	3613.79
427.90	3831.46
428.09	3765.92
428.28	3878.27
428.46	3740.18
428.65	3847.84
428.84	3894.65
429.03	3941.46
429.22	3639.53
429.40	3845.50
429.59	3791.67
429.78	3676.98
429.97	3705.07
430.16	3875.93
430.34	3829.12
430.53	3896.99
430.72	3988.27
430.91	3796.35
431.10	3929.76
431.28	4154.45
431.47	4353.40
431.66	4163.81
431.85	4093.60
432.03	4074.87
432.22	4252.75
432.41	4198.92
432.60	4250.41
432.79	4152.11
432.97	4290.20
433.16	4269.14
433.35	4227.01
433.54	4210.62
433.72	4205.94
433.91	4332.33
434.10	4360.42
434.28	4189.56
434.47	4348.72
434.66	4404.89
434.85	4510.21
435.03	4390.84
435.22	4531.28
435.41	4582.77
435.59	4685.75
435.78	4638.94
435.97	4699.80
436.16	4430.63
436.34	4634.26
436.53	4568.73
436.72	4676.39
436.90	4568.73
437.09	4681.07
437.28	4634.26
437.46	4662.35
437.65	4765.33
437.84	4681.07
438.02	4774.69
438.21	4802.78
438.40	4716.18
438.58	4901.08
438.77	4898.74
438.96	4802.78
439.14	5006.41
439.33	5069.60
439.52	5057.90
439.70	4903.42
439.89	5200.67
440.08	5217.05
440.26	5123.43
440.45	5313.02
440.63	5376.21
440.82	5474.51
441.01	5301.31
441.19	5408.98
441.38	5542.39
441.57	5507.28
441.75	5575.16
441.94	5558.77
442.12	5673.46
442.31	5834.96
442.50	5577.50
442.68	5701.54
442.87	5607.92
443.05	5706.23
443.24	5750.70
443.43	5727.29
443.61	5893.47
443.80	5921.56
443.98	5717.93
444.17	5575.16
444.35	5980.07
444.54	5891.13
444.73	5942.62
444.91	5928.58
445.10	5935.60
445.28	5760.06
445.47	5811.55
445.65	5699.20
445.84	5853.68
446.02	5947.30
446.21	5872.40
446.39	6038.58
446.58	5954.32
446.77	5919.21
446.95	5933.26
447.14	5996.45
447.32	6017.52
447.51	5921.56
447.69	6047.94
447.88	6059.65
448.06	5930.92
448.25	6005.81
448.43	6076.03
448.62	5963.68
448.80	6078.37
448.99	6289.02
449.17	6118.16
449.36	6225.82
449.54	6202.42
449.73	6359.24
449.91	6345.19
450.10	6312.42
450.28	6368.60
450.46	6403.71
450.65	6469.24
450.83	6434.13
451.02	6427.11
451.20	6429.45
451.39	6462.22
451.57	6583.93
451.76	6462.22
451.94	6406.05
452.13	6520.73
452.31	6436.47
452.49	6384.98
452.68	6490.31
452.86	6361.58
453.05	6616.69
453.23	6583.93
453.42	6576.91
453.60	6483.28
453.78	6782.87
453.97	6684.57
454.15	6722.02
454.34	6700.95
454.52	6841.39
454.70	6771.17
454.89	6890.54
455.07	6700.95
455.26	6918.62
455.44	6846.07
455.62	6764.15
455.81	6876.49
455.99	7026.29
456.17	6972.46
456.36	6993.52
456.54	7138.63
456.73	7288.43
456.91	7297.79
457.09	7185.44
457.28	7461.63
457.46	7234.60
457.64	7218.21
457.83	7286.09
458.01	7227.57
458.19	7447.58
458.38	7302.47
458.56	7590.36
458.74	7492.05
458.93	7363.33
459.11	7459.29
459.29	7478.01
459.48	7475.67
459.66	7679.30
459.84	7529.50
460.03	7719.09
460.21	7529.50
460.39	7597.38
460.57	7559.93
460.76	7777.60
460.94	7962.50
461.12	7896.97
461.31	7927.39
461.49	7723.77
461.67	7754.19
461.85	7805.69
462.04	7899.31
462.22	8339.33
462.40	8234.00
462.59	8081.87
462.77	8025.70
462.95	7988.25
463.13	8002.29
463.32	7978.89
463.50	8212.94
463.68	8163.79
463.86	7946.12
464.05	8006.97
464.23	8159.11
464.41	8182.51
464.59	8201.24
464.78	8482.10
464.96	8161.45
465.14	8222.30
465.32	8334.65
465.50	8344.01
465.69	8514.87
465.87	8306.56
466.05	8547.64
466.23	8362.73
466.41	8210.60
466.60	8449.33
466.78	8285.50
466.96	8344.01
467.14	8468.06
467.32	8528.91
467.51	8636.58
467.69	8432.95
467.87	8737.22
468.05	8819.14
468.23	8599.13
468.41	8622.53
468.60	8645.94
468.78	8542.96
468.96	8648.28
469.14	8931.48
469.32	8950.21
469.50	8505.51
469.69	8781.69
469.87	8966.59
470.05	8868.29
470.23	9048.51
470.41	8896.38
470.59	9029.79
470.77	8903.40
470.95	9195.96
471.14	9200.65
471.32	9032.13
471.50	9233.41
471.68	9158.52
471.86	9224.05
472.04	9312.99
472.22	9607.90
472.40	9441.72
472.58	9294.27
472.77	9380.87
472.95	9722.59
473.13	10115.80
473.31	9610.24
473.49	9694.50
473.67	9650.03
473.85	9825.57
474.03	9853.66
474.21	9792.80
474.39	9853.66
474.57	10036.22
474.75	10178.99
474.93	10143.88
475.12	10085.37
475.30	10396.66
475.48	10134.52
475.66	10384.96
475.84	10340.49
476.02	10429.43
476.20	10464.54
476.38	10569.86
476.56	10885.83
476.74	10621.35
476.92	10913.92
477.10	10862.43
477.28	11052.01
477.46	11152.65
477.64	11257.98
477.82	11096.48
478.00	11304.79
478.18	11517.78
478.36	11543.52
478.54	11700.34
478.72	11700.34
478.90	11538.84
479.08	11723.74
479.26	11934.39
479.44	12208.23
479.62	12053.76
479.80	12035.03
479.98	12425.90
480.16	12603.78
480.34	12205.89
480.52	12737.20
480.70	12758.26
480.88	12423.56
481.06	12470.37
481.24	12798.05
481.41	12954.87
481.59	12847.20
481.77	13214.66
481.95	13195.94
482.13	13380.84
482.31	13245.09
482.49	13593.83
482.67	13514.25
482.85	13771.71
483.03	13809.16
483.21	13895.76
483.39	13930.87
483.57	13994.06
483.74	14370.89
483.92	14143.86
484.10	14291.31
484.28	14230.46
484.46	14696.22
484.64	14979.43
484.82	14780.48
485.00	14689.20
485.18	15239.23
485.35	15384.34
485.53	14913.89
485.71	14892.83
485.89	15576.27
486.07	15349.23
486.25	15459.24
486.43	15531.80
486.61	15461.58
486.78	15943.73
486.96	16016.29
487.14	16606.10
487.32	16053.73
487.50	16678.66
487.68	16800.37
487.85	17018.04
488.03	17067.19
488.21	17135.06
488.39	17013.35
488.57	17422.95
488.75	17547.00
488.92	17797.43
489.10	17771.69
489.28	17647.64
489.46	18010.42
489.64	18108.72
489.81	18361.50
489.99	18487.89
490.17	18228.09
490.35	18579.17
490.53	18766.42
490.70	18892.80
490.88	18735.99
491.06	19506.02
491.24	19321.12
491.41	18963.02
491.59	19042.60
491.77	19040.26
491.95	19840.72
492.13	19630.07
492.30	19676.88
492.48	20030.30
492.66	20093.50
492.84	19857.10
493.01	20430.54
493.19	20187.12
493.37	20573.31
493.54	20538.20
493.72	20503.09
493.90	20725.44
494.08	20854.17
494.25	21326.96
494.43	21488.46
494.61	21443.99
494.79	21668.68
494.96	21509.52
495.14	21532.93
495.32	21832.52
495.49	21979.97
495.67	21935.50
495.85	22335.73
496.02	22342.75
496.20	22530.00
496.38	22396.59
496.55	22616.60
496.73	23019.17
496.91	22967.68
497.09	23042.57
497.26	23192.37
497.44	23131.51
497.62	22923.21
497.79	23613.66
497.97	23534.09
498.14	23716.65
498.32	23793.89
498.50	23417.06
498.67	24259.65
498.85	23838.36
499.03	24311.14
499.20	24407.11
499.38	24491.37
499.56	24456.26
499.73	24439.87
499.91	24271.36
500.08	24594.35
500.26	24498.39
500.44	24821.38
500.61	24865.85
500.79	24386.04
500.97	24826.06
501.14	25415.88
501.32	25233.32
501.49	25446.30
501.67	25289.49
501.84	25479.07
502.02	25696.74
502.20	25387.79
502.37	25914.41
502.55	25701.42
502.72	26082.93
502.90	26263.15
503.07	26153.15
503.25	26258.47
503.43	26125.06
503.60	26274.85
503.78	26476.14
503.95	26448.05
504.13	26541.68
504.30	26553.38
504.48	26897.44
504.65	26948.93
504.83	26948.93
505.01	27278.94
505.18	26885.73
505.36	27733.01
505.53	27307.03
505.71	27683.86
505.88	27805.56
506.06	27026.17
506.23	28002.17
506.41	27253.20
506.58	27569.17
506.76	27770.46
506.93	27929.61
507.11	27800.88
507.28	28006.85
507.46	27798.54
507.63	28039.62
507.81	27962.38
507.98	28032.60
508.16	28627.09
508.33	28290.06
508.50	28259.63
508.68	28666.88
508.85	29179.46
509.03	28856.46
509.20	28582.62
509.38	29116.26
509.55	29340.96
509.73	29582.03
509.90	29085.84
510.08	28898.59
510.25	29287.12
510.42	29752.89
510.60	29731.83
510.77	29474.37
510.95	29780.98
511.12	29818.42
511.30	29832.47
511.47	30436.33
511.64	29783.32
511.82	30506.54
511.99	29755.23
512.17	29773.95
512.34	30139.08
512.51	30422.28
512.69	30511.22
512.86	30616.55
513.04	30651.66
513.21	30974.65
513.38	30754.64
513.56	30443.35
513.73	30588.46
513.90	30754.64
514.08	31117.42
514.25	31232.11
514.43	30930.18
514.60	30768.68
514.77	31157.21
514.95	31562.12
515.12	31253.17
515.29	31852.35
515.47	32023.21
515.64	31955.33
515.81	31260.20
515.99	31812.56
516.16	31941.29
516.33	31983.42
516.51	32233.86
516.68	31702.56
516.85	31505.95
517.03	32074.70
517.20	32126.19
517.37	31945.97
517.54	32360.25
517.72	32147.26
517.89	32575.58
518.06	32191.73
518.24	32467.91
518.41	32397.70
518.58	32636.43
518.75	32273.65
518.93	33132.62
519.10	32861.12
519.27	33163.05
519.45	33254.33
519.62	33050.70
519.79	32933.68
519.96	33357.32
520.14	33670.95
520.31	33226.24
520.48	33757.55
520.65	33556.26
520.83	33961.17
521.00	33448.60
521.17	33769.25
521.34	33731.80
521.52	34005.64
521.69	33933.09
521.86	34235.02
522.03	33766.91
522.20	33926.07
522.38	34316.93
522.55	34735.89
522.72	34473.75
522.89	34312.25
523.07	34459.71
523.24	34536.94
523.41	34340.34
523.58	34855.26
523.75	34944.20
523.92	34670.36
524.10	35412.31
524.27	34876.32
524.44	35065.91
524.61	34934.84
524.78	35435.71
524.96	35058.88
525.13	35718.92
525.30	35761.05
525.47	35791.47
525.64	35325.71
525.81	35358.47
525.98	35711.89
526.16	35536.35
526.33	35566.78
526.50	35510.61
526.67	35311.66
526.84	35765.73
527.01	35431.03
527.18	36112.13
527.36	36236.17
527.53	36093.40
527.70	36566.19
527.87	36285.33
528.04	36180.00
528.21	36348.52
528.38	36381.29
528.55	36627.04
528.72	36397.67
528.89	36613.00
529.07	36676.19
529.24	36388.31
529.41	36545.12
529.58	36617.68
529.75	36381.29
529.92	36605.98
530.09	36872.80
530.26	37263.67
530.43	37013.23
530.60	36947.70
530.77	36779.18
530.94	37626.45
531.11	36851.73
531.28	37244.94
531.46	37624.11
531.63	37188.77
531.80	37558.58
531.97	37069.40
532.14	37397.08
532.31	37586.66
532.48	37361.97
532.65	38047.75
532.82	37961.15
532.99	37776.25
533.16	37858.17
533.33	38164.78
533.50	37984.55
533.67	37738.80
533.84	37921.36
534.01	37771.57
534.18	37869.87
534.35	37954.13
534.52	38256.06
534.69	38398.83
534.86	38387.13
535.03	38471.39
535.20	38356.70
535.37	38735.87
535.54	38820.13
535.71	38286.48
535.88	38471.39
536.05	38064.13
536.22	38880.98
536.38	38775.66
536.55	38637.56
536.72	39054.18
536.89	38815.44
537.06	39035.45
537.23	38909.07
537.40	38824.81
537.57	39220.36
537.74	39103.33
537.91	39335.04
538.08	39206.31
538.25	38352.02
538.42	39047.16
538.59	39627.61
538.75	39105.67
538.92	39255.46
539.09	39398.24
539.26	39384.19
539.43	39311.64
539.60	39526.97
539.77	39505.90
539.94	39431.01
540.11	39358.45
540.28	39487.18
540.44	39571.44
540.61	39597.18
540.78	39566.76
540.95	39297.59
541.12	39435.69
541.29	39765.70
541.46	40039.54
541.62	39927.20
541.79	40002.10
541.96	39721.23
542.13	39672.08
542.30	40098.06
542.47	39962.31
542.63	40573.19
542.80	40411.69
542.97	40512.33
543.14	40533.40
543.31	40088.70
543.48	40973.42
543.64	40982.78
543.81	41057.68
543.98	40755.75
544.15	40832.99
544.32	40952.35
544.48	41179.39
544.65	40882.14
544.82	40781.49
544.99	40502.97
545.16	40804.90
545.32	40648.08
545.49	41247.26
545.66	41027.25
545.83	40992.14
546.00	41310.46
546.16	41530.47
546.33	41326.84
546.50	41083.42
546.67	41380.67
546.83	41048.32
547.00	40903.20
547.17	41144.28
547.34	41413.44
547.50	41141.94
547.67	41818.35
547.84	41081.08
548.00	41675.58
548.17	41713.03
548.34	41324.50
548.51	41937.72
548.67	41986.87
548.84	41706.01
549.01	41617.07
549.18	41963.46
549.34	41694.30
549.51	41855.80
549.68	42005.59
549.84	42265.39
550.01	41982.19
550.18	42000.91
550.34	42010.28
550.51	42043.04
550.68	41904.95
550.84	41684.94
551.01	42057.09
551.18	41860.48
551.34	42230.29
551.51	42103.90
551.68	42272.42
551.84	42656.26
552.01	42216.24
552.18	42576.69
552.34	42529.87
552.51	42572.00
552.68	42232.63
552.84	42792.01
553.01	42733.50
553.18	42237.31
553.34	42391.78
553.51	42712.44
553.67	42302.84
553.84	42836.48
554.01	42784.99
554.17	43002.66
554.34	42885.64
554.51	42857.55
554.67	42698.39
554.84	42810.74
555.00	42471.36
555.17	42682.01
555.33	43147.78
555.50	43079.90
555.67	42787.33
555.83	43016.71
556.00	43079.90
556.16	43201.61
556.33	43409.92
556.50	42974.58
556.66	42967.55
556.83	42642.22
556.99	43702.48
557.16	43400.55
557.32	43180.54
557.49	42962.87
557.65	43075.22
557.82	43173.52
557.98	43540.99
558.15	43180.54
558.32	43503.54
558.48	43393.53
558.65	43388.85
558.81	43438.00
558.98	43665.03
559.14	43283.53
559.31	43421.62
559.47	43564.39
559.64	43739.93
559.80	43421.62
559.97	44004.41
560.13	43526.94
560.30	43496.52
560.46	44072.29
560.63	43505.88
560.79	43796.10
560.96	43576.09
561.12	43533.96
561.29	43728.23
561.45	43976.33
561.61	44053.56
561.78	43449.70
561.94	43562.05
562.11	43901.43
562.27	43735.25
562.44	44128.46
562.60	44069.95
562.77	43856.96
562.93	43903.77
563.10	43990.37
563.26	43473.11
563.42	44222.08
563.59	43915.47
563.75	44140.16
563.92	44128.46
564.08	44268.89
564.24	44350.81
564.41	44044.20
564.57	44250.17
564.74	44170.59
564.90	44275.91
565.07	44348.47
565.23	44109.74
565.39	44479.54
565.56	44161.23
565.72	44243.15
565.88	44215.06
566.05	43995.05
566.21	44182.29
566.38	43966.96
566.54	44154.21
566.70	44254.85
566.87	44320.38
567.03	44250.17
567.19	44603.59
567.36	44091.01
567.52	43997.39
567.68	44584.86
567.85	44006.75
568.01	44708.91
568.17	44519.33
568.34	44566.14
568.50	44165.91
568.66	44395.28
568.83	44266.55
568.99	43929.51
569.15	44320.38
569.32	44786.15
569.48	44252.51
569.64	44376.56
569.81	44488.90
569.97	44254.85
570.13	44844.66
570.30	44451.45
570.46	44133.14
570.62	43995.05
570.78	43849.94
570.95	44311.02
571.11	44832.96
571.27	44634.02
571.43	44573.16
571.60	44570.82
571.76	45003.82
571.92	44339.11
572.09	44605.93
572.25	44622.31
572.41	44577.84
572.57	44659.76
572.74	44926.58
572.90	44533.37
573.06	44781.47
573.22	45078.72
573.38	44577.84
573.55	44205.70
573.71	44275.91
573.87	44161.23
574.03	44027.82
574.20	44734.66
574.36	44088.67
574.52	44488.90
574.68	45141.91
574.84	44701.89
575.01	44741.68
575.17	44650.40
575.33	44236.12
575.49	44619.97
575.65	44343.79
575.82	44631.68
575.98	44903.18
576.14	45188.72
576.30	44854.03
576.46	44051.22
576.62	44376.56
576.79	44231.44
576.95	44357.83
577.11	44793.17
577.27	44868.07
577.43	44875.09
577.59	44594.23
577.75	44767.43
577.92	44587.21
578.08	44257.19
578.24	44233.78
578.40	44540.39
578.56	44786.15
578.72	44683.17
578.88	44739.34
579.04	44491.24
579.21	44442.09
579.37	44664.44
579.53	44657.42
579.69	44013.77
579.85	44486.56
580.01	44739.34
580.17	44612.95
580.33	44947.65
580.49	44935.95
580.65	45092.76
580.82	44926.58
580.98	44687.85
581.14	44406.98
581.30	45071.70
581.46	44741.68
581.62	44938.29
581.78	44685.51
581.94	45017.86
582.10	44470.18
582.26	44802.53
582.42	44720.62
582.58	44940.63
582.74	44669.12
582.90	44957.01
583.06	44858.71
583.22	45010.84
583.38	45263.62
583.54	44903.18
583.70	44678.49
583.86	44917.22
584.02	44587.21
584.18	44790.83
584.34	45207.45
584.50	44879.77
584.66	44666.78
584.82	44650.40
584.98	45099.78
585.14	44664.44
585.30	44851.69
585.46	44722.96
585.62	44533.37
585.78	45020.20
585.94	44470.18
586.10	44617.63
586.26	44832.96
586.42	45153.62
586.58	45106.80
586.74	44779.13
586.90	44399.96
587.06	44444.43
587.22	44680.83
587.38	44409.32
587.54	45237.87
587.70	45104.46
587.86	44973.39
588.02	45193.40
588.18	44935.95
588.34	44505.29
588.49	44575.50
588.65	44732.32
588.81	44694.87
588.97	44233.78
589.13	44453.79
589.29	44659.76
589.45	44900.84
589.61	45123.19
589.77	45647.47
589.93	44928.92
590.08	44959.35
590.24	45167.66
