SpectraSuite Data File
++++++++++++++++++++++++++++++++++++
Date: Fri Oct 25 11:23:13 EDT 2013
User: price-jones
Dark Spectrum Present: No
Reference Spectrum Present: No
Number of Sampled Component Spectra: 1
Spectrometers: USB2+H05261
Integration Time (usec): 100000 (USB2+H05261)
Spectra Averaged: 1 (USB2+H05261)
Boxcar Smoothing: 0 (USB2+H05261)
Correct for Electrical Dark: No (USB2+H05261)
Strobe/Lamp Enabled: No (USB2+H05261)
Correct for Detector Non-linearity: No (USB2+H05261)
Correct for Stray Light: No (USB2+H05261)
Number of Pixels in Processed Spectrum: 2048
>>>>>Begin Processed Spectral Data<<<<<
365.73	234.05
365.92	234.05
366.12	234.05
366.32	131.07
366.52	107.66
366.72	117.03
366.91	91.28
367.11	110.01
367.31	102.98
367.51	135.75
367.70	88.94
367.90	110.01
368.10	16.38
368.30	189.58
368.49	131.07
368.69	37.45
368.89	81.92
369.09	170.86
369.28	154.48
369.48	175.54
369.68	105.32
369.87	182.56
370.07	257.46
370.27	344.06
370.47	332.36
370.66	592.16
370.86	685.78
371.06	641.31
371.25	648.33
371.45	695.14
371.65	695.14
371.84	631.94
372.04	662.37
372.24	667.05
372.44	702.16
372.63	716.20
372.83	755.99
373.03	760.67
373.22	744.29
373.42	821.53
373.62	758.33
373.81	823.87
374.01	746.63
374.21	760.67
374.40	858.98
374.60	880.04
374.79	866.00
374.99	730.25
375.19	802.80
375.38	903.45
375.58	826.21
375.78	840.25
375.97	894.08
376.17	795.78
376.37	882.38
376.56	786.42
376.76	793.44
376.95	889.40
377.15	908.13
377.35	978.34
377.54	983.02
377.74	866.00
377.93	873.02
378.13	882.38
378.33	919.83
378.52	844.93
378.72	940.90
378.91	945.58
379.11	957.28
379.31	917.49
379.50	1001.75
379.70	1067.28
379.89	1027.50
380.09	971.32
380.28	940.90
380.48	1095.37
380.68	983.02
380.87	947.92
381.07	964.30
381.26	1071.97
381.46	973.66
381.65	1107.07
381.85	1081.33
382.04	1034.52
382.24	1100.05
382.43	1029.84
382.63	1008.77
382.83	1011.11
383.02	1118.78
383.22	1130.48
383.41	1041.54
383.61	1076.65
383.80	1088.35
384.00	1137.50
384.19	1170.27
384.39	1231.12
384.58	1198.35
384.78	1228.78
384.97	1100.05
385.17	1123.46
385.36	1135.16
385.56	1198.35
385.75	1121.12
385.95	1179.63
386.14	1233.46
386.34	1130.48
386.53	1116.44
386.72	1235.80
386.92	1273.25
387.11	1177.29
387.31	1317.72
387.50	1338.79
387.70	1196.01
387.89	1196.01
388.09	1235.80
388.28	1289.64
388.48	1254.53
388.67	1291.98
388.86	1362.19
389.06	1299.00
389.25	1371.55
389.45	1362.19
389.64	1299.00
389.84	1500.28
390.03	1401.98
390.22	1404.32
390.42	1460.49
390.61	1378.58
390.81	1343.47
391.00	1406.66
391.19	1369.21
391.39	1420.71
391.58	1469.86
391.78	1488.58
391.97	1460.49
392.16	1441.77
392.36	1535.39
392.55	1469.86
392.75	1497.94
392.94	1460.49
393.13	1526.03
393.33	1575.18
393.52	1589.22
393.71	1497.94
393.91	1528.37
394.10	1544.75
394.29	1577.52
394.49	1582.20
394.68	1537.73
394.88	1533.05
395.07	1694.55
395.26	1647.74
395.46	1771.79
395.65	1666.46
395.84	1682.85
396.04	1776.47
396.23	1781.15
396.42	1874.77
396.62	1713.27
396.81	1717.95
397.00	1767.10
397.19	1825.62
397.39	1795.19
397.58	1748.38
397.77	1818.60
397.97	1724.97
398.16	1851.36
398.35	1909.88
398.55	1935.62
398.74	1830.30
398.93	1933.28
399.12	1933.28
399.32	1900.52
399.51	1928.60
399.70	2036.27
399.90	2019.88
400.09	2050.31
400.28	2078.40
400.47	2017.54
400.67	2153.29
400.86	2157.97
401.05	2057.33
401.24	2136.91
401.44	2071.37
401.63	2207.13
401.82	2251.60
402.01	2129.89
402.21	2195.42
402.40	2155.63
402.59	2176.70
402.78	2246.91
402.97	2237.55
403.17	2317.13
403.36	2408.41
403.55	2225.85
403.74	2373.30
403.93	2394.37
404.13	2361.60
404.32	2352.24
404.51	2459.90
404.70	2436.50
404.89	2445.86
405.09	2443.52
405.28	2513.74
405.47	2595.65
405.66	2441.18
405.85	2534.80
406.05	2495.01
406.24	2750.13
406.43	2499.69
406.62	2656.51
406.81	2661.19
407.00	2637.78
407.20	2626.08
407.39	2640.12
407.58	2640.12
407.77	2698.64
407.96	2686.94
408.15	2773.53
408.34	2815.66
408.54	2841.41
408.73	2785.24
408.92	2803.96
409.11	2841.41
409.30	2885.88
409.49	2738.43
409.68	2843.75
409.87	2871.84
410.07	2951.42
410.26	2885.88
410.45	3014.61
410.64	3068.44
410.83	3225.26
411.02	3068.44
411.21	3218.24
411.40	3068.44
411.59	3311.86
411.78	3255.69
411.98	3321.22
412.17	3279.09
412.36	3391.44
412.55	3358.67
412.74	3485.06
412.93	3461.65
413.12	3410.16
413.31	3569.32
413.50	3562.30
413.69	3482.72
413.88	3625.49
414.07	3599.74
414.26	3630.17
414.45	3637.19
414.64	3667.62
414.83	3857.20
415.02	3901.67
415.22	3810.39
415.41	3995.29
415.60	3833.80
415.79	3822.09
415.98	3838.48
416.17	3936.78
416.36	3995.29
416.55	4070.19
416.74	4044.45
416.93	4060.83
417.12	4255.09
417.31	4180.20
417.50	4177.86
417.69	4315.95
417.88	4292.54
418.07	4278.50
418.26	4257.43
418.45	4400.21
418.64	4430.63
418.83	4437.66
419.02	4472.76
419.21	4451.70
419.39	4566.39
419.58	4531.28
419.77	4395.53
419.96	4482.13
420.15	4732.56
420.34	4613.20
420.53	4650.64
420.72	4826.18
420.91	4788.74
421.10	4678.73
421.29	4669.37
421.48	4533.62
421.67	4891.72
421.86	4737.24
422.05	4933.85
422.24	4772.35
422.43	4985.34
422.61	4894.06
422.80	4994.70
422.99	5022.79
423.18	4898.74
423.37	5109.39
423.56	4814.48
423.75	5062.58
423.94	4887.04
424.13	4629.58
424.32	4739.58
424.50	5011.09
424.69	5027.47
424.88	4966.62
425.07	5036.83
425.26	4891.72
425.45	5015.77
425.64	4887.04
425.83	5018.11
426.01	5064.92
426.20	5088.32
426.39	4990.02
426.58	5226.42
426.77	5158.54
426.96	5121.09
427.15	5076.62
427.33	5088.32
427.52	5090.67
427.71	5413.66
427.90	5263.86
428.09	5392.59
428.28	5301.31
428.46	5359.83
428.65	5280.25
428.84	5598.56
429.03	5453.45
429.22	5427.70
429.40	5523.66
429.59	5554.09
429.78	5493.24
429.97	5341.10
430.16	5507.28
430.34	5612.60
430.53	5617.29
430.72	5736.65
430.91	5657.07
431.10	5753.04
431.28	5912.19
431.47	5872.40
431.66	5809.21
431.85	5762.40
432.03	5991.77
432.22	6057.31
432.41	6136.88
432.60	5891.13
432.79	6017.52
432.97	6106.46
433.16	6157.95
433.35	6085.39
433.54	5991.77
433.72	6183.70
433.91	6181.35
434.10	6195.40
434.28	6321.79
434.47	6230.51
434.66	6232.85
434.85	6354.55
435.03	6382.64
435.22	6422.43
435.41	6408.39
435.59	6441.15
435.78	6326.47
435.97	6289.02
436.16	6665.85
436.34	6471.58
436.53	6604.99
436.72	6700.95
436.90	6401.37
437.09	6705.63
437.28	6490.31
437.46	6644.78
437.65	6686.91
437.84	6810.96
438.02	6668.19
438.21	6925.65
438.40	6700.95
438.58	6988.84
438.77	6979.48
438.96	7033.31
439.14	7150.34
439.33	7070.76
439.52	7164.38
439.70	7236.94
439.89	7447.58
440.08	7463.97
440.26	7243.96
440.45	7447.58
440.63	7503.76
440.82	7548.23
441.01	7550.57
441.19	7700.36
441.38	7698.02
441.57	7623.12
441.75	7712.07
441.94	8042.08
442.12	8088.89
442.31	7943.78
442.50	8124.00
442.68	8063.15
442.87	8098.25
443.05	7981.23
443.24	8259.75
443.43	8135.70
443.61	8194.22
443.80	8430.61
443.98	8049.10
444.17	7803.35
444.35	8269.11
444.54	8360.39
444.73	8409.54
444.91	8348.69
445.10	8418.91
445.28	8177.83
445.47	8444.65
445.65	8360.39
445.84	8535.93
446.02	8727.86
446.21	8493.80
446.39	8589.77
446.58	8695.09
446.77	8549.98
446.95	8475.08
447.14	8645.94
447.32	8596.79
447.51	8533.59
447.69	8428.27
447.88	8510.19
448.06	8645.94
448.25	8510.19
448.43	8514.87
448.62	8730.20
448.80	8568.70
448.99	8697.43
449.17	8638.92
449.36	8706.79
449.54	8931.48
449.73	8999.36
449.91	9062.55
450.10	9057.87
450.28	9146.81
450.46	9184.26
450.65	9109.36
450.83	9163.20
451.02	9067.24
451.20	9137.45
451.39	9231.07
451.57	9104.68
451.76	9104.68
451.94	9397.25
452.13	9298.95
452.31	9394.91
452.49	9245.12
452.68	9472.15
452.86	9455.76
453.05	9397.25
453.23	9558.75
453.42	9626.62
453.60	9469.81
453.78	9493.21
453.97	9631.30
454.15	9537.68
454.34	9661.73
454.52	9638.33
454.70	9774.08
454.89	9654.71
455.07	9736.63
455.26	9818.55
455.44	10382.62
455.62	10001.11
455.81	9905.15
455.99	10019.83
456.17	10286.65
456.36	9989.41
456.54	10010.47
456.73	10251.55
456.91	10750.08
457.09	10494.96
457.28	10633.05
457.46	10263.25
457.64	10523.05
457.83	10452.83
458.01	10551.14
458.19	10834.34
458.38	10523.05
458.56	10794.55
458.74	10754.76
458.93	10747.74
459.11	10827.32
459.29	10651.78
459.48	10820.30
459.66	10967.75
459.84	10956.05
460.03	11094.14
460.21	11054.35
460.39	11122.23
460.57	10993.50
460.76	11183.08
460.94	11400.75
461.12	11276.70
461.31	11236.91
461.49	11470.97
461.67	11250.96
461.85	11295.43
462.04	11236.91
462.22	11730.76
462.40	11604.38
462.59	11625.44
462.77	11506.07
462.95	11632.46
463.13	11576.29
463.32	11555.22
463.50	11967.16
463.68	11901.62
463.86	11857.15
464.05	11803.32
464.23	11840.77
464.41	11992.90
464.59	11899.28
464.78	12088.87
464.96	12016.31
465.14	11868.86
465.32	12138.02
465.50	12435.27
465.69	12334.62
465.87	12362.71
466.05	12231.64
466.23	12355.69
466.41	12353.35
466.60	12746.56
466.78	12191.85
466.96	12198.87
467.14	12381.43
467.32	12734.85
467.51	12524.21
467.69	12365.05
467.87	12624.85
468.05	12671.66
468.23	12589.74
468.41	12456.33
468.60	12505.48
468.78	12917.42
468.96	12695.07
469.14	12975.93
469.32	13071.89
469.50	12681.02
469.69	12882.31
469.87	13118.70
470.05	13268.50
470.23	13406.59
470.41	13420.63
470.59	13502.55
470.77	13207.64
470.95	13610.22
471.14	13247.43
471.32	13357.44
471.50	13841.93
471.68	13841.93
471.86	13678.09
472.04	13771.71
472.22	14143.86
472.40	13860.65
472.58	13778.73
472.77	14024.49
472.95	14487.92
473.13	14792.19
473.31	14078.32
473.49	14265.57
473.67	14157.90
473.85	14466.85
474.03	14829.63
474.21	14637.71
474.39	14881.13
474.57	14951.34
474.75	14857.72
474.93	15227.53
475.12	15176.03
475.30	15094.11
475.48	15370.30
475.66	15604.35
475.84	15382.00
476.02	15662.86
476.20	15749.46
476.38	15815.00
476.56	16182.46
476.74	16414.18
476.92	16004.58
477.10	15843.09
477.28	16250.34
477.46	16348.64
477.64	16479.71
477.82	16657.59
478.00	16959.52
478.18	16879.94
478.36	16954.84
478.54	17291.88
478.72	17282.52
478.90	17628.92
479.08	17647.64
479.26	17811.48
479.44	17708.49
479.62	17942.55
479.80	18080.64
479.98	18651.73
480.16	18773.44
480.34	18450.44
480.52	18520.66
480.70	18869.40
480.88	18354.48
481.06	18691.52
481.24	19035.58
481.41	19442.83
481.59	19894.55
481.77	19807.95
481.95	19726.04
482.13	19616.03
482.31	19737.74
482.49	20133.29
482.67	20287.76
482.85	20666.93
483.03	20627.14
483.21	20912.69
483.39	21046.10
483.57	20783.96
483.74	21296.53
483.92	21664.00
484.10	21401.86
484.28	22045.51
484.46	22139.13
484.64	22466.80
484.82	22391.91
485.00	22405.95
485.18	23257.90
485.35	23150.24
485.53	23194.71
485.71	22925.55
485.89	23887.51
486.07	23379.61
486.25	23541.11
486.43	23824.31
486.61	23915.59
486.78	24056.03
486.96	24266.67
487.14	24781.59
487.32	24713.72
487.50	25254.38
487.68	25289.49
487.85	25788.02
488.03	25809.09
488.21	25781.00
488.39	26024.42
488.57	26471.46
488.75	26424.65
488.92	26424.65
489.10	27351.50
489.28	26918.50
489.46	27101.06
489.64	26993.40
489.81	27807.90
489.99	27681.52
490.17	27772.80
490.35	28584.96
490.53	28584.96
490.70	28383.68
490.88	28400.06
491.06	29102.22
491.24	28945.41
491.41	29046.05
491.59	29825.45
491.77	29528.20
491.95	29827.79
492.13	30150.78
492.30	30071.20
492.48	30431.65
492.66	30352.07
492.84	30497.18
493.01	31014.44
493.19	30841.24
493.37	30787.41
493.54	31105.72
493.72	31754.05
493.90	31845.33
494.08	31658.09
494.25	31880.44
494.43	32016.19
494.61	32217.47
494.79	32746.44
494.96	32385.99
495.14	33006.23
495.32	33137.30
495.49	33680.31
495.67	33472.00
495.85	33912.02
496.02	34092.24
496.20	34565.03
496.38	34574.39
496.55	34295.87
496.73	35084.63
496.91	34822.49
497.09	35372.52
497.26	35388.90
497.44	35084.63
497.62	35271.87
497.79	35761.05
497.97	35613.59
498.14	36467.89
498.32	36336.82
498.50	36484.27
498.67	36699.60
498.85	37048.34
499.03	36524.06
499.20	36786.20
499.38	37256.65
499.56	37273.03
499.73	37301.12
499.91	37610.07
500.08	37677.94
500.26	37607.73
500.44	38106.26
500.61	37956.47
500.79	37961.15
500.97	38249.03
501.14	39000.35
501.32	38775.66
501.49	38831.83
501.67	38845.87
501.84	39161.84
502.02	39143.12
502.20	39335.04
502.37	39335.04
502.55	39559.73
502.72	39461.43
502.90	39562.08
503.07	39583.14
503.25	39969.33
503.43	39732.93
503.60	40285.30
503.78	40378.92
503.95	40561.48
504.13	40439.78
504.30	40851.71
504.48	40961.72
504.65	41102.15
504.83	41141.94
505.01	41600.68
505.18	41373.65
505.36	42059.43
505.53	41422.80
505.71	41972.83
505.88	42305.18
506.06	41481.31
506.23	42389.44
506.41	42087.51
506.58	42349.65
506.76	42326.25
506.93	42951.17
507.11	42717.12
507.28	42909.04
507.46	42857.55
507.63	43501.20
507.81	43178.20
507.98	43402.89
508.16	43388.85
508.33	43681.42
508.50	43988.03
508.68	44397.62
508.85	44163.57
509.03	43936.54
509.20	43978.67
509.38	44556.78
509.55	44526.35
509.73	44968.71
509.90	45048.29
510.08	44512.31
510.25	44835.30
510.42	44542.74
510.60	45146.59
510.77	45195.74
510.95	45525.76
511.12	45359.58
511.30	45380.65
511.47	46047.70
511.64	45860.46
511.82	46003.23
511.99	45773.86
512.17	46506.44
512.34	46014.93
512.51	46588.36
512.69	46665.60
512.86	46560.28
513.04	46763.90
513.21	47037.75
513.38	47194.56
513.56	47145.41
513.73	46873.91
513.90	47306.91
514.08	47512.88
514.25	47922.47
514.43	47702.46
514.60	47789.06
514.77	47742.25
514.95	48165.88
515.12	47718.84
515.29	47709.48
515.47	48346.11
515.64	48175.25
515.81	48397.60
515.99	48699.53
516.16	48868.05
516.33	48491.22
516.51	48954.64
516.68	48671.44
516.85	48526.33
517.03	49207.42
517.20	49284.66
517.37	49191.04
517.54	48912.52
517.72	49256.57
517.89	49118.48
518.06	49373.60
518.24	49612.34
518.41	49593.61
518.58	49722.34
518.75	49605.31
518.93	49635.74
519.10	49846.39
519.27	49858.09
519.45	49757.45
519.62	50220.87
519.79	50155.34
519.96	50506.42
520.14	50361.31
520.31	50628.13
520.48	50752.18
520.65	50506.42
520.83	50904.31
521.00	50759.20
521.17	50686.64
521.34	51327.95
521.52	50836.44
521.69	50808.35
521.86	50890.27
522.03	51250.71
522.20	51536.26
522.38	51793.71
522.55	51543.28
522.72	51550.30
522.89	51243.69
523.07	51793.71
523.24	51749.24
523.41	51779.67
523.58	51807.76
523.75	52149.48
523.92	52369.49
524.10	52287.57
524.27	52371.83
524.44	52535.66
524.61	52317.99
524.78	52458.43
524.96	52727.59
525.13	52736.95
525.30	52722.91
525.47	52439.70
525.64	52912.49
525.81	52924.19
525.98	53176.97
526.16	52610.56
526.33	53102.07
526.50	53261.23
526.67	52891.43
526.84	53226.12
527.01	53146.54
527.18	53200.38
527.36	52996.75
527.53	53418.05
527.70	53696.57
527.87	53640.40
528.04	53577.20
528.21	53502.31
528.38	53567.84
528.55	53581.88
528.72	53605.29
528.89	53834.66
529.07	53647.42
529.24	53586.57
529.41	53834.66
529.58	54171.70
529.75	53808.92
529.92	53872.11
530.09	53876.79
530.26	53879.13
530.43	54525.12
530.60	54141.27
530.77	54169.36
530.94	54204.47
531.11	54209.15
531.28	54337.88
531.46	54213.83
531.63	54403.41
531.80	54368.30
531.97	54557.89
532.14	54522.78
532.31	54408.09
532.48	55021.31
532.65	55042.38
532.82	54773.22
532.99	54749.81
533.16	54829.39
533.33	55023.65
533.50	55124.30
533.67	55049.40
533.84	54972.16
534.01	55531.55
534.18	55051.74
534.35	55346.65
534.52	55395.80
534.69	55283.45
534.86	55477.72
535.03	55264.73
535.20	55143.02
535.37	55800.71
535.54	55688.37
535.71	55585.38
535.88	55700.07
536.05	55632.19
536.22	55739.86
536.38	55686.03
536.55	55679.00
536.72	55798.37
536.89	55917.74
537.06	55868.59
537.23	56037.11
537.40	55702.41
537.57	55959.87
537.74	56231.37
537.91	56231.37
538.08	56151.79
538.25	55884.97
538.42	55922.42
538.59	56151.79
538.75	55959.87
538.92	56128.39
539.09	56280.52
539.26	56310.95
539.43	56322.65
539.60	56540.32
539.77	56423.29
539.94	56502.87
540.11	56458.40
540.28	56472.45
540.44	56645.65
540.61	56645.65
540.78	56694.80
540.95	56774.37
541.12	56765.01
541.29	56636.28
541.46	56701.82
541.62	56865.66
541.79	56919.49
541.96	56633.94
542.13	56549.68
542.30	56832.89
542.47	57200.35
542.63	56856.29
542.80	57160.56
542.97	57212.06
543.14	57476.54
543.31	57371.21
543.48	57305.68
543.64	57474.20
543.81	57633.35
543.98	57387.60
544.15	57631.01
544.32	57691.86
544.48	57773.78
544.65	57523.35
544.82	57736.34
544.99	57366.53
545.16	57626.33
545.32	57497.60
545.49	58031.24
545.66	57825.28
545.83	57729.31
546.00	57879.11
546.16	57797.19
546.33	57680.16
546.50	57623.99
546.67	58054.65
546.83	57591.22
547.00	57921.24
547.17	57923.58
547.34	58031.24
547.50	58162.31
547.67	58375.30
547.84	58038.26
548.00	58412.75
548.17	58361.26
548.34	58281.68
548.51	58574.25
548.67	58333.17
548.84	58239.55
549.01	58234.87
549.18	58298.06
549.34	58607.01
549.51	58344.87
549.68	58574.25
549.84	58429.13
550.01	58520.41
550.18	58298.06
550.34	58742.77
550.51	58693.61
550.68	58688.93
550.84	58506.37
551.01	58915.96
551.18	58749.79
551.34	58679.57
551.51	58738.08
551.68	58953.41
551.84	58745.11
552.01	58740.42
552.18	58969.80
552.34	58688.93
552.51	58873.84
552.68	58740.42
552.84	58796.60
553.01	59236.62
553.18	58960.44
553.34	59112.57
553.51	58904.26
553.67	58983.84
553.84	59075.12
554.01	59105.55
554.17	59114.91
554.34	59072.78
554.51	59054.06
554.67	59302.15
554.84	59011.93
555.00	59180.45
555.17	59023.63
555.33	59304.49
555.50	59175.76
555.67	59220.23
555.83	59313.86
556.00	59253.00
556.16	59564.29
556.33	59353.65
556.50	59465.99
556.66	59522.16
556.83	59421.52
556.99	59639.19
557.16	59590.04
557.32	59634.51
557.49	59629.83
557.65	59585.36
557.82	59627.49
557.98	59580.68
558.15	59690.68
558.32	59807.71
558.48	59412.16
558.65	59714.09
558.81	59561.95
558.98	59678.98
559.14	59749.20
559.31	59924.74
559.47	59889.63
559.64	59824.09
559.80	59929.42
559.97	59840.48
560.13	59873.24
560.30	60037.08
560.46	59777.28
560.63	60079.21
560.79	60018.36
560.96	59973.89
561.12	59934.10
561.29	59997.29
561.45	60189.22
561.61	59936.44
561.78	60004.31
561.94	60135.38
562.11	60116.66
562.27	60011.34
562.44	60161.13
562.60	60334.33
562.77	60299.22
562.93	60156.45
563.10	60191.56
563.26	60205.60
563.42	60282.84
563.59	60179.85
563.75	60030.06
563.92	60116.66
564.08	60205.60
564.24	60149.43
564.41	60259.43
564.57	60163.47
564.74	60292.20
564.90	60308.58
565.07	60257.09
565.23	60306.24
565.39	60289.86
565.56	60430.29
565.72	60135.38
565.88	60327.31
566.05	60261.77
566.21	60631.58
566.38	60456.04
566.54	60594.13
566.70	60622.22
566.87	60603.49
567.03	60240.71
567.19	60636.26
567.36	60638.60
567.52	60587.11
567.68	60704.13
567.85	60505.19
568.01	60633.92
568.17	60577.75
568.34	60626.90
568.50	60577.75
568.66	60327.31
568.83	60453.70
568.99	60451.36
569.15	60566.04
569.32	60404.55
569.48	60554.34
569.64	60697.11
569.81	60706.47
569.97	60544.98
570.13	60645.62
570.30	60591.79
570.46	60638.60
570.62	60886.70
570.78	60795.42
570.95	60781.37
571.11	60734.56
571.27	60774.35
571.43	60673.71
571.60	60832.86
571.76	60729.88
571.92	60788.39
572.09	61020.11
572.25	60697.11
572.41	60552.00
572.57	60669.03
572.74	60945.21
572.90	60980.32
573.06	60910.10
573.22	60867.97
573.38	60823.50
573.55	60720.52
573.71	60963.93
573.87	60727.54
574.03	60636.26
574.20	60844.57
574.36	60830.52
574.52	60816.48
574.68	60989.68
574.84	61052.87
575.01	60919.46
575.17	60783.71
575.33	60963.93
575.49	60898.40
575.65	60973.30
575.82	60849.25
575.98	61036.49
576.14	61102.03
576.30	60940.53
576.46	60832.86
576.62	60809.46
576.79	60886.70
576.95	60884.36
577.11	61008.40
577.27	60973.30
577.43	60949.89
577.59	60903.08
577.75	60849.25
577.92	60837.54
578.08	61146.50
578.24	60987.34
578.40	61155.86
578.56	61139.47
578.72	61104.37
578.88	61139.47
579.04	61071.60
579.21	61048.19
579.37	61109.05
579.53	61181.60
579.69	60907.76
579.85	60992.02
580.01	60846.91
580.17	60776.69
580.33	61069.26
580.49	61024.79
580.65	61146.50
580.82	60907.76
580.98	60987.34
581.14	60926.49
581.30	61113.73
581.46	61080.96
581.62	61013.08
581.78	61057.56
581.94	61183.94
582.10	61148.84
582.26	61207.35
582.42	61130.11
582.58	61022.45
582.74	61090.32
582.90	61043.51
583.06	61029.47
583.22	61038.83
583.38	61085.64
583.54	61095.00
583.70	61059.90
583.86	61106.71
584.02	61034.15
584.18	61169.90
584.34	61174.58
584.50	61113.73
584.66	60945.21
584.82	60884.36
584.98	61132.45
585.14	61085.64
585.30	61132.45
585.46	61226.07
585.62	61146.50
585.78	61242.46
585.94	61303.31
586.10	61155.86
586.26	61298.63
586.42	61071.60
586.58	61223.73
586.74	61045.85
586.90	61134.79
587.06	61029.47
587.22	61422.68
587.38	61216.71
587.54	61387.57
587.70	61427.36
587.86	61270.54
588.02	61179.26
588.18	61441.40
588.34	61041.17
588.49	61010.74
