SpectraSuite Data File
++++++++++++++++++++++++++++++++++++
Date: Fri Oct 25 11:26:33 EDT 2013
User: price-jones
Dark Spectrum Present: No
Reference Spectrum Present: No
Number of Sampled Component Spectra: 1
Spectrometers: USB2+H05261
Integration Time (usec): 100000 (USB2+H05261)
Spectra Averaged: 1 (USB2+H05261)
Boxcar Smoothing: 0 (USB2+H05261)
Correct for Electrical Dark: No (USB2+H05261)
Strobe/Lamp Enabled: No (USB2+H05261)
Correct for Detector Non-linearity: No (USB2+H05261)
Correct for Stray Light: No (USB2+H05261)
Number of Pixels in Processed Spectrum: 2048
>>>>>Begin Processed Spectral Data<<<<<
365.73	238.73
365.92	238.73
366.12	238.73
366.32	161.50
366.52	212.99
366.72	189.58
366.91	126.39
367.11	135.75
367.31	147.45
367.51	229.37
367.70	184.90
367.90	138.09
368.10	124.05
368.30	107.66
368.49	60.85
368.69	170.86
368.89	175.54
369.09	163.84
369.28	257.46
369.48	131.07
369.68	201.29
369.87	208.31
370.07	227.03
370.27	222.35
370.47	322.99
370.66	613.22
370.86	720.88
371.06	692.80
371.25	662.37
371.45	718.54
371.65	732.59
371.84	653.01
372.04	713.86
372.24	638.97
372.44	802.80
372.63	711.52
372.83	751.31
373.03	772.38
373.22	751.31
373.42	732.59
373.62	807.48
373.81	816.85
374.01	863.66
374.21	877.70
374.40	912.81
374.60	882.38
374.79	772.38
374.99	875.36
375.19	833.23
375.38	837.91
375.58	851.96
375.78	851.96
375.97	896.43
376.17	903.45
376.37	819.19
376.56	849.61
376.76	851.96
376.95	840.25
377.15	912.81
377.35	901.11
377.54	931.53
377.74	896.43
377.93	901.11
378.13	957.28
378.33	873.02
378.52	844.93
378.72	1008.77
378.91	997.07
379.11	887.06
379.31	870.68
379.50	896.43
379.70	985.37
379.89	985.37
380.09	880.04
380.28	936.21
380.48	1008.77
380.68	1011.11
380.87	1067.28
381.07	1062.60
381.26	1020.47
381.46	971.32
381.65	1076.65
381.85	985.37
382.04	1078.99
382.24	1032.18
382.43	1090.69
382.63	1081.33
382.83	1107.07
383.02	1121.12
383.22	1153.88
383.41	1128.14
383.61	1090.69
383.80	1100.05
384.00	1034.52
384.19	1118.78
384.39	1179.63
384.58	1149.20
384.78	1076.65
384.97	1214.74
385.17	1149.20
385.36	1196.01
385.56	1144.52
385.75	1144.52
385.95	1156.22
386.14	1270.91
386.34	1186.65
386.53	1167.93
386.72	1186.65
386.92	1301.34
387.11	1249.85
387.31	1324.74
387.50	1217.08
387.70	1240.48
387.89	1308.36
388.09	1270.91
388.28	1308.36
388.48	1226.44
388.67	1348.15
388.86	1296.66
389.06	1371.55
389.25	1444.11
389.45	1329.42
389.64	1420.71
389.84	1399.64
390.03	1418.36
390.22	1409.00
390.42	1413.68
390.61	1369.21
390.81	1352.83
391.00	1486.24
391.19	1507.30
391.39	1348.15
391.58	1416.02
391.78	1409.00
391.97	1355.17
392.16	1427.73
392.36	1600.93
392.55	1547.09
392.75	1479.22
392.94	1586.88
393.13	1523.69
393.33	1549.43
393.52	1542.41
393.71	1617.31
393.91	1713.27
394.10	1582.20
394.29	1589.22
394.49	1561.14
394.68	1638.38
394.88	1631.35
395.07	1703.91
395.26	1685.19
395.46	1584.54
395.65	1757.74
395.84	1760.08
396.04	1743.70
396.23	1837.32
396.42	1757.74
396.62	1846.68
396.81	1739.02
397.00	1778.81
397.19	1783.49
397.39	1874.77
397.58	1762.42
397.77	1792.85
397.97	1888.81
398.16	1825.62
398.35	2012.86
398.55	1870.09
398.74	1961.37
398.93	1966.05
399.12	1867.75
399.32	2022.22
399.51	1888.81
399.70	1996.48
399.90	2024.56
400.09	1984.77
400.28	2085.42
400.47	2040.95
400.67	1984.77
400.86	2052.65
401.05	2087.76
401.24	2073.71
401.44	2071.37
401.63	2209.47
401.82	2127.55
402.01	2104.14
402.21	2143.93
402.40	2127.55
402.59	2162.66
402.78	2218.83
402.97	2256.28
403.17	2169.68
403.36	2328.83
403.55	2335.85
403.74	2408.41
403.93	2270.32
404.13	2373.30
404.32	2275.00
404.51	2445.86
404.70	2427.14
404.89	2457.56
405.09	2539.48
405.28	2595.65
405.47	2546.50
405.66	2516.08
405.85	2586.29
406.05	2647.15
406.24	2555.86
406.43	2696.30
406.62	2623.74
406.81	2710.34
407.00	2588.63
407.20	2607.36
407.39	2764.17
407.58	2693.96
407.77	2853.11
407.96	2773.53
408.15	2874.18
408.34	2815.66
408.54	2785.24
408.73	2717.36
408.92	2909.29
409.11	2970.14
409.30	2752.47
409.49	2897.58
409.68	2986.52
409.87	2920.99
410.07	2932.69
410.26	3080.14
410.45	2958.44
410.64	2960.78
410.83	3063.76
411.02	3141.00
411.21	3157.38
411.40	3157.38
411.59	3253.34
411.78	3199.51
411.98	3213.56
412.17	3267.39
412.36	3236.96
412.55	3419.52
412.74	3452.29
412.93	3323.56
413.12	3300.16
413.31	3583.36
413.50	3559.95
413.69	3627.83
413.88	3712.09
414.07	3609.11
414.26	3695.71
414.45	3702.73
414.64	3599.74
414.83	3691.02
415.02	3833.80
415.22	3726.13
415.41	3808.05
415.60	3899.33
415.79	3922.74
415.98	3948.48
416.17	3997.64
416.36	3936.78
416.55	3913.38
416.74	4021.04
416.93	3999.98
417.12	4135.73
417.31	4257.43
417.50	4156.79
417.69	4294.88
417.88	4360.42
418.07	4327.65
418.26	4269.14
418.45	4297.22
418.64	4559.36
418.83	4573.41
419.02	4503.19
419.21	4519.57
419.39	4390.84
419.58	4571.07
419.77	4437.66
419.96	4575.75
420.15	4709.16
420.34	4641.28
420.53	4606.17
420.72	4753.63
420.91	4688.09
421.10	4671.71
421.29	4816.82
421.48	4770.01
421.67	4781.71
421.86	4802.78
422.05	4842.57
422.24	4781.71
422.43	4919.81
422.61	5034.49
422.80	5109.39
422.99	4842.57
423.18	5004.07
423.37	4901.08
423.56	4964.28
423.75	4896.40
423.94	4929.17
424.13	4578.09
424.32	4798.10
424.50	4936.19
424.69	5163.22
424.88	5001.72
425.07	4992.36
425.26	4915.12
425.45	4901.08
425.64	4936.19
425.83	5041.51
426.01	5167.90
426.20	5160.88
426.39	5069.60
426.58	5039.17
426.77	5158.54
426.96	5088.32
427.15	5167.90
427.33	5146.84
427.52	5102.37
427.71	5284.93
427.90	5207.69
428.09	5261.52
428.28	5348.12
428.46	5444.09
428.65	5287.27
428.84	5589.20
429.03	5514.30
429.22	5322.38
429.40	5432.38
429.59	5640.69
429.78	5446.43
429.97	5322.38
430.16	5528.35
430.34	5626.65
430.53	5572.82
430.72	5638.35
430.91	5537.71
431.10	5715.59
431.28	5757.72
431.47	5849.00
431.66	5968.37
431.85	5830.27
432.03	5741.33
432.22	6054.97
432.41	5961.34
432.60	5881.77
432.79	6052.63
432.97	6010.50
433.16	6022.20
433.35	5956.66
433.54	6218.80
433.72	6181.35
433.91	6291.36
434.10	6211.78
434.28	6101.78
434.47	6253.91
434.66	6235.19
434.85	6249.23
435.03	6312.42
435.22	6408.39
435.41	6558.18
435.59	6422.43
435.78	6408.39
435.97	6588.61
436.16	6560.52
436.34	6361.58
436.53	6562.86
436.72	6782.87
436.90	6469.24
437.09	6478.60
437.28	6532.44
437.46	6644.78
437.65	6401.37
437.84	6771.17
438.02	6768.83
438.21	6911.60
438.40	6684.57
438.58	7138.63
438.77	7063.74
438.96	7002.88
439.14	7091.82
439.33	7066.08
439.52	7316.51
439.70	7302.47
439.89	7192.47
440.08	7386.73
440.26	7595.04
440.45	7421.84
440.63	7459.29
440.82	7531.84
441.01	7662.91
441.19	7475.67
441.38	7665.25
441.57	7749.51
441.75	7939.10
441.94	8035.06
442.12	7868.88
442.31	8107.62
442.50	8086.55
442.68	7967.18
442.87	8013.99
443.05	8177.83
443.24	8159.11
443.43	8299.54
443.61	8217.62
443.80	8367.42
443.98	8266.77
444.17	7948.46
444.35	8248.05
444.54	8482.10
444.73	8468.06
444.91	8280.82
445.10	8435.29
445.28	8297.20
445.47	8191.88
445.65	8409.54
445.84	8454.02
446.02	8709.13
446.21	8344.01
446.39	8355.71
446.58	8681.05
446.77	8463.38
446.95	8273.79
447.14	8526.57
447.32	8758.28
447.51	8561.68
447.69	8285.50
447.88	8418.91
448.06	8482.10
448.25	8512.53
448.43	8734.88
448.62	8540.61
448.80	8318.26
448.99	8538.27
449.17	8856.59
449.36	8751.26
449.54	8931.48
449.73	8950.21
449.91	9207.67
450.10	8856.59
450.28	9132.77
450.46	9144.47
450.65	9001.70
450.83	9252.14
451.02	8954.89
451.20	9238.09
451.39	9104.68
451.57	9170.22
451.76	9013.40
451.94	9104.68
452.13	9341.08
452.31	9205.33
452.49	9378.53
452.68	9268.52
452.86	9341.08
453.05	9324.69
453.23	9563.43
453.42	9310.65
453.60	9425.34
453.78	9619.60
453.97	9453.42
454.15	9544.70
454.34	9357.46
454.52	9743.65
454.70	9846.63
454.89	9865.36
455.07	9874.72
455.26	9872.38
455.44	10064.30
455.62	10029.20
455.81	9923.87
455.99	9982.38
456.17	10008.13
456.36	9982.38
456.54	10073.67
456.73	10141.54
456.91	10387.30
457.09	10296.02
457.28	10422.41
457.46	10319.42
457.64	10562.84
457.83	10298.36
458.01	10581.56
458.19	10619.01
458.38	10396.66
458.56	10590.92
458.74	10878.81
458.93	10778.17
459.11	10803.91
459.29	10719.65
459.48	10918.60
459.66	10733.70
459.84	11030.94
460.03	11009.88
460.21	11187.76
460.39	10899.87
460.57	11012.22
460.76	11077.76
460.94	11293.08
461.12	11281.38
461.31	11269.68
461.49	11218.19
461.67	11178.40
461.85	11506.07
462.04	11316.49
462.22	11585.65
462.40	11583.31
462.59	11595.01
462.77	11576.29
462.95	11782.26
463.13	11653.53
463.32	11662.89
463.50	11915.67
463.68	11887.58
463.86	11744.81
464.05	11580.97
464.23	11737.79
464.41	11967.16
464.59	11826.73
464.78	12145.04
464.96	12175.47
465.14	11985.88
465.32	12037.38
465.50	12056.10
465.69	12217.60
465.87	12187.17
466.05	12203.55
466.23	12116.95
466.41	12166.10
466.60	12358.03
466.78	12390.80
466.96	12241.00
467.14	12208.23
467.32	12533.57
467.51	12566.34
467.69	12311.22
467.87	12564.00
468.05	12514.84
468.23	12500.80
468.41	12437.61
468.60	12697.41
468.78	12844.86
468.96	12798.05
469.14	12842.52
469.32	13116.36
469.50	12748.90
469.69	13195.94
469.87	13022.74
470.05	13308.29
470.23	13195.94
470.41	13217.01
470.59	13226.37
470.77	13268.50
470.95	13301.26
471.14	13556.38
471.32	13198.28
471.50	13788.10
471.68	13666.39
471.86	13748.31
472.04	13579.79
472.22	14003.43
472.40	13635.96
472.58	14001.08
472.77	13767.03
472.95	13942.57
473.13	14827.29
473.31	13951.93
473.49	14246.84
473.67	14141.52
473.85	14136.84
474.03	14806.23
474.21	14569.83
474.39	14792.19
474.57	14581.54
474.75	15063.69
474.93	14892.83
475.12	14841.34
475.30	15037.94
475.48	14869.42
475.66	15262.63
475.84	15290.72
476.02	15712.02
476.20	15293.06
476.38	15548.18
476.56	16042.03
476.74	15922.66
476.92	15712.02
477.10	16102.89
477.28	15985.86
477.46	16224.59
477.64	16468.01
477.82	16463.33
478.00	16765.26
478.18	16711.42
478.36	16952.50
478.54	17032.08
478.72	17380.82
478.90	17434.65
479.08	17516.57
479.26	17937.87
479.44	17502.53
479.62	17867.65
479.80	18043.19
479.98	18272.56
480.16	18607.26
480.34	18321.71
480.52	18640.03
480.70	18607.26
480.88	18642.37
481.06	18972.38
481.24	19157.28
481.41	19295.38
481.59	19363.25
481.77	19407.72
481.95	19854.76
482.13	19704.97
482.31	19480.28
482.49	20350.96
482.67	20084.14
482.85	20589.69
483.03	20629.48
483.21	20992.26
483.39	20919.71
483.57	21095.25
483.74	21048.44
483.92	21565.70
484.10	21369.09
484.28	21830.18
484.46	22033.80
484.64	22366.16
484.82	22108.70
485.00	21972.95
485.18	22920.87
485.35	22932.57
485.53	22747.67
485.71	23087.04
485.89	23463.87
486.07	23475.57
486.25	23571.54
486.43	23674.52
486.61	23751.76
486.78	24077.09
486.96	24395.40
487.14	24479.66
487.32	24694.99
487.50	24816.70
487.68	24950.11
487.85	25083.52
488.03	25535.24
488.21	25912.07
488.39	25919.09
488.57	26291.24
488.75	25970.58
488.92	26691.47
489.10	26625.93
489.28	26534.65
489.46	27007.44
489.64	26862.33
489.81	27644.07
489.99	27187.66
490.17	27714.28
490.35	28034.94
490.53	28240.90
490.70	28360.27
490.88	28229.20
491.06	28760.50
491.24	29104.56
491.41	29235.63
491.59	29539.90
491.77	29888.64
491.95	29603.10
492.13	29502.45
492.30	30286.53
492.48	29652.25
492.66	30312.28
492.84	30153.12
493.01	30733.57
493.19	30719.53
493.37	30953.58
493.54	31356.16
493.72	31622.98
493.90	31424.03
494.08	31236.79
494.25	31800.86
494.43	31868.73
494.61	31960.02
494.79	32568.55
494.96	32786.22
495.14	32355.57
495.32	33268.37
495.49	33111.56
495.67	33450.94
495.85	33488.38
496.02	33755.21
496.20	34160.12
496.38	33949.47
496.55	34562.69
496.73	34983.99
496.91	34567.37
497.09	34810.79
497.26	34876.32
497.44	35225.06
497.62	35566.78
497.79	35658.06
497.97	35754.02
498.14	36161.28
498.32	36449.16
498.50	36404.69
498.67	36884.50
498.85	36322.77
499.03	37055.36
499.20	37134.94
499.38	36638.75
499.56	37174.73
499.73	37015.57
499.91	37535.17
500.08	37638.15
500.26	37511.77
500.44	37762.20
500.61	37919.02
500.79	37813.70
500.97	38258.40
501.14	38384.79
501.32	38368.40
501.49	38689.06
501.67	38958.22
501.84	38843.53
502.02	38710.12
502.20	38752.25
502.37	39592.50
502.55	39491.86
502.72	39442.71
502.90	39459.09
503.07	39576.12
503.25	39842.94
503.43	39529.31
503.60	40271.26
503.78	40488.93
503.95	40722.98
504.13	40236.15
504.30	40589.57
504.48	40526.38
504.65	41074.06
504.83	41373.65
505.01	41289.39
505.18	41322.16
505.36	41418.12
505.53	41216.83
505.71	41755.16
505.88	42120.28
506.06	41727.07
506.23	42232.63
506.41	42050.06
506.58	42567.32
506.76	42347.31
506.93	42590.73
507.11	42419.87
507.28	42656.26
507.46	42686.69
507.63	42834.14
507.81	42827.12
507.98	43016.71
508.16	43133.73
508.33	43714.19
508.50	43503.54
508.68	43899.09
508.85	43922.49
509.03	43990.37
509.20	44121.44
509.38	44601.25
509.55	44236.12
509.73	44610.61
509.90	44105.06
510.08	44802.53
510.25	44598.91
510.42	44690.19
510.60	45130.21
510.77	45064.67
510.95	46019.61
511.12	45432.14
511.30	45340.86
511.47	45605.34
511.64	45591.30
511.82	45689.60
511.99	45399.37
512.17	46138.98
512.34	46230.26
512.51	46012.59
512.69	46314.52
512.86	46649.22
513.04	46471.34
513.21	46314.52
513.38	46808.37
513.56	47217.97
513.73	46656.24
513.90	47316.27
514.08	47327.97
514.25	47206.26
514.43	47477.77
514.60	47845.23
514.77	47381.80
514.95	48133.12
515.12	47449.68
515.29	47952.90
515.47	48322.70
515.64	48037.16
515.81	48191.63
515.99	48062.90
516.16	48032.47
516.33	48088.65
516.51	48776.76
516.68	48378.87
516.85	48722.93
517.03	48685.48
517.20	48926.56
517.37	48210.35
517.54	49247.21
517.72	48856.34
517.89	49015.50
518.06	49130.19
518.24	49279.98
518.41	49525.74
518.58	49570.21
518.75	49074.01
518.93	49722.34
519.10	49366.58
519.27	49457.86
519.45	49937.67
519.62	49904.90
519.79	49872.14
519.96	50415.14
520.14	50387.05
520.31	50064.06
520.48	50438.54
520.65	50213.85
520.83	50609.40
521.00	50944.10
521.17	50571.96
521.34	50663.24
521.52	50836.44
521.69	50969.85
521.86	51051.76
522.03	51215.60
522.20	51409.87
522.38	51456.68
522.55	51576.04
522.72	51299.86
522.89	51377.10
523.07	51714.14
523.24	51290.50
523.41	51704.77
523.58	51363.06
523.75	51985.64
523.92	51973.94
524.10	52107.35
524.27	52329.70
524.44	52369.49
524.61	52135.43
524.78	52376.51
524.96	52280.55
525.13	52329.70
525.30	52580.13
525.47	52638.65
525.64	52561.41
525.81	52561.41
525.98	52779.08
526.16	52758.02
526.33	52472.47
526.50	53001.43
526.67	52811.85
526.84	53043.56
527.01	52959.30
527.18	52828.23
527.36	52816.53
527.53	52725.25
527.70	53448.47
527.87	53455.50
528.04	53258.89
528.21	53560.82
528.38	53399.32
528.55	53626.35
528.72	53565.50
528.89	53539.75
529.07	53801.89
529.24	53457.84
529.41	53834.66
529.58	53689.55
529.75	53607.63
529.92	53834.66
530.09	53907.22
530.26	53925.94
530.43	54138.93
530.60	53851.05
530.77	53991.48
530.94	54298.09
531.11	53984.46
531.28	54220.85
531.46	54181.06
531.63	54272.34
531.80	54246.60
531.97	54262.98
532.14	54475.97
532.31	54384.69
532.48	54520.44
532.65	54674.91
532.82	54532.14
532.99	54590.66
533.16	54501.71
533.33	54773.22
533.50	54974.50
533.67	55000.25
533.84	54672.57
534.01	54756.83
534.18	55037.70
534.35	55171.11
534.52	55243.66
534.69	55348.99
534.86	55234.30
535.03	55217.92
535.20	55407.50
535.37	55203.88
535.54	55430.91
535.71	55274.09
535.88	55388.78
536.05	55473.04
536.22	55700.07
536.38	55414.52
536.55	55559.64
536.72	55723.47
536.89	55601.77
537.06	55601.77
537.23	55826.46
537.40	55515.17
537.57	55796.03
537.74	55838.16
537.91	55908.38
538.08	56165.84
538.25	55625.17
538.42	56133.07
538.59	56200.94
538.75	55884.97
538.92	55997.32
539.09	56329.67
539.26	56151.79
539.43	56144.77
539.60	56212.65
539.77	56339.04
539.94	56554.36
540.11	56460.74
540.28	56388.19
540.44	56362.44
540.61	56540.32
540.78	56336.69
540.95	56357.76
541.12	56432.66
541.29	56470.11
541.46	56444.36
541.62	56748.63
541.79	56926.51
541.96	56481.81
542.13	56685.43
542.30	57155.88
542.47	56788.42
542.63	56715.86
542.80	56992.04
542.97	57109.07
543.14	57350.15
543.31	57127.80
543.48	57160.56
543.64	57467.17
543.81	57497.60
543.98	57411.00
544.15	57242.48
544.32	57443.77
544.48	57579.52
544.65	57368.87
544.82	57614.63
544.99	57284.61
545.16	57357.17
545.32	57317.38
545.49	57649.74
545.66	57900.17
545.83	57762.08
546.00	57886.13
546.16	57757.40
546.33	57673.14
546.50	57616.97
546.67	57876.77
546.83	57411.00
547.00	57794.85
547.17	57724.63
547.34	57687.18
547.50	57970.39
547.67	58094.44
547.84	57965.71
548.00	58035.92
548.17	58171.67
548.34	58113.16
548.51	58192.74
548.67	58213.80
548.84	58347.21
549.01	58148.27
549.18	58094.44
549.34	58075.71
549.51	58394.03
549.68	58333.17
549.84	58473.60
550.01	58576.59
550.18	58412.75
550.34	58560.20
550.51	58468.92
550.68	58590.63
550.84	58309.77
551.01	58639.78
551.18	58637.44
551.34	58560.20
551.51	58597.65
551.68	58623.40
551.84	58644.46
552.01	58557.86
552.18	58515.73
552.34	58543.82
552.51	58810.64
552.68	58539.14
552.84	58805.96
553.01	58761.49
553.18	58876.18
553.34	58887.88
553.51	58782.55
553.67	59021.29
553.84	59082.14
554.01	59124.27
554.17	58850.43
554.34	58965.12
554.51	58965.12
554.67	59171.08
554.84	59037.67
555.00	58962.78
555.17	59199.17
555.33	59063.42
555.50	59105.55
555.67	58841.07
555.83	59011.93
556.00	59297.47
556.16	59561.95
556.33	59412.16
556.50	59220.23
556.66	59231.94
556.83	59271.73
556.99	59330.24
557.16	59414.50
557.32	59545.57
557.49	59437.90
557.65	59243.64
557.82	59339.60
557.98	59302.15
558.15	59552.59
558.32	59615.79
558.48	59384.07
558.65	59573.66
558.81	59611.10
558.98	59671.96
559.14	59590.04
559.31	59681.32
559.47	59592.38
559.64	59852.18
559.80	59845.16
559.97	59845.16
560.13	59554.93
560.30	59669.62
560.46	59838.14
560.63	59810.05
560.79	59884.95
560.96	59840.48
561.12	59861.54
561.29	59955.16
561.45	59934.10
561.61	59985.59
561.78	59973.89
561.94	59756.22
562.11	59861.54
562.27	59994.95
562.44	60051.12
562.60	60041.76
562.77	60079.21
562.93	59819.41
563.10	60186.88
563.26	60154.11
563.42	60221.98
563.59	59868.56
563.75	59868.56
563.92	59931.76
564.08	60041.76
564.24	60224.32
564.41	60065.17
564.57	60114.32
564.74	60313.26
564.90	60219.64
565.07	60355.39
565.23	60116.66
565.39	60039.42
565.56	60200.92
565.72	60317.95
565.88	60236.03
566.05	60250.07
566.21	60184.54
566.38	60282.84
566.54	60289.86
566.70	60427.95
566.87	60413.91
567.03	60032.40
567.19	60413.91
567.36	60362.42
567.52	60507.53
567.68	60706.47
567.85	60214.96
568.01	60540.30
568.17	60296.88
568.34	60179.85
568.50	60294.54
568.66	60259.43
568.83	60650.30
568.99	60205.60
569.15	60350.71
569.32	60322.63
569.48	60289.86
569.64	60622.22
569.81	60570.72
569.97	60306.24
570.13	60509.87
570.30	60495.83
570.46	60601.15
570.62	60540.30
570.78	60484.12
570.95	60495.83
571.11	60587.11
571.27	60498.17
571.43	60514.55
571.60	60537.96
571.76	60715.84
571.92	60699.45
572.09	60556.68
572.25	60587.11
572.41	60509.87
572.57	60463.06
572.74	60889.04
572.90	60664.35
573.06	60624.56
573.22	60671.37
573.38	60683.07
573.55	60657.32
573.71	60713.50
573.87	60809.46
574.03	60540.30
574.20	60701.79
574.36	60755.63
574.52	60814.14
574.68	60844.57
574.84	60985.00
575.01	60884.36
575.17	60760.31
575.33	60662.00
575.49	60669.03
575.65	60664.35
575.82	60954.57
575.98	60891.38
576.14	61055.21
576.30	60910.10
576.46	60956.91
576.62	60879.67
576.79	60790.73
576.95	60823.50
577.11	60938.19
577.27	60783.71
577.43	60786.05
577.59	60809.46
577.75	60802.44
577.92	60769.67
578.08	60673.71
578.24	60715.84
578.40	60973.30
578.56	60842.23
578.72	60907.76
578.88	60954.57
579.04	61057.56
579.21	60821.16
579.37	61059.90
579.53	61139.47
579.69	60825.84
579.85	60631.58
580.01	60769.67
580.17	60849.25
580.33	60877.33
580.49	61104.37
580.65	61092.66
580.82	60996.70
580.98	60622.22
581.14	60725.20
581.30	61212.03
581.46	60985.00
581.62	61010.74
581.78	60900.74
581.94	61066.92
582.10	60774.35
582.26	60769.67
582.42	60732.22
582.58	61141.81
582.74	60830.52
582.90	61010.74
583.06	60954.57
583.22	60619.88
583.38	61015.43
583.54	60858.61
583.70	60954.57
583.86	61118.41
584.02	60835.20
584.18	61263.52
584.34	60987.34
584.50	61207.35
584.66	60994.36
584.82	60856.27
584.98	61268.20
585.14	61024.79
585.30	60870.31
585.46	60968.61
585.62	60877.33
585.78	61045.85
585.94	60849.25
586.10	61085.64
586.26	61221.39
586.42	61106.71
586.58	61300.97
586.74	61139.47
586.90	61102.03
587.06	61167.56
587.22	61162.88
587.38	60956.91
587.54	61132.45
587.70	61111.39
587.86	61095.00
588.02	61059.90
588.18	61127.77
588.34	61123.09
588.49	61205.01
