SpectraSuite Data File
++++++++++++++++++++++++++++++++++++
Date: Fri Oct 25 10:44:07 EDT 2013
User: price-jones
Dark Spectrum Present: No
Reference Spectrum Present: No
Number of Sampled Component Spectra: 1
Spectrometers: USB2+H05261
Integration Time (usec): 100000 (USB2+H05261)
Spectra Averaged: 1 (USB2+H05261)
Boxcar Smoothing: 0 (USB2+H05261)
Correct for Electrical Dark: No (USB2+H05261)
Strobe/Lamp Enabled: No (USB2+H05261)
Correct for Detector Non-linearity: No (USB2+H05261)
Correct for Stray Light: No (USB2+H05261)
Number of Pixels in Processed Spectrum: 2048
>>>>>Begin Processed Spectral Data<<<<<
365.73	74.90
365.92	74.90
366.12	74.90
366.32	23.41
366.52	14.04
366.72	16.38
366.91	49.15
367.11	102.98
367.31	0.00
367.51	21.06
367.70	0.00
367.90	0.00
368.10	14.04
368.30	72.56
368.49	21.06
368.69	91.28
368.89	0.00
369.09	0.00
369.28	58.51
369.48	93.62
369.68	114.69
369.87	107.66
370.07	37.45
370.27	128.73
370.47	227.03
370.66	397.89
370.86	379.17
371.06	491.51
371.25	507.90
371.45	447.04
371.65	521.94
371.84	463.43
372.04	531.30
372.24	374.49
372.44	440.02
372.63	458.74
372.83	454.06
373.03	538.32
373.22	540.66
373.42	498.53
373.62	503.22
373.81	545.34
374.01	519.60
374.21	514.92
374.40	491.51
374.60	557.05
374.79	580.45
374.99	624.92
375.19	596.84
375.38	521.94
375.58	634.29
375.78	624.92
375.97	594.50
376.17	648.33
376.37	550.03
376.56	568.75
376.76	601.52
376.95	489.17
377.15	732.59
377.35	653.01
377.54	622.58
377.74	634.29
377.93	622.58
378.13	655.35
378.33	697.48
378.52	662.37
378.72	610.88
378.91	636.63
379.11	685.78
379.31	610.88
379.50	580.45
379.70	723.23
379.89	697.48
380.09	734.93
380.28	678.76
380.48	627.26
380.68	697.48
380.87	592.16
381.07	706.84
381.26	699.82
381.46	650.67
381.65	718.54
381.85	664.71
382.04	683.44
382.24	657.69
382.43	746.63
382.63	739.61
382.83	734.93
383.02	720.88
383.22	697.48
383.41	669.39
383.61	781.74
383.80	770.04
384.00	772.38
384.19	837.91
384.39	819.19
384.58	763.01
384.78	777.06
384.97	791.10
385.17	819.19
385.36	826.21
385.56	823.87
385.75	734.93
385.95	788.76
386.14	875.36
386.34	814.51
386.53	800.46
386.72	800.46
386.92	894.08
387.11	851.96
387.31	833.23
387.50	877.70
387.70	891.74
387.89	812.17
388.09	891.74
388.28	884.72
388.48	837.91
388.67	1046.22
388.86	940.90
389.06	983.02
389.25	987.71
389.45	966.64
389.64	922.17
389.84	929.19
390.03	1123.46
390.22	936.21
390.42	994.73
390.61	910.47
390.81	1006.43
391.00	924.51
391.19	990.05
391.39	1050.90
391.58	1001.75
391.78	990.05
391.97	1013.45
392.16	1053.24
392.36	1036.86
392.55	919.83
392.75	945.58
392.94	1032.18
393.13	957.28
393.33	980.68
393.52	961.96
393.71	1029.84
393.91	1093.03
394.10	1055.58
394.29	1121.12
394.49	1118.78
394.68	1184.31
394.88	1196.01
395.07	1275.59
395.26	1151.54
395.46	1198.35
395.65	1263.89
395.84	1261.55
396.04	1282.61
396.23	1167.93
396.42	1289.64
396.62	1144.52
396.81	1165.59
397.00	1240.48
397.19	1362.19
397.39	1313.04
397.58	1362.19
397.77	1336.45
397.97	1460.49
398.16	1341.13
398.35	1448.79
398.55	1497.94
398.74	1575.18
398.93	1575.18
399.12	1558.80
399.32	1509.65
399.51	1511.99
399.70	1572.84
399.90	1591.56
400.09	1617.31
400.28	1619.65
400.47	1593.90
400.67	1645.40
400.86	1596.25
401.05	1596.25
401.24	1657.10
401.44	1748.38
401.63	1771.79
401.82	1806.89
402.01	1624.33
402.21	1760.08
402.40	1764.76
402.59	1739.02
402.78	1750.72
402.97	1715.61
403.17	1842.00
403.36	1771.79
403.55	1774.13
403.74	1947.33
403.93	1778.81
404.13	1849.02
404.32	1872.43
404.51	1844.34
404.70	1886.47
404.89	1842.00
405.09	1928.60
405.28	1914.56
405.47	1937.96
405.66	1987.11
405.85	1996.48
406.05	1970.73
406.24	1937.96
406.43	1963.71
406.62	2097.12
406.81	2113.50
407.00	2019.88
407.20	2024.56
407.39	2179.04
407.58	2246.91
407.77	2190.74
407.96	2181.38
408.15	2251.60
408.34	2244.57
408.54	2298.41
408.73	2197.76
408.92	2284.36
409.11	2333.51
409.30	2296.07
409.49	2333.51
409.68	2392.03
409.87	2172.02
410.07	2406.07
410.26	2422.45
410.45	2366.28
410.64	2434.16
410.83	2424.80
411.02	2555.86
411.21	2434.16
411.40	2504.37
411.59	2616.72
411.78	2462.24
411.98	2605.02
412.17	2600.34
412.36	2597.99
412.55	2724.38
412.74	2750.13
412.93	2656.51
413.12	2745.45
413.31	2764.17
413.50	2841.41
413.69	2792.26
413.88	2867.16
414.07	2883.54
414.26	2986.52
414.45	2972.48
414.64	3040.36
414.83	3063.76
415.02	3239.30
415.22	3052.06
415.41	3159.72
415.60	3073.12
415.79	3112.91
415.98	3178.45
416.17	3241.64
416.36	3262.71
416.55	3281.43
416.74	3211.22
416.93	3218.24
417.12	3328.24
417.31	3393.78
417.50	3281.43
417.69	3543.57
417.88	3452.29
418.07	3459.31
418.26	3410.16
418.45	3435.91
418.64	3702.73
418.83	3543.57
419.02	3538.89
419.21	3536.55
419.39	3550.59
419.58	3555.27
419.77	3555.27
419.96	3590.38
420.15	3698.05
420.34	3679.32
420.53	3808.05
420.72	3751.88
420.91	3817.41
421.10	3796.35
421.29	3817.41
421.48	3686.34
421.67	3723.79
421.86	3838.48
422.05	3845.50
422.24	3751.88
422.43	3925.08
422.61	3824.44
422.80	3936.78
422.99	3957.85
423.18	3861.88
423.37	4009.34
423.56	3946.14
423.75	3892.31
423.94	3882.95
424.13	3709.75
424.32	3723.79
424.50	4074.87
424.69	3943.80
424.88	3934.44
425.07	3768.26
425.26	3962.53
425.45	4046.79
425.64	3889.97
425.83	3880.61
426.01	4091.26
426.20	3932.10
426.39	3918.06
426.58	4072.53
426.77	3946.14
426.96	4065.51
427.15	3925.08
427.33	4039.76
427.52	4161.47
427.71	4063.17
427.90	4128.70
428.09	4046.79
428.28	4241.05
428.46	4042.11
428.65	4067.85
428.84	4287.86
429.03	4114.66
429.22	4058.49
429.40	4107.64
429.59	4105.30
429.78	3929.76
429.97	3932.10
430.16	3999.98
430.34	4119.34
430.53	3990.61
430.72	4189.56
430.91	4173.18
431.10	4318.29
431.28	4552.34
431.47	4580.43
431.66	4608.51
431.85	4432.97
432.03	4482.13
432.22	4568.73
432.41	4702.14
432.60	4744.27
432.79	4765.33
432.97	4657.67
433.16	4699.80
433.35	4545.32
433.54	4601.49
433.72	4669.37
433.91	4648.30
434.10	4856.61
434.28	4655.33
434.47	4847.25
434.66	4854.27
434.85	4987.68
435.03	5064.92
435.22	4987.68
435.41	5160.88
435.59	4926.83
435.78	5004.07
435.97	5025.13
436.16	5170.24
436.34	5123.43
436.53	5191.31
436.72	5088.32
436.90	5048.54
437.09	5050.88
437.28	5233.44
437.46	5130.45
437.65	5294.29
437.84	5207.69
438.02	5207.69
438.21	5210.03
438.40	5249.82
438.58	5390.25
438.77	5493.24
438.96	5331.74
439.14	5502.60
439.33	5542.39
439.52	5633.67
439.70	5542.39
439.89	5722.61
440.08	5708.57
440.26	5652.39
440.45	5827.93
440.63	5933.26
440.82	6054.97
441.01	5933.26
441.19	5898.15
441.38	6078.37
441.57	5982.41
441.75	6218.80
441.94	6230.51
442.12	6354.55
442.31	6277.32
442.50	6253.91
442.68	6265.61
442.87	6286.68
443.05	6169.65
443.24	6335.83
443.43	6462.22
443.61	6392.00
443.80	6590.95
443.98	6434.13
444.17	6101.78
444.35	6480.94
444.54	6532.44
444.73	6565.20
444.91	6609.67
445.10	6466.90
445.28	6448.18
445.47	6279.66
445.65	6494.99
445.84	6600.31
446.02	6506.69
446.21	6628.40
446.39	6473.92
446.58	6665.85
446.77	6628.40
446.95	6590.95
447.14	6698.61
447.32	6609.67
447.51	6555.84
447.69	6597.97
447.88	6745.42
448.06	6839.05
448.25	6647.12
448.43	6637.76
448.62	6574.56
448.80	6619.04
448.99	6736.06
449.17	6707.98
449.36	6871.81
449.54	6792.23
449.73	7014.59
449.91	7012.24
450.10	7101.19
450.28	7183.10
450.46	7054.37
450.65	7145.66
450.83	7321.20
451.02	7110.55
451.20	7155.02
451.39	7115.23
451.57	7274.38
451.76	7049.69
451.94	7290.77
452.13	7213.53
452.31	7232.26
452.49	7040.33
452.68	7192.47
452.86	7260.34
453.05	7063.74
453.23	7316.51
453.42	7269.70
453.60	7304.81
453.78	7440.56
453.97	7405.46
454.15	7356.30
454.34	7145.66
454.52	7393.75
454.70	7648.87
454.89	7592.70
455.07	7428.86
455.26	7506.10
455.44	7639.51
455.62	7861.86
455.81	7707.38
455.99	7864.20
456.17	7683.98
456.36	7817.39
456.54	8011.65
456.73	7983.57
456.91	8049.10
457.09	7960.16
457.28	8404.86
457.46	8072.51
457.64	8149.75
457.83	8138.04
458.01	8142.72
458.19	8299.54
458.38	8149.75
458.56	8292.52
458.74	8402.52
458.93	8135.70
459.11	8411.89
459.29	8126.34
459.48	8458.70
459.66	8294.86
459.84	8475.08
460.03	8318.26
460.21	8507.85
460.39	8362.73
460.57	8336.99
460.76	8425.93
460.94	8664.66
461.12	8538.27
461.31	8674.03
461.49	8840.20
461.67	8599.13
461.85	8713.81
462.04	8894.04
462.22	9102.34
462.40	9032.13
462.59	8585.08
462.77	8978.30
462.95	8912.76
463.13	8938.51
463.32	8957.23
463.50	8863.61
463.68	9025.11
463.86	8926.80
464.05	8887.01
464.23	8865.95
464.41	9160.86
464.59	8814.46
464.78	9074.26
464.96	9025.11
465.14	9015.74
465.32	9142.13
465.50	9298.95
465.69	9465.13
465.87	9231.07
466.05	9252.14
466.23	9107.02
466.41	9298.95
466.60	9355.12
466.78	9090.64
466.96	9320.01
467.14	9277.88
467.32	9291.93
467.51	9303.63
467.69	9135.11
467.87	9415.98
468.05	9584.49
468.23	9502.58
468.41	9404.27
468.60	9427.68
468.78	9626.62
468.96	9418.32
469.14	9582.15
469.32	9727.27
469.50	9448.74
469.69	9626.62
469.87	9593.86
470.05	9713.22
470.23	10139.20
470.41	9666.41
470.59	9884.08
470.77	9834.93
470.95	10176.65
471.14	10265.59
471.32	9804.50
471.50	10340.49
471.68	10221.12
471.86	10223.46
472.04	10420.06
472.22	10494.96
472.40	10331.12
472.58	10342.83
472.77	10335.81
472.95	10520.71
473.13	10799.23
473.31	10345.17
473.49	10513.69
473.67	10597.95
473.85	10785.19
474.03	10867.11
474.21	10885.83
474.39	11213.51
474.57	11009.88
474.75	11267.34
474.93	11197.12
475.12	11131.59
475.30	11372.66
475.48	11351.60
475.66	11190.10
475.84	11185.42
476.02	11356.28
476.20	11470.97
476.38	11595.01
476.56	11875.88
476.74	11775.24
476.92	11609.06
477.10	11756.51
477.28	11941.41
477.46	11915.67
477.64	12432.93
477.82	12451.65
478.00	12491.44
478.18	12402.50
478.36	12500.80
478.54	12737.20
478.72	12809.75
478.90	12826.14
479.08	12924.44
479.26	13034.44
479.44	13238.07
479.62	13240.41
479.80	13275.52
479.98	13469.78
480.16	13446.38
480.34	13472.12
480.52	13671.07
480.70	13984.70
480.88	13865.33
481.06	13540.00
481.24	13982.36
481.41	14438.76
481.59	14251.52
481.77	14490.26
481.95	14204.71
482.13	14792.19
482.31	14724.31
482.49	14888.15
482.67	14967.73
482.85	14930.28
483.03	15171.35
483.21	15068.37
483.39	15445.20
483.57	15300.08
483.74	15538.82
483.92	15470.94
484.10	15269.66
484.28	15925.00
484.46	15992.88
484.64	16283.11
484.82	16358.00
485.00	16093.52
485.18	16358.00
485.35	16519.50
485.53	16224.59
485.71	16304.17
485.89	16395.45
486.07	16470.35
486.25	16741.85
486.43	16924.41
486.61	16861.22
486.78	17273.15
486.96	17511.89
487.14	17554.02
487.32	17795.09
487.50	17940.21
487.68	18197.67
487.85	18354.48
488.03	18728.97
488.21	18724.29
488.39	18677.48
488.57	18539.38
488.75	18864.72
488.92	19140.90
489.10	19241.54
489.28	19112.81
489.46	19924.98
489.64	19709.65
489.81	19988.18
489.99	20191.80
490.17	20369.68
490.35	20762.89
490.53	20161.37
490.70	20531.18
490.88	20718.42
491.06	20856.51
491.24	20772.25
491.41	20868.22
491.59	21064.82
491.77	20891.62
491.95	21191.21
492.13	21268.45
492.30	21553.99
492.48	21446.33
492.66	21584.42
492.84	21928.48
493.01	22017.42
493.19	21928.48
493.37	22216.36
493.54	22253.81
493.72	22520.63
493.90	22532.34
494.08	22871.72
494.25	23171.30
494.43	23562.17
494.61	23323.44
494.79	23557.49
494.96	23473.23
495.14	23314.08
495.32	23569.19
495.49	23763.46
495.67	23714.31
495.85	24250.29
496.02	24313.48
496.20	24322.85
496.38	24191.78
496.55	24339.23
496.73	24980.54
496.91	24788.61
497.09	24872.87
497.26	25429.92
497.44	24926.71
497.62	25034.37
497.79	25266.08
497.97	25200.55
498.14	25458.01
498.32	25390.13
498.50	25745.89
498.67	26359.11
498.85	25949.52
499.03	26256.13
499.20	26209.32
499.38	26003.35
499.56	26394.22
499.73	26471.46
499.91	26457.42
500.08	26455.08
500.26	26398.90
500.44	26448.05
500.61	26604.87
500.79	26707.85
500.97	26726.58
501.14	27164.26
501.32	27122.13
501.49	27220.43
501.67	27229.79
501.84	27395.97
502.02	27520.02
502.20	27754.07
502.37	27784.50
502.55	27466.19
502.72	28088.77
502.90	27964.72
503.07	28280.69
503.25	28030.26
503.43	28067.70
503.60	28329.84
503.78	28283.03
503.95	28325.16
504.13	28559.22
504.30	28601.35
504.48	29015.62
504.65	28840.08
504.83	28737.10
505.01	29413.51
505.18	29252.02
505.36	29134.99
505.53	29401.81
505.71	29436.92
505.88	29589.05
506.06	29560.97
506.23	29418.19
506.41	30047.80
506.58	29446.28
506.76	29961.20
506.93	29979.92
507.11	30043.12
507.28	30202.27
507.46	30099.29
507.63	30239.72
507.81	30354.41
507.98	30457.39
508.16	30354.41
508.33	30309.94
508.50	30668.04
508.68	30724.21
508.85	31182.96
509.03	31091.68
509.20	30930.18
509.38	31248.49
509.55	31412.33
509.73	31386.58
509.90	31594.89
510.08	31360.84
510.25	31536.38
510.42	31332.75
510.60	31728.30
510.77	31747.03
510.95	31964.70
511.12	31831.29
511.30	31983.42
511.47	32559.19
511.64	32306.41
511.82	31974.06
511.99	31941.29
512.17	32634.09
512.34	32215.13
512.51	32329.82
512.69	32863.46
512.86	32744.09
513.04	33174.75
513.21	32982.83
513.38	32519.40
513.56	33130.28
513.73	32835.38
513.90	32821.33
514.08	32716.01
514.25	33450.94
514.43	33242.63
514.60	33212.20
514.77	33167.73
514.95	33577.33
515.12	33619.46
515.29	33560.94
515.47	33731.80
515.64	33986.92
515.81	33895.64
515.99	34136.71
516.16	33818.40
516.33	33951.81
516.51	33752.87
516.68	33493.07
516.85	33525.83
517.03	33287.10
517.20	33764.57
517.37	34082.88
517.54	34658.65
517.72	34181.18
517.89	34141.39
518.06	34066.50
518.24	33759.89
518.41	33816.06
518.58	34637.59
518.75	34483.11
518.93	35077.61
519.10	34693.76
519.27	34836.53
519.45	34927.81
519.62	35325.71
519.79	35199.32
519.96	35585.50
520.14	35526.99
520.31	35061.22
520.48	35665.08
520.65	35938.93
520.83	36013.82
521.00	36297.03
521.17	35709.55
521.34	35828.92
521.52	36023.19
521.69	36495.97
521.86	36395.33
522.03	36287.67
522.20	36360.22
522.38	36154.26
522.55	36542.78
522.72	36240.86
522.89	36304.05
523.07	37074.09
523.24	36491.29
523.41	36940.68
523.58	37015.57
523.75	37373.67
523.92	37184.09
524.10	37521.13
524.27	37418.14
524.44	37670.92
524.61	37542.19
524.78	37394.74
524.96	37809.01
525.13	37801.99
525.30	37748.16
525.47	37507.08
525.64	37949.45
525.81	37516.45
525.98	37776.25
526.16	37741.14
526.33	37230.90
526.50	37603.05
526.67	37137.28
526.84	37844.12
527.01	37366.65
527.18	38108.60
527.36	38258.40
527.53	38202.22
527.70	38431.60
527.87	38457.34
528.04	38703.10
528.21	38295.85
528.38	38843.53
528.55	38967.58
528.72	38813.10
528.89	38579.05
529.07	38508.83
529.24	38850.55
529.41	39248.44
529.58	39140.78
529.75	38866.94
529.92	39079.92
530.09	39009.71
530.26	39234.40
530.43	39468.45
530.60	39440.37
530.77	39349.09
530.94	39756.34
531.11	39051.84
531.28	39737.62
531.46	39709.53
531.63	39552.71
531.80	39597.18
531.97	39484.84
532.14	39229.72
532.31	39393.56
532.48	39629.95
532.65	39817.19
532.82	39533.99
532.99	39814.85
533.16	39583.14
533.33	39936.56
533.50	40194.02
533.67	39908.47
533.84	40123.80
534.01	40292.32
534.18	39978.69
534.35	40556.80
534.52	40580.21
534.69	40598.93
534.86	40390.62
535.03	40093.38
535.20	40952.35
535.37	41184.07
535.54	41415.78
535.71	40788.52
535.88	40769.79
536.05	40435.10
536.22	40804.90
536.38	41228.54
536.55	40982.78
536.72	40896.18
536.89	40861.07
537.06	40793.20
537.23	41380.67
537.40	40935.97
537.57	41158.32
537.74	40928.95
537.91	41626.43
538.08	41212.15
538.25	40942.99
538.42	41298.75
538.59	41649.83
538.75	40968.74
538.92	41036.61
539.09	41666.22
539.26	41331.52
539.43	41326.84
539.60	41579.62
539.77	41305.77
539.94	41525.78
540.11	41696.64
540.28	41455.57
540.44	41698.98
540.61	41422.80
540.78	41104.49
540.95	41418.12
541.12	41160.66
541.29	41490.68
541.46	41825.37
541.62	41820.69
541.79	42639.88
541.96	41401.74
542.13	41984.53
542.30	41813.67
542.47	41895.59
542.63	41923.68
542.80	42239.65
542.97	42712.44
543.14	42483.06
543.31	42831.80
543.48	42403.49
543.64	43342.04
543.81	43044.79
543.98	43330.34
544.15	42733.50
544.32	43318.64
544.48	43147.78
544.65	42937.13
544.82	43054.15
544.99	43124.37
545.16	43035.43
545.32	42557.96
545.49	43225.01
545.66	43126.71
545.83	43138.41
546.00	43524.60
546.16	43423.96
546.33	43328.00
546.50	43278.85
546.67	43075.22
546.83	42990.96
547.00	43295.23
547.17	43452.05
547.34	43435.66
547.50	43339.70
547.67	43908.45
547.84	43892.07
548.00	43728.23
548.17	44079.31
548.34	43709.50
548.51	44020.80
548.67	44011.43
548.84	43992.71
549.01	43594.82
549.18	43632.27
549.34	44144.84
549.51	44079.31
549.68	44053.56
549.84	43945.90
550.01	44257.19
550.18	44030.16
550.34	43971.64
550.51	44217.40
550.68	44353.15
550.84	44144.84
551.01	44140.16
551.18	43866.32
551.34	44268.89
551.51	44266.55
551.68	44439.75
551.84	44891.48
552.01	44261.87
552.18	44521.67
552.34	44463.16
552.51	44439.75
552.68	44266.55
552.84	44053.56
553.01	44870.41
553.18	44708.91
553.34	44542.74
553.51	44411.67
553.67	44524.01
553.84	45340.86
554.01	44830.62
554.17	45127.87
554.34	45120.85
554.51	44676.15
554.67	44947.65
554.84	45113.83
555.00	44542.74
555.17	44624.65
555.33	44907.86
555.50	44959.35
555.67	44570.82
555.83	45123.19
556.00	45045.95
556.16	45301.07
556.33	45132.55
556.50	44432.73
556.66	45008.50
556.83	45067.02
556.99	45130.21
557.16	45081.06
557.32	44851.69
557.49	45500.01
557.65	45020.20
557.82	45247.24
557.98	45209.79
558.15	45188.72
558.32	45256.60
558.48	45207.45
558.65	45102.12
558.81	45457.88
558.98	44741.68
559.14	45326.81
559.31	45106.80
559.47	45244.90
559.64	45352.56
559.80	45071.70
559.97	45516.40
560.13	45319.79
560.30	45170.00
560.46	45453.20
560.63	45759.81
560.79	45745.77
560.96	45745.77
561.12	45553.85
561.29	45223.83
561.45	45078.72
561.61	45340.86
561.78	45443.84
561.94	45392.35
562.11	45422.78
562.27	45687.26
562.44	45282.34
562.60	45837.05
562.77	45897.91
562.93	45720.02
563.10	46010.25
563.26	45394.69
563.42	45797.26
563.59	45406.39
563.75	45539.80
563.92	45626.40
564.08	45935.35
564.24	45783.22
564.41	45958.76
564.57	46010.25
564.74	45846.41
564.90	45675.55
565.07	45485.97
565.23	45464.91
565.39	46153.02
565.56	45734.07
565.72	45605.34
565.88	45783.22
566.05	45834.71
566.21	45745.77
566.38	45787.90
566.54	45954.08
566.70	45855.78
566.87	46588.36
567.03	46178.77
567.19	46274.73
567.36	46028.98
567.52	45680.24
567.68	45940.04
567.85	45717.68
568.01	46087.49
568.17	46010.25
568.34	46131.96
568.50	45888.54
568.66	45991.53
568.83	46031.32
568.99	45652.15
569.15	45764.49
569.32	45411.07
569.48	45785.56
569.64	46258.35
569.81	45911.95
569.97	45471.93
570.13	45780.88
570.30	45705.98
570.46	45645.13
570.62	46188.13
570.78	45797.26
570.95	45895.56
571.11	46150.68
571.27	46263.03
571.43	45649.81
571.60	46059.40
571.76	46160.05
571.92	45792.58
572.09	46344.95
572.25	46270.05
572.41	45645.13
572.57	46246.65
572.74	46609.43
572.90	46115.58
573.06	46515.81
573.22	46258.35
573.38	46410.48
573.55	46136.64
573.71	46270.05
573.87	46213.88
574.03	46445.59
574.20	46672.62
574.36	45783.22
574.52	46288.77
574.68	46295.80
574.84	45801.94
575.01	46419.84
575.17	45998.55
575.33	45925.99
575.49	45804.28
575.65	46134.30
575.82	46202.18
575.98	46387.08
576.14	46377.72
576.30	46497.08
576.46	46263.03
576.62	46164.73
576.79	46148.34
576.95	45940.04
577.11	45902.59
577.27	46241.96
577.43	46195.15
577.59	46134.30
577.75	45998.55
577.92	45823.01
578.08	46087.49
578.24	46204.52
578.40	46424.53
578.56	46052.38
578.72	46183.45
578.88	46267.71
579.04	46277.07
579.21	46024.29
579.37	46026.63
579.53	46045.36
579.69	45710.66
579.85	46328.56
580.01	46443.25
580.17	45944.72
580.33	46433.89
580.49	46440.91
580.65	46183.45
580.82	46635.17
580.98	46323.88
581.14	46040.68
581.30	46490.06
581.46	46340.27
581.62	46469.00
581.78	46209.20
581.94	46539.21
582.10	46295.80
582.26	46344.95
582.42	46319.20
582.58	46124.94
582.74	46202.18
582.90	46391.76
583.06	46391.76
583.22	46459.63
583.38	46513.47
583.54	46349.63
583.70	46681.98
583.86	46499.42
584.02	46199.83
584.18	46366.01
584.34	46796.67
584.50	46660.92
584.66	46164.73
584.82	46199.83
584.98	47004.98
585.14	46171.75
585.30	46122.60
585.46	46541.55
585.62	46012.59
585.78	46136.64
585.94	45783.22
586.10	46129.62
586.26	46522.83
586.42	46672.62
586.58	46293.46
586.74	46614.11
586.90	46506.44
587.06	46784.97
587.22	46305.16
587.38	46028.98
587.54	46628.15
587.70	46169.41
587.86	46623.47
588.02	46431.55
588.18	46483.04
588.34	46227.92
588.49	45815.99
588.65	45820.67
588.81	45682.58
588.97	45731.73
589.13	45263.62
589.29	46174.09
589.45	46068.76
589.61	46415.16
589.77	46515.81
589.93	46567.30
590.08	46541.55
