SpectraSuite Data File
++++++++++++++++++++++++++++++++++++
Date: Fri Oct 25 11:22:28 EDT 2013
User: price-jones
Dark Spectrum Present: No
Reference Spectrum Present: No
Number of Sampled Component Spectra: 1
Spectrometers: USB2+H05261
Integration Time (usec): 100000 (USB2+H05261)
Spectra Averaged: 1 (USB2+H05261)
Boxcar Smoothing: 0 (USB2+H05261)
Correct for Electrical Dark: No (USB2+H05261)
Strobe/Lamp Enabled: No (USB2+H05261)
Correct for Detector Non-linearity: No (USB2+H05261)
Correct for Stray Light: No (USB2+H05261)
Number of Pixels in Processed Spectrum: 2048
>>>>>Begin Processed Spectral Data<<<<<
365.73	262.14
365.92	262.14
366.12	262.14
366.32	201.29
366.52	77.24
366.72	102.98
366.91	119.37
367.11	145.11
367.31	49.15
367.51	119.37
367.70	95.96
367.90	95.96
368.10	107.66
368.30	77.24
368.49	93.62
368.69	124.05
368.89	119.37
369.09	212.99
369.28	114.69
369.48	110.01
369.68	114.69
369.87	198.95
370.07	163.84
370.27	224.69
370.47	400.23
370.66	573.43
370.86	582.79
371.06	676.41
371.25	636.63
371.45	587.47
371.65	723.23
371.84	739.61
372.04	699.82
372.24	697.48
372.44	737.27
372.63	744.29
372.83	833.23
373.03	753.65
373.22	755.99
373.42	826.21
373.62	809.83
373.81	819.19
374.01	823.87
374.21	828.55
374.40	753.65
374.60	866.00
374.79	870.68
374.99	891.74
375.19	870.68
375.38	805.14
375.58	793.44
375.78	835.57
375.97	809.83
376.17	870.68
376.37	863.66
376.56	840.25
376.76	840.25
376.95	844.93
377.15	884.72
377.35	915.15
377.54	903.45
377.74	898.77
377.93	875.36
378.13	912.81
378.33	919.83
378.52	922.17
378.72	903.45
378.91	952.60
379.11	908.13
379.31	1018.13
379.50	896.43
379.70	971.32
379.89	1062.60
380.09	961.96
380.28	957.28
380.48	1022.81
380.68	954.94
380.87	997.07
381.07	1020.47
381.26	1102.39
381.46	1004.09
381.65	1025.15
381.85	936.21
382.04	1064.94
382.24	1034.52
382.43	1043.88
382.63	1109.41
382.83	1146.86
383.02	1231.12
383.22	1078.99
383.41	1097.71
383.61	1069.62
383.80	1125.80
384.00	1146.86
384.19	1104.73
384.39	1125.80
384.58	1128.14
384.78	1181.97
384.97	1217.08
385.17	1231.12
385.36	1219.42
385.56	1259.21
385.75	1158.57
385.95	1118.78
386.14	1254.53
386.34	1275.59
386.53	1212.40
386.72	1121.12
386.92	1357.51
387.11	1270.91
387.31	1212.40
387.50	1196.01
387.70	1228.78
387.89	1256.87
388.09	1308.36
388.28	1341.13
388.48	1282.61
388.67	1266.23
388.86	1345.81
389.06	1345.81
389.25	1268.57
389.45	1352.83
389.64	1406.66
389.84	1406.66
390.03	1432.41
390.22	1357.51
390.42	1355.17
390.61	1261.55
390.81	1430.07
391.00	1399.64
391.19	1507.30
391.39	1453.47
391.58	1469.86
391.78	1516.67
391.97	1537.73
392.16	1434.75
392.36	1554.12
392.55	1497.94
392.75	1521.35
392.94	1558.80
393.13	1509.65
393.33	1488.58
393.52	1556.46
393.71	1530.71
393.91	1607.95
394.10	1582.20
394.29	1636.03
394.49	1542.41
394.68	1502.62
394.88	1661.78
395.07	1640.72
395.26	1696.89
395.46	1753.06
395.65	1757.74
395.84	1720.29
396.04	1701.57
396.23	1746.04
396.42	1809.23
396.62	1748.38
396.81	1739.02
397.00	1783.49
397.19	1823.28
397.39	1790.51
397.58	1830.30
397.77	1764.76
397.97	1970.73
398.16	1888.81
398.35	1799.87
398.55	1935.62
398.74	1905.20
398.93	1954.35
399.12	1909.88
399.32	1909.88
399.51	1970.73
399.70	1998.82
399.90	1998.82
400.09	2029.24
400.28	2062.01
400.47	2062.01
400.67	2129.89
400.86	2143.93
401.05	2078.40
401.24	2197.76
401.44	2239.89
401.63	2153.29
401.82	2169.68
402.01	2148.61
402.21	2157.97
402.40	2321.81
402.59	2122.87
402.78	2260.96
402.97	2272.66
403.17	2356.92
403.36	2368.62
403.55	2307.77
403.74	2387.35
403.93	2464.58
404.13	2366.28
404.32	2392.03
404.51	2305.43
404.70	2506.71
404.89	2448.20
405.09	2490.33
405.28	2466.92
405.47	2555.86
405.66	2609.70
405.85	2476.29
406.05	2541.82
406.24	2677.57
406.43	2581.61
406.62	2583.95
406.81	2686.94
407.00	2710.34
407.20	2581.61
407.39	2675.23
407.58	2778.22
407.77	2668.21
407.96	2705.66
408.15	2736.09
408.34	2710.34
408.54	2822.69
408.73	2855.45
408.92	2794.60
409.11	2860.13
409.30	2958.44
409.49	2867.16
409.68	2911.63
409.87	3119.93
410.07	3082.49
410.26	2953.76
410.45	2939.71
410.64	3009.93
410.83	3274.41
411.02	3063.76
411.21	3133.98
411.40	3122.27
411.59	3314.20
411.78	3234.62
411.98	3279.09
412.17	3274.41
412.36	3318.88
412.55	3286.11
412.74	3571.66
412.93	3351.65
413.12	3461.65
413.31	3550.59
413.50	3503.78
413.69	3557.61
413.88	3667.62
414.07	3667.62
414.26	3604.42
414.45	3763.58
414.64	3639.53
414.83	3791.67
415.02	3885.29
415.22	3908.69
415.41	3911.04
415.60	3997.64
415.79	3920.40
415.98	4030.40
416.17	4117.00
416.36	4044.45
416.55	4016.36
416.74	4063.17
416.93	4049.13
417.12	4182.54
417.31	4227.01
417.50	4311.27
417.69	4269.14
417.88	4227.01
418.07	4318.29
418.26	4491.49
418.45	4381.48
418.64	4498.51
418.83	4526.60
419.02	4477.44
419.21	4617.88
419.39	4631.92
419.58	4533.62
419.77	4475.10
419.96	4561.70
420.15	4713.84
420.34	4692.77
420.53	4723.20
420.72	4751.29
420.91	4774.69
421.10	4791.08
421.29	4905.76
421.48	4718.52
421.67	4723.20
421.86	4861.29
422.05	4840.23
422.24	5008.75
422.43	4891.72
422.61	4861.29
422.80	5025.13
422.99	4978.32
423.18	5153.86
423.37	5163.22
423.56	4936.19
423.75	4926.83
423.94	4997.04
424.13	4608.51
424.32	4898.74
424.50	5057.90
424.69	5062.58
424.88	5291.95
425.07	5130.45
425.26	4971.30
425.45	5029.81
425.64	5114.07
425.83	5069.60
426.01	5144.50
426.20	5074.28
426.39	5118.75
426.58	5191.31
426.77	5259.18
426.96	5123.43
427.15	5219.39
427.33	5207.69
427.52	5228.76
427.71	5352.81
427.90	5327.06
428.09	5554.09
428.28	5502.60
428.46	5254.50
428.65	5540.05
428.84	5535.37
429.03	5621.97
429.22	5320.04
429.40	5603.24
429.59	5551.75
429.78	5469.83
429.97	5315.36
430.16	5540.05
430.34	5584.52
430.53	5776.44
430.72	5729.63
430.91	5797.51
431.10	5701.54
431.28	5816.23
431.47	5947.30
431.66	5930.92
431.85	5905.17
432.03	6087.73
432.22	6139.23
432.41	6143.91
432.60	6083.05
432.79	5905.17
432.97	6033.90
433.16	6143.91
433.35	6176.67
433.54	6244.55
433.72	6331.15
433.91	6326.47
434.10	6195.40
434.28	6286.68
434.47	6202.42
434.66	6455.20
434.85	6202.42
435.03	6377.96
435.22	6394.34
435.41	6665.85
435.59	6462.22
435.78	6565.20
435.97	6586.27
436.16	6682.23
436.34	6354.55
436.53	6705.63
436.72	6913.94
436.90	6675.21
437.09	6665.85
437.28	6499.67
437.46	6724.36
437.65	6813.30
437.84	6904.58
438.02	6827.34
438.21	6841.39
438.40	6817.98
438.58	7164.38
438.77	7068.42
438.96	6991.18
439.14	7246.30
439.33	7321.20
439.52	7344.60
439.70	7307.15
439.89	7377.37
440.08	7485.03
440.26	7751.85
440.45	7428.86
440.63	7758.88
440.82	7683.98
441.01	7541.21
441.19	7726.11
441.38	7641.85
441.57	7836.11
441.75	7878.24
441.94	8126.34
442.12	8119.32
442.31	8100.59
442.50	8152.09
442.68	8231.66
442.87	8166.13
443.05	8135.70
443.24	8252.73
443.43	8278.47
443.61	8257.41
443.80	8393.16
443.98	8109.96
444.17	7995.27
444.35	8339.33
444.54	8500.83
444.73	8259.75
444.91	8514.87
445.10	8414.23
445.28	8463.38
445.47	8566.36
445.65	8461.04
445.84	8519.55
446.02	8643.60
446.21	8575.72
446.39	8610.83
446.58	8659.98
446.77	8531.25
446.95	8383.80
447.14	8458.70
447.32	8634.24
447.51	8592.11
447.69	8475.08
447.88	8585.08
448.06	8716.16
448.25	8372.10
448.43	8664.66
448.62	8575.72
448.80	8753.60
448.99	8814.46
449.17	8868.29
449.36	8816.80
449.54	9039.15
449.73	9207.67
449.91	9111.71
450.10	9174.90
450.28	9226.39
450.46	9247.46
450.65	9034.47
450.83	9280.22
451.02	9217.03
451.20	9322.35
451.39	8891.70
451.57	9226.39
451.76	9259.16
451.94	9502.58
452.13	9303.63
452.31	9535.34
452.49	9371.50
452.68	9633.64
452.86	9568.11
453.05	9542.36
453.23	9525.98
453.42	9518.96
453.60	9582.15
453.78	9760.03
453.97	9558.75
454.15	9453.42
454.34	9542.36
454.52	9792.80
454.70	9942.60
454.89	9994.09
455.07	10001.11
455.26	10139.20
455.44	10169.63
455.62	9884.08
455.81	10120.48
455.99	10047.92
456.17	10115.80
456.36	10387.30
456.54	10384.96
456.73	10509.01
456.91	10459.85
457.09	10607.31
457.28	10707.95
457.46	10548.79
457.64	10867.11
457.83	10862.43
458.01	10693.91
458.19	10719.65
458.38	10829.66
458.56	10864.77
458.74	10717.31
458.93	10736.04
459.11	10782.85
459.29	10766.46
459.48	11211.17
459.66	10930.30
459.84	11173.72
460.03	11164.36
460.21	11225.21
460.39	11192.44
460.57	11311.81
460.76	11276.70
460.94	11435.86
461.12	11351.60
461.31	11300.11
461.49	11236.91
461.67	11417.13
461.85	11709.70
462.04	11466.28
462.22	11625.44
462.40	11730.76
462.59	11632.46
462.77	11524.80
462.95	11660.55
463.13	11496.71
463.32	11889.92
463.50	11852.47
463.68	11908.65
463.86	11901.62
464.05	11681.61
464.23	11990.56
464.41	12053.76
464.59	11885.24
464.78	12222.28
464.96	12112.27
465.14	11978.86
465.32	12355.69
465.50	12109.93
465.69	12386.12
465.87	12339.30
466.05	12313.56
466.23	12255.04
466.41	12545.27
466.60	12798.05
466.78	12613.15
466.96	12449.31
467.14	12542.93
467.32	12723.15
467.51	12755.92
467.69	12486.76
467.87	12823.80
468.05	12732.51
468.23	12776.98
468.41	12592.08
468.60	12760.60
468.78	12851.88
468.96	12908.05
469.14	12940.82
469.32	13069.55
469.50	12734.85
469.69	13135.09
469.87	13348.08
470.05	13231.05
470.23	13523.62
470.41	13575.11
470.59	13507.23
470.77	13390.20
470.95	13647.66
471.14	13785.76
471.32	13385.52
471.50	14061.94
471.68	13949.59
471.86	13818.52
472.04	13937.89
472.22	14239.82
472.40	14073.64
472.58	13912.14
472.77	14279.61
472.95	14406.00
473.13	14642.39
473.31	14478.55
473.49	14312.38
473.67	14347.48
473.85	14317.06
474.03	14857.72
474.21	14913.89
474.39	14897.51
474.57	14829.63
474.75	15119.86
474.93	15374.98
475.12	15164.33
475.30	15442.85
475.48	15325.83
475.66	15426.47
475.84	15454.56
476.02	15506.05
476.20	15590.31
476.38	15840.75
476.56	16217.57
476.74	15866.49
476.92	15847.77
477.10	15967.13
477.28	16400.13
477.46	16559.29
477.64	16477.37
477.82	16908.03
478.00	17202.94
478.18	17048.46
478.36	17067.19
478.54	17310.60
478.72	17607.85
478.90	17724.88
479.08	17816.16
479.26	17825.52
479.44	18073.62
479.62	17928.50
479.80	18305.33
479.98	18368.52
480.16	18958.34
480.34	18761.73
480.52	18885.78
480.70	19302.40
480.88	18813.23
481.06	19110.47
481.24	18991.11
481.41	19400.70
481.59	19702.63
481.77	19592.62
481.95	20037.33
482.13	20032.65
482.31	19899.23
482.49	20369.68
482.67	20414.15
482.85	20816.72
483.03	20915.03
483.21	20790.98
483.39	21233.34
483.57	21343.35
483.74	21465.05
483.92	21975.29
484.10	21551.65
484.28	22029.12
484.46	22195.30
484.64	22649.36
484.82	22277.22
485.00	22668.09
485.18	23152.58
485.35	23433.44
485.53	23330.46
485.71	23562.17
485.89	23821.97
486.07	23665.16
486.25	24149.65
486.43	24039.64
486.61	24175.39
486.78	24170.71
486.96	24526.47
487.14	25074.16
487.32	25076.50
487.50	25132.67
487.68	25233.32
487.85	25701.42
488.03	26054.84
488.21	25982.29
488.39	26293.58
488.57	26338.05
488.75	26682.11
488.92	27154.90
489.10	27030.85
489.28	26827.22
489.46	27676.83
489.64	27594.92
489.81	28187.07
489.99	27655.77
490.17	28030.26
490.35	28437.51
490.53	28390.70
490.70	28844.76
490.88	28713.69
491.06	29347.98
491.24	29357.34
491.41	29860.55
491.59	29830.13
491.77	29790.34
491.95	30026.73
492.13	29937.79
492.30	30384.83
492.48	30525.27
492.66	30878.69
492.84	30841.24
493.01	31412.33
493.19	31000.40
493.37	31725.96
493.54	31374.88
493.72	31922.57
493.90	31885.12
494.08	32151.94
494.25	32411.74
494.43	32561.53
494.61	33062.41
494.79	33324.55
494.96	33212.20
495.14	33352.63
495.32	33954.15
495.49	33497.75
495.67	33624.14
495.85	33893.30
496.02	34326.30
496.20	34539.29
496.38	34319.28
496.55	34780.36
496.73	35557.42
496.91	35009.73
497.09	35564.44
497.26	35215.70
497.44	35330.39
497.62	35985.74
497.79	36252.56
497.97	35625.29
498.14	36547.47
498.32	36746.41
498.50	36687.90
498.67	37394.74
498.85	37090.47
499.03	37521.13
499.20	37298.78
499.38	37497.72
499.56	37621.77
499.73	38003.28
499.91	37516.45
500.08	37993.92
500.26	37794.97
500.44	38183.50
500.61	38298.19
500.79	38096.90
500.97	38595.43
501.14	38504.15
501.32	38990.98
501.49	39028.43
501.67	39405.26
501.84	39697.83
502.02	39154.82
502.20	39566.76
502.37	39475.48
502.55	39889.75
502.72	39945.92
502.90	40299.34
503.07	40088.70
503.25	40282.96
503.43	40458.50
503.60	40734.68
503.78	40914.90
503.95	40832.99
504.13	40973.42
504.30	41177.04
504.48	41251.94
504.65	41247.26
504.83	41628.77
505.01	42033.68
505.18	41612.38
505.36	42204.54
505.53	41928.36
505.71	42176.45
505.88	42431.57
506.06	42412.85
506.23	42518.17
506.41	42197.52
506.58	43044.79
506.76	42768.61
506.93	42916.06
507.11	42794.36
507.28	43154.80
507.46	43358.42
507.63	43620.56
507.81	43690.78
507.98	43548.01
508.16	44065.27
508.33	43983.35
508.50	43732.91
508.68	44238.47
508.85	44168.25
509.03	44259.53
509.20	44531.03
509.38	44837.64
509.55	45034.25
509.73	45024.89
509.90	45067.02
510.08	45319.79
510.25	45574.91
510.42	45088.08
510.60	45635.77
510.77	46005.57
510.95	45947.06
511.12	45830.03
511.30	45731.73
511.47	46061.74
511.64	46429.21
511.82	46522.83
511.99	46155.36
512.17	46525.17
512.34	46543.89
512.51	46866.89
512.69	46955.83
512.86	46789.65
513.04	47426.28
513.21	47435.64
513.38	47229.67
513.56	47452.02
513.73	47070.51
513.90	47393.51
514.08	47625.22
514.25	47625.22
514.43	47526.92
514.60	47962.26
514.77	48020.77
514.95	48149.50
515.12	48364.83
515.29	48058.22
515.47	48708.89
515.64	48694.85
515.81	48641.01
515.99	48624.63
516.16	49193.38
516.33	48619.95
516.51	48968.69
516.68	49050.61
516.85	49020.18
517.03	49256.57
517.20	49518.71
517.37	49516.37
517.54	49656.81
517.72	49453.18
517.89	49717.66
518.06	49563.18
518.24	49677.87
518.41	49797.24
518.58	49764.47
518.75	49544.46
518.93	50244.28
519.10	49961.08
519.27	50316.84
519.45	50529.83
519.62	50403.44
519.79	50302.79
519.96	50361.31
520.14	50721.75
520.31	50454.93
520.48	50747.50
520.65	50866.86
520.83	51187.52
521.00	51070.49
521.17	51250.71
521.34	51229.65
521.52	51145.39
521.69	51239.01
521.86	51812.44
522.03	51892.02
522.20	51917.76
522.38	52079.26
522.55	52142.45
522.72	51569.02
522.89	51810.10
523.07	52205.65
523.24	52027.77
523.41	52142.45
523.58	51922.44
523.75	52317.99
523.92	52367.15
524.10	52470.13
524.27	52526.30
524.44	52528.64
524.61	52790.78
524.78	52715.89
524.96	52671.42
525.13	52837.59
525.30	53048.24
525.47	53050.58
525.64	52615.24
525.81	53155.91
525.98	52910.15
526.16	52786.10
526.33	53244.85
526.50	53645.08
526.67	53183.99
526.84	53326.77
527.01	53366.55
527.18	53499.97
527.36	53521.03
527.53	53574.86
527.70	53780.83
527.87	53689.55
528.04	53638.06
528.21	53844.02
528.38	53818.28
528.55	53939.99
528.72	53727.00
528.89	54005.52
529.07	53862.75
529.24	53666.14
529.41	54035.95
529.58	54241.92
529.75	54185.74
529.92	54190.42
530.09	54614.06
530.26	54141.27
530.43	54391.71
530.60	54415.11
530.77	54218.51
530.94	54562.57
531.11	54368.30
531.28	54703.00
531.46	54604.70
531.63	54824.71
531.80	54707.68
531.97	55000.25
532.14	54766.20
532.31	55049.40
532.48	55246.00
532.65	55236.64
532.82	54864.50
532.99	55370.05
533.16	54974.50
533.33	55234.30
533.50	55416.86
533.67	55363.03
533.84	55025.99
534.01	55381.76
534.18	55339.63
534.35	55550.27
534.52	55496.44
534.69	55522.19
534.86	55615.81
535.03	55627.51
535.20	55618.15
535.37	56100.30
535.54	55824.12
535.71	55554.96
535.88	55760.92
536.05	55920.08
536.22	55985.61
536.38	55976.25
536.55	55870.93
536.72	56128.39
536.89	55873.27
537.06	55899.01
537.23	56346.06
537.40	55913.06
537.57	56348.40
537.74	56324.99
537.91	56437.34
538.08	56287.54
538.25	56060.51
538.42	56413.93
538.59	56519.26
538.75	56463.08
538.92	56542.66
539.09	56568.41
539.26	56505.21
539.43	56540.32
539.60	56640.96
539.77	56619.90
539.94	56999.07
540.11	56779.06
540.28	56811.82
540.44	56746.29
540.61	56757.99
540.78	56844.59
540.95	56767.35
541.12	56622.24
541.29	56706.50
541.46	56870.34
541.62	57008.43
541.79	57073.96
541.96	56945.23
542.13	57071.62
542.30	57024.81
542.47	57214.40
542.63	57364.19
542.80	57497.60
542.97	57757.40
543.14	57631.01
543.31	57439.09
543.48	57481.22
543.64	57890.81
543.81	57811.23
543.98	57818.25
544.15	57701.23
544.32	57811.23
544.48	58103.80
544.65	57628.67
544.82	58145.93
544.99	57595.90
545.16	57888.47
545.32	57745.70
545.49	58108.48
545.66	58064.01
545.83	57874.43
546.00	58089.76
546.16	57872.09
546.33	58012.52
546.50	57844.00
546.67	58197.42
546.83	58064.01
547.00	58094.44
547.17	58169.33
547.34	58021.88
547.50	58309.77
547.67	58515.73
547.84	58576.59
548.00	58518.07
548.17	58555.52
548.34	58501.69
548.51	58518.07
548.67	58773.19
548.84	58560.20
549.01	58447.86
549.18	58342.53
549.34	58717.02
549.51	58766.17
549.68	58824.68
549.84	58733.40
550.01	58717.02
550.18	58590.63
550.34	58915.96
550.51	58939.37
550.68	58866.81
550.84	58672.55
551.01	58918.31
551.18	58791.92
551.34	58965.12
551.51	58948.73
551.68	58939.37
551.84	58817.66
552.01	58974.48
552.18	59288.11
552.34	58805.96
552.51	59206.19
552.68	59143.00
552.84	59058.74
553.01	59231.94
553.18	59213.21
553.34	59150.02
553.51	59161.72
553.67	59217.89
553.84	59288.11
554.01	59302.15
554.17	59236.62
554.34	59419.18
554.51	59164.06
554.67	59330.24
554.84	59316.20
555.00	59285.77
555.17	59311.52
555.33	59437.90
555.50	59257.68
555.67	59299.81
555.83	59213.21
556.00	59629.83
556.16	59868.56
556.33	59627.49
556.50	59627.49
556.66	59786.64
556.83	59433.22
556.99	59788.98
557.16	59707.07
557.32	59992.61
557.49	59945.80
557.65	59777.28
557.82	59845.16
557.98	59833.46
558.15	59854.52
558.32	59903.67
558.48	59737.49
558.65	59812.39
558.81	59852.18
558.98	59929.42
559.14	59997.29
559.31	60093.25
559.47	60104.96
559.64	60079.21
559.80	59887.29
559.97	60133.04
560.13	60076.87
560.30	60205.60
560.46	60109.64
560.63	60074.53
560.79	60067.51
560.96	60385.82
561.12	60102.62
561.29	60170.49
561.45	60299.22
561.61	60023.04
561.78	60030.06
561.94	60175.17
562.11	60191.56
562.27	60411.57
562.44	60498.17
562.60	60411.57
562.77	60317.95
562.93	60186.88
563.10	60402.21
563.26	60214.96
563.42	60729.88
563.59	60388.16
563.75	60449.02
563.92	60303.90
564.08	60399.86
564.24	60640.94
564.41	60477.10
564.57	60563.70
564.74	60589.45
564.90	60275.82
565.07	60587.11
565.23	60683.07
565.39	60498.17
565.56	60463.06
565.72	60392.84
565.88	60463.06
566.05	60659.66
566.21	60580.09
566.38	60493.49
566.54	60521.57
566.70	60708.82
566.87	60786.05
567.03	60542.64
567.19	60650.30
567.36	60692.43
567.52	60603.49
567.68	60804.78
567.85	60830.52
568.01	60898.40
568.17	60720.52
568.34	60512.21
568.50	60860.95
568.66	60764.99
568.83	60694.77
568.99	60858.61
569.15	60853.93
569.32	60865.63
569.48	60715.84
569.64	60959.25
569.81	60851.59
569.97	60788.39
570.13	60849.25
570.30	60708.82
570.46	60842.23
570.62	60856.27
570.78	60800.10
570.95	60835.20
571.11	60961.59
571.27	60870.31
571.43	60977.98
571.60	60980.32
571.76	61066.92
571.92	61083.30
572.09	61134.79
572.25	61024.79
572.41	60823.50
572.57	60860.95
572.74	61263.52
572.90	60942.87
573.06	61017.77
573.22	60935.85
573.38	61027.13
573.55	60830.52
573.71	61022.45
573.87	60938.19
574.03	60865.63
574.20	61167.56
574.36	60970.96
574.52	60947.55
574.68	61036.49
574.84	61310.33
575.01	61090.32
575.17	60977.98
575.33	60919.46
575.49	61071.60
575.65	61071.60
575.82	61268.20
575.98	61268.20
576.14	61240.12
576.30	61240.12
576.46	61043.51
576.62	61134.79
576.79	61024.79
576.95	60886.70
577.11	61055.21
577.27	61219.05
577.43	60903.08
577.59	60945.21
577.75	61118.41
577.92	61080.96
578.08	60879.67
578.24	60999.04
578.40	61221.39
578.56	61293.95
578.72	61263.52
578.88	61352.46
579.04	61574.81
579.21	61387.57
579.37	61354.80
579.53	61436.72
579.69	61055.21
579.85	61223.73
580.01	61176.92
580.17	61258.84
580.33	61254.16
580.49	61228.41
580.65	61408.64
580.82	60907.76
580.98	61317.35
581.14	61001.38
581.30	61293.95
581.46	61073.94
581.62	61272.88
581.78	61193.31
581.94	61368.85
582.10	61277.57
582.26	61233.10
582.42	61275.22
582.58	61174.58
582.74	61141.81
582.90	61127.77
583.06	61254.16
583.22	61095.00
583.38	61352.46
583.54	61223.73
583.70	61343.10
583.86	61289.27
584.02	61209.69
584.18	61354.80
584.34	61368.85
584.50	61516.30
584.66	61111.39
584.82	61137.13
584.98	61399.27
585.14	61249.48
585.30	61347.78
585.46	61298.63
585.62	61200.33
585.78	61481.19
585.94	61165.22
586.10	61310.33
586.26	61148.84
586.42	61542.05
586.58	61319.70
586.74	61361.82
586.90	61406.30
587.06	61270.54
587.22	61396.93
587.38	61499.92
587.54	61598.22
587.70	61588.86
587.86	61474.17
588.02	61242.46
588.18	61654.39
588.34	61373.53
588.49	61483.53
