SpectraSuite Data File
++++++++++++++++++++++++++++++++++++
Date: Fri Oct 25 11:22:46 EDT 2013
User: price-jones
Dark Spectrum Present: No
Reference Spectrum Present: No
Number of Sampled Component Spectra: 1
Spectrometers: USB2+H05261
Integration Time (usec): 100000 (USB2+H05261)
Spectra Averaged: 1 (USB2+H05261)
Boxcar Smoothing: 0 (USB2+H05261)
Correct for Electrical Dark: No (USB2+H05261)
Strobe/Lamp Enabled: No (USB2+H05261)
Correct for Detector Non-linearity: No (USB2+H05261)
Correct for Stray Light: No (USB2+H05261)
Number of Pixels in Processed Spectrum: 2048
>>>>>Begin Processed Spectral Data<<<<<
365.73	285.55
365.92	285.55
366.12	285.55
366.32	77.24
366.52	117.03
366.72	135.75
366.91	105.32
367.11	140.43
367.31	128.73
367.51	138.09
367.70	128.73
367.90	145.11
368.10	126.39
368.30	163.84
368.49	105.32
368.69	173.20
368.89	138.09
369.09	175.54
369.28	194.26
369.48	205.97
369.68	145.11
369.87	177.88
370.07	208.31
370.27	180.22
370.47	358.10
370.66	559.39
370.86	599.18
371.06	596.84
371.25	638.97
371.45	674.07
371.65	706.84
371.84	638.97
372.04	599.18
372.24	758.33
372.44	624.92
372.63	770.04
372.83	774.72
373.03	739.61
373.22	802.80
373.42	657.69
373.62	772.38
373.81	702.16
374.01	763.01
374.21	821.53
374.40	830.89
374.60	760.67
374.79	812.17
374.99	763.01
375.19	833.23
375.38	847.27
375.58	800.46
375.78	849.61
375.97	842.59
376.17	870.68
376.37	847.27
376.56	856.64
376.76	875.36
376.95	851.96
377.15	844.93
377.35	884.72
377.54	912.81
377.74	833.23
377.93	912.81
378.13	999.41
378.33	952.60
378.52	870.68
378.72	959.62
378.91	1043.88
379.11	905.79
379.31	833.23
379.50	896.43
379.70	1123.46
379.89	1011.11
380.09	917.49
380.28	952.60
380.48	1015.79
380.68	957.28
380.87	940.90
381.07	910.47
381.26	1034.52
381.46	952.60
381.65	1018.13
381.85	966.64
382.04	952.60
382.24	1067.28
382.43	1076.65
382.63	1102.39
382.83	961.96
383.02	1100.05
383.22	1064.94
383.41	1095.37
383.61	1118.78
383.80	1179.63
384.00	1046.22
384.19	1121.12
384.39	1149.20
384.58	1078.99
384.78	1165.59
384.97	1132.82
385.17	1193.67
385.36	1057.92
385.56	1116.44
385.75	1214.74
385.95	1247.51
386.14	1224.10
386.34	1184.31
386.53	1160.91
386.72	1196.01
386.92	1188.99
387.11	1191.33
387.31	1240.48
387.50	1249.85
387.70	1291.98
387.89	1275.59
388.09	1188.99
388.28	1327.08
388.48	1362.19
388.67	1287.29
388.86	1380.92
389.06	1294.32
389.25	1378.58
389.45	1233.46
389.64	1341.13
389.84	1385.60
390.03	1413.68
390.22	1387.94
390.42	1359.85
390.61	1455.81
390.81	1493.26
391.00	1327.08
391.19	1357.51
391.39	1406.66
391.58	1479.22
391.78	1535.39
391.97	1404.32
392.16	1490.92
392.36	1511.99
392.55	1516.67
392.75	1488.58
392.94	1537.73
393.13	1497.94
393.33	1451.13
393.52	1558.80
393.71	1533.05
393.91	1547.09
394.10	1577.52
394.29	1537.73
394.49	1647.74
394.68	1706.25
394.88	1668.80
395.07	1647.74
395.26	1699.23
395.46	1600.93
395.65	1675.82
395.84	1701.57
396.04	1811.57
396.23	1715.61
396.42	1799.87
396.62	1785.83
396.81	1853.70
397.00	1776.47
397.19	1724.97
397.39	1750.72
397.58	1952.01
397.77	1771.79
397.97	1905.20
398.16	1846.68
398.35	1888.81
398.55	1895.83
398.74	1921.58
398.93	1977.75
399.12	1975.41
399.32	1825.62
399.51	1884.13
399.70	2024.56
399.90	2031.58
400.09	1937.96
400.28	2120.53
400.47	2038.61
400.67	2069.03
400.86	2073.71
401.05	2040.95
401.24	2069.03
401.44	2207.13
401.63	2176.70
401.82	2129.89
402.01	2195.42
402.21	2209.47
402.40	2235.21
402.59	2153.29
402.78	2298.41
402.97	2265.64
403.17	2338.20
403.36	2258.62
403.55	2265.64
403.74	2284.36
403.93	2396.71
404.13	2408.41
404.32	2462.24
404.51	2375.64
404.70	2413.09
404.89	2366.28
405.09	2445.86
405.28	2483.31
405.47	2504.37
405.66	2431.82
405.85	2443.52
406.05	2436.50
406.24	2537.14
406.43	2518.42
406.62	2651.83
406.81	2745.45
407.00	2607.36
407.20	2775.88
407.39	2675.23
407.58	2635.44
407.77	2752.47
407.96	2719.70
408.15	2710.34
408.34	2778.22
408.54	2888.22
408.73	2818.00
408.92	2895.24
409.11	2899.92
409.30	2803.96
409.49	2963.12
409.68	2949.08
409.87	2986.52
410.07	3091.85
410.26	3014.61
410.45	3000.57
410.64	3080.14
410.83	3014.61
411.02	3143.34
411.21	3138.66
411.40	3136.32
411.59	3286.11
411.78	3262.71
411.98	3187.81
412.17	3180.79
412.36	3211.22
412.55	3176.11
412.74	3353.99
412.93	3384.41
413.12	3370.37
413.31	3543.57
413.50	3522.51
413.69	3552.93
413.88	3590.38
414.07	3555.27
414.26	3545.91
414.45	3623.15
414.64	3751.88
414.83	3632.51
415.02	3899.33
415.22	3801.03
415.41	3861.88
415.60	3861.88
415.79	3922.74
415.98	3967.21
416.17	3967.21
416.36	3953.16
416.55	4014.02
416.74	4081.89
416.93	4079.55
417.12	4154.45
417.31	4152.11
417.50	4131.05
417.69	4334.67
417.88	4271.48
418.07	4374.46
418.26	4194.24
418.45	4248.07
418.64	4503.19
418.83	4507.87
419.02	4470.42
419.21	4344.03
419.39	4606.17
419.58	4610.86
419.77	4451.70
419.96	4550.00
420.15	4545.32
420.34	4596.81
420.53	4657.67
420.72	4645.96
420.91	4702.14
421.10	4851.93
421.29	4753.63
421.48	4847.25
421.67	4795.76
421.86	4842.57
422.05	4760.65
422.24	4870.65
422.43	4924.49
422.61	5029.81
422.80	5083.64
422.99	5057.90
423.18	4910.44
423.37	4947.89
423.56	4983.00
423.75	4945.55
423.94	4966.62
424.13	4751.29
424.32	4791.08
424.50	4919.81
424.69	5149.18
424.88	5193.65
425.07	4894.06
425.26	4851.93
425.45	4961.94
425.64	5137.48
425.83	5078.96
426.01	5006.41
426.20	5029.81
426.39	4971.30
426.58	5193.65
426.77	5130.45
426.96	5177.26
427.15	5142.16
427.33	5107.05
427.52	5172.58
427.71	5170.24
427.90	5146.84
428.09	5254.50
428.28	5315.36
428.46	5263.86
428.65	5284.93
428.84	5497.92
429.03	5467.49
429.22	5364.51
429.40	5511.96
429.59	5497.92
429.78	5366.85
429.97	5399.62
430.16	5617.29
430.34	5650.05
430.53	5572.82
430.72	5593.88
430.91	5586.86
431.10	5607.92
431.28	5806.87
431.47	5888.79
431.66	5699.20
431.85	5937.94
432.03	5877.09
432.22	5909.85
432.41	6038.58
432.60	5870.06
432.79	6061.99
432.97	6024.54
433.16	6040.92
433.35	5858.36
433.54	6235.19
433.72	6127.52
433.91	6015.18
434.10	6291.36
434.28	6073.69
434.47	6239.87
434.66	6321.79
434.85	6235.19
435.03	6434.13
435.22	6375.62
435.41	6586.27
435.59	6483.28
435.78	6567.54
435.97	6473.92
436.16	6450.52
436.34	6408.39
436.53	6539.46
436.72	6754.79
436.90	6427.11
437.09	6806.28
437.28	6422.43
437.46	6623.72
437.65	6609.67
437.84	6799.26
438.02	6602.65
438.21	6857.77
438.40	6881.18
438.58	6841.39
438.77	6974.80
438.96	7070.76
439.14	6993.52
439.33	7171.40
439.52	7293.11
439.70	7225.23
439.89	7391.41
440.08	7431.20
440.26	7543.55
440.45	7332.90
440.63	7365.67
440.82	7646.53
441.01	7669.94
441.19	7646.53
441.38	7719.09
441.57	7840.79
441.75	7873.56
441.94	7922.71
442.12	8070.17
442.31	7992.93
442.50	7903.99
442.68	7920.37
442.87	8234.00
443.05	8109.96
443.24	8332.31
443.43	8142.72
443.61	8255.07
443.80	8479.76
443.98	7964.84
444.17	7948.46
444.35	8177.83
444.54	8386.14
444.73	8215.28
444.91	8344.01
445.10	8540.61
445.28	8255.07
445.47	8259.75
445.65	8299.54
445.84	8477.42
446.02	8549.98
446.21	8390.82
446.39	8414.23
446.58	8629.56
446.77	8397.84
446.95	8428.27
447.14	8475.08
447.32	8531.25
447.51	8559.34
447.69	8657.64
447.88	8477.42
448.06	8636.58
448.25	8851.91
448.43	8709.13
448.62	8645.94
448.80	8348.69
448.99	8765.31
449.17	8643.60
449.36	8620.19
449.54	8858.93
449.73	8910.42
449.91	8959.57
450.10	9116.39
450.28	8929.14
450.46	8950.21
450.65	8966.59
450.83	9275.54
451.02	9280.22
451.20	9275.54
451.39	8926.80
451.57	9170.22
451.76	9177.24
451.94	9135.11
452.13	9500.23
452.31	9359.80
452.49	9341.08
452.68	9357.46
452.86	9502.58
453.05	9610.24
453.23	9671.09
453.42	9488.53
453.60	9343.42
453.78	9392.57
453.97	9603.22
454.15	9509.60
454.34	9731.95
454.52	9767.06
454.70	9757.69
454.89	9886.42
455.07	9881.74
455.26	10083.03
455.44	9940.26
455.62	10115.80
455.81	9902.81
455.99	9867.70
456.17	10118.14
456.36	10113.45
456.54	10331.12
456.73	10031.54
456.91	10544.11
457.09	10548.79
457.28	10757.10
457.46	10569.86
457.64	10766.46
457.83	10445.81
458.01	10267.93
458.19	10951.37
458.38	10593.26
458.56	10583.90
458.74	10539.43
458.93	10672.84
459.11	10937.32
459.29	10897.53
459.48	10913.92
459.66	10944.34
459.84	10925.62
460.03	11154.99
460.21	10977.11
460.39	10963.07
460.57	10949.03
460.76	11208.83
460.94	11276.70
461.12	11417.13
461.31	11241.59
461.49	11136.27
461.67	11332.87
461.85	11463.94
462.04	11489.69
462.22	11747.15
462.40	11777.58
462.59	11648.85
462.77	11559.91
462.95	11363.30
463.13	11709.70
463.32	11674.59
463.50	11922.69
463.68	11843.11
463.86	11798.64
464.05	11763.53
464.23	11833.75
464.41	12060.78
464.59	11595.01
464.78	12376.75
464.96	12191.85
465.14	11903.96
465.32	12273.77
465.50	12210.57
465.69	12414.20
465.87	12255.04
466.05	12161.42
466.23	12276.11
466.41	12287.81
466.60	12554.63
466.78	12393.14
466.96	12482.08
467.14	12231.64
467.32	12421.22
467.51	12512.50
467.69	12287.81
467.87	12472.71
468.05	12589.74
468.23	12620.17
468.41	12554.63
468.60	12666.98
468.78	12608.47
468.96	12868.27
469.14	12971.25
469.32	13238.07
469.50	12924.44
469.69	13224.03
469.87	13172.54
470.05	13092.96
470.23	13355.10
470.41	13015.72
470.59	13383.18
470.77	13408.93
470.95	13364.46
471.14	13635.96
471.32	13242.75
471.50	13514.25
471.68	13696.82
471.86	13666.39
472.04	13839.59
472.22	14235.14
472.40	13540.00
472.58	14066.62
472.77	14052.58
472.95	14160.24
473.13	14445.79
473.31	14235.14
473.49	14141.52
473.67	14415.36
473.85	14417.70
474.03	14761.76
474.21	14775.80
474.39	14750.06
474.57	14724.31
474.75	14796.87
474.93	14806.23
475.12	14878.79
475.30	15508.39
475.48	15166.67
475.66	15374.98
475.84	15098.80
476.02	15470.94
476.20	15517.75
476.38	15866.49
476.56	15953.09
476.74	16308.85
476.92	15992.88
477.10	16086.50
477.28	16238.64
477.46	16432.90
477.64	16341.62
477.82	16755.90
478.00	16926.75
478.18	17081.23
478.36	17025.06
478.54	17338.69
478.72	17221.66
478.90	17495.50
479.08	17633.60
479.26	17783.39
479.44	17827.86
479.62	17898.08
479.80	17935.53
479.98	18043.19
480.16	18691.52
480.34	18471.51
480.52	18768.76
480.70	18710.24
480.88	18621.30
481.06	18993.45
481.24	18967.70
481.41	19377.30
481.59	19262.61
481.77	19578.58
481.95	19704.97
482.13	19957.75
482.31	19632.41
482.49	20439.90
482.67	20147.33
482.85	20748.85
483.03	20989.92
483.21	21120.99
483.39	21186.53
483.57	20947.79
483.74	21345.69
483.92	21598.46
484.10	21558.67
484.28	22202.32
484.46	22202.32
484.64	22380.20
484.82	22167.21
485.00	22419.99
485.18	22513.61
485.35	23080.02
485.53	22838.95
485.71	23424.08
485.89	23819.63
486.07	23278.97
486.25	23728.35
486.43	23939.00
486.61	23990.49
486.78	23955.38
486.96	24451.58
487.14	24514.77
487.32	24760.53
487.50	25202.89
487.68	25474.39
487.85	25479.07
488.03	25539.93
488.21	25773.98
488.39	26192.94
488.57	26441.03
488.75	26326.35
488.92	26609.55
489.10	26855.31
489.28	27002.76
489.46	27618.32
489.64	26862.33
489.81	27967.06
489.99	27903.87
490.17	28336.87
490.35	28418.78
490.53	28435.17
490.70	28727.74
490.88	28746.46
491.06	28865.83
491.24	29041.37
491.41	29252.02
491.59	29472.03
491.77	29530.54
491.95	29731.83
492.13	30000.99
492.30	29989.28
492.48	30382.49
492.66	30604.84
492.84	30466.75
493.01	31117.42
493.19	30705.49
493.37	31522.34
493.54	31318.71
493.72	31871.07
493.90	31585.53
494.08	32023.21
494.25	32395.35
494.43	32041.93
494.61	32463.23
494.79	32655.15
494.96	32524.08
495.14	33146.67
495.32	33600.73
495.49	33139.65
495.67	33495.41
495.85	33813.72
496.02	33867.55
496.20	33684.99
496.38	34469.07
496.55	34574.39
496.73	34834.19
496.91	34586.10
497.09	34993.35
497.26	35519.97
497.44	35611.25
497.62	35545.72
497.79	36093.40
497.97	35725.94
498.14	36074.68
498.32	36479.59
498.50	36638.75
498.67	37186.43
498.85	36694.92
499.03	37104.51
499.20	36938.33
499.38	37235.58
499.56	37163.03
499.73	37544.53
499.91	37495.38
500.08	37837.10
500.26	37291.76
500.44	37982.21
500.61	38321.59
500.79	38380.10
500.97	38211.59
501.14	38660.97
501.32	38691.40
501.49	39068.22
501.67	39037.80
501.84	39288.23
502.02	39634.63
502.20	39344.41
502.37	39225.04
502.55	39084.61
502.72	39959.97
502.90	39721.23
503.07	39435.69
503.25	40458.50
503.43	40076.99
503.60	40261.90
503.78	40615.32
503.95	40900.86
504.13	40858.73
504.30	41095.13
504.48	41130.23
504.65	41181.73
504.83	41422.80
505.01	41469.61
505.18	41588.98
505.36	41727.07
505.53	41338.54
505.71	41535.15
505.88	42508.81
506.06	41961.12
506.23	42424.55
506.41	42265.39
506.58	42431.57
506.76	42167.09
506.93	42525.19
507.11	42506.47
507.28	42759.25
507.46	42960.53
507.63	43107.99
507.81	43526.94
507.98	43491.83
508.16	43129.05
508.33	43606.52
508.50	44203.36
508.68	43952.92
508.85	44198.68
509.03	44634.02
509.20	43915.47
509.38	44545.08
509.55	45172.34
509.73	44985.10
509.90	44957.01
510.08	44634.02
510.25	44732.32
510.42	44617.63
510.60	45160.64
510.77	45574.91
510.95	45654.49
511.12	45619.38
511.30	45462.57
511.47	45724.71
511.64	45907.27
511.82	46295.80
511.99	45998.55
512.17	45691.94
512.34	46054.72
512.51	46621.13
512.69	46763.90
512.86	46560.28
513.04	46707.73
513.21	46951.15
513.38	46869.23
513.56	47175.84
513.73	47180.52
513.90	47367.76
514.08	47353.72
514.25	47782.04
514.43	47655.65
514.60	48020.77
514.77	47232.01
514.95	48114.39
515.12	47845.23
515.29	47648.63
515.47	48044.18
515.64	48488.88
515.81	48285.25
515.99	48446.75
516.16	48692.50
516.33	48729.95
516.51	49090.40
516.68	48774.42
516.85	48741.66
517.03	48769.74
517.20	48933.58
517.37	49202.74
517.54	49085.72
517.72	49340.83
517.89	49256.57
518.06	49177.00
518.24	49535.10
518.41	49340.83
518.58	49785.54
518.75	49490.63
518.93	50068.74
519.10	49462.54
519.27	49993.84
519.45	50033.63
519.62	50183.43
519.79	50192.79
519.96	50115.55
520.14	50178.75
520.31	50143.64
520.48	50639.83
520.65	50595.36
520.83	50930.06
521.00	50981.55
521.17	50459.61
521.34	50728.77
521.52	50845.80
521.69	51126.66
521.86	51405.19
522.03	51098.58
522.20	51325.61
522.38	51737.54
522.55	51522.21
522.72	51728.18
522.89	51536.26
523.07	51599.45
523.24	51800.74
523.41	51859.25
523.58	51648.60
523.75	51983.30
523.92	52069.90
524.10	52121.39
524.27	52245.44
524.44	52568.43
524.61	52076.92
524.78	52580.13
524.96	52030.11
525.13	52573.11
525.30	52652.69
525.47	52683.12
525.64	52699.50
525.81	52793.12
525.98	53022.50
526.16	52851.64
526.33	52760.36
526.50	53240.17
526.67	52907.81
526.84	53066.97
527.01	53237.83
527.18	53165.27
527.36	52837.59
527.53	53282.30
527.70	53748.06
527.87	53420.39
528.04	53401.66
528.21	53415.71
528.38	53609.97
528.55	53668.48
528.72	53780.83
528.89	53731.68
529.07	53572.52
529.24	53659.12
529.41	53890.83
529.58	53855.73
529.75	53570.18
529.92	53818.28
530.09	53923.60
530.26	54167.02
530.43	54239.57
530.60	54122.55
530.77	53930.62
530.94	54307.45
531.11	54096.80
531.28	54482.99
531.46	54365.96
531.63	54642.15
531.80	54595.34
531.97	54487.67
532.14	54646.83
532.31	54717.04
532.48	54553.21
532.65	55030.68
532.82	54571.93
532.99	54981.52
533.16	54808.32
533.33	55173.45
533.50	55189.83
533.67	54995.57
533.84	54787.26
534.01	55173.45
534.18	55224.94
534.35	55599.43
534.52	55025.99
534.69	55405.16
534.86	55426.23
535.03	55351.33
535.20	55578.36
535.37	55650.92
535.54	55491.76
535.71	55444.95
535.88	55625.17
536.05	55545.59
536.22	55817.10
536.38	55669.64
536.55	55973.91
536.72	55826.46
536.89	55739.86
537.06	55690.71
537.23	56165.84
537.40	55821.78
537.57	55831.14
537.74	56030.08
537.91	56097.96
538.08	56044.13
538.25	55838.16
538.42	56165.84
538.59	56659.69
538.75	55973.91
538.92	56282.86
539.09	56427.98
539.26	56397.55
539.43	56444.36
539.60	56420.95
539.77	56357.76
539.94	56657.35
540.11	56523.94
540.28	56587.13
540.44	56652.67
540.61	56493.51
540.78	56561.39
540.95	56603.52
541.12	56580.11
541.29	56547.34
541.46	56711.18
541.62	57130.14
541.79	56884.38
541.96	56683.09
542.13	56683.09
542.30	56741.61
542.47	57050.56
542.63	56987.36
542.80	57120.77
542.97	57308.02
543.14	57315.04
543.31	57315.04
543.48	57467.17
543.64	57537.39
543.81	57577.18
543.98	57207.37
544.15	57513.98
544.32	57673.14
544.48	57815.91
544.65	57429.72
544.82	57368.87
544.99	57591.22
545.16	57757.40
545.32	57579.52
545.49	57879.11
545.66	57794.85
545.83	57937.62
546.00	57771.44
546.16	58047.63
546.33	57797.19
546.50	57523.35
546.67	58024.22
546.83	57916.56
547.00	58066.35
547.17	58005.50
547.34	58129.54
547.50	58106.14
547.67	58244.23
547.84	58174.02
548.00	58300.40
548.17	58340.19
548.34	58321.47
548.51	58410.41
548.67	58321.47
548.84	58492.33
549.01	58202.10
549.18	58232.53
549.34	58485.31
549.51	58487.65
549.68	58611.70
549.84	58522.76
550.01	58710.00
550.18	58492.33
550.34	58672.55
550.51	58527.44
550.68	58712.34
550.84	58515.73
551.01	58904.26
551.18	58625.74
551.34	58773.19
551.51	58681.91
551.68	58855.11
551.84	58525.10
552.01	58569.57
552.18	58925.33
552.34	58691.27
552.51	58951.07
552.68	58880.86
552.84	58880.86
553.01	58983.84
553.18	58986.18
553.34	58906.60
553.51	58894.90
553.67	58930.01
553.84	59159.38
554.01	58965.12
554.17	59159.38
554.34	59196.83
554.51	59166.40
554.67	59302.15
554.84	59168.74
555.00	59283.43
555.17	58995.54
555.33	59185.13
555.50	59093.85
555.67	59229.60
555.83	59086.82
556.00	59318.54
556.16	59653.23
556.33	59618.13
556.50	59370.03
556.66	59384.07
556.83	59477.69
556.99	59489.40
557.16	59606.42
557.32	59702.38
557.49	59849.84
557.65	59480.03
557.82	59688.34
557.98	59573.66
558.15	59587.70
558.32	59618.13
558.48	59657.91
558.65	59587.70
558.81	59800.69
558.98	59660.26
559.14	59693.02
559.31	59824.09
559.47	59807.71
559.64	59774.94
559.80	59812.39
559.97	59868.56
560.13	59788.98
560.30	59969.21
560.46	59938.78
560.63	59891.97
560.79	59913.03
560.96	60327.31
561.12	60097.94
561.29	60060.49
561.45	59976.23
561.61	60055.81
561.78	60107.30
561.94	59906.01
562.11	60023.04
562.27	60177.51
562.44	60114.32
562.60	60226.66
562.77	60053.47
562.93	60257.09
563.10	60285.18
563.26	59891.97
563.42	60266.45
563.59	60058.15
563.75	60060.49
563.92	60397.52
564.08	60097.94
564.24	60374.12
564.41	60257.09
564.57	60451.36
564.74	60439.65
564.90	60399.86
565.07	60233.69
565.23	60226.66
565.39	60236.03
565.56	60324.97
565.72	60409.23
565.88	60526.25
566.05	60259.43
566.21	60367.10
566.38	60353.05
566.54	60505.19
566.70	60568.38
566.87	60697.11
567.03	60331.99
567.19	60652.64
567.36	60488.80
567.52	60624.56
567.68	60753.29
567.85	60605.83
568.01	60676.05
568.17	60493.49
568.34	60598.81
568.50	60554.34
568.66	60460.72
568.83	60598.81
568.99	60360.08
569.15	60467.74
569.32	60671.37
569.48	60629.24
569.64	60566.04
569.81	60741.58
569.97	60598.81
570.13	60692.43
570.30	60676.05
570.46	60769.67
570.62	60776.69
570.78	60884.36
570.95	60715.84
571.11	60856.27
571.27	60601.15
571.43	60556.68
571.60	60839.89
571.76	60790.73
571.92	60814.14
572.09	60795.42
572.25	60797.76
572.41	60556.68
572.57	60823.50
572.74	61006.06
572.90	60750.94
573.06	60966.27
573.22	60795.42
573.38	60573.06
573.55	60608.17
573.71	60966.27
573.87	61003.72
574.03	60718.18
574.20	60743.92
574.36	60797.76
574.52	60823.50
574.68	60755.63
574.84	60856.27
575.01	60884.36
575.17	60914.78
575.33	60823.50
575.49	60839.89
575.65	60865.63
575.82	60933.51
575.98	61010.74
576.14	61160.54
576.30	61085.64
576.46	61003.72
576.62	60931.17
576.79	60921.80
576.95	61111.39
577.11	60942.87
577.27	61036.49
577.43	60924.14
577.59	60851.59
577.75	60924.14
577.92	60828.18
578.08	60968.61
578.24	61113.73
578.40	61298.63
578.56	61001.38
578.72	61139.47
578.88	60989.68
579.04	61272.88
579.21	61052.87
579.37	61104.37
579.53	61130.11
579.69	61172.24
579.85	61017.77
580.01	61038.83
580.17	61003.72
580.33	61183.94
580.49	61223.73
580.65	61197.99
580.82	61052.87
580.98	60879.67
581.14	61001.38
581.30	61226.07
581.46	61223.73
581.62	61029.47
581.78	61076.28
581.94	61270.54
582.10	61167.56
582.26	61125.43
582.42	61085.64
582.58	61155.86
582.74	61076.28
582.90	61097.34
583.06	61137.13
583.22	60837.54
583.38	61209.69
583.54	61286.93
583.70	60980.32
583.86	60973.30
584.02	61013.08
584.18	61242.46
584.34	61167.56
584.50	60949.89
584.66	61024.79
584.82	61080.96
584.98	61197.99
585.14	61179.26
585.30	61015.43
585.46	61242.46
585.62	61207.35
585.78	61188.63
585.94	60975.64
586.10	61160.54
586.26	61176.92
586.42	61254.16
586.58	61319.70
586.74	61205.01
586.90	61181.60
587.06	61116.07
587.22	61333.74
587.38	61148.84
587.54	61354.80
587.70	61354.80
587.86	61324.38
588.02	61144.16
588.18	61408.64
588.34	61277.57
588.49	61111.39
