SpectraSuite Data File
++++++++++++++++++++++++++++++++++++
Date: Fri Oct 25 10:47:33 EDT 2013
User: price-jones
Dark Spectrum Present: No
Reference Spectrum Present: No
Number of Sampled Component Spectra: 1
Spectrometers: USB2+H05261
Integration Time (usec): 100000 (USB2+H05261)
Spectra Averaged: 1 (USB2+H05261)
Boxcar Smoothing: 0 (USB2+H05261)
Correct for Electrical Dark: No (USB2+H05261)
Strobe/Lamp Enabled: No (USB2+H05261)
Correct for Detector Non-linearity: No (USB2+H05261)
Correct for Stray Light: No (USB2+H05261)
Number of Pixels in Processed Spectrum: 2048
>>>>>Begin Processed Spectral Data<<<<<
365.73	105.32
365.92	105.32
366.12	105.32
366.32	51.49
366.52	51.49
366.72	16.38
366.91	0.00
367.11	37.45
367.31	112.35
367.51	18.72
367.70	0.00
367.90	39.79
368.10	0.00
368.30	119.37
368.49	21.06
368.69	74.90
368.89	25.75
369.09	79.58
369.28	42.13
369.48	56.17
369.68	74.90
369.87	124.05
370.07	112.35
370.27	121.71
370.47	198.95
370.66	315.97
370.86	334.70
371.06	475.13
371.25	463.43
371.45	407.25
371.65	477.47
371.84	374.49
372.04	444.70
372.24	519.60
372.44	475.13
372.63	465.77
372.83	493.85
373.03	451.72
373.22	568.75
373.42	519.60
373.62	491.51
373.81	503.22
374.01	498.53
374.21	528.96
374.40	491.51
374.60	561.73
374.79	550.03
374.99	545.34
375.19	519.60
375.38	655.35
375.58	493.85
375.78	521.94
375.97	496.19
376.17	671.73
376.37	582.79
376.56	610.88
376.76	552.37
376.95	507.90
377.15	657.69
377.35	655.35
377.54	568.75
377.74	596.84
377.93	554.71
378.13	697.48
378.33	620.24
378.52	650.67
378.72	613.22
378.91	657.69
379.11	653.01
379.31	566.41
379.50	510.24
379.70	695.14
379.89	678.76
380.09	594.50
380.28	681.10
380.48	645.99
380.68	648.33
380.87	631.94
381.07	650.67
381.26	718.54
381.46	615.56
381.65	664.71
381.85	669.39
382.04	627.26
382.24	692.80
382.43	692.80
382.63	690.46
382.83	657.69
383.02	634.29
383.22	617.90
383.41	650.67
383.61	683.44
383.80	819.19
384.00	744.29
384.19	767.70
384.39	697.48
384.58	823.87
384.78	763.01
384.97	711.52
385.17	751.31
385.36	716.20
385.56	779.40
385.75	746.63
385.95	748.97
386.14	711.52
386.34	826.21
386.53	723.23
386.72	741.95
386.92	793.44
387.11	812.17
387.31	763.01
387.50	763.01
387.70	807.48
387.89	774.72
388.09	814.51
388.28	788.76
388.48	720.88
388.67	826.21
388.86	875.36
389.06	887.06
389.25	863.66
389.45	905.79
389.64	826.21
389.84	891.74
390.03	905.79
390.22	875.36
390.42	791.10
390.61	954.94
390.81	842.59
391.00	891.74
391.19	924.51
391.39	873.02
391.58	947.92
391.78	929.19
391.97	945.58
392.16	889.40
392.36	1011.11
392.55	936.21
392.75	922.17
392.94	936.21
393.13	952.60
393.33	915.15
393.52	1046.22
393.71	1055.58
393.91	1046.22
394.10	992.39
394.29	1034.52
394.49	1008.77
394.68	1093.03
394.88	947.92
395.07	1109.41
395.26	1062.60
395.46	1109.41
395.65	1118.78
395.84	1137.50
396.04	1212.40
396.23	1064.94
396.42	1153.88
396.62	1177.29
396.81	1149.20
397.00	992.39
397.19	1165.59
397.39	1188.99
397.58	1193.67
397.77	1153.88
397.97	1240.48
398.16	1280.27
398.35	1287.29
398.55	1249.85
398.74	1303.68
398.93	1320.06
399.12	1301.34
399.32	1261.55
399.51	1228.78
399.70	1261.55
399.90	1280.27
400.09	1348.15
400.28	1324.74
400.47	1364.53
400.67	1437.09
400.86	1472.20
401.05	1392.62
401.24	1446.45
401.44	1495.60
401.63	1462.83
401.82	1462.83
402.01	1467.52
402.21	1474.54
402.40	1521.35
402.59	1521.35
402.78	1507.30
402.97	1563.48
403.17	1537.73
403.36	1526.03
403.55	1551.78
403.74	1652.42
403.93	1570.50
404.13	1682.85
404.32	1570.50
404.51	1589.22
404.70	1614.97
404.89	1540.07
405.09	1671.14
405.28	1640.72
405.47	1715.61
405.66	1678.16
405.85	1689.87
406.05	1734.34
406.24	1706.25
406.43	1652.42
406.62	1827.96
406.81	1877.11
407.00	1823.28
407.20	1820.94
407.39	1778.81
407.58	1851.36
407.77	1823.28
407.96	1846.68
408.15	2059.67
408.34	1865.41
408.54	1914.56
408.73	1916.90
408.92	1998.82
409.11	2022.22
409.30	2012.86
409.49	2003.50
409.68	1907.54
409.87	2019.88
410.07	2003.50
410.26	1989.46
410.45	2005.84
410.64	2033.93
410.83	2174.36
411.02	2099.46
411.21	2242.23
411.40	2214.15
411.59	2331.17
411.78	2256.28
411.98	2193.08
412.17	2251.60
412.36	2324.15
412.55	2373.30
412.74	2340.54
412.93	2368.62
413.12	2328.83
413.31	2523.10
413.50	2326.49
413.69	2436.50
413.88	2490.33
414.07	2502.03
414.26	2537.14
414.45	2455.22
414.64	2548.84
414.83	2663.53
415.02	2605.02
415.22	2710.34
415.41	2787.58
415.60	2740.77
415.79	2698.64
415.98	2839.07
416.17	2813.32
416.36	2803.96
416.55	2836.73
416.74	2818.00
416.93	2850.77
417.12	2878.86
417.31	2902.26
417.50	2932.69
417.69	3049.72
417.88	2867.16
418.07	2979.50
418.26	2967.80
418.45	2951.42
418.64	3110.57
418.83	3094.19
419.02	3173.77
419.21	3030.99
419.39	3129.30
419.58	3117.59
419.77	3021.63
419.96	3157.38
420.15	3272.07
420.34	3155.04
420.53	3269.73
420.72	3236.96
420.91	3251.00
421.10	3386.76
421.29	3337.60
421.48	3323.56
421.67	3332.92
421.86	3276.75
422.05	3353.99
422.24	3325.90
422.43	3412.50
422.61	3361.01
422.80	3428.88
422.99	3316.54
423.18	3440.59
423.37	3454.63
423.56	3468.67
423.75	3501.44
423.94	3426.54
424.13	3274.41
424.32	3379.73
424.50	3431.23
424.69	3637.19
424.88	3538.89
425.07	3361.01
425.26	3410.16
425.45	3428.88
425.64	3550.59
425.83	3459.31
426.01	3515.48
426.20	3449.95
426.39	3475.70
426.58	3382.07
426.77	3508.46
426.96	3517.83
427.15	3475.70
427.33	3660.60
427.52	3639.53
427.71	3712.09
427.90	3515.48
428.09	3623.15
428.28	3653.58
428.46	3700.39
428.65	3777.62
428.84	3819.75
429.03	3719.11
429.22	3702.73
429.40	3658.26
429.59	3684.00
429.78	3606.77
429.97	3599.74
430.16	3566.98
430.34	3667.62
430.53	3742.52
430.72	3749.54
430.91	3826.78
431.10	3901.67
431.28	4086.58
431.47	3929.76
431.66	4079.55
431.85	3983.59
432.03	4053.81
432.22	4250.41
432.41	4086.58
432.60	4198.92
432.79	3988.27
432.97	4182.54
433.16	4187.22
433.35	4035.08
433.54	4348.72
433.72	4149.77
433.91	4126.36
434.10	4128.70
434.28	4262.12
434.47	4278.50
434.66	4341.69
434.85	4248.07
435.03	4280.84
435.22	4329.99
435.41	4496.17
435.59	4358.08
435.78	4374.46
435.97	4498.51
436.16	4416.59
436.34	4393.19
436.53	4526.60
436.72	4638.94
436.90	4397.87
437.09	4592.13
437.28	4542.98
437.46	4503.19
437.65	4648.30
437.84	4585.11
438.02	4547.66
438.21	4592.13
438.40	4564.04
438.58	4692.77
438.77	4746.61
438.96	4746.61
439.14	4889.38
439.33	4849.59
439.52	4840.23
439.70	4947.89
439.89	5177.26
440.08	4931.51
440.26	4912.78
440.45	4870.65
440.63	5195.99
440.82	5345.78
441.01	5130.45
441.19	5252.16
441.38	5341.10
441.57	5268.55
441.75	5296.63
441.94	5507.28
442.12	5558.77
442.31	5446.43
442.50	5526.00
442.68	5493.24
442.87	5399.62
443.05	5570.48
443.24	5589.20
443.43	5572.82
443.61	5638.35
443.80	5598.56
443.98	5554.09
444.17	5359.83
444.35	5446.43
444.54	5593.88
444.73	5631.33
444.91	5598.56
445.10	5778.78
445.28	5607.92
445.47	5577.50
445.65	5717.93
445.84	5605.58
446.02	5671.12
446.21	5666.44
446.39	5696.86
446.58	5870.06
446.77	5575.16
446.95	5570.48
447.14	5947.30
447.32	5973.05
447.51	5762.40
447.69	5781.12
447.88	5898.15
448.06	5907.51
448.25	5961.34
448.43	5919.21
448.62	5905.17
448.80	5823.25
448.99	5884.11
449.17	5818.57
449.36	5912.19
449.54	6043.26
449.73	6167.31
449.91	6232.85
450.10	6160.29
450.28	6349.87
450.46	6167.31
450.65	6218.80
450.83	6085.39
451.02	6384.98
451.20	6457.54
451.39	6179.01
451.57	6186.04
451.76	6157.95
451.94	6211.78
452.13	6265.61
452.31	6272.64
452.49	6251.57
452.68	6413.07
452.86	6230.51
453.05	6314.77
453.23	6392.00
453.42	6282.00
453.60	6237.53
453.78	6649.46
453.97	6349.87
454.15	6422.43
454.34	6429.45
454.52	6703.29
454.70	6626.06
454.89	6614.35
455.07	6609.67
455.26	6658.82
455.44	6703.29
455.62	6565.20
455.81	6792.23
455.99	6932.67
456.17	6759.47
456.36	6923.30
456.54	6909.26
456.73	6946.71
456.91	7115.23
457.09	7033.31
457.28	7386.73
457.46	6995.86
457.64	7239.28
457.83	7103.53
458.01	6998.20
458.19	7248.64
458.38	7185.44
458.56	7311.83
458.74	7414.82
458.93	7335.24
459.11	7300.13
459.29	7391.41
459.48	7375.03
459.66	7286.09
459.84	7227.57
460.03	7445.24
460.21	7290.77
460.39	7454.61
460.57	7375.03
460.76	7517.80
460.94	7531.84
461.12	7559.93
461.31	7559.93
461.49	7332.90
461.67	7454.61
461.85	7726.11
462.04	7669.94
462.22	8009.31
462.40	7735.47
462.59	7758.88
462.77	7735.47
462.95	7726.11
463.13	7758.88
463.32	7761.22
463.50	7782.28
463.68	7983.57
463.86	7880.58
464.05	7779.94
464.23	7864.20
464.41	7997.61
464.59	7812.71
464.78	7850.16
464.96	8126.34
465.14	7793.98
465.32	8088.89
465.50	8360.39
465.69	8264.43
465.87	8292.52
466.05	8142.72
466.23	7964.84
466.41	8245.71
466.60	8320.60
466.78	8147.40
466.96	8241.03
467.14	8266.77
467.32	8271.45
467.51	8290.18
467.69	8093.57
467.87	8278.47
468.05	8339.33
468.23	8107.62
468.41	8369.76
468.60	8290.18
468.78	8360.39
468.96	8498.49
469.14	8421.25
469.32	8674.03
469.50	8479.76
469.69	8629.56
469.87	8697.43
470.05	8678.71
470.23	8702.11
470.41	8655.30
470.59	8861.27
470.77	8681.05
470.95	8702.11
471.14	9032.13
471.32	8816.80
471.50	9167.88
471.68	9123.41
471.86	8943.19
472.04	8968.93
472.22	9437.04
472.40	9130.43
472.58	9202.99
472.77	9345.76
472.95	9479.17
473.13	9614.92
473.31	9308.31
473.49	9275.54
473.67	9357.46
473.85	9607.90
474.03	9603.22
474.21	9820.89
474.39	9874.72
474.57	9694.50
474.75	9713.22
474.93	9813.87
475.12	9998.77
475.30	9909.83
475.48	9916.85
475.66	9961.32
475.84	10169.63
476.02	10136.86
476.20	9994.09
476.38	10174.31
476.56	10394.32
476.74	10232.82
476.92	10560.50
477.10	10450.49
477.28	10930.30
477.46	10691.57
477.64	10747.74
477.82	10993.50
478.00	11166.70
478.18	11026.26
478.36	11147.97
478.54	11314.15
478.72	11389.05
478.90	11335.21
479.08	11496.71
479.26	11651.19
479.44	11548.20
479.62	11623.10
479.80	11878.22
479.98	11793.96
480.16	12369.73
480.34	12044.40
480.52	12236.32
480.70	12079.50
480.88	12243.34
481.06	12299.52
481.24	12404.84
481.41	12526.55
481.59	12566.34
481.77	12788.69
481.95	12886.99
482.13	12856.56
482.31	12809.75
482.49	13184.24
482.67	13212.32
482.85	13472.12
483.03	13191.26
483.21	13591.49
483.39	13813.84
483.57	13760.01
483.74	13362.12
483.92	14059.60
484.10	13820.86
484.28	13982.36
484.46	14321.74
484.64	14277.27
484.82	14413.02
485.00	14504.30
485.18	14551.11
485.35	14867.08
485.53	14778.14
485.71	14808.57
485.89	14785.16
486.07	15037.94
486.25	15159.65
486.43	15262.63
486.61	15463.92
486.78	15534.14
486.96	15562.22
487.14	16105.23
487.32	16182.46
487.50	15992.88
487.68	16217.57
487.85	16999.31
488.03	16533.54
488.21	16641.21
488.39	16458.65
488.57	16779.30
488.75	16879.94
488.92	17151.45
489.10	17280.18
489.28	17511.89
489.46	17467.42
489.64	17345.71
489.81	17549.34
489.99	17858.29
490.17	18087.66
490.35	18279.58
490.53	18307.67
490.70	18363.84
490.88	18345.12
491.06	18546.40
491.24	18794.50
491.41	18471.51
491.59	18778.12
491.77	18656.41
491.95	19147.92
492.13	19257.93
492.30	19463.90
492.48	19564.54
492.66	19606.67
492.84	19796.25
493.01	19721.35
493.19	19857.10
493.37	20016.26
493.54	19927.32
493.72	20142.65
493.90	20374.36
494.08	20285.42
494.25	20744.17
494.43	20889.28
494.61	21022.69
494.79	20980.56
494.96	20711.40
495.14	21034.39
495.32	21738.90
495.49	21287.17
495.67	21188.87
495.85	21699.11
496.02	21539.95
496.20	21619.53
496.38	21954.22
496.55	22024.44
496.73	22415.31
496.91	22113.38
497.09	21956.57
497.26	22525.32
497.44	22401.27
497.62	22373.18
497.79	22820.22
497.97	22682.13
498.14	23243.86
498.32	23145.56
498.50	22986.40
498.67	23253.22
498.85	23782.18
499.03	23370.25
499.20	23660.48
499.38	23489.62
499.56	23651.11
499.73	23765.80
499.91	24177.73
500.08	24051.34
500.26	23894.53
500.44	24107.52
500.61	24285.40
500.79	23892.19
500.97	24187.10
501.14	24472.64
501.32	24435.19
501.49	24851.81
501.67	24910.32
501.84	25074.16
502.02	24875.21
502.20	24938.41
502.37	25060.12
502.55	25156.08
502.72	25280.13
502.90	25603.12
503.07	25446.30
503.25	25635.89
503.43	25504.82
503.60	25706.10
503.78	25535.24
503.95	25710.78
504.13	25947.18
504.30	25905.05
504.48	25883.98
504.65	25893.35
504.83	26324.01
505.01	26412.95
505.18	26562.74
505.36	26464.44
505.53	26534.65
505.71	26731.26
505.88	26911.48
506.06	26321.66
506.23	26881.05
506.41	26679.77
506.58	26630.62
506.76	27295.33
506.93	27271.92
507.11	27491.93
507.28	27501.29
507.46	27035.53
507.63	27800.88
507.81	27772.80
507.98	27613.64
508.16	27470.87
508.33	27761.09
508.50	27917.91
508.68	27821.95
508.85	28371.97
509.03	28025.57
509.20	28182.39
509.38	28727.74
509.55	28407.08
509.73	28400.06
509.90	28720.71
510.08	28793.27
510.25	28776.89
510.42	28877.53
510.60	29544.58
510.77	29017.96
510.95	29137.33
511.12	29090.52
511.30	29380.74
511.47	29163.08
511.64	29490.75
511.82	29848.85
511.99	29118.60
512.17	29762.25
512.34	29432.24
512.51	30153.12
512.69	30490.16
512.86	29848.85
513.04	30251.42
513.21	30073.54
513.38	30047.80
513.56	30113.33
513.73	29600.76
513.90	30504.20
514.08	30143.76
514.25	30941.88
514.43	30368.45
514.60	30438.67
514.77	30431.65
514.95	30822.51
515.12	30359.09
515.29	30754.64
515.47	30513.56
515.64	30862.30
515.81	30883.37
515.99	31164.23
516.16	31204.02
516.33	31072.95
516.51	31353.82
516.68	31065.93
516.85	30726.55
517.03	31386.58
517.20	31367.86
517.37	31316.37
517.54	31594.89
517.72	31578.51
517.89	31700.22
518.06	31466.16
518.24	31620.64
518.41	31667.45
518.58	31349.14
518.75	31938.95
518.93	32357.91
519.10	32011.51
519.27	32165.98
519.45	32048.96
519.62	32510.04
519.79	32135.56
519.96	32304.07
520.14	32765.16
520.31	32643.45
520.48	32947.72
520.65	32435.14
520.83	32788.56
521.00	33212.20
521.17	33090.49
521.34	32919.63
521.52	33193.48
521.69	33448.60
521.86	33493.07
522.03	33383.06
522.20	33354.97
522.38	33663.93
522.55	33745.84
522.72	33680.31
522.89	33607.75
523.07	33865.21
523.24	33567.96
523.41	33422.85
523.58	33399.44
523.75	34384.81
523.92	34139.05
524.10	34279.49
524.27	34195.23
524.44	34256.08
524.61	34401.19
524.78	34366.09
524.96	34909.09
525.13	34672.70
525.30	34761.64
525.47	34653.97
525.64	35105.70
525.81	35030.80
525.98	34967.60
526.16	34988.67
526.33	35051.86
526.50	34625.89
526.67	34845.90
526.84	34965.26
527.01	34675.04
527.18	35306.98
527.36	35033.14
527.53	35192.30
527.70	35875.73
527.87	35412.31
528.04	35318.68
528.21	35386.56
528.38	35365.49
528.55	35777.43
528.72	35838.28
528.89	36233.83
529.07	35882.75
529.24	35599.55
529.41	35990.42
529.58	36126.17
529.75	35882.75
529.92	36079.36
530.09	35995.10
530.26	36170.64
530.43	36397.67
530.60	36023.19
530.77	36470.23
530.94	36566.19
531.11	36374.27
531.28	36542.78
531.46	36479.59
531.63	36779.18
531.80	36425.76
531.97	36278.30
532.14	36587.25
532.31	36772.16
532.48	36538.10
532.65	36994.51
532.82	36849.39
532.99	37036.64
533.16	36460.87
533.33	37015.57
533.50	37258.99
533.67	37219.20
533.84	37319.84
534.01	37188.77
534.18	37088.13
534.35	37483.68
534.52	37282.39
534.69	37399.42
534.86	37972.85
535.03	37137.28
535.20	37528.15
535.37	37656.88
535.54	38169.46
535.71	38043.07
535.88	37982.21
536.05	37268.35
536.22	38029.02
536.38	37610.07
536.55	37982.21
536.72	38370.74
536.89	37741.14
537.06	38092.22
537.23	38361.38
537.40	37790.29
537.57	38321.59
537.74	38363.72
537.91	38326.27
538.08	38525.22
538.25	38061.79
538.42	38511.17
538.59	38440.96
538.75	38216.27
538.92	38792.04
539.09	38827.15
539.26	38785.02
539.43	38705.44
539.60	38939.49
539.77	38670.33
539.94	38581.39
540.11	38347.34
540.28	38972.26
540.44	38852.89
540.61	38305.21
540.78	39288.23
540.95	38859.91
541.12	39119.71
541.29	38960.56
541.46	39063.54
541.62	39126.74
541.79	39241.42
541.96	39220.36
542.13	39311.64
542.30	39676.76
542.47	39236.74
542.63	39374.83
542.80	39407.60
542.97	39772.72
543.14	39796.13
543.31	40163.59
543.48	40046.57
543.64	40313.39
543.81	40037.20
543.98	40149.55
544.15	40002.10
544.32	39992.73
544.48	40170.61
544.65	40229.13
544.82	39606.55
544.99	39639.31
545.16	40062.95
545.32	40229.13
545.49	40404.67
545.66	40430.41
545.83	40332.11
546.00	40601.27
546.16	40376.58
546.33	40327.43
546.50	40179.98
546.67	40236.15
546.83	40542.76
547.00	40659.79
547.17	40587.23
547.34	40706.60
547.50	40392.97
547.67	40505.31
547.84	40718.30
548.00	41233.22
548.17	41298.75
548.34	40594.25
548.51	41214.49
548.67	41137.26
548.84	40601.27
549.01	40849.37
549.18	40582.55
549.34	40823.62
549.51	41223.86
549.68	41294.07
549.84	41340.88
550.01	41071.72
550.18	41504.72
550.34	40989.80
550.51	41195.77
550.68	41383.01
550.84	40727.66
551.01	41493.02
551.18	41432.16
551.34	41209.81
551.51	41666.22
551.68	41216.83
551.84	41940.06
552.01	41762.18
552.18	41792.61
552.34	41591.32
552.51	42155.39
552.68	41982.19
552.84	42080.49
553.01	42213.90
553.18	41752.82
553.34	41897.93
553.51	41340.88
553.67	41762.18
553.84	41876.86
554.01	42113.26
554.17	42054.75
554.34	42000.91
554.51	42312.20
554.67	42335.61
554.84	42590.73
555.00	42274.76
555.17	41830.05
555.33	42391.78
555.50	41986.87
555.67	42082.83
555.83	42410.51
556.00	42192.84
556.16	42316.89
556.33	42813.08
556.50	42026.66
556.66	42536.90
556.83	42405.83
556.99	42817.76
557.16	42979.26
557.32	42433.91
557.49	42305.18
557.65	42728.82
557.82	42279.44
557.98	42464.34
558.15	42483.06
558.32	42857.55
558.48	42564.98
558.65	42667.97
558.81	42665.63
558.98	42651.58
559.14	42780.31
559.31	42574.34
559.47	42693.71
559.64	43126.71
559.80	42960.53
559.97	42948.83
560.13	42602.43
560.30	42417.53
560.46	42696.05
560.63	43042.45
560.79	43178.20
560.96	43328.00
561.12	43154.80
561.29	42871.59
561.45	42927.77
561.61	43100.97
561.78	43178.20
561.94	42995.64
562.11	42815.42
562.27	42892.66
562.44	43112.67
562.60	43311.61
562.77	43381.83
562.93	43267.14
563.10	43639.29
563.26	42927.77
563.42	43248.42
563.59	43126.71
563.75	43400.55
563.92	43517.58
564.08	43573.75
564.24	43393.53
564.41	43665.03
564.57	43313.95
564.74	43753.97
564.90	43608.86
565.07	43503.54
565.23	43353.74
565.39	43358.42
565.56	43803.13
565.72	42918.40
565.88	43859.30
566.05	43641.63
566.21	43229.69
566.38	43222.67
566.54	43342.04
566.70	43674.40
566.87	43959.94
567.03	43470.77
567.19	43842.92
567.36	43634.61
567.52	43805.47
567.68	43793.76
567.85	43473.11
568.01	43770.36
568.17	43454.39
568.34	43484.81
568.50	44004.41
568.66	43826.53
568.83	44062.93
568.99	43775.04
569.15	43845.26
569.32	43615.88
569.48	43278.85
569.64	43828.87
569.81	43753.97
569.97	43576.09
570.13	43482.47
570.30	43452.05
570.46	43704.82
570.62	43592.48
570.78	43548.01
570.95	43487.15
571.11	44044.20
571.27	43768.02
571.43	43655.67
571.60	43908.45
571.76	43580.78
571.92	43810.15
572.09	43648.65
572.25	43941.22
572.41	43908.45
572.57	43665.03
572.74	44409.32
572.90	43711.84
573.06	43564.39
573.22	43995.05
573.38	43721.21
573.55	43765.68
573.71	44004.41
573.87	43702.48
574.03	43751.63
574.20	43990.37
574.36	43812.49
574.52	44046.54
574.68	44030.16
574.84	44016.11
575.01	43955.26
575.17	43658.01
575.33	43667.37
575.49	43569.07
575.65	44058.24
575.82	44406.98
575.98	43761.00
576.14	44236.12
576.30	43665.03
576.46	43952.92
576.62	43885.04
576.79	44367.20
576.95	43714.19
577.11	44233.78
577.27	44065.27
577.43	44130.80
577.59	44053.56
577.75	43714.19
577.92	44023.14
578.08	44095.69
578.24	44039.52
578.40	43894.41
578.56	44135.48
578.72	44002.07
578.88	44275.91
579.04	44259.53
579.21	43704.82
579.37	43995.05
579.53	43456.73
579.69	44016.11
579.85	44030.16
580.01	44154.21
580.17	43959.94
580.33	44376.56
580.49	44339.11
580.65	44168.25
580.82	44385.92
580.98	44165.91
581.14	44189.31
581.30	44603.59
581.46	44177.61
581.62	43978.67
581.78	43913.13
581.94	44449.11
582.10	44123.78
582.26	43938.88
582.42	44102.71
582.58	44224.42
582.74	44032.50
582.90	43866.32
583.06	44229.10
583.22	44421.03
583.38	44524.01
583.54	44547.42
583.70	44156.55
583.86	44086.33
584.02	43997.39
584.18	44025.48
584.34	44381.24
584.50	44264.21
584.66	44378.90
584.82	44339.11
584.98	44224.42
585.14	44411.67
585.30	43971.64
585.46	44495.92
585.62	43753.97
585.78	43686.10
585.94	43908.45
586.10	44240.81
586.26	43943.56
586.42	44617.63
586.58	44037.18
586.74	44280.60
586.90	43845.26
587.06	43973.98
587.22	44107.40
587.38	43494.18
587.54	44107.40
587.70	44484.22
587.86	44575.50
588.02	44591.89
588.18	44615.29
588.34	44161.23
588.49	44098.03
588.65	44170.59
588.81	44306.34
588.97	43934.20
589.13	44011.43
589.29	44692.53
589.45	44348.47
589.61	44552.10
589.77	44203.36
589.93	44802.53
590.08	44790.83
590.24	44666.78
590.40	44577.84
