SpectraSuite Data File
++++++++++++++++++++++++++++++++++++
Date: Fri Oct 25 10:47:01 EDT 2013
User: price-jones
Dark Spectrum Present: No
Reference Spectrum Present: No
Number of Sampled Component Spectra: 1
Spectrometers: USB2+H05261
Integration Time (usec): 100000 (USB2+H05261)
Spectra Averaged: 1 (USB2+H05261)
Boxcar Smoothing: 0 (USB2+H05261)
Correct for Electrical Dark: No (USB2+H05261)
Strobe/Lamp Enabled: No (USB2+H05261)
Correct for Detector Non-linearity: No (USB2+H05261)
Correct for Stray Light: No (USB2+H05261)
Number of Pixels in Processed Spectrum: 2048
>>>>>Begin Processed Spectral Data<<<<<
365.73	117.03
365.92	117.03
366.12	117.03
366.32	117.03
366.52	11.70
366.72	84.26
366.91	21.06
367.11	21.06
367.31	0.00
367.51	42.13
367.70	0.00
367.90	91.28
368.10	58.51
368.30	9.36
368.49	2.34
368.69	63.19
368.89	110.01
369.09	0.00
369.28	42.13
369.48	63.19
369.68	42.13
369.87	60.85
370.07	95.96
370.27	168.52
370.47	222.35
370.66	337.04
370.86	414.27
371.06	496.19
371.25	491.51
371.45	379.17
371.65	547.69
371.84	491.51
372.04	470.45
372.24	524.28
372.44	489.17
372.63	498.53
372.83	437.68
373.03	461.09
373.22	470.45
373.42	489.17
373.62	535.98
373.81	552.37
374.01	589.82
374.21	554.71
374.40	568.75
374.60	627.26
374.79	629.60
374.99	533.64
375.19	622.58
375.38	615.56
375.58	608.54
375.78	519.60
375.97	585.13
376.17	615.56
376.37	603.86
376.56	601.52
376.76	653.01
376.95	599.18
377.15	653.01
377.35	610.88
377.54	645.99
377.74	592.16
377.93	599.18
378.13	573.43
378.33	671.73
378.52	585.13
378.72	711.52
378.91	763.01
379.11	603.86
379.31	631.94
379.50	671.73
379.70	606.20
379.89	713.86
380.09	662.37
380.28	610.88
380.48	711.52
380.68	568.75
380.87	664.71
381.07	699.82
381.26	690.46
381.46	837.91
381.65	650.67
381.85	641.31
382.04	678.76
382.24	737.27
382.43	695.14
382.63	699.82
382.83	739.61
383.02	676.41
383.22	791.10
383.41	758.33
383.61	739.61
383.80	751.31
384.00	744.29
384.19	767.70
384.39	734.93
384.58	744.29
384.78	798.12
384.97	835.57
385.17	746.63
385.36	830.89
385.56	744.29
385.75	770.04
385.95	727.91
386.14	816.85
386.34	816.85
386.53	753.65
386.72	788.76
386.92	851.96
387.11	866.00
387.31	821.53
387.50	873.02
387.70	833.23
387.89	922.17
388.09	856.64
388.28	863.66
388.48	807.48
388.67	940.90
388.86	919.83
389.06	924.51
389.25	901.11
389.45	985.37
389.64	961.96
389.84	971.32
390.03	945.58
390.22	950.26
390.42	1001.75
390.61	978.34
390.81	936.21
391.00	1004.09
391.19	966.64
391.39	1004.09
391.58	1039.20
391.78	1055.58
391.97	1027.50
392.16	973.66
392.36	938.55
392.55	954.94
392.75	990.05
392.94	910.47
393.13	964.30
393.33	936.21
393.52	964.30
393.71	1011.11
393.91	957.28
394.10	1086.01
394.29	1114.10
394.49	1029.84
394.68	1139.84
394.88	1076.65
395.07	1121.12
395.26	1198.35
395.46	1184.31
395.65	1214.74
395.84	1165.59
396.04	1165.59
396.23	1144.52
396.42	1095.37
396.62	1174.95
396.81	1135.16
397.00	1167.93
397.19	1158.57
397.39	1287.29
397.58	1261.55
397.77	1193.67
397.97	1291.98
398.16	1294.32
398.35	1299.00
398.55	1235.80
398.74	1380.92
398.93	1376.24
399.12	1401.98
399.32	1448.79
399.51	1345.81
399.70	1474.54
399.90	1373.89
400.09	1479.22
400.28	1355.17
400.47	1476.88
400.67	1469.86
400.86	1542.41
401.05	1561.14
401.24	1540.07
401.44	1561.14
401.63	1659.44
401.82	1575.18
402.01	1502.62
402.21	1654.76
402.40	1586.88
402.59	1589.22
402.78	1689.87
402.97	1631.35
403.17	1734.34
403.36	1617.31
403.55	1673.48
403.74	1717.95
403.93	1762.42
404.13	1666.46
404.32	1724.97
404.51	1708.59
404.70	1823.28
404.89	1804.55
405.09	1856.04
405.28	1811.57
405.47	1734.34
405.66	1741.36
405.85	1849.02
406.05	1863.07
406.24	1792.85
406.43	1865.41
406.62	1895.83
406.81	1980.09
407.00	1907.54
407.20	1825.62
407.39	1823.28
407.58	1905.20
407.77	2071.37
407.96	2062.01
408.15	2050.31
408.34	2090.10
408.54	2062.01
408.73	2069.03
408.92	2036.27
409.11	2190.74
409.30	2113.50
409.49	2143.93
409.68	2045.63
409.87	2195.42
410.07	2256.28
410.26	2111.16
410.45	2232.87
410.64	2223.51
410.83	2249.25
411.02	2282.02
411.21	2333.51
411.40	2284.36
411.59	2314.79
411.78	2305.43
411.98	2417.77
412.17	2420.11
412.36	2427.14
412.55	2553.52
412.74	2504.37
412.93	2502.03
413.12	2441.18
413.31	2546.50
413.50	2712.68
413.69	2537.14
413.88	2658.85
414.07	2656.51
414.26	2731.41
414.45	2839.07
414.64	2757.15
414.83	2827.37
415.02	2771.19
415.22	2836.73
415.41	2937.37
415.60	2825.03
415.79	2883.54
415.98	2928.01
416.17	2874.18
416.36	2956.10
416.55	2995.89
416.74	2977.16
416.93	3028.65
417.12	3073.12
417.31	3119.93
417.50	3080.14
417.69	3119.93
417.88	3241.64
418.07	3070.78
418.26	3152.70
418.45	3082.49
418.64	3370.37
418.83	3309.52
419.02	3316.54
419.21	3309.52
419.39	3302.50
419.58	3229.94
419.77	3204.19
419.96	3337.60
420.15	3328.24
420.34	3398.46
420.53	3332.92
420.72	3466.33
420.91	3384.41
421.10	3419.52
421.29	3524.85
421.48	3639.53
421.67	3494.42
421.86	3768.26
422.05	3599.74
422.24	3529.53
422.43	3557.61
422.61	3613.79
422.80	3588.04
422.99	3658.26
423.18	3660.60
423.37	3637.19
423.56	3709.75
423.75	3555.27
423.94	3616.13
424.13	3452.29
424.32	3527.19
424.50	3749.54
424.69	3726.13
424.88	3686.34
425.07	3569.32
425.26	3679.32
425.45	3712.09
425.64	3786.99
425.83	3651.24
426.01	3873.59
426.20	3714.43
426.39	3632.51
426.58	3794.01
426.77	3702.73
426.96	3805.71
427.15	3627.83
427.33	3819.75
427.52	3751.88
427.71	3847.84
427.90	3805.71
428.09	3948.48
428.28	3845.50
428.46	3925.08
428.65	3803.37
428.84	4004.66
429.03	3875.93
429.22	3838.48
429.40	3889.97
429.59	3929.76
429.78	3796.35
429.97	3768.26
430.16	3906.35
430.34	3850.18
430.53	3819.75
430.72	3983.59
430.91	3978.91
431.10	4070.19
431.28	4173.18
431.47	4376.80
431.66	4255.09
431.85	4231.69
432.03	4360.42
432.22	4369.78
432.41	4229.35
432.60	4210.62
432.79	4362.76
432.97	4449.36
433.16	4416.59
433.35	4208.28
433.54	4442.34
433.72	4531.28
433.91	4428.29
434.10	4442.34
434.28	4458.72
434.47	4442.34
434.66	4631.92
434.85	4575.75
435.03	4624.90
435.22	4713.84
435.41	4894.06
435.59	4674.05
435.78	4713.84
435.97	4660.01
436.16	4685.75
436.34	4706.82
436.53	4674.05
436.72	4805.12
436.90	4744.27
437.09	4833.21
437.28	4819.16
437.46	4805.12
437.65	4938.53
437.84	4779.37
438.02	4938.53
438.21	4917.47
438.40	4856.61
438.58	4997.04
438.77	5018.11
438.96	4992.36
439.14	5125.77
439.33	5296.63
439.52	5193.65
439.70	5198.33
439.89	5341.10
440.08	5324.72
440.26	5369.19
440.45	5277.91
440.63	5465.15
440.82	5500.26
441.01	5528.35
441.19	5626.65
441.38	5659.42
441.57	5467.49
441.75	5729.63
441.94	5748.36
442.12	5860.70
442.31	5748.36
442.50	5790.49
442.68	5898.15
442.87	5696.86
443.05	5966.03
443.24	5991.77
443.43	5942.62
443.61	5935.60
443.80	6155.61
443.98	5767.08
444.17	5774.10
444.35	5937.94
444.54	6136.88
444.73	6146.25
444.91	5909.85
445.10	6155.61
445.28	6221.14
445.47	5973.05
445.65	5879.43
445.84	6036.24
446.02	6115.82
446.21	6146.25
446.39	5984.75
446.58	6197.74
446.77	6204.76
446.95	5956.66
447.14	6136.88
447.32	6242.21
447.51	6146.25
447.69	6078.37
447.88	6286.68
448.06	6160.29
448.25	6127.52
448.43	6258.59
448.62	6305.40
448.80	6258.59
448.99	6153.27
449.17	6188.38
449.36	6200.08
449.54	6356.90
449.73	6553.50
449.91	6354.55
450.10	6511.37
450.28	6600.31
450.46	6729.04
450.65	6691.59
450.83	6686.91
451.02	6513.71
451.20	6806.28
451.39	6558.18
451.57	6612.01
451.76	6740.74
451.94	6766.49
452.13	6649.46
452.31	6637.76
452.49	6672.87
452.68	6754.79
452.86	6771.17
453.05	6656.48
453.23	6937.35
453.42	6785.21
453.60	6782.87
453.78	7068.42
453.97	6881.18
454.15	6878.83
454.34	6759.47
454.52	6815.64
454.70	6984.16
454.89	7131.61
455.07	6970.12
455.26	6944.37
455.44	7220.55
455.62	7028.63
455.81	7140.97
455.99	7353.96
456.17	7386.73
456.36	7140.97
456.54	7276.73
456.73	7339.92
456.91	7513.12
457.09	7620.78
457.28	7639.51
457.46	7396.09
457.64	7606.74
457.83	7646.53
458.01	7531.84
458.19	7723.77
458.38	7536.52
458.56	7714.41
458.74	7756.54
458.93	7749.51
459.11	7758.88
459.29	7782.28
459.48	7604.40
459.66	7683.98
459.84	7735.47
460.03	7941.44
460.21	7871.22
460.39	8063.15
460.57	8060.80
460.76	7789.30
460.94	7988.25
461.12	8011.65
461.31	8046.76
461.49	8016.33
461.67	7927.39
461.85	8236.35
462.04	8142.72
462.22	8638.92
462.40	8456.36
462.59	8353.37
462.77	8248.05
462.95	8154.43
463.13	8042.08
463.32	8362.73
463.50	8367.42
463.68	8322.94
463.86	8484.44
464.05	8191.88
464.23	8498.49
464.41	8470.40
464.59	8191.88
464.78	8423.59
464.96	8336.99
465.14	8341.67
465.32	8514.87
465.50	8571.04
465.69	8702.11
465.87	8699.77
466.05	8493.80
466.23	8393.16
466.41	8685.73
466.60	8793.39
466.78	8439.97
466.96	8634.24
467.14	8760.63
467.32	8638.92
467.51	8856.59
467.69	8601.47
467.87	8887.01
468.05	8870.63
468.23	8978.30
468.41	8856.59
468.60	8809.78
468.78	8915.10
468.96	8779.35
469.14	9158.52
469.32	9100.00
469.50	8762.97
469.69	9343.42
469.87	9114.05
470.05	9181.92
470.23	9280.22
470.41	9153.84
470.59	9282.56
470.77	9277.88
470.95	9387.89
471.14	9420.66
471.32	9434.70
471.50	9504.92
471.68	9535.34
471.86	9554.07
472.04	9841.95
472.22	10003.45
472.40	9437.04
472.58	9586.83
472.77	9736.63
472.95	9881.74
473.13	10118.14
473.31	9863.02
473.49	9881.74
473.67	9856.00
473.85	10090.05
474.03	10050.26
474.21	10319.42
474.39	10209.42
474.57	10286.65
474.75	10363.89
474.93	10310.06
475.12	10534.75
475.30	10333.47
475.48	10672.84
475.66	10658.80
475.84	10466.88
476.02	10637.73
476.20	10773.49
476.38	10904.56
476.56	11171.38
476.74	11026.26
476.92	11061.37
477.10	11035.63
477.28	11162.01
477.46	11215.85
477.64	11545.86
477.82	11375.00
478.00	11791.62
478.18	11836.09
478.36	11688.64
478.54	11786.94
478.72	11918.01
478.90	12044.40
479.08	12203.55
479.26	12358.03
479.44	12360.37
479.62	12285.47
479.80	12456.33
479.98	12376.75
480.16	13025.08
480.34	12706.77
480.52	13001.68
480.70	12741.88
480.88	12915.08
481.06	12903.37
481.24	13092.96
481.41	13263.82
481.59	13252.11
481.77	13460.42
481.95	13614.90
482.13	13628.94
482.31	13685.11
482.49	13802.14
482.67	14045.55
482.85	14022.15
483.03	14099.39
483.21	14345.14
483.39	14513.66
483.57	14370.89
483.74	14616.65
483.92	14745.38
484.10	14630.69
484.28	14712.61
484.46	14977.09
484.64	15211.14
484.82	15026.24
485.00	15164.33
485.18	15674.57
485.35	15438.17
485.53	15634.78
485.71	15253.27
485.89	15798.62
486.07	15349.23
486.25	15702.65
486.43	15889.90
486.61	16025.65
486.78	16287.79
486.96	16327.58
487.14	16776.96
487.32	16594.40
487.50	16807.39
487.68	17060.16
487.85	17270.81
488.03	17401.88
488.21	17310.60
488.39	17593.81
488.57	17694.45
488.75	17755.30
488.92	17919.14
489.10	17989.36
489.28	17958.93
489.46	18464.49
489.64	18450.44
489.81	19115.16
489.99	18750.03
490.17	19157.28
490.35	19171.33
490.53	19302.40
490.70	18995.79
490.88	19218.14
491.06	19508.37
491.24	19293.04
491.41	19482.62
491.59	19594.96
491.77	19875.83
491.95	19782.21
492.13	20428.20
492.30	20594.37
492.48	20320.53
492.66	20489.05
492.84	20549.90
493.01	20718.42
493.19	20809.70
493.37	21025.03
493.54	20842.47
493.72	20987.58
493.90	21427.60
494.08	21766.98
494.25	21844.22
494.43	21954.22
494.61	21893.37
494.79	21949.54
494.96	21921.46
495.14	22143.81
495.32	22295.94
495.49	22464.46
495.67	22157.85
495.85	22876.40
496.02	22733.62
496.20	23171.30
496.38	22764.05
496.55	23033.21
496.73	23585.58
496.91	23264.92
497.09	23576.22
497.26	23798.57
497.44	23662.82
497.62	23840.70
497.79	23878.15
497.97	23814.95
498.14	23985.81
498.32	24252.63
498.50	24402.43
498.67	24428.17
498.85	24542.86
499.03	24725.42
499.20	24643.50
499.38	25076.50
499.56	24741.80
499.73	25032.03
499.91	25266.08
500.08	25577.37
500.26	24854.15
500.44	25303.53
500.61	25083.52
500.79	25170.12
500.97	25418.22
501.14	25900.37
501.32	25872.28
501.49	25720.15
501.67	25605.46
501.84	25865.26
502.02	26206.98
502.20	26307.62
502.37	26644.66
502.55	26551.04
502.72	26632.96
502.90	26632.96
503.07	26806.16
503.25	26679.77
503.43	26436.35
503.60	27009.78
503.78	26951.27
503.95	26841.26
504.13	26768.71
504.30	26944.25
504.48	27171.28
504.65	27442.78
504.83	27386.61
505.01	27861.74
505.18	27391.29
505.36	28123.88
505.53	27938.97
505.71	28285.37
505.88	28039.62
506.06	28046.64
506.23	28128.56
506.41	27995.15
506.58	28196.43
506.76	28622.41
506.93	28397.72
507.11	28250.27
507.28	28575.60
507.46	28423.47
507.63	28718.37
507.81	29083.50
507.98	28914.98
508.16	28716.03
508.33	28931.36
508.50	29303.51
508.68	29064.77
508.85	29556.28
509.03	29380.74
509.20	29858.21
509.38	30045.46
509.55	29872.26
509.73	29961.20
509.90	29741.19
510.08	29694.38
510.25	30291.21
510.42	29916.73
510.60	30506.54
510.77	30663.36
510.95	30450.37
511.12	30471.43
511.30	30438.67
511.47	30937.20
511.64	30635.27
511.82	30787.41
511.99	30728.89
512.17	30616.55
512.34	30841.24
512.51	31487.23
512.69	31117.42
512.86	30918.48
513.04	31517.65
513.21	31512.97
513.38	31314.03
513.56	31421.69
513.73	31026.14
513.90	31683.83
514.08	31409.99
514.25	31810.22
514.43	31747.03
514.60	31587.87
514.77	31838.31
514.95	32414.08
515.12	32156.62
515.29	32252.58
515.47	32442.17
515.64	32505.36
515.81	32067.68
515.99	32318.12
516.16	32371.95
516.33	32357.91
516.51	32378.97
516.68	32615.37
516.85	32100.45
517.03	32526.42
517.20	32161.30
517.37	32624.73
517.54	33289.44
517.72	33057.73
517.89	32589.62
518.06	33074.11
518.24	32400.04
518.41	33193.48
518.58	33172.41
518.75	32966.45
518.93	33425.19
519.10	33804.36
519.27	33640.52
519.45	33364.34
519.62	33811.38
519.79	33841.81
519.96	34007.98
520.14	34384.81
520.31	33787.97
520.48	34546.31
520.65	34059.48
520.83	34223.31
521.00	34923.13
521.17	34167.14
521.34	34562.69
521.52	34440.98
521.69	34705.46
521.86	34609.50
522.03	35126.76
522.20	34958.24
522.38	35129.10
522.55	34712.49
522.72	35021.44
522.89	34967.60
523.07	35178.25
523.24	34527.58
523.41	35264.85
523.58	35232.08
523.75	35929.56
523.92	35559.76
524.10	35524.65
524.27	36039.57
524.44	36034.89
524.61	35868.71
524.78	36025.53
524.96	35803.17
525.13	36376.61
525.30	36402.35
525.47	36467.89
525.64	35981.06
525.81	36292.35
525.98	36091.06
526.16	36109.78
526.33	36175.32
526.50	36615.34
526.67	36196.38
526.84	36320.43
527.01	36280.64
527.18	36308.73
527.36	36774.50
527.53	36746.41
527.70	36959.40
527.87	36996.85
528.04	36858.76
528.21	36992.17
528.38	36552.15
528.55	37371.33
528.72	37581.98
528.89	37549.21
529.07	37099.83
529.24	37415.80
529.41	37041.32
529.58	37113.87
529.75	37546.87
529.92	37256.65
530.09	37368.99
530.26	37179.41
530.43	37851.14
530.60	37530.49
530.77	37528.15
530.94	37680.28
531.11	37830.08
531.28	38068.81
531.46	37991.58
531.63	38309.89
531.80	38141.37
531.97	37862.85
532.14	37872.21
532.31	37977.53
532.48	37715.39
532.65	38256.06
532.82	38204.56
532.99	38726.50
533.16	38483.09
533.33	38183.50
533.50	38485.43
533.67	38637.56
533.84	38366.06
534.01	38396.49
534.18	39042.48
534.35	39337.38
534.52	38525.22
534.69	38768.63
534.86	39206.31
535.03	38782.68
535.20	38962.90
535.37	39342.06
535.54	39339.72
535.71	39049.50
535.88	38859.91
536.05	39409.94
536.22	39100.99
536.38	39206.31
536.55	39129.08
536.72	39583.14
536.89	39299.94
537.06	39388.88
537.23	39622.93
537.40	39480.16
537.57	39447.39
537.74	39302.28
537.91	40203.38
538.08	39796.13
538.25	39742.30
538.42	39931.88
538.59	39592.50
538.75	40144.87
538.92	39952.94
539.09	39878.05
539.26	39906.13
539.43	39709.53
539.60	39817.19
539.77	39922.52
539.94	40098.06
540.11	40044.23
540.28	40067.63
540.44	39634.63
540.61	39887.41
540.78	40292.32
540.95	40208.06
541.12	40048.91
541.29	40367.22
541.46	40374.24
541.62	40100.40
541.79	40692.55
541.96	40226.79
542.13	40432.75
542.30	40718.30
542.47	40872.78
542.63	40950.01
542.80	40809.58
542.97	41329.18
543.14	41617.07
543.31	41139.60
543.48	41624.09
543.64	41801.97
543.81	41682.60
543.98	41495.36
544.15	41139.60
544.32	41490.68
544.48	42351.99
544.65	41010.87
544.82	41675.58
544.99	40996.82
545.16	41645.15
545.32	41680.26
545.49	41675.58
545.66	41736.43
545.83	41642.81
546.00	42066.45
546.16	41706.01
546.33	41706.01
546.50	41539.83
546.67	41984.53
546.83	41153.64
547.00	41993.89
547.17	42043.04
547.34	41734.09
547.50	41848.78
547.67	42155.39
547.84	42239.65
548.00	42017.30
548.17	42171.77
548.34	42586.05
548.51	42560.30
548.67	42625.84
548.84	42700.73
549.01	42555.62
549.18	42363.70
549.34	42197.52
549.51	42611.79
549.68	42595.41
549.84	42763.93
550.01	42941.81
550.18	42450.30
550.34	42953.51
550.51	42485.40
550.68	42679.67
550.84	42204.54
551.01	43229.69
551.18	42412.85
551.34	42607.11
551.51	42941.81
551.68	42572.00
551.84	42946.49
552.01	42841.17
552.18	42820.10
552.34	42925.42
552.51	43423.96
552.68	43040.11
552.84	43250.76
553.01	43430.98
553.18	43225.01
553.34	42644.56
553.51	42962.87
553.67	43049.47
553.84	43739.93
554.01	43529.28
554.17	43587.80
554.34	43468.43
554.51	43709.50
554.67	43529.28
554.84	43667.37
555.00	43159.48
555.17	43592.48
555.33	43793.76
555.50	43728.23
555.67	43583.12
555.83	43461.41
556.00	43440.34
556.16	44353.15
556.33	43543.33
556.50	43601.84
556.66	43866.32
556.83	43562.05
556.99	44027.82
557.16	43772.70
557.32	44102.71
557.49	43871.00
557.65	43770.36
557.82	43871.00
557.98	43768.02
558.15	43817.17
558.32	43791.42
558.48	43852.28
558.65	43704.82
558.81	43805.47
558.98	44208.04
559.14	44041.86
559.31	43590.14
559.47	43775.04
559.64	44446.77
559.80	44093.35
559.97	44208.04
560.13	43798.44
560.30	44121.44
560.46	44151.87
560.63	44126.12
560.79	44547.42
560.96	44449.11
561.12	44041.86
561.29	44151.87
561.45	44430.39
561.61	44311.02
561.78	44226.76
561.94	43798.44
562.11	43955.26
562.27	44093.35
562.44	44435.07
562.60	44619.97
562.77	44034.84
562.93	44767.43
563.10	44685.51
563.26	44610.61
563.42	44629.34
563.59	44170.59
563.75	44285.28
563.92	44788.49
564.08	44584.86
564.24	44722.96
564.41	44751.04
564.57	44591.89
564.74	44629.34
564.90	44744.02
565.07	44760.40
565.23	44603.59
565.39	44641.04
565.56	44416.35
565.72	44781.47
565.88	44657.42
566.05	44460.82
566.21	44390.60
566.38	43859.30
566.54	44655.08
566.70	44847.00
566.87	45036.59
567.03	44896.16
567.19	45031.91
567.36	44540.39
567.52	44561.46
567.68	45137.23
567.85	44790.83
568.01	44765.09
568.17	44818.92
568.34	45052.97
568.50	45272.98
568.66	44561.46
568.83	45118.51
568.99	44446.77
569.15	44701.89
569.32	44952.33
569.48	44617.63
569.64	45179.36
569.81	45284.68
569.97	44786.15
570.13	45071.70
570.30	44879.77
570.46	44612.95
570.62	44772.11
570.78	44311.02
570.95	44678.49
571.11	45088.08
571.27	45055.31
571.43	45027.23
571.60	44886.79
571.76	44886.79
571.92	44807.22
572.09	44669.12
572.25	44580.18
572.41	45146.59
572.57	44722.96
572.74	45799.60
572.90	45074.04
573.06	44980.42
573.22	45216.81
573.38	44774.45
573.55	44877.43
573.71	45322.13
573.87	45280.00
574.03	44648.06
574.20	45074.04
574.36	44825.94
574.52	44851.69
574.68	45069.36
574.84	45265.96
575.01	45305.75
575.17	45092.76
575.33	45184.04
575.49	44884.45
575.65	45345.54
575.82	45446.18
575.98	44957.01
576.14	45331.50
576.30	45448.52
576.46	45022.54
576.62	45158.30
576.79	44931.26
576.95	45177.02
577.11	44949.99
577.27	45111.49
577.43	45371.28
577.59	45170.00
577.75	45141.91
577.92	45139.57
578.08	44961.69
578.24	44872.75
578.40	44914.88
578.56	44933.60
578.72	44882.11
578.88	45446.18
579.04	45137.23
579.21	45366.60
579.37	45312.77
579.53	44973.39
579.69	44624.65
579.85	45167.66
580.01	45242.56
580.17	45287.03
580.33	45144.25
580.49	45359.58
580.65	45603.00
580.82	45471.93
580.98	45635.77
581.14	45263.62
581.30	45570.23
581.46	44842.32
581.62	45050.63
581.78	45177.02
581.94	45755.13
582.10	45214.47
582.26	45680.24
582.42	45528.10
582.58	45600.66
582.74	45038.93
582.90	45184.04
583.06	45317.45
583.22	45354.90
583.38	45621.72
583.54	44907.86
583.70	44971.05
583.86	45380.65
584.02	45050.63
584.18	45284.68
584.34	45567.89
584.50	45130.21
584.66	45268.30
584.82	45207.45
584.98	45492.99
585.14	45521.08
585.30	45364.26
585.46	45507.04
585.62	44797.85
585.78	45612.36
585.94	44868.07
586.10	45139.57
586.26	45106.80
586.42	45502.35
586.58	45251.92
586.74	45483.63
586.90	45062.33
587.06	45034.25
587.22	45551.51
587.38	45181.70
587.54	45415.76
587.70	45687.26
587.86	45429.80
588.02	45380.65
588.18	45324.47
588.34	45261.28
588.49	45298.73
588.65	44790.83
588.81	44975.73
588.97	44758.06
589.13	45366.60
589.29	45249.58
589.45	45289.37
589.61	45507.04
589.77	45577.25
589.93	45263.62
590.08	45537.46
590.24	45684.92
