SpectraSuite Data File
++++++++++++++++++++++++++++++++++++
Date: Fri Oct 25 11:25:22 EDT 2013
User: price-jones
Dark Spectrum Present: No
Reference Spectrum Present: No
Number of Sampled Component Spectra: 1
Spectrometers: USB2+H05261
Integration Time (usec): 100000 (USB2+H05261)
Spectra Averaged: 1 (USB2+H05261)
Boxcar Smoothing: 0 (USB2+H05261)
Correct for Electrical Dark: No (USB2+H05261)
Strobe/Lamp Enabled: No (USB2+H05261)
Correct for Detector Non-linearity: No (USB2+H05261)
Correct for Stray Light: No (USB2+H05261)
Number of Pixels in Processed Spectrum: 2048
>>>>>Begin Processed Spectral Data<<<<<
365.73	215.33
365.92	215.33
366.12	215.33
366.32	215.33
366.52	119.37
366.72	161.50
366.91	114.69
367.11	60.85
367.31	119.37
367.51	149.79
367.70	138.09
367.90	173.20
368.10	159.16
368.30	135.75
368.49	98.30
368.69	166.18
368.89	145.11
369.09	187.24
369.28	119.37
369.48	147.45
369.68	191.92
369.87	156.82
370.07	245.76
370.27	196.60
370.47	360.44
370.66	592.16
370.86	615.56
371.06	699.82
371.25	622.58
371.45	575.77
371.65	748.97
371.84	662.37
372.04	653.01
372.24	760.67
372.44	732.59
372.63	788.76
372.83	753.65
373.03	821.53
373.22	744.29
373.42	819.19
373.62	748.97
373.81	767.70
374.01	774.72
374.21	795.78
374.40	830.89
374.60	809.83
374.79	844.93
374.99	889.40
375.19	833.23
375.38	739.61
375.58	786.42
375.78	847.27
375.97	858.98
376.17	847.27
376.37	767.70
376.56	905.79
376.76	896.43
376.95	856.64
377.15	887.06
377.35	898.77
377.54	926.85
377.74	922.17
377.93	889.40
378.13	971.32
378.33	943.24
378.52	1008.77
378.72	924.51
378.91	985.37
379.11	903.45
379.31	858.98
379.50	976.00
379.70	997.07
379.89	1015.79
380.09	931.53
380.28	1006.43
380.48	894.08
380.68	983.02
380.87	959.62
381.07	959.62
381.26	976.00
381.46	894.08
381.65	940.90
381.85	1013.45
382.04	1004.09
382.24	1107.07
382.43	1008.77
382.63	1020.47
382.83	1015.79
383.02	1036.86
383.22	1086.01
383.41	1086.01
383.61	1069.62
383.80	1196.01
384.00	1064.94
384.19	1050.90
384.39	1090.69
384.58	1123.46
384.78	1163.25
384.97	1174.95
385.17	1249.85
385.36	1163.25
385.56	1261.55
385.75	1203.04
385.95	1135.16
386.14	1221.76
386.34	1170.27
386.53	1238.14
386.72	1146.86
386.92	1268.57
387.11	1165.59
387.31	1214.74
387.50	1259.21
387.70	1259.21
387.89	1177.29
388.09	1261.55
388.28	1310.70
388.48	1366.87
388.67	1313.04
388.86	1334.11
389.06	1380.92
389.25	1401.98
389.45	1322.40
389.64	1343.47
389.84	1308.36
390.03	1387.94
390.22	1427.73
390.42	1324.74
390.61	1397.30
390.81	1409.00
391.00	1409.00
391.19	1493.26
391.39	1423.05
391.58	1409.00
391.78	1404.32
391.97	1474.54
392.16	1486.24
392.36	1483.90
392.55	1535.39
392.75	1486.24
392.94	1490.92
393.13	1530.71
393.33	1551.78
393.52	1469.86
393.71	1540.07
393.91	1530.71
394.10	1572.84
394.29	1467.52
394.49	1537.73
394.68	1652.42
394.88	1621.99
395.07	1652.42
395.26	1650.08
395.46	1600.93
395.65	1743.70
395.84	1689.87
396.04	1762.42
396.23	1732.00
396.42	1802.21
396.62	1816.26
396.81	1746.04
397.00	1795.19
397.19	1811.57
397.39	1783.49
397.58	1830.30
397.77	1734.34
397.97	1982.43
398.16	1872.43
398.35	1884.13
398.55	1867.75
398.74	1919.24
398.93	1947.33
399.12	2036.27
399.32	1893.49
399.51	1785.83
399.70	1944.99
399.90	1987.11
400.09	2031.58
400.28	2036.27
400.47	1942.64
400.67	2024.56
400.86	2101.80
401.05	2090.10
401.24	2026.90
401.44	2111.16
401.63	2029.24
401.82	2101.80
402.01	2218.83
402.21	2162.66
402.40	2204.78
402.59	2169.68
402.78	2202.44
402.97	2202.44
403.17	2277.34
403.36	2214.15
403.55	2286.70
403.74	2314.79
403.93	2319.47
404.13	2260.96
404.32	2263.30
404.51	2298.41
404.70	2415.43
404.89	2483.31
405.09	2392.03
405.28	2462.24
405.47	2572.25
405.66	2462.24
405.85	2607.36
406.05	2506.71
406.24	2597.99
406.43	2562.89
406.62	2607.36
406.81	2607.36
407.00	2565.23
407.20	2565.23
407.39	2583.95
407.58	2635.44
407.77	2715.02
407.96	2850.77
408.15	2724.38
408.34	2675.23
408.54	2857.79
408.73	2733.75
408.92	2726.72
409.11	2796.94
409.30	2953.76
409.49	2902.26
409.68	2897.58
409.87	2855.45
410.07	2869.50
410.26	2935.03
410.45	2984.18
410.64	2930.35
410.83	3166.74
411.02	3061.42
411.21	3150.36
411.40	3115.25
411.59	3243.98
411.78	3007.59
411.98	3190.15
412.17	3236.96
412.36	3155.04
412.55	3379.73
412.74	3267.39
412.93	3363.35
413.12	3286.11
413.31	3524.85
413.50	3410.16
413.69	3574.00
413.88	3672.30
414.07	3564.64
414.26	3620.81
414.45	3651.24
414.64	3508.46
414.83	3740.18
415.02	3709.75
415.22	3857.20
415.41	3887.63
415.60	3911.04
415.79	3864.22
415.98	3913.38
416.17	4039.76
416.36	4028.06
416.55	3946.14
416.74	3925.08
416.93	4025.72
417.12	4053.81
417.31	4238.71
417.50	4203.60
417.69	4117.00
417.88	4257.43
418.07	4114.66
418.26	4372.12
418.45	4337.01
418.64	4344.03
418.83	4283.18
419.02	4360.42
419.21	4500.85
419.39	4379.14
419.58	4353.40
419.77	4409.57
419.96	4629.58
420.15	4540.64
420.34	4528.94
420.53	4624.90
420.72	4751.29
420.91	4725.54
421.10	4730.22
421.29	4840.23
421.48	4589.79
421.67	4856.61
421.86	4739.58
422.05	4905.76
422.24	4725.54
422.43	4840.23
422.61	4798.10
422.80	4856.61
422.99	5064.92
423.18	4947.89
423.37	5029.81
423.56	4929.17
423.75	4894.06
423.94	4924.49
424.13	4606.17
424.32	4737.24
424.50	4933.85
424.69	5046.20
424.88	4980.66
425.07	4919.81
425.26	4912.78
425.45	5004.07
425.64	4966.62
425.83	5022.79
426.01	5013.43
426.20	5107.05
426.39	5107.05
426.58	5046.20
426.77	5057.90
426.96	4964.28
427.15	4983.00
427.33	5144.50
427.52	5170.24
427.71	5298.97
427.90	5249.82
428.09	5350.46
428.28	5373.87
428.46	5355.15
428.65	5392.59
428.84	5533.03
429.03	5490.90
429.22	5387.91
429.40	5341.10
429.59	5439.40
429.78	5212.37
429.97	5371.53
430.16	5453.45
430.34	5689.84
430.53	5694.52
430.72	5722.61
430.91	5575.16
431.10	5619.63
431.28	5682.82
431.47	5657.07
431.66	5820.91
431.85	5640.69
432.03	5916.87
432.22	5888.79
432.41	5783.46
432.60	5930.92
432.79	5738.99
432.97	5942.62
433.16	5966.03
433.35	5975.39
433.54	6099.44
433.72	6136.88
433.91	6279.66
434.10	6045.60
434.28	6050.28
434.47	6171.99
434.66	6106.46
434.85	6167.31
435.03	6228.17
435.22	6171.99
435.41	6567.54
435.59	6509.03
435.78	6258.59
435.97	6368.60
436.16	6403.71
436.34	6403.71
436.53	6513.71
436.72	6572.22
436.90	6335.83
437.09	6546.48
437.28	6436.47
437.46	6572.22
437.65	6642.44
437.84	6600.31
438.02	6686.91
438.21	6541.80
438.40	6623.72
438.58	6967.77
438.77	6988.84
438.96	6743.08
439.14	7082.46
439.33	6972.46
439.52	7171.40
439.70	7019.27
439.89	7323.54
440.08	7307.15
440.26	7478.01
440.45	7342.26
440.63	7323.54
440.82	7569.29
441.01	7566.95
441.19	7557.59
441.38	7599.72
441.57	7728.45
441.75	7728.45
441.94	7880.58
442.12	7918.03
442.31	7843.14
442.50	7953.14
442.68	7939.10
442.87	8009.31
443.05	8006.97
443.24	8121.66
443.43	8021.02
443.61	8063.15
443.80	8215.28
443.98	7941.44
444.17	7885.26
444.35	8126.34
444.54	8339.33
444.73	8149.75
444.91	8173.15
445.10	8198.90
445.28	8496.14
445.47	8177.83
445.65	8166.13
445.84	8528.91
446.02	8329.97
446.21	8372.10
446.39	8327.63
446.58	8329.97
446.77	8299.54
446.95	8028.04
447.14	8430.61
447.32	8498.49
447.51	8552.32
447.69	8313.58
447.88	8493.80
448.06	8652.96
448.25	8395.50
448.43	8278.47
448.62	8657.64
448.80	8393.16
448.99	8650.62
449.17	8566.36
449.36	8592.11
449.54	8901.06
449.73	8950.21
449.91	9167.88
450.10	9076.60
450.28	9137.45
450.46	9011.06
450.65	9097.66
450.83	9043.83
451.02	9013.40
451.20	9174.90
451.39	9090.64
451.57	9041.49
451.76	9004.04
451.94	9032.13
452.13	9025.11
452.31	9041.49
452.49	9277.88
452.68	9228.73
452.86	9324.69
453.05	9455.76
453.23	9476.83
453.42	9320.01
453.60	9427.68
453.78	9341.08
453.97	9331.72
454.15	9383.21
454.34	9385.55
454.52	9638.33
454.70	9736.63
454.89	9745.99
455.07	9703.86
455.26	9689.82
455.44	9956.64
455.62	10085.37
455.81	9841.95
455.99	9844.29
456.17	9916.85
456.36	10050.26
456.54	10022.17
456.73	10232.82
456.91	10494.96
457.09	10401.34
457.28	10345.17
457.46	9984.73
457.64	10576.88
457.83	10504.32
458.01	10373.25
458.19	10696.25
458.38	10403.68
458.56	10513.69
458.74	10672.84
458.93	10576.88
459.11	10750.08
459.29	10487.94
459.48	10588.58
459.66	10724.33
459.84	10843.70
460.03	11000.52
460.21	11068.39
460.39	11000.52
460.57	10988.82
460.76	11033.29
460.94	10991.16
461.12	11063.71
461.31	11049.67
461.49	11339.90
461.67	10993.50
461.85	11424.15
462.04	11211.17
462.22	11887.58
462.40	11595.01
462.59	11379.68
462.77	11426.50
462.95	11449.90
463.13	11290.74
463.32	11386.71
463.50	11702.68
463.68	11789.28
463.86	11665.23
464.05	11651.19
464.23	11838.43
464.41	11819.71
464.59	11826.73
464.78	12023.33
464.96	11962.48
465.14	11630.12
465.32	12023.33
465.50	12149.72
465.69	12255.04
465.87	12252.70
466.05	12138.02
466.23	12072.48
466.41	12105.25
466.60	12404.84
466.78	11927.37
466.96	12067.80
467.14	12159.08
467.32	12208.23
467.51	12645.91
467.69	12273.77
467.87	12528.89
468.05	12437.61
468.23	12219.94
468.41	12362.71
468.60	12627.19
468.78	12919.76
468.96	12587.40
469.14	12868.27
469.32	12854.22
469.50	12341.64
469.69	12798.05
469.87	12791.03
470.05	13097.64
470.23	12929.12
470.41	13158.49
470.59	13242.75
470.77	13160.83
470.95	13179.56
471.14	13537.66
471.32	13132.75
471.50	13579.79
471.68	13268.50
471.86	13401.91
472.04	13570.43
472.22	13851.29
472.40	13558.72
472.58	13802.14
472.77	14054.92
472.95	14185.99
473.13	14506.64
473.31	14029.17
473.49	14045.55
473.67	14104.07
473.85	14246.84
474.03	14511.32
474.21	14508.98
474.39	14707.93
474.57	14483.24
474.75	14752.40
474.93	14719.63
475.12	14651.75
475.30	14958.36
475.48	14778.14
475.66	15150.29
475.84	15178.37
476.02	15382.00
476.20	15342.21
476.38	15281.36
476.56	15770.53
476.74	15990.54
476.92	15737.76
477.10	15807.98
477.28	16159.06
477.46	15740.10
477.64	16334.60
477.82	16489.07
478.00	16945.48
478.18	16573.33
478.36	16622.48
478.54	16947.82
478.72	17301.24
478.90	17207.62
479.08	17376.14
479.26	17706.15
479.44	17563.38
479.62	17713.17
479.80	17926.16
479.98	18338.10
480.16	18422.36
480.34	17909.78
480.52	18651.73
480.70	18541.72
480.88	18352.14
481.06	18494.91
481.24	18530.02
481.41	18899.83
481.59	19309.42
481.77	19316.44
481.95	19573.90
482.13	19358.57
482.31	19522.41
482.49	20128.61
482.67	19807.95
482.85	20280.74
483.03	20299.47
483.21	20463.30
483.39	20746.51
483.57	20435.22
483.74	20973.54
483.92	21277.81
484.10	21219.30
484.28	21493.14
484.46	21537.61
484.64	22174.24
484.82	21652.30
485.00	22513.61
485.18	22504.25
485.35	22953.63
485.53	22883.42
485.71	23049.60
485.89	23332.80
486.07	23204.07
486.25	23051.94
486.43	23517.70
486.61	23697.92
486.78	24170.71
486.96	23871.12
487.14	24758.19
487.32	24379.02
487.50	24655.20
487.68	24758.19
487.85	25369.07
488.03	25109.27
488.21	25914.41
488.39	25621.84
488.57	25823.13
488.75	26136.76
488.92	26588.49
489.10	26551.04
489.28	26579.12
489.46	26881.05
489.64	27192.34
489.81	27702.58
489.99	27351.50
490.17	27484.91
490.35	27606.62
490.53	28006.85
490.70	28086.43
490.88	28177.71
491.06	28758.16
491.24	28404.74
491.41	29003.92
491.59	29256.70
491.77	29502.45
491.95	29427.56
492.13	29443.94
492.30	29621.82
492.48	30115.67
492.66	30235.04
492.84	30059.50
493.01	30806.13
493.19	30382.49
493.37	30462.07
493.54	30604.84
493.72	31344.45
493.90	31005.08
494.08	31674.47
494.25	31538.72
494.43	31840.65
494.61	32067.68
494.79	32341.52
494.96	32219.81
495.14	32409.40
495.32	32648.13
495.49	33017.94
495.67	32746.44
495.85	33046.02
496.02	33659.24
496.20	33673.29
496.38	34272.46
496.55	33776.27
496.73	34857.60
496.91	34232.68
497.09	34012.66
497.26	34330.98
497.44	35030.80
497.62	35189.95
497.79	35473.16
497.97	35442.73
498.14	35398.26
498.32	35747.00
498.50	35962.33
498.67	36491.29
498.85	36252.56
499.03	36505.34
499.20	36854.08
499.38	36484.27
499.56	36589.59
499.73	36811.95
499.91	36882.16
500.08	37427.51
500.26	36966.42
500.44	37090.47
500.61	37755.18
500.79	37462.61
500.97	37577.30
501.14	38508.83
501.32	38204.56
501.49	38089.88
501.67	38473.73
501.84	38761.61
502.02	38747.57
502.20	38890.34
502.37	38763.95
502.55	39299.94
502.72	39136.10
502.90	39367.81
503.07	39416.96
503.25	39519.95
503.43	39498.88
503.60	39810.17
503.78	40432.75
503.95	39590.16
504.13	40432.75
504.30	40348.50
504.48	40460.84
504.65	40692.55
504.83	40994.48
505.01	41003.85
505.18	40898.52
505.36	41418.12
505.53	41134.92
505.71	41244.92
505.88	41722.39
506.06	41081.08
506.23	41729.41
506.41	41902.61
506.58	41331.52
506.76	42007.94
506.93	42157.73
507.11	42117.94
507.28	42525.19
507.46	42639.88
507.63	42527.53
507.81	42740.52
507.98	42550.94
508.16	42885.64
508.33	43274.16
508.50	42925.42
508.68	43707.16
508.85	43456.73
509.03	43639.29
509.20	44016.11
509.38	44212.72
509.55	43934.20
509.73	44044.20
509.90	44362.51
510.08	44179.95
510.25	44680.83
510.42	44182.29
510.60	44704.23
510.77	45226.17
510.95	45008.50
511.12	44999.14
511.30	44968.71
511.47	44982.76
511.64	45057.65
511.82	45546.82
511.99	45354.90
512.17	45834.71
512.34	45226.17
512.51	45691.94
512.69	46307.50
512.86	46181.11
513.04	46454.95
513.21	46473.68
513.38	46440.91
513.56	46670.28
513.73	46756.88
513.90	46784.97
514.08	46483.04
514.25	47000.30
514.43	47250.74
514.60	46960.51
514.77	47061.15
514.95	47367.76
515.12	47232.01
515.29	47105.62
515.47	47613.52
515.64	47896.72
515.81	47615.86
515.99	48074.60
516.16	48163.54
516.33	48268.87
516.51	48531.01
516.68	48381.21
516.85	48002.05
517.03	48624.63
517.20	48772.08
517.37	48254.82
517.54	48582.50
517.72	48484.20
517.89	48797.83
518.06	48727.61
518.24	49062.31
518.41	49045.93
518.58	49284.66
518.75	49130.19
518.93	49422.75
519.10	49200.40
519.27	49471.90
519.45	49406.37
519.62	49717.66
519.79	49834.69
519.96	49687.23
520.14	49834.69
520.31	49947.03
520.48	50010.23
520.65	50365.99
520.83	50412.80
521.00	50300.45
521.17	49914.26
521.34	50586.00
521.52	50850.48
521.69	50518.12
521.86	50775.58
522.03	50813.03
522.20	50979.21
522.38	51374.76
522.55	51274.12
522.72	50979.21
522.89	51302.20
523.07	51536.26
523.24	51250.71
523.41	51515.19
523.58	51100.92
523.75	51753.93
523.92	51606.47
524.10	51997.34
524.27	52027.77
524.44	51615.83
524.61	51997.34
524.78	52025.43
524.96	51920.10
525.13	52116.71
525.30	52020.75
525.47	51849.89
525.64	51945.85
525.81	52369.49
525.98	52495.88
526.16	52343.74
526.33	52481.83
526.50	52598.86
526.67	52409.28
526.84	52758.02
527.01	52303.95
527.18	52772.06
527.36	52746.31
527.53	52746.31
527.70	53380.60
527.87	53294.00
528.04	53062.29
528.21	53331.45
528.38	53270.59
528.55	53687.21
528.72	52865.68
528.89	53010.79
529.07	53162.93
529.24	53366.55
529.41	53471.88
529.58	53539.75
529.75	53776.15
529.92	53600.61
530.09	53378.26
530.26	53769.13
530.43	54089.78
530.60	53558.48
530.77	53654.44
530.94	53792.53
531.11	53666.14
531.28	53787.85
531.46	54115.53
531.63	53954.03
531.80	54054.67
531.97	54300.43
532.14	54267.66
532.31	54298.09
532.48	54220.85
532.65	54578.95
532.82	54340.22
532.99	54548.53
533.16	54513.42
533.33	54925.35
533.50	54426.82
533.67	54670.23
533.84	54445.54
534.01	54569.59
534.18	54726.41
534.35	54927.69
534.52	55114.94
534.69	54958.12
534.86	55136.00
535.03	54796.62
535.20	54937.05
535.37	55131.32
535.54	55051.74
535.71	55168.77
535.88	55337.29
536.05	55260.05
536.22	55475.38
536.38	55716.45
536.55	55615.81
536.72	55217.92
536.89	55250.69
537.06	55583.04
537.23	55648.58
537.40	55451.97
537.57	55496.44
537.74	55519.85
537.91	55781.99
538.08	55648.58
538.25	55711.77
538.42	55648.58
538.59	55856.88
538.75	55821.78
538.92	55884.97
539.09	56179.88
539.26	55796.03
539.43	55980.93
539.60	56198.60
539.77	56170.52
539.94	56196.26
540.11	56212.65
540.28	56285.20
540.44	56280.52
540.61	56165.84
540.78	56266.48
540.95	56205.62
541.12	56217.33
541.29	56095.62
541.46	56285.20
541.62	56652.67
541.79	56427.98
541.96	56205.62
542.13	56554.36
542.30	56481.81
542.47	56741.61
542.63	56980.34
542.80	56652.67
542.97	56875.02
543.14	57169.93
543.31	56765.01
543.48	57038.86
543.64	57151.20
543.81	57233.12
543.98	57216.74
544.15	56849.27
544.32	57284.61
544.48	57446.11
544.65	57130.14
544.82	57347.81
544.99	57181.63
545.16	57394.62
545.32	57235.46
545.49	57420.36
545.66	57436.75
545.83	57448.45
546.00	57600.58
546.16	57521.01
546.33	57549.09
546.50	57499.94
546.67	57680.16
546.83	57195.67
547.00	57710.59
547.17	57542.07
547.34	57551.43
547.50	57785.49
547.67	57844.00
547.84	57963.37
548.00	57752.72
548.17	57986.77
548.34	57846.34
548.51	58019.54
548.67	57996.13
548.84	57780.81
549.01	57946.98
549.18	57956.35
549.34	57961.03
549.51	58312.11
549.68	58344.87
549.84	58122.52
550.01	58014.86
550.18	58152.95
550.34	58218.49
550.51	58323.81
550.68	58178.70
550.84	58162.31
551.01	58583.61
551.18	58354.24
551.34	58328.49
551.51	58457.22
551.68	58321.47
551.84	58321.47
552.01	58298.06
552.18	58773.19
552.34	58288.70
552.51	58401.05
552.68	58298.06
552.84	58419.77
553.01	58997.88
553.18	58735.74
553.34	58845.75
553.51	58679.57
553.67	58649.14
553.84	58850.43
554.01	58796.60
554.17	58965.12
554.34	58775.53
554.51	58871.49
554.67	59100.87
554.84	58913.62
555.00	58852.77
555.17	58937.03
555.33	58777.87
555.50	58759.15
555.67	58948.73
555.83	59119.59
556.00	59018.95
556.16	59213.21
556.33	59180.45
556.50	59054.06
556.66	59227.26
556.83	58990.86
556.99	59400.46
557.16	59421.52
557.32	59334.92
557.49	59655.57
557.65	59107.89
557.82	59339.60
557.98	59337.26
558.15	59189.81
558.32	59355.99
558.48	59398.12
558.65	59138.32
558.81	59278.75
558.98	59590.04
559.14	59435.56
559.31	59599.40
559.47	59601.74
559.64	59477.69
559.80	59426.20
559.97	59744.51
560.13	59611.10
560.30	59470.67
560.46	59620.47
560.63	59578.34
560.79	59770.26
560.96	59688.34
561.12	59796.01
561.29	59859.20
561.45	59721.11
561.61	59611.10
561.78	59655.57
561.94	59704.73
562.11	59587.70
562.27	59817.07
562.44	59931.76
562.60	59910.69
562.77	59697.70
562.93	59964.52
563.10	59969.21
563.26	59674.30
563.42	59826.43
563.59	59943.46
563.75	59863.88
563.92	59845.16
564.08	59847.50
564.24	59873.24
564.41	59955.16
564.57	60088.57
564.74	59854.52
564.90	59966.87
565.07	60009.00
565.23	60119.00
565.39	59826.43
565.56	60163.47
565.72	59966.87
565.88	60165.81
566.05	59969.21
566.21	60303.90
566.38	60079.21
566.54	60191.56
566.70	60257.09
566.87	60259.43
567.03	60179.85
567.19	60224.32
567.36	60196.24
567.52	60147.09
567.68	60268.79
567.85	60172.83
568.01	60252.41
568.17	60001.97
568.34	60313.26
568.50	60280.50
568.66	60184.54
568.83	60088.57
568.99	60088.57
569.15	60229.01
569.32	60203.26
569.48	60177.51
569.64	60528.59
569.81	60350.71
569.97	60013.68
570.13	60247.73
570.30	60205.60
570.46	60458.38
570.62	60343.69
570.78	60392.84
570.95	60252.41
571.11	60502.85
571.27	60507.53
571.43	60456.04
571.60	60544.98
571.76	60463.06
571.92	60339.01
572.09	60257.09
572.25	60544.98
572.41	60341.35
572.57	60458.38
572.74	60603.49
572.90	60306.24
573.06	60434.97
573.22	60413.91
573.38	60589.45
573.55	60519.23
573.71	60725.20
573.87	60537.96
574.03	60425.61
574.20	60591.79
574.36	60420.93
574.52	60547.32
574.68	60680.73
574.84	60790.73
575.01	60638.60
575.17	60528.59
575.33	60577.75
575.49	60470.08
575.65	60666.69
575.82	60748.60
575.98	60507.53
576.14	60680.73
576.30	60577.75
576.46	60701.79
576.62	60629.24
576.79	60697.11
576.95	60650.30
577.11	60573.06
577.27	60774.35
577.43	60666.69
577.59	60533.28
577.75	60657.32
577.92	60706.47
578.08	60409.23
578.24	60680.73
578.40	60893.72
578.56	60800.10
578.72	60788.39
578.88	60903.08
579.04	60814.14
579.21	60573.06
579.37	60821.16
579.53	60891.38
579.69	60409.23
579.85	60626.90
580.01	60460.72
580.17	60725.20
580.33	60746.26
580.49	60839.89
580.65	60825.84
580.82	60741.58
580.98	60596.47
581.14	60554.34
581.30	60828.18
581.46	60654.98
581.62	60692.43
581.78	60734.56
581.94	60886.70
582.10	60781.37
582.26	60837.54
582.42	60774.35
582.58	60774.35
582.74	60910.10
582.90	60757.97
583.06	60903.08
583.22	60594.13
583.38	60624.56
583.54	60774.35
583.70	60823.50
583.86	60900.74
584.02	60757.97
584.18	60870.31
584.34	60828.18
584.50	60889.04
584.66	60610.51
584.82	60706.47
584.98	61174.58
585.14	60900.74
585.30	60753.29
585.46	60858.61
585.62	60842.23
585.78	61055.21
585.94	60741.58
586.10	60793.07
586.26	60790.73
586.42	61073.94
586.58	61010.74
586.74	60865.63
586.90	60849.25
587.06	60772.01
587.22	60985.00
587.38	61006.06
587.54	60954.57
587.70	61109.05
587.86	60952.23
588.02	60851.59
588.18	61095.00
588.34	61048.19
588.49	60839.89
