SpectraSuite Data File
++++++++++++++++++++++++++++++++++++
Date: Fri Oct 25 10:44:42 EDT 2013
User: price-jones
Dark Spectrum Present: No
Reference Spectrum Present: No
Number of Sampled Component Spectra: 1
Spectrometers: USB2+H05261
Integration Time (usec): 100000 (USB2+H05261)
Spectra Averaged: 1 (USB2+H05261)
Boxcar Smoothing: 0 (USB2+H05261)
Correct for Electrical Dark: No (USB2+H05261)
Strobe/Lamp Enabled: No (USB2+H05261)
Correct for Detector Non-linearity: No (USB2+H05261)
Correct for Stray Light: No (USB2+H05261)
Number of Pixels in Processed Spectrum: 2048
>>>>>Begin Processed Spectral Data<<<<<
365.73	107.66
365.92	107.66
366.12	107.66
366.32	0.00
366.52	91.28
366.72	79.58
366.91	0.00
367.11	2.34
367.31	25.75
367.51	0.00
367.70	46.81
367.90	79.58
368.10	107.66
368.30	23.41
368.49	4.68
368.69	11.70
368.89	65.54
369.09	58.51
369.28	0.00
369.48	100.64
369.68	58.51
369.87	100.64
370.07	39.79
370.27	138.09
370.47	142.77
370.66	379.17
370.86	433.00
371.06	421.30
371.25	475.13
371.45	449.38
371.65	400.23
371.84	423.64
372.04	416.62
372.24	484.49
372.44	472.79
372.63	451.72
372.83	423.64
373.03	454.06
373.22	543.00
373.42	498.53
373.62	479.81
373.81	463.43
374.01	498.53
374.21	580.45
374.40	517.26
374.60	566.41
374.79	498.53
374.99	603.86
375.19	498.53
375.38	519.60
375.58	519.60
375.78	543.00
375.97	634.29
376.17	594.50
376.37	535.98
376.56	594.50
376.76	559.39
376.95	592.16
377.15	547.69
377.35	589.82
377.54	575.77
377.74	514.92
377.93	660.03
378.13	552.37
378.33	641.31
378.52	573.43
378.72	594.50
378.91	638.97
379.11	624.92
379.31	552.37
379.50	580.45
379.70	592.16
379.89	620.24
380.09	596.84
380.28	631.94
380.48	683.44
380.68	664.71
380.87	631.94
381.07	622.58
381.26	667.05
381.46	685.78
381.65	671.73
381.85	664.71
382.04	638.97
382.24	681.10
382.43	692.80
382.63	667.05
382.83	606.20
383.02	802.80
383.22	697.48
383.41	697.48
383.61	711.52
383.80	674.07
384.00	676.41
384.19	713.86
384.39	758.33
384.58	723.23
384.78	734.93
384.97	732.59
385.17	741.95
385.36	798.12
385.56	730.25
385.75	725.57
385.95	805.14
386.14	781.74
386.34	823.87
386.53	695.14
386.72	744.29
386.92	807.48
387.11	812.17
387.31	786.42
387.50	772.38
387.70	737.27
387.89	718.54
388.09	814.51
388.28	774.72
388.48	798.12
388.67	807.48
388.86	814.51
389.06	847.27
389.25	929.19
389.45	809.83
389.64	866.00
389.84	936.21
390.03	931.53
390.22	798.12
390.42	903.45
390.61	877.70
390.81	887.06
391.00	959.62
391.19	931.53
391.39	926.85
391.58	1041.54
391.78	976.00
391.97	891.74
392.16	919.83
392.36	908.13
392.55	1050.90
392.75	1013.45
392.94	924.51
393.13	945.58
393.33	978.34
393.52	1001.75
393.71	903.45
393.91	1020.47
394.10	968.98
394.29	1060.26
394.49	1053.24
394.68	938.55
394.88	1088.35
395.07	1067.28
395.26	1123.46
395.46	1029.84
395.65	1132.82
395.84	1036.86
396.04	1118.78
396.23	1109.41
396.42	1006.43
396.62	1081.33
396.81	1090.69
397.00	1083.67
397.19	1071.97
397.39	1203.04
397.58	1214.74
397.77	1287.29
397.97	1306.02
398.16	1196.01
398.35	1238.14
398.55	1268.57
398.74	1266.23
398.93	1439.43
399.12	1423.05
399.32	1313.04
399.51	1306.02
399.70	1373.89
399.90	1336.45
400.09	1439.43
400.28	1394.96
400.47	1451.13
400.67	1418.36
400.86	1446.45
401.05	1523.69
401.24	1366.87
401.44	1542.41
401.63	1448.79
401.82	1439.43
402.01	1453.47
402.21	1439.43
402.40	1516.67
402.59	1514.33
402.78	1500.28
402.97	1528.37
403.17	1633.69
403.36	1607.95
403.55	1584.54
403.74	1472.20
403.93	1584.54
404.13	1582.20
404.32	1605.61
404.51	1699.23
404.70	1626.67
404.89	1668.80
405.09	1682.85
405.28	1696.89
405.47	1799.87
405.66	1795.19
405.85	1724.97
406.05	1802.21
406.24	1795.19
406.43	1741.36
406.62	1799.87
406.81	1905.20
407.00	1750.72
407.20	1783.49
407.39	1785.83
407.58	1799.87
407.77	1895.83
407.96	1900.52
408.15	1942.64
408.34	1961.37
408.54	1937.96
408.73	1888.81
408.92	1998.82
409.11	1954.35
409.30	2062.01
409.49	1980.09
409.68	2052.65
409.87	2069.03
410.07	2043.29
410.26	2010.52
410.45	2153.29
410.64	2174.36
410.83	2246.91
411.02	2284.36
411.21	2340.54
411.40	2218.83
411.59	2345.22
411.78	2303.09
411.98	2242.23
412.17	2307.77
412.36	2286.70
412.55	2366.28
412.74	2480.97
412.93	2373.30
413.12	2368.62
413.31	2675.23
413.50	2502.03
413.69	2471.61
413.88	2588.63
414.07	2537.14
414.26	2651.83
414.45	2630.76
414.64	2691.62
414.83	2651.83
415.02	2752.47
415.22	2808.64
415.41	2778.22
415.60	2778.22
415.79	2869.50
415.98	2827.37
416.17	2750.13
416.36	2867.16
416.55	2895.24
416.74	2935.03
416.93	2794.60
417.12	2899.92
417.31	3054.40
417.50	3016.95
417.69	3028.65
417.88	3087.17
418.07	3112.91
418.26	3047.38
418.45	3126.96
418.64	3143.34
418.83	3236.96
419.02	3126.96
419.21	3124.62
419.39	3171.43
419.58	3169.09
419.77	3258.03
419.96	3190.15
420.15	3295.47
420.34	3218.24
420.53	3393.78
420.72	3426.54
420.91	3314.20
421.10	3403.14
421.29	3377.39
421.48	3468.67
421.67	3414.84
421.86	3428.88
422.05	3337.60
422.24	3426.54
422.43	3473.36
422.61	3438.25
422.80	3578.68
422.99	3454.63
423.18	3517.83
423.37	3585.70
423.56	3456.97
423.75	3618.47
423.94	3543.57
424.13	3225.26
424.32	3438.25
424.50	3583.36
424.69	3681.66
424.88	3536.55
425.07	3581.02
425.26	3361.01
425.45	3660.60
425.64	3630.17
425.83	3538.89
426.01	3590.38
426.20	3693.37
426.39	3681.66
426.58	3550.59
426.77	3520.17
426.96	3627.83
427.15	3578.68
427.33	3829.12
427.52	3850.18
427.71	3721.45
427.90	3700.39
428.09	3672.30
428.28	3786.99
428.46	3836.14
428.65	3723.79
428.84	3861.88
429.03	3805.71
429.22	3768.26
429.40	3637.19
429.59	3761.24
429.78	3730.81
429.97	3592.72
430.16	3772.94
430.34	3761.24
430.53	3962.53
430.72	3880.61
430.91	3824.44
431.10	3889.97
431.28	4030.40
431.47	4074.87
431.66	4067.85
431.85	4107.64
432.03	4184.88
432.22	4124.02
432.41	4219.99
432.60	4159.13
432.79	4126.36
432.97	4138.07
433.16	4159.13
433.35	4159.13
433.54	4248.07
433.72	4128.70
433.91	4219.99
434.10	4339.35
434.28	4334.67
434.47	4301.90
434.66	4465.74
434.85	4311.27
435.03	4442.34
435.22	4348.72
435.41	4507.87
435.59	4402.55
435.78	4505.53
435.97	4599.15
436.16	4552.34
436.34	4505.53
436.53	4608.51
436.72	4805.12
436.90	4627.24
437.09	4741.93
437.28	4592.13
437.46	4657.67
437.65	4634.26
437.84	4711.50
438.02	4542.98
438.21	4791.08
438.40	4589.79
438.58	4821.50
438.77	4858.95
438.96	4819.16
439.14	4919.81
439.33	5078.96
439.52	4973.64
439.70	5015.77
439.89	5076.62
440.08	5130.45
440.26	5118.75
440.45	5025.13
440.63	5231.10
440.82	5423.02
441.01	5277.91
441.19	5320.04
441.38	5364.51
441.57	5350.46
441.75	5636.01
441.94	5554.09
442.12	5544.73
442.31	5771.76
442.50	5603.24
442.68	5664.10
442.87	5497.92
443.05	5734.31
443.24	5813.89
443.43	5710.91
443.61	5771.76
443.80	5760.06
443.98	5699.20
444.17	5603.24
444.35	5694.52
444.54	5921.56
444.73	5881.77
444.91	5692.18
445.10	5849.00
445.28	5776.44
445.47	5708.57
445.65	5694.52
445.84	5874.74
446.02	5919.21
446.21	5947.30
446.39	5804.53
446.58	5940.28
446.77	6024.54
446.95	5966.03
447.14	6017.52
447.32	5961.34
447.51	6148.59
447.69	5741.33
447.88	5909.85
448.06	6008.16
448.25	6059.65
448.43	5970.71
448.62	5947.30
448.80	5951.98
448.99	6022.20
449.17	6122.84
449.36	5996.45
449.54	6148.59
449.73	6296.04
449.91	6384.98
450.10	6338.17
450.28	6361.58
450.46	6326.47
450.65	6377.96
450.83	6450.52
451.02	6464.56
451.20	6228.17
451.39	6324.13
451.57	6305.40
451.76	6384.98
451.94	6392.00
452.13	6558.18
452.31	6513.71
452.49	6303.06
452.68	6370.94
452.86	6686.91
453.05	6661.16
453.23	6614.35
453.42	6525.41
453.60	6516.05
453.78	6576.91
453.97	6490.31
454.15	6733.72
454.34	6759.47
454.52	6633.08
454.70	6810.96
454.89	6593.29
455.07	6862.45
455.26	6787.55
455.44	6782.87
455.62	6862.45
455.81	6953.73
455.99	7066.08
456.17	6860.11
456.36	7073.10
456.54	6956.07
456.73	7148.00
456.91	7283.75
457.09	7187.79
457.28	7419.50
457.46	7140.97
457.64	7452.27
457.83	7351.62
458.01	7225.23
458.19	7438.22
458.38	7173.74
458.56	7417.16
458.74	7391.41
458.93	7431.20
459.11	7442.90
459.29	7588.02
459.48	7503.76
459.66	7536.52
459.84	7368.01
460.03	7632.49
460.21	7405.46
460.39	7569.29
460.57	7569.29
460.76	7707.38
460.94	7683.98
461.12	7620.78
461.31	7948.46
461.49	7784.62
461.67	7641.85
461.85	8053.78
462.04	7747.17
462.22	7812.71
462.40	7939.10
462.59	7978.89
462.77	7901.65
462.95	7892.29
463.13	7976.55
463.32	8018.68
463.50	8063.15
463.68	8212.94
463.86	8222.30
464.05	7845.48
464.23	7999.95
464.41	8224.64
464.59	7859.52
464.78	8287.84
464.96	8133.36
465.14	8184.85
465.32	8369.76
465.50	8329.97
465.69	8498.49
465.87	8379.12
466.05	8486.78
466.23	8175.49
466.41	8344.01
466.60	8528.91
466.78	8372.10
466.96	8456.36
467.14	8521.89
467.32	8512.53
467.51	8528.91
467.69	8397.84
467.87	8533.59
468.05	8594.45
468.23	8549.98
468.41	8301.88
468.60	8489.12
468.78	8739.56
468.96	8507.85
469.14	8805.10
469.32	8767.65
469.50	8554.66
469.69	8608.49
469.87	8805.10
470.05	9029.79
470.23	8858.93
470.41	8982.98
470.59	9001.70
470.77	8901.06
470.95	9029.79
471.14	9343.42
471.32	8994.68
471.50	9186.60
471.68	9132.77
471.86	9490.87
472.04	9202.99
472.22	9404.27
472.40	9327.03
472.58	9387.89
472.77	9418.32
472.95	9497.89
473.13	9706.20
473.31	9413.63
473.49	9507.26
473.67	9549.39
473.85	9706.20
474.03	9762.37
474.21	10068.98
474.39	9900.47
474.57	9804.50
474.75	10076.01
474.93	10005.79
475.12	9966.00
475.30	10101.75
475.48	10366.23
475.66	10148.56
475.84	10071.33
476.02	10349.85
476.20	10251.55
476.38	10377.94
476.56	10738.38
476.74	10729.02
476.92	10705.61
477.10	10836.68
477.28	10829.66
477.46	11119.89
477.64	11087.12
477.82	11211.17
478.00	11487.35
478.18	11421.81
478.36	11492.03
478.54	11438.20
478.72	11517.78
478.90	11747.15
479.08	11672.25
479.26	11861.84
479.44	11838.43
479.62	11990.56
479.80	12004.61
479.98	12278.45
480.16	12168.45
480.34	12093.55
480.52	12568.68
480.70	12187.17
480.88	12166.10
481.06	12367.39
481.24	12503.14
481.41	12791.03
481.59	12943.16
481.77	13036.78
481.95	13025.08
482.13	13071.89
482.31	13415.95
482.49	13474.46
482.67	13336.37
482.85	13671.07
483.03	13851.29
483.21	13802.14
483.39	14115.77
483.57	13874.70
483.74	13860.65
483.92	14246.84
484.10	14174.28
484.28	14422.38
484.46	14647.07
484.64	14888.15
484.82	14541.75
485.00	14731.33
485.18	15185.40
485.35	15232.21
485.53	14984.11
485.71	14785.16
485.89	15503.71
486.07	15379.66
486.25	15157.31
486.43	15440.51
486.61	15522.43
486.78	15784.57
486.96	15815.00
487.14	15775.21
487.32	16362.69
487.50	16477.37
487.68	16608.44
487.85	16681.00
488.03	16711.42
488.21	16912.71
488.39	17032.08
488.57	17163.15
488.75	17228.68
488.92	17458.06
489.10	17547.00
489.28	17771.69
489.46	17687.43
489.64	17778.71
489.81	18368.52
489.99	18310.01
490.17	18504.28
490.35	18349.80
490.53	18607.26
490.70	18726.63
490.88	18405.97
491.06	19037.92
491.24	19119.84
491.41	18946.64
491.59	19073.03
491.77	19253.25
491.95	19447.51
492.13	19578.58
492.30	19611.35
492.48	19784.55
492.66	20294.79
492.84	20004.56
493.01	19896.89
493.19	20154.35
493.37	20374.36
493.54	20379.04
493.72	20819.07
493.90	21013.33
494.08	20908.01
494.25	21057.80
494.43	21170.15
494.61	21233.34
494.79	21443.99
494.96	21266.11
495.14	21542.29
495.32	21862.94
495.49	21713.15
495.67	21759.96
495.85	21996.35
496.02	22024.44
496.20	22356.80
496.38	22225.73
496.55	22438.72
496.73	22871.72
496.91	22576.81
497.09	22450.42
497.26	22916.19
497.44	22735.96
497.62	22892.78
497.79	23103.43
497.97	23213.43
498.14	23314.08
498.32	23447.49
498.50	23513.02
498.67	23644.09
498.85	23683.88
499.03	23793.89
499.20	23859.42
499.38	24009.22
499.56	24070.07
499.73	24467.96
499.91	24437.53
500.08	24372.00
500.26	24294.76
500.44	24582.65
500.61	24748.82
500.79	24622.44
500.97	24996.92
501.14	25284.81
501.32	24961.81
501.49	25060.12
501.67	24823.72
501.84	25558.65
502.02	25685.04
502.20	25378.43
502.37	25144.38
502.55	25378.43
502.72	25619.50
502.90	25717.81
503.07	25511.84
503.25	26288.90
503.43	25757.60
503.60	26071.23
503.78	25827.81
503.95	26120.38
504.13	26314.64
504.30	26295.92
504.48	26354.43
504.65	26459.76
504.83	26611.89
505.01	27126.81
505.18	26639.98
505.36	26962.97
505.53	26979.36
505.71	27323.41
505.88	27398.31
506.06	27065.96
506.23	27246.18
506.41	27180.64
506.58	27520.02
506.76	27402.99
506.93	27894.50
507.11	27623.00
507.28	27517.68
507.46	27924.93
507.63	27798.54
507.81	28095.79
507.98	28011.53
508.16	28196.43
508.33	28166.01
508.50	28308.78
508.68	28430.49
508.85	28680.92
509.03	28767.52
509.20	28627.09
509.38	28788.59
509.55	28959.45
509.73	29097.54
509.90	28844.76
510.08	28931.36
510.25	28727.74
510.42	29230.95
510.60	29273.08
510.77	29448.62
510.95	29654.59
511.12	29177.12
511.30	29558.63
511.47	30118.01
511.64	29736.51
511.82	30008.01
511.99	29935.45
512.17	30036.09
512.34	30008.01
512.51	30085.25
512.69	30433.99
512.86	30368.45
513.04	30614.21
513.21	30515.90
513.38	30485.48
513.56	30455.05
513.73	30354.41
513.90	30529.95
514.08	30923.16
514.25	30951.24
514.43	30710.17
514.60	31007.42
514.77	30909.11
514.95	31419.35
515.12	31138.49
515.29	31377.22
515.47	31632.34
515.64	32046.62
515.81	31222.75
515.99	31346.79
516.16	31204.02
516.33	31536.38
516.51	31791.50
516.68	31255.51
516.85	31187.64
517.03	31847.67
517.20	31653.40
517.37	31718.94
517.54	32098.11
517.72	32229.18
517.89	31833.63
518.06	31931.93
518.24	31854.69
518.41	32187.05
518.58	32634.09
518.75	32137.90
518.93	32210.45
519.10	32121.51
519.27	32416.42
519.45	32779.20
519.62	32708.99
519.79	32720.69
519.96	32615.37
520.14	33046.02
520.31	32968.79
520.48	33120.92
520.65	32856.44
520.83	33223.90
521.00	33116.24
521.17	33574.98
521.34	33495.41
521.52	33696.69
521.69	33605.41
521.86	33525.83
522.03	33479.02
522.20	33890.96
522.38	34050.11
522.55	34064.16
522.72	33790.31
522.89	33949.47
523.07	34253.74
523.24	33986.92
523.41	34628.23
523.58	34188.21
523.75	34703.12
523.92	34820.15
524.10	34466.73
524.27	34653.97
524.44	34775.68
524.61	34974.63
524.78	34855.26
524.96	34806.11
525.13	34993.35
525.30	35131.44
525.47	35234.42
525.64	35037.82
525.81	34991.01
525.98	35136.12
526.16	34845.90
526.33	35049.52
526.50	35426.35
526.67	34862.28
526.84	35047.18
527.01	35356.13
527.18	35599.55
527.36	35529.33
527.53	35878.07
527.70	36062.97
527.87	36013.82
528.04	35835.94
528.21	36020.84
528.38	35885.09
528.55	35945.95
528.72	36514.70
528.89	36282.98
529.07	36212.77
529.24	36023.19
529.41	36271.28
529.58	36603.64
529.75	36512.36
529.92	36184.68
530.09	36610.66
530.26	36746.41
530.43	36428.10
530.60	36521.72
530.77	36765.14
530.94	36868.12
531.11	36914.93
531.28	37067.06
531.46	36954.72
531.63	36877.48
531.80	37090.47
531.97	36905.57
532.14	37006.21
532.31	36627.04
532.48	37209.84
532.65	37364.31
532.82	36989.83
532.99	37439.21
533.16	37134.94
533.33	37654.54
533.50	37722.41
533.67	37965.83
533.84	37336.23
534.01	37558.58
534.18	37766.88
534.35	37689.65
534.52	38199.88
534.69	37823.06
534.86	37528.15
535.03	37631.13
535.20	38225.63
535.37	38220.95
535.54	38167.12
535.71	37890.93
535.88	38527.56
536.05	37904.98
536.22	37982.21
536.38	37759.86
536.55	38543.94
536.72	38007.96
536.89	38305.21
537.06	38192.86
537.23	38714.80
537.40	38562.67
537.57	38534.58
537.74	38553.30
537.91	38995.67
538.08	38698.42
538.25	38677.35
538.42	38555.64
538.59	38810.76
538.75	38345.00
538.92	38593.09
539.09	39201.63
539.26	39042.48
539.43	38733.53
539.60	39136.10
539.77	39016.73
539.94	38897.36
540.11	38976.94
540.28	39253.12
540.44	39035.45
540.61	39129.08
540.78	39257.81
540.95	39384.19
541.12	39033.11
541.29	39309.30
541.46	39267.17
541.62	39510.58
541.79	39854.64
541.96	39145.46
542.13	39328.02
542.30	39161.84
542.47	40044.23
542.63	39805.49
542.80	39917.84
542.97	39842.94
543.14	40348.50
543.31	39952.94
543.48	40261.90
543.64	40655.11
543.81	40999.16
543.98	40498.29
544.15	40620.00
544.32	40872.78
544.48	40666.81
544.65	40535.74
544.82	40961.72
544.99	40545.10
545.16	40374.24
545.32	40526.38
545.49	40486.59
545.66	40786.18
545.83	40924.27
546.00	40865.75
546.16	40685.53
546.33	40648.08
546.50	40603.61
546.67	40472.54
546.83	40360.20
547.00	40879.80
547.17	40830.65
547.34	41123.21
547.50	41074.06
547.67	41041.29
547.84	40910.22
548.00	41092.79
548.17	41200.45
548.34	41441.53
548.51	41041.29
548.67	41390.03
548.84	41158.32
549.01	41120.87
549.18	41326.84
549.34	41500.04
549.51	41469.61
549.68	41806.65
549.84	41614.72
550.01	41851.12
550.18	41319.82
550.34	41570.25
550.51	41219.17
550.68	41457.91
550.84	41951.76
551.01	42431.57
551.18	41785.58
551.34	41918.99
551.51	41996.23
551.68	42176.45
551.84	42026.66
552.01	41729.41
552.18	41820.69
552.34	41867.50
552.51	42241.99
552.68	41703.67
552.84	42291.14
553.01	42253.69
553.18	41996.23
553.34	41839.42
553.51	41893.25
553.67	41935.38
553.84	42347.31
554.01	41904.95
554.17	42113.26
554.34	42328.59
554.51	42155.39
554.67	42607.11
554.84	42574.34
555.00	42384.76
555.17	42314.55
555.33	42810.74
555.50	42342.63
555.67	42511.15
555.83	42375.40
556.00	42462.00
556.16	43180.54
556.33	42408.17
556.50	42752.23
556.66	42735.84
556.83	42382.42
556.99	42564.98
557.16	43079.90
557.32	43084.58
557.49	42817.76
557.65	42794.36
557.82	42754.57
557.98	42976.92
558.15	42850.53
558.32	42850.53
558.48	42836.48
558.65	43203.95
558.81	42698.39
558.98	42691.37
559.14	43042.45
559.31	42955.85
559.47	43143.09
559.64	43679.08
559.80	43564.39
559.97	43234.38
560.13	43459.07
560.30	43091.60
560.46	43140.75
560.63	43110.33
560.79	43775.04
560.96	43606.52
561.12	43658.01
561.29	43290.55
561.45	43360.76
561.61	43077.56
561.78	43735.25
561.94	43318.64
562.11	43147.78
562.27	43140.75
562.44	43491.83
562.60	43267.14
562.77	43414.60
562.93	43459.07
563.10	43707.16
563.26	43082.24
563.42	43548.01
563.59	42972.24
563.75	43562.05
563.92	43910.79
564.08	43922.49
564.24	44011.43
564.41	43304.59
564.57	43590.14
564.74	43171.18
564.90	43489.49
565.07	43538.65
565.23	43543.33
565.39	43824.19
565.56	43817.17
565.72	43601.84
565.88	43318.64
566.05	43391.19
566.21	44041.86
566.38	43653.33
566.54	43723.55
566.70	44044.20
566.87	44189.31
567.03	43721.21
567.19	44311.02
567.36	43707.16
567.52	43910.79
567.68	43964.62
567.85	43414.60
568.01	43978.67
568.17	43543.33
568.34	43789.08
568.50	43871.00
568.66	43564.39
568.83	44128.46
568.99	43227.35
569.15	43335.02
569.32	43548.01
569.48	43852.28
569.64	44245.49
569.81	43952.92
569.97	44081.65
570.13	43849.94
570.30	43688.44
570.46	43660.35
570.62	43669.72
570.78	43737.59
570.95	43681.42
571.11	44189.31
571.27	44119.10
571.43	43681.42
571.60	43955.26
571.76	43576.09
571.92	43653.33
572.09	43686.10
572.25	43672.06
572.41	43704.82
572.57	43964.62
572.74	44074.63
572.90	44285.28
573.06	44278.25
573.22	44088.67
573.38	43821.85
573.55	43777.38
573.71	44154.21
573.87	44088.67
574.03	43744.61
574.20	43751.63
574.36	43812.49
574.52	44107.40
574.68	44292.30
574.84	44004.41
575.01	43894.41
575.17	44055.90
575.33	44325.07
575.49	43966.96
575.65	44282.94
575.82	44472.52
575.98	44315.70
576.14	44601.25
576.30	44233.78
576.46	44093.35
576.62	44198.68
576.79	44140.16
576.95	43679.08
577.11	43927.17
577.27	44009.09
577.43	44039.52
577.59	44191.65
577.75	44091.01
577.92	43871.00
578.08	43948.24
578.24	44259.53
578.40	43845.26
578.56	43964.62
578.72	43927.17
578.88	44584.86
579.04	44659.76
579.21	43997.39
579.37	44268.89
579.53	44107.40
579.69	44030.16
579.85	44313.36
580.01	44580.18
580.17	44048.88
580.33	44329.75
580.49	44488.90
580.65	44266.55
580.82	44498.26
580.98	43849.94
581.14	44034.84
581.30	44392.94
581.46	44619.97
581.62	44219.74
581.78	44032.50
581.94	44626.99
582.10	43915.47
582.26	44238.47
582.42	44095.69
582.58	43976.33
582.74	43899.09
582.90	44507.63
583.06	44238.47
583.22	44320.38
583.38	44823.60
583.54	44545.08
583.70	44135.48
583.86	44252.51
584.02	44629.34
584.18	44044.20
584.34	43969.30
584.50	44102.71
584.66	43559.71
584.82	44247.83
584.98	44547.42
585.14	44362.51
585.30	44018.46
585.46	44575.50
585.62	44158.89
585.78	44130.80
585.94	44095.69
586.10	44093.35
586.26	44170.59
586.42	44304.00
586.58	44168.25
586.74	44531.03
586.90	44369.54
587.06	43992.71
587.22	45027.23
587.38	43901.43
587.54	44325.07
587.70	44226.76
587.86	44411.67
588.02	44563.80
588.18	44147.18
588.34	44196.34
588.49	44016.11
588.65	44144.84
588.81	43978.67
588.97	44156.55
589.13	43540.99
589.29	44451.45
589.45	44360.17
589.61	44334.43
589.77	44432.73
589.93	44446.77
590.08	44184.63
590.24	44676.15
