SpectraSuite Data File
++++++++++++++++++++++++++++++++++++
Date: Fri Oct 25 10:48:27 EDT 2013
User: price-jones
Dark Spectrum Present: No
Reference Spectrum Present: No
Number of Sampled Component Spectra: 1
Spectrometers: USB2+H05261
Integration Time (usec): 100000 (USB2+H05261)
Spectra Averaged: 1 (USB2+H05261)
Boxcar Smoothing: 0 (USB2+H05261)
Correct for Electrical Dark: No (USB2+H05261)
Strobe/Lamp Enabled: No (USB2+H05261)
Correct for Detector Non-linearity: No (USB2+H05261)
Correct for Stray Light: No (USB2+H05261)
Number of Pixels in Processed Spectrum: 2048
>>>>>Begin Processed Spectral Data<<<<<
365.73	117.03
365.92	117.03
366.12	117.03
366.32	46.81
366.52	16.38
366.72	114.69
366.91	0.00
367.11	39.79
367.31	53.83
367.51	35.11
367.70	107.66
367.90	70.22
368.10	4.68
368.30	121.71
368.49	65.54
368.69	93.62
368.89	65.54
369.09	86.60
369.28	72.56
369.48	0.00
369.68	67.88
369.87	100.64
370.07	163.84
370.27	201.29
370.47	210.65
370.66	362.78
370.86	388.53
371.06	465.77
371.25	531.30
371.45	437.68
371.65	475.13
371.84	477.47
372.04	512.58
372.24	521.94
372.44	472.79
372.63	498.53
372.83	568.75
373.03	552.37
373.22	493.85
373.42	444.70
373.62	561.73
373.81	468.11
374.01	606.20
374.21	582.79
374.40	596.84
374.60	571.09
374.79	641.31
374.99	650.67
375.19	620.24
375.38	627.26
375.58	596.84
375.78	638.97
375.97	606.20
376.17	706.84
376.37	575.77
376.56	587.47
376.76	648.33
376.95	690.46
377.15	589.82
377.35	617.90
377.54	589.82
377.74	615.56
377.93	699.82
378.13	676.41
378.33	664.71
378.52	624.92
378.72	655.35
378.91	725.57
379.11	657.69
379.31	653.01
379.50	706.84
379.70	720.88
379.89	702.16
380.09	669.39
380.28	624.92
380.48	697.48
380.68	692.80
380.87	730.25
381.07	734.93
381.26	695.14
381.46	636.63
381.65	739.61
381.85	758.33
382.04	685.78
382.24	683.44
382.43	798.12
382.63	730.25
382.83	725.57
383.02	758.33
383.22	732.59
383.41	667.05
383.61	793.44
383.80	851.96
384.00	774.72
384.19	770.04
384.39	774.72
384.58	767.70
384.78	837.91
384.97	746.63
385.17	788.76
385.36	798.12
385.56	805.14
385.75	798.12
385.95	919.83
386.14	781.74
386.34	896.43
386.53	940.90
386.72	882.38
386.92	889.40
387.11	915.15
387.31	821.53
387.50	793.44
387.70	929.19
387.89	891.74
388.09	891.74
388.28	823.87
388.48	837.91
388.67	924.51
388.86	997.07
389.06	940.90
389.25	961.96
389.45	992.39
389.64	945.58
389.84	1036.86
390.03	1027.50
390.22	964.30
390.42	1036.86
390.61	994.73
390.81	1107.07
391.00	1032.18
391.19	1064.94
391.39	1050.90
391.58	1050.90
391.78	1076.65
391.97	992.39
392.16	1050.90
392.36	1046.22
392.55	1053.24
392.75	1060.26
392.94	1022.81
393.13	1156.22
393.33	987.71
393.52	1121.12
393.71	1118.78
393.91	1121.12
394.10	1046.22
394.29	1191.33
394.49	1107.07
394.68	1240.48
394.88	1163.25
395.07	1193.67
395.26	1238.14
395.46	1296.66
395.65	1214.74
395.84	1357.51
396.04	1205.38
396.23	1205.38
396.42	1252.19
396.62	1203.04
396.81	1172.61
397.00	1226.44
397.19	1263.89
397.39	1320.06
397.58	1394.96
397.77	1366.87
397.97	1439.43
398.16	1406.66
398.35	1490.92
398.55	1451.13
398.74	1362.19
398.93	1568.16
399.12	1423.05
399.32	1446.45
399.51	1479.22
399.70	1533.05
399.90	1474.54
400.09	1476.88
400.28	1584.54
400.47	1558.80
400.67	1598.59
400.86	1605.61
401.05	1692.21
401.24	1624.33
401.44	1685.19
401.63	1703.91
401.82	1675.82
402.01	1717.95
402.21	1675.82
402.40	1799.87
402.59	1647.74
402.78	1741.36
402.97	1776.47
403.17	1851.36
403.36	1685.19
403.55	1767.10
403.74	1792.85
403.93	1818.60
404.13	1717.95
404.32	1846.68
404.51	1762.42
404.70	1774.13
404.89	1928.60
405.09	1923.92
405.28	1956.69
405.47	1909.88
405.66	1956.69
405.85	1942.64
406.05	1987.11
406.24	2045.63
406.43	2062.01
406.62	1996.48
406.81	2050.31
407.00	2040.95
407.20	2062.01
407.39	2045.63
407.58	2012.86
407.77	2153.29
407.96	2162.66
408.15	2204.78
408.34	2157.97
408.54	2202.44
408.73	2228.19
408.92	2134.57
409.11	2256.28
409.30	2190.74
409.49	2223.51
409.68	2228.19
409.87	2359.26
410.07	2235.21
410.26	2338.20
410.45	2436.50
410.64	2345.22
410.83	2396.71
411.02	2408.41
411.21	2464.58
411.40	2626.08
411.59	2534.80
411.78	2537.14
411.98	2593.31
412.17	2478.63
412.36	2605.02
412.55	2546.50
412.74	2658.85
412.93	2668.21
413.12	2614.38
413.31	2729.06
413.50	2813.32
413.69	2733.75
413.88	2780.56
414.07	2825.03
414.26	2864.82
414.45	2932.69
414.64	2827.37
414.83	2974.82
415.02	2944.39
415.22	3063.76
415.41	3087.17
415.60	3098.87
415.79	3033.33
415.98	3248.66
416.17	3066.10
416.36	3131.64
416.55	3096.53
416.74	3253.34
416.93	3162.06
417.12	3251.00
417.31	3311.86
417.50	3328.24
417.69	3407.82
417.88	3342.28
418.07	3356.33
418.26	3365.69
418.45	3452.29
418.64	3569.32
418.83	3447.61
419.02	3552.93
419.21	3456.97
419.39	3461.65
419.58	3492.08
419.77	3487.40
419.96	3562.30
420.15	3611.45
420.34	3559.95
420.53	3658.26
420.72	3775.28
420.91	3721.45
421.10	3733.15
421.29	3831.46
421.48	3775.28
421.67	3784.65
421.86	3831.46
422.05	3733.15
422.24	3772.94
422.43	3740.18
422.61	3826.78
422.80	3728.47
422.99	3880.61
423.18	4004.66
423.37	3786.99
423.56	3887.63
423.75	3782.31
423.94	3857.20
424.13	3543.57
424.32	3665.28
424.50	3967.21
424.69	3997.64
424.88	3899.33
425.07	3815.07
425.26	3871.25
425.45	3735.50
425.64	3838.48
425.83	3857.20
426.01	4007.00
426.20	3997.64
426.39	3850.18
426.58	3871.25
426.77	3733.15
426.96	3969.55
427.15	3976.57
427.33	3955.51
427.52	3925.08
427.71	4121.68
427.90	4067.85
428.09	4035.08
428.28	4135.73
428.46	3999.98
428.65	4187.22
428.84	4304.25
429.03	4266.80
429.22	3950.82
429.40	4086.58
429.59	4063.17
429.78	3922.74
429.97	3946.14
430.16	4039.76
430.34	4002.32
430.53	4063.17
430.72	4173.18
430.91	4053.81
431.10	4222.33
431.28	4414.25
431.47	4571.07
431.66	4575.75
431.85	4521.92
432.03	4484.47
432.22	4573.41
432.41	4505.53
432.60	4547.66
432.79	4699.80
432.97	4596.81
433.16	4667.03
433.35	4587.45
433.54	4606.17
433.72	4479.79
433.91	4606.17
434.10	4823.84
434.28	4727.88
434.47	4821.50
434.66	4772.35
434.85	4863.63
435.03	4851.93
435.22	4868.31
435.41	5027.47
435.59	4971.30
435.78	5053.22
435.97	5025.13
436.16	4994.70
436.34	5095.35
436.53	5095.35
436.72	5027.47
436.90	5015.77
437.09	5013.43
437.28	4903.42
437.46	4975.98
437.65	5181.95
437.84	5179.61
438.02	5050.88
438.21	5137.48
438.40	5263.86
438.58	5277.91
438.77	5355.15
438.96	5284.93
439.14	5301.31
439.33	5476.85
439.52	5551.75
439.70	5659.42
439.89	5598.56
440.08	5673.46
440.26	5556.43
440.45	5614.95
440.63	5823.25
440.82	5902.83
441.01	5703.89
441.19	5797.51
441.38	6040.92
441.57	5767.08
441.75	6146.25
441.94	5980.07
442.12	6155.61
442.31	6029.22
442.50	6146.25
442.68	6069.01
442.87	6321.79
443.05	6214.12
443.24	6249.23
443.43	6427.11
443.61	6352.21
443.80	6382.64
443.98	6298.38
444.17	6171.99
444.35	6396.68
444.54	6551.16
444.73	6244.55
444.91	6310.08
445.10	6342.85
445.28	6312.42
445.47	6347.53
445.65	6387.32
445.84	6319.45
446.02	6406.05
446.21	6485.62
446.39	6415.41
446.58	6595.63
446.77	6588.61
446.95	6314.77
447.14	6633.08
447.32	6822.66
447.51	6560.52
447.69	6686.91
447.88	6670.53
448.06	6768.83
448.25	6537.12
448.43	6670.53
448.62	6736.06
448.80	6457.54
448.99	6691.59
449.17	6796.92
449.36	6686.91
449.54	6719.68
449.73	6902.24
449.91	7028.63
450.10	7000.54
450.28	7028.63
450.46	6902.24
450.65	6986.50
450.83	6946.71
451.02	6937.35
451.20	6843.73
451.39	7199.49
451.57	7012.24
451.76	6848.41
451.94	6930.33
452.13	7192.47
452.31	7052.03
452.49	6956.07
452.68	7000.54
452.86	7026.29
453.05	7136.29
453.23	7096.50
453.42	7169.06
453.60	7126.93
453.78	7225.23
453.97	7307.15
454.15	7344.60
454.34	7255.66
454.52	7529.50
454.70	7412.48
454.89	7428.86
455.07	7407.80
455.26	7419.50
455.44	7552.91
455.62	7592.70
455.81	7667.60
455.99	7793.98
456.17	7653.55
456.36	7674.62
456.54	7644.19
456.73	7709.72
456.91	7894.63
457.09	7932.08
457.28	8131.02
457.46	7964.84
457.64	8009.31
457.83	7932.08
458.01	7978.89
458.19	8107.62
458.38	8138.04
458.56	8114.64
458.74	8063.15
458.93	8058.46
459.11	8105.28
459.29	8049.10
459.48	8187.19
459.66	7971.86
459.84	8311.24
460.03	8393.16
460.21	8187.19
460.39	8304.22
460.57	8634.24
460.76	8676.37
460.94	8229.32
461.12	8226.98
461.31	8517.21
461.49	8353.37
461.67	8491.46
461.85	8669.34
462.04	8393.16
462.22	9095.32
462.40	8879.99
462.59	8645.94
462.77	8645.94
462.95	8844.88
463.13	8667.00
463.32	8788.71
463.50	8891.70
463.68	8814.46
463.86	8929.14
464.05	8727.86
464.23	8791.05
464.41	9011.06
464.59	8667.00
464.78	9029.79
464.96	8894.04
465.14	8891.70
465.32	9231.07
465.50	9097.66
465.69	9069.58
465.87	8997.02
466.05	8975.95
466.23	9092.98
466.41	9050.85
466.60	9282.56
466.78	9015.74
466.96	9128.09
467.14	9282.56
467.32	9282.56
467.51	9315.33
467.69	9146.81
467.87	9125.75
468.05	9418.32
468.23	9195.96
468.41	9350.44
468.60	9312.99
468.78	9502.58
468.96	9376.19
469.14	9568.11
469.32	9549.39
469.50	9362.14
469.69	9607.90
469.87	9643.01
470.05	9640.67
470.23	9462.79
470.41	9617.26
470.59	9837.27
470.77	9540.02
470.95	9837.27
471.14	9928.55
471.32	10061.96
471.50	10211.76
471.68	10223.46
471.86	10101.75
472.04	10221.12
472.22	10443.47
472.40	9825.57
472.58	10321.76
472.77	10223.46
472.95	10317.08
473.13	10644.76
473.31	10178.99
473.49	10399.00
473.67	10443.47
473.85	10471.56
474.03	10743.06
474.21	10750.08
474.39	10979.45
474.57	10927.96
474.75	11007.54
474.93	11190.10
475.12	10942.00
475.30	10974.77
475.48	10890.51
475.66	11035.63
475.84	11021.58
476.02	11201.80
476.20	11176.06
476.38	11412.45
476.56	11665.23
476.74	11674.59
476.92	11644.17
477.10	11597.35
477.28	11782.26
477.46	11831.41
477.64	12095.89
477.82	11929.71
478.00	12278.45
478.18	12255.04
478.36	12346.33
478.54	12369.73
478.72	12772.30
478.90	12695.07
479.08	12901.03
479.26	13032.10
479.44	13111.68
479.62	12929.12
479.80	12996.99
479.98	13415.95
480.16	13523.62
480.34	13287.22
480.52	13486.17
480.70	13420.63
480.88	13334.03
481.06	13469.78
481.24	13689.79
481.41	14125.13
481.59	14143.86
481.77	14050.24
481.95	14270.25
482.13	14724.31
482.31	14221.10
482.49	14864.74
482.67	14661.12
482.85	14703.25
483.03	15033.26
483.21	15075.39
483.39	15272.00
483.57	15367.96
483.74	15290.72
483.92	15215.82
484.10	15648.82
484.28	15733.08
484.46	15810.32
484.64	16006.92
484.82	15754.15
485.00	15920.32
485.18	16416.52
485.35	16580.36
485.53	16358.00
485.71	16123.95
485.89	16430.56
486.07	16313.53
486.25	16439.92
486.43	16716.11
486.61	16877.60
486.78	17153.79
486.96	17067.19
487.14	17678.07
487.32	17544.66
487.50	17397.20
487.68	17579.76
487.85	18267.88
488.03	18251.50
488.21	18473.85
488.39	18705.56
488.57	18480.87
488.75	18590.88
488.92	18700.88
489.10	19033.24
489.28	19140.90
489.46	19456.87
489.64	19424.11
489.81	19857.10
489.99	19908.60
490.17	20034.99
490.35	20063.07
490.53	20020.94
490.70	20266.70
490.88	20114.56
491.06	20554.58
491.24	20561.61
491.41	20489.05
491.59	20552.24
491.77	20395.43
491.95	20877.58
492.13	21013.33
492.30	21458.03
492.48	21577.40
492.66	21717.83
492.84	21603.14
493.01	21717.83
493.19	21593.78
493.37	21708.47
493.54	22199.98
493.72	22448.08
493.90	22305.31
494.08	22728.94
494.25	22820.22
494.43	22932.57
494.61	22860.01
494.79	23260.24
494.96	22967.68
495.14	23187.69
495.32	23473.23
495.49	23536.43
495.67	23578.56
495.85	23683.88
496.02	23990.49
496.20	24156.67
496.38	24168.37
496.55	24432.85
496.73	24856.49
496.91	24599.03
497.09	24491.37
497.26	24528.81
497.44	24753.51
497.62	24863.51
497.79	25165.44
497.97	24678.61
498.14	25345.66
498.32	25539.93
498.50	25383.11
498.67	25685.04
498.85	26057.18
499.03	26174.21
499.20	26045.48
499.38	25956.54
499.56	25867.60
499.73	26513.59
499.91	26251.45
500.08	26569.76
500.26	26239.75
500.44	26314.64
500.61	26349.75
500.79	26616.57
500.97	26583.80
501.14	26874.03
501.32	27103.40
501.49	26647.00
501.67	27213.41
501.84	27115.11
502.02	26637.64
502.20	27112.77
502.37	27789.18
502.55	26972.33
502.72	27665.13
502.90	27971.74
503.07	27630.02
503.25	28166.01
503.43	28048.98
503.60	27861.74
503.78	28058.34
503.95	28119.20
504.13	28088.77
504.30	28393.04
504.48	28842.42
504.65	28659.86
504.83	28898.59
505.01	28844.76
505.18	28926.68
505.36	29207.55
505.53	28891.57
505.71	29682.67
505.88	29427.56
506.06	28933.70
506.23	29268.40
506.41	29116.26
506.58	29605.44
506.76	29642.88
506.93	29750.55
507.11	29921.41
507.28	29914.39
507.46	29703.74
507.63	29893.32
507.81	29876.94
507.98	30272.49
508.16	30199.93
508.33	30359.09
508.50	30312.28
508.68	30391.86
508.85	30696.13
509.03	30527.61
509.20	30944.22
509.38	30995.71
509.55	30946.56
509.73	31243.81
509.90	31164.23
510.08	31388.92
510.25	31234.45
510.42	31356.16
510.60	31793.84
510.77	31688.51
510.95	31716.60
511.12	31763.41
511.30	31667.45
511.47	32086.40
511.64	32091.09
511.82	32318.12
511.99	32105.13
512.17	32259.60
512.34	31974.06
512.51	32514.72
512.69	32528.77
512.86	32540.47
513.04	32767.50
513.21	32809.63
513.38	32477.27
513.56	32762.82
513.73	32322.80
513.90	32828.35
514.08	32697.28
514.25	32765.16
514.43	33233.27
514.60	32851.76
514.77	33013.26
514.95	33354.97
515.12	33420.51
515.29	33635.84
515.47	33439.23
515.64	33954.15
515.81	33811.38
515.99	33745.84
516.16	33673.29
516.33	33567.96
516.51	33502.43
516.68	32994.53
516.85	33525.83
517.03	33408.81
517.20	33811.38
517.37	33825.42
517.54	34302.89
517.72	34244.38
517.89	34125.01
518.06	33972.88
518.24	33825.42
518.41	34251.40
518.58	34799.08
518.75	34431.62
518.93	34724.19
519.10	34508.86
519.27	35023.78
519.45	35089.31
519.62	35033.14
519.79	34930.16
519.96	35225.06
520.14	35349.11
520.31	35302.30
520.48	35634.66
520.65	35150.17
520.83	35192.30
521.00	35618.27
521.17	35569.12
521.34	35952.97
521.52	36306.39
521.69	35845.30
521.86	35981.06
522.03	36100.42
522.20	36182.34
522.38	36299.37
522.55	36615.34
522.72	36126.17
522.89	35648.70
523.07	36233.83
523.24	36100.42
523.41	36531.08
523.58	36290.01
523.75	37118.56
523.92	37172.39
524.10	37097.49
524.27	37130.26
524.44	37017.91
524.61	37235.58
524.78	37401.76
524.96	37581.98
525.13	37338.57
525.30	37626.45
525.47	37921.36
525.64	37834.76
525.81	37249.63
525.98	37102.17
526.16	36985.15
526.33	37036.64
526.50	37464.96
526.67	37624.11
526.84	37551.56
527.01	37057.70
527.18	37724.75
527.36	37500.06
527.53	38040.73
527.70	38422.23
527.87	38478.41
528.04	38075.84
528.21	38106.26
528.38	38583.73
528.55	38581.39
528.72	38588.41
528.89	38796.72
529.07	38464.36
529.24	38773.31
529.41	38265.42
529.58	38040.73
529.75	38775.66
529.92	38770.97
530.09	39150.14
530.26	38785.02
530.43	39459.09
530.60	38880.98
530.77	39248.44
530.94	39330.36
531.11	39454.41
531.28	39313.98
531.46	39342.06
531.63	39421.64
531.80	39321.00
531.97	39714.21
532.14	39407.60
532.31	39367.81
532.48	39381.85
532.65	39594.84
532.82	39559.73
532.99	39643.99
533.16	39377.17
533.33	40226.79
533.50	39636.97
533.67	39871.03
533.84	39978.69
534.01	39957.63
534.18	40062.95
534.35	40252.53
534.52	40060.61
534.69	40245.51
534.86	40353.18
535.03	40222.11
535.20	40505.31
535.37	40304.02
535.54	40657.45
535.71	40325.09
535.88	40671.49
536.05	40327.43
536.22	40297.00
536.38	40690.21
536.55	40802.56
536.72	40620.00
536.89	40481.91
537.06	40790.86
537.23	40627.02
537.40	40655.11
537.57	41137.26
537.74	40816.60
537.91	41205.13
538.08	41181.73
538.25	40828.30
538.42	41050.66
538.59	41305.77
538.75	41099.81
538.92	41230.88
539.09	41368.97
539.26	41097.47
539.43	41001.50
539.60	41483.66
539.77	41280.03
539.94	41680.26
540.11	40959.38
540.28	41483.66
540.44	41319.82
540.61	41265.99
540.78	41132.57
540.95	41523.44
541.12	41698.98
541.29	41518.76
541.46	42052.41
541.62	41755.16
541.79	42249.01
541.96	41652.17
542.13	42162.41
542.30	41916.65
542.47	42054.75
542.63	41961.12
542.80	42241.99
542.97	42405.83
543.14	42684.35
543.31	42466.68
543.48	42469.02
543.64	43311.61
543.81	42789.67
543.98	42689.03
544.15	42635.20
544.32	42946.49
544.48	43217.99
544.65	43452.05
544.82	43220.33
544.99	42630.52
545.16	42925.42
545.32	43145.44
545.49	43047.13
545.66	43243.74
545.83	43012.02
546.00	43456.73
546.16	43405.23
546.33	43199.27
546.50	43330.34
546.67	43033.09
546.83	42658.60
547.00	42925.42
547.17	43044.79
547.34	43510.56
547.50	43608.86
547.67	43796.10
547.84	43442.68
548.00	43826.53
548.17	43894.41
548.34	43847.60
548.51	44037.18
548.67	44088.67
548.84	43950.58
549.01	43662.69
549.18	43805.47
549.34	43899.09
549.51	43892.07
549.68	44037.18
549.84	43969.30
550.01	44215.06
550.18	43746.95
550.34	44194.00
550.51	43618.22
550.68	44055.90
550.84	43679.08
551.01	44425.71
551.18	43964.62
551.34	43662.69
551.51	44222.08
551.68	44275.91
551.84	44472.52
552.01	44062.93
552.18	43889.73
552.34	44304.00
552.51	44502.95
552.68	44018.46
552.84	44786.15
553.01	44662.10
553.18	44685.51
553.34	44177.61
553.51	44392.94
553.67	44657.42
553.84	44729.98
554.01	44905.52
554.17	44851.69
554.34	44940.63
554.51	44751.04
554.67	44875.09
554.84	44769.77
555.00	44708.91
555.17	44596.57
555.33	45263.62
555.50	44886.79
555.67	44863.39
555.83	44552.10
556.00	45045.95
556.16	45275.32
556.33	45174.68
556.50	45059.99
556.66	45184.04
556.83	44734.66
556.99	45125.53
557.16	45148.93
557.32	44825.94
557.49	45354.90
557.65	44767.43
557.82	45076.38
557.98	44989.78
558.15	44907.86
558.32	45333.84
558.48	44863.39
558.65	45116.17
558.81	45003.82
558.98	45099.78
559.14	45361.92
559.31	44978.07
559.47	45485.97
559.64	45275.32
559.80	45436.82
559.97	45652.15
560.13	45074.04
560.30	45469.59
560.46	45544.48
560.63	45401.71
560.79	45317.45
560.96	45663.85
561.12	45464.91
561.29	45549.17
561.45	45642.79
561.61	45495.33
561.78	45574.91
561.94	45467.25
562.11	45485.97
562.27	45261.28
562.44	45750.45
562.60	45815.99
562.77	45710.66
562.93	45308.09
563.10	46038.34
563.26	45677.90
563.42	46003.23
563.59	45738.75
563.75	45811.31
563.92	45855.78
564.08	45921.31
564.24	46134.30
564.41	45778.54
564.57	46080.47
564.74	45801.94
564.90	46066.42
565.07	45930.67
565.23	45876.84
565.39	46007.91
565.56	46038.34
565.72	45930.67
565.88	46141.32
566.05	46033.66
566.21	45914.29
566.38	45691.94
566.54	45764.49
566.70	46007.91
566.87	46387.08
567.03	45993.87
567.19	46256.01
567.36	46089.83
567.52	45769.18
567.68	46417.50
567.85	46174.09
568.01	45902.59
568.17	45801.94
568.34	46316.86
568.50	46028.98
568.66	46082.81
568.83	45815.99
568.99	45694.28
569.15	46223.24
569.32	46284.09
569.48	45925.99
569.64	46190.47
569.81	46162.39
569.97	46031.32
570.13	46206.86
570.30	45762.15
570.46	46040.68
570.62	45876.84
570.78	45766.84
570.95	45771.52
571.11	46146.00
571.27	46237.28
571.43	45858.12
571.60	46478.36
571.76	46000.89
571.92	46195.15
572.09	46260.69
572.25	46169.41
572.41	45949.40
572.57	46426.87
572.74	47023.70
572.90	46087.49
573.06	45975.14
573.22	46225.58
573.38	46251.33
573.55	45951.74
573.71	46129.62
573.87	45888.54
574.03	45743.43
574.20	46373.03
574.36	46342.61
574.52	46148.34
574.68	46108.55
574.84	46508.79
575.01	45993.87
575.17	45844.07
575.33	46363.67
575.49	45977.48
575.65	46857.52
575.82	46534.53
575.98	45881.52
576.14	46597.73
576.30	46188.13
576.46	46120.26
576.62	46277.07
576.79	46307.50
576.95	45918.97
577.11	46574.32
577.27	46054.72
577.43	46328.56
577.59	46300.48
577.75	45830.03
577.92	45691.94
578.08	46103.87
578.24	45909.61
578.40	46176.43
578.56	45970.46
578.72	46284.09
578.88	46391.76
579.04	46398.78
579.21	46005.57
579.37	46461.97
579.53	46370.69
579.69	45961.10
579.85	46611.77
580.01	46146.00
580.17	46897.31
580.33	46394.10
580.49	46494.74
580.65	46380.06
580.82	46052.38
580.98	46220.90
581.14	46457.29
581.30	46419.84
581.46	46583.68
581.62	46684.33
581.78	46492.40
581.94	46525.17
582.10	46616.45
582.26	46831.78
582.42	46286.43
582.58	46232.60
582.74	46445.59
582.90	46087.49
583.06	46396.44
583.22	46890.29
583.38	46801.35
583.54	46438.57
583.70	46246.65
583.86	46763.90
584.02	46108.55
584.18	46623.47
584.34	46440.91
584.50	46260.69
584.66	46340.27
584.82	46616.45
584.98	46939.44
585.14	46513.47
585.30	46576.66
585.46	46525.17
585.62	46351.97
585.78	46251.33
585.94	45820.67
586.10	46335.59
586.26	46234.94
586.42	46260.69
586.58	46885.61
586.74	46431.55
586.90	45954.08
587.06	46204.52
587.22	46424.53
587.38	46295.80
587.54	46543.89
587.70	46731.14
587.86	46363.67
588.02	46410.48
588.18	46429.21
588.34	46328.56
588.49	45970.46
588.65	45855.78
588.81	45858.12
588.97	46031.32
589.13	46005.57
589.29	45977.48
589.45	45862.80
589.61	46232.60
589.77	46387.08
589.93	46450.27
