SpectraSuite Data File
++++++++++++++++++++++++++++++++++++
Date: Fri Oct 25 11:25:00 EDT 2013
User: price-jones
Dark Spectrum Present: No
Reference Spectrum Present: No
Number of Sampled Component Spectra: 1
Spectrometers: USB2+H05261
Integration Time (usec): 100000 (USB2+H05261)
Spectra Averaged: 1 (USB2+H05261)
Boxcar Smoothing: 0 (USB2+H05261)
Correct for Electrical Dark: No (USB2+H05261)
Strobe/Lamp Enabled: No (USB2+H05261)
Correct for Detector Non-linearity: No (USB2+H05261)
Correct for Stray Light: No (USB2+H05261)
Number of Pixels in Processed Spectrum: 2048
>>>>>Begin Processed Spectral Data<<<<<
365.73	201.29
365.92	201.29
366.12	201.29
366.32	182.56
366.52	159.16
366.72	220.01
366.91	138.09
367.11	110.01
367.31	81.92
367.51	107.66
367.70	126.39
367.90	138.09
368.10	138.09
368.30	140.43
368.49	93.62
368.69	182.56
368.89	93.62
369.09	166.18
369.28	208.31
369.48	145.11
369.68	159.16
369.87	135.75
370.07	217.67
370.27	208.31
370.47	264.48
370.66	585.13
370.86	580.45
371.06	627.26
371.25	697.48
371.45	641.31
371.65	706.84
371.84	507.90
372.04	688.12
372.24	692.80
372.44	753.65
372.63	737.27
372.83	772.38
373.03	772.38
373.22	755.99
373.42	746.63
373.62	763.01
373.81	826.21
374.01	837.91
374.21	870.68
374.40	798.12
374.60	854.30
374.79	793.44
374.99	805.14
375.19	905.79
375.38	868.34
375.58	828.55
375.78	863.66
375.97	847.27
376.17	856.64
376.37	814.51
376.56	837.91
376.76	896.43
376.95	873.02
377.15	894.08
377.35	919.83
377.54	891.74
377.74	917.49
377.93	968.98
378.13	837.91
378.33	924.51
378.52	933.87
378.72	1018.13
378.91	952.60
379.11	1011.11
379.31	950.26
379.50	889.40
379.70	1001.75
379.89	959.62
380.09	880.04
380.28	959.62
380.48	987.71
380.68	971.32
380.87	959.62
381.07	997.07
381.26	938.55
381.46	985.37
381.65	978.34
381.85	1022.81
382.04	1053.24
382.24	1093.03
382.43	1069.62
382.63	1011.11
382.83	1078.99
383.02	1076.65
383.22	1114.10
383.41	1036.86
383.61	1004.09
383.80	1018.13
384.00	1109.41
384.19	1191.33
384.39	1188.99
384.58	1165.59
384.78	1160.91
384.97	1102.39
385.17	1071.97
385.36	1132.82
385.56	1181.97
385.75	1151.54
385.95	1158.57
386.14	1188.99
386.34	1261.55
386.53	1188.99
386.72	1156.22
386.92	1214.74
387.11	1181.97
387.31	1259.21
387.50	1210.06
387.70	1256.87
387.89	1268.57
388.09	1273.25
388.28	1156.22
388.48	1301.34
388.67	1404.32
388.86	1348.15
389.06	1301.34
389.25	1376.24
389.45	1280.27
389.64	1310.70
389.84	1263.89
390.03	1369.21
390.22	1350.49
390.42	1448.79
390.61	1394.96
390.81	1469.86
391.00	1416.02
391.19	1483.90
391.39	1437.09
391.58	1465.18
391.78	1544.75
391.97	1509.65
392.16	1385.60
392.36	1577.52
392.55	1540.07
392.75	1490.92
392.94	1533.05
393.13	1521.35
393.33	1455.81
393.52	1565.82
393.71	1554.12
393.91	1600.93
394.10	1647.74
394.29	1645.40
394.49	1526.03
394.68	1568.16
394.88	1629.01
395.07	1666.46
395.26	1689.87
395.46	1717.95
395.65	1645.40
395.84	1603.27
396.04	1776.47
396.23	1717.95
396.42	1783.49
396.62	1764.76
396.81	1675.82
397.00	1689.87
397.19	1856.04
397.39	1816.26
397.58	1804.55
397.77	1830.30
397.97	1839.66
398.16	1790.51
398.35	1804.55
398.55	1884.13
398.74	1973.07
398.93	1975.41
399.12	1919.24
399.32	1867.75
399.51	1919.24
399.70	2045.63
399.90	1984.77
400.09	2003.50
400.28	2033.93
400.47	2003.50
400.67	2104.14
400.86	2104.14
401.05	2057.33
401.24	2069.03
401.44	2174.36
401.63	2174.36
401.82	2181.38
402.01	2115.84
402.21	2120.53
402.40	2097.12
402.59	2101.80
402.78	2132.23
402.97	2211.81
403.17	2214.15
403.36	2242.23
403.55	2284.36
403.74	2399.05
403.93	2293.72
404.13	2272.66
404.32	2436.50
404.51	2417.77
404.70	2392.03
404.89	2471.61
405.09	2452.88
405.28	2502.03
405.47	2487.99
405.66	2558.21
405.85	2424.80
406.05	2469.27
406.24	2537.14
406.43	2619.06
406.62	2551.18
406.81	2759.49
407.00	2637.78
407.20	2686.94
407.39	2537.14
407.58	2649.49
407.77	2731.41
407.96	2715.02
408.15	2792.26
408.34	2715.02
408.54	2696.30
408.73	2827.37
408.92	2806.30
409.11	2799.28
409.30	2930.35
409.49	2897.58
409.68	3021.63
409.87	2871.84
410.07	2970.14
410.26	3075.46
410.45	2906.95
410.64	3068.44
410.83	3026.31
411.02	3171.43
411.21	3082.49
411.40	3049.72
411.59	3197.17
411.78	3197.17
411.98	3138.66
412.17	3325.90
412.36	3281.43
412.55	3368.03
412.74	3463.99
412.93	3300.16
413.12	3304.84
413.31	3515.48
413.50	3492.08
413.69	3480.38
413.88	3571.66
414.07	3571.66
414.26	3627.83
414.45	3716.77
414.64	3676.98
414.83	3737.84
415.02	3599.74
415.22	3920.40
415.41	3866.56
415.60	3878.27
415.79	3915.72
415.98	4023.38
416.17	3901.67
416.36	3978.91
416.55	3925.08
416.74	4107.64
416.93	3997.64
417.12	4046.79
417.31	4212.96
417.50	4304.25
417.69	4367.44
417.88	4229.35
418.07	4241.05
418.26	4259.78
418.45	4257.43
418.64	4393.19
418.83	4400.21
419.02	4503.19
419.21	4468.08
419.39	4545.32
419.58	4561.70
419.77	4461.06
419.96	4414.25
420.15	4643.62
420.34	4589.79
420.53	4477.44
420.72	4608.51
420.91	4758.31
421.10	4755.97
421.29	4692.77
421.48	4667.03
421.67	4847.25
421.86	4779.37
422.05	4765.33
422.24	4924.49
422.43	4947.89
422.61	4753.63
422.80	4844.91
422.99	4968.96
423.18	4905.76
423.37	5076.62
423.56	4842.57
423.75	4844.91
423.94	4784.06
424.13	4645.96
424.32	4821.50
424.50	4947.89
424.69	5203.01
424.88	5078.96
425.07	4964.28
425.26	4929.17
425.45	5025.13
425.64	4987.68
425.83	4975.98
426.01	5034.49
426.20	5132.79
426.39	5022.79
426.58	5020.45
426.77	4957.25
426.96	5203.01
427.15	5181.95
427.33	5184.29
427.52	5125.77
427.71	5146.84
427.90	5214.71
428.09	5205.35
428.28	5469.83
428.46	5467.49
428.65	5301.31
428.84	5561.11
429.03	5397.28
429.22	5242.80
429.40	5406.64
429.59	5563.45
429.78	5228.76
429.97	5195.99
430.16	5373.87
430.34	5584.52
430.53	5722.61
430.72	5703.89
430.91	5579.84
431.10	5521.32
431.28	5521.32
431.47	5650.05
431.66	5912.19
431.85	5823.25
432.03	5947.30
432.22	5961.34
432.41	5834.96
432.60	6010.50
432.79	5837.30
432.97	6150.93
433.16	5900.49
433.35	5977.73
433.54	6127.52
433.72	6148.59
433.91	6129.86
434.10	6026.88
434.28	6132.20
434.47	6232.85
434.66	6232.85
434.85	6251.57
435.03	6272.64
435.22	6317.11
435.41	6438.81
435.59	6403.71
435.78	6513.71
435.97	6413.07
436.16	6370.94
436.34	6464.56
436.53	6539.46
436.72	6574.56
436.90	6384.98
437.09	6707.98
437.28	6396.68
437.46	6602.65
437.65	6516.05
437.84	6700.95
438.02	6801.60
438.21	6607.33
438.40	6813.30
438.58	6965.43
438.77	6857.77
438.96	6836.70
439.14	6995.86
439.33	7101.19
439.52	7227.57
439.70	7171.40
439.89	7241.62
440.08	7456.95
440.26	7426.52
440.45	7356.30
440.63	7515.46
440.82	7623.12
441.01	7529.50
441.19	7665.25
441.38	7742.49
441.57	7960.16
441.75	7969.52
441.94	7962.50
442.12	7920.37
442.31	8032.72
442.50	8056.12
442.68	7936.76
442.87	8037.40
443.05	8208.26
443.24	8203.58
443.43	8030.38
443.61	8084.21
443.80	8299.54
443.98	8049.10
444.17	7892.29
444.35	8182.51
444.54	8388.48
444.73	8212.94
444.91	8423.59
445.10	8336.99
445.28	8332.31
445.47	8334.65
445.65	8299.54
445.84	8390.82
446.02	8238.69
446.21	8470.40
446.39	8388.48
446.58	8454.02
446.77	8489.12
446.95	8215.28
447.14	8435.29
447.32	8559.34
447.51	8493.80
447.69	8320.60
447.88	8524.23
448.06	8444.65
448.25	8500.83
448.43	8587.43
448.62	8425.93
448.80	8692.75
448.99	8631.90
449.17	8718.50
449.36	8409.54
449.54	8837.86
449.73	8889.35
449.91	9006.38
450.10	8716.16
450.28	8945.53
450.46	8945.53
450.65	9027.45
450.83	9071.92
451.02	8898.72
451.20	9184.26
451.39	9123.41
451.57	8992.34
451.76	9135.11
451.94	9137.45
452.13	9270.86
452.31	9430.02
452.49	9074.26
452.68	9275.54
452.86	9455.76
453.05	9373.85
453.23	9324.69
453.42	9397.25
453.60	9245.12
453.78	9406.61
453.97	9455.76
454.15	9605.56
454.34	9572.79
454.52	9724.93
454.70	9776.42
454.89	9830.25
455.07	9788.12
455.26	9954.30
455.44	10047.92
455.62	9823.23
455.81	9715.56
455.99	9937.91
456.17	10050.26
456.36	9998.77
456.54	10087.71
456.73	10331.12
456.91	10754.76
457.09	10642.42
457.28	10597.95
457.46	10333.47
457.64	10532.41
457.83	10560.50
458.01	10394.32
458.19	10684.55
458.38	10572.20
458.56	10726.68
458.74	10602.63
458.93	10794.55
459.11	10672.84
459.29	10768.80
459.48	10801.57
459.66	10848.38
459.84	10991.16
460.03	11009.88
460.21	10888.17
460.39	10909.24
460.57	10766.46
460.76	11009.88
460.94	11323.51
461.12	11393.73
461.31	11201.80
461.49	11098.82
461.67	11080.10
461.85	11548.20
462.04	11154.99
462.22	11850.13
462.40	11571.61
462.59	11520.12
462.77	11421.81
462.95	11527.14
463.13	11421.81
463.32	11674.59
463.50	11716.72
463.68	11793.96
463.86	11864.18
464.05	11796.30
464.23	11494.37
464.41	11833.75
464.59	11641.82
464.78	12049.08
464.96	11946.09
465.14	11686.29
465.32	11805.66
465.50	12241.00
465.69	12231.64
465.87	12252.70
466.05	12184.83
466.23	12123.98
466.41	11974.18
466.60	12236.32
466.78	12084.19
466.96	12116.95
467.14	12325.26
467.32	12264.41
467.51	12379.09
467.69	11978.86
467.87	12435.27
468.05	12571.02
468.23	12397.82
468.41	12362.71
468.60	12891.67
468.78	12706.77
468.96	12517.18
469.14	12674.00
469.32	12863.58
469.50	12358.03
469.69	13139.77
469.87	13149.13
470.05	13174.88
470.23	12959.55
470.41	13202.96
470.59	13160.83
470.77	13020.40
470.95	13390.20
471.14	13692.13
471.32	13055.51
471.50	13472.12
471.68	13586.81
471.86	13734.26
472.04	13537.66
472.22	14038.53
472.40	13774.05
472.58	13837.25
472.77	13685.11
472.95	14101.73
473.13	14518.34
473.31	14239.82
473.49	14010.45
473.67	13973.00
473.85	14202.37
474.03	14504.30
474.21	14516.00
474.39	14747.72
474.57	14523.02
474.75	14733.67
474.93	15218.16
475.12	14789.85
475.30	15185.40
475.48	14993.47
475.66	15089.43
475.84	15129.22
476.02	15351.57
476.20	15213.48
476.38	15618.39
476.56	16119.27
476.74	16142.67
476.92	15857.13
477.10	15969.48
477.28	16009.26
477.46	16112.25
477.64	16374.39
477.82	16489.07
478.00	16861.22
478.18	16673.98
478.36	16781.64
478.54	17212.30
478.72	17184.21
478.90	17205.28
479.08	17537.63
479.26	17685.09
479.44	17703.81
479.62	17942.55
479.80	17987.02
479.98	18106.38
480.16	18464.49
480.34	18211.71
480.52	18342.78
480.70	18581.51
480.88	18499.59
481.06	18766.42
481.24	19033.24
481.41	19286.01
481.59	19297.72
481.77	19475.60
481.95	19445.17
482.13	19948.39
482.31	19510.71
482.49	20184.78
482.67	20294.79
482.85	20680.97
483.03	20781.62
483.21	20695.02
483.39	20566.29
483.57	20748.85
483.74	21025.03
483.92	21326.96
484.10	21479.10
484.28	21556.33
484.46	22125.08
484.64	22188.28
484.82	21748.26
485.00	22335.73
485.18	22618.94
485.35	23105.77
485.53	22731.28
485.71	22834.27
485.89	23543.45
486.07	23157.26
486.25	23309.40
486.43	23772.82
486.61	23908.57
486.78	24065.39
486.96	23988.15
487.14	24435.19
487.32	24636.48
487.50	24961.81
487.68	25109.27
487.85	25039.05
488.03	25249.70
488.21	25736.53
488.39	25731.85
488.57	26204.64
488.75	26228.04
488.92	26579.12
489.10	26850.63
489.28	26906.80
489.46	27037.87
489.64	27101.06
489.81	27562.15
489.99	27576.19
490.17	27730.67
490.35	28002.17
490.53	28116.86
490.70	28559.22
490.88	28072.39
491.06	28556.88
491.24	28828.38
491.41	28772.21
491.59	29127.97
491.77	29303.51
491.95	29469.69
492.13	29790.34
492.30	29958.86
492.48	30232.70
492.66	30122.69
492.84	30176.53
493.01	30396.54
493.19	30558.03
493.37	31033.16
493.54	30888.05
493.72	31454.46
493.90	31021.46
494.08	31454.46
494.25	32142.58
494.43	31873.42
494.61	32437.48
494.79	32236.20
494.96	32189.39
495.14	32687.92
495.32	33081.13
495.49	33060.07
495.67	33022.62
495.85	33359.66
496.02	33418.17
496.20	33464.98
496.38	33926.07
496.55	33713.08
496.73	34682.06
496.91	34258.42
497.09	34820.15
497.26	35124.42
497.44	35019.10
497.62	35058.88
497.79	35857.01
497.97	35084.63
498.14	35803.17
498.32	36093.40
498.50	36053.61
498.67	36114.47
498.85	36477.25
499.03	36488.95
499.20	36491.29
499.38	37092.81
499.56	36669.17
499.73	36980.46
499.91	37134.94
500.08	37881.57
500.26	37443.89
500.44	38239.67
500.61	38024.34
500.79	37626.45
500.97	37940.08
501.14	38621.18
501.32	38792.04
501.49	38073.49
501.67	38880.98
501.84	38497.13
502.02	38431.60
502.20	39206.31
502.37	39725.91
502.55	39257.81
502.72	39173.55
502.90	39168.87
503.07	39386.54
503.25	39498.88
503.43	39777.40
503.60	39702.51
503.78	40285.30
503.95	40189.34
504.13	40039.54
504.30	40481.91
504.48	40545.10
504.65	40304.02
504.83	40903.20
505.01	41223.86
505.18	41336.20
505.36	41656.85
505.53	40910.22
505.71	41488.34
505.88	41771.54
506.06	41579.62
506.23	41574.94
506.41	41663.88
506.58	41764.52
506.76	42176.45
506.93	42333.27
507.11	42557.96
507.28	42464.34
507.46	42522.85
507.63	43091.60
507.81	43180.54
507.98	42817.76
508.16	43196.93
508.33	43641.63
508.50	43508.22
508.68	43349.06
508.85	44247.83
509.03	43536.30
509.20	43838.23
509.38	44512.31
509.55	44294.64
509.73	44083.99
509.90	44481.88
510.08	44271.23
510.25	44641.04
510.42	44835.30
510.60	44676.15
510.77	44966.37
510.95	45277.66
511.12	45277.66
511.30	45230.85
511.47	45200.43
511.64	45521.08
511.82	45591.30
511.99	45553.85
512.17	45977.48
512.34	45844.07
512.51	46424.53
512.69	46518.15
512.86	45890.88
513.04	46684.33
513.21	46335.59
513.38	47168.82
513.56	46789.65
513.73	46717.09
513.90	46997.96
514.08	47194.56
514.25	47096.26
514.43	46918.38
514.60	47454.36
514.77	47133.71
514.95	47690.76
515.12	47445.00
515.29	47327.97
515.47	47704.80
515.64	48074.60
515.81	47927.15
515.99	47840.55
516.16	48175.25
516.33	48418.66
516.51	48547.39
516.68	48467.81
516.85	48715.91
517.03	48584.84
517.20	48952.30
517.37	48933.58
517.54	48514.62
517.72	48964.01
517.89	48931.24
518.06	49279.98
518.24	49109.12
518.41	49207.42
518.58	49549.14
518.75	49074.01
518.93	49443.82
519.10	49244.87
519.27	49628.72
519.45	49907.24
519.62	49717.66
519.79	49661.49
519.96	49888.52
520.14	50141.30
520.31	50440.89
520.48	50445.57
520.65	50389.39
520.83	50417.48
521.00	50782.60
521.17	50190.45
521.34	50473.65
521.52	50679.62
521.69	50696.00
521.86	50817.71
522.03	51299.86
522.20	51468.38
522.38	51536.26
522.55	51217.94
522.72	51222.62
522.89	51014.32
523.07	51576.04
523.24	51217.94
523.41	51433.27
523.58	51407.53
523.75	51796.06
523.92	51679.03
524.10	51966.91
524.27	52039.47
524.44	51889.68
524.61	52172.88
524.78	52294.59
524.96	52301.61
525.13	52158.84
525.30	52002.02
525.47	52458.43
525.64	52367.15
525.81	52624.60
525.98	52657.37
526.16	52285.23
526.33	52601.20
526.50	53038.88
526.67	52669.08
526.84	53102.07
527.01	52975.69
527.18	52987.39
527.36	52718.23
527.53	53254.21
527.70	53696.57
527.87	52982.71
528.04	52877.38
528.21	53186.33
528.38	53375.92
528.55	53591.25
528.72	53490.60
528.89	53336.13
529.07	53577.20
529.24	53357.19
529.41	53481.24
529.58	53511.67
529.75	53347.83
529.92	53715.29
530.09	53521.03
530.26	53808.92
530.43	53794.87
530.60	53635.72
530.77	53806.58
530.94	54152.97
531.11	53710.61
531.28	54045.31
531.46	54328.52
531.63	54138.93
531.80	53883.81
531.97	54585.97
532.14	54330.86
532.31	54415.11
532.48	54295.75
532.65	54780.24
532.82	54384.69
532.99	54710.02
533.16	54375.33
533.33	54597.68
533.50	54883.22
533.67	54735.77
533.84	54597.68
534.01	54944.08
534.18	54824.71
534.35	55281.11
534.52	54934.71
534.69	55154.72
534.86	55428.57
535.03	54972.16
535.20	55114.94
535.37	55220.26
535.54	55295.16
535.71	55231.96
535.88	55339.63
536.05	55311.54
536.22	55646.24
536.38	55515.17
536.55	55739.86
536.72	55709.43
536.89	55484.74
537.06	55444.95
537.23	55749.22
537.40	55608.79
537.57	55880.29
537.74	55615.81
537.91	55887.31
538.08	55962.21
538.25	55576.02
538.42	55746.88
538.59	55971.57
538.75	55824.12
538.92	56058.17
539.09	56184.56
539.26	56128.39
539.43	56018.38
539.60	56287.54
539.77	56109.66
539.94	56488.83
540.11	56266.48
540.28	56179.88
540.44	56425.64
540.61	56449.04
540.78	56495.85
540.95	56420.95
541.12	56247.75
541.29	56292.22
541.46	56360.10
541.62	56491.17
541.79	56676.07
541.96	56327.33
542.13	56540.32
542.30	56427.98
542.47	56914.81
542.63	56722.88
542.80	56814.16
542.97	57057.58
543.14	57366.53
543.31	57181.63
543.48	57141.84
543.64	57331.42
543.81	57441.43
543.98	57308.02
544.15	57153.54
544.32	57389.94
544.48	57668.46
544.65	57186.31
544.82	57291.63
544.99	57233.12
545.16	57373.55
545.32	57413.34
545.49	57696.55
545.66	57801.87
545.83	57467.17
546.00	57785.49
546.16	57680.16
546.33	57312.70
546.50	57399.30
546.67	57677.82
546.83	57532.71
547.00	57649.74
547.17	57715.27
547.34	57799.53
547.50	57888.47
547.67	57942.30
547.84	57977.41
548.00	57993.79
548.17	58246.57
548.34	58190.40
548.51	58155.29
548.67	58293.38
548.84	58204.44
549.01	58054.65
549.18	58234.87
549.34	58305.09
549.51	58232.53
549.68	58312.11
549.84	58033.58
550.01	58279.34
550.18	58199.76
550.34	58426.79
550.51	58293.38
550.68	58209.12
550.84	57958.69
551.01	58698.30
551.18	58501.69
551.34	58529.78
551.51	58438.50
551.68	58480.63
551.84	58740.42
552.01	58616.38
552.18	58564.88
552.34	58548.50
552.51	58522.76
552.68	58431.47
552.84	58656.17
553.01	58988.52
553.18	58855.11
553.34	59070.44
553.51	58548.50
553.67	58693.61
553.84	58808.30
554.01	58922.99
554.17	58850.43
554.34	58892.56
554.51	58967.46
554.67	59114.91
554.84	59032.99
555.00	59091.51
555.17	58960.44
555.33	58932.35
555.50	58927.67
555.67	59082.14
555.83	59004.91
556.00	58965.12
556.16	59498.76
556.33	59412.16
556.50	59112.57
556.66	59304.49
556.83	58960.44
556.99	59131.29
557.16	59370.03
557.32	59522.16
557.49	59395.77
557.65	59306.83
557.82	59393.43
557.98	59185.13
558.15	59627.49
558.32	59566.63
558.48	59461.31
558.65	59423.86
558.81	59494.08
558.98	59473.01
559.14	59484.72
559.31	59697.70
559.47	59681.32
559.64	59791.33
559.80	59716.43
559.97	59770.26
560.13	59395.77
560.30	59564.29
560.46	59681.32
560.63	59868.56
560.79	59849.84
560.96	59704.73
561.12	59791.33
561.29	59784.30
561.45	59765.58
561.61	59877.93
561.78	59587.70
561.94	59573.66
562.11	59744.51
562.27	59648.55
562.44	60006.65
562.60	59969.21
562.77	59891.97
562.93	59730.47
563.10	60020.70
563.26	59686.00
563.42	60102.62
563.59	59985.59
563.75	60114.32
563.92	60037.08
564.08	59948.14
564.24	60009.00
564.41	60011.34
564.57	60189.22
564.74	60001.97
564.90	60074.53
565.07	60217.30
565.23	60123.68
565.39	60027.72
565.56	60219.64
565.72	60079.21
565.88	60104.96
566.05	60034.74
566.21	60079.21
566.38	60074.53
566.54	60308.58
566.70	60236.03
566.87	60441.99
567.03	60292.20
567.19	60477.10
567.36	60327.31
567.52	60252.41
567.68	60413.91
567.85	60254.75
568.01	60355.39
568.17	60362.42
568.34	60273.48
568.50	60271.14
568.66	60243.05
568.83	60189.22
568.99	60205.60
569.15	60135.38
569.32	60327.31
569.48	60229.01
569.64	60495.83
569.81	60416.25
569.97	60219.64
570.13	60364.76
570.30	60402.21
570.46	60397.52
570.62	60296.88
570.78	60348.37
570.95	60088.57
571.11	60559.02
571.27	60612.85
571.43	60364.76
571.60	60516.89
571.76	60444.33
571.92	60542.64
572.09	60423.27
572.25	60563.70
572.41	60374.12
572.57	60498.17
572.74	60816.48
572.90	60540.30
573.06	60575.40
573.22	60395.18
573.38	60547.32
573.55	60514.55
573.71	60652.64
573.87	60764.99
574.03	60486.46
574.20	60753.29
574.36	60664.35
574.52	60582.43
574.68	60697.11
574.84	60807.12
575.01	60781.37
575.17	60856.27
575.33	60374.12
575.49	60659.66
575.65	60633.92
575.82	60846.91
575.98	60804.78
576.14	60844.57
576.30	60591.79
576.46	60633.92
576.62	60657.32
576.79	60657.32
576.95	60561.36
577.11	60683.07
577.27	60947.55
577.43	60809.46
577.59	60652.64
577.75	60762.65
577.92	60481.78
578.08	60608.17
578.24	60786.05
578.40	60982.66
578.56	60959.25
578.72	60811.80
578.88	60919.46
579.04	60893.72
579.21	60889.04
579.37	61008.40
579.53	60954.57
579.69	60816.48
579.85	60676.05
580.01	60828.18
580.17	60612.85
580.33	60823.50
580.49	60973.30
580.65	60807.12
580.82	60919.46
580.98	60842.23
581.14	60832.86
581.30	60889.04
581.46	60938.19
581.62	60928.83
581.78	60814.14
581.94	60774.35
582.10	60891.38
582.26	60940.53
582.42	60711.16
582.58	60985.00
582.74	60940.53
582.90	60933.51
583.06	60816.48
583.22	60580.09
583.38	60807.12
583.54	60865.63
583.70	60992.02
583.86	61027.13
584.02	60821.16
584.18	61116.07
584.34	60917.12
584.50	60842.23
584.66	60992.02
584.82	60779.03
584.98	61160.54
585.14	61132.45
585.30	60954.57
585.46	61055.21
585.62	61071.60
585.78	61013.08
585.94	60858.61
586.10	61043.51
586.26	60952.23
586.42	61064.58
586.58	60987.34
586.74	60961.59
586.90	60889.04
587.06	60952.23
587.22	61137.13
587.38	61010.74
587.54	61258.84
587.70	61240.12
587.86	61071.60
588.02	61111.39
588.18	61179.26
588.34	60933.51
588.49	61104.37
