SpectraSuite Data File
++++++++++++++++++++++++++++++++++++
Date: Fri Oct 25 10:44:16 EDT 2013
User: price-jones
Dark Spectrum Present: No
Reference Spectrum Present: No
Number of Sampled Component Spectra: 1
Spectrometers: USB2+H05261
Integration Time (usec): 100000 (USB2+H05261)
Spectra Averaged: 1 (USB2+H05261)
Boxcar Smoothing: 0 (USB2+H05261)
Correct for Electrical Dark: No (USB2+H05261)
Strobe/Lamp Enabled: No (USB2+H05261)
Correct for Detector Non-linearity: No (USB2+H05261)
Correct for Stray Light: No (USB2+H05261)
Number of Pixels in Processed Spectrum: 2048
>>>>>Begin Processed Spectral Data<<<<<
365.73	182.56
365.92	182.56
366.12	182.56
366.32	42.13
366.52	0.00
366.72	44.47
366.91	14.04
367.11	117.03
367.31	51.49
367.51	0.00
367.70	44.47
367.90	44.47
368.10	11.70
368.30	44.47
368.49	4.68
368.69	14.04
368.89	93.62
369.09	49.15
369.28	98.30
369.48	72.56
369.68	81.92
369.87	154.48
370.07	67.88
370.27	114.69
370.47	187.24
370.66	456.40
370.86	430.66
371.06	461.09
371.25	479.81
371.45	479.81
371.65	477.47
371.84	407.25
372.04	505.56
372.24	486.83
372.44	552.37
372.63	500.87
372.83	433.00
373.03	458.74
373.22	538.32
373.42	461.09
373.62	545.34
373.81	610.88
374.01	601.52
374.21	643.65
374.40	552.37
374.60	589.82
374.79	627.26
374.99	526.62
375.19	489.17
375.38	524.28
375.58	547.69
375.78	557.05
375.97	559.39
376.17	648.33
376.37	578.11
376.56	610.88
376.76	613.22
376.95	601.52
377.15	697.48
377.35	631.94
377.54	606.20
377.74	667.05
377.93	620.24
378.13	638.97
378.33	704.50
378.52	648.33
378.72	645.99
378.91	655.35
379.11	566.41
379.31	528.96
379.50	615.56
379.70	695.14
379.89	671.73
380.09	653.01
380.28	681.10
380.48	685.78
380.68	725.57
380.87	711.52
381.07	692.80
381.26	645.99
381.46	720.88
381.65	795.78
381.85	645.99
382.04	748.97
382.24	781.74
382.43	674.07
382.63	641.31
382.83	732.59
383.02	720.88
383.22	800.46
383.41	788.76
383.61	800.46
383.80	730.25
384.00	723.23
384.19	746.63
384.39	880.04
384.58	826.21
384.78	847.27
384.97	765.36
385.17	770.04
385.36	765.36
385.56	753.65
385.75	791.10
385.95	805.14
386.14	847.27
386.34	854.30
386.53	910.47
386.72	870.68
386.92	891.74
387.11	863.66
387.31	868.34
387.50	802.80
387.70	947.92
387.89	957.28
388.09	870.68
388.28	945.58
388.48	870.68
388.67	915.15
388.86	884.72
389.06	1011.11
389.25	999.41
389.45	971.32
389.64	943.24
389.84	999.41
390.03	1006.43
390.22	978.34
390.42	976.00
390.61	1043.88
390.81	1074.31
391.00	1130.48
391.19	1027.50
391.39	1029.84
391.58	1123.46
391.78	1050.90
391.97	992.39
392.16	1025.15
392.36	1036.86
392.55	1015.79
392.75	997.07
392.94	945.58
393.13	990.05
393.33	1004.09
393.52	1015.79
393.71	1130.48
393.91	1076.65
394.10	1109.41
394.29	1188.99
394.49	1226.44
394.68	1151.54
394.88	1165.59
395.07	1270.91
395.26	1219.42
395.46	1287.29
395.65	1254.53
395.84	1240.48
396.04	1254.53
396.23	1191.33
396.42	1179.63
396.62	1231.12
396.81	1203.04
397.00	1268.57
397.19	1294.32
397.39	1240.48
397.58	1352.83
397.77	1336.45
397.97	1350.49
398.16	1378.58
398.35	1472.20
398.55	1446.45
398.74	1540.07
398.93	1596.25
399.12	1455.81
399.32	1572.84
399.51	1519.01
399.70	1661.78
399.90	1558.80
400.09	1657.10
400.28	1565.82
400.47	1551.78
400.67	1710.93
400.86	1614.97
401.05	1647.74
401.24	1720.29
401.44	1596.25
401.63	1781.15
401.82	1689.87
402.01	1652.42
402.21	1680.50
402.40	1692.21
402.59	1687.53
402.78	1708.59
402.97	1736.68
403.17	1834.98
403.36	1736.68
403.55	1769.44
403.74	1902.86
403.93	1895.83
404.13	1849.02
404.32	1811.57
404.51	1870.09
404.70	1966.05
404.89	1975.41
405.09	1956.69
405.28	1970.73
405.47	1806.89
405.66	1970.73
405.85	1956.69
406.05	2092.44
406.24	1994.14
406.43	2139.25
406.62	2026.90
406.81	2155.63
407.00	2085.42
407.20	1998.82
407.39	2122.87
407.58	2162.66
407.77	2200.10
407.96	2193.08
408.15	2200.10
408.34	2239.89
408.54	2209.47
408.73	2436.50
408.92	2347.56
409.11	2251.60
409.30	2368.62
409.49	2289.04
409.68	2225.85
409.87	2193.08
410.07	2300.75
410.26	2394.37
410.45	2373.30
410.64	2410.75
410.83	2628.42
411.02	2586.29
411.21	2471.61
411.40	2457.56
411.59	2605.02
411.78	2572.25
411.98	2565.23
412.17	2689.28
412.36	2588.63
412.55	2747.79
412.74	2686.94
412.93	2761.83
413.12	2729.06
413.31	2832.05
413.50	2855.45
413.69	2750.13
413.88	2918.65
414.07	2904.60
414.26	3021.63
414.45	2960.78
414.64	2925.67
414.83	3049.72
415.02	3096.53
415.22	3155.04
415.41	2918.65
415.60	3033.33
415.79	3133.98
415.98	3246.32
416.17	3197.17
416.36	3201.85
416.55	3222.92
416.74	3309.52
416.93	3283.77
417.12	3344.63
417.31	3288.45
417.50	3454.63
417.69	3499.10
417.88	3272.07
418.07	3407.82
418.26	3459.31
418.45	3400.80
418.64	3566.98
418.83	3602.08
419.02	3531.87
419.21	3616.13
419.39	3707.41
419.58	3578.68
419.77	3520.17
419.96	3658.26
420.15	3878.27
420.34	3684.00
420.53	3655.92
420.72	3833.80
420.91	3698.05
421.10	3796.35
421.29	3969.55
421.48	3768.26
421.67	3812.73
421.86	3817.41
422.05	3815.07
422.24	3782.31
422.43	3805.71
422.61	3810.39
422.80	3957.85
422.99	4014.02
423.18	3927.42
423.37	3943.80
423.56	3920.40
423.75	3854.86
423.94	3810.39
424.13	3721.45
424.32	3822.09
424.50	3873.59
424.69	4018.70
424.88	3953.16
425.07	3887.63
425.26	3791.67
425.45	3999.98
425.64	3794.01
425.83	4002.32
426.01	3854.86
426.20	4037.42
426.39	4035.08
426.58	3997.64
426.77	3997.64
426.96	3960.19
427.15	3857.20
427.33	4004.66
427.52	3995.29
427.71	4138.07
427.90	3957.85
428.09	4060.83
428.28	4187.22
428.46	4191.90
428.65	4138.07
428.84	4266.80
429.03	4315.95
429.22	4084.23
429.40	4210.62
429.59	4058.49
429.78	3967.21
429.97	3859.54
430.16	4035.08
430.34	3971.89
430.53	4177.86
430.72	4095.94
430.91	4318.29
431.10	4355.74
431.28	4620.22
431.47	4557.02
431.66	4678.73
431.85	4505.53
432.03	4575.75
432.22	4734.90
432.41	4472.76
432.60	4622.56
432.79	4732.56
432.97	4676.39
433.16	4809.80
433.35	4624.90
433.54	4571.07
433.72	4645.96
433.91	4809.80
434.10	4589.79
434.28	4669.37
434.47	4847.25
434.66	5015.77
434.85	4947.89
435.03	5032.15
435.22	4777.03
435.41	5259.18
435.59	5193.65
435.78	5139.82
435.97	5085.98
436.16	5043.85
436.34	5137.48
436.53	5191.31
436.72	5247.48
436.90	5043.85
437.09	5025.13
437.28	5181.95
437.46	5093.01
437.65	5249.82
437.84	5163.22
438.02	5231.10
438.21	5284.93
438.40	5109.39
438.58	5434.72
438.77	5460.47
438.96	5352.81
439.14	5537.71
439.33	5619.63
439.52	5589.20
439.70	5647.71
439.89	5605.58
440.08	5692.18
440.26	5809.21
440.45	5865.38
440.63	5860.70
440.82	6010.50
441.01	5975.39
441.19	5959.00
441.38	6080.71
441.57	6132.20
441.75	6214.12
441.94	6106.46
442.12	6373.28
442.31	6349.87
442.50	6431.79
442.68	6225.82
442.87	6286.68
443.05	6265.61
443.24	6539.46
443.43	6436.47
443.61	6392.00
443.80	6527.75
443.98	6284.34
444.17	6403.71
444.35	6413.07
444.54	6759.47
444.73	6516.05
444.91	6558.18
445.10	6455.20
445.28	6518.39
445.47	6380.30
445.65	6408.39
445.84	6389.66
446.02	6513.71
446.21	6619.04
446.39	6679.89
446.58	6684.57
446.77	6698.61
446.95	6511.37
447.14	6717.34
447.32	6572.22
447.51	6576.91
447.69	6558.18
447.88	6665.85
448.06	6677.55
448.25	6635.42
448.43	6712.66
448.62	6700.95
448.80	6927.99
448.99	6616.69
449.17	6750.10
449.36	6684.57
449.54	6923.30
449.73	6960.75
449.91	7066.08
450.10	7159.70
450.28	7148.00
450.46	7246.30
450.65	7131.61
450.83	7255.66
451.02	7112.89
451.20	7173.74
451.39	7115.23
451.57	6972.46
451.76	7314.17
451.94	7302.47
452.13	7241.62
452.31	7155.02
452.49	7365.67
452.68	7187.79
452.86	7157.36
453.05	7269.70
453.23	7325.88
453.42	7159.70
453.60	7269.70
453.78	7555.25
453.97	7297.79
454.15	7522.48
454.34	7283.75
454.52	7669.94
454.70	7513.12
454.89	7566.95
455.07	7609.08
455.26	7463.97
455.44	7634.83
455.62	7637.17
455.81	7969.52
455.99	7861.86
456.17	7492.05
456.36	7749.51
456.54	8056.12
456.73	7946.12
456.91	8065.49
457.09	8016.33
457.28	8194.22
457.46	7894.63
457.64	8248.05
457.83	8056.12
458.01	8070.17
458.19	8285.50
458.38	8170.81
458.56	8299.54
458.74	8245.71
458.93	8280.82
459.11	8245.71
459.29	8028.04
459.48	8334.65
459.66	8219.96
459.84	8411.89
460.03	8411.89
460.21	8432.95
460.39	8498.49
460.57	8589.77
460.76	8624.87
460.94	8737.22
461.12	8706.79
461.31	8683.39
461.49	8524.23
461.67	8720.84
461.85	8922.12
462.04	8847.22
462.22	9048.51
462.40	8870.63
462.59	8786.37
462.77	8954.89
462.95	8870.63
463.13	8699.77
463.32	9001.70
463.50	8931.48
463.68	9074.26
463.86	8905.74
464.05	8844.88
464.23	9132.77
464.41	8908.08
464.59	8800.41
464.78	9430.02
464.96	9341.08
465.14	9041.49
465.32	9207.67
465.50	9249.80
465.69	9490.87
465.87	9259.16
466.05	9036.81
466.23	9174.90
466.41	9263.84
466.60	9432.36
466.78	9174.90
466.96	9205.33
467.14	9366.82
467.32	9437.04
467.51	9453.42
467.69	9224.05
467.87	9451.08
468.05	9640.67
468.23	9455.76
468.41	9516.62
468.60	9544.70
468.78	9664.07
468.96	9317.67
469.14	9563.43
469.32	9750.67
469.50	9554.07
469.69	9792.80
469.87	9659.39
470.05	9863.02
470.23	9624.28
470.41	9806.84
470.59	10195.37
470.77	9781.10
470.95	10012.81
471.14	10120.48
471.32	9832.59
471.50	10574.54
471.68	10307.72
471.86	10239.84
472.04	10305.38
472.22	10525.39
472.40	10146.22
472.58	10352.19
472.77	10448.15
472.95	10363.89
473.13	10878.81
473.31	10544.11
473.49	10396.66
473.67	10551.14
473.85	10626.03
474.03	11030.94
474.21	10832.00
474.39	11225.21
474.57	11049.67
474.75	11061.37
474.93	11246.27
475.12	11246.27
475.30	11049.67
475.48	11332.87
475.66	11274.36
475.84	11049.67
476.02	11492.03
476.20	11325.85
476.38	11559.91
476.56	11936.73
476.74	11770.55
476.92	11915.67
477.10	11817.36
477.28	11988.22
477.46	12095.89
477.64	11981.20
477.82	12280.79
478.00	12596.76
478.18	12409.52
478.36	12711.45
478.54	12538.25
478.72	12847.20
478.90	12753.58
479.08	12982.95
479.26	13163.17
479.44	13104.66
479.62	13165.51
479.80	13275.52
479.98	13458.08
480.16	13596.17
480.34	13448.72
480.52	13769.37
480.70	13635.96
480.88	13561.06
481.06	13839.59
481.24	14073.64
481.41	14167.26
481.59	14239.82
481.77	14476.21
481.95	14387.27
482.13	14604.94
482.31	14546.43
482.49	14817.93
482.67	15026.24
482.85	15033.26
483.03	14913.89
483.21	15159.65
483.39	15272.00
483.57	15398.38
483.74	15295.40
483.92	15620.74
484.10	15882.88
484.28	15817.34
484.46	16290.13
484.64	16414.18
484.82	15861.81
485.00	16196.51
485.18	16542.91
485.35	16465.67
485.53	16332.26
485.71	16208.21
485.89	16376.73
486.07	16500.78
486.25	16620.14
486.43	16603.76
486.61	17156.13
486.78	17350.39
486.96	17530.61
487.14	17547.00
487.32	17539.97
487.50	17750.62
487.68	18167.24
487.85	18466.83
488.03	18335.76
488.21	18640.03
488.39	18263.20
488.57	18260.86
488.75	18881.10
488.92	19070.68
489.10	19475.60
489.28	19679.22
489.46	19681.56
489.64	19653.48
489.81	20166.06
489.99	20191.80
490.17	20170.74
490.35	20304.15
490.53	20208.19
490.70	20835.45
490.88	20240.95
491.06	20636.50
491.24	20456.28
491.41	20482.03
491.59	20671.61
491.77	20751.19
491.95	21172.49
492.13	21263.77
492.30	21542.29
492.48	21624.21
492.66	21734.21
492.84	21706.13
493.01	21994.01
493.19	22141.47
493.37	21907.41
493.54	22139.13
493.72	22518.29
493.90	22897.46
494.08	22754.69
494.25	22960.66
494.43	23344.50
494.61	23110.45
494.79	23690.90
494.96	23442.81
495.14	23421.74
495.32	23697.92
495.49	23793.89
495.67	23850.06
495.85	23957.72
496.02	24091.13
496.20	24517.11
496.38	24135.60
496.55	24489.03
496.73	25006.28
496.91	25104.59
497.09	24861.17
497.26	24966.49
497.44	25064.80
497.62	25039.05
497.79	25315.23
497.97	25090.54
498.14	25488.43
498.32	25696.74
498.50	25528.22
498.67	26183.57
498.85	25811.43
499.03	26253.79
499.20	26403.58
499.38	25942.50
499.56	26558.06
499.73	26352.09
499.91	26560.40
500.08	26597.85
500.26	26705.51
500.44	26707.85
500.61	26679.77
500.79	26691.47
500.97	26609.55
501.14	27094.04
501.32	27040.21
501.49	26925.52
501.67	27264.90
501.84	27239.15
502.02	27569.17
502.20	27854.72
502.37	27803.22
502.55	27641.73
502.72	27756.41
502.90	28006.85
503.07	28163.67
503.25	28173.03
503.43	27751.73
503.60	28257.29
503.78	28444.53
503.95	28107.49
504.13	27997.49
504.30	28767.52
504.48	28608.37
504.65	28844.76
504.83	29067.11
505.01	28793.27
505.18	29146.69
505.36	29420.53
505.53	29385.43
505.71	29876.94
505.88	29879.28
506.06	29158.39
506.23	30045.46
506.41	29429.90
506.58	29752.89
506.76	29865.24
506.93	30061.84
507.11	29876.94
507.28	30206.95
507.46	29855.87
507.63	30075.88
507.81	30375.47
507.98	30110.99
508.16	29893.32
508.33	30288.87
508.50	30534.63
508.68	30698.47
508.85	31218.07
509.03	30789.75
509.20	31314.03
509.38	31534.04
509.55	31360.84
509.73	31243.81
509.90	31417.01
510.08	31337.43
510.25	31351.48
510.42	31786.82
510.60	31854.69
510.77	31587.87
510.95	32058.32
511.12	31470.84
511.30	32407.06
511.47	32222.16
511.64	32673.88
511.82	32470.25
511.99	31868.73
512.17	32278.33
512.34	32435.14
512.51	32622.39
512.69	32905.59
512.86	32713.67
513.04	33076.45
513.21	32905.59
513.38	33036.66
513.56	33230.93
513.73	32807.29
513.90	32943.04
514.08	32821.33
514.25	33387.74
514.43	32833.04
514.60	33125.60
514.77	33099.86
514.95	33802.02
515.12	33294.12
515.29	33825.42
515.47	34340.34
515.64	34239.70
515.81	33560.94
515.99	34085.22
516.16	33926.07
516.33	33617.11
516.51	33394.76
516.68	33237.95
516.85	33134.96
517.03	33862.87
517.20	33617.11
517.37	34089.90
517.54	34132.03
517.72	33991.60
517.89	33876.91
518.06	34335.66
518.24	33998.62
518.41	34621.20
518.58	34756.96
518.75	34691.42
518.93	34934.84
519.10	34726.53
519.27	34836.53
519.45	35194.64
519.62	35037.82
519.79	35468.48
519.96	35161.87
520.14	35646.36
520.31	35480.18
520.48	35461.46
520.65	35297.62
520.83	36053.61
521.00	36009.14
521.17	35859.35
521.34	35807.86
521.52	35915.52
521.69	35906.16
521.86	36332.14
522.03	36245.54
522.20	36479.59
522.38	36315.75
522.55	35906.16
522.72	36121.49
522.89	35901.48
523.07	36676.19
523.24	36245.54
523.41	37191.11
523.58	36884.50
523.75	37532.83
523.92	37221.54
524.10	37397.08
524.27	37315.16
524.44	37589.00
524.61	37940.08
524.78	37509.43
524.96	37317.50
525.13	36980.46
525.30	37329.20
525.47	37621.77
525.64	38176.48
525.81	37710.71
525.98	37701.35
526.16	37490.70
526.33	37551.56
526.50	37446.23
526.67	37043.66
526.84	37352.61
527.01	36935.99
527.18	38110.94
527.36	38153.07
527.53	38230.31
527.70	38457.34
527.87	38913.75
528.04	38649.27
528.21	38913.75
528.38	38593.09
528.55	39105.67
528.72	38969.92
528.89	39192.27
529.07	38934.81
529.24	38595.43
529.41	38691.40
529.58	38916.09
529.75	38845.87
529.92	39154.82
530.09	39037.80
530.26	39274.19
530.43	39248.44
530.60	39494.20
530.77	39220.36
530.94	39192.27
531.11	39201.63
531.28	39522.29
531.46	39629.95
531.63	39606.55
531.80	39716.55
531.97	39599.52
532.14	39105.67
532.31	39379.51
532.48	39154.82
532.65	39777.40
532.82	39901.45
532.99	40168.27
533.16	39225.04
533.33	39962.31
533.50	40074.65
533.67	39861.66
533.84	40065.29
534.01	40034.86
534.18	39995.07
534.35	40231.47
534.52	40414.03
534.69	40399.99
534.86	40446.80
535.03	40065.29
535.20	40711.28
535.37	40751.07
535.54	41020.23
535.71	40732.34
535.88	40676.17
536.05	40584.89
536.22	40669.15
536.38	40648.08
536.55	40882.14
536.72	40739.36
536.89	40538.08
537.06	40804.90
537.23	40933.63
537.40	41036.61
537.57	41305.77
537.74	41294.07
537.91	41591.32
538.08	40844.69
538.25	40931.29
538.42	41198.11
538.59	41455.57
538.75	41294.07
538.92	41366.63
539.09	41471.95
539.26	41078.74
539.43	41668.56
539.60	41425.14
539.77	41284.71
539.94	41254.28
540.11	41471.95
540.28	41408.76
540.44	41509.40
540.61	41263.64
540.78	41837.08
540.95	41483.66
541.12	41434.50
541.29	41855.80
541.46	42059.43
541.62	42146.03
541.79	41921.34
541.96	41635.79
542.13	42017.30
542.30	41743.45
542.47	41720.05
542.63	42408.17
542.80	42181.13
542.97	42539.24
543.14	43075.22
543.31	42794.36
543.48	42618.81
543.64	43014.37
543.81	42780.31
543.98	43037.77
544.15	42946.49
544.32	43349.06
544.48	43459.07
544.65	42817.76
544.82	42986.28
544.99	42712.44
545.16	43023.73
545.32	42567.32
545.49	43650.99
545.66	43423.96
545.83	43323.32
546.00	42911.38
546.16	43381.83
546.33	43012.02
546.50	42770.95
546.67	42909.04
546.83	42836.48
547.00	43042.45
547.17	43222.67
547.34	43452.05
547.50	43330.34
547.67	43529.28
547.84	43222.67
548.00	43604.18
548.17	44079.31
548.34	43913.13
548.51	44238.47
548.67	44137.82
548.84	43985.69
549.01	43594.82
549.18	43779.72
549.34	43669.72
549.51	43840.57
549.68	44189.31
549.84	43976.33
550.01	43744.61
550.18	44144.84
550.34	44065.27
550.51	43559.71
550.68	44395.28
550.84	43763.34
551.01	44051.22
551.18	44261.87
551.34	44203.36
551.51	44219.74
551.68	44364.85
551.84	44491.24
552.01	44474.86
552.18	44318.04
552.34	44311.02
552.51	44355.49
552.68	43920.15
552.84	44566.14
553.01	44811.90
553.18	44676.15
553.34	44252.51
553.51	44388.26
553.67	44528.69
553.84	44339.11
554.01	44404.64
554.17	44697.21
554.34	45158.30
554.51	44634.02
554.67	44863.39
554.84	44825.94
555.00	44594.23
555.17	44493.58
555.33	44617.63
555.50	44720.62
555.67	45045.95
555.83	44669.12
556.00	44905.52
556.16	44931.26
556.33	44685.51
556.50	44610.61
556.66	45305.75
556.83	44683.17
556.99	45219.15
557.16	45319.79
557.32	45085.74
557.49	45088.08
557.65	44645.72
557.82	45223.83
557.98	45088.08
558.15	44783.81
558.32	44978.07
558.48	45366.60
558.65	44842.32
558.81	45064.67
558.98	44807.22
559.14	45394.69
559.31	45052.97
559.47	45687.26
559.64	45581.93
559.80	45294.05
559.97	44945.31
560.13	44947.65
560.30	45549.17
560.46	45617.04
560.63	45605.34
560.79	45326.81
560.96	45404.05
561.12	45371.28
561.29	45291.71
561.45	45659.17
561.61	45794.92
561.78	45394.69
561.94	45291.71
562.11	45258.94
562.27	45392.35
562.44	45598.32
562.60	45626.40
562.77	46108.55
562.93	45439.16
563.10	46003.23
563.26	45610.02
563.42	45799.60
563.59	45024.89
563.75	45413.41
563.92	45516.40
564.08	45661.51
564.24	46197.49
564.41	45862.80
564.57	45867.48
564.74	45595.98
564.90	45703.64
565.07	45961.10
565.23	45099.78
565.39	45972.80
565.56	45612.36
565.72	45918.97
565.88	45603.00
566.05	45851.09
566.21	45710.66
566.38	45968.12
566.54	46028.98
566.70	45886.20
566.87	45897.91
567.03	46021.95
567.19	46410.48
567.36	46258.35
567.52	45734.07
567.68	45874.50
567.85	45975.14
568.01	45890.88
568.17	45844.07
568.34	45933.01
568.50	45944.72
568.66	46300.48
568.83	46164.73
568.99	45834.71
569.15	45876.84
569.32	45787.90
569.48	45799.60
569.64	46616.45
569.81	46302.82
569.97	46045.36
570.13	46078.13
570.30	45544.48
570.46	45638.11
570.62	45654.49
570.78	45787.90
570.95	45911.95
571.11	45886.20
571.27	46148.34
571.43	45942.38
571.60	45715.34
571.76	46021.95
571.92	46223.24
572.09	46188.13
572.25	45612.36
572.41	45570.23
572.57	46181.11
572.74	46380.06
572.90	46206.86
573.06	46321.54
573.22	46113.23
573.38	46012.59
573.55	46092.17
573.71	45942.38
573.87	46312.18
574.03	45654.49
574.20	46026.63
574.36	45799.60
574.52	46012.59
574.68	46232.60
574.84	46349.63
575.01	46141.32
575.17	46218.56
575.33	45586.61
575.49	45879.18
575.65	45998.55
575.82	46539.21
575.98	46117.92
576.14	46330.90
576.30	45911.95
576.46	46066.42
576.62	46288.77
576.79	45806.62
576.95	45886.20
577.11	46202.18
577.27	46263.03
577.43	46279.41
577.59	46103.87
577.75	46003.23
577.92	45691.94
578.08	45862.80
578.24	45645.13
578.40	46225.58
578.56	45783.22
578.72	46206.86
578.88	46391.76
579.04	46225.58
579.21	46052.38
579.37	46438.57
579.53	46333.24
579.69	46082.81
579.85	45647.47
580.01	46478.36
580.17	46213.88
580.33	46461.97
580.49	46440.91
580.65	46590.70
580.82	46277.07
580.98	45918.97
581.14	46611.77
581.30	46220.90
581.46	46279.41
581.62	46461.97
581.78	45841.73
581.94	46899.65
582.10	46064.08
582.26	46368.35
582.42	46199.83
582.58	46232.60
582.74	46143.66
582.90	46089.83
583.06	46424.53
583.22	46515.81
583.38	46316.86
583.54	46464.32
583.70	46157.70
583.86	46241.96
584.02	45935.35
584.18	46490.06
584.34	45771.52
584.50	46160.05
584.66	46614.11
584.82	45846.41
584.98	46649.22
585.14	46686.67
585.30	46309.84
585.46	46295.80
585.62	46307.50
585.78	46667.94
585.94	45914.29
586.10	46520.49
586.26	46183.45
586.42	46314.52
586.58	46422.19
586.74	46625.81
586.90	45722.37
587.06	46230.26
587.22	46178.77
587.38	45874.50
587.54	46527.51
587.70	46251.33
587.86	46564.96
588.02	46539.21
588.18	46284.09
588.34	46146.00
588.49	46010.25
588.65	45652.15
588.81	45886.20
588.97	45818.33
589.13	45790.24
589.29	45865.14
589.45	45890.88
589.61	46124.94
589.77	46204.52
589.93	46335.59
