SpectraSuite Data File
++++++++++++++++++++++++++++++++++++
Date: Fri Oct 25 10:43:45 EDT 2013
User: price-jones
Dark Spectrum Present: No
Reference Spectrum Present: No
Number of Sampled Component Spectra: 1
Spectrometers: USB2+H05261
Integration Time (usec): 100000 (USB2+H05261)
Spectra Averaged: 1 (USB2+H05261)
Boxcar Smoothing: 0 (USB2+H05261)
Correct for Electrical Dark: No (USB2+H05261)
Strobe/Lamp Enabled: No (USB2+H05261)
Correct for Detector Non-linearity: No (USB2+H05261)
Correct for Stray Light: No (USB2+H05261)
Number of Pixels in Processed Spectrum: 2048
>>>>>Begin Processed Spectral Data<<<<<
365.73	107.66
365.92	107.66
366.12	107.66
366.32	72.56
366.52	37.45
366.72	91.28
366.91	35.11
367.11	30.43
367.31	0.00
367.51	0.00
367.70	7.02
367.90	30.43
368.10	53.83
368.30	11.70
368.49	0.00
368.69	98.30
368.89	67.88
369.09	88.94
369.28	18.72
369.48	79.58
369.68	16.38
369.87	95.96
370.07	112.35
370.27	142.77
370.47	215.33
370.66	320.65
370.86	411.93
371.06	440.02
371.25	463.43
371.45	447.04
371.65	486.83
371.84	367.46
372.04	425.98
372.24	496.19
372.44	493.85
372.63	482.15
372.83	444.70
373.03	440.02
373.22	533.64
373.42	514.92
373.62	512.58
373.81	601.52
374.01	568.75
374.21	571.09
374.40	580.45
374.60	582.79
374.79	559.39
374.99	638.97
375.19	578.11
375.38	547.69
375.58	566.41
375.78	596.84
375.97	561.73
376.17	620.24
376.37	594.50
376.56	575.77
376.76	559.39
376.95	624.92
377.15	587.47
377.35	589.82
377.54	678.76
377.74	671.73
377.93	599.18
378.13	648.33
378.33	667.05
378.52	770.04
378.72	739.61
378.91	676.41
379.11	643.65
379.31	676.41
379.50	681.10
379.70	695.14
379.89	697.48
380.09	697.48
380.28	734.93
380.48	713.86
380.68	669.39
380.87	699.82
381.07	683.44
381.26	751.31
381.46	748.97
381.65	704.50
381.85	620.24
382.04	727.91
382.24	685.78
382.43	713.86
382.63	718.54
382.83	667.05
383.02	730.25
383.22	678.76
383.41	723.23
383.61	685.78
383.80	758.33
384.00	805.14
384.19	767.70
384.39	777.06
384.58	903.45
384.78	807.48
384.97	791.10
385.17	800.46
385.36	833.23
385.56	767.70
385.75	770.04
385.95	830.89
386.14	847.27
386.34	833.23
386.53	847.27
386.72	835.57
386.92	828.55
387.11	781.74
387.31	887.06
387.50	835.57
387.70	851.96
387.89	887.06
388.09	828.55
388.28	828.55
388.48	873.02
388.67	880.04
388.86	959.62
389.06	926.85
389.25	1008.77
389.45	990.05
389.64	1097.71
389.84	945.58
390.03	1013.45
390.22	1043.88
390.42	976.00
390.61	1074.31
390.81	1041.54
391.00	978.34
391.19	1083.67
391.39	985.37
391.58	1097.71
391.78	973.66
391.97	976.00
392.16	1064.94
392.36	978.34
392.55	1057.92
392.75	997.07
392.94	945.58
393.13	1067.28
393.33	1008.77
393.52	1081.33
393.71	1163.25
393.91	1102.39
394.10	1116.44
394.29	1144.52
394.49	1198.35
394.68	1149.20
394.88	1167.93
395.07	1210.06
395.26	1177.29
395.46	1160.91
395.65	1247.51
395.84	1200.69
396.04	1245.16
396.23	1256.87
396.42	1203.04
396.62	1235.80
396.81	1188.99
397.00	1219.42
397.19	1313.04
397.39	1268.57
397.58	1409.00
397.77	1355.17
397.97	1296.66
398.16	1481.56
398.35	1483.90
398.55	1432.41
398.74	1493.26
398.93	1486.24
399.12	1558.80
399.32	1549.43
399.51	1394.96
399.70	1614.97
399.90	1476.88
400.09	1509.65
400.28	1549.43
400.47	1556.46
400.67	1596.25
400.86	1624.33
401.05	1530.71
401.24	1638.38
401.44	1724.97
401.63	1748.38
401.82	1701.57
402.01	1549.43
402.21	1631.35
402.40	1755.40
402.59	1708.59
402.78	1741.36
402.97	1743.70
403.17	1722.63
403.36	1767.10
403.55	1823.28
403.74	1781.15
403.93	1933.28
404.13	1919.24
404.32	1769.44
404.51	1916.90
404.70	1881.79
404.89	1830.30
405.09	1870.09
405.28	1975.41
405.47	1989.46
405.66	1888.81
405.85	1982.43
406.05	1956.69
406.24	2017.54
406.43	1940.30
406.62	2076.06
406.81	2134.57
407.00	2108.82
407.20	1961.37
407.39	1975.41
407.58	2073.71
407.77	2132.23
407.96	2146.27
408.15	2216.49
408.34	2193.08
408.54	2270.32
408.73	2118.18
408.92	2237.55
409.11	2181.38
409.30	2204.78
409.49	2305.43
409.68	2256.28
409.87	2228.19
410.07	2237.55
410.26	2277.34
410.45	2300.75
410.64	2394.37
410.83	2441.18
411.02	2495.01
411.21	2532.46
411.40	2485.65
411.59	2637.78
411.78	2530.12
411.98	2457.56
412.17	2600.34
412.36	2710.34
412.55	2609.70
412.74	2700.98
412.93	2775.88
413.12	2679.91
413.31	2785.24
413.50	2757.15
413.69	2857.79
413.88	2883.54
414.07	2949.08
414.26	2967.80
414.45	3009.93
414.64	2963.12
414.83	3028.65
415.02	2946.73
415.22	3098.87
415.41	3178.45
415.60	3148.02
415.79	3288.45
415.98	3222.92
416.17	3241.64
416.36	3166.74
416.55	3225.26
416.74	3389.10
416.93	3117.59
417.12	3304.84
417.31	3279.09
417.50	3248.66
417.69	3330.58
417.88	3398.46
418.07	3487.40
418.26	3515.48
418.45	3475.70
418.64	3454.63
418.83	3473.36
419.02	3557.61
419.21	3454.63
419.39	3538.89
419.58	3435.91
419.77	3541.23
419.96	3602.08
420.15	3742.52
420.34	3562.30
420.53	3688.68
420.72	3691.02
420.91	3709.75
421.10	3796.35
421.29	3836.14
421.48	3681.66
421.67	3838.48
421.86	3740.18
422.05	3786.99
422.24	3796.35
422.43	3777.62
422.61	3756.56
422.80	3798.69
422.99	3887.63
423.18	3742.52
423.37	4091.26
423.56	3999.98
423.75	3843.16
423.94	3829.12
424.13	3588.04
424.32	3784.65
424.50	3847.84
424.69	3906.35
424.88	3915.72
425.07	3896.99
425.26	3775.28
425.45	3887.63
425.64	3899.33
425.83	3925.08
426.01	3960.19
426.20	3882.95
426.39	3857.20
426.58	3899.33
426.77	3822.09
426.96	3772.94
427.15	3936.78
427.33	4035.08
427.52	3990.61
427.71	4058.49
427.90	4166.15
428.09	4196.58
428.28	4053.81
428.46	4241.05
428.65	4028.06
428.84	4292.54
429.03	4329.99
429.22	4044.45
429.40	3932.10
429.59	3992.95
429.78	3805.71
429.97	3808.05
430.16	4009.34
430.34	4079.55
430.53	4189.56
430.72	4287.86
430.91	4259.78
431.10	4224.67
431.28	4423.61
431.47	4678.73
431.66	4652.98
431.85	4461.06
432.03	4542.98
432.22	4561.70
432.41	4365.10
432.60	4674.05
432.79	4641.28
432.97	4732.56
433.16	4664.69
433.35	4624.90
433.54	4601.49
433.72	4636.60
433.91	4660.01
434.10	4746.61
434.28	4746.61
434.47	4770.01
434.66	4788.74
434.85	4812.14
435.03	4788.74
435.22	4940.87
435.41	5174.92
435.59	4964.28
435.78	5139.82
435.97	5027.47
436.16	5130.45
436.34	5053.22
436.53	5125.77
436.72	5212.37
436.90	5006.41
437.09	5015.77
437.28	5081.30
437.46	5142.16
437.65	5069.60
437.84	5195.99
438.02	5078.96
438.21	5001.72
438.40	5008.75
438.58	5390.25
438.77	5357.49
438.96	5207.69
439.14	5317.70
439.33	5507.28
439.52	5624.31
439.70	5556.43
439.89	5427.70
440.08	5523.66
440.26	5722.61
440.45	5664.10
440.63	5731.97
440.82	5853.68
441.01	5933.26
441.19	6054.97
441.38	6099.44
441.57	6134.54
441.75	6167.31
441.94	6136.88
442.12	6312.42
442.31	6181.35
442.50	6111.14
442.68	6195.40
442.87	6345.19
443.05	6298.38
443.24	6384.98
443.43	6377.96
443.61	6307.74
443.80	6487.96
443.98	6429.45
444.17	6104.12
444.35	6377.96
444.54	6553.50
444.73	6310.08
444.91	6494.99
445.10	6401.37
445.28	6370.94
445.47	6314.77
445.65	6370.94
445.84	6441.15
446.02	6604.99
446.21	6523.07
446.39	6462.22
446.58	6534.78
446.77	6520.73
446.95	6553.50
447.14	6672.87
447.32	6817.98
447.51	6602.65
447.69	6609.67
447.88	6513.71
448.06	6633.08
448.25	6513.71
448.43	6750.10
448.62	6686.91
448.80	6492.65
448.99	6953.73
449.17	6754.79
449.36	6600.31
449.54	6867.13
449.73	7035.65
449.91	7211.19
450.10	7176.08
450.28	7220.55
450.46	7143.32
450.65	7162.04
450.83	6967.77
451.02	7194.81
451.20	7199.49
451.39	7047.35
451.57	7084.80
451.76	7185.44
451.94	7187.79
452.13	7225.23
452.31	7129.27
452.49	6733.72
452.68	7183.10
452.86	7045.01
453.05	7426.52
453.23	7279.07
453.42	7335.24
453.60	7183.10
453.78	7494.40
453.97	7307.15
454.15	7269.70
454.34	7302.47
454.52	7398.43
454.70	7454.61
454.89	7503.76
455.07	7555.25
455.26	7559.93
455.44	7880.58
455.62	7489.71
455.81	7712.07
455.99	7676.96
456.17	7688.66
456.36	7679.30
456.54	7786.96
456.73	7698.02
456.91	7854.84
457.09	8006.97
457.28	8196.56
457.46	8037.40
457.64	8105.28
457.83	8252.73
458.01	7803.35
458.19	8203.58
458.38	8013.99
458.56	8135.70
458.74	8191.88
458.93	8067.83
459.11	8060.80
459.29	8121.66
459.48	8168.47
459.66	8297.20
459.84	8404.86
460.03	8360.39
460.21	8355.71
460.39	8351.03
460.57	8505.51
460.76	8634.24
460.94	8542.96
461.12	8514.87
461.31	8606.15
461.49	8631.90
461.67	8571.04
461.85	8678.71
462.04	8730.20
462.22	9006.38
462.40	8711.47
462.59	8587.43
462.77	8840.20
462.95	8819.14
463.13	8809.78
463.32	8954.89
463.50	8844.88
463.68	8772.33
463.86	8910.42
464.05	8887.01
464.23	8786.37
464.41	8926.80
464.59	8833.18
464.78	9057.87
464.96	8870.63
465.14	8814.46
465.32	9181.92
465.50	9116.39
465.69	9123.41
465.87	9027.45
466.05	9132.77
466.23	9259.16
466.41	8980.64
466.60	9268.52
466.78	9121.07
466.96	9090.64
467.14	9460.45
467.32	9191.28
467.51	9289.59
467.69	9090.64
467.87	9394.91
468.05	9362.14
468.23	9284.91
468.41	9324.69
468.60	9465.13
468.78	9289.59
468.96	9420.66
469.14	9753.01
469.32	9790.46
469.50	9439.38
469.69	9680.46
469.87	9682.80
470.05	9701.52
470.23	9806.84
470.41	9614.92
470.59	9743.65
470.77	9678.12
470.95	9628.96
471.14	10211.76
471.32	9783.44
471.50	10244.52
471.68	10239.84
471.86	10174.31
472.04	10207.08
472.22	10476.24
472.40	10104.09
472.58	10235.16
472.77	10448.15
472.95	10434.11
473.13	10640.08
473.31	10380.28
473.49	10431.77
473.67	10541.77
473.85	10602.63
474.03	10789.87
474.21	10913.92
474.39	10766.46
474.57	11049.67
474.75	10878.81
474.93	11059.03
475.12	11145.63
475.30	10984.13
475.48	11019.24
475.66	11075.42
475.84	11297.77
476.02	11260.32
476.20	11164.36
476.38	11433.52
476.56	11740.13
476.74	11623.10
476.92	11761.19
477.10	11494.37
477.28	11906.31
477.46	11857.15
477.64	12095.89
477.82	11950.78
478.00	12423.56
478.18	12306.54
478.36	12624.85
478.54	12552.29
478.72	12617.83
478.90	12772.30
479.08	12795.71
479.26	12720.81
479.44	12847.20
479.62	13095.30
479.80	13174.88
479.98	13069.55
480.16	13319.99
480.34	13322.33
480.52	13675.75
480.70	13385.52
480.88	13600.85
481.06	13708.52
481.24	13680.43
481.41	13888.74
481.59	14075.98
481.77	14178.97
481.95	14340.46
482.13	14113.43
482.31	14401.32
482.49	14892.83
482.67	14611.96
482.85	14944.32
483.03	14878.79
483.21	15414.77
483.39	15337.53
483.57	15091.77
483.74	15300.08
483.92	15585.63
484.10	15417.11
484.28	15850.11
484.46	15948.41
484.64	16189.49
484.82	15917.98
485.00	15807.98
485.18	16203.53
485.35	16212.89
485.53	16065.44
485.71	15929.69
485.89	15934.37
486.07	16149.70
486.25	16360.34
486.43	16692.70
486.61	16840.15
486.78	17011.01
486.96	17462.74
487.14	17357.41
487.32	17455.72
487.50	17827.86
487.68	17958.93
487.85	18001.06
488.03	18167.24
488.21	18333.42
488.39	18464.49
488.57	18216.39
488.75	18700.88
488.92	19138.56
489.10	18995.79
489.28	19133.88
489.46	19381.98
489.64	19342.19
489.81	19810.29
489.99	19807.95
490.17	19704.97
490.35	19948.39
490.53	20109.88
490.70	20159.03
490.88	20475.01
491.06	20552.24
491.24	20442.24
491.41	20711.40
491.59	20908.01
491.77	20898.64
491.95	21041.42
492.13	21116.31
492.30	21294.19
492.48	21490.80
492.66	21640.59
492.84	21647.61
493.01	22183.60
493.19	21905.07
493.37	21844.22
493.54	22136.79
493.72	22235.09
493.90	22230.41
494.08	22958.31
494.25	22717.24
494.43	22836.61
494.61	23019.17
494.79	23126.83
494.96	23234.50
495.14	23051.94
495.32	23381.95
495.49	23220.45
495.67	23644.09
495.85	23728.35
496.02	24130.92
496.20	24243.27
496.38	24233.91
496.55	24439.87
496.73	24776.91
496.91	24425.83
497.09	24486.68
497.26	24835.42
497.44	24870.53
497.62	24922.02
497.79	25282.47
497.97	25055.43
498.14	25397.15
498.32	25348.00
498.50	25282.47
498.67	26040.80
498.85	25802.07
499.03	25886.32
499.20	25734.19
499.38	26096.97
499.56	26232.72
499.73	26157.83
499.91	26295.92
500.08	26658.70
500.26	26192.94
500.44	26295.92
500.61	26829.56
500.79	26511.25
500.97	26560.40
501.14	27080.00
501.32	26710.19
501.49	26745.30
501.67	26969.99
501.84	27028.51
502.02	26906.80
502.20	27459.16
502.37	27585.55
502.55	27606.62
502.72	27608.96
502.90	27494.27
503.07	27597.26
503.25	27770.46
503.43	28023.23
503.60	27941.32
503.78	27630.02
503.95	27976.42
504.13	28041.96
504.30	28851.78
504.48	28664.54
504.65	29046.05
504.83	28734.76
505.01	28587.30
505.18	28556.88
505.36	29378.40
505.53	29146.69
505.71	29263.72
505.88	29350.32
506.06	29223.93
506.23	29340.96
506.41	29142.01
506.58	29586.71
506.76	29235.63
506.93	29549.26
507.11	29792.68
507.28	29523.52
507.46	29659.27
507.63	29802.04
507.81	29895.66
507.98	29811.40
508.16	29788.00
508.33	30274.83
508.50	30277.17
508.68	30806.13
508.85	30658.68
509.03	30724.21
509.20	30614.21
509.38	31129.12
509.55	31005.08
509.73	30803.79
509.90	31056.57
510.08	30946.56
510.25	31297.64
510.42	31332.75
510.60	31346.79
510.77	31206.36
510.95	31768.09
511.12	31517.65
511.30	31948.31
511.47	32114.49
511.64	32128.53
511.82	32170.66
511.99	32128.53
512.17	32584.94
512.34	31501.27
512.51	32498.34
512.69	32423.44
512.86	32348.54
513.04	32774.52
513.21	32795.59
513.38	32627.07
513.56	32767.50
513.73	32423.44
513.90	32542.81
514.08	32615.37
514.25	32781.54
514.43	33123.26
514.60	32877.51
514.77	33188.80
514.95	33558.60
515.12	33177.09
515.29	32921.98
515.47	33563.28
515.64	33720.10
515.81	33530.51
515.99	33582.01
516.16	33675.63
516.33	33319.87
516.51	33525.83
516.68	33141.99
516.85	32886.87
517.03	33500.09
517.20	33235.61
517.37	33769.25
517.54	34120.33
517.72	33956.49
517.89	33273.06
518.06	33670.95
518.24	34174.16
518.41	34181.18
518.58	34433.96
518.75	34235.02
518.93	34459.71
519.10	34962.92
519.27	34536.94
519.45	35037.82
519.62	34632.91
519.79	35243.79
519.96	34951.22
520.14	34881.00
520.31	35243.79
520.48	35098.67
520.65	35035.48
520.83	35756.36
521.00	35412.31
521.17	35847.64
521.34	35615.93
521.52	35730.62
521.69	35583.16
521.86	35990.42
522.03	35959.99
522.20	36325.11
522.38	35992.76
522.55	36105.10
522.72	36231.49
522.89	35725.94
523.07	36584.91
523.24	36404.69
523.41	36486.61
523.58	36484.27
523.75	37450.91
523.92	36573.21
524.10	37151.32
524.27	37305.80
524.44	37034.30
524.61	37479.00
524.78	37219.20
524.96	37605.39
525.13	37193.45
525.30	37270.69
525.47	37427.51
525.64	37404.10
525.81	37228.56
525.98	37109.19
526.16	36669.17
526.33	36825.99
526.50	37200.47
526.67	36566.19
526.84	37015.57
527.01	37230.90
527.18	37628.79
527.36	37598.37
527.53	37738.80
527.70	37961.15
527.87	38181.16
528.04	38340.32
528.21	38209.25
528.38	38099.24
528.55	38433.94
528.72	38176.48
528.89	38557.99
529.07	38347.34
529.24	38031.36
529.41	38380.10
529.58	38391.81
529.75	38504.15
529.92	38588.41
530.09	38672.67
530.26	38742.89
530.43	39201.63
530.60	38611.82
530.77	38829.49
530.94	39194.61
531.11	39124.40
531.28	39285.89
531.46	39234.40
531.63	39133.76
531.80	38787.36
531.97	39358.45
532.14	38841.19
532.31	38899.70
532.48	39517.60
532.65	39480.16
532.82	39014.39
532.99	39309.30
533.16	39590.16
533.33	39655.70
533.50	39793.79
533.67	39669.74
533.84	39512.92
534.01	39559.73
534.18	39859.32
534.35	39763.36
534.52	40030.18
534.69	40463.18
534.86	40219.77
535.03	40297.00
535.20	40488.93
535.37	40914.90
535.54	40605.95
535.71	40346.15
535.88	40463.18
536.05	40524.04
536.22	40467.86
536.38	40575.53
536.55	40549.78
536.72	40467.86
536.89	40261.90
537.06	40346.15
537.23	40622.34
537.40	40594.25
537.57	41158.32
537.74	40535.74
537.91	41074.06
538.08	40741.71
538.25	40615.32
538.42	40804.90
538.59	40830.65
538.75	40765.11
538.92	41090.44
539.09	41181.73
539.26	41567.91
539.43	41095.13
539.60	41081.08
539.77	41078.74
539.94	41258.96
540.11	40966.40
540.28	41263.64
540.44	41170.02
540.61	41535.15
540.78	41106.83
540.95	41280.03
541.12	41333.86
541.29	41560.89
541.46	41574.94
541.62	41680.26
541.79	41448.55
541.96	41448.55
542.13	41588.98
542.30	41759.84
542.47	41830.05
542.63	41715.37
542.80	41794.95
542.97	42417.53
543.14	42431.57
543.31	42230.29
543.48	42068.79
543.64	42445.62
543.81	42319.23
543.98	42398.80
544.15	42438.59
544.32	42073.47
544.48	42911.38
544.65	42710.10
544.82	42433.91
544.99	42103.90
545.16	42621.16
545.32	42740.52
545.49	43222.67
545.66	43028.41
545.83	43056.50
546.00	43187.56
546.16	42581.37
546.33	42705.41
546.50	42501.79
546.67	43084.58
546.83	42827.12
547.00	42923.08
547.17	42799.04
547.34	42852.87
547.50	42862.23
547.67	43124.37
547.84	43449.70
548.00	43243.74
548.17	43328.00
548.34	43438.00
548.51	43709.50
548.67	43840.57
548.84	43351.40
549.01	43276.51
549.18	43650.99
549.34	43480.13
549.51	43927.17
549.68	43878.02
549.84	43421.62
550.01	44083.99
550.18	43739.93
550.34	43519.92
550.51	43482.47
550.68	43763.34
550.84	43285.87
551.01	43700.14
551.18	43810.15
551.34	43590.14
551.51	43906.11
551.68	43966.96
551.84	43992.71
552.01	44016.11
552.18	44076.97
552.34	43318.64
552.51	44018.46
552.68	44102.71
552.84	44458.48
553.01	44397.62
553.18	44041.86
553.34	43866.32
553.51	43943.56
553.67	44240.81
553.84	44732.32
554.01	44135.48
554.17	44491.24
554.34	44858.71
554.51	44268.89
554.67	44376.56
554.84	44526.35
555.00	44135.48
555.17	44524.01
555.33	44666.78
555.50	44821.26
555.67	44580.18
555.83	44573.16
556.00	44809.56
556.16	45261.28
556.33	44856.37
556.50	44570.82
556.66	44619.97
556.83	44399.96
556.99	44580.18
557.16	45057.65
557.32	44814.24
557.49	45109.14
557.65	44858.71
557.82	44760.40
557.98	44884.45
558.15	44662.10
558.32	45022.54
558.48	44694.87
558.65	44191.65
558.81	44837.64
558.98	45006.16
559.14	45076.38
559.31	44935.95
559.47	45172.34
559.64	45003.82
559.80	45399.37
559.97	45263.62
560.13	44900.84
560.30	44942.97
560.46	45338.52
560.63	44903.18
560.79	45408.73
560.96	45474.27
561.12	44839.98
561.29	44940.63
561.45	45048.29
561.61	45092.76
561.78	45038.93
561.94	44807.22
562.11	44781.47
562.27	45172.34
562.44	45308.09
562.60	45305.75
562.77	45563.21
562.93	45387.67
563.10	45610.02
563.26	45130.21
563.42	45322.13
563.59	45195.74
563.75	45371.28
563.92	44907.86
564.08	45874.50
564.24	45432.14
564.41	45476.61
564.57	45434.48
564.74	45600.66
564.90	45504.70
565.07	45457.88
565.23	45757.47
565.39	45057.65
565.56	45258.94
565.72	45249.58
565.88	45401.71
566.05	45303.41
566.21	45280.00
566.38	45322.13
566.54	45951.74
566.70	45553.85
566.87	45923.65
567.03	45544.48
567.19	46012.59
567.36	45748.11
567.52	45237.87
567.68	45743.43
567.85	45521.08
568.01	45727.05
568.17	45680.24
568.34	46007.91
568.50	45696.62
568.66	45542.14
568.83	45869.82
568.99	45294.05
569.15	45478.95
569.32	45010.84
569.48	45392.35
569.64	46256.01
569.81	45708.32
569.97	45277.66
570.13	45565.55
570.30	45476.61
570.46	45343.20
570.62	44917.22
570.78	44989.78
570.95	45698.96
571.11	45773.86
571.27	45303.41
571.43	45067.02
571.60	45734.07
571.76	45607.68
571.92	45530.44
572.09	45631.08
572.25	46232.60
572.41	46162.39
572.57	46129.62
572.74	45855.78
572.90	45830.03
573.06	45827.69
573.22	45914.29
573.38	45514.06
573.55	45097.44
573.71	46073.45
573.87	45626.40
574.03	45502.35
574.20	45698.96
574.36	45815.99
574.52	45701.30
574.68	45741.09
574.84	46108.55
575.01	45890.88
575.17	46057.06
575.33	46073.45
575.49	45495.33
575.65	45759.81
575.82	45645.13
575.98	45413.41
576.14	46153.02
576.30	45937.69
576.46	45771.52
576.62	45979.82
576.79	45741.09
576.95	45825.35
577.11	45825.35
577.27	45773.86
577.43	45797.26
577.59	45656.83
577.75	45867.48
577.92	45277.66
578.08	45312.77
578.24	45375.97
578.40	45743.43
578.56	45759.81
578.72	46251.33
578.88	45916.63
579.04	46057.06
579.21	46068.76
579.37	45684.92
579.53	45858.12
579.69	46057.06
579.85	45947.06
580.01	45631.08
580.17	45745.77
580.33	46267.71
580.49	45825.35
580.65	45734.07
580.82	45830.03
580.98	45612.36
581.14	45785.56
581.30	45923.65
581.46	46258.35
581.62	45846.41
581.78	46181.11
581.94	46113.23
582.10	46021.95
582.26	46096.85
582.42	45666.19
582.58	46202.18
582.74	45759.81
582.90	46286.43
583.06	46600.07
583.22	46330.90
583.38	46101.53
583.54	46377.72
583.70	45935.35
583.86	46061.74
584.02	45832.37
584.18	46174.09
584.34	46270.05
584.50	46066.42
584.66	46183.45
584.82	45689.60
584.98	45963.44
585.14	45766.84
585.30	45862.80
585.46	45965.78
585.62	45640.45
585.78	45422.78
585.94	45677.90
586.10	45904.93
586.26	45911.95
586.42	46127.28
586.58	46146.00
586.74	46033.66
586.90	46028.98
587.06	45956.42
587.22	46155.36
587.38	45841.73
587.54	45748.11
587.70	45830.03
587.86	45940.04
588.02	46080.47
588.18	46141.32
588.34	45504.70
588.49	45567.89
588.65	45556.19
588.81	45469.59
588.97	45654.49
589.13	45471.93
589.29	45750.45
589.45	45815.99
589.61	45694.28
589.77	46028.98
589.93	46267.71
590.08	46541.55
