SpectraSuite Data File
++++++++++++++++++++++++++++++++++++
Date: Fri Oct 25 11:23:00 EDT 2013
User: price-jones
Dark Spectrum Present: No
Reference Spectrum Present: No
Number of Sampled Component Spectra: 1
Spectrometers: USB2+H05261
Integration Time (usec): 100000 (USB2+H05261)
Spectra Averaged: 1 (USB2+H05261)
Boxcar Smoothing: 0 (USB2+H05261)
Correct for Electrical Dark: No (USB2+H05261)
Strobe/Lamp Enabled: No (USB2+H05261)
Correct for Detector Non-linearity: No (USB2+H05261)
Correct for Stray Light: No (USB2+H05261)
Number of Pixels in Processed Spectrum: 2048
>>>>>Begin Processed Spectral Data<<<<<
365.73	198.95
365.92	198.95
366.12	198.95
366.32	133.41
366.52	138.09
366.72	131.07
366.91	49.15
367.11	142.77
367.31	51.49
367.51	56.17
367.70	161.50
367.90	175.54
368.10	112.35
368.30	100.64
368.49	152.13
368.69	152.13
368.89	77.24
369.09	142.77
369.28	131.07
369.48	227.03
369.68	175.54
369.87	196.60
370.07	180.22
370.27	269.16
370.47	294.91
370.66	578.11
370.86	585.13
371.06	622.58
371.25	653.01
371.45	629.60
371.65	702.16
371.84	589.82
372.04	697.48
372.24	688.12
372.44	741.95
372.63	732.59
372.83	723.23
373.03	699.82
373.22	765.36
373.42	725.57
373.62	744.29
373.81	821.53
374.01	805.14
374.21	788.76
374.40	770.04
374.60	793.44
374.79	784.08
374.99	856.64
375.19	798.12
375.38	840.25
375.58	840.25
375.78	793.44
375.97	884.72
376.17	912.81
376.37	847.27
376.56	882.38
376.76	875.36
376.95	847.27
377.15	926.85
377.35	868.34
377.54	912.81
377.74	898.77
377.93	870.68
378.13	931.53
378.33	896.43
378.52	964.30
378.72	964.30
378.91	1008.77
379.11	987.71
379.31	947.92
379.50	891.74
379.70	929.19
379.89	917.49
380.09	957.28
380.28	1004.09
380.48	938.55
380.68	1034.52
380.87	950.26
381.07	947.92
381.26	966.64
381.46	961.96
381.65	959.62
381.85	926.85
382.04	1022.81
382.24	1069.62
382.43	985.37
382.63	1034.52
382.83	1060.26
383.02	1130.48
383.22	1062.60
383.41	1001.75
383.61	1095.37
383.80	1177.29
384.00	1027.50
384.19	1135.16
384.39	1109.41
384.58	1217.08
384.78	1142.18
384.97	1193.67
385.17	1034.52
385.36	1186.65
385.56	1109.41
385.75	1221.76
385.95	1240.48
386.14	1310.70
386.34	1263.89
386.53	1233.46
386.72	1249.85
386.92	1242.82
387.11	1240.48
387.31	1224.10
387.50	1282.61
387.70	1217.08
387.89	1240.48
388.09	1273.25
388.28	1324.74
388.48	1273.25
388.67	1371.55
388.86	1228.78
389.06	1294.32
389.25	1362.19
389.45	1385.60
389.64	1359.85
389.84	1394.96
390.03	1341.13
390.22	1460.49
390.42	1362.19
390.61	1411.34
390.81	1336.45
391.00	1359.85
391.19	1441.77
391.39	1476.88
391.58	1504.96
391.78	1371.55
391.97	1509.65
392.16	1420.71
392.36	1502.62
392.55	1413.68
392.75	1430.07
392.94	1528.37
393.13	1673.48
393.33	1575.18
393.52	1563.48
393.71	1544.75
393.91	1603.27
394.10	1621.99
394.29	1617.31
394.49	1582.20
394.68	1673.48
394.88	1600.93
395.07	1661.78
395.26	1659.44
395.46	1657.10
395.65	1699.23
395.84	1666.46
396.04	1783.49
396.23	1746.04
396.42	1834.98
396.62	1757.74
396.81	1818.60
397.00	1727.32
397.19	1710.93
397.39	1825.62
397.58	1804.55
397.77	1830.30
397.97	1898.17
398.16	1858.39
398.35	2017.54
398.55	1877.11
398.74	1844.34
398.93	1980.09
399.12	1909.88
399.32	1900.52
399.51	2012.86
399.70	2017.54
399.90	1959.03
400.09	2120.53
400.28	2043.29
400.47	2108.82
400.67	2125.21
400.86	2094.78
401.05	2092.44
401.24	2106.48
401.44	2155.63
401.63	2251.60
401.82	2139.25
402.01	2094.78
402.21	2172.02
402.40	2179.04
402.59	2225.85
402.78	2249.25
402.97	2319.47
403.17	2314.79
403.36	2207.13
403.55	2305.43
403.74	2359.26
403.93	2324.15
404.13	2513.74
404.32	2422.45
404.51	2415.43
404.70	2382.67
404.89	2385.01
405.09	2553.52
405.28	2319.47
405.47	2431.82
405.66	2619.06
405.85	2548.84
406.05	2672.89
406.24	2548.84
406.43	2532.46
406.62	2581.61
406.81	2649.49
407.00	2633.10
407.20	2651.83
407.39	2710.34
407.58	2813.32
407.77	2651.83
407.96	2700.98
408.15	2743.11
408.34	2825.03
408.54	2796.94
408.73	2768.85
408.92	2885.88
409.11	2855.45
409.30	2958.44
409.49	2911.63
409.68	2953.76
409.87	2878.86
410.07	2972.48
410.26	2960.78
410.45	2995.89
410.64	3133.98
410.83	3129.30
411.02	3016.95
411.21	3176.11
411.40	3162.06
411.59	3253.34
411.78	3229.94
411.98	3166.74
412.17	3328.24
412.36	3346.97
412.55	3243.98
412.74	3293.13
412.93	3281.43
413.12	3342.28
413.31	3468.67
413.50	3548.25
413.69	3468.67
413.88	3524.85
414.07	3606.77
414.26	3569.32
414.45	3592.72
414.64	3653.58
414.83	3749.54
415.02	3854.86
415.22	3833.80
415.41	3948.48
415.60	3913.38
415.79	3868.91
415.98	4053.81
416.17	4060.83
416.36	4058.49
416.55	4173.18
416.74	4102.96
416.93	4147.43
417.12	4007.00
417.31	4168.49
417.50	4390.84
417.69	4444.68
417.88	4238.71
418.07	4327.65
418.26	4294.88
418.45	4287.86
418.64	4582.77
418.83	4407.23
419.02	4456.38
419.21	4498.51
419.39	4648.30
419.58	4461.06
419.77	4407.23
419.96	4594.47
420.15	4545.32
420.34	4575.75
420.53	4552.34
420.72	4751.29
420.91	4582.77
421.10	4844.91
421.29	4870.65
421.48	4713.84
421.67	4793.42
421.86	4915.12
422.05	4755.97
422.24	4835.55
422.43	4819.16
422.61	5032.15
422.80	5111.73
422.99	5032.15
423.18	5050.88
423.37	4968.96
423.56	4994.70
423.75	4844.91
423.94	4919.81
424.13	4702.14
424.32	4697.46
424.50	5064.92
424.69	5132.79
424.88	5093.01
425.07	4966.62
425.26	5050.88
425.45	4863.63
425.64	4983.00
425.83	5004.07
426.01	5135.14
426.20	5015.77
426.39	5004.07
426.58	5029.81
426.77	5123.43
426.96	5083.64
427.15	5102.37
427.33	5437.06
427.52	5226.42
427.71	5343.44
427.90	5226.42
428.09	5427.70
428.28	5270.89
428.46	5376.21
428.65	5338.76
428.84	5603.24
429.03	5509.62
429.22	5287.27
429.40	5535.37
429.59	5659.42
429.78	5324.72
429.97	5259.18
430.16	5516.64
430.34	5661.76
430.53	5750.70
430.72	5689.84
430.91	5600.90
431.10	5621.97
431.28	5558.77
431.47	5823.25
431.66	5909.85
431.85	5607.92
432.03	5865.38
432.22	6022.20
432.41	6003.47
432.60	5839.64
432.79	6106.46
432.97	6008.16
433.16	5966.03
433.35	6157.95
433.54	6179.01
433.72	6340.51
433.91	6195.40
434.10	6296.04
434.28	6211.78
434.47	6141.57
434.66	6164.97
434.85	6293.70
435.03	6413.07
435.22	6242.21
435.41	6347.53
435.59	6523.07
435.78	6562.86
435.97	6497.33
436.16	6380.30
436.34	6389.66
436.53	6539.46
436.72	6707.98
436.90	6504.35
437.09	6752.45
437.28	6441.15
437.46	6743.08
437.65	6700.95
437.84	6656.48
438.02	6810.96
438.21	6897.56
438.40	6654.14
438.58	7009.90
438.77	7119.91
438.96	7054.37
439.14	7178.42
439.33	7276.73
439.52	7199.49
439.70	7246.30
439.89	7342.26
440.08	7414.82
440.26	7475.67
440.45	7370.35
440.63	7576.31
440.82	7777.60
441.01	7602.06
441.19	7758.88
441.38	7740.15
441.57	7557.59
441.75	7871.22
441.94	8173.15
442.12	7981.23
442.31	8013.99
442.50	7861.86
442.68	7927.39
442.87	7967.18
443.05	8119.32
443.24	8210.60
443.43	8236.35
443.61	8112.30
443.80	8531.25
443.98	8095.91
444.17	7911.01
444.35	8292.52
444.54	8500.83
444.73	8475.08
444.91	8397.84
445.10	8437.63
445.28	8311.24
445.47	8388.48
445.65	8542.96
445.84	8461.04
446.02	8514.87
446.21	8512.53
446.39	8531.25
446.58	8596.79
446.77	8636.58
446.95	8365.07
447.14	8454.02
447.32	8882.33
447.51	8585.08
447.69	8690.41
447.88	8678.71
448.06	8582.74
448.25	8697.43
448.43	8758.28
448.62	8805.10
448.80	8503.17
448.99	8615.51
449.17	8793.39
449.36	8720.84
449.54	8940.85
449.73	9025.11
449.91	9004.04
450.10	9057.87
450.28	9132.77
450.46	9055.53
450.65	8861.27
450.83	9217.03
451.02	9090.64
451.20	9137.45
451.39	9303.63
451.57	9083.62
451.76	9046.17
451.94	9294.27
452.13	9507.26
452.31	9235.75
452.49	9231.07
452.68	9509.60
452.86	9329.38
453.05	9502.58
453.23	9572.79
453.42	9451.08
453.60	9437.04
453.78	9727.27
453.97	9434.70
454.15	9523.64
454.34	9444.06
454.52	9661.73
454.70	9813.87
454.89	9858.34
455.07	9753.01
455.26	9970.68
455.44	10092.39
455.62	10129.84
455.81	9966.00
455.99	9895.78
456.17	10286.65
456.36	10186.01
456.54	10171.97
456.73	10253.89
456.91	10532.41
457.09	10485.60
457.28	10841.36
457.46	10356.87
457.64	10602.63
457.83	10525.39
458.01	10459.85
458.19	10710.29
458.38	10438.79
458.56	10857.75
458.74	10768.80
458.93	10789.87
459.11	10579.22
459.29	10689.23
459.48	10902.22
459.66	11119.89
459.84	11133.93
460.03	11145.63
460.21	11227.55
460.39	11047.33
460.57	11281.38
460.76	11234.57
460.94	11199.46
461.12	11414.79
461.31	11206.48
461.49	11206.48
461.67	11290.74
461.85	11384.37
462.04	11389.05
462.22	11548.20
462.40	11683.95
462.59	11779.92
462.77	11335.21
462.95	11735.45
463.13	11798.64
463.32	11936.73
463.50	11714.38
463.68	11702.68
463.86	11913.33
464.05	11768.21
464.23	11786.94
464.41	11964.82
464.59	11988.22
464.78	12156.74
464.96	12060.78
465.14	11941.41
465.32	12241.00
465.50	12208.23
465.69	12430.59
465.87	12058.44
466.05	12205.89
466.23	12304.20
466.41	12088.87
466.60	12568.68
466.78	12138.02
466.96	12369.73
467.14	12273.77
467.32	12463.35
467.51	12582.72
467.69	12393.14
467.87	12678.68
468.05	12276.11
468.23	12776.98
468.41	12510.16
468.60	12788.69
468.78	12968.91
468.96	12496.12
469.14	12901.03
469.32	12992.31
469.50	12685.70
469.69	13266.16
469.87	13170.19
470.05	13362.12
470.23	13231.05
470.41	13427.65
470.59	13186.58
470.77	13261.48
470.95	13647.66
471.14	13741.29
471.32	13125.72
471.50	13612.56
471.68	13664.05
471.86	13671.07
472.04	13696.82
472.22	13848.95
472.40	13692.13
472.58	13940.23
472.77	14160.24
472.95	14356.85
473.13	14836.66
473.31	14200.03
473.49	14558.13
473.67	14272.59
473.85	14312.38
474.03	14616.65
474.21	14700.90
474.39	14946.66
474.57	15124.54
474.75	15227.53
474.93	15115.18
475.12	14857.72
475.30	15248.59
475.48	15204.12
475.66	15309.44
475.84	15152.63
476.02	15604.35
476.20	15580.95
476.38	15995.22
476.56	16020.97
476.74	16126.29
476.92	15932.03
477.10	15878.19
477.28	16208.21
477.46	15981.18
477.64	16533.54
477.82	16622.48
478.00	17015.69
478.18	16727.81
478.36	17238.05
478.54	17170.17
478.72	17338.69
478.90	17558.70
479.08	17851.27
479.26	17928.50
479.44	17982.34
479.62	18104.04
479.80	18361.50
479.98	18129.79
480.16	18494.91
480.34	18565.13
480.52	19002.81
480.70	18703.22
480.88	18511.30
481.06	18941.96
481.24	19138.56
481.41	19143.24
481.59	19496.66
481.77	19506.02
481.95	19803.27
482.13	20030.30
482.31	19871.15
482.49	20168.40
482.67	20318.19
482.85	20395.43
483.03	20830.77
483.21	20964.18
483.39	21053.12
483.57	20657.57
483.74	21326.96
483.92	21364.41
484.10	21277.81
484.28	21710.81
484.46	22134.45
484.64	22492.55
484.82	22277.22
485.00	22408.29
485.18	22918.53
485.35	23246.20
485.53	23192.37
485.71	23267.27
485.89	23449.83
486.07	23866.44
486.25	23564.51
486.43	23789.20
486.61	23974.11
486.78	24479.66
486.96	24194.12
487.14	24907.98
487.32	24933.73
487.50	25111.61
487.68	25104.59
487.85	25682.70
488.03	25694.40
488.21	26319.32
488.39	25979.95
488.57	26349.75
488.75	26527.63
488.92	26679.77
489.10	27091.70
489.28	27182.98
489.46	27290.65
489.64	26991.06
489.81	28116.86
489.99	27695.56
490.17	28048.98
490.35	28533.47
490.53	28577.94
490.70	28655.18
490.88	28388.36
491.06	29120.95
491.24	29303.51
491.41	28975.83
491.59	29308.19
491.77	29530.54
491.95	30075.88
492.13	30249.08
492.30	30099.29
492.48	30536.97
492.66	30438.67
492.84	30590.80
493.01	30927.84
493.19	30845.92
493.37	31185.30
493.54	31424.03
493.72	31321.05
493.90	31857.03
494.08	31995.12
494.25	32210.45
494.43	32503.02
494.61	32627.07
494.79	32687.92
494.96	32847.08
495.14	33352.63
495.32	33287.10
495.49	33319.87
495.67	33656.90
495.85	33701.37
496.02	33888.62
496.20	34117.99
496.38	34054.79
496.55	34476.09
496.73	35063.57
496.91	34590.78
497.09	34979.31
497.26	35122.08
497.44	35351.45
497.62	35372.52
497.79	36079.36
497.97	35641.68
498.14	36116.81
498.32	36531.08
498.50	36397.67
498.67	36938.33
498.85	36865.78
499.03	36985.15
499.20	37088.13
499.38	37022.59
499.56	37448.57
499.73	37263.67
499.91	37752.84
500.08	38038.39
500.26	37694.33
500.44	37942.42
500.61	38068.81
500.79	38176.48
500.97	38801.40
501.14	38642.24
501.32	38607.14
501.49	38656.29
501.67	38686.71
501.84	39360.79
502.02	39395.90
502.20	39559.73
502.37	39662.72
502.55	39971.67
502.72	39784.43
502.90	39665.06
503.07	39597.18
503.25	40116.78
503.43	40175.30
503.60	40552.12
503.78	40481.91
503.95	40683.19
504.13	40931.29
504.30	40758.09
504.48	40975.76
504.65	41008.53
504.83	41212.15
505.01	41532.81
505.18	41640.47
505.36	42054.75
505.53	41598.34
505.71	42178.79
505.88	42298.16
506.06	41855.80
506.23	42417.53
506.41	42344.97
506.58	42284.12
506.76	42279.44
506.93	42981.60
507.11	42667.97
507.28	42366.04
507.46	43203.95
507.63	43297.57
507.81	43538.65
507.98	42986.28
508.16	43035.43
508.33	43784.40
508.50	43814.83
508.68	43852.28
508.85	44280.60
509.03	44116.76
509.20	44142.50
509.38	44758.06
509.55	44835.30
509.73	44549.76
509.90	44865.73
510.08	44898.50
510.25	45069.36
510.42	45209.79
510.60	44954.67
510.77	45778.54
510.95	45614.70
511.12	45301.07
511.30	45741.09
511.47	45528.10
511.64	45935.35
511.82	46234.94
511.99	45792.58
512.17	46263.03
512.34	46239.62
512.51	46948.81
512.69	46878.59
512.86	46869.23
513.04	47224.99
513.21	46651.56
513.38	47276.48
513.56	47082.22
513.73	47487.13
513.90	47508.19
514.08	47725.86
514.25	47540.96
514.43	47402.87
514.60	47833.53
514.77	47840.55
514.95	47971.62
515.12	48048.86
515.29	48034.81
515.47	48289.93
515.64	48699.53
515.81	48303.98
515.99	48603.56
516.16	48692.50
516.33	48641.01
516.51	49031.88
516.68	49132.53
516.85	48706.55
517.03	49251.89
517.20	49303.38
517.37	49118.48
517.54	49387.64
517.72	49099.76
517.89	49453.18
518.06	49411.05
518.24	49532.76
518.41	49532.76
518.58	49705.96
518.75	49485.95
518.93	49954.05
519.10	49837.03
519.27	50021.93
519.45	50307.47
519.62	50075.76
519.79	50583.66
519.96	50780.26
520.14	50258.32
520.31	50602.38
520.48	50686.64
520.65	50260.66
520.83	50848.14
521.00	50887.93
521.17	50726.43
521.34	50724.09
521.52	51145.39
521.69	50953.46
521.86	51337.31
522.03	51405.19
522.20	51636.90
522.38	51737.54
522.55	51475.40
522.72	51562.00
522.89	51526.89
523.07	52179.90
523.24	52016.07
523.41	51679.03
523.58	51784.35
523.75	52069.90
523.92	52123.73
524.10	52343.74
524.27	52577.79
524.44	52381.19
524.61	52135.43
524.78	52250.12
524.96	52486.51
525.13	52556.73
525.30	52877.38
525.47	52809.51
525.64	52870.36
525.81	52711.20
525.98	53099.73
526.16	52907.81
526.33	52912.49
526.50	53183.99
526.67	53048.24
526.84	53160.59
527.01	53088.03
527.18	53130.16
527.36	53340.81
527.53	53373.58
527.70	53359.53
527.87	53268.25
528.04	53471.88
528.21	53357.19
528.38	53467.20
528.55	53640.40
528.72	53675.51
528.89	53914.24
529.07	53846.36
529.24	53649.76
529.41	53968.07
529.58	53932.96
529.75	53757.42
529.92	54138.93
530.09	54232.55
530.26	53993.82
530.43	53991.48
530.60	54089.78
530.77	54117.87
530.94	54497.03
531.11	54094.46
531.28	54349.58
531.46	54190.42
531.63	54424.48
531.80	54630.44
531.97	54700.66
532.14	54693.64
532.31	54695.98
532.48	54681.94
532.65	55047.06
532.82	54813.01
532.99	54763.85
533.16	54857.48
533.33	55154.72
533.50	55224.94
533.67	54915.99
533.84	55297.50
534.01	55079.83
534.18	55112.59
534.35	55566.66
534.52	55131.32
534.69	55384.10
534.86	55451.97
535.03	55157.06
535.20	55360.69
535.37	55648.58
535.54	55739.86
535.71	55458.99
535.88	55482.40
536.05	55737.52
536.22	55786.67
536.38	55875.61
536.55	55791.35
536.72	55941.14
536.89	55828.80
537.06	55973.91
537.23	56182.22
537.40	55796.03
537.57	55716.45
537.74	56048.81
537.91	56364.78
538.08	56219.67
538.25	55840.50
538.42	56222.01
538.59	56114.34
538.75	56104.98
538.92	56156.47
539.09	56224.35
539.26	56479.47
539.43	56020.72
539.60	56430.32
539.77	56530.96
539.94	56552.02
540.11	56563.73
540.28	56556.70
540.44	56781.40
540.61	56804.80
540.78	56449.04
540.95	56823.53
541.12	56610.54
541.29	56453.72
541.46	56706.50
541.62	56776.72
541.79	56732.25
541.96	56350.74
542.13	56575.43
542.30	57017.79
542.47	56898.42
542.63	57013.11
542.80	56945.23
542.97	57240.14
543.14	57354.83
543.31	57380.57
543.48	57497.60
543.64	57581.86
543.81	57537.39
543.98	57364.19
544.15	57495.26
544.32	57724.63
544.48	57780.81
544.65	57626.33
544.82	57949.32
544.99	57539.73
545.16	57394.62
545.32	57675.48
545.49	57881.45
545.66	57762.08
545.83	57946.98
546.00	57733.99
546.16	57907.19
546.33	57710.59
546.50	57825.28
546.67	57991.45
546.83	57792.51
547.00	57844.00
547.17	58049.97
547.34	57794.85
547.50	58061.67
547.67	58349.56
547.84	58159.97
548.00	58246.57
548.17	58506.37
548.34	58410.41
548.51	58321.47
548.67	58143.59
548.84	58286.36
549.01	58223.17
549.18	58293.38
549.34	58433.81
549.51	58607.01
549.68	58602.33
549.84	58592.97
550.01	58742.77
550.18	58363.60
550.34	58417.43
550.51	58602.33
550.68	58775.53
550.84	58459.56
551.01	58784.90
551.18	58602.33
551.34	58677.23
551.51	58869.15
551.68	58623.40
551.84	58658.51
552.01	58614.04
552.18	58869.15
552.34	58424.45
552.51	58915.96
552.68	59014.27
552.84	59000.22
553.01	59241.30
553.18	58972.14
553.34	59084.48
553.51	58953.41
553.67	58965.12
553.84	59309.18
554.01	59117.25
554.17	59194.49
554.34	59269.39
554.51	59147.68
554.67	59271.73
554.84	59040.01
555.00	59316.20
555.17	59056.40
555.33	59150.02
555.50	59051.72
555.67	59206.19
555.83	59210.87
556.00	59304.49
556.16	59639.19
556.33	59604.08
556.50	59423.86
556.66	59447.27
556.83	59290.45
556.99	59686.00
557.16	59590.04
557.32	59632.17
557.49	59873.24
557.65	59529.19
557.82	59440.24
557.98	59554.93
558.15	59533.87
558.32	59618.13
558.48	59657.91
558.65	59686.00
558.81	59557.27
558.98	59702.38
559.14	59723.45
559.31	59877.93
559.47	60018.36
559.64	59959.84
559.80	60020.70
559.97	59950.48
560.13	59814.73
560.30	60074.53
560.46	59852.18
560.63	60093.25
560.79	60020.70
560.96	60151.77
561.12	59800.69
561.29	60102.62
561.45	59863.88
561.61	59994.95
561.78	60069.85
561.94	60147.09
562.11	59987.93
562.27	60104.96
562.44	59992.61
562.60	60163.47
562.77	60135.38
562.93	60020.70
563.10	60121.34
563.26	59985.59
563.42	60264.11
563.59	60308.58
563.75	60107.30
563.92	60123.68
564.08	60107.30
564.24	60528.59
564.41	60252.41
564.57	60434.97
564.74	60189.22
564.90	60324.97
565.07	60306.24
565.23	60434.97
565.39	60367.10
565.56	60420.93
565.72	60247.73
565.88	60444.33
566.05	60224.32
566.21	60343.69
566.38	60559.02
566.54	60364.76
566.70	60498.17
566.87	60505.19
567.03	60392.84
567.19	60678.39
567.36	60659.66
567.52	60493.49
567.68	60704.13
567.85	60549.66
568.01	60671.37
568.17	60399.86
568.34	60666.69
568.50	60589.45
568.66	60441.99
568.83	60898.40
568.99	60472.42
569.15	60647.96
569.32	60568.38
569.48	60568.38
569.64	60800.10
569.81	60556.68
569.97	60587.11
570.13	60544.98
570.30	60526.25
570.46	60711.16
570.62	60678.39
570.78	60699.45
570.95	60772.01
571.11	60708.82
571.27	60694.77
571.43	60711.16
571.60	60949.89
571.76	60842.23
571.92	60891.38
572.09	60849.25
572.25	60992.02
572.41	60772.01
572.57	60720.52
572.74	61017.77
572.90	60725.20
573.06	60797.76
573.22	60889.04
573.38	60666.69
573.55	60874.99
573.71	61022.45
573.87	60926.49
574.03	60743.92
574.20	61123.09
574.36	60680.73
574.52	60865.63
574.68	60764.99
574.84	60992.02
575.01	61017.77
575.17	60865.63
575.33	60905.42
575.49	60680.73
575.65	61022.45
575.82	61174.58
575.98	60942.87
576.14	60938.19
576.30	61137.13
576.46	60996.70
576.62	60828.18
576.79	60835.20
576.95	60853.93
577.11	60877.33
577.27	61076.28
577.43	61038.83
577.59	60849.25
577.75	60910.10
577.92	60952.23
578.08	60830.52
578.24	61076.28
578.40	61223.73
578.56	61083.30
578.72	61069.26
578.88	61146.50
579.04	61415.66
579.21	61162.88
579.37	61167.56
579.53	61078.62
579.69	60825.84
579.85	61008.40
580.01	61057.56
580.17	61003.72
580.33	61139.47
580.49	61052.87
580.65	60996.70
580.82	61151.18
580.98	60711.16
581.14	60924.14
581.30	61059.90
581.46	60856.27
581.62	61092.66
581.78	60956.91
581.94	61219.05
582.10	61020.11
582.26	61024.79
582.42	61064.58
582.58	60985.00
582.74	61197.99
582.90	61169.90
583.06	61057.56
583.22	61022.45
583.38	61132.45
583.54	61303.31
583.70	61186.28
583.86	61179.26
584.02	60996.70
584.18	61200.33
584.34	61160.54
584.50	61284.59
584.66	61106.71
584.82	61057.56
584.98	61186.28
585.14	61324.38
585.30	61034.15
585.46	61286.93
585.62	61169.90
585.78	61448.42
585.94	60860.95
586.10	61223.73
586.26	61057.56
586.42	61357.14
586.58	61432.04
586.74	61043.51
586.90	61099.68
587.06	61158.20
587.22	61476.51
587.38	61303.31
587.54	61476.51
587.70	61609.92
587.86	61202.67
588.02	61190.97
588.18	61427.36
588.34	61235.44
588.49	61134.79
