SpectraSuite Data File
++++++++++++++++++++++++++++++++++++
Date: Fri Oct 25 11:34:49 EDT 2013
User: price-jones
Dark Spectrum Present: No
Reference Spectrum Present: No
Number of Sampled Component Spectra: 1
Spectrometers: USB2+H05261
Integration Time (usec): 100000 (USB2+H05261)
Spectra Averaged: 1 (USB2+H05261)
Boxcar Smoothing: 0 (USB2+H05261)
Correct for Electrical Dark: No (USB2+H05261)
Strobe/Lamp Enabled: No (USB2+H05261)
Correct for Detector Non-linearity: No (USB2+H05261)
Correct for Stray Light: No (USB2+H05261)
Number of Pixels in Processed Spectrum: 2048
>>>>>Begin Processed Spectral Data<<<<<
365.73	280.86
365.92	280.86
366.12	280.86
366.32	187.24
366.52	236.39
366.72	161.50
366.91	166.18
367.11	170.86
367.31	100.64
367.51	243.42
367.70	159.16
367.90	262.14
368.10	131.07
368.30	248.10
368.49	189.58
368.69	245.76
368.89	154.48
369.09	196.60
369.28	236.39
369.48	236.39
369.68	255.12
369.87	243.42
370.07	280.86
370.27	278.52
370.47	315.97
370.66	458.74
370.86	484.49
371.06	535.98
371.25	575.77
371.45	531.30
371.65	613.22
371.84	503.22
372.04	543.00
372.24	559.39
372.44	514.92
372.63	606.20
372.83	622.58
373.03	711.52
373.22	580.45
373.42	653.01
373.62	594.50
373.81	615.56
374.01	674.07
374.21	601.52
374.40	645.99
374.60	582.79
374.79	641.31
374.99	617.90
375.19	561.73
375.38	678.76
375.58	617.90
375.78	657.69
375.97	596.84
376.17	702.16
376.37	695.14
376.56	610.88
376.76	667.05
376.95	760.67
377.15	692.80
377.35	608.54
377.54	674.07
377.74	660.03
377.93	629.60
378.13	723.23
378.33	641.31
378.52	617.90
378.72	727.91
378.91	685.78
379.11	653.01
379.31	704.50
379.50	709.18
379.70	697.48
379.89	748.97
380.09	636.63
380.28	674.07
380.48	802.80
380.68	709.18
380.87	774.72
381.07	713.86
381.26	767.70
381.46	685.78
381.65	760.67
381.85	723.23
382.04	697.48
382.24	748.97
382.43	660.03
382.63	739.61
382.83	730.25
383.02	821.53
383.22	779.40
383.41	777.06
383.61	786.42
383.80	807.48
384.00	772.38
384.19	786.42
384.39	814.51
384.58	774.72
384.78	821.53
384.97	851.96
385.17	833.23
385.36	770.04
385.56	849.61
385.75	788.76
385.95	854.30
386.14	805.14
386.34	779.40
386.53	772.38
386.72	802.80
386.92	837.91
387.11	835.57
387.31	837.91
387.50	830.89
387.70	884.72
387.89	765.36
388.09	858.98
388.28	912.81
388.48	847.27
388.67	854.30
388.86	880.04
389.06	957.28
389.25	908.13
389.45	938.55
389.64	987.71
389.84	950.26
390.03	858.98
390.22	950.26
390.42	922.17
390.61	978.34
390.81	947.92
391.00	1015.79
391.19	1032.18
391.39	1043.88
391.58	980.68
391.78	997.07
391.97	978.34
392.16	971.32
392.36	1004.09
392.55	1074.31
392.75	1060.26
392.94	990.05
393.13	1004.09
393.33	1036.86
393.52	1086.01
393.71	973.66
393.91	1083.67
394.10	1046.22
394.29	1029.84
394.49	1081.33
394.68	1076.65
394.88	1083.67
395.07	1041.54
395.26	1015.79
395.46	1153.88
395.65	1172.61
395.84	1116.44
396.04	1156.22
396.23	1149.20
396.42	1181.97
396.62	1158.57
396.81	1165.59
397.00	1128.14
397.19	1203.04
397.39	1198.35
397.58	1135.16
397.77	1181.97
397.97	1235.80
398.16	1231.12
398.35	1320.06
398.55	1219.42
398.74	1287.29
398.93	1245.16
399.12	1277.93
399.32	1212.40
399.51	1221.76
399.70	1310.70
399.90	1284.95
400.09	1273.25
400.28	1226.44
400.47	1315.38
400.67	1334.11
400.86	1338.79
401.05	1313.04
401.24	1282.61
401.44	1432.41
401.63	1460.49
401.82	1383.26
402.01	1390.28
402.21	1446.45
402.40	1387.94
402.59	1359.85
402.78	1420.71
402.97	1479.22
403.17	1448.79
403.36	1448.79
403.55	1451.13
403.74	1540.07
403.93	1563.48
404.13	1537.73
404.32	1568.16
404.51	1554.12
404.70	1605.61
404.89	1519.01
405.09	1572.84
405.28	1497.94
405.47	1540.07
405.66	1682.85
405.85	1631.35
406.05	1568.16
406.24	1792.85
406.43	1680.50
406.62	1708.59
406.81	1858.39
407.00	1685.19
407.20	1732.00
407.39	1647.74
407.58	1771.79
407.77	1811.57
407.96	1797.53
408.15	1767.10
408.34	1816.26
408.54	1884.13
408.73	1858.39
408.92	1877.11
409.11	1930.94
409.30	1830.30
409.49	1895.83
409.68	1813.92
409.87	1881.79
410.07	2104.14
410.26	1947.33
410.45	2017.54
410.64	1923.92
410.83	2031.58
411.02	1998.82
411.21	2008.18
411.40	2083.08
411.59	2169.68
411.78	2129.89
411.98	2087.76
412.17	2045.63
412.36	2195.42
412.55	2190.74
412.74	2150.95
412.93	2190.74
413.12	2209.47
413.31	2284.36
413.50	2183.72
413.69	2211.81
413.88	2448.20
414.07	2438.84
414.26	2342.88
414.45	2471.61
414.64	2368.62
414.83	2363.94
415.02	2513.74
415.22	2546.50
415.41	2502.03
415.60	2572.25
415.79	2513.74
415.98	2579.27
416.17	2619.06
416.36	2548.84
416.55	2569.91
416.74	2736.09
416.93	2675.23
417.12	2752.47
417.31	2684.59
417.50	2792.26
417.69	2775.88
417.88	2759.49
418.07	2806.30
418.26	2759.49
418.45	2801.62
418.64	2841.41
418.83	2857.79
419.02	2897.58
419.21	2967.80
419.39	2972.48
419.58	2995.89
419.77	2918.65
419.96	2998.23
420.15	2984.18
420.34	3063.76
420.53	3000.57
420.72	3040.36
420.91	2949.08
421.10	3126.96
421.29	3122.27
421.48	3070.78
421.67	3162.06
421.86	3084.83
422.05	3059.08
422.24	3159.72
422.43	3222.92
422.61	3115.25
422.80	3258.03
422.99	3239.30
423.18	3311.86
423.37	3215.90
423.56	3204.19
423.75	3208.87
423.94	3145.68
424.13	3063.76
424.32	3176.11
424.50	3194.83
424.69	3248.66
424.88	3309.52
425.07	3169.09
425.26	3243.98
425.45	3300.16
425.64	3260.37
425.83	3133.98
426.01	3283.77
426.20	3269.73
426.39	3283.77
426.58	3414.84
426.77	3370.37
426.96	3494.42
427.15	3307.18
427.33	3379.73
427.52	3300.16
427.71	3400.80
427.90	3433.57
428.09	3424.20
428.28	3576.34
428.46	3522.51
428.65	3461.65
428.84	3557.61
429.03	3534.21
429.22	3503.78
429.40	3480.38
429.59	3691.02
429.78	3492.08
429.97	3508.46
430.16	3548.25
430.34	3644.21
430.53	3641.87
430.72	3658.26
430.91	3749.54
431.10	3691.02
431.28	3698.05
431.47	3777.62
431.66	3695.71
431.85	3744.86
432.03	3674.64
432.22	3861.88
432.41	3726.13
432.60	3815.07
432.79	3843.16
432.97	3878.27
433.16	3772.94
433.35	3845.50
433.54	4032.74
433.72	4046.79
433.91	4051.47
434.10	4039.76
434.28	3866.56
434.47	4102.96
434.66	4095.94
434.85	4079.55
435.03	4098.28
435.22	4079.55
435.41	4346.37
435.59	4121.68
435.78	4201.26
435.97	4142.75
436.16	4219.99
436.34	4086.58
436.53	4198.92
436.72	4440.00
436.90	4264.46
437.09	4278.50
437.28	4203.60
437.46	4278.50
437.65	4322.97
437.84	4362.76
438.02	4365.10
438.21	4383.82
438.40	4344.03
438.58	4482.13
438.77	4578.09
438.96	4458.72
439.14	4660.01
439.33	4573.41
439.52	4587.45
439.70	4676.39
439.89	4711.50
440.08	4819.16
440.26	4674.05
440.45	4755.97
440.63	4730.22
440.82	4779.37
441.01	4798.10
441.19	4835.55
441.38	4938.53
441.57	4901.08
441.75	4978.32
441.94	5125.77
442.12	5191.31
442.31	5160.88
442.50	5114.07
442.68	5088.32
442.87	5121.09
443.05	5163.22
443.24	5163.22
443.43	5107.05
443.61	5338.76
443.80	5516.64
443.98	5076.62
444.17	4959.60
444.35	5345.78
444.54	5322.38
444.73	5191.31
444.91	5310.68
445.10	5352.81
445.28	5221.74
445.47	5303.65
445.65	5287.27
445.84	5444.09
446.02	5193.65
446.21	5341.10
446.39	5238.12
446.58	5437.06
446.77	5453.45
446.95	5418.34
447.14	5343.44
447.32	5533.03
447.51	5296.63
447.69	5549.41
447.88	5390.25
448.06	5453.45
448.25	5273.23
448.43	5472.17
448.62	5486.22
448.80	5448.77
448.99	5509.62
449.17	5568.13
449.36	5638.35
449.54	5764.74
449.73	5657.07
449.91	5797.51
450.10	5760.06
450.28	5799.85
450.46	5762.40
450.65	5753.04
450.83	5886.45
451.02	5724.95
451.20	5874.74
451.39	5870.06
451.57	5839.64
451.76	5738.99
451.94	5954.32
452.13	5916.87
452.31	5832.62
452.49	5884.11
452.68	5963.68
452.86	6038.58
453.05	6111.14
453.23	6017.52
453.42	6008.16
453.60	6022.20
453.78	6038.58
453.97	5912.19
454.15	6057.31
454.34	5968.37
454.52	6284.34
454.70	6293.70
454.89	6253.91
455.07	6202.42
455.26	6174.33
455.44	6228.17
455.62	6328.81
455.81	6417.75
455.99	6490.31
456.17	6429.45
456.36	6450.52
456.54	6574.56
456.73	6511.37
456.91	6544.14
457.09	6588.61
457.28	6602.65
457.46	6534.78
457.64	6586.27
457.83	6637.76
458.01	6649.46
458.19	6754.79
458.38	6698.61
458.56	6743.08
458.74	6703.29
458.93	6806.28
459.11	6764.15
459.29	6612.01
459.48	6986.50
459.66	6715.00
459.84	6986.50
460.03	7192.47
460.21	6885.86
460.39	6993.52
460.57	6993.52
460.76	7162.04
460.94	7012.24
461.12	7232.26
461.31	7080.12
461.49	7117.57
461.67	7087.14
461.85	7110.55
462.04	7119.91
462.22	7351.62
462.40	7449.93
462.59	7384.39
462.77	7346.94
462.95	7339.92
463.13	7276.73
463.32	7368.01
463.50	7267.36
463.68	7485.03
463.86	7480.35
464.05	7215.87
464.23	7258.00
464.41	7480.35
464.59	7405.46
464.78	7681.64
464.96	7375.03
465.14	7470.99
465.32	7581.00
465.50	7815.05
465.69	7698.02
465.87	7885.26
466.05	7686.32
466.23	7707.38
466.41	7749.51
466.60	7908.67
466.78	7824.41
466.96	7810.37
467.14	7808.03
467.32	7775.26
467.51	7887.61
467.69	7672.28
467.87	7868.88
468.05	8159.11
468.23	7880.58
468.41	7859.52
468.60	7899.31
468.78	7953.14
468.96	7974.21
469.14	8098.25
469.32	8060.80
469.50	8025.70
469.69	8299.54
469.87	8245.71
470.05	8135.70
470.23	8191.88
470.41	8341.67
470.59	8470.40
470.77	8458.70
470.95	8119.32
471.14	8617.85
471.32	8409.54
471.50	8383.80
471.68	8585.08
471.86	8491.46
472.04	8779.35
472.22	8802.75
472.40	8599.13
472.58	8709.13
472.77	8877.65
472.95	8910.42
473.13	8964.25
473.31	8926.80
473.49	8877.65
473.67	8791.05
473.85	9062.55
474.03	9114.05
474.21	9231.07
474.39	9081.28
474.57	9146.81
474.75	9308.31
474.93	9423.00
475.12	9432.36
475.30	9418.32
475.48	9483.85
475.66	9483.85
475.84	9575.13
476.02	9497.89
476.20	9525.98
476.38	9795.14
476.56	9834.93
476.74	9741.31
476.92	9816.21
477.10	9935.57
477.28	9926.21
477.46	10216.44
477.64	10160.27
477.82	10422.41
478.00	10654.12
478.18	10445.81
478.36	10501.98
478.54	10696.25
478.72	10726.68
478.90	10867.11
479.08	10953.71
479.26	10801.57
479.44	10967.75
479.62	11084.78
479.80	11119.89
479.98	11332.87
480.16	11522.46
480.34	11290.74
480.52	11545.86
480.70	11506.07
480.88	11375.00
481.06	11735.45
481.24	11534.16
481.41	11960.14
481.59	11985.88
481.77	12208.23
481.95	12248.02
482.13	12393.14
482.31	12311.22
482.49	12517.18
482.67	12627.19
482.85	12861.24
483.03	12751.24
483.21	12622.51
483.39	12919.76
483.57	12706.77
483.74	13160.83
483.92	13331.69
484.10	13205.30
484.28	13378.50
484.46	13561.06
484.64	13682.77
484.82	13701.50
485.00	13926.19
485.18	14260.88
485.35	14059.60
485.53	14160.24
485.71	14382.59
485.89	14532.39
486.07	14487.92
486.25	14569.83
486.43	14534.73
486.61	14616.65
486.78	15075.39
486.96	14974.75
487.14	15119.86
487.32	14991.13
487.50	15309.44
487.68	15279.02
487.85	15669.89
488.03	15857.13
488.21	16020.97
488.39	16002.24
488.57	15903.94
488.75	16336.94
488.92	16123.95
489.10	16292.47
489.28	16299.49
489.46	16762.92
489.64	16769.94
489.81	17083.57
489.99	17090.59
490.17	17071.87
490.35	17336.35
490.53	17357.41
490.70	17767.01
490.88	17521.25
491.06	17525.93
491.24	17816.16
491.41	17947.23
491.59	18003.40
491.77	18211.71
491.95	18223.41
492.13	18335.76
492.30	18403.63
492.48	18499.59
492.66	18588.53
492.84	18920.89
493.01	18853.02
493.19	18815.57
493.37	19037.92
493.54	19300.06
493.72	19365.59
493.90	19543.47
494.08	19475.60
494.25	19641.78
494.43	19999.88
494.61	19894.55
494.79	19901.58
494.96	20121.59
495.14	20119.24
495.32	20217.55
495.49	20308.83
495.67	20535.86
495.85	20311.17
496.02	20821.41
496.20	21095.25
496.38	20961.84
496.55	20872.90
496.73	21331.64
496.91	21053.12
497.09	21256.75
497.26	21556.33
497.44	21532.93
497.62	21839.54
497.79	21958.91
497.97	22052.53
498.14	22167.21
498.32	22082.95
498.50	22497.23
498.67	22455.10
498.85	22445.74
499.03	22686.81
499.20	22497.23
499.38	22661.07
499.56	22883.42
499.73	22750.01
499.91	23154.92
500.08	23358.55
500.26	23126.83
500.44	23304.71
500.61	23267.27
500.79	22953.63
500.97	23503.66
501.14	23964.75
501.32	23599.62
501.49	23339.82
501.67	23845.38
501.84	24299.44
502.02	24011.56
502.20	23948.36
502.37	24334.55
502.55	24257.31
502.72	24489.03
502.90	24458.60
503.07	24203.48
503.25	24559.24
503.43	24510.09
503.60	24821.38
503.78	24957.13
503.95	24702.01
504.13	25142.03
504.30	25252.04
504.48	24929.05
504.65	24938.41
504.83	25502.48
505.01	25692.06
505.18	25738.87
505.36	25993.99
505.53	25724.83
505.71	25919.09
505.88	25635.89
506.06	25406.52
506.23	25909.73
506.41	25490.77
506.58	26059.52
506.76	26167.19
506.93	26202.30
507.11	26321.66
507.28	26700.83
507.46	26401.24
507.63	26621.25
507.81	26757.00
507.98	26600.19
508.16	26787.43
508.33	26806.16
508.50	26930.20
508.68	27281.28
508.85	27208.73
509.03	27143.19
509.20	27257.88
509.38	27473.21
509.55	27709.60
509.73	27269.58
509.90	27644.07
510.08	27728.33
510.25	27807.90
510.42	27665.13
510.60	28091.11
510.77	27910.89
510.95	28243.24
511.12	28158.99
511.30	28371.97
511.47	28060.68
511.64	28130.90
511.82	28442.19
511.99	28325.16
512.17	28364.95
512.34	28666.88
512.51	28650.50
512.69	29006.26
512.86	28737.10
513.04	28980.51
513.21	29088.18
513.38	29404.15
513.56	29303.51
513.73	29149.03
513.90	29010.94
514.08	29277.76
514.25	29549.26
514.43	29509.47
514.60	29783.32
514.77	29680.33
514.95	29816.08
515.12	29528.20
515.29	29811.40
515.47	30096.95
515.64	30038.44
515.81	29757.57
515.99	30555.69
516.16	30221.00
516.33	30462.07
516.51	30707.83
516.68	30614.21
516.85	30408.24
517.03	30625.91
517.20	30827.20
517.37	30572.08
517.54	30665.70
517.72	30604.84
517.89	30504.20
518.06	31145.51
518.24	31180.62
518.41	30974.65
518.58	31054.23
518.75	31030.82
518.93	31459.14
519.10	31374.88
519.27	31541.06
519.45	31672.13
519.62	31906.18
519.79	31435.74
519.96	31608.93
520.14	31592.55
520.31	31412.33
520.48	32032.57
520.65	31704.90
520.83	32016.19
521.00	32332.16
521.17	32226.84
521.34	32439.82
521.52	32648.13
521.69	32231.52
521.86	32645.79
522.03	32547.49
522.20	32711.33
522.38	33469.66
522.55	33123.26
522.72	33053.05
522.89	32575.58
523.07	33106.88
523.24	33083.47
523.41	33179.43
523.58	32795.59
523.75	33301.14
523.92	32746.44
524.10	33387.74
524.27	33354.97
524.44	33745.84
524.61	33743.50
524.78	33692.01
524.96	33645.20
525.13	33750.52
525.30	33724.78
525.47	33998.62
525.64	34057.14
525.81	34377.79
525.98	34136.71
526.16	34291.19
526.33	33766.91
526.50	34384.81
526.67	33855.85
526.84	34012.66
527.01	34359.06
527.18	34855.26
527.36	34876.32
527.53	34775.68
527.70	34710.14
527.87	34785.04
528.04	34644.61
528.21	34965.26
528.38	34817.81
528.55	35239.11
528.72	34845.90
528.89	34995.69
529.07	35248.47
529.24	35379.54
529.41	35222.72
529.58	35435.71
529.75	35042.50
529.92	35489.54
530.09	35180.59
530.26	35758.70
530.43	35557.42
530.60	35051.86
530.77	35943.61
530.94	35700.19
531.11	35637.00
531.28	35517.63
531.46	35674.45
531.63	35800.83
531.80	35566.78
531.97	36149.57
532.14	35784.45
532.31	36451.50
532.48	36142.55
532.65	36505.34
532.82	36161.28
532.99	36261.92
533.16	35962.33
533.33	36322.77
533.50	36613.00
533.67	36655.13
533.84	36414.05
534.01	36318.09
534.18	36456.18
534.35	36978.12
534.52	36718.32
534.69	36823.65
534.86	37446.23
535.03	37060.04
535.20	37078.77
535.37	37074.09
535.54	37244.94
535.71	36870.46
535.88	37418.14
536.05	37230.90
536.22	37247.29
536.38	36802.58
536.55	37350.27
536.72	37151.32
536.89	37434.53
537.06	37514.11
537.23	37310.48
537.40	37085.79
537.57	37223.88
537.74	37481.34
537.91	37717.73
538.08	37696.67
538.25	37656.88
538.42	37731.78
538.59	38286.48
538.75	37879.23
538.92	37792.63
539.09	38246.69
539.26	38164.78
539.43	37970.51
539.60	38410.53
539.77	37846.46
539.94	38445.64
540.11	38099.24
540.28	38478.41
540.44	38141.37
540.61	38279.46
540.78	38380.10
540.95	38520.54
541.12	38546.28
541.29	38396.49
541.46	38450.32
541.62	38614.16
541.79	38852.89
541.96	38132.01
542.13	38845.87
542.30	38429.26
542.47	38801.40
542.63	39210.99
542.80	39328.02
542.97	39037.80
543.14	39494.20
543.31	38927.79
543.48	39433.35
543.64	39468.45
543.81	39594.84
543.98	39634.63
544.15	39330.36
544.32	39468.45
544.48	39812.51
544.65	39653.36
544.82	39995.07
544.99	39688.46
545.16	39283.55
545.32	39873.37
545.49	40362.54
545.66	40006.78
545.83	40215.08
546.00	39969.33
546.16	40187.00
546.33	39901.45
546.50	39861.66
546.67	40250.19
546.83	39374.83
547.00	39807.83
547.17	40119.12
547.34	39800.81
547.50	40545.10
547.67	40875.12
547.84	40577.87
548.00	40545.10
548.17	40847.03
548.34	40713.62
548.51	41106.83
548.67	40659.79
548.84	40584.89
549.01	40505.31
549.18	40343.81
549.34	40900.86
549.51	41261.30
549.68	40910.22
549.84	41113.85
550.01	40837.67
550.18	40432.75
550.34	41294.07
550.51	41137.26
550.68	41153.64
550.84	41118.53
551.01	41125.55
551.18	41296.41
551.34	41287.05
551.51	41308.11
551.68	41373.65
551.84	40690.21
552.01	41493.02
552.18	41158.32
552.34	41453.23
552.51	41329.18
552.68	41022.57
552.84	41109.17
553.01	41390.03
553.18	41537.49
553.34	41820.69
553.51	41296.41
553.67	41996.23
553.84	42127.30
554.01	41738.77
554.17	41336.20
554.34	42043.04
554.51	41542.17
554.67	42190.50
554.84	42026.66
555.00	41778.56
555.17	41846.44
555.33	42227.95
555.50	42021.98
555.67	42213.90
555.83	42335.61
556.00	42199.86
556.16	42679.67
556.33	42494.77
556.50	42052.41
556.66	42520.51
556.83	42164.75
556.99	42572.00
557.16	42679.67
557.32	42244.33
557.49	42560.30
557.65	42602.43
557.82	42377.74
557.98	42417.53
558.15	42291.14
558.32	42646.90
558.48	42323.91
558.65	42562.64
558.81	42574.34
558.98	42761.59
559.14	42408.17
559.31	42499.45
559.47	42829.46
559.64	42494.77
559.80	42590.73
559.97	42768.61
560.13	42717.12
560.30	43133.73
560.46	42969.90
560.63	42658.60
560.79	42873.93
560.96	43304.59
561.12	42859.89
561.29	42887.98
561.45	43505.88
561.61	42848.19
561.78	42920.74
561.94	42988.62
562.11	42742.86
562.27	42895.00
562.44	43248.42
562.60	43229.69
562.77	43510.56
562.93	43089.26
563.10	43604.18
563.26	43016.71
563.42	43833.55
563.59	42925.42
563.75	42993.30
563.92	43531.62
564.08	43243.74
564.24	43288.21
564.41	43288.21
564.57	43468.43
564.74	43161.82
564.90	43199.27
565.07	43386.51
565.23	43482.47
565.39	43515.24
565.56	43833.55
565.72	43461.41
565.88	43098.62
566.05	43206.29
566.21	43159.48
566.38	43447.36
566.54	43833.55
566.70	43667.37
566.87	43531.62
567.03	43639.29
567.19	44172.93
567.36	43676.74
567.52	43555.03
567.68	43913.13
567.85	43938.88
568.01	43660.35
568.17	43611.20
568.34	43721.21
568.50	43288.21
568.66	43613.54
568.83	43924.83
568.99	43665.03
569.15	43674.40
569.32	43929.51
569.48	43910.79
569.64	43957.60
569.81	43871.00
569.97	43627.59
570.13	44198.68
570.30	43271.82
570.46	43924.83
570.62	43826.53
570.78	43976.33
570.95	44196.34
571.11	44758.06
571.27	44196.34
571.43	43863.98
571.60	43887.39
571.76	43700.14
571.92	44273.57
572.09	43793.76
572.25	44348.47
572.41	44076.97
572.57	44282.94
572.74	44414.01
572.90	44074.63
573.06	44009.09
573.22	44205.70
573.38	44123.78
573.55	44334.43
573.71	44758.06
573.87	43938.88
574.03	44081.65
574.20	44217.40
574.36	44327.41
574.52	44807.22
574.68	44292.30
574.84	44568.48
575.01	44486.56
575.17	44416.35
575.33	44388.26
575.49	44285.28
575.65	44568.48
575.82	44170.59
575.98	43611.20
576.14	44390.60
576.30	44708.91
576.46	44041.86
576.62	44112.08
576.79	44444.43
576.95	44224.42
577.11	44175.27
577.27	44304.00
577.43	44353.15
577.59	44018.46
577.75	44341.45
577.92	44083.99
578.08	44404.64
578.24	44573.16
578.40	44596.57
578.56	44460.82
578.72	44418.69
578.88	44500.61
579.04	44800.19
579.21	44519.33
579.37	44116.76
579.53	44877.43
579.69	44268.89
579.85	44629.34
580.01	44676.15
580.17	44142.50
580.33	44402.30
580.49	44641.04
580.65	44577.84
580.82	44591.89
580.98	44177.61
581.14	44091.01
581.30	44664.44
581.46	44524.01
581.62	44170.59
581.78	44186.97
581.94	44643.38
582.10	44779.13
582.26	44500.61
582.42	44315.70
582.58	44470.18
582.74	44479.54
582.90	44978.07
583.06	44589.55
583.22	44273.57
583.38	44605.93
583.54	44816.58
583.70	44814.24
583.86	44790.83
584.02	44739.34
584.18	45205.11
584.34	44711.25
584.50	45179.36
584.66	44868.07
584.82	44804.88
584.98	45170.00
585.14	44591.89
585.30	44542.74
585.46	44678.49
585.62	44825.94
585.78	44980.42
585.94	44797.85
586.10	44512.31
586.26	44797.85
586.42	44924.24
586.58	44739.34
586.74	44509.97
586.90	44322.72
587.06	44509.97
587.22	44774.45
587.38	44865.73
587.54	44870.41
587.70	45186.38
587.86	44949.99
588.02	44856.37
588.18	45099.78
588.34	44601.25
588.49	44744.02
588.65	44690.19
588.81	44781.47
588.97	44800.19
589.13	44802.53
589.29	44844.66
589.45	45366.60
589.61	45350.22
589.77	45343.20
589.93	45092.76
590.08	44832.96
590.24	45523.42
