SpectraSuite Data File
++++++++++++++++++++++++++++++++++++
Date: Fri Oct 25 10:43:23 EDT 2013
User: price-jones
Dark Spectrum Present: No
Reference Spectrum Present: No
Number of Sampled Component Spectra: 1
Spectrometers: USB2+H05261
Integration Time (usec): 100000 (USB2+H05261)
Spectra Averaged: 1 (USB2+H05261)
Boxcar Smoothing: 0 (USB2+H05261)
Correct for Electrical Dark: No (USB2+H05261)
Strobe/Lamp Enabled: No (USB2+H05261)
Correct for Detector Non-linearity: No (USB2+H05261)
Correct for Stray Light: No (USB2+H05261)
Number of Pixels in Processed Spectrum: 2048
>>>>>Begin Processed Spectral Data<<<<<
365.73	37.45
365.92	37.45
366.12	37.45
366.32	0.00
366.52	0.00
366.72	23.41
366.91	35.11
367.11	7.02
367.31	0.00
367.51	0.00
367.70	25.75
367.90	0.00
368.10	9.36
368.30	60.85
368.49	0.00
368.69	86.60
368.89	65.54
369.09	32.77
369.28	37.45
369.48	11.70
369.68	86.60
369.87	86.60
370.07	58.51
370.27	159.16
370.47	222.35
370.66	306.61
370.86	383.85
371.06	428.32
371.25	400.23
371.45	425.98
371.65	404.91
371.84	437.68
372.04	491.51
372.24	510.24
372.44	451.72
372.63	521.94
372.83	449.38
373.03	472.79
373.22	505.56
373.42	524.28
373.62	484.49
373.81	559.39
374.01	496.19
374.21	500.87
374.40	528.96
374.60	543.00
374.79	599.18
374.99	505.56
375.19	587.47
375.38	575.77
375.58	543.00
375.78	685.78
375.97	671.73
376.17	664.71
376.37	617.90
376.56	631.94
376.76	669.39
376.95	603.86
377.15	517.26
377.35	669.39
377.54	660.03
377.74	702.16
377.93	685.78
378.13	674.07
378.33	653.01
378.52	615.56
378.72	711.52
378.91	681.10
379.11	671.73
379.31	617.90
379.50	692.80
379.70	697.48
379.89	732.59
380.09	678.76
380.28	596.84
380.48	676.41
380.68	629.60
380.87	737.27
381.07	685.78
381.26	678.76
381.46	624.92
381.65	772.38
381.85	711.52
382.04	711.52
382.24	777.06
382.43	802.80
382.63	720.88
382.83	779.40
383.02	716.20
383.22	713.86
383.41	739.61
383.61	819.19
383.80	744.29
384.00	770.04
384.19	781.74
384.39	765.36
384.58	866.00
384.78	755.99
384.97	816.85
385.17	758.33
385.36	767.70
385.56	751.31
385.75	807.48
385.95	770.04
386.14	823.87
386.34	884.72
386.53	842.59
386.72	795.78
386.92	887.06
387.11	880.04
387.31	798.12
387.50	814.51
387.70	840.25
387.89	854.30
388.09	781.74
388.28	858.98
388.48	901.11
388.67	915.15
388.86	938.55
389.06	938.55
389.25	1011.11
389.45	1057.92
389.64	919.83
389.84	997.07
390.03	999.41
390.22	1064.94
390.42	898.77
390.61	1034.52
390.81	1032.18
391.00	1107.07
391.19	1172.61
391.39	1142.18
391.58	1041.54
391.78	1060.26
391.97	1041.54
392.16	983.02
392.36	1041.54
392.55	1022.81
392.75	1001.75
392.94	954.94
393.13	1053.24
393.33	978.34
393.52	1071.97
393.71	1149.20
393.91	1027.50
394.10	1107.07
394.29	1095.37
394.49	1130.48
394.68	1153.88
394.88	1137.50
395.07	1200.69
395.26	1324.74
395.46	1210.06
395.65	1277.93
395.84	1263.89
396.04	1245.16
396.23	1184.31
396.42	1207.72
396.62	1193.67
396.81	1172.61
397.00	1217.08
397.19	1299.00
397.39	1371.55
397.58	1416.02
397.77	1376.24
397.97	1416.02
398.16	1413.68
398.35	1441.77
398.55	1362.19
398.74	1479.22
398.93	1444.11
399.12	1558.80
399.32	1486.24
399.51	1600.93
399.70	1629.01
399.90	1551.78
400.09	1579.86
400.28	1614.97
400.47	1563.48
400.67	1645.40
400.86	1638.38
401.05	1654.76
401.24	1671.14
401.44	1706.25
401.63	1743.70
401.82	1713.27
402.01	1661.78
402.21	1788.17
402.40	1687.53
402.59	1785.83
402.78	1762.42
402.97	1802.21
403.17	1778.81
403.36	1706.25
403.55	1942.64
403.74	1792.85
403.93	1921.58
404.13	1926.26
404.32	1902.86
404.51	1944.99
404.70	1926.26
404.89	2003.50
405.09	1926.26
405.28	1975.41
405.47	2012.86
405.66	1973.07
405.85	1966.05
406.05	2012.86
406.24	2059.67
406.43	2064.35
406.62	2047.97
406.81	2218.83
407.00	2031.58
407.20	2033.93
407.39	2080.74
407.58	2204.78
407.77	2190.74
407.96	2289.04
408.15	2200.10
408.34	2235.21
408.54	2300.75
408.73	2321.81
408.92	2349.90
409.11	2434.16
409.30	2291.38
409.49	2296.07
409.68	2319.47
409.87	2193.08
410.07	2317.13
410.26	2476.29
410.45	2450.54
410.64	2544.16
410.83	2387.35
411.02	2506.71
411.21	2621.40
411.40	2520.76
411.59	2609.70
411.78	2661.19
411.98	2569.91
412.17	2754.81
412.36	2658.85
412.55	2696.30
412.74	2740.77
412.93	2736.09
413.12	2665.87
413.31	2951.42
413.50	2764.17
413.69	2878.86
413.88	2892.90
414.07	2850.77
414.26	2930.35
414.45	2958.44
414.64	2949.08
414.83	2953.76
415.02	3122.27
415.22	2995.89
415.41	3218.24
415.60	3056.74
415.79	3206.53
415.98	3328.24
416.17	3253.34
416.36	3377.39
416.55	3251.00
416.74	3290.79
416.93	3243.98
417.12	3318.88
417.31	3386.76
417.50	3428.88
417.69	3515.48
417.88	3517.83
418.07	3365.69
418.26	3471.01
418.45	3524.85
418.64	3698.05
418.83	3630.17
419.02	3602.08
419.21	3595.06
419.39	3571.66
419.58	3478.04
419.77	3571.66
419.96	3592.72
420.15	3562.30
420.34	3808.05
420.53	3686.34
420.72	3801.03
420.91	3789.33
421.10	3819.75
421.29	3934.44
421.48	3730.81
421.67	3847.84
421.86	3782.31
422.05	3918.06
422.24	3700.39
422.43	3693.37
422.61	3878.27
422.80	3824.44
422.99	3932.10
423.18	3791.67
423.37	4058.49
423.56	3829.12
423.75	3999.98
423.94	3904.01
424.13	3627.83
424.32	3857.20
424.50	3960.19
424.69	4091.26
424.88	4011.68
425.07	3918.06
425.26	3859.54
425.45	3920.40
425.64	3985.93
425.83	3985.93
426.01	4124.02
426.20	4088.92
426.39	4009.34
426.58	4093.60
426.77	4016.36
426.96	4046.79
427.15	3941.46
427.33	3918.06
427.52	4009.34
427.71	4011.68
427.90	4161.47
428.09	4152.11
428.28	4117.00
428.46	4170.83
428.65	4018.70
428.84	4245.73
429.03	4294.88
429.22	4074.87
429.40	4224.67
429.59	4138.07
429.78	4039.76
429.97	3995.29
430.16	3901.67
430.34	4065.51
430.53	4194.24
430.72	4198.92
430.91	4208.28
431.10	4344.03
431.28	4557.02
431.47	4568.73
431.66	4552.34
431.85	4550.00
432.03	4671.71
432.22	4753.63
432.41	4629.58
432.60	4767.67
432.79	4671.71
432.97	4891.72
433.16	4734.90
433.35	4713.84
433.54	4821.50
433.72	4575.75
433.91	4620.22
434.10	4828.53
434.28	4779.37
434.47	4842.57
434.66	4947.89
434.85	4992.36
435.03	5036.83
435.22	5022.79
435.41	5111.73
435.59	5064.92
435.78	5214.71
435.97	5217.05
436.16	5142.16
436.34	5245.14
436.53	5338.76
436.72	5247.48
436.90	4983.00
437.09	5191.31
437.28	5062.58
437.46	5069.60
437.65	5224.08
437.84	5144.50
438.02	5172.58
438.21	5151.52
438.40	5118.75
438.58	5313.02
438.77	5268.55
438.96	5535.37
439.14	5579.84
439.33	5650.05
439.52	5547.07
439.70	5708.57
439.89	5846.66
440.08	5685.16
440.26	5731.97
440.45	5678.14
440.63	5937.94
440.82	6059.65
441.01	5902.83
441.19	6106.46
441.38	6204.76
441.57	6024.54
441.75	6211.78
441.94	6197.74
442.12	6115.82
442.31	6181.35
442.50	6293.70
442.68	6403.71
442.87	6272.64
443.05	6394.34
443.24	6551.16
443.43	6504.35
443.61	6539.46
443.80	6616.69
443.98	6356.90
444.17	6333.49
444.35	6473.92
444.54	6532.44
444.73	6656.48
444.91	6586.27
445.10	6392.00
445.28	6579.25
445.47	6270.30
445.65	6298.38
445.84	6354.55
446.02	6827.34
446.21	6633.08
446.39	6539.46
446.58	6775.85
446.77	6813.30
446.95	6651.80
447.14	6773.51
447.32	6862.45
447.51	6916.28
447.69	6705.63
447.88	6846.07
448.06	6825.00
448.25	6619.04
448.43	6752.45
448.62	6846.07
448.80	6778.19
448.99	6841.39
449.17	7049.69
449.36	6717.34
449.54	6963.09
449.73	6984.16
449.91	7213.53
450.10	6869.47
450.28	7314.17
450.46	6979.48
450.65	7218.21
450.83	7197.15
451.02	7250.98
451.20	7162.04
451.39	7180.76
451.57	7204.17
451.76	7194.81
451.94	7171.40
452.13	7260.34
452.31	7183.10
452.49	7087.14
452.68	7300.13
452.86	7229.91
453.05	7307.15
453.23	7377.37
453.42	7239.28
453.60	7279.07
453.78	7442.90
453.97	7382.05
454.15	7370.35
454.34	7531.84
454.52	7630.15
454.70	7426.52
454.89	7389.07
455.07	7541.21
455.26	7496.74
455.44	7747.17
455.62	7627.81
455.81	7756.54
455.99	7822.07
456.17	7892.29
456.36	7721.43
456.54	7974.21
456.73	7990.59
456.91	8100.59
457.09	8074.85
457.28	8479.76
457.46	8138.04
457.64	8339.33
457.83	8114.64
458.01	8121.66
458.19	8278.47
458.38	8304.22
458.56	8231.66
458.74	8196.56
458.93	8311.24
459.11	8201.24
459.29	8311.24
459.48	8294.86
459.66	8245.71
459.84	8521.89
460.03	8496.14
460.21	8402.52
460.39	8505.51
460.57	8423.59
460.76	8580.40
460.94	8482.10
461.12	8510.19
461.31	8409.54
461.49	8624.87
461.67	8397.84
461.85	8894.04
462.04	8828.50
462.22	9373.85
462.40	8985.32
462.59	9008.72
462.77	8961.91
462.95	9100.00
463.13	8877.65
463.32	8936.17
463.50	9011.06
463.68	8999.36
463.86	9074.26
464.05	8884.67
464.23	8966.59
464.41	9092.98
464.59	8753.60
464.78	9228.73
464.96	9158.52
465.14	9020.42
465.32	9359.80
465.50	9268.52
465.69	9397.25
465.87	9125.75
466.05	9284.91
466.23	9394.91
466.41	9132.77
466.60	9343.42
466.78	8835.52
466.96	9238.09
467.14	9207.67
467.32	9350.44
467.51	9488.53
467.69	9268.52
467.87	9469.81
468.05	9320.01
468.23	9387.89
468.41	9551.73
468.60	9640.67
468.78	9685.14
468.96	9521.30
469.14	9741.31
469.32	9713.22
469.50	9565.77
469.69	9909.83
469.87	10029.20
470.05	9916.85
470.23	9832.59
470.41	9706.20
470.59	9753.01
470.77	9804.50
470.95	10043.24
471.14	10251.55
471.32	10001.11
471.50	10155.58
471.68	10511.35
471.86	10551.14
472.04	10438.79
472.22	10684.55
472.40	10237.50
472.58	10394.32
472.77	10630.71
472.95	10663.48
473.13	10867.11
473.31	10654.12
473.49	10581.56
473.67	10497.30
473.85	10553.48
474.03	10846.04
474.21	11030.94
474.39	10967.75
474.57	10839.02
474.75	11061.37
474.93	11171.38
475.12	10956.05
475.30	11138.61
475.48	11297.77
475.66	11187.76
475.84	11286.06
476.02	11234.57
476.20	11414.79
476.38	11782.26
476.56	11845.45
476.74	11960.14
476.92	11953.12
477.10	12025.67
477.28	12236.32
477.46	12056.10
477.64	12252.70
477.82	12498.46
478.00	12507.82
478.18	12847.20
478.36	12802.73
478.54	12596.76
478.72	12624.85
478.90	12791.03
479.08	13060.19
479.26	12973.59
479.44	13167.85
479.62	13282.54
479.80	13458.08
479.98	13645.32
480.16	13678.09
480.34	13584.47
480.52	13921.51
480.70	13682.77
480.88	13535.32
481.06	13867.67
481.24	14022.15
481.41	14310.04
481.59	14431.74
481.77	14445.79
481.95	14508.98
482.13	14696.22
482.31	14569.83
482.49	15044.96
482.67	14808.57
482.85	14946.66
483.03	15117.52
483.21	15253.27
483.39	15325.83
483.57	15185.40
483.74	15620.74
483.92	15803.30
484.10	15571.58
484.28	15917.98
484.46	16056.08
484.64	16273.74
484.82	16107.57
485.00	16243.32
485.18	16545.25
485.35	16472.69
485.53	16205.87
485.71	16283.11
485.89	16414.18
486.07	16285.45
486.25	16884.62
486.43	16512.48
486.61	17247.41
486.78	17224.00
486.96	17341.03
487.14	17696.79
487.32	17607.85
487.50	17724.88
487.68	18185.96
487.85	18422.36
488.03	18618.96
488.21	18607.26
488.39	18464.49
488.57	18384.91
488.75	18679.82
488.92	18995.79
489.10	19396.02
489.28	19164.31
489.46	19768.16
489.64	19807.95
489.81	20114.56
489.99	20128.61
490.17	20161.37
490.35	20400.11
490.53	20350.96
490.70	20477.35
490.88	20538.20
491.06	20786.30
491.24	20798.00
491.41	20966.52
491.59	20617.78
491.77	20971.20
491.95	20690.34
492.13	21198.23
492.30	21490.80
492.48	21823.16
492.66	21806.77
492.84	21891.03
493.01	21816.13
493.19	21858.26
493.37	22375.52
493.54	22427.01
493.72	22431.69
493.90	22588.51
494.08	22817.88
494.25	22946.61
494.43	23157.26
494.61	23571.54
494.79	23417.06
494.96	23253.22
495.14	23379.61
495.32	23798.57
495.49	23693.24
495.67	23632.39
495.85	23908.57
496.02	24194.12
496.20	23981.13
496.38	24503.07
496.55	24823.72
496.73	24797.98
496.91	24936.07
497.09	24893.94
497.26	25125.65
497.44	25230.98
497.62	25303.53
497.79	25252.04
497.97	25039.05
498.14	25238.00
498.32	25348.00
498.50	25628.87
498.67	26324.01
498.85	25745.89
499.03	26324.01
499.20	26078.25
499.38	26326.35
499.56	26052.50
499.73	26265.49
499.91	26820.20
500.08	26532.31
500.26	26148.46
500.44	26597.85
500.61	26221.02
500.79	26668.06
500.97	27197.02
501.14	27087.02
501.32	27082.34
501.49	27103.40
501.67	27253.20
501.84	27498.95
502.02	27454.48
502.20	27812.59
502.37	27793.86
502.55	27608.96
502.72	28056.00
502.90	28039.62
503.07	27821.95
503.25	28002.17
503.43	28418.78
503.60	28163.67
503.78	27901.53
503.95	27983.44
504.13	28130.90
504.30	28840.08
504.48	28779.23
504.65	28987.53
504.83	28816.68
505.01	29120.95
505.18	29319.89
505.36	29563.31
505.53	29649.91
505.71	29570.33
505.88	29862.90
506.06	29584.37
506.23	30087.59
506.41	29446.28
506.58	29820.77
506.76	29837.15
506.93	29759.91
507.11	29701.40
507.28	30125.04
507.46	29909.71
507.63	29617.14
507.81	30108.65
507.98	30089.93
508.16	30188.23
508.33	30373.13
508.50	30635.27
508.68	30937.20
508.85	31407.65
509.03	30745.28
509.20	31274.24
509.38	31234.45
509.55	31353.82
509.73	31393.61
509.90	31335.09
510.08	31501.27
510.25	31119.76
510.42	31208.70
510.60	31648.72
510.77	31772.77
510.95	32004.49
511.12	31903.84
511.30	32233.86
511.47	32081.72
511.64	32357.91
511.82	32629.41
511.99	32098.11
512.17	32254.92
512.34	32378.97
512.51	32636.43
512.69	33024.96
512.86	32500.68
513.04	32568.55
513.21	32765.16
513.38	33043.68
513.56	32910.27
513.73	32510.04
513.90	33174.75
514.08	33104.54
514.25	33532.86
514.43	33156.03
514.60	33340.93
514.77	33502.43
514.95	33539.88
515.12	33605.41
515.29	33415.83
515.47	33893.30
515.64	34134.37
515.81	34073.52
515.99	33912.02
516.16	33567.96
516.33	33457.96
516.51	33577.33
516.68	33212.20
516.85	33139.65
517.03	33549.24
517.20	34068.84
517.37	34209.27
517.54	34150.76
517.72	33919.04
517.89	34092.24
518.06	33888.62
518.24	34232.68
518.41	33820.74
518.58	34366.09
518.75	34607.16
518.93	34745.25
519.10	34646.95
519.27	35182.93
519.45	34913.77
519.62	35243.79
519.79	35290.60
519.96	35196.98
520.14	35452.09
520.31	34979.31
520.48	35714.23
520.65	35454.44
520.83	35819.56
521.00	36032.55
521.17	35629.98
521.34	36409.37
521.52	35896.80
521.69	35917.86
521.86	36107.44
522.03	36079.36
522.20	36121.49
522.38	36598.96
522.55	36236.17
522.72	36187.02
522.89	36898.55
523.07	36563.85
523.24	36825.99
523.41	36940.68
523.58	37064.72
523.75	37450.91
523.92	37507.08
524.10	37371.33
524.27	37167.71
524.44	37156.00
524.61	37181.75
524.78	37495.38
524.96	37394.74
525.13	37390.06
525.30	37488.36
525.47	37387.72
525.64	37649.86
525.81	37329.20
525.98	37305.80
526.16	36978.12
526.33	36926.63
526.50	37486.02
526.67	36989.83
526.84	37699.01
527.01	37455.59
527.18	37942.42
527.36	37940.08
527.53	38171.80
527.70	38382.45
527.87	38487.77
528.04	38106.26
528.21	38394.15
528.38	38345.00
528.55	38455.00
528.72	38843.53
528.89	38623.52
529.07	38663.31
529.24	38387.13
529.41	38225.63
529.58	38740.55
529.75	38899.70
529.92	39042.48
530.09	39065.88
530.26	39580.80
530.43	39110.35
530.60	38820.13
530.77	38841.19
530.94	39606.55
531.11	39512.92
531.28	39409.94
531.46	39615.91
531.63	39332.70
531.80	39555.05
531.97	39370.15
532.14	39086.95
532.31	38974.60
532.48	39545.69
532.65	39559.73
532.82	39735.27
532.99	39487.18
533.16	39414.62
533.33	39695.49
533.50	39835.92
533.67	39964.65
533.84	39695.49
534.01	40425.73
534.18	40222.11
534.35	40622.34
534.52	40086.36
534.69	40247.85
534.86	40622.34
535.03	40854.05
535.20	40612.98
535.37	40847.03
535.54	40844.69
535.71	40233.81
535.88	40814.26
536.05	40514.67
536.22	40685.53
536.38	40575.53
536.55	40491.27
536.72	40472.54
536.89	40495.95
537.06	40814.26
537.23	41432.16
537.40	41130.23
537.57	40980.44
537.74	41113.85
537.91	41530.47
538.08	41429.82
538.25	41022.57
538.42	41027.25
538.59	41275.35
538.75	40676.17
538.92	41373.65
539.09	41151.30
539.26	41680.26
539.43	41310.46
539.60	41486.00
539.77	41006.19
539.94	41184.07
540.11	41336.20
540.28	41682.60
540.44	41684.94
540.61	41439.18
540.78	41577.28
540.95	41635.79
541.12	41759.84
541.29	41591.32
541.46	41706.01
541.62	41757.50
541.79	41933.04
541.96	41617.07
542.13	41895.59
542.30	42110.92
542.47	42010.28
542.63	41893.25
542.80	41691.96
542.97	42405.83
543.14	42543.92
543.31	42808.40
543.48	42293.48
543.64	43091.60
543.81	42827.12
543.98	42850.53
544.15	42586.05
544.32	42873.93
544.48	42738.18
544.65	43438.00
544.82	42892.66
544.99	42483.06
545.16	43196.93
545.32	43091.60
545.49	43260.12
545.66	43164.16
545.83	43012.02
546.00	43398.21
546.16	43143.09
546.33	43028.41
546.50	42682.01
546.67	42937.13
546.83	42614.13
547.00	43225.01
547.17	43173.52
547.34	42974.58
547.50	43709.50
547.67	43646.31
547.84	43290.55
548.00	43524.60
548.17	43543.33
548.34	43735.25
548.51	43929.51
548.67	44023.14
548.84	43402.89
549.01	43803.13
549.18	43849.94
549.34	43697.80
549.51	43620.56
549.68	44201.02
549.84	43587.80
550.01	43674.40
550.18	43627.59
550.34	43775.04
550.51	43618.22
550.68	44030.16
550.84	43438.00
551.01	44189.31
551.18	43398.21
551.34	43959.94
551.51	44329.75
551.68	44481.88
551.84	44011.43
552.01	43929.51
552.18	44086.33
552.34	44226.76
552.51	44322.72
552.68	44477.20
552.84	44048.88
553.01	44397.62
553.18	44332.09
553.34	44458.48
553.51	44364.85
553.67	44776.79
553.84	44538.05
554.01	44760.40
554.17	44816.58
554.34	44229.10
554.51	44624.65
554.67	44619.97
554.84	44612.95
555.00	44023.14
555.17	44350.81
555.33	44657.42
555.50	45048.29
555.67	44657.42
555.83	44161.23
556.00	44701.89
556.16	45361.92
556.33	44634.02
556.50	44772.11
556.66	45067.02
556.83	44460.82
556.99	44985.10
557.16	45083.40
557.32	44729.98
557.49	45055.31
557.65	44823.60
557.82	44807.22
557.98	44708.91
558.15	44940.63
558.32	44776.79
558.48	44753.38
558.65	45029.57
558.81	44720.62
558.98	44844.66
559.14	45146.59
559.31	44664.44
559.47	45160.64
559.64	45261.28
559.80	45067.02
559.97	45125.53
560.13	45202.77
560.30	45282.34
560.46	44994.46
560.63	45085.74
560.79	45251.92
560.96	45605.34
561.12	45141.91
561.29	45216.81
561.45	44823.60
561.61	45120.85
561.78	45240.21
561.94	45214.47
562.11	45081.06
562.27	45684.92
562.44	45324.47
562.60	45483.63
562.77	45254.26
562.93	45130.21
563.10	45879.18
563.26	45212.13
563.42	45729.39
563.59	45593.64
563.75	45029.57
563.92	45963.44
564.08	45708.32
564.24	45495.33
564.41	45483.63
564.57	45549.17
564.74	45595.98
564.90	45373.63
565.07	45689.60
565.23	45998.55
565.39	45965.78
565.56	45663.85
565.72	45013.18
565.88	45872.16
566.05	45404.05
566.21	45481.29
566.38	45535.12
566.54	45654.49
566.70	45572.57
566.87	46028.98
567.03	45799.60
567.19	46218.56
567.36	45921.31
567.52	45619.38
567.68	46045.36
567.85	45666.19
568.01	46120.26
568.17	46012.59
568.34	45865.14
568.50	45647.47
568.66	45462.57
568.83	45830.03
568.99	45778.54
569.15	45790.24
569.32	45794.92
569.48	45432.14
569.64	45776.20
569.81	45673.21
569.97	45968.12
570.13	45900.25
570.30	45523.42
570.46	45471.93
570.62	45272.98
570.78	45160.64
570.95	45329.16
571.11	45848.75
571.27	45675.55
571.43	45593.64
571.60	46117.92
571.76	45626.40
571.92	46122.60
572.09	46167.07
572.25	45963.44
572.41	46153.02
572.57	46131.96
572.74	46148.34
572.90	45921.31
573.06	46050.04
573.22	45811.31
573.38	46040.68
573.55	45551.51
573.71	45890.88
573.87	46232.60
574.03	45968.12
574.20	45815.99
574.36	45710.66
574.52	46003.23
574.68	46036.00
574.84	45591.30
575.01	45659.17
575.17	45818.33
575.33	45745.77
575.49	45450.86
575.65	46471.34
575.82	46197.49
575.98	46089.83
576.14	45933.01
576.30	46433.89
576.46	45361.92
576.62	46050.04
576.79	45928.33
576.95	45907.27
577.11	45968.12
577.27	45979.82
577.43	45862.80
577.59	45855.78
577.75	45975.14
577.92	45516.40
578.08	45432.14
578.24	45731.73
578.40	45703.64
578.56	45661.51
578.72	45701.30
578.88	46176.43
579.04	46068.76
579.21	45738.75
579.37	45729.39
579.53	45942.38
579.69	45504.70
579.85	45879.18
580.01	46052.38
580.17	45584.27
580.33	45865.14
580.49	46036.00
580.65	46312.18
580.82	45862.80
580.98	45516.40
581.14	45914.29
581.30	46146.00
581.46	45741.09
581.62	46190.47
581.78	46010.25
581.94	46398.78
582.10	46094.51
582.26	46382.40
582.42	45895.56
582.58	45888.54
582.74	45954.08
582.90	46120.26
583.06	46431.55
583.22	46412.82
583.38	46649.22
583.54	46043.02
583.70	46354.31
583.86	46155.36
584.02	45968.12
584.18	45923.65
584.34	45904.93
584.50	45823.01
584.66	46546.23
584.82	45961.10
584.98	46237.28
585.14	45979.82
585.30	45900.25
585.46	46024.29
585.62	45940.04
585.78	45914.29
585.94	45682.58
586.10	46019.61
586.26	45771.52
586.42	46433.89
586.58	46447.93
586.74	45663.85
586.90	45811.31
587.06	46316.86
587.22	46286.43
587.38	45942.38
587.54	45977.48
587.70	46232.60
587.86	46461.97
588.02	45958.76
588.18	45993.87
588.34	45673.21
588.49	45778.54
588.65	45544.48
588.81	45612.36
588.97	45574.91
589.13	45872.16
589.29	45642.79
589.45	45745.77
589.61	46028.98
589.77	46731.14
589.93	46260.69
590.08	45991.53
