SpectraSuite Data File
++++++++++++++++++++++++++++++++++++
Date: Fri Oct 25 11:23:51 EDT 2013
User: price-jones
Dark Spectrum Present: No
Reference Spectrum Present: No
Number of Sampled Component Spectra: 1
Spectrometers: USB2+H05261
Integration Time (usec): 100000 (USB2+H05261)
Spectra Averaged: 1 (USB2+H05261)
Boxcar Smoothing: 0 (USB2+H05261)
Correct for Electrical Dark: No (USB2+H05261)
Strobe/Lamp Enabled: No (USB2+H05261)
Correct for Detector Non-linearity: No (USB2+H05261)
Correct for Stray Light: No (USB2+H05261)
Number of Pixels in Processed Spectrum: 2048
>>>>>Begin Processed Spectral Data<<<<<
365.73	255.12
365.92	255.12
366.12	255.12
366.32	180.22
366.52	203.63
366.72	154.48
366.91	138.09
367.11	175.54
367.31	95.96
367.51	114.69
367.70	114.69
367.90	107.66
368.10	149.79
368.30	156.82
368.49	124.05
368.69	159.16
368.89	147.45
369.09	98.30
369.28	161.50
369.48	173.20
369.68	147.45
369.87	245.76
370.07	156.82
370.27	248.10
370.47	381.51
370.66	561.73
370.86	585.13
371.06	645.99
371.25	650.67
371.45	624.92
371.65	636.63
371.84	660.03
372.04	674.07
372.24	716.20
372.44	732.59
372.63	807.48
372.83	650.67
373.03	720.88
373.22	718.54
373.42	788.76
373.62	702.16
373.81	755.99
374.01	840.25
374.21	718.54
374.40	765.36
374.60	830.89
374.79	849.61
374.99	788.76
375.19	816.85
375.38	830.89
375.58	833.23
375.78	807.48
375.97	887.06
376.17	959.62
376.37	802.80
376.56	868.34
376.76	812.17
376.95	828.55
377.15	898.77
377.35	875.36
377.54	851.96
377.74	816.85
377.93	917.49
378.13	976.00
378.33	887.06
378.52	908.13
378.72	947.92
378.91	961.96
379.11	849.61
379.31	933.87
379.50	919.83
379.70	945.58
379.89	990.05
380.09	1057.92
380.28	936.21
380.48	983.02
380.68	1029.84
380.87	1043.88
381.07	1032.18
381.26	994.73
381.46	983.02
381.65	1062.60
381.85	976.00
382.04	954.94
382.24	1020.47
382.43	1088.35
382.63	1069.62
382.83	1074.31
383.02	983.02
383.22	1062.60
383.41	1046.22
383.61	1130.48
383.80	1121.12
384.00	1050.90
384.19	1088.35
384.39	1093.03
384.58	1212.40
384.78	1188.99
384.97	1055.58
385.17	1132.82
385.36	1172.61
385.56	1123.46
385.75	1174.95
385.95	1153.88
386.14	1210.06
386.34	1231.12
386.53	1179.63
386.72	1198.35
386.92	1306.02
387.11	1291.98
387.31	1238.14
387.50	1259.21
387.70	1299.00
387.89	1329.42
388.09	1315.38
388.28	1306.02
388.48	1299.00
388.67	1315.38
388.86	1308.36
389.06	1352.83
389.25	1338.79
389.45	1296.66
389.64	1329.42
389.84	1336.45
390.03	1392.62
390.22	1355.17
390.42	1359.85
390.61	1418.36
390.81	1289.64
391.00	1490.92
391.19	1380.92
391.39	1413.68
391.58	1460.49
391.78	1465.18
391.97	1497.94
392.16	1511.99
392.36	1561.14
392.55	1451.13
392.75	1570.50
392.94	1540.07
393.13	1434.75
393.33	1582.20
393.52	1483.90
393.71	1544.75
393.91	1614.97
394.10	1547.09
394.29	1584.54
394.49	1568.16
394.68	1582.20
394.88	1621.99
395.07	1610.29
395.26	1652.42
395.46	1647.74
395.65	1748.38
395.84	1685.19
396.04	1776.47
396.23	1750.72
396.42	1762.42
396.62	1771.79
396.81	1741.36
397.00	1776.47
397.19	1816.26
397.39	1867.75
397.58	1813.92
397.77	1898.17
397.97	1823.28
398.16	1879.45
398.35	1966.05
398.55	1884.13
398.74	1954.35
398.93	1902.86
399.12	1856.04
399.32	1893.49
399.51	1898.17
399.70	1994.14
399.90	2033.93
400.09	1989.46
400.28	2136.91
400.47	2010.52
400.67	2059.67
400.86	1956.69
401.05	2078.40
401.24	2242.23
401.44	2136.91
401.63	2139.25
401.82	2172.02
402.01	2040.95
402.21	2239.89
402.40	2167.34
402.59	2235.21
402.78	2275.00
402.97	2190.74
403.17	2186.06
403.36	2338.20
403.55	2335.85
403.74	2427.14
403.93	2424.80
404.13	2359.26
404.32	2403.73
404.51	2420.11
404.70	2450.54
404.89	2511.39
405.09	2480.97
405.28	2368.62
405.47	2562.89
405.66	2473.95
405.85	2504.37
406.05	2487.99
406.24	2574.59
406.43	2572.25
406.62	2733.75
406.81	2712.68
407.00	2583.95
407.20	2642.46
407.39	2597.99
407.58	2651.83
407.77	2663.53
407.96	2764.17
408.15	2785.24
408.34	2729.06
408.54	2902.26
408.73	2710.34
408.92	2960.78
409.11	2902.26
409.30	2881.20
409.49	2869.50
409.68	2972.48
409.87	2925.67
410.07	3122.27
410.26	3131.64
410.45	3131.64
410.64	2923.33
410.83	3075.46
411.02	3133.98
411.21	3157.38
411.40	3049.72
411.59	3229.94
411.78	3234.62
411.98	3314.20
412.17	3311.86
412.36	3386.76
412.55	3323.56
412.74	3473.36
412.93	3382.07
413.12	3375.05
413.31	3552.93
413.50	3463.99
413.69	3461.65
413.88	3541.23
414.07	3658.26
414.26	3765.92
414.45	3630.17
414.64	3789.33
414.83	3758.90
415.02	3768.26
415.22	3932.10
415.41	3999.98
415.60	3887.63
415.79	3925.08
415.98	3941.46
416.17	4107.64
416.36	3950.82
416.55	4131.05
416.74	4266.80
416.93	4098.28
417.12	4222.33
417.31	4229.35
417.50	4189.56
417.69	4355.74
417.88	4264.46
418.07	4273.82
418.26	4393.19
418.45	4374.46
418.64	4437.66
418.83	4428.29
419.02	4547.66
419.21	4402.55
419.39	4512.55
419.58	4458.72
419.77	4554.68
419.96	4676.39
420.15	4631.92
420.34	4634.26
420.53	4800.44
420.72	4737.24
420.91	4550.00
421.10	4692.77
421.29	4880.02
421.48	4662.35
421.67	4854.27
421.86	4737.24
422.05	4847.25
422.24	4889.38
422.43	4917.47
422.61	4952.57
422.80	5062.58
422.99	4933.85
423.18	4980.66
423.37	5022.79
423.56	4931.51
423.75	4758.31
423.94	4938.53
424.13	4692.77
424.32	4840.23
424.50	4985.34
424.69	5097.69
424.88	5188.97
425.07	4933.85
425.26	5025.13
425.45	5036.83
425.64	4922.15
425.83	5069.60
426.01	5018.11
426.20	5034.49
426.39	5149.18
426.58	4922.15
426.77	5151.52
426.96	5184.29
427.15	5156.20
427.33	5313.02
427.52	5095.35
427.71	5343.44
427.90	5210.03
428.09	5369.19
428.28	5516.64
428.46	5406.64
428.65	5322.38
428.84	5490.90
429.03	5542.39
429.22	5385.57
429.40	5401.96
429.59	5518.98
429.78	5294.29
429.97	5348.12
430.16	5481.53
430.34	5619.63
430.53	5586.86
430.72	5692.18
430.91	5628.99
431.10	5607.92
431.28	5802.19
431.47	5771.76
431.66	5912.19
431.85	5713.25
432.03	5865.38
432.22	5916.87
432.41	5987.09
432.60	5902.83
432.79	5956.66
432.97	6141.57
433.16	5867.72
433.35	5942.62
433.54	5919.21
433.72	6094.76
433.91	6092.41
434.10	6230.51
434.28	6188.38
434.47	6256.25
434.66	6244.55
434.85	6204.76
435.03	6305.40
435.22	6286.68
435.41	6415.41
435.59	6516.05
435.78	6326.47
435.97	6492.65
436.16	6544.14
436.34	6516.05
436.53	6640.10
436.72	6621.38
436.90	6487.96
437.09	6539.46
437.28	6649.46
437.46	6633.08
437.65	6537.12
437.84	6759.47
438.02	6682.23
438.21	6834.36
438.40	6555.84
438.58	7019.27
438.77	7005.22
438.96	7019.27
439.14	7084.80
439.33	7087.14
439.52	7260.34
439.70	7318.86
439.89	7433.54
440.08	7410.14
440.26	7386.73
440.45	7463.97
440.63	7398.43
440.82	7679.30
441.01	7602.06
441.19	7808.03
441.38	7784.62
441.57	7754.19
441.75	7831.43
441.94	7882.92
442.12	8046.76
442.31	7885.26
442.50	8013.99
442.68	7943.78
442.87	8231.66
443.05	8161.45
443.24	8140.38
443.43	8212.94
443.61	8468.06
443.80	8456.36
443.98	8072.51
444.17	8086.55
444.35	8180.17
444.54	8468.06
444.73	8187.19
444.91	8304.22
445.10	8362.73
445.28	8470.40
445.47	8269.11
445.65	8451.67
445.84	8446.99
446.02	8446.99
446.21	8255.07
446.39	8402.52
446.58	8617.85
446.77	8643.60
446.95	8425.93
447.14	8512.53
447.32	8442.31
447.51	8360.39
447.69	8407.20
447.88	8573.38
448.06	8486.78
448.25	8444.65
448.43	8610.83
448.62	8535.93
448.80	8573.38
448.99	8767.65
449.17	8767.65
449.36	8690.41
449.54	8889.35
449.73	8861.27
449.91	8919.78
450.10	9151.49
450.28	9191.28
450.46	8966.59
450.65	9107.02
450.83	9153.84
451.02	9107.02
451.20	9261.50
451.39	9032.13
451.57	9369.16
451.76	9184.26
451.94	9259.16
452.13	9420.66
452.31	9359.80
452.49	9247.46
452.68	9390.23
452.86	9427.68
453.05	9355.12
453.23	9621.94
453.42	9308.31
453.60	9434.70
453.78	9474.49
453.97	9605.56
454.15	9650.03
454.34	9549.39
454.52	9551.73
454.70	9727.27
454.89	9664.07
455.07	9689.82
455.26	9846.63
455.44	9717.90
455.62	9837.27
455.81	10043.24
455.99	9891.10
456.17	9973.02
456.36	10253.89
456.54	10265.59
456.73	10406.02
456.91	10558.16
457.09	10483.26
457.28	10696.25
457.46	10394.32
457.64	10572.20
457.83	10455.17
458.01	10733.70
458.19	10801.57
458.38	10347.51
458.56	10778.17
458.74	10721.99
458.93	10630.71
459.11	10855.40
459.29	10509.01
459.48	10757.10
459.66	10806.25
459.84	11028.60
460.03	10979.45
460.21	11194.78
460.39	11026.26
460.57	11105.84
460.76	11239.25
460.94	11033.29
461.12	11227.55
461.31	11389.05
461.49	11215.85
461.67	11314.15
461.85	11550.54
462.04	11346.92
462.22	11630.12
462.40	11632.46
462.59	11683.95
462.77	11440.54
462.95	11538.84
463.13	11683.95
463.32	11676.93
463.50	11763.53
463.68	11887.58
463.86	11728.42
464.05	11770.55
464.23	11784.60
464.41	11990.56
464.59	11721.40
464.78	11875.88
464.96	12177.81
465.14	11782.26
465.32	11878.22
465.50	12175.47
465.69	12262.07
465.87	12100.57
466.05	12116.95
466.23	12278.45
466.41	12250.36
466.60	12585.06
466.78	12379.09
466.96	12208.23
467.14	12386.12
467.32	12702.09
467.51	12666.98
467.69	12376.75
467.87	12444.63
468.05	12624.85
468.23	12519.53
468.41	12407.18
468.60	12666.98
468.78	12805.07
468.96	12538.25
469.14	12875.29
469.32	13156.15
469.50	12882.31
469.69	13008.70
469.87	13305.95
470.05	13163.17
470.23	13186.58
470.41	13132.75
470.59	13434.68
470.77	13034.44
470.95	13331.69
471.14	13638.30
471.32	13254.45
471.50	13514.25
471.68	13659.37
471.86	13818.52
472.04	14038.53
472.22	14097.05
472.40	13862.99
472.58	13893.42
472.77	13783.41
472.95	14171.94
473.13	14675.16
473.31	14118.11
473.49	14122.79
473.67	13928.53
473.85	14618.99
474.03	14839.00
474.21	14579.20
474.39	14831.97
474.57	14422.38
474.75	15059.01
474.93	14953.68
475.12	14946.66
475.30	15112.84
475.48	15323.49
475.66	15190.08
475.84	15164.33
476.02	15410.09
476.20	15555.20
476.38	15513.07
476.56	16081.82
476.74	15901.60
476.92	15974.16
477.10	15807.98
477.28	16273.74
477.46	16130.97
477.64	16360.34
477.82	16805.05
478.00	17158.47
478.18	16989.95
478.36	17202.94
478.54	17025.06
478.72	17277.83
478.90	17380.82
479.08	17439.33
479.26	17362.09
479.44	17965.95
479.62	17797.43
479.80	18143.83
479.98	18029.15
480.16	18757.05
480.34	18438.74
480.52	18441.08
480.70	18773.44
480.88	18555.77
481.06	18628.32
481.24	18703.22
481.41	19248.57
481.59	19435.81
481.77	19627.73
481.95	19836.04
482.13	19857.10
482.31	19632.41
482.49	20343.94
482.67	20084.14
482.85	20790.98
483.03	20872.90
483.21	21006.31
483.39	21186.53
483.57	21146.74
483.74	21530.59
483.92	21460.37
484.10	21322.28
484.28	21575.06
484.46	22008.06
484.64	22045.51
484.82	21867.63
485.00	22340.41
485.18	22991.08
485.35	23157.26
485.53	22703.20
485.71	23232.16
485.89	23541.11
486.07	23288.33
486.25	23515.36
486.43	23749.42
486.61	24133.26
486.78	24067.73
486.96	24114.54
487.14	24833.08
487.32	24580.31
487.50	24774.57
487.68	25006.28
487.85	25446.30
488.03	25631.21
488.21	26031.44
488.39	25855.90
488.57	26164.85
488.75	26129.74
488.92	26639.98
489.10	26892.76
489.28	27138.51
489.46	27349.16
489.64	27405.33
489.81	27360.86
489.99	27704.92
490.17	28201.11
490.35	27885.14
490.53	28421.13
490.70	28706.67
490.88	28531.13
491.06	29149.03
491.24	29017.96
491.41	29146.69
491.59	29479.05
491.77	29795.02
491.95	29624.16
492.13	29631.18
492.30	30106.31
492.48	30143.76
492.66	30536.97
492.84	30511.22
493.01	30661.02
493.19	30464.41
493.37	30946.56
493.54	31208.70
493.72	31814.90
493.90	31606.59
494.08	31875.76
494.25	32072.36
494.43	32292.37
494.61	32119.17
494.79	32505.36
494.96	32933.68
495.14	32643.45
495.32	33113.90
495.49	33195.82
495.67	33310.50
495.85	33371.36
496.02	33612.43
496.20	34094.58
496.38	34003.30
496.55	34183.52
496.73	34871.64
496.91	34480.77
497.09	34689.08
497.26	35370.18
497.44	35105.70
497.62	35168.89
497.79	35683.81
497.97	35585.50
498.14	36308.73
498.32	36060.63
498.50	36472.57
498.67	36842.37
498.85	36568.53
499.03	37024.93
499.20	37106.85
499.38	37074.09
499.56	37366.65
499.73	37258.99
499.91	37221.54
500.08	38017.32
500.26	37759.86
500.44	37607.73
500.61	37799.65
500.79	38134.35
500.97	38649.27
501.14	38618.84
501.32	38660.97
501.49	38429.26
501.67	38761.61
501.84	39075.24
502.02	38888.00
502.20	39243.76
502.37	39796.13
502.55	39765.70
502.72	39313.98
502.90	39896.77
503.07	39576.12
503.25	40098.06
503.43	40023.16
503.60	40091.04
503.78	40254.87
503.95	40751.07
504.13	40395.31
504.30	40896.18
504.48	40652.76
504.65	40854.05
504.83	41095.13
505.01	41481.31
505.18	41177.04
505.36	41811.33
505.53	41308.11
505.71	42066.45
505.88	41888.57
506.06	41586.64
506.23	42230.29
506.41	42007.94
506.58	42110.92
506.76	42223.26
506.93	42396.46
507.11	42127.30
507.28	42384.76
507.46	43093.94
507.63	42838.83
507.81	43473.11
507.98	42611.79
508.16	43433.32
508.33	43529.28
508.50	43508.22
508.68	44203.36
508.85	43964.62
509.03	44179.95
509.20	44149.53
509.38	44484.22
509.55	44512.31
509.73	44919.56
509.90	44884.45
510.08	44626.99
510.25	45364.26
510.42	45188.72
510.60	45106.80
510.77	45471.93
510.95	45764.49
511.12	45469.59
511.30	45617.04
511.47	45673.21
511.64	45996.21
511.82	46199.83
511.99	46005.57
512.17	45991.53
512.34	45347.88
512.51	46590.70
512.69	46443.25
512.86	46504.10
513.04	46305.16
513.21	46433.89
513.38	46696.03
513.56	46944.12
513.73	46749.86
513.90	47473.09
514.08	47007.32
514.25	47091.58
514.43	47475.43
514.60	47576.07
514.77	47660.33
514.95	48037.16
515.12	47562.03
515.29	47723.52
515.47	48175.25
515.64	48135.46
515.81	48322.70
515.99	48648.03
516.16	48418.66
516.33	48645.69
516.51	49069.33
516.68	48519.31
516.85	48720.59
517.03	48959.33
517.20	48959.33
517.37	48912.52
517.54	48631.65
517.72	49162.95
517.89	49626.38
518.06	49237.85
518.24	49083.37
518.41	49715.32
518.58	49696.59
518.75	49645.10
518.93	49677.87
519.10	49738.72
519.27	50103.85
519.45	49780.85
519.62	49851.07
519.79	50251.30
519.96	50174.06
520.14	50064.06
520.31	50335.56
520.48	50567.27
520.65	50557.91
520.83	50787.28
521.00	50688.98
521.17	50576.64
521.34	51150.07
521.52	51061.13
521.69	51217.94
521.86	51440.29
522.03	51105.60
522.20	51709.46
522.38	51557.32
522.55	51751.59
522.72	51533.92
522.89	51650.94
523.07	51901.38
523.24	51903.72
523.41	51997.34
523.58	51964.57
523.75	51831.16
523.92	51709.46
524.10	52074.58
524.27	52193.95
524.44	52048.83
524.61	52336.72
524.78	52233.74
524.96	52369.49
525.13	52538.01
525.30	52439.70
525.47	52645.67
525.64	52652.69
525.81	52617.58
525.98	52519.28
526.16	52760.36
526.33	52605.88
526.50	53434.43
526.67	52514.60
526.84	53141.86
527.01	52971.00
527.18	53118.46
527.36	53099.73
527.53	53179.31
527.70	53490.60
527.87	53528.05
528.04	53104.41
528.21	53628.69
528.38	53272.93
528.55	53682.53
528.72	53333.79
528.89	53975.09
529.07	53914.24
529.24	53446.13
529.41	53755.08
529.58	53862.75
529.75	53954.03
529.92	53797.21
530.09	53806.58
530.26	53928.28
530.43	54012.54
530.60	54014.88
530.77	54218.51
530.94	54160.00
531.11	54085.10
531.28	54211.49
531.46	54471.29
531.63	54630.44
531.80	54497.03
531.97	54394.05
532.14	54808.32
532.31	54604.70
532.48	54707.68
532.65	54754.49
532.82	54808.32
532.99	54920.67
533.16	54459.58
533.33	54885.56
533.50	54953.44
533.67	54986.21
533.84	54693.64
534.01	54988.55
534.18	54948.76
534.35	55571.34
534.52	55154.72
534.69	55299.84
534.86	55388.78
535.03	55531.55
535.20	55381.76
535.37	55419.20
535.54	55559.64
535.71	55365.37
535.88	55730.50
536.05	55463.67
536.22	55604.11
536.38	55676.66
536.55	55697.73
536.72	55810.07
536.89	55510.49
537.06	55730.50
537.23	55987.95
537.40	55756.24
537.57	55758.58
537.74	55957.53
537.91	56128.39
538.08	55840.50
538.25	55849.86
538.42	55948.17
538.59	56299.25
538.75	55889.65
538.92	56212.65
539.09	56435.00
539.26	56163.50
539.43	56350.74
539.60	56332.01
539.77	56303.93
539.94	56399.89
540.11	56315.63
540.28	56481.81
540.44	56612.88
540.61	56516.92
540.78	56516.92
540.95	56336.69
541.12	56540.32
541.29	56509.89
541.46	56605.86
541.62	56523.94
541.79	56676.07
541.96	56631.60
542.13	56797.78
542.30	56704.16
542.47	56933.53
542.63	56886.72
542.80	57085.67
542.97	57165.24
543.14	57326.74
543.31	57261.21
543.48	57420.36
543.64	57663.78
543.81	57537.39
543.98	57340.78
544.15	57446.11
544.32	57478.88
544.48	57670.80
544.65	57504.62
544.82	57539.73
544.99	57460.15
545.16	57537.39
545.32	57598.24
545.49	57801.87
545.66	57769.10
545.83	57818.25
546.00	57808.89
546.16	57670.80
546.33	57710.59
546.50	57553.77
546.67	57750.38
546.83	57565.48
547.00	57862.72
547.17	57855.70
547.34	57923.58
547.50	58131.89
547.67	58230.19
547.84	58068.69
548.00	58239.55
548.17	58337.85
548.34	58309.77
548.51	58295.72
548.67	58466.58
548.84	58071.03
549.01	58288.70
549.18	58171.67
549.34	58300.40
549.51	58412.75
549.68	58726.38
549.84	58286.36
550.01	58592.97
550.18	58363.60
550.34	58618.72
550.51	58670.21
550.68	58475.94
550.84	58412.75
551.01	58731.06
551.18	58817.66
551.34	58639.78
551.51	58822.34
551.68	58752.13
551.84	58569.57
552.01	58609.35
552.18	58681.91
552.34	58742.77
552.51	58796.60
552.68	58651.48
552.84	58885.54
553.01	59063.42
553.18	58843.41
553.34	58988.52
553.51	58894.90
553.67	58820.00
553.84	59152.36
554.01	58815.32
554.17	59011.93
554.34	59037.67
554.51	59166.40
554.67	59128.95
554.84	59245.98
555.00	59166.40
555.17	59288.11
555.33	59164.06
555.50	58969.80
555.67	59082.14
555.83	59224.92
556.00	59278.75
556.16	59484.72
556.33	59339.60
556.50	59433.22
556.66	59465.99
556.83	59103.21
556.99	59756.22
557.16	59620.47
557.32	59592.38
557.49	59728.13
557.65	59367.69
557.82	59454.29
557.98	59449.61
558.15	59421.52
558.32	59653.23
558.48	59470.67
558.65	59498.76
558.81	59643.87
558.98	59601.74
559.14	59669.62
559.31	59688.34
559.47	59763.24
559.64	59898.99
559.80	59941.12
559.97	59882.61
560.13	59559.61
560.30	59828.77
560.46	59721.11
560.63	59842.82
560.79	59955.16
560.96	60072.19
561.12	59688.34
561.29	60072.19
561.45	59950.48
561.61	59854.52
561.78	59854.52
561.94	59980.91
562.11	60074.53
562.27	59969.21
562.44	60004.31
562.60	60079.21
562.77	60219.64
562.93	60004.31
563.10	60191.56
563.26	59873.24
563.42	60334.33
563.59	60004.31
563.75	60119.00
563.92	60133.04
564.08	60170.49
564.24	60189.22
564.41	60289.86
564.57	60294.54
564.74	60140.07
564.90	60268.79
565.07	59880.27
565.23	60306.24
565.39	60498.17
565.56	60273.48
565.72	60111.98
565.88	60458.38
566.05	60287.52
566.21	60062.83
566.38	60320.29
566.54	60390.50
566.70	60460.72
566.87	60486.46
567.03	60378.80
567.19	60636.26
567.36	60533.28
567.52	60170.49
567.68	60734.56
567.85	60385.82
568.01	60486.46
568.17	60456.04
568.34	60575.40
568.50	60430.29
568.66	60542.64
568.83	60317.95
568.99	60427.95
569.15	60416.25
569.32	60383.48
569.48	60247.73
569.64	60542.64
569.81	60413.91
569.97	60409.23
570.13	60217.30
570.30	60764.99
570.46	60596.47
570.62	60582.43
570.78	60701.79
570.95	60631.58
571.11	60814.14
571.27	60474.76
571.43	60509.87
571.60	60837.54
571.76	60739.24
571.92	60643.28
572.09	60603.49
572.25	60764.99
572.41	60776.69
572.57	60624.56
572.74	60835.20
572.90	60741.58
573.06	60676.05
573.22	60725.20
573.38	60830.52
573.55	60814.14
573.71	61055.21
573.87	60589.45
574.03	60811.80
574.20	61006.06
574.36	60739.24
574.52	60753.29
574.68	60860.95
574.84	60942.87
575.01	60835.20
575.17	60783.71
575.33	60825.84
575.49	60671.37
575.65	60825.84
575.82	61015.43
575.98	61123.09
576.14	61083.30
576.30	61183.94
576.46	60973.30
576.62	60996.70
576.79	60757.97
576.95	60662.00
577.11	60963.93
577.27	61087.98
577.43	60818.82
577.59	60776.69
577.75	60919.46
577.92	60720.52
578.08	60804.78
578.24	61001.38
578.40	61050.53
578.56	61083.30
578.72	61020.11
578.88	61085.64
579.04	61109.05
579.21	60926.49
579.37	61036.49
579.53	61048.19
579.69	60573.06
579.85	61132.45
580.01	60879.67
580.17	60863.29
580.33	61151.18
580.49	60949.89
580.65	61031.81
580.82	60980.32
580.98	60910.10
581.14	60980.32
581.30	61052.87
581.46	60959.25
581.62	61251.82
581.78	60907.76
581.94	61102.03
582.10	61045.85
582.26	60975.64
582.42	60938.19
582.58	60963.93
582.74	60994.36
582.90	61127.77
583.06	61235.44
583.22	60856.27
583.38	61090.32
583.54	61127.77
583.70	61085.64
583.86	60952.23
584.02	61071.60
584.18	61087.98
584.34	61066.92
584.50	60966.27
584.66	60757.97
584.82	61190.97
584.98	61207.35
585.14	61125.43
585.30	60828.18
585.46	61181.60
585.62	61050.53
585.78	61312.67
585.94	60879.67
586.10	61055.21
586.26	61123.09
586.42	61352.46
586.58	61205.01
586.74	61083.30
586.90	60989.68
587.06	60996.70
587.22	61385.23
587.38	61209.69
587.54	61312.67
587.70	61329.06
587.86	61095.00
588.02	61183.94
588.18	61291.61
588.34	61111.39
588.49	61212.03
