SpectraSuite Data File
++++++++++++++++++++++++++++++++++++
Date: Fri Oct 25 10:44:32 EDT 2013
User: price-jones
Dark Spectrum Present: No
Reference Spectrum Present: No
Number of Sampled Component Spectra: 1
Spectrometers: USB2+H05261
Integration Time (usec): 100000 (USB2+H05261)
Spectra Averaged: 1 (USB2+H05261)
Boxcar Smoothing: 0 (USB2+H05261)
Correct for Electrical Dark: No (USB2+H05261)
Strobe/Lamp Enabled: No (USB2+H05261)
Correct for Detector Non-linearity: No (USB2+H05261)
Correct for Stray Light: No (USB2+H05261)
Number of Pixels in Processed Spectrum: 2048
>>>>>Begin Processed Spectral Data<<<<<
365.73	156.82
365.92	156.82
366.12	156.82
366.32	35.11
366.52	67.88
366.72	11.70
366.91	7.02
367.11	25.75
367.31	0.00
367.51	72.56
367.70	0.00
367.90	51.49
368.10	42.13
368.30	67.88
368.49	0.00
368.69	58.51
368.89	86.60
369.09	42.13
369.28	14.04
369.48	14.04
369.68	79.58
369.87	60.85
370.07	84.26
370.27	177.88
370.47	255.12
370.66	353.42
370.86	416.62
371.06	472.79
371.25	510.24
371.45	458.74
371.65	454.06
371.84	465.77
372.04	425.98
372.24	421.30
372.44	489.17
372.63	433.00
372.83	559.39
373.03	437.68
373.22	493.85
373.42	484.49
373.62	498.53
373.81	437.68
374.01	552.37
374.21	566.41
374.40	526.62
374.60	524.28
374.79	524.28
374.99	592.16
375.19	608.54
375.38	545.34
375.58	486.83
375.78	596.84
375.97	543.00
376.17	636.63
376.37	575.77
376.56	566.41
376.76	641.31
376.95	587.47
377.15	592.16
377.35	608.54
377.54	512.58
377.74	557.05
377.93	617.90
378.13	641.31
378.33	653.01
378.52	601.52
378.72	688.12
378.91	617.90
379.11	617.90
379.31	638.97
379.50	580.45
379.70	650.67
379.89	653.01
380.09	655.35
380.28	587.47
380.48	650.67
380.68	582.79
380.87	554.71
381.07	645.99
381.26	734.93
381.46	734.93
381.65	713.86
381.85	667.05
382.04	690.46
382.24	713.86
382.43	685.78
382.63	622.58
382.83	704.50
383.02	667.05
383.22	758.33
383.41	655.35
383.61	620.24
383.80	788.76
384.00	709.18
384.19	683.44
384.39	711.52
384.58	720.88
384.78	746.63
384.97	795.78
385.17	779.40
385.36	755.99
385.56	748.97
385.75	781.74
385.95	809.83
386.14	748.97
386.34	784.08
386.53	774.72
386.72	809.83
386.92	887.06
387.11	863.66
387.31	858.98
387.50	819.19
387.70	758.33
387.89	863.66
388.09	835.57
388.28	770.04
388.48	908.13
388.67	863.66
388.86	854.30
389.06	880.04
389.25	922.17
389.45	854.30
389.64	854.30
389.84	1006.43
390.03	943.24
390.22	882.38
390.42	957.28
390.61	950.26
390.81	938.55
391.00	957.28
391.19	947.92
391.39	954.94
391.58	980.68
391.78	1034.52
391.97	973.66
392.16	922.17
392.36	943.24
392.55	987.71
392.75	961.96
392.94	842.59
393.13	1032.18
393.33	961.96
393.52	961.96
393.71	1118.78
393.91	1102.39
394.10	961.96
394.29	1137.50
394.49	1027.50
394.68	1086.01
394.88	1067.28
395.07	1249.85
395.26	1071.97
395.46	1071.97
395.65	1139.84
395.84	1132.82
396.04	1114.10
396.23	1163.25
396.42	1177.29
396.62	1158.57
396.81	1146.86
397.00	1130.48
397.19	1109.41
397.39	1193.67
397.58	1301.34
397.77	1233.46
397.97	1217.08
398.16	1345.81
398.35	1287.29
398.55	1212.40
398.74	1203.04
398.93	1465.18
399.12	1390.28
399.32	1317.72
399.51	1306.02
399.70	1502.62
399.90	1444.11
400.09	1432.41
400.28	1451.13
400.47	1528.37
400.67	1479.22
400.86	1474.54
401.05	1502.62
401.24	1568.16
401.44	1519.01
401.63	1631.35
401.82	1650.08
402.01	1549.43
402.21	1603.27
402.40	1647.74
402.59	1605.61
402.78	1551.78
402.97	1664.12
403.17	1678.16
403.36	1607.95
403.55	1598.59
403.74	1706.25
403.93	1633.69
404.13	1727.32
404.32	1645.40
404.51	1764.76
404.70	1788.17
404.89	1680.50
405.09	1760.08
405.28	1699.23
405.47	1856.04
405.66	1781.15
405.85	1743.70
406.05	1816.26
406.24	1741.36
406.43	1926.26
406.62	1867.75
406.81	1853.70
407.00	1912.22
407.20	1820.94
407.39	1909.88
407.58	2003.50
407.77	2008.18
407.96	2033.93
408.15	2008.18
408.34	1935.62
408.54	2101.80
408.73	2104.14
408.92	2120.53
409.11	2078.40
409.30	2169.68
409.49	2083.08
409.68	2043.29
409.87	2188.40
410.07	2071.37
410.26	2188.40
410.45	2235.21
410.64	2267.98
410.83	2244.57
411.02	2125.21
411.21	2356.92
411.40	2317.13
411.59	2345.22
411.78	2396.71
411.98	2436.50
412.17	2349.90
412.36	2347.56
412.55	2377.98
412.74	2443.52
412.93	2462.24
413.12	2530.12
413.31	2424.80
413.50	2546.50
413.69	2588.63
413.88	2677.57
414.07	2726.72
414.26	2717.36
414.45	2747.79
414.64	2743.11
414.83	2698.64
415.02	2747.79
415.22	2796.94
415.41	2806.30
415.60	2874.18
415.79	2974.82
415.98	2998.23
416.17	2925.67
416.36	2923.33
416.55	2888.22
416.74	3073.12
416.93	3005.25
417.12	3000.57
417.31	2988.86
417.50	3082.49
417.69	3143.34
417.88	3211.22
418.07	3159.72
418.26	3084.83
418.45	3281.43
418.64	3183.13
418.83	3251.00
419.02	3265.05
419.21	3281.43
419.39	3337.60
419.58	3311.86
419.77	3178.45
419.96	3274.41
420.15	3386.76
420.34	3456.97
420.53	3412.50
420.72	3445.27
420.91	3459.31
421.10	3576.34
421.29	3653.58
421.48	3524.85
421.67	3520.17
421.86	3480.38
422.05	3520.17
422.24	3578.68
422.43	3576.34
422.61	3604.42
422.80	3569.32
422.99	3590.38
423.18	3541.23
423.37	3609.11
423.56	3496.76
423.75	3585.70
423.94	3545.91
424.13	3482.72
424.32	3543.57
424.50	3623.15
424.69	3716.77
424.88	3667.62
425.07	3705.07
425.26	3545.91
425.45	3648.90
425.64	3646.55
425.83	3723.79
426.01	3669.96
426.20	3786.99
426.39	3709.75
426.58	3609.11
426.77	3676.98
426.96	3707.41
427.15	3592.72
427.33	3873.59
427.52	3737.84
427.71	3723.79
427.90	3815.07
428.09	3824.44
428.28	3901.67
428.46	3826.78
428.65	3941.46
428.84	3927.42
429.03	4032.74
429.22	3815.07
429.40	3927.42
429.59	3761.24
429.78	3653.58
429.97	3641.87
430.16	3728.47
430.34	3948.48
430.53	3805.71
430.72	3941.46
430.91	3892.31
431.10	3920.40
431.28	4255.09
431.47	4203.60
431.66	4187.22
431.85	4128.70
432.03	4292.54
432.22	4227.01
432.41	4362.76
432.60	4355.74
432.79	4248.07
432.97	4334.67
433.16	4594.47
433.35	4344.03
433.54	4285.52
433.72	4365.10
433.91	4416.59
434.10	4526.60
434.28	4379.14
434.47	4329.99
434.66	4447.02
434.85	4409.57
435.03	4585.11
435.22	4723.20
435.41	4702.14
435.59	4571.07
435.78	4667.03
435.97	4699.80
436.16	4660.01
436.34	4774.69
436.53	4713.84
436.72	4880.02
436.90	4690.43
437.09	4802.78
437.28	4690.43
437.46	4741.93
437.65	4816.82
437.84	4847.25
438.02	4788.74
438.21	4744.27
438.40	4849.59
438.58	4915.12
438.77	5011.09
438.96	5029.81
439.14	5097.69
439.33	5139.82
439.52	5195.99
439.70	5198.33
439.89	5149.18
440.08	5181.95
440.26	5331.74
440.45	5188.97
440.63	5465.15
440.82	5514.30
441.01	5451.11
441.19	5343.44
441.38	5633.67
441.57	5696.86
441.75	5738.99
441.94	5729.63
442.12	5582.18
442.31	5746.02
442.50	5994.11
442.68	5846.66
442.87	5865.38
443.05	5788.14
443.24	6031.56
443.43	5935.60
443.61	5989.43
443.80	6197.74
443.98	5902.83
444.17	5668.78
444.35	6022.20
444.54	6015.18
444.73	6097.10
444.91	5827.93
445.10	5963.68
445.28	5900.49
445.47	5921.56
445.65	6038.58
445.84	5966.03
446.02	6188.38
446.21	6113.48
446.39	5912.19
446.58	6038.58
446.77	6218.80
446.95	6033.90
447.14	5998.79
447.32	6370.94
447.51	6125.18
447.69	6104.12
447.88	6312.42
448.06	6101.78
448.25	6162.63
448.43	6148.59
448.62	6235.19
448.80	6242.21
448.99	6232.85
449.17	6272.64
449.36	6349.87
449.54	6567.54
449.73	6438.81
449.91	6586.27
450.10	6476.26
450.28	6623.72
450.46	6588.61
450.65	6616.69
450.83	6593.29
451.02	6518.39
451.20	6736.06
451.39	6752.45
451.57	6619.04
451.76	6710.32
451.94	6604.99
452.13	6771.17
452.31	6738.40
452.49	6569.88
452.68	6572.22
452.86	6614.35
453.05	6644.78
453.23	6909.26
453.42	6792.23
453.60	6736.06
453.78	6993.52
453.97	6750.10
454.15	6803.94
454.34	6651.80
454.52	6867.13
454.70	6953.73
454.89	7002.88
455.07	6993.52
455.26	7101.19
455.44	7112.89
455.62	7236.94
455.81	7211.19
455.99	7194.81
456.17	7091.82
456.36	7307.15
456.54	7290.77
456.73	7412.48
456.91	7368.01
457.09	7470.99
457.28	7651.21
457.46	7564.61
457.64	7456.95
457.83	7576.31
458.01	7414.82
458.19	7534.18
458.38	7634.83
458.56	7555.25
458.74	7723.77
458.93	7562.27
459.11	7698.02
459.29	7557.59
459.48	7660.57
459.66	7707.38
459.84	7721.43
460.03	7920.37
460.21	7754.19
460.39	7852.50
460.57	7744.83
460.76	7840.79
460.94	7997.61
461.12	7950.80
461.31	8105.28
461.49	8046.76
461.67	8065.49
461.85	8102.93
462.04	8018.68
462.22	8285.50
462.40	8234.00
462.59	8149.75
462.77	8149.75
462.95	8360.39
463.13	8191.88
463.32	8301.88
463.50	8346.35
463.68	8264.43
463.86	8271.45
464.05	8273.79
464.23	8198.90
464.41	8538.27
464.59	8231.66
464.78	8557.00
464.96	8374.44
465.14	8376.78
465.32	8507.85
465.50	8674.03
465.69	8566.36
465.87	8662.32
466.05	8580.40
466.23	8491.46
466.41	8477.42
466.60	8463.38
466.78	8393.16
466.96	8643.60
467.14	8786.37
467.32	8613.17
467.51	8903.40
467.69	8659.98
467.87	8767.65
468.05	8812.12
468.23	8671.68
468.41	8713.81
468.60	8805.10
468.78	9029.79
468.96	9050.85
469.14	8971.27
469.32	9067.24
469.50	8713.81
469.69	9107.02
469.87	9242.78
470.05	9350.44
470.23	9256.82
470.41	9188.94
470.59	9123.41
470.77	9139.79
470.95	9142.13
471.14	9528.32
471.32	9179.58
471.50	9645.35
471.68	9605.56
471.86	9497.89
472.04	9458.10
472.22	9886.42
472.40	9315.33
472.58	9645.35
472.77	9886.42
472.95	9935.57
473.13	10171.97
473.31	9841.95
473.49	9841.95
473.67	9865.36
473.85	10090.05
474.03	10122.82
474.21	10200.05
474.39	10326.44
474.57	10286.65
474.75	10258.57
474.93	10579.22
475.12	10253.89
475.30	10471.56
475.48	10410.70
475.66	10586.24
475.84	10459.85
476.02	10642.42
476.20	10604.97
476.38	10846.04
476.56	11126.91
476.74	10761.78
476.92	11159.67
477.10	11089.46
477.28	11068.39
477.46	11255.64
477.64	11307.13
477.82	11651.19
478.00	11611.40
478.18	11651.19
478.36	11644.17
478.54	11868.86
478.72	11705.02
478.90	12187.17
479.08	12255.04
479.26	12084.19
479.44	12500.80
479.62	12145.04
479.80	12470.37
479.98	12596.76
480.16	12566.34
480.34	12468.03
480.52	12779.32
480.70	12615.49
480.88	12514.84
481.06	12805.07
481.24	12858.90
481.41	13158.49
481.59	13568.09
481.77	13135.09
481.95	13298.92
482.13	13373.82
482.31	13429.99
482.49	13888.74
482.67	13855.97
482.85	13771.71
483.03	14286.63
483.21	14251.52
483.39	14249.18
483.57	14431.74
483.74	14530.05
483.92	14621.33
484.10	14415.36
484.28	14593.24
484.46	14874.10
484.64	15302.42
484.82	15274.34
485.00	15159.65
485.18	15557.54
485.35	15627.76
485.53	15243.91
485.71	15337.53
485.89	15386.68
486.07	15604.35
486.25	15688.61
486.43	15756.49
486.61	16058.42
486.78	16376.73
486.96	16063.10
487.14	16526.52
487.32	16362.69
487.50	16798.02
487.68	16739.51
487.85	17523.59
488.03	17142.08
488.21	17741.26
488.39	17518.91
488.57	17558.70
488.75	17778.71
488.92	17687.43
489.10	17776.37
489.28	18209.37
489.46	18490.23
489.64	18415.34
489.81	18806.20
489.99	18670.45
490.17	18792.16
490.35	19051.96
490.53	18780.46
490.70	19096.43
490.88	19271.97
491.06	19367.93
491.24	19559.86
491.41	19440.49
491.59	19461.55
491.77	19536.45
491.95	19646.46
492.13	20247.97
492.30	20161.37
492.48	20498.41
492.66	20269.04
492.84	20292.44
493.01	20638.84
493.19	20992.26
493.37	21039.08
493.54	21006.31
493.72	21418.24
493.90	21109.29
494.08	21357.39
494.25	21898.05
494.43	21525.91
494.61	21921.46
494.79	21865.28
494.96	22113.38
495.14	22045.51
495.32	22277.22
495.49	22649.36
495.67	22684.47
495.85	22670.43
496.02	22651.70
496.20	22752.35
496.38	23054.28
496.55	23023.85
496.73	23337.48
496.91	22953.63
497.09	23241.52
497.26	23646.43
497.44	23597.28
497.62	23721.33
497.79	23859.42
497.97	23585.58
498.14	24144.97
498.32	24144.97
498.50	24203.48
498.67	24622.44
498.85	24439.87
499.03	24467.96
499.20	24746.48
499.38	24467.96
499.56	24917.34
499.73	25008.62
499.91	24814.36
500.08	24952.45
500.26	25130.33
500.44	25516.52
500.61	25109.27
500.79	24854.15
500.97	25298.85
501.14	25685.04
501.32	25750.57
501.49	25455.67
501.67	25598.44
501.84	25773.98
502.02	25858.24
502.20	26361.45
502.37	26103.99
502.55	26015.05
502.72	26274.85
502.90	26391.88
503.07	26616.57
503.25	26558.06
503.43	26331.03
503.60	26656.36
503.78	26707.85
503.95	26902.12
504.13	26745.30
504.30	27349.16
504.48	26965.31
504.65	27454.48
504.83	27283.62
505.01	27819.61
505.18	27768.12
505.36	27913.23
505.53	27711.94
505.71	27953.02
505.88	27828.97
506.06	27630.02
506.23	28048.98
506.41	27587.89
506.58	28030.26
506.76	27981.10
506.93	28505.38
507.11	28119.20
507.28	28329.84
507.46	28395.38
507.63	28584.96
507.81	28767.52
507.98	28498.36
508.16	28692.63
508.33	28793.27
508.50	29071.79
508.68	29125.63
508.85	29649.91
509.03	29284.78
509.20	29502.45
509.38	29507.13
509.55	29219.25
509.73	29663.95
509.90	29593.73
510.08	29502.45
510.25	29703.74
510.42	29713.10
510.60	30244.40
510.77	30000.99
510.95	30363.77
511.12	30235.04
511.30	30197.59
511.47	30459.73
511.64	30792.09
511.82	30314.62
511.99	30258.45
512.17	30548.67
512.34	30637.61
512.51	31215.72
512.69	31271.90
512.86	31002.74
513.04	31035.50
513.21	31138.49
513.38	30885.71
513.56	31229.77
513.73	30845.92
513.90	31358.50
514.08	31178.28
514.25	31527.02
514.43	31295.30
514.60	31559.78
514.77	31559.78
514.95	32250.24
515.12	31873.42
515.29	31630.00
515.47	31922.57
515.64	32208.11
515.81	31789.16
515.99	32306.41
516.16	32032.57
516.33	32093.43
516.51	32126.19
516.68	32081.72
516.85	31796.18
517.03	32294.71
517.20	32311.10
517.37	32100.45
517.54	32704.31
517.72	32638.77
517.89	32481.95
518.06	32517.06
518.24	32720.69
518.41	32950.06
518.58	32797.93
518.75	32936.02
518.93	33312.84
519.10	33312.84
519.27	33617.11
519.45	33446.26
519.62	33369.02
519.79	33682.65
519.96	33888.62
520.14	33837.12
520.31	33743.50
520.48	33450.94
520.65	33895.64
520.83	34429.28
521.00	33982.24
521.17	34132.03
521.34	34471.41
521.52	34419.92
521.69	34309.91
521.86	34309.91
522.03	34747.59
522.20	34429.28
522.38	34588.44
522.55	34455.03
522.72	34672.70
522.89	34855.26
523.07	35129.10
523.24	34813.13
523.41	35274.21
523.58	34820.15
523.75	35431.03
523.92	35449.75
524.10	35463.80
524.27	35676.79
524.44	35426.35
524.61	35789.13
524.78	35665.08
524.96	35700.19
525.13	35784.45
525.30	35842.96
525.47	36196.38
525.64	35948.29
525.81	35807.86
525.98	36257.24
526.16	35819.56
526.33	35562.10
526.50	36371.92
526.67	35971.69
526.84	35871.05
527.01	35756.36
527.18	36147.23
527.36	36795.56
527.53	36737.05
527.70	36650.45
527.87	36945.36
528.04	36552.15
528.21	36821.31
528.38	36950.04
528.55	36985.15
528.72	37151.32
528.89	37544.53
529.07	36889.18
529.24	36865.78
529.41	37294.10
529.58	37095.15
529.75	36975.78
529.92	37254.31
530.09	37785.61
530.26	37446.23
530.43	37263.67
530.60	37514.11
530.77	37521.13
530.94	37890.93
531.11	37383.04
531.28	37371.33
531.46	37841.78
531.63	37989.24
531.80	37521.13
531.97	37823.06
532.14	37839.44
532.31	37713.05
532.48	37528.15
532.65	37956.47
532.82	37876.89
532.99	38185.84
533.16	37584.32
533.33	38220.95
533.50	38487.77
533.67	38333.29
533.84	38169.46
534.01	37975.19
534.18	38050.09
534.35	38485.43
534.52	38763.95
534.69	38724.16
534.86	38660.97
535.03	38721.82
535.20	39047.16
535.37	39344.41
535.54	39075.24
535.71	38986.30
535.88	38576.71
536.05	38415.21
536.22	39236.74
536.38	39213.34
536.55	38927.79
536.72	39115.03
536.89	38859.91
537.06	38981.62
537.23	39367.81
537.40	39592.50
537.57	39412.28
537.74	39414.62
537.91	39746.98
538.08	39643.99
538.25	39166.52
538.42	39484.84
538.59	39449.73
538.75	39569.10
538.92	39313.98
539.09	39578.46
539.26	39356.11
539.43	39807.83
539.60	39709.53
539.77	39477.82
539.94	39690.80
540.11	39798.47
540.28	40360.20
540.44	40060.61
540.61	39882.73
540.78	39985.71
540.95	39868.69
541.12	40107.42
541.29	39810.17
541.46	39854.64
541.62	40140.19
541.79	40397.65
541.96	39934.22
542.13	40402.33
542.30	40023.16
542.47	40341.47
542.63	40701.92
542.80	40528.72
542.97	40741.71
543.14	40641.06
543.31	40627.02
543.48	40774.47
543.64	41251.94
543.81	41443.87
543.98	40954.69
544.15	41043.63
544.32	41069.38
544.48	41429.82
544.65	41464.93
544.82	41497.70
544.99	41151.30
545.16	41186.41
545.32	41462.59
545.49	42014.96
545.66	41312.80
545.83	41588.98
546.00	41954.10
546.16	41251.94
546.33	41656.85
546.50	41680.26
546.67	41900.27
546.83	41516.42
547.00	41181.73
547.17	41621.75
547.34	41792.61
547.50	41406.42
547.67	42199.86
547.84	42106.24
548.00	42401.14
548.17	42087.51
548.34	41720.05
548.51	42387.10
548.67	41834.74
548.84	42150.71
549.01	42153.05
549.18	42244.33
549.34	42246.67
549.51	42614.13
549.68	41811.33
549.84	42466.68
550.01	42103.90
550.18	42415.19
550.34	42494.77
550.51	42405.83
550.68	42501.79
550.84	41918.99
551.01	42333.27
551.18	42609.45
551.34	42490.09
551.51	42782.65
551.68	42784.99
551.84	42277.10
552.01	42103.90
552.18	42990.96
552.34	42155.39
552.51	43019.05
552.68	42457.32
552.84	42997.98
553.01	42742.86
553.18	42581.37
553.34	42548.60
553.51	42471.36
553.67	43058.84
553.84	43129.05
554.01	43339.70
554.17	43000.32
554.34	43131.39
554.51	43461.41
554.67	43248.42
554.84	43044.79
555.00	43325.66
555.17	43201.61
555.33	42916.06
555.50	43093.94
555.67	43047.13
555.83	43281.19
556.00	43105.65
556.16	43370.13
556.33	43325.66
556.50	43367.79
556.66	43365.45
556.83	43124.37
556.99	43665.03
557.16	43775.04
557.32	43660.35
557.49	43594.82
557.65	43290.55
557.82	43246.08
557.98	43627.59
558.15	43550.35
558.32	43899.09
558.48	43791.42
558.65	43585.46
558.81	43330.34
558.98	43679.08
559.14	44100.37
559.31	43765.68
559.47	43562.05
559.64	43936.54
559.80	43889.73
559.97	43613.54
560.13	43501.20
560.30	43866.32
560.46	44135.48
560.63	43934.20
560.79	44044.20
560.96	44041.86
561.12	43627.59
561.29	44067.61
561.45	44268.89
561.61	44222.08
561.78	43835.89
561.94	44060.58
562.11	43997.39
562.27	44292.30
562.44	43845.26
562.60	44374.22
562.77	44367.20
562.93	44079.31
563.10	44201.02
563.26	43938.88
563.42	44346.13
563.59	44088.67
563.75	43838.23
563.92	44664.44
564.08	43938.88
564.24	43852.28
564.41	44208.04
564.57	44357.83
564.74	44388.26
564.90	44369.54
565.07	44257.19
565.23	44186.97
565.39	44353.15
565.56	44687.85
565.72	44189.31
565.88	44179.95
566.05	43948.24
566.21	44364.85
566.38	44051.22
566.54	43849.94
566.70	44673.81
566.87	45216.81
567.03	44531.03
567.19	44392.94
567.36	44949.99
567.52	44463.16
567.68	44254.85
567.85	44449.11
568.01	44395.28
568.17	44800.19
568.34	44453.79
568.50	44587.21
568.66	44280.60
568.83	44091.01
568.99	43962.28
569.15	44023.14
569.32	44245.49
569.48	44353.15
569.64	44872.75
569.81	44692.53
569.97	44275.91
570.13	44863.39
570.30	44151.87
570.46	44437.41
570.62	44327.41
570.78	44121.44
570.95	44793.17
571.11	44776.79
571.27	45003.82
571.43	44095.69
571.60	44561.46
571.76	44318.04
571.92	44540.39
572.09	44615.29
572.25	44655.08
572.41	44659.76
572.57	44720.62
572.74	45146.59
572.90	44790.83
573.06	44748.70
573.22	44467.84
573.38	44734.66
573.55	44542.74
573.71	44418.69
573.87	44680.83
574.03	44369.54
574.20	44519.33
574.36	44935.95
574.52	44882.11
574.68	44449.11
574.84	45132.55
575.01	44800.19
575.17	44568.48
575.33	44320.38
575.49	44552.10
575.65	44636.36
575.82	44907.86
575.98	44552.10
576.14	44755.72
576.30	45287.03
576.46	44444.43
576.62	44570.82
576.79	44727.64
576.95	44552.10
577.11	44458.48
577.27	44917.22
577.43	44893.82
577.59	44903.18
577.75	44889.13
577.92	44676.15
578.08	44507.63
578.24	44615.29
578.40	44538.05
578.56	45399.37
578.72	44828.28
578.88	44957.01
579.04	44994.46
579.21	44947.65
579.37	44446.77
579.53	45076.38
579.69	45059.99
579.85	45071.70
580.01	45361.92
580.17	44919.56
580.33	44762.75
580.49	44964.03
580.65	44924.24
580.82	44875.09
580.98	45132.55
581.14	44357.83
581.30	45090.42
581.46	44919.56
581.62	44774.45
581.78	44847.00
581.94	45034.25
582.10	44582.52
582.26	45507.04
582.42	45010.84
582.58	44783.81
582.74	44463.16
582.90	45354.90
583.06	45235.53
583.22	45233.19
583.38	45422.78
583.54	45099.78
583.70	44751.04
583.86	45099.78
584.02	45191.06
584.18	44847.00
584.34	44783.81
584.50	44701.89
584.66	44772.11
584.82	45015.52
584.98	45195.74
585.14	44767.43
585.30	44844.66
585.46	45083.40
585.62	44980.42
585.78	45102.12
585.94	44605.93
586.10	45024.89
586.26	44842.32
586.42	45345.54
586.58	44795.51
586.74	45235.53
586.90	45127.87
587.06	44706.57
587.22	44832.96
587.38	44491.24
587.54	45174.68
587.70	45099.78
587.86	45055.31
588.02	45106.80
588.18	45029.57
588.34	44870.41
588.49	44505.29
588.65	44694.87
588.81	44664.44
588.97	44760.40
589.13	44626.99
589.29	44776.79
589.45	45017.86
589.61	44996.80
589.77	44877.43
589.93	44992.12
590.08	44975.73
590.24	45345.54
