SpectraSuite Data File
++++++++++++++++++++++++++++++++++++
Date: Fri Oct 25 11:25:41 EDT 2013
User: price-jones
Dark Spectrum Present: No
Reference Spectrum Present: No
Number of Sampled Component Spectra: 1
Spectrometers: USB2+H05261
Integration Time (usec): 100000 (USB2+H05261)
Spectra Averaged: 1 (USB2+H05261)
Boxcar Smoothing: 0 (USB2+H05261)
Correct for Electrical Dark: No (USB2+H05261)
Strobe/Lamp Enabled: No (USB2+H05261)
Correct for Detector Non-linearity: No (USB2+H05261)
Correct for Stray Light: No (USB2+H05261)
Number of Pixels in Processed Spectrum: 2048
>>>>>Begin Processed Spectral Data<<<<<
365.73	301.93
365.92	301.93
366.12	301.93
366.32	177.88
366.52	163.84
366.72	166.18
366.91	126.39
367.11	91.28
367.31	124.05
367.51	142.77
367.70	163.84
367.90	98.30
368.10	110.01
368.30	98.30
368.49	121.71
368.69	217.67
368.89	182.56
369.09	100.64
369.28	117.03
369.48	110.01
369.68	138.09
369.87	266.82
370.07	208.31
370.27	222.35
370.47	325.33
370.66	657.69
370.86	617.90
371.06	638.97
371.25	681.10
371.45	627.26
371.65	774.72
371.84	692.80
372.04	681.10
372.24	732.59
372.44	723.23
372.63	798.12
372.83	823.87
373.03	744.29
373.22	702.16
373.42	746.63
373.62	699.82
373.81	676.41
374.01	800.46
374.21	844.93
374.40	826.21
374.60	861.32
374.79	837.91
374.99	844.93
375.19	873.02
375.38	849.61
375.58	856.64
375.78	854.30
375.97	837.91
376.17	819.19
376.37	887.06
376.56	840.25
376.76	863.66
376.95	870.68
377.15	950.26
377.35	870.68
377.54	915.15
377.74	854.30
377.93	938.55
378.13	861.32
378.33	952.60
378.52	912.81
378.72	954.94
378.91	1006.43
379.11	1043.88
379.31	990.05
379.50	936.21
379.70	1022.81
379.89	978.34
380.09	940.90
380.28	983.02
380.48	940.90
380.68	910.47
380.87	973.66
381.07	938.55
381.26	1114.10
381.46	971.32
381.65	947.92
381.85	1025.15
382.04	1071.97
382.24	1090.69
382.43	1043.88
382.63	1071.97
382.83	1029.84
383.02	1179.63
383.22	1137.50
383.41	999.41
383.61	1078.99
383.80	1125.80
384.00	1086.01
384.19	1095.37
384.39	1210.06
384.58	1090.69
384.78	1111.75
384.97	1153.88
385.17	1137.50
385.36	1121.12
385.56	1128.14
385.75	1114.10
385.95	1153.88
386.14	1093.03
386.34	1165.59
386.53	1221.76
386.72	1277.93
386.92	1167.93
387.11	1256.87
387.31	1254.53
387.50	1329.42
387.70	1188.99
387.89	1240.48
388.09	1336.45
388.28	1275.59
388.48	1287.29
388.67	1338.79
388.86	1273.25
389.06	1249.85
389.25	1284.95
389.45	1371.55
389.64	1289.64
389.84	1341.13
390.03	1296.66
390.22	1373.89
390.42	1331.76
390.61	1331.76
390.81	1394.96
391.00	1357.51
391.19	1448.79
391.39	1420.71
391.58	1416.02
391.78	1488.58
391.97	1444.11
392.16	1444.11
392.36	1495.60
392.55	1614.97
392.75	1561.14
392.94	1507.30
393.13	1544.75
393.33	1495.60
393.52	1551.78
393.71	1605.61
393.91	1582.20
394.10	1556.46
394.29	1516.67
394.49	1540.07
394.68	1591.56
394.88	1577.52
395.07	1661.78
395.26	1703.91
395.46	1675.82
395.65	1664.12
395.84	1792.85
396.04	1809.23
396.23	1748.38
396.42	1771.79
396.62	1696.89
396.81	1774.13
397.00	1724.97
397.19	1764.76
397.39	1804.55
397.58	1867.75
397.77	1762.42
397.97	1879.45
398.16	1788.17
398.35	1816.26
398.55	1708.59
398.74	1851.36
398.93	1940.30
399.12	1839.66
399.32	1933.28
399.51	1844.34
399.70	2076.06
399.90	1888.81
400.09	1952.01
400.28	2092.44
400.47	1947.33
400.67	2064.35
400.86	2012.86
401.05	2106.48
401.24	2085.42
401.44	2132.23
401.63	2087.76
401.82	2228.19
402.01	2125.21
402.21	2064.35
402.40	2176.70
402.59	2167.34
402.78	2150.95
402.97	2209.47
403.17	2253.94
403.36	2223.51
403.55	2256.28
403.74	2317.13
403.93	2289.04
404.13	2420.11
404.32	2356.92
404.51	2298.41
404.70	2417.77
404.89	2466.92
405.09	2485.65
405.28	2385.01
405.47	2487.99
405.66	2401.39
405.85	2619.06
406.05	2492.67
406.24	2539.48
406.43	2546.50
406.62	2537.14
406.81	2609.70
407.00	2530.12
407.20	2567.57
407.39	2696.30
407.58	2691.62
407.77	2729.06
407.96	2719.70
408.15	2850.77
408.34	2569.91
408.54	2736.09
408.73	2775.88
408.92	2846.09
409.11	3012.27
409.30	2878.86
409.49	2764.17
409.68	2942.05
409.87	2953.76
410.07	2972.48
410.26	2995.89
410.45	3021.63
410.64	3077.80
410.83	3108.23
411.02	3042.70
411.21	3091.85
411.40	3131.64
411.59	3141.00
411.78	3218.24
411.98	3180.79
412.17	3162.06
412.36	3274.41
412.55	3150.36
412.74	3449.95
412.93	3344.63
413.12	3286.11
413.31	3438.25
413.50	3557.61
413.69	3581.02
413.88	3557.61
414.07	3449.95
414.26	3602.08
414.45	3644.21
414.64	3667.62
414.83	3812.73
415.02	3784.65
415.22	3829.12
415.41	3943.80
415.60	3836.14
415.79	3878.27
415.98	4058.49
416.17	3999.98
416.36	3918.06
416.55	4032.74
416.74	4072.53
416.93	3929.76
417.12	4032.74
417.31	4175.52
417.50	3995.29
417.69	4280.84
417.88	4271.48
418.07	4273.82
418.26	4290.20
418.45	4283.18
418.64	4528.94
418.83	4376.80
419.02	4257.43
419.21	4337.01
419.39	4358.08
419.58	4519.57
419.77	4374.46
419.96	4456.38
420.15	4468.08
420.34	4521.92
420.53	4547.66
420.72	4547.66
420.91	4636.60
421.10	4674.05
421.29	4718.52
421.48	4610.86
421.67	4615.54
421.86	4746.61
422.05	4634.26
422.24	4795.76
422.43	4638.94
422.61	4884.70
422.80	4819.16
422.99	4774.69
423.18	4887.04
423.37	4971.30
423.56	4994.70
423.75	4950.23
423.94	4947.89
424.13	4594.47
424.32	4727.88
424.50	4968.96
424.69	5313.02
424.88	5048.54
425.07	5013.43
425.26	4854.27
425.45	4987.68
425.64	5022.79
425.83	4896.40
426.01	4992.36
426.20	5050.88
426.39	4901.08
426.58	5085.98
426.77	5039.17
426.96	5135.14
427.15	5163.22
427.33	5240.46
427.52	5165.56
427.71	5160.88
427.90	5116.41
428.09	5177.26
428.28	5303.65
428.46	5334.08
428.65	5336.42
428.84	5329.40
429.03	5446.43
429.22	5315.36
429.40	5420.68
429.59	5437.06
429.78	5420.68
429.97	5310.68
430.16	5427.70
430.34	5497.92
430.53	5664.10
430.72	5563.45
430.91	5666.44
431.10	5596.22
431.28	5661.76
431.47	5774.10
431.66	5881.77
431.85	5654.73
432.03	6015.18
432.22	5900.49
432.41	5788.14
432.60	5872.40
432.79	6148.59
432.97	6141.57
433.16	6108.80
433.35	5856.02
433.54	6052.63
433.72	6083.05
433.91	5982.41
434.10	6104.12
434.28	6057.31
434.47	6146.25
434.66	6211.78
434.85	6356.90
435.03	6326.47
435.22	6141.57
435.41	6342.85
435.59	6466.90
435.78	6469.24
435.97	6434.13
436.16	6314.77
436.34	6296.04
436.53	6373.28
436.72	6494.99
436.90	6462.22
437.09	6766.49
437.28	6483.28
437.46	6614.35
437.65	6487.96
437.84	6850.75
438.02	6628.40
438.21	6717.34
438.40	6612.01
438.58	7028.63
438.77	6752.45
438.96	6773.51
439.14	6998.20
439.33	7208.85
439.52	7129.27
439.70	7206.51
439.89	7382.05
440.08	7389.07
440.26	7314.17
440.45	7309.49
440.63	7449.93
440.82	7620.78
441.01	7499.08
441.19	7602.06
441.38	7543.55
441.57	7826.75
441.75	7658.23
441.94	7913.35
442.12	7922.71
442.31	7939.10
442.50	8053.78
442.68	7906.33
442.87	8107.62
443.05	7957.82
443.24	8168.47
443.43	8142.72
443.61	8095.91
443.80	8306.56
443.98	8170.81
444.17	7964.84
444.35	8182.51
444.54	8358.05
444.73	8294.86
444.91	8154.43
445.10	8528.91
445.28	8418.91
445.47	8194.22
445.65	8437.63
445.84	8608.49
446.02	8571.04
446.21	8386.14
446.39	8325.29
446.58	8613.17
446.77	8327.63
446.95	8367.42
447.14	8329.97
447.32	8594.45
447.51	8505.51
447.69	8390.82
447.88	8507.85
448.06	8617.85
448.25	8451.67
448.43	8461.04
448.62	8685.73
448.80	8631.90
448.99	8510.19
449.17	8681.05
449.36	8648.28
449.54	8851.91
449.73	8999.36
449.91	8952.55
450.10	8856.59
450.28	8884.67
450.46	8887.01
450.65	8931.48
450.83	9046.17
451.02	9053.19
451.20	8901.06
451.39	9069.58
451.57	9060.21
451.76	9167.88
451.94	9046.17
452.13	9174.90
452.31	9315.33
452.49	9156.18
452.68	9446.40
452.86	9235.75
453.05	9413.63
453.23	9525.98
453.42	9238.09
453.60	9404.27
453.78	9481.51
453.97	9291.93
454.15	9460.45
454.34	9387.89
454.52	9652.37
454.70	9647.69
454.89	9565.77
455.07	9767.06
455.26	9652.37
455.44	9937.91
455.62	9713.22
455.81	9738.97
455.99	9743.65
456.17	9984.73
456.36	9907.49
456.54	10120.48
456.73	10204.74
456.91	10314.74
457.09	10373.25
457.28	10443.47
457.46	10157.92
457.64	10438.79
457.83	10380.28
458.01	10415.38
458.19	10714.97
458.38	10387.30
458.56	10537.09
458.74	10750.08
458.93	10466.88
459.11	10654.12
459.29	10696.25
459.48	10607.31
459.66	10532.41
459.84	10691.57
460.03	11089.46
460.21	10677.52
460.39	10939.66
460.57	10967.75
460.76	10874.13
460.94	11173.72
461.12	10899.87
461.31	11047.33
461.49	11351.60
461.67	11033.29
461.85	11480.33
462.04	11339.90
462.22	11800.98
462.40	11538.84
462.59	11592.67
462.77	11403.09
462.95	11510.75
463.13	11482.67
463.32	11435.86
463.50	11489.69
463.68	11585.65
463.86	11719.06
464.05	11573.95
464.23	11740.13
464.41	11573.95
464.59	11573.95
464.78	11847.79
464.96	12039.72
465.14	11707.36
465.32	12044.40
465.50	11892.26
465.69	12180.15
465.87	11885.24
466.05	12009.29
466.23	12063.12
466.41	12358.03
466.60	12477.40
466.78	12109.93
466.96	12290.15
467.14	12142.70
467.32	12212.92
467.51	12526.55
467.69	12116.95
467.87	12320.58
468.05	12627.19
468.23	12493.78
468.41	12327.60
468.60	12470.37
468.78	12564.00
468.96	12294.83
469.14	12748.90
469.32	12870.61
469.50	12531.23
469.69	12964.23
469.87	12823.80
470.05	13008.70
470.23	12964.23
470.41	13050.83
470.59	13233.39
470.77	13048.49
470.95	13118.70
471.14	13287.22
471.32	12945.50
471.50	13474.46
471.68	13621.92
471.86	13710.86
472.04	13661.71
472.22	13860.65
472.40	13767.03
472.58	13650.00
472.77	13764.69
472.95	13923.85
473.13	14370.89
473.31	13942.57
473.49	13963.64
473.67	13902.78
473.85	14019.81
474.03	14530.05
474.21	14431.74
474.39	14848.36
474.57	14731.33
474.75	15073.05
474.93	14888.15
475.12	14707.93
475.30	15030.92
475.48	14862.40
475.66	15037.94
475.84	15115.18
476.02	15412.43
476.20	15150.29
476.38	15688.61
476.56	15974.16
476.74	15499.03
476.92	15775.21
477.10	15714.36
477.28	15831.38
477.46	15974.16
477.64	16191.83
477.82	16386.09
478.00	16805.05
478.18	16601.42
478.36	16996.97
478.54	17034.42
478.72	16821.43
478.90	17179.53
479.08	17135.06
479.26	17649.98
479.44	17451.03
479.62	17734.24
479.80	17696.79
479.98	18153.20
480.16	18490.23
480.34	17980.00
480.52	18424.70
480.70	18602.58
480.88	18377.89
481.06	18616.62
481.24	19089.41
481.41	18703.22
481.59	18787.48
481.77	19449.85
481.95	19473.26
482.13	19655.82
482.31	19410.06
482.49	20107.54
482.67	20098.18
482.85	20294.79
483.03	20439.90
483.21	20477.35
483.39	20900.98
483.57	20671.61
483.74	21123.33
483.92	21413.56
484.10	20943.11
484.28	21528.25
484.46	21923.80
484.64	21900.39
484.82	21944.86
485.00	22176.58
485.18	22572.13
485.35	22941.93
485.53	22462.12
485.71	23091.73
485.89	23564.51
486.07	23316.42
486.25	23117.47
486.43	23566.85
486.61	23700.26
486.78	23676.86
486.96	23814.95
487.14	24521.79
487.32	24521.79
487.50	24531.15
487.68	24524.13
487.85	25149.06
488.03	25329.28
488.21	25486.09
488.39	25535.24
488.57	25752.91
488.75	25919.09
488.92	25905.05
489.10	26792.11
489.28	26721.90
489.46	26878.71
489.64	26845.94
489.81	27697.90
489.99	27517.68
490.17	27550.45
490.35	28144.94
490.53	28205.80
490.70	28341.55
490.88	27948.34
491.06	28322.82
491.24	28547.51
491.41	28886.89
491.59	29088.18
491.77	29202.86
491.95	29397.13
492.13	29722.46
492.30	29670.97
492.48	29682.67
492.66	29975.24
492.84	30356.75
493.01	30604.84
493.19	30539.31
493.37	30801.45
493.54	30845.92
493.72	31084.65
493.90	31527.02
494.08	31768.09
494.25	31744.69
494.43	31758.73
494.61	32154.28
494.79	32374.29
494.96	32334.50
495.14	32479.61
495.32	32823.67
495.49	32971.13
495.67	32996.87
495.85	33242.63
496.02	33834.78
496.20	33773.93
496.38	34017.35
496.55	33832.44
496.73	34616.52
496.91	34443.32
497.09	34815.47
497.26	34822.49
497.44	34504.18
497.62	35091.65
497.79	35648.70
497.97	35056.54
498.14	36062.97
498.32	36182.34
498.50	35576.14
498.67	36343.84
498.85	36046.59
499.03	36407.03
499.20	36598.96
499.38	36858.76
499.56	36503.00
499.73	36800.24
499.91	37310.48
500.08	37418.14
500.26	37233.24
500.44	37638.15
500.61	37469.64
500.79	37123.24
500.97	37900.29
501.14	38450.32
501.32	38438.62
501.49	38075.84
501.67	38536.92
501.84	38719.48
502.02	38735.87
502.20	38667.99
502.37	39049.50
502.55	39005.03
502.72	39292.91
502.90	39203.97
503.07	39290.57
503.25	39466.11
503.43	39423.98
503.60	40095.72
503.78	40217.43
503.95	40268.92
504.13	40678.51
504.30	40800.22
504.48	40407.01
504.65	40615.32
504.83	40704.26
505.01	41060.02
505.18	41106.83
505.36	41268.33
505.53	41099.81
505.71	41378.33
505.88	41354.93
506.06	41387.69
506.23	41584.30
506.41	41537.49
506.58	41881.55
506.76	41764.52
506.93	42014.96
507.11	41993.89
507.28	42089.85
507.46	42719.46
507.63	42693.71
507.81	43070.54
507.98	42586.05
508.16	43147.78
508.33	43178.20
508.50	43358.42
508.68	43604.18
508.85	43597.16
509.03	43681.42
509.20	43627.59
509.38	43803.13
509.55	43978.67
509.73	44341.45
509.90	44259.53
510.08	44552.10
510.25	44769.77
510.42	44847.00
510.60	44535.71
510.77	44919.56
510.95	45558.53
511.12	44629.34
511.30	45172.34
511.47	44886.79
511.64	45034.25
511.82	45729.39
511.99	45284.68
512.17	45858.12
512.34	45930.67
512.51	45841.73
512.69	46089.83
512.86	45970.46
513.04	46445.59
513.21	46277.07
513.38	46412.82
513.56	46487.72
513.73	46586.02
513.90	46976.89
514.08	46707.73
514.25	47292.86
514.43	47250.74
514.60	47119.66
514.77	47164.14
514.95	47505.85
515.12	47299.89
515.29	47267.12
515.47	47718.84
515.64	47718.84
515.81	47896.72
515.99	48055.88
516.16	47988.00
516.33	48219.72
516.51	48254.82
516.68	48296.95
516.85	48437.39
517.03	48332.06
517.20	48905.49
517.37	48694.85
517.54	48594.20
517.72	48575.48
517.89	48603.56
518.06	48999.12
518.24	49193.38
518.41	49043.59
518.58	49221.47
518.75	49153.59
518.93	49476.58
519.10	48814.21
519.27	49691.91
519.45	49595.95
519.62	49502.33
519.79	49839.37
519.96	49956.39
520.14	49717.66
520.31	50031.29
520.48	50153.00
520.65	50007.89
520.83	50426.84
521.00	50497.06
521.17	50136.62
521.34	50646.85
521.52	50494.72
521.69	50733.45
521.86	50583.66
522.03	51063.47
522.20	50696.00
522.38	51133.68
522.55	51033.04
522.72	51040.06
522.89	50791.97
523.07	51402.85
523.24	51494.13
523.41	51688.39
523.58	51522.21
523.75	51737.54
523.92	51550.30
524.10	51828.82
524.27	51688.39
524.44	51749.24
524.61	51990.32
524.78	51824.14
524.96	51910.74
525.13	51971.60
525.30	52086.28
525.47	52392.89
525.64	52332.04
525.81	52456.09
525.98	52446.72
526.16	52268.84
526.33	52500.56
526.50	52912.49
526.67	52568.43
526.84	52856.32
527.01	52561.41
527.18	52746.31
527.36	52701.84
527.53	52781.42
527.70	52992.07
527.87	53139.52
528.04	52947.60
528.21	53158.25
528.38	53319.74
528.55	53038.88
528.72	53158.25
528.89	52893.77
529.07	53338.47
529.24	53015.47
529.41	53476.56
529.58	53780.83
529.75	53404.00
529.92	53375.92
530.09	53509.33
530.26	53619.33
530.43	53951.69
530.60	53607.63
530.77	53570.18
530.94	54206.81
531.11	53684.87
531.28	54054.67
531.46	54199.79
531.63	53963.39
531.80	53881.47
531.97	54054.67
532.14	54248.94
532.31	54068.72
532.48	54600.02
532.65	54415.11
532.82	54372.99
532.99	54506.40
533.16	54433.84
533.33	54665.55
533.50	54887.90
533.67	54574.27
533.84	54532.14
534.01	54281.70
534.18	54775.56
534.35	55229.62
534.52	55018.97
534.69	54974.50
534.86	55126.64
535.03	54979.18
535.20	55068.12
535.37	55054.08
535.54	55257.71
535.71	54939.39
535.88	55384.10
536.05	55269.41
536.22	55461.33
536.38	55578.36
536.55	55384.10
536.72	55484.74
536.89	55484.74
537.06	55341.97
537.23	55571.34
537.40	55487.08
537.57	55533.89
537.74	55660.28
537.91	55781.99
538.08	55861.57
538.25	55353.67
538.42	55681.34
538.59	55863.91
538.75	56161.15
538.92	55941.14
539.09	55917.74
539.26	55831.14
539.43	55941.14
539.60	56229.03
539.77	56053.49
539.94	56198.60
540.11	56154.13
540.28	56236.05
540.44	56219.67
540.61	56275.84
540.78	56062.85
540.95	56158.81
541.12	56383.51
541.29	56275.84
541.46	56392.87
541.62	56474.79
541.79	56645.65
541.96	56477.13
542.13	56493.51
542.30	56540.32
542.47	56729.90
542.63	56521.60
542.80	56802.46
542.97	56919.49
543.14	57055.24
543.31	57066.94
543.48	57336.10
543.64	57251.84
543.81	57340.78
543.98	57233.12
544.15	57265.89
544.32	57258.87
544.48	57301.00
544.65	57127.80
544.82	57190.99
544.99	57066.94
545.16	57471.85
545.32	57359.51
545.49	57422.70
545.66	57385.25
545.83	57551.43
546.00	57565.48
546.16	57406.32
546.33	57450.79
546.50	57357.17
546.67	57687.18
546.83	57434.41
547.00	57593.56
547.17	57593.56
547.34	57663.78
547.50	57661.44
547.67	57872.09
547.84	57972.73
548.00	57883.79
548.17	58033.58
548.34	57944.64
548.51	58155.29
548.67	58277.00
548.84	57874.43
549.01	57879.11
549.18	57979.75
549.34	58066.35
549.51	58159.97
549.68	58188.06
549.84	58237.21
550.01	58122.52
550.18	58157.63
550.34	58288.70
550.51	58323.81
550.68	58279.34
550.84	57958.69
551.01	58384.66
551.18	58344.87
551.34	58349.56
551.51	58255.93
551.68	58506.37
551.84	58286.36
552.01	58354.24
552.18	58438.50
552.34	58408.07
552.51	58443.18
552.68	58599.99
552.84	58354.24
553.01	58843.41
553.18	58702.98
553.34	58677.23
553.51	58759.15
553.67	58637.44
553.84	58885.54
554.01	58974.48
554.17	58808.30
554.34	59011.93
554.51	58880.86
554.67	58768.51
554.84	58955.75
555.00	59040.01
555.17	58857.45
555.33	58733.40
555.50	58890.22
555.67	58869.15
555.83	58911.28
556.00	59229.60
556.16	59128.95
556.33	58958.09
556.50	58925.33
556.66	59185.13
556.83	58791.92
556.99	59185.13
557.16	59292.79
557.32	59444.93
557.49	59578.34
557.65	59112.57
557.82	59098.53
557.98	59114.91
558.15	59374.71
558.32	59517.48
558.48	59281.09
558.65	59557.27
558.81	59320.88
558.98	59515.14
559.14	59522.16
559.31	59580.68
559.47	59391.09
559.64	59508.12
559.80	59613.44
559.97	59522.16
560.13	59442.59
560.30	59660.26
560.46	59714.09
560.63	59756.22
560.79	59618.13
560.96	59945.80
561.12	59700.04
561.29	59828.77
561.45	59704.73
561.61	59484.72
561.78	59496.42
561.94	59470.67
562.11	59625.15
562.27	59826.43
562.44	59833.46
562.60	59952.82
562.77	59847.50
562.93	59590.04
563.10	60044.10
563.26	59753.88
563.42	60018.36
563.59	59873.24
563.75	59753.88
563.92	60041.76
564.08	59898.99
564.24	60018.36
564.41	59945.80
564.57	60004.31
564.74	59955.16
564.90	59987.93
565.07	60039.42
565.23	59678.98
565.39	60083.89
565.56	60203.26
565.72	59999.63
565.88	59901.33
566.05	60130.70
566.21	59948.14
566.38	59999.63
566.54	60226.66
566.70	60203.26
566.87	60055.81
567.03	59648.55
567.19	60512.21
567.36	60147.09
567.52	60093.25
567.68	60182.19
567.85	60236.03
568.01	60254.75
568.17	60097.94
568.34	60327.31
568.50	60282.84
568.66	60278.16
568.83	60151.77
568.99	60217.30
569.15	60271.14
569.32	60350.71
569.48	60301.56
569.64	60360.08
569.81	60254.75
569.97	60142.41
570.13	60514.55
570.30	60109.64
570.46	60348.37
570.62	60273.48
570.78	60212.62
570.95	60528.59
571.11	60502.85
571.27	60392.84
571.43	60411.57
571.60	60568.38
571.76	60324.97
571.92	60582.43
572.09	60573.06
572.25	60484.12
572.41	60266.45
572.57	60474.76
572.74	60477.10
572.90	60498.17
573.06	60514.55
573.22	60542.64
573.38	60573.06
573.55	60420.93
573.71	60772.01
573.87	60519.23
574.03	60221.98
574.20	60537.96
574.36	60521.57
574.52	60828.18
574.68	60575.40
574.84	60615.19
575.01	60544.98
575.17	60519.23
575.33	60537.96
575.49	60214.96
575.65	60605.83
575.82	60706.47
575.98	60678.39
576.14	60910.10
576.30	60617.53
576.46	60486.46
576.62	60781.37
576.79	60481.78
576.95	60554.34
577.11	60654.98
577.27	60725.20
577.43	60872.65
577.59	60629.24
577.75	60563.70
577.92	60619.88
578.08	60626.90
578.24	60591.79
578.40	61022.45
578.56	60732.22
578.72	60795.42
578.88	60584.77
579.04	60942.87
579.21	60788.39
579.37	60779.03
579.53	60835.20
579.69	60465.40
579.85	60692.43
580.01	60491.15
580.17	60760.31
580.33	60844.57
580.49	60809.46
580.65	60659.66
580.82	60729.88
580.98	60631.58
581.14	60774.35
581.30	60683.07
581.46	60554.34
581.62	60867.97
581.78	60640.94
581.94	60823.50
582.10	60734.56
582.26	60966.27
582.42	60687.75
582.58	60884.36
582.74	60762.65
582.90	60692.43
583.06	60776.69
583.22	60605.83
583.38	60671.37
583.54	60633.92
583.70	60821.16
583.86	60865.63
584.02	60701.79
584.18	60966.27
584.34	60851.59
584.50	60947.55
584.66	60685.41
584.82	60542.64
584.98	60919.46
585.14	60872.65
585.30	60844.57
585.46	60921.80
585.62	60980.32
585.78	61059.90
585.94	60654.98
586.10	60977.98
586.26	60856.27
586.42	60823.50
586.58	61153.52
586.74	61066.92
586.90	60853.93
587.06	60891.38
587.22	61003.72
587.38	60891.38
587.54	61064.58
587.70	61174.58
587.86	60926.49
588.02	60769.67
588.18	61186.28
588.34	60842.23
588.49	60748.60
