SpectraSuite Data File
++++++++++++++++++++++++++++++++++++
Date: Fri Oct 25 10:47:00 EDT 2013
User: price-jones
Dark Spectrum Present: No
Reference Spectrum Present: No
Number of Sampled Component Spectra: 1
Spectrometers: USB2+H05261
Integration Time (usec): 100000 (USB2+H05261)
Spectra Averaged: 1 (USB2+H05261)
Boxcar Smoothing: 0 (USB2+H05261)
Correct for Electrical Dark: No (USB2+H05261)
Strobe/Lamp Enabled: No (USB2+H05261)
Correct for Detector Non-linearity: No (USB2+H05261)
Correct for Stray Light: No (USB2+H05261)
Number of Pixels in Processed Spectrum: 2048
>>>>>Begin Processed Spectral Data<<<<<
365.73	159.16
365.92	159.16
366.12	159.16
366.32	114.69
366.52	30.43
366.72	25.75
366.91	0.00
367.11	35.11
367.31	35.11
367.51	18.72
367.70	39.79
367.90	119.37
368.10	32.77
368.30	23.41
368.49	65.54
368.69	91.28
368.89	44.47
369.09	58.51
369.28	114.69
369.48	58.51
369.68	149.79
369.87	79.58
370.07	70.22
370.27	159.16
370.47	208.31
370.66	423.64
370.86	409.59
371.06	421.30
371.25	477.47
371.45	479.81
371.65	472.79
371.84	475.13
372.04	428.32
372.24	425.98
372.44	472.79
372.63	566.41
372.83	547.69
373.03	587.47
373.22	491.51
373.42	594.50
373.62	484.49
373.81	496.19
374.01	573.43
374.21	482.15
374.40	479.81
374.60	578.11
374.79	587.47
374.99	526.62
375.19	587.47
375.38	610.88
375.58	554.71
375.78	617.90
375.97	634.29
376.17	627.26
376.37	573.43
376.56	503.22
376.76	573.43
376.95	580.45
377.15	592.16
377.35	603.86
377.54	606.20
377.74	596.84
377.93	599.18
378.13	667.05
378.33	676.41
378.52	653.01
378.72	713.86
378.91	699.82
379.11	657.69
379.31	674.07
379.50	557.05
379.70	674.07
379.89	777.06
380.09	685.78
380.28	638.97
380.48	599.18
380.68	681.10
380.87	617.90
381.07	655.35
381.26	702.16
381.46	699.82
381.65	727.91
381.85	660.03
382.04	650.67
382.24	695.14
382.43	678.76
382.63	695.14
382.83	676.41
383.02	690.46
383.22	758.33
383.41	681.10
383.61	730.25
383.80	800.46
384.00	727.91
384.19	702.16
384.39	692.80
384.58	805.14
384.78	690.46
384.97	751.31
385.17	816.85
385.36	795.78
385.56	812.17
385.75	842.59
385.95	744.29
386.14	870.68
386.34	767.70
386.53	786.42
386.72	767.70
386.92	844.93
387.11	821.53
387.31	917.49
387.50	837.91
387.70	858.98
387.89	753.65
388.09	849.61
388.28	823.87
388.48	809.83
388.67	894.08
388.86	788.76
389.06	866.00
389.25	929.19
389.45	894.08
389.64	849.61
389.84	903.45
390.03	999.41
390.22	950.26
390.42	1027.50
390.61	891.74
390.81	1004.09
391.00	1034.52
391.19	1027.50
391.39	983.02
391.58	978.34
391.78	1041.54
391.97	1022.81
392.16	1076.65
392.36	1111.75
392.55	943.24
392.75	978.34
392.94	1015.79
393.13	973.66
393.33	999.41
393.52	1032.18
393.71	992.39
393.91	1100.05
394.10	1071.97
394.29	1050.90
394.49	1107.07
394.68	1158.57
394.88	1163.25
395.07	1191.33
395.26	1165.59
395.46	1186.65
395.65	1254.53
395.84	1142.18
396.04	1198.35
396.23	1207.72
396.42	1132.82
396.62	1174.95
396.81	1247.51
397.00	1224.10
397.19	1203.04
397.39	1193.67
397.58	1247.51
397.77	1310.70
397.97	1331.76
398.16	1355.17
398.35	1245.16
398.55	1310.70
398.74	1364.53
398.93	1378.58
399.12	1430.07
399.32	1355.17
399.51	1315.38
399.70	1483.90
399.90	1441.77
400.09	1453.47
400.28	1483.90
400.47	1514.33
400.67	1451.13
400.86	1446.45
401.05	1563.48
401.24	1537.73
401.44	1497.94
401.63	1624.33
401.82	1509.65
402.01	1535.39
402.21	1577.52
402.40	1540.07
402.59	1624.33
402.78	1614.97
402.97	1746.04
403.17	1701.57
403.36	1643.06
403.55	1743.70
403.74	1654.76
403.93	1767.10
404.13	1624.33
404.32	1565.82
404.51	1678.16
404.70	1769.44
404.89	1694.55
405.09	1802.21
405.28	1816.26
405.47	1769.44
405.66	1853.70
405.85	1893.49
406.05	1874.77
406.24	1923.92
406.43	1940.30
406.62	1856.04
406.81	2076.06
407.00	1919.24
407.20	1902.86
407.39	1839.66
407.58	2008.18
407.77	2003.50
407.96	1980.09
408.15	2106.48
408.34	2071.37
408.54	2069.03
408.73	2036.27
408.92	2085.42
409.11	2179.04
409.30	2190.74
409.49	2078.40
409.68	2017.54
409.87	2193.08
410.07	2225.85
410.26	2218.83
410.45	2202.44
410.64	2235.21
410.83	2401.39
411.02	2373.30
411.21	2382.67
411.40	2403.73
411.59	2516.08
411.78	2354.58
411.98	2420.11
412.17	2387.35
412.36	2431.82
412.55	2455.22
412.74	2509.05
412.93	2525.44
413.12	2483.31
413.31	2595.65
413.50	2530.12
413.69	2576.93
413.88	2665.87
414.07	2609.70
414.26	2764.17
414.45	2654.17
414.64	2881.20
414.83	2841.41
415.02	2806.30
415.22	2832.05
415.41	2759.49
415.60	2902.26
415.79	2953.76
415.98	2991.20
416.17	2939.71
416.36	3007.59
416.55	2953.76
416.74	2988.86
416.93	3009.93
417.12	3148.02
417.31	3021.63
417.50	3183.13
417.69	3194.83
417.88	3283.77
418.07	3255.69
418.26	3295.47
418.45	3251.00
418.64	3344.63
418.83	3307.18
419.02	3293.13
419.21	3393.78
419.39	3279.09
419.58	3332.92
419.77	3309.52
419.96	3272.07
420.15	3447.61
420.34	3419.52
420.53	3499.10
420.72	3503.78
420.91	3585.70
421.10	3623.15
421.29	3655.92
421.48	3475.70
421.67	3700.39
421.86	3517.83
422.05	3583.36
422.24	3515.48
422.43	3531.87
422.61	3562.30
422.80	3574.00
422.99	3599.74
423.18	3660.60
423.37	3679.32
423.56	3618.47
423.75	3618.47
423.94	3578.68
424.13	3330.58
424.32	3529.53
424.50	3761.24
424.69	3744.86
424.88	3798.69
425.07	3674.64
425.26	3770.60
425.45	3740.18
425.64	3705.07
425.83	3801.03
426.01	3693.37
426.20	3765.92
426.39	3702.73
426.58	3735.50
426.77	3784.65
426.96	3733.15
427.15	3646.55
427.33	3817.41
427.52	3845.50
427.71	3901.67
427.90	3845.50
428.09	4007.00
428.28	3868.91
428.46	3995.29
428.65	3833.80
428.84	4002.32
429.03	4250.41
429.22	3861.88
429.40	3861.88
429.59	3941.46
429.78	3700.39
429.97	3679.32
430.16	3744.86
430.34	3840.82
430.53	4105.30
430.72	4105.30
430.91	3997.64
431.10	4114.66
431.28	4297.22
431.47	4379.14
431.66	4362.76
431.85	4212.96
432.03	4280.84
432.22	4374.46
432.41	4299.56
432.60	4308.93
432.79	4191.90
432.97	4479.79
433.16	4407.23
433.35	4454.04
433.54	4407.23
433.72	4435.32
433.91	4400.21
434.10	4418.93
434.28	4500.85
434.47	4486.81
434.66	4702.14
434.85	4552.34
435.03	4615.54
435.22	4559.36
435.41	4671.71
435.59	4767.67
435.78	4688.09
435.97	4786.40
436.16	4887.04
436.34	4833.21
436.53	4786.40
436.72	4856.61
436.90	4781.71
437.09	4931.51
437.28	4798.10
437.46	4873.00
437.65	4823.84
437.84	4868.31
438.02	4823.84
438.21	4709.16
438.40	4847.25
438.58	5022.79
438.77	5078.96
438.96	5015.77
439.14	5198.33
439.33	5287.27
439.52	5195.99
439.70	5273.23
439.89	5259.18
440.08	5350.46
440.26	5406.64
440.45	5298.97
440.63	5533.03
440.82	5483.88
441.01	5504.94
441.19	5497.92
441.38	5724.95
441.57	5731.97
441.75	5846.66
441.94	6017.52
442.12	5858.36
442.31	5968.37
442.50	5863.04
442.68	5806.87
442.87	5912.19
443.05	5984.75
443.24	6073.69
443.43	5933.26
443.61	6001.13
443.80	6417.75
443.98	6022.20
444.17	5837.30
444.35	6029.22
444.54	6237.53
444.73	6054.97
444.91	6045.60
445.10	6258.59
445.28	5987.09
445.47	6047.94
445.65	5870.06
445.84	6108.80
446.02	6207.10
446.21	6122.84
446.39	6171.99
446.58	6253.91
446.77	6279.66
446.95	6057.31
447.14	6218.80
447.32	6270.30
447.51	6244.55
447.69	6202.42
447.88	6216.46
448.06	6181.35
448.25	6200.08
448.43	6286.68
448.62	6228.17
448.80	6239.87
448.99	6312.42
449.17	6424.77
449.36	6394.34
449.54	6361.58
449.73	6682.23
449.91	6523.07
450.10	6768.83
450.28	6782.87
450.46	6668.19
450.65	6621.38
450.83	6754.79
451.02	6686.91
451.20	6754.79
451.39	6684.57
451.57	6850.75
451.76	6602.65
451.94	6733.72
452.13	6848.41
452.31	6942.03
452.49	6663.51
452.68	6836.70
452.86	6651.80
453.05	6733.72
453.23	6897.56
453.42	6757.13
453.60	6834.36
453.78	7028.63
453.97	6897.56
454.15	6850.75
454.34	6930.33
454.52	7138.63
454.70	6902.24
454.89	7185.44
455.07	7192.47
455.26	7033.31
455.44	7372.69
455.62	7213.53
455.81	7190.13
455.99	7206.51
456.17	7435.88
456.36	7391.41
456.54	7398.43
456.73	7370.35
456.91	7545.89
457.09	7548.23
457.28	7637.17
457.46	7510.78
457.64	7660.57
457.83	7618.44
458.01	7421.84
458.19	7763.56
458.38	7756.54
458.56	7796.32
458.74	7707.38
458.93	7920.37
459.11	7784.62
459.29	7625.47
459.48	7775.26
459.66	7845.48
459.84	7737.81
460.03	7976.55
460.21	7899.31
460.39	8018.68
460.57	8065.49
460.76	7941.44
460.94	8098.25
461.12	8145.06
461.31	8102.93
461.49	8126.34
461.67	8074.85
461.85	8388.48
462.04	8170.81
462.22	8580.40
462.40	8468.06
462.59	8339.33
462.77	8313.58
462.95	8517.21
463.13	8507.85
463.32	8418.91
463.50	8596.79
463.68	8575.72
463.86	8479.76
464.05	8383.80
464.23	8283.16
464.41	8376.78
464.59	8304.22
464.78	8446.99
464.96	8678.71
465.14	8407.20
465.32	8788.71
465.50	8828.50
465.69	8767.65
465.87	8739.56
466.05	8659.98
466.23	8620.19
466.41	8802.75
466.60	8915.10
466.78	8755.94
466.96	8753.60
467.14	8800.41
467.32	8758.28
467.51	8905.74
467.69	8549.98
467.87	8819.14
468.05	8922.12
468.23	8723.18
468.41	8863.61
468.60	9011.06
468.78	9100.00
468.96	8842.54
469.14	9095.32
469.32	9252.14
469.50	9053.19
469.69	9027.45
469.87	9104.68
470.05	9401.93
470.23	9268.52
470.41	9163.20
470.59	9455.76
470.77	9165.54
470.95	9371.50
471.14	9687.48
471.32	9291.93
471.50	9753.01
471.68	9696.84
471.86	9764.72
472.04	9680.46
472.22	9753.01
472.40	9628.96
472.58	9839.61
472.77	9956.64
472.95	9694.50
473.13	10338.15
473.31	9753.01
473.49	9954.30
473.67	9713.22
473.85	9909.83
474.03	10373.25
474.21	10223.46
474.39	10600.29
474.57	10382.62
474.75	10211.76
474.93	10375.59
475.12	10665.82
475.30	10420.06
475.48	10663.48
475.66	10544.11
475.84	10658.80
476.02	10441.13
476.20	10714.97
476.38	10902.22
476.56	11262.66
476.74	11007.54
476.92	11061.37
477.10	11110.52
477.28	11225.21
477.46	11239.25
477.64	11344.58
477.82	11470.97
478.00	11599.70
478.18	11941.41
478.36	11925.03
478.54	11974.18
478.72	12009.29
478.90	12351.01
479.08	12306.54
479.26	12559.31
479.44	12585.06
479.62	12849.54
479.80	12622.51
479.98	12681.02
480.16	12999.34
480.34	12767.62
480.52	12578.04
480.70	13020.40
480.88	12652.94
481.06	12999.34
481.24	13139.77
481.41	13429.99
481.59	13434.68
481.77	13586.81
481.95	13685.11
482.13	13699.16
482.31	13741.29
482.49	14050.24
482.67	14263.22
482.85	14239.82
483.03	14300.67
483.21	14436.42
483.39	14513.66
483.57	14506.64
483.74	14803.89
483.92	14787.50
484.10	14567.49
484.28	15026.24
484.46	15286.04
484.64	15335.19
484.82	15166.67
485.00	15311.78
485.18	15489.67
485.35	15492.01
485.53	15602.01
485.71	15480.30
485.89	16016.29
486.07	15435.83
486.25	15985.86
486.43	15758.83
486.61	16348.64
486.78	16500.78
486.96	16828.45
487.14	16716.11
487.32	16697.38
487.50	17078.89
487.68	17118.68
487.85	17418.27
488.03	17350.39
488.21	17523.59
488.39	17664.02
488.57	17689.77
488.75	17671.04
488.92	18218.73
489.10	18256.18
489.28	18108.72
489.46	18614.28
489.64	18347.46
489.81	18993.45
489.99	19218.14
490.17	19075.37
490.35	19056.64
490.53	19023.87
490.70	19559.86
490.88	19386.66
491.06	19814.98
491.24	19756.46
491.41	19440.49
491.59	19765.82
491.77	19838.38
491.95	20166.06
492.13	20203.50
492.30	20489.05
492.48	20844.81
492.66	20807.36
492.84	20573.31
493.01	20760.55
493.19	20961.84
493.37	21245.04
493.54	21223.98
493.72	21378.45
493.90	21448.67
494.08	21563.36
494.25	21778.68
494.43	22298.28
494.61	22286.58
494.79	22340.41
494.96	22127.42
495.14	22120.40
495.32	22640.00
495.49	22611.92
495.67	22719.58
495.85	22967.68
496.02	23000.44
496.20	22995.76
496.38	23009.81
496.55	23140.88
496.73	23641.75
496.91	23496.64
497.09	23473.23
497.26	23737.71
497.44	24053.69
497.62	23922.62
497.79	24236.25
497.97	24056.03
498.14	24484.34
498.32	24474.98
498.50	24308.80
498.67	24577.97
498.85	24666.91
499.03	25163.10
499.20	25181.82
499.38	24900.96
499.56	25558.65
499.73	25062.46
499.91	25575.03
500.08	25317.57
500.26	25247.36
500.44	25366.73
500.61	25795.04
500.79	25497.80
500.97	25593.76
501.14	25930.80
501.32	26398.90
501.49	25909.73
501.67	26061.87
501.84	26314.64
502.02	26216.34
502.20	26649.34
502.37	26824.88
502.55	26590.83
502.72	26588.49
502.90	26588.49
503.07	26639.98
503.25	26771.05
503.43	26560.40
503.60	27199.37
503.78	26941.91
503.95	27040.21
504.13	27463.85
504.30	27564.49
504.48	27449.80
504.65	27459.16
504.83	27847.69
505.01	27679.18
505.18	27419.38
505.36	28226.86
505.53	27747.05
505.71	28215.16
505.88	28292.40
506.06	28177.71
506.23	28664.54
506.41	28058.34
506.58	28285.37
506.76	28315.80
506.93	28666.88
507.11	28512.41
507.28	29069.45
507.46	28940.72
507.63	28718.37
507.81	29177.12
507.98	28907.96
508.16	28847.10
508.33	29036.69
508.50	29785.66
508.68	29825.45
508.85	29624.16
509.03	29565.65
509.20	29682.67
509.38	29832.47
509.55	29949.50
509.73	30146.10
509.90	30251.42
510.08	30125.04
510.25	30415.26
510.42	30195.25
510.60	30532.29
510.77	30314.62
510.95	30555.69
511.12	30593.14
511.30	30490.16
511.47	30923.16
511.64	31082.31
511.82	31091.68
511.99	31133.81
512.17	31175.94
512.34	31105.72
512.51	31257.85
512.69	31267.22
512.86	31417.01
513.04	31634.68
513.21	31409.99
513.38	30895.07
513.56	31040.18
513.73	31854.69
513.90	31814.90
514.08	31740.00
514.25	32158.96
514.43	32044.27
514.60	32212.79
514.77	32215.13
514.95	32254.92
515.12	32093.43
515.29	32589.62
515.47	32797.93
515.64	32680.90
515.81	32446.85
515.99	32706.65
516.16	32477.27
516.33	32283.01
516.51	32875.16
516.68	32376.63
516.85	32294.71
517.03	32561.53
517.20	32863.46
517.37	33233.27
517.54	33053.05
517.72	33181.77
517.89	33029.64
518.06	32947.72
518.24	33336.25
518.41	33310.50
518.58	33048.36
518.75	33441.57
518.93	33844.15
519.10	34015.01
519.27	33811.38
519.45	33715.42
519.62	34218.63
519.79	33949.47
519.96	34183.52
520.14	34321.62
520.31	33486.04
520.48	34223.31
520.65	33984.58
520.83	34829.51
521.00	34588.44
521.17	34452.69
521.34	34799.08
521.52	34881.00
521.69	35030.80
521.86	34632.91
522.03	35168.89
522.20	35332.73
522.38	35391.24
522.55	35526.99
522.72	35381.88
522.89	35077.61
523.07	35697.85
523.24	35058.88
523.41	35700.19
523.58	35367.84
523.75	36170.64
523.92	35725.94
524.10	36034.89
524.27	35985.74
524.44	35667.42
524.61	35751.68
524.78	36430.44
524.96	36285.33
525.13	36376.61
525.30	36643.43
525.47	36666.83
525.64	36987.49
525.81	36409.37
525.98	36191.70
526.16	36172.98
526.33	36498.31
526.50	35934.24
526.67	36613.00
526.84	36165.96
527.01	36407.03
527.18	36708.96
527.36	37242.60
527.53	37352.61
527.70	37106.85
527.87	37514.11
528.04	36924.29
528.21	37212.18
528.38	37476.66
528.55	37479.00
528.72	37127.92
528.89	37553.90
529.07	37591.34
529.24	37542.19
529.41	37474.32
529.58	37617.09
529.75	37401.76
529.92	37848.80
530.09	37640.50
530.26	37745.82
530.43	38239.67
530.60	37897.95
530.77	38195.20
530.94	38153.07
531.11	37825.40
531.28	38258.40
531.46	38052.43
531.63	38024.34
531.80	38237.33
531.97	38117.96
532.14	38176.48
532.31	38260.74
532.48	38249.03
532.65	38689.06
532.82	38370.74
532.99	38827.15
533.16	38237.33
533.33	38806.08
533.50	38630.54
533.67	38904.38
533.84	38382.45
534.01	38817.78
534.18	38618.84
534.35	39182.91
534.52	38665.65
534.69	38834.17
534.86	39028.43
535.03	39122.05
535.20	39613.57
535.37	39402.92
535.54	39826.56
535.71	39328.02
535.88	39299.94
536.05	39552.71
536.22	39864.00
536.38	39339.72
536.55	39440.37
536.72	39971.67
536.89	39606.55
537.06	39604.20
537.23	39730.59
537.40	39786.77
537.57	39538.67
537.74	39826.56
537.91	39908.47
538.08	40390.62
538.25	39686.12
538.42	40011.46
538.59	40563.82
538.75	39749.32
538.92	39859.32
539.09	40231.47
539.26	40814.26
539.43	39784.43
539.60	40135.51
539.77	40137.85
539.94	40163.59
540.11	40212.74
540.28	40273.60
540.44	40479.57
540.61	40154.23
540.78	40514.67
540.95	40657.45
541.12	40741.71
541.29	40076.99
541.46	40362.54
541.62	40528.72
541.79	40807.24
541.96	40423.39
542.13	40856.39
542.30	41205.13
542.47	40992.14
542.63	40849.37
542.80	41408.76
542.97	41139.60
543.14	41743.45
543.31	41155.98
543.48	41490.68
543.64	42019.64
543.81	41631.11
543.98	41532.81
544.15	41921.34
544.32	41769.20
544.48	41820.69
544.65	41790.27
544.82	41682.60
544.99	41703.67
545.16	42021.98
545.32	41715.37
545.49	42190.50
545.66	42377.74
545.83	42438.59
546.00	41773.88
546.16	41977.51
546.33	41989.21
546.50	41642.81
546.67	42110.92
546.83	41825.37
547.00	42396.46
547.17	42066.45
547.34	42014.96
547.50	42305.18
547.67	42241.99
547.84	42213.90
548.00	42703.07
548.17	42574.34
548.34	42660.94
548.51	42604.77
548.67	42698.39
548.84	42841.17
549.01	42483.06
549.18	42462.00
549.34	42831.80
549.51	42880.95
549.68	42925.42
549.84	42696.05
550.01	43126.71
550.18	42773.29
550.34	43063.52
550.51	42504.13
550.68	43110.33
550.84	42564.98
551.01	43306.93
551.18	42422.21
551.34	43077.56
551.51	42813.08
551.68	43175.86
551.84	43423.96
552.01	42796.70
552.18	43168.84
552.34	42979.26
552.51	43122.03
552.68	43180.54
552.84	43751.63
553.01	43515.24
553.18	43742.27
553.34	43391.19
553.51	42869.25
553.67	43260.12
553.84	43896.75
554.01	43763.34
554.17	43885.04
554.34	43924.83
554.51	43533.96
554.67	44411.67
554.84	43463.75
555.00	43412.26
555.17	43753.97
555.33	44020.80
555.50	43894.41
555.67	43934.20
555.83	43931.86
556.00	43931.86
556.16	43999.73
556.33	44128.46
556.50	44051.22
556.66	44212.72
556.83	43508.22
556.99	44191.65
557.16	44177.61
557.32	44091.01
557.49	44348.47
557.65	43842.92
557.82	44226.76
557.98	43688.44
558.15	43772.70
558.32	44069.95
558.48	44378.90
558.65	44428.05
558.81	44034.84
558.98	44341.45
559.14	44243.15
559.31	43969.30
559.47	44624.65
559.64	44116.76
559.80	44561.46
559.97	44509.97
560.13	44346.13
560.30	44421.03
560.46	44573.16
560.63	44575.50
560.79	44538.05
560.96	44851.69
561.12	44619.97
561.29	44296.98
561.45	44657.42
561.61	44168.25
561.78	44531.03
561.94	44208.04
562.11	44512.31
562.27	44580.18
562.44	44451.45
562.60	44350.81
562.77	45216.81
562.93	44762.75
563.10	44598.91
563.26	44481.88
563.42	44971.05
563.59	44381.24
563.75	44809.56
563.92	44837.64
564.08	44921.90
564.24	44889.13
564.41	45078.72
564.57	44942.97
564.74	44549.76
564.90	44886.79
565.07	45069.36
565.23	45020.20
565.39	44821.26
565.56	44994.46
565.72	44809.56
565.88	44928.92
566.05	44751.04
566.21	45001.48
566.38	44470.18
566.54	44273.57
566.70	44957.01
566.87	45357.24
567.03	45268.30
567.19	45626.40
567.36	45013.18
567.52	45001.48
567.68	45052.97
567.85	44741.68
568.01	45378.31
568.17	45275.32
568.34	45041.27
568.50	45640.45
568.66	44648.06
568.83	44889.13
568.99	45104.46
569.15	45116.17
569.32	44928.92
569.48	44790.83
569.64	45354.90
569.81	44776.79
569.97	45184.04
570.13	45301.07
570.30	44905.52
570.46	44980.42
570.62	45118.51
570.78	45120.85
570.95	45216.81
571.11	45106.80
571.27	45265.96
571.43	45160.64
571.60	45184.04
571.76	45111.49
571.92	44921.90
572.09	45167.66
572.25	45233.19
572.41	44975.73
572.57	45130.21
572.74	45645.13
572.90	45399.37
573.06	45104.46
573.22	45090.42
573.38	45366.60
573.55	44945.31
573.71	45450.86
573.87	45223.83
574.03	45352.56
574.20	45265.96
574.36	45244.90
574.52	45422.78
574.68	45497.67
574.84	45343.20
575.01	45312.77
575.17	45127.87
575.33	45287.03
575.49	45216.81
575.65	45684.92
575.82	45633.42
575.98	45296.39
576.14	45226.17
576.30	45134.89
576.46	45270.64
576.62	45399.37
576.79	45315.11
576.95	45305.75
577.11	45577.25
577.27	45368.94
577.43	45439.16
577.59	45214.47
577.75	45099.78
577.92	45294.05
578.08	45504.70
578.24	45132.55
578.40	45549.17
578.56	45022.54
578.72	45315.11
578.88	45516.40
579.04	45729.39
579.21	45467.25
579.37	45205.11
579.53	45460.23
579.69	45134.89
579.85	45425.12
580.01	45509.38
580.17	45418.10
580.33	45235.53
580.49	45853.44
580.65	45375.97
580.82	45462.57
580.98	45757.47
581.14	44947.65
581.30	45734.07
581.46	45265.96
581.62	45436.82
581.78	45249.58
581.94	45471.93
582.10	45635.77
582.26	46103.87
582.42	45270.64
582.58	45336.18
582.74	45284.68
582.90	45457.88
583.06	45928.33
583.22	45624.06
583.38	45855.78
583.54	45216.81
583.70	45378.31
583.86	45233.19
584.02	45443.84
584.18	45368.94
584.34	45497.67
584.50	45413.41
584.66	45544.48
584.82	45247.24
584.98	45633.42
585.14	45633.42
585.30	45132.55
585.46	45497.67
585.62	45151.27
585.78	45331.50
585.94	45411.07
586.10	44961.69
586.26	45329.16
586.42	45736.41
586.58	45584.27
586.74	45394.69
586.90	45104.46
587.06	45558.53
587.22	45464.91
587.38	44865.73
587.54	46019.61
587.70	45820.67
587.86	45656.83
588.02	45607.68
588.18	45574.91
588.34	45441.50
588.49	45188.72
588.65	45193.40
588.81	44971.05
588.97	44634.02
589.13	45394.69
589.29	45441.50
589.45	45347.88
589.61	45724.71
589.77	45893.22
589.93	45675.55
590.08	45888.54
