SpectraSuite Data File
++++++++++++++++++++++++++++++++++++
Date: Fri Oct 25 11:22:42 EDT 2013
User: price-jones
Dark Spectrum Present: No
Reference Spectrum Present: No
Number of Sampled Component Spectra: 1
Spectrometers: USB2+H05261
Integration Time (usec): 100000 (USB2+H05261)
Spectra Averaged: 1 (USB2+H05261)
Boxcar Smoothing: 0 (USB2+H05261)
Correct for Electrical Dark: No (USB2+H05261)
Strobe/Lamp Enabled: No (USB2+H05261)
Correct for Detector Non-linearity: No (USB2+H05261)
Correct for Stray Light: No (USB2+H05261)
Number of Pixels in Processed Spectrum: 2048
>>>>>Begin Processed Spectral Data<<<<<
365.73	212.99
365.92	212.99
366.12	212.99
366.32	128.73
366.52	98.30
366.72	91.28
366.91	65.54
367.11	126.39
367.31	138.09
367.51	128.73
367.70	128.73
367.90	156.82
368.10	156.82
368.30	70.22
368.49	95.96
368.69	72.56
368.89	133.41
369.09	166.18
369.28	196.60
369.48	86.60
369.68	166.18
369.87	234.05
370.07	238.73
370.27	184.90
370.47	332.36
370.66	589.82
370.86	655.35
371.06	578.11
371.25	662.37
371.45	622.58
371.65	638.97
371.84	758.33
372.04	615.56
372.24	697.48
372.44	697.48
372.63	704.50
372.83	739.61
373.03	725.57
373.22	713.86
373.42	720.88
373.62	809.83
373.81	793.44
374.01	795.78
374.21	777.06
374.40	861.32
374.60	786.42
374.79	795.78
374.99	786.42
375.19	854.30
375.38	812.17
375.58	889.40
375.78	809.83
375.97	896.43
376.17	901.11
376.37	936.21
376.56	898.77
376.76	844.93
376.95	898.77
377.15	894.08
377.35	873.02
377.54	919.83
377.74	877.70
377.93	947.92
378.13	926.85
378.33	924.51
378.52	983.02
378.72	945.58
378.91	971.32
379.11	894.08
379.31	936.21
379.50	997.07
379.70	990.05
379.89	943.24
380.09	891.74
380.28	985.37
380.48	997.07
380.68	971.32
380.87	987.71
381.07	940.90
381.26	1025.15
381.46	1022.81
381.65	1008.77
381.85	985.37
382.04	1114.10
382.24	971.32
382.43	1039.20
382.63	1149.20
382.83	1170.27
383.02	1025.15
383.22	1088.35
383.41	1090.69
383.61	1179.63
383.80	1151.54
384.00	1151.54
384.19	1144.52
384.39	1167.93
384.58	1104.73
384.78	1146.86
384.97	1196.01
385.17	1177.29
385.36	1130.48
385.56	1212.40
385.75	1153.88
385.95	1139.84
386.14	1263.89
386.34	1245.16
386.53	1027.50
386.72	1142.18
386.92	1235.80
387.11	1165.59
387.31	1235.80
387.50	1254.53
387.70	1088.35
387.89	1282.61
388.09	1256.87
388.28	1327.08
388.48	1212.40
388.67	1249.85
388.86	1315.38
389.06	1254.53
389.25	1256.87
389.45	1327.08
389.64	1320.06
389.84	1406.66
390.03	1301.34
390.22	1369.21
390.42	1334.11
390.61	1296.66
390.81	1444.11
391.00	1345.81
391.19	1446.45
391.39	1404.32
391.58	1526.03
391.78	1479.22
391.97	1591.56
392.16	1439.43
392.36	1528.37
392.55	1540.07
392.75	1486.24
392.94	1549.43
393.13	1535.39
393.33	1516.67
393.52	1558.80
393.71	1598.59
393.91	1607.95
394.10	1521.35
394.29	1621.99
394.49	1533.05
394.68	1593.90
394.88	1509.65
395.07	1624.33
395.26	1577.52
395.46	1671.14
395.65	1753.06
395.84	1666.46
396.04	1715.61
396.23	1701.57
396.42	1678.16
396.62	1732.00
396.81	1781.15
397.00	1767.10
397.19	1781.15
397.39	1816.26
397.58	1849.02
397.77	1781.15
397.97	1888.81
398.16	1746.04
398.35	1949.67
398.55	1816.26
398.74	1975.41
398.93	1970.73
399.12	1926.26
399.32	1860.73
399.51	1856.04
399.70	1966.05
399.90	1977.75
400.09	2129.89
400.28	2099.46
400.47	2033.93
400.67	2129.89
400.86	2008.18
401.05	2085.42
401.24	2054.99
401.44	2087.76
401.63	2108.82
401.82	2141.59
402.01	2092.44
402.21	2174.36
402.40	2200.10
402.59	2193.08
402.78	2324.15
402.97	2300.75
403.17	2298.41
403.36	2251.60
403.55	2314.79
403.74	2321.81
403.93	2282.02
404.13	2438.84
404.32	2368.62
404.51	2331.17
404.70	2375.64
404.89	2385.01
405.09	2455.22
405.28	2569.91
405.47	2452.88
405.66	2361.60
405.85	2495.01
406.05	2576.93
406.24	2572.25
406.43	2555.86
406.62	2644.81
406.81	2803.96
407.00	2670.55
407.20	2593.31
407.39	2712.68
407.58	2724.38
407.77	2757.15
407.96	2703.32
408.15	2780.56
408.34	2799.28
408.54	2782.90
408.73	2874.18
408.92	2890.56
409.11	2949.08
409.30	2928.01
409.49	2974.82
409.68	2836.73
409.87	2963.12
410.07	3040.36
410.26	3028.65
410.45	3045.04
410.64	3002.91
410.83	3131.64
411.02	3038.02
411.21	3164.40
411.40	2988.86
411.59	3173.77
411.78	3143.34
411.98	3105.89
412.17	3377.39
412.36	3272.07
412.55	3447.61
412.74	3377.39
412.93	3412.50
413.12	3349.31
413.31	3599.74
413.50	3496.76
413.69	3613.79
413.88	3562.30
414.07	3578.68
414.26	3674.64
414.45	3609.11
414.64	3625.49
414.83	3723.79
415.02	3857.20
415.22	3770.60
415.41	3948.48
415.60	3838.48
415.79	3918.06
415.98	4081.89
416.17	3920.40
416.36	4065.51
416.55	4046.79
416.74	4091.26
416.93	4014.02
417.12	4145.09
417.31	4271.48
417.50	4063.17
417.69	4393.19
417.88	4402.55
418.07	4348.72
418.26	4425.95
418.45	4381.48
418.64	4550.00
418.83	4411.91
419.02	4411.91
419.21	4428.29
419.39	4379.14
419.58	4500.85
419.77	4526.60
419.96	4631.92
420.15	4606.17
420.34	4493.83
420.53	4671.71
420.72	4711.50
420.91	4741.93
421.10	4793.42
421.29	4861.29
421.48	4636.60
421.67	4711.50
421.86	4753.63
422.05	4723.20
422.24	4800.44
422.43	4905.76
422.61	4933.85
422.80	4943.21
422.99	4968.96
423.18	4968.96
423.37	4964.28
423.56	4908.10
423.75	4933.85
423.94	4835.55
424.13	4613.20
424.32	4744.27
424.50	4882.36
424.69	4994.70
424.88	5170.24
425.07	4851.93
425.26	4973.64
425.45	4915.12
425.64	4777.03
425.83	5020.45
426.01	5123.43
426.20	5071.94
426.39	5097.69
426.58	5013.43
426.77	5090.67
426.96	5088.32
427.15	5144.50
427.33	5188.97
427.52	5188.97
427.71	5287.27
427.90	5315.36
428.09	5392.59
428.28	5416.00
428.46	5331.74
428.65	5387.91
428.84	5547.07
429.03	5572.82
429.22	5324.72
429.40	5420.68
429.59	5394.93
429.78	5224.08
429.97	5341.10
430.16	5437.06
430.34	5636.01
430.53	5500.26
430.72	5549.41
430.91	5605.58
431.10	5514.30
431.28	5874.74
431.47	5785.80
431.66	5994.11
431.85	5863.04
432.03	6043.26
432.22	5923.90
432.41	5975.39
432.60	5851.34
432.79	5872.40
432.97	5834.96
433.16	6078.37
433.35	6090.07
433.54	6242.21
433.72	6136.88
433.91	6064.33
434.10	6066.67
434.28	6225.82
434.47	6106.46
434.66	6258.59
434.85	6394.34
435.03	6321.79
435.22	6270.30
435.41	6436.47
435.59	6396.68
435.78	6525.41
435.97	6544.14
436.16	6462.22
436.34	6497.33
436.53	6581.59
436.72	6658.82
436.90	6408.39
437.09	6532.44
437.28	6494.99
437.46	6663.51
437.65	6729.04
437.84	6775.85
438.02	6841.39
438.21	6724.36
438.40	6558.18
438.58	6991.18
438.77	7073.10
438.96	7103.53
439.14	7201.83
439.33	7091.82
439.52	7208.85
439.70	7236.94
439.89	7384.39
440.08	7258.00
440.26	7506.10
440.45	7316.51
440.63	7550.57
440.82	7822.07
441.01	7297.79
441.19	7726.11
441.38	7726.11
441.57	7749.51
441.75	7693.34
441.94	8060.80
442.12	7918.03
442.31	7941.44
442.50	8109.96
442.68	7948.46
442.87	8149.75
443.05	8145.06
443.24	8454.02
443.43	8112.30
443.61	8222.30
443.80	8582.74
443.98	8189.53
444.17	7971.86
444.35	8201.24
444.54	8315.92
444.73	8327.63
444.91	8346.35
445.10	8528.91
445.28	8280.82
445.47	8322.94
445.65	8365.07
445.84	8461.04
446.02	8549.98
446.21	8463.38
446.39	8276.13
446.58	8571.04
446.77	8531.25
446.95	8372.10
447.14	8482.10
447.32	8416.57
447.51	8451.67
447.69	8512.53
447.88	8454.02
448.06	8702.11
448.25	8734.88
448.43	8489.12
448.62	8748.92
448.80	8636.58
448.99	8823.82
449.17	8746.58
449.36	8671.68
449.54	8844.88
449.73	8971.27
449.91	9071.92
450.10	9165.54
450.28	9217.03
450.46	9055.53
450.65	9125.75
450.83	9177.24
451.02	9050.85
451.20	9238.09
451.39	9156.18
451.57	9104.68
451.76	8938.51
451.94	9095.32
452.13	9467.47
452.31	9556.41
452.49	9179.58
452.68	9453.42
452.86	9465.13
453.05	9462.79
453.23	9474.49
453.42	9331.72
453.60	9500.23
453.78	9638.33
453.97	9612.58
454.15	9645.35
454.34	9341.08
454.52	9760.03
454.70	9589.17
454.89	9858.34
455.07	9666.41
455.26	9856.00
455.44	10040.90
455.62	9872.38
455.81	9811.53
455.99	10031.54
456.17	9987.07
456.36	10298.36
456.54	10331.12
456.73	10326.44
456.91	10560.50
457.09	10574.54
457.28	10621.35
457.46	10286.65
457.64	10574.54
457.83	10377.94
458.01	10497.30
458.19	10761.78
458.38	10546.45
458.56	10764.12
458.74	10806.25
458.93	10745.40
459.11	10700.93
459.29	10848.38
459.48	10897.53
459.66	10878.81
459.84	10937.32
460.03	11185.42
460.21	10904.56
460.39	11386.71
460.57	10972.43
460.76	11197.12
460.94	11485.01
461.12	11229.89
461.31	11173.72
461.49	11241.59
461.67	11131.59
461.85	11421.81
462.04	11445.22
462.22	11913.33
462.40	11620.76
462.59	11475.65
462.77	11531.82
462.95	11925.03
463.13	11660.55
463.32	11751.83
463.50	11819.71
463.68	11662.89
463.86	11744.81
464.05	11903.96
464.23	11733.11
464.41	11901.62
464.59	11976.52
464.78	12116.95
464.96	12065.46
465.14	12002.27
465.32	12325.26
465.50	12210.57
465.69	12332.28
465.87	12126.32
466.05	12182.49
466.23	12210.57
466.41	12301.86
466.60	12606.13
466.78	12386.12
466.96	12128.66
467.14	12346.33
467.32	12446.97
467.51	12545.27
467.69	12351.01
467.87	12666.98
468.05	12975.93
468.23	12585.06
468.41	12636.55
468.60	12596.76
468.78	12821.45
468.96	12463.35
469.14	12821.45
469.32	12922.10
469.50	12816.77
469.69	13277.86
469.87	13146.79
470.05	12982.95
470.23	13142.11
470.41	13107.00
470.59	13500.21
470.77	13308.29
470.95	13338.71
471.14	13666.39
471.32	13209.98
471.50	13762.35
471.68	13855.97
471.86	13797.46
472.04	13790.44
472.22	14209.39
472.40	13816.18
472.58	14040.87
472.77	14228.12
472.95	14230.46
473.13	14567.49
473.31	14200.03
473.49	14078.32
473.67	14499.62
473.85	14548.77
474.03	14647.07
474.21	14778.14
474.39	14817.93
474.57	14771.12
474.75	14916.23
474.93	15075.39
475.12	14824.95
475.30	15077.73
475.48	14944.32
475.66	15398.38
475.84	15218.16
476.02	15854.79
476.20	15307.10
476.38	15878.19
476.56	15941.39
476.74	16184.80
476.92	15733.08
477.10	15953.09
477.28	16266.72
477.46	16233.96
477.64	16606.10
477.82	16561.63
478.00	17036.76
478.18	16896.33
478.36	16936.12
478.54	17547.00
478.72	17432.31
478.90	17373.80
479.08	17940.21
479.26	17785.73
479.44	17940.21
479.62	17837.22
479.80	18005.74
479.98	18249.16
480.16	18457.46
480.34	18466.83
480.52	18693.86
480.70	18773.44
480.88	18398.95
481.06	18874.08
481.24	19056.64
481.41	19304.74
481.59	19520.07
481.77	19384.32
481.95	19772.85
482.13	19700.29
482.31	19941.36
482.49	20362.66
482.67	20187.12
482.85	20617.78
483.03	20449.26
483.21	21144.40
483.39	21266.11
483.57	20940.77
483.74	21216.96
483.92	21589.10
484.10	21284.83
484.28	21734.21
484.46	21970.61
484.64	22419.99
484.82	22010.40
485.00	22731.28
485.18	22932.57
485.35	23243.86
485.53	22904.48
485.71	23096.41
485.89	23868.78
486.07	23445.15
486.25	23571.54
486.43	23955.38
486.61	24065.39
486.78	24287.74
486.96	24297.10
487.14	24570.94
487.32	24240.93
487.50	24882.24
487.68	25158.42
487.85	25757.60
488.03	25860.58
488.21	25694.40
488.39	26209.32
488.57	26040.80
488.75	26307.62
488.92	26373.16
489.10	26700.83
489.28	26883.39
489.46	27410.01
489.64	27154.90
489.81	27550.45
489.99	27536.40
490.17	28203.46
490.35	28283.03
490.53	28205.80
490.70	28348.57
490.88	28315.80
491.06	29024.98
491.24	28844.76
491.41	29017.96
491.59	29022.64
491.77	29151.37
491.95	29455.64
492.13	30190.57
492.30	30263.13
492.48	30022.05
492.66	30405.90
492.84	30536.97
493.01	30902.09
493.19	30672.72
493.37	31159.55
493.54	31405.31
493.72	31580.85
493.90	31407.65
494.08	31831.29
494.25	32271.31
494.43	32194.07
494.61	32526.42
494.79	32814.31
494.96	32575.58
495.14	32823.67
495.32	33095.18
495.49	33261.35
495.67	33874.57
495.85	33502.43
496.02	34005.64
496.20	34125.01
496.38	34127.35
496.55	34309.91
496.73	35063.57
496.91	34639.93
497.09	35086.97
497.26	35508.27
497.44	35131.44
497.62	35199.32
497.79	35700.19
497.97	35314.00
498.14	35854.67
498.32	36004.46
498.50	36252.56
498.67	36561.51
498.85	36648.11
499.03	36992.17
499.20	36889.18
499.38	37361.97
499.56	37083.45
499.73	36776.84
499.91	37345.59
500.08	38064.13
500.26	37050.68
500.44	37614.75
500.61	38036.05
500.79	37998.60
500.97	38548.62
501.14	38522.88
501.32	38665.65
501.49	38796.72
501.67	38948.85
501.84	39187.59
502.02	39072.90
502.20	39463.77
502.37	39494.20
502.55	39606.55
502.72	39501.22
502.90	39697.83
503.07	39519.95
503.25	40306.37
503.43	39889.75
503.60	40535.74
503.78	40442.12
503.95	40751.07
504.13	40594.25
504.30	40631.70
504.48	40514.67
504.65	40877.46
504.83	41076.40
505.01	41626.43
505.18	41523.44
505.36	41862.82
505.53	41343.22
505.71	41883.89
505.88	41844.10
506.06	41762.18
506.23	42106.24
506.41	42185.82
506.58	42604.77
506.76	42064.11
506.93	42572.00
507.11	42246.67
507.28	42497.11
507.46	42848.19
507.63	43646.31
507.81	43416.94
507.98	43124.37
508.16	43328.00
508.33	43681.42
508.50	43650.99
508.68	44018.46
508.85	44252.51
509.03	43824.19
509.20	44301.66
509.38	44554.44
509.55	44556.78
509.73	44863.39
509.90	44739.34
510.08	44788.49
510.25	45069.36
510.42	44804.88
510.60	45104.46
510.77	45434.48
510.95	45530.44
511.12	45413.41
511.30	45350.22
511.47	45785.56
511.64	45984.51
511.82	46024.29
511.99	46220.90
512.17	46019.61
512.34	46143.66
512.51	46469.00
512.69	46518.15
512.86	46518.15
513.04	46946.47
513.21	46616.45
513.38	47199.24
513.56	47295.21
513.73	47009.66
513.90	47004.98
514.08	47023.70
514.25	47676.71
514.43	47445.00
514.60	47760.97
514.77	47442.66
514.95	47908.43
515.12	47760.97
515.29	47531.60
515.47	47971.62
515.64	48341.42
515.81	48032.47
515.99	48425.68
516.16	48451.43
516.33	48245.46
516.51	48933.58
516.68	48451.43
516.85	48849.32
517.03	48933.58
517.20	49078.69
517.37	49207.42
517.54	48828.26
517.72	48877.41
517.89	49277.64
518.06	49453.18
518.24	49600.63
518.41	49556.16
518.58	49359.56
518.75	49165.29
518.93	49881.50
519.10	49659.15
519.27	50000.86
519.45	50035.97
519.62	49965.76
519.79	49911.92
519.96	50260.66
520.14	50284.07
520.31	50637.49
520.48	50724.09
520.65	50597.70
520.83	50955.80
521.00	50883.25
521.17	50422.16
521.34	50864.52
521.52	51077.51
521.69	50859.84
521.86	51330.29
522.03	51213.26
522.20	51405.19
522.38	52027.77
522.55	51559.66
522.72	51454.34
522.89	51627.54
523.07	51838.18
523.24	51789.03
523.41	51686.05
523.58	51842.87
523.75	51976.28
523.92	51969.26
524.10	52081.60
524.27	52449.06
524.44	52395.23
524.61	52044.15
524.78	52224.37
524.96	52521.62
525.13	52402.25
525.30	52718.23
525.47	52725.25
525.64	52615.24
525.81	52755.68
525.98	52917.17
526.16	52526.30
526.33	52671.42
526.50	53354.85
526.67	52889.09
526.84	53050.58
527.01	52914.83
527.18	52975.69
527.36	52921.85
527.53	53020.16
527.70	53509.33
527.87	53460.18
528.04	53422.73
528.21	53937.65
528.38	53361.87
528.55	53602.95
528.72	53499.97
528.89	53586.57
529.07	53598.27
529.24	53532.73
529.41	54237.23
529.58	53727.00
529.75	53584.22
529.92	53804.24
530.09	53965.73
530.26	54066.38
530.43	54513.42
530.60	54085.10
530.77	53883.81
530.94	54288.73
531.11	54171.70
531.28	54232.55
531.46	54403.41
531.63	54300.43
531.80	54602.36
531.97	54520.44
532.14	54841.09
532.31	54515.76
532.48	54855.14
532.65	54508.74
532.82	54548.53
532.99	54670.23
533.16	54728.75
533.33	54831.73
533.50	55011.95
533.67	54969.82
533.84	54770.88
534.01	55091.53
534.18	55318.56
534.35	55498.78
534.52	55220.26
534.69	55405.16
534.86	55690.71
535.03	55220.26
535.20	55248.35
535.37	55391.12
535.54	55657.94
535.71	55545.59
535.88	55461.33
536.05	55643.90
536.22	55728.16
536.38	55676.66
536.55	55828.80
536.72	55671.98
536.89	55934.12
537.06	55679.00
537.23	55913.06
537.40	55777.31
537.57	55910.72
537.74	55899.01
537.91	55985.61
538.08	55906.04
538.25	55842.84
538.42	56179.88
538.59	56308.61
538.75	56048.81
538.92	56226.69
539.09	56423.29
539.26	56189.24
539.43	56425.64
539.60	56289.88
539.77	56341.38
539.94	56720.54
540.11	56591.81
540.28	56704.16
540.44	56442.02
540.61	56449.04
540.78	56516.92
540.95	56781.40
541.12	56561.39
541.29	56868.00
541.46	56629.26
541.62	56650.33
541.79	56767.35
541.96	56404.57
542.13	56870.34
542.30	56851.61
542.47	57015.45
542.63	56956.94
542.80	56956.94
542.97	57167.58
543.14	57406.32
543.31	57219.08
543.48	57186.31
543.64	57518.67
543.81	57518.67
543.98	57165.24
544.15	57457.81
544.32	57607.61
544.48	57783.15
544.65	57425.04
544.82	57553.77
544.99	57556.11
545.16	57724.63
545.32	57530.37
545.49	57888.47
545.66	58082.73
545.83	57675.48
546.00	57893.15
546.16	57855.70
546.33	57560.79
546.50	57745.70
546.67	57951.66
546.83	57556.11
547.00	57841.66
547.17	57815.91
547.34	57865.06
547.50	57970.39
547.67	58052.31
547.84	58054.65
548.00	58232.53
548.17	58286.36
548.34	58066.35
548.51	58585.95
548.67	58166.99
548.84	58307.43
549.01	58174.02
549.18	58279.34
549.34	58106.14
549.51	58457.22
549.68	58422.11
549.84	58578.93
550.01	58440.84
550.18	58401.05
550.34	58695.95
550.51	58693.61
550.68	58532.12
550.84	58536.80
551.01	58656.17
551.18	58379.98
551.34	58588.29
551.51	59002.56
551.68	58625.74
551.84	58791.92
552.01	58562.54
552.18	58798.94
552.34	58644.46
552.51	58759.15
552.68	58894.90
552.84	58700.64
553.01	59077.46
553.18	58883.20
553.34	59037.67
553.51	58878.52
553.67	58820.00
553.84	59009.59
554.01	59040.01
554.17	59164.06
554.34	59159.38
554.51	59189.81
554.67	59470.67
554.84	59117.25
555.00	58969.80
555.17	59093.85
555.33	59344.28
555.50	58983.84
555.67	59105.55
555.83	59245.98
556.00	59344.28
556.16	59564.29
556.33	59468.33
556.50	59463.65
556.66	59763.24
556.83	59103.21
556.99	59774.94
557.16	59550.25
557.32	59629.83
557.49	59927.08
557.65	59554.93
557.82	59618.13
557.98	59678.98
558.15	59468.33
558.32	59774.94
558.48	59444.93
558.65	59564.29
558.81	59667.28
558.98	59646.21
559.14	59798.35
559.31	59578.34
559.47	59849.84
559.64	59896.65
559.80	59929.42
559.97	59856.86
560.13	59601.74
560.30	59891.97
560.46	60144.75
560.63	59990.27
560.79	60034.74
560.96	59971.55
561.12	59992.61
561.29	59976.23
561.45	60016.02
561.61	60147.09
561.78	59840.48
561.94	60067.51
562.11	59891.97
562.27	59821.75
562.44	60191.56
562.60	60097.94
562.77	60142.41
562.93	60083.89
563.10	60165.81
563.26	59915.37
563.42	60441.99
563.59	60168.15
563.75	60165.81
563.92	60353.05
564.08	60172.83
564.24	60390.50
564.41	60137.72
564.57	60261.77
564.74	60425.61
564.90	60245.39
565.07	60261.77
565.23	60196.24
565.39	60226.66
565.56	60566.04
565.72	60186.88
565.88	60292.20
566.05	60357.74
566.21	60261.77
566.38	60509.87
566.54	60488.80
566.70	60559.02
566.87	60463.06
567.03	60161.13
567.19	60544.98
567.36	60453.70
567.52	60336.67
567.68	60622.22
567.85	60416.25
568.01	60514.55
568.17	60477.10
568.34	60420.93
568.50	60542.64
568.66	60376.46
568.83	60500.51
568.99	60458.38
569.15	60544.98
569.32	60474.76
569.48	60472.42
569.64	60755.63
569.81	60617.53
569.97	60406.89
570.13	60596.47
570.30	60533.28
570.46	60722.86
570.62	60629.24
570.78	60713.50
570.95	60638.60
571.11	60823.50
571.27	60650.30
571.43	60647.96
571.60	60837.54
571.76	60804.78
571.92	60816.48
572.09	60837.54
572.25	60786.05
572.41	60711.16
572.57	60816.48
572.74	60830.52
572.90	60959.25
573.06	60867.97
573.22	60786.05
573.38	61015.43
573.55	60900.74
573.71	60884.36
573.87	60739.24
574.03	60657.32
574.20	60654.98
574.36	60683.07
574.52	60816.48
574.68	60823.50
574.84	61034.15
575.01	60940.53
575.17	60898.40
575.33	60928.83
575.49	60790.73
575.65	61066.92
575.82	61064.58
575.98	60973.30
576.14	61041.17
576.30	61076.28
576.46	60942.87
576.62	60786.05
576.79	60781.37
576.95	60722.86
577.11	60884.36
577.27	61057.56
577.43	60912.44
577.59	60811.80
577.75	60912.44
577.92	60699.45
578.08	60844.57
578.24	60767.33
578.40	61167.56
578.56	61137.13
578.72	60954.57
578.88	60985.00
579.04	61029.47
579.21	60999.04
579.37	61123.09
579.53	61050.53
579.69	60994.36
579.85	60786.05
580.01	61055.21
580.17	60844.57
580.33	61017.77
580.49	61087.98
580.65	61123.09
580.82	60947.55
580.98	60999.04
581.14	60835.20
581.30	60975.64
581.46	61120.75
581.62	61036.49
581.78	61099.68
581.94	61038.83
582.10	61055.21
582.26	61076.28
582.42	60999.04
582.58	61212.03
582.74	61244.80
582.90	61188.63
583.06	61223.73
583.22	60963.93
583.38	61186.28
583.54	61071.60
583.70	61141.81
583.86	61324.38
584.02	60919.46
584.18	61289.27
584.34	60963.93
584.50	61127.77
584.66	61151.18
584.82	60863.29
584.98	61221.39
585.14	61418.00
585.30	60989.68
585.46	61148.84
585.62	61340.76
585.78	61418.00
585.94	60793.07
586.10	61230.75
586.26	61099.68
586.42	61425.02
586.58	61151.18
586.74	61162.88
586.90	61181.60
587.06	61179.26
587.22	61361.82
587.38	61270.54
587.54	61277.57
587.70	61242.46
587.86	61331.40
588.02	61193.31
588.18	61476.51
588.34	61228.41
588.49	61059.90
