SpectraSuite Data File
++++++++++++++++++++++++++++++++++++
Date: Fri Oct 25 11:24:07 EDT 2013
User: price-jones
Dark Spectrum Present: No
Reference Spectrum Present: No
Number of Sampled Component Spectra: 1
Spectrometers: USB2+H05261
Integration Time (usec): 100000 (USB2+H05261)
Spectra Averaged: 1 (USB2+H05261)
Boxcar Smoothing: 0 (USB2+H05261)
Correct for Electrical Dark: No (USB2+H05261)
Strobe/Lamp Enabled: No (USB2+H05261)
Correct for Detector Non-linearity: No (USB2+H05261)
Correct for Stray Light: No (USB2+H05261)
Number of Pixels in Processed Spectrum: 2048
>>>>>Begin Processed Spectral Data<<<<<
365.73	196.60
365.92	196.60
366.12	196.60
366.32	189.58
366.52	105.32
366.72	140.43
366.91	95.96
367.11	128.73
367.31	131.07
367.51	145.11
367.70	124.05
367.90	149.79
368.10	177.88
368.30	166.18
368.49	72.56
368.69	210.65
368.89	215.33
369.09	170.86
369.28	147.45
369.48	135.75
369.68	184.90
369.87	203.63
370.07	184.90
370.27	229.37
370.47	339.38
370.66	559.39
370.86	606.20
371.06	732.59
371.25	662.37
371.45	674.07
371.65	709.18
371.84	681.10
372.04	709.18
372.24	734.93
372.44	678.76
372.63	709.18
372.83	716.20
373.03	751.31
373.22	730.25
373.42	802.80
373.62	793.44
373.81	751.31
374.01	763.01
374.21	772.38
374.40	868.34
374.60	819.19
374.79	856.64
374.99	837.91
375.19	840.25
375.38	882.38
375.58	807.48
375.78	849.61
375.97	835.57
376.17	938.55
376.37	861.32
376.56	924.51
376.76	866.00
376.95	903.45
377.15	964.30
377.35	870.68
377.54	917.49
377.74	847.27
377.93	877.70
378.13	880.04
378.33	957.28
378.52	992.39
378.72	875.36
378.91	910.47
379.11	936.21
379.31	976.00
379.50	887.06
379.70	1008.77
379.89	1081.33
380.09	978.34
380.28	1029.84
380.48	983.02
380.68	947.92
380.87	1015.79
381.07	1055.58
381.26	1130.48
381.46	968.98
381.65	1025.15
381.85	1118.78
382.04	1048.56
382.24	1041.54
382.43	1090.69
382.63	1095.37
382.83	1053.24
383.02	1139.84
383.22	1088.35
383.41	1118.78
383.61	1086.01
383.80	1104.73
384.00	1060.26
384.19	1132.82
384.39	1132.82
384.58	1135.16
384.78	1214.74
384.97	1149.20
385.17	1165.59
385.36	1153.88
385.56	1151.54
385.75	1146.86
385.95	1188.99
386.14	1210.06
386.34	1146.86
386.53	1174.95
386.72	1219.42
386.92	1191.33
387.11	1336.45
387.31	1273.25
387.50	1163.25
387.70	1249.85
387.89	1273.25
388.09	1261.55
388.28	1240.48
388.48	1277.93
388.67	1317.72
388.86	1327.08
389.06	1254.53
389.25	1348.15
389.45	1334.11
389.64	1380.92
389.84	1380.92
390.03	1437.09
390.22	1441.77
390.42	1371.55
390.61	1369.21
390.81	1399.64
391.00	1430.07
391.19	1427.73
391.39	1369.21
391.58	1427.73
391.78	1390.28
391.97	1425.39
392.16	1495.60
392.36	1619.65
392.55	1474.54
392.75	1521.35
392.94	1502.62
393.13	1565.82
393.33	1558.80
393.52	1507.30
393.71	1612.63
393.91	1685.19
394.10	1659.44
394.29	1469.86
394.49	1682.85
394.68	1640.72
394.88	1577.52
395.07	1633.69
395.26	1781.15
395.46	1722.63
395.65	1783.49
395.84	1612.63
396.04	1830.30
396.23	1785.83
396.42	1685.19
396.62	1675.82
396.81	1785.83
397.00	1825.62
397.19	1860.73
397.39	1811.57
397.58	1888.81
397.77	1877.11
397.97	1809.23
398.16	1823.28
398.35	1930.94
398.55	1820.94
398.74	1926.26
398.93	1891.15
399.12	1954.35
399.32	1872.43
399.51	1954.35
399.70	1944.99
399.90	1933.28
400.09	2092.44
400.28	2054.99
400.47	2040.95
400.67	2022.22
400.86	2064.35
401.05	2071.37
401.24	2139.25
401.44	2155.63
401.63	2078.40
401.82	2244.57
402.01	2172.02
402.21	2165.00
402.40	2186.06
402.59	2160.31
402.78	2282.02
402.97	2300.75
403.17	2244.57
403.36	2263.30
403.55	2200.10
403.74	2335.85
403.93	2361.60
404.13	2464.58
404.32	2445.86
404.51	2349.90
404.70	2417.77
404.89	2469.27
405.09	2513.74
405.28	2434.16
405.47	2530.12
405.66	2595.65
405.85	2537.14
406.05	2413.09
406.24	2640.12
406.43	2630.76
406.62	2705.66
406.81	2626.08
407.00	2605.02
407.20	2572.25
407.39	2633.10
407.58	2689.28
407.77	2771.19
407.96	2668.21
408.15	2775.88
408.34	2820.35
408.54	2761.83
408.73	2775.88
408.92	2808.64
409.11	2799.28
409.30	2942.05
409.49	2869.50
409.68	2820.35
409.87	2881.20
410.07	3049.72
410.26	3068.44
410.45	3030.99
410.64	3077.80
410.83	3243.98
411.02	3162.06
411.21	3243.98
411.40	3054.40
411.59	3251.00
411.78	3232.28
411.98	3162.06
412.17	3276.75
412.36	3213.56
412.55	3330.58
412.74	3438.25
412.93	3407.82
413.12	3419.52
413.31	3548.25
413.50	3555.27
413.69	3562.30
413.88	3571.66
414.07	3522.51
414.26	3672.30
414.45	3604.42
414.64	3676.98
414.83	3559.95
415.02	3740.18
415.22	3866.56
415.41	3946.14
415.60	3789.33
415.79	3971.89
415.98	4086.58
416.17	4086.58
416.36	3988.27
416.55	4056.15
416.74	4035.08
416.93	4037.42
417.12	4131.05
417.31	4121.68
417.50	4294.88
417.69	4245.73
417.88	4248.07
418.07	4437.66
418.26	4290.20
418.45	4468.08
418.64	4489.15
418.83	4353.40
419.02	4432.97
419.21	4475.10
419.39	4580.43
419.58	4589.79
419.77	4589.79
419.96	4561.70
420.15	4533.62
420.34	4688.09
420.53	4683.41
420.72	4777.03
420.91	4664.69
421.10	4858.95
421.29	4767.67
421.48	4582.77
421.67	4716.18
421.86	4755.97
422.05	4739.58
422.24	4812.14
422.43	4835.55
422.61	4915.12
422.80	4851.93
422.99	4887.04
423.18	5004.07
423.37	5132.79
423.56	4891.72
423.75	4933.85
423.94	4870.65
424.13	4669.37
424.32	4863.63
424.50	4950.23
424.69	5050.88
424.88	4887.04
425.07	4835.55
425.26	4861.29
425.45	4896.40
425.64	4966.62
425.83	4919.81
426.01	5085.98
426.20	5032.15
426.39	5149.18
426.58	5055.56
426.77	5027.47
426.96	5111.73
427.15	5128.11
427.33	5179.61
427.52	5249.82
427.71	5320.04
427.90	5109.39
428.09	5254.50
428.28	5366.85
428.46	5413.66
428.65	5385.57
428.84	5518.98
429.03	5621.97
429.22	5420.68
429.40	5460.47
429.59	5432.38
429.78	5373.87
429.97	5266.21
430.16	5563.45
430.34	5664.10
430.53	5731.97
430.72	5771.76
430.91	5645.37
431.10	5638.35
431.28	5802.19
431.47	5753.04
431.66	5856.02
431.85	5657.07
432.03	5989.43
432.22	5980.07
432.41	5949.64
432.60	5872.40
432.79	6010.50
432.97	6153.27
433.16	6001.13
433.35	6005.81
433.54	6094.76
433.72	6380.30
433.91	6113.48
434.10	6026.88
434.28	6148.59
434.47	6324.13
434.66	6139.23
434.85	6317.11
435.03	6459.88
435.22	6160.29
435.41	6464.56
435.59	6366.26
435.78	6373.28
435.97	6525.41
436.16	6494.99
436.34	6537.12
436.53	6459.88
436.72	6712.66
436.90	6494.99
437.09	6633.08
437.28	6537.12
437.46	6726.70
437.65	6719.68
437.84	6778.19
438.02	6616.69
438.21	6761.81
438.40	6541.80
438.58	6995.86
438.77	7063.74
438.96	7117.57
439.14	7140.97
439.33	7208.85
439.52	7265.02
439.70	7267.36
439.89	7438.22
440.08	7360.98
440.26	7478.01
440.45	7517.80
440.63	7428.86
440.82	7501.42
441.01	7403.11
441.19	7581.00
441.38	7714.41
441.57	7691.00
441.75	7915.69
441.94	7957.82
442.12	8023.36
442.31	8044.42
442.50	8168.47
442.68	8095.91
442.87	8084.21
443.05	8231.66
443.24	8348.69
443.43	8114.64
443.61	8203.58
443.80	8432.95
443.98	8507.85
444.17	7803.35
444.35	8025.70
444.54	8425.93
444.73	8245.71
444.91	8423.59
445.10	8491.46
445.28	8152.09
445.47	8219.96
445.65	8472.74
445.84	8542.96
446.02	8538.27
446.21	8271.45
446.39	8592.11
446.58	8692.75
446.77	8692.75
446.95	8224.64
447.14	8468.06
447.32	8603.81
447.51	8517.21
447.69	8362.73
447.88	8491.46
448.06	8461.04
448.25	8645.94
448.43	8549.98
448.62	8711.47
448.80	8702.11
448.99	8601.47
449.17	8751.26
449.36	8699.77
449.54	8990.00
449.73	9020.42
449.91	9029.79
450.10	9074.26
450.28	9245.12
450.46	9298.95
450.65	9032.13
450.83	9221.71
451.02	8795.73
451.20	9284.91
451.39	8985.32
451.57	9114.05
451.76	9027.45
451.94	9050.85
452.13	9446.40
452.31	9254.48
452.49	9277.88
452.68	9352.78
452.86	9495.55
453.05	9523.64
453.23	9535.34
453.42	9348.10
453.60	9488.53
453.78	9530.66
453.97	9509.60
454.15	9586.83
454.34	9441.72
454.52	9776.42
454.70	9870.04
454.89	9837.27
455.07	9685.14
455.26	9963.66
455.44	10052.60
455.62	9914.51
455.81	9813.87
455.99	10171.97
456.17	10012.81
456.36	9989.41
456.54	10242.18
456.73	10448.15
456.91	10527.73
457.09	10424.75
457.28	10607.31
457.46	10490.28
457.64	10675.18
457.83	10560.50
458.01	10551.14
458.19	10850.72
458.38	10623.69
458.56	10761.78
458.74	10942.00
458.93	10560.50
459.11	10778.17
459.29	10518.37
459.48	11002.86
459.66	10920.94
459.84	10906.90
460.03	11293.08
460.21	11176.06
460.39	11005.20
460.57	10958.39
460.76	11194.78
460.94	11136.27
461.12	11382.03
461.31	11232.23
461.49	11339.90
461.67	11229.89
461.85	11637.14
462.04	11300.11
462.22	11716.72
462.40	11440.54
462.59	11705.02
462.77	11454.58
462.95	11782.26
463.13	11723.74
463.32	11681.61
463.50	11800.98
463.68	11885.24
463.86	12013.97
464.05	11716.72
464.23	11833.75
464.41	11868.86
464.59	11939.07
464.78	12170.79
464.96	12236.32
465.14	11896.94
465.32	12276.11
465.50	12123.98
465.69	12212.92
465.87	12020.99
466.05	12084.19
466.23	12135.68
466.41	12313.56
466.60	12423.56
466.78	12355.69
466.96	12339.30
467.14	12149.72
467.32	12402.50
467.51	12711.45
467.69	12404.84
467.87	12395.48
468.05	12610.81
468.23	12435.27
468.41	12449.31
468.60	12882.31
468.78	12966.57
468.96	12589.74
469.14	12821.45
469.32	12917.42
469.50	12961.89
469.69	13034.44
469.87	13406.59
470.05	13301.26
470.23	13041.46
470.41	13336.37
470.59	13504.89
470.77	13378.50
470.95	13444.04
471.14	13607.87
471.32	13338.71
471.50	13338.71
471.68	13671.07
471.86	13451.06
472.04	13657.03
472.22	14235.14
472.40	13881.72
472.58	13937.89
472.77	14153.22
472.95	14050.24
473.13	14621.33
473.31	13907.46
473.49	14162.58
473.67	14188.33
473.85	14424.72
474.03	14738.35
474.21	14778.14
474.39	14848.36
474.57	15138.58
474.75	14998.15
474.93	15112.84
475.12	14956.02
475.30	15281.36
475.48	15346.89
475.66	15398.38
475.84	15330.51
476.02	15573.92
476.20	15349.23
476.38	15726.06
476.56	16044.37
476.74	16081.82
476.92	15999.90
477.10	15658.18
477.28	16238.64
477.46	16435.24
477.64	16404.81
477.82	16624.83
478.00	16812.07
478.18	16973.56
478.36	17142.08
478.54	17109.32
478.72	17392.52
478.90	17315.28
479.08	17429.97
479.26	17956.59
479.44	17923.82
479.62	17914.46
479.80	18031.49
479.98	18314.69
480.16	18487.89
480.34	18263.20
480.52	18565.13
480.70	18904.51
480.88	18562.79
481.06	18696.20
481.24	19058.98
481.41	19173.67
481.59	19307.08
481.77	19480.28
481.95	19683.91
482.13	19683.91
482.31	19676.88
482.49	20561.61
482.67	20458.62
482.85	20592.03
483.03	20884.60
483.21	21008.65
483.39	21139.72
483.57	21116.31
483.74	21270.79
483.92	21607.83
484.10	21504.84
484.28	21954.22
484.46	22113.38
484.64	22593.19
484.82	21893.37
485.00	22534.68
485.18	22883.42
485.35	23183.01
485.53	22909.16
485.71	23051.94
485.89	23346.84
486.07	23173.64
486.25	23288.33
486.43	23611.32
486.61	23826.65
486.78	24325.19
486.96	24259.65
487.14	24727.76
487.32	24596.69
487.50	24865.85
487.68	25027.35
487.85	25472.05
488.03	25642.91
488.21	25912.07
488.39	26251.45
488.57	26272.51
488.75	26457.42
488.92	26316.98
489.10	26661.04
489.28	26628.27
489.46	27180.64
489.64	27197.02
489.81	27681.52
489.99	27866.42
490.17	27779.82
490.35	28687.95
490.53	28224.52
490.70	28608.37
490.88	28315.80
491.06	29032.00
491.24	28776.89
491.41	29268.40
491.59	29097.54
491.77	29406.49
491.95	29706.08
492.13	29977.58
492.30	29752.89
492.48	30031.41
492.66	30808.47
492.84	30492.50
493.01	30810.81
493.19	30705.49
493.37	30937.20
493.54	31447.44
493.72	31634.68
493.90	31676.81
494.08	31489.57
494.25	32435.14
494.43	32128.53
494.61	32418.76
494.79	32807.29
494.96	32636.43
495.14	32739.41
495.32	33703.71
495.49	33312.84
495.67	33230.93
495.85	33729.46
496.02	33518.81
496.20	34197.57
496.38	34040.75
496.55	34508.86
496.73	35573.80
496.91	34888.03
497.09	35096.33
497.26	35070.59
497.44	35108.04
497.62	35674.45
497.79	35955.31
497.97	35585.50
498.14	36287.67
498.32	36524.06
498.50	36938.33
498.67	37036.64
498.85	36617.68
499.03	37071.75
499.20	36940.68
499.38	36938.33
499.56	37373.67
499.73	37448.57
499.91	37801.99
500.08	37832.42
500.26	37759.86
500.44	37839.44
500.61	38239.67
500.79	37830.08
500.97	38359.04
501.14	38660.97
501.32	38789.70
501.49	38628.20
501.67	39164.18
501.84	39229.72
502.02	39274.19
502.20	38869.28
502.37	39428.66
502.55	39920.18
502.72	39868.69
502.90	39812.51
503.07	40069.97
503.25	39901.45
503.43	39772.72
503.60	40477.22
503.78	40219.77
503.95	40601.27
504.13	40526.38
504.30	41109.17
504.48	40755.75
504.65	40982.78
504.83	41146.62
505.01	41380.67
505.18	41015.55
505.36	41507.06
505.53	41476.63
505.71	41654.51
505.88	42204.54
506.06	41537.49
506.23	42216.24
506.41	41923.68
506.58	42176.45
506.76	42298.16
506.93	42890.32
507.11	42230.29
507.28	42747.54
507.46	42967.55
507.63	43215.65
507.81	43316.29
507.98	42983.94
508.16	43166.50
508.33	43147.78
508.50	43730.57
508.68	43531.62
508.85	44140.16
509.03	43990.37
509.20	44390.60
509.38	44552.10
509.55	44502.95
509.73	44622.31
509.90	44886.79
510.08	44697.21
510.25	44868.07
510.42	45003.82
510.60	45097.44
510.77	45282.34
510.95	45560.87
511.12	45343.20
511.30	45298.73
511.47	45776.20
511.64	45982.16
511.82	45886.20
511.99	46131.96
512.17	46131.96
512.34	46213.88
512.51	46560.28
512.69	46740.50
512.86	46738.16
513.04	46822.42
513.21	47114.98
513.38	47049.45
513.56	47140.73
513.73	47402.87
513.90	47295.21
514.08	46955.83
514.25	47555.00
514.43	47604.16
514.60	47264.78
514.77	47604.16
514.95	47655.65
515.12	48172.91
515.29	47866.30
515.47	48341.42
515.64	48449.09
515.81	48303.98
515.99	48577.82
516.16	48980.39
516.33	48580.16
516.51	48832.94
516.68	48566.12
516.85	48776.76
517.03	49127.84
517.20	48924.22
517.37	48931.24
517.54	49071.67
517.72	49151.25
517.89	49361.90
518.06	49420.41
518.24	49530.42
518.41	49125.50
518.58	49404.03
518.75	49736.38
518.93	49883.84
519.10	49600.63
519.27	49621.70
519.45	49806.60
519.62	49951.71
519.79	50305.13
519.96	50342.58
520.14	50569.61
520.31	50195.13
520.48	50827.07
520.65	50850.48
520.83	50733.45
521.00	50897.29
521.17	50564.93
521.34	50838.78
521.52	50880.91
521.69	51063.47
521.86	51320.93
522.03	51278.80
522.20	51562.00
522.38	51681.37
522.55	51746.90
522.72	51643.92
522.89	51454.34
523.07	51957.55
523.24	51679.03
523.41	52074.58
523.58	51217.94
523.75	52360.12
523.92	51945.85
524.10	52243.10
524.27	52210.33
524.44	52189.27
524.61	52561.41
524.78	52215.01
524.96	52301.61
525.13	52320.34
525.30	52786.10
525.47	52486.51
525.64	52598.86
525.81	52896.11
525.98	52748.65
526.16	52947.60
526.33	52769.72
526.50	53106.76
526.67	53020.16
526.84	53148.88
527.01	53024.84
527.18	53186.33
527.36	53137.18
527.53	53059.94
527.70	53436.77
527.87	53549.12
528.04	53352.51
528.21	53691.89
528.38	53581.88
528.55	53961.05
528.72	53626.35
528.89	53584.22
529.07	53708.27
529.24	53762.11
529.41	53790.19
529.58	54052.33
529.75	54094.46
529.92	54059.35
530.09	53794.87
530.26	53801.89
530.43	54120.21
530.60	54026.59
530.77	54073.40
530.94	54445.54
531.11	54335.54
531.28	54272.34
531.46	54344.90
531.63	54445.54
531.80	54398.73
531.97	54541.50
532.14	54838.75
532.31	54323.83
532.48	54754.49
532.65	54845.77
532.82	54710.02
532.99	54787.26
533.16	54667.89
533.33	54745.13
533.50	55154.72
533.67	54745.13
533.84	55105.57
534.01	55000.25
534.18	55077.49
534.35	55475.38
534.52	55433.25
534.69	55360.69
534.86	55414.52
535.03	55428.57
535.20	55374.73
535.37	55337.29
535.54	55671.98
535.71	55601.77
535.88	55894.33
536.05	55683.69
536.22	55739.86
536.38	55587.72
536.55	55655.60
536.72	55917.74
536.89	55718.79
537.06	55700.07
537.23	55767.94
537.40	55873.27
537.57	55817.10
537.74	56044.13
537.91	56072.21
538.08	55702.41
538.25	55824.12
538.42	56322.65
538.59	56381.16
538.75	55929.44
538.92	56348.40
539.09	56472.45
539.26	56214.99
539.43	56037.11
539.60	56273.50
539.77	56287.54
539.94	56692.46
540.11	56495.85
540.28	56381.16
540.44	56575.43
540.61	56425.64
540.78	56603.52
540.95	56821.19
541.12	56587.13
541.29	56603.52
541.46	56830.55
541.62	56580.11
541.79	56715.86
541.96	56540.32
542.13	56692.46
542.30	56797.78
542.47	57029.49
542.63	57228.44
542.80	57139.50
542.97	57308.02
543.14	57296.31
543.31	57221.42
543.48	57499.94
543.64	57605.26
543.81	57614.63
543.98	57411.00
544.15	57546.75
544.32	57698.89
544.48	57813.57
544.65	57539.73
544.82	57626.33
544.99	57368.87
545.16	57780.81
545.32	57570.16
545.49	57745.70
545.66	57790.17
545.83	57820.59
546.00	57902.51
546.16	57914.22
546.33	57588.88
546.50	57680.16
546.67	57888.47
546.83	57738.68
547.00	57785.49
547.17	57886.13
547.34	58045.29
547.50	58108.48
547.67	58284.02
547.84	58185.72
548.00	58253.59
548.17	58356.58
548.34	58277.00
548.51	58445.52
548.67	58433.81
548.84	58468.92
549.01	58466.58
549.18	58117.84
549.34	58489.99
549.51	58567.23
549.68	58674.89
549.84	58478.28
550.01	58482.97
550.18	58562.54
550.34	58754.47
550.51	58726.38
550.68	58644.46
550.84	58391.68
551.01	58520.41
551.18	58855.11
551.34	58499.35
551.51	58576.59
551.68	58672.55
551.84	58674.89
552.01	58499.35
552.18	58852.77
552.34	58609.35
552.51	58866.81
552.68	58698.30
552.84	58691.27
553.01	58972.14
553.18	58953.41
553.34	59128.95
553.51	58897.24
553.67	58864.47
553.84	59009.59
554.01	59185.13
554.17	59245.98
554.34	59086.82
554.51	59171.08
554.67	59253.00
554.84	59206.19
555.00	59133.63
555.17	59098.53
555.33	59199.17
555.50	59011.93
555.67	59147.68
555.83	59096.19
556.00	59278.75
556.16	59725.79
556.33	59313.86
556.50	59229.60
556.66	59585.36
556.83	59227.26
556.99	59571.32
557.16	59416.84
557.32	59704.73
557.49	59779.62
557.65	59367.69
557.82	59554.93
557.98	59512.80
558.15	59655.57
558.32	59559.61
558.48	59669.62
558.65	59480.03
558.81	59601.74
558.98	59749.20
559.14	59732.81
559.31	59877.93
559.47	59627.49
559.64	59887.29
559.80	59936.44
559.97	60067.51
560.13	59653.23
560.30	59770.26
560.46	60058.15
560.63	59896.65
560.79	60053.47
560.96	60130.70
561.12	59962.18
561.29	59976.23
561.45	59948.14
561.61	59765.58
561.78	59931.76
561.94	59896.65
562.11	59859.20
562.27	60009.00
562.44	60142.41
562.60	60119.00
562.77	60189.22
562.93	59847.50
563.10	60374.12
563.26	59910.69
563.42	60128.36
563.59	60264.11
563.75	59929.42
563.92	60107.30
564.08	59901.33
564.24	60357.74
564.41	60371.78
564.57	60086.23
564.74	60317.95
564.90	60126.02
565.07	60268.79
565.23	60353.05
565.39	60301.56
565.56	60360.08
565.72	60292.20
565.88	60292.20
566.05	60086.23
566.21	60348.37
566.38	60388.16
566.54	60495.83
566.70	60486.46
566.87	60561.36
567.03	60479.44
567.19	60566.04
567.36	60622.22
567.52	60184.54
567.68	60559.02
567.85	60477.10
568.01	60584.77
568.17	60369.44
568.34	60573.06
568.50	60439.65
568.66	60362.42
568.83	60540.30
568.99	60472.42
569.15	60619.88
569.32	60526.25
569.48	60418.59
569.64	60598.81
569.81	60580.09
569.97	60446.68
570.13	60767.33
570.30	60636.26
570.46	60638.60
570.62	60694.77
570.78	60605.83
570.95	60542.64
571.11	60732.22
571.27	60711.16
571.43	60519.23
571.60	60715.84
571.76	60556.68
571.92	60856.27
572.09	60739.24
572.25	60671.37
572.41	60456.04
572.57	60683.07
572.74	60706.47
572.90	60809.46
573.06	60783.71
573.22	60640.94
573.38	60856.27
573.55	60699.45
573.71	60949.89
573.87	60823.50
574.03	60519.23
574.20	60849.25
574.36	60683.07
574.52	60975.64
574.68	60891.38
574.84	61041.17
575.01	60954.57
575.17	60729.88
575.33	60823.50
575.49	60788.39
575.65	60788.39
575.82	61066.92
575.98	61069.26
576.14	60940.53
576.30	60858.61
576.46	60954.57
576.62	60772.01
576.79	60917.12
576.95	60732.22
577.11	60938.19
577.27	61031.81
577.43	61013.08
577.59	60851.59
577.75	60926.49
577.92	60837.54
578.08	60945.21
578.24	61155.86
578.40	61043.51
578.56	61104.37
578.72	61043.51
578.88	61165.22
579.04	61139.47
579.21	60963.93
579.37	61048.19
579.53	61160.54
579.69	60760.31
579.85	60917.12
580.01	60924.14
580.17	60816.48
580.33	61066.92
580.49	61205.01
580.65	61062.24
580.82	60970.96
580.98	60835.20
581.14	60821.16
581.30	60970.96
581.46	61001.38
581.62	61001.38
581.78	60837.54
581.94	61207.35
582.10	61003.72
582.26	60968.61
582.42	61031.81
582.58	60914.78
582.74	60954.57
582.90	60882.02
583.06	61066.92
583.22	60910.10
583.38	60970.96
583.54	61066.92
583.70	60954.57
583.86	61109.05
584.02	61006.06
584.18	61233.10
584.34	61083.30
584.50	61066.92
584.66	60940.53
584.82	61041.17
584.98	61350.12
585.14	61095.00
585.30	60879.67
585.46	61247.14
585.62	61251.82
585.78	61169.90
585.94	61111.39
586.10	61186.28
586.26	61247.14
586.42	61148.84
586.58	61240.12
586.74	61113.73
586.90	61179.26
587.06	61015.43
587.22	61528.00
587.38	61006.06
587.54	61457.79
587.70	61385.23
587.86	61190.97
588.02	61139.47
588.18	61162.88
588.34	61254.16
588.49	61038.83
