SpectraSuite Data File
++++++++++++++++++++++++++++++++++++
Date: Fri Oct 25 10:46:58 EDT 2013
User: price-jones
Dark Spectrum Present: No
Reference Spectrum Present: No
Number of Sampled Component Spectra: 1
Spectrometers: USB2+H05261
Integration Time (usec): 100000 (USB2+H05261)
Spectra Averaged: 1 (USB2+H05261)
Boxcar Smoothing: 0 (USB2+H05261)
Correct for Electrical Dark: No (USB2+H05261)
Strobe/Lamp Enabled: No (USB2+H05261)
Correct for Detector Non-linearity: No (USB2+H05261)
Correct for Stray Light: No (USB2+H05261)
Number of Pixels in Processed Spectrum: 2048
>>>>>Begin Processed Spectral Data<<<<<
365.73	147.45
365.92	147.45
366.12	147.45
366.32	51.49
366.52	0.00
366.72	100.64
366.91	0.00
367.11	2.34
367.31	0.00
367.51	49.15
367.70	35.11
367.90	51.49
368.10	46.81
368.30	51.49
368.49	42.13
368.69	46.81
368.89	102.98
369.09	0.00
369.28	42.13
369.48	46.81
369.68	84.26
369.87	100.64
370.07	107.66
370.27	135.75
370.47	224.69
370.66	400.23
370.86	430.66
371.06	414.27
371.25	482.15
371.45	416.62
371.65	456.40
371.84	507.90
372.04	472.79
372.24	468.11
372.44	543.00
372.63	468.11
372.83	519.60
373.03	557.05
373.22	447.04
373.42	533.64
373.62	517.26
373.81	608.54
374.01	531.30
374.21	514.92
374.40	571.09
374.60	559.39
374.79	580.45
374.99	638.97
375.19	641.31
375.38	657.69
375.58	615.56
375.78	688.12
375.97	582.79
376.17	617.90
376.37	622.58
376.56	674.07
376.76	645.99
376.95	667.05
377.15	713.86
377.35	669.39
377.54	587.47
377.74	589.82
377.93	634.29
378.13	608.54
378.33	636.63
378.52	622.58
378.72	678.76
378.91	690.46
379.11	662.37
379.31	655.35
379.50	594.50
379.70	697.48
379.89	676.41
380.09	695.14
380.28	664.71
380.48	720.88
380.68	582.79
380.87	718.54
381.07	650.67
381.26	706.84
381.46	713.86
381.65	653.01
381.85	690.46
382.04	734.93
382.24	702.16
382.43	739.61
382.63	746.63
382.83	716.20
383.02	772.38
383.22	816.85
383.41	678.76
383.61	624.92
383.80	713.86
384.00	805.14
384.19	758.33
384.39	791.10
384.58	774.72
384.78	737.27
384.97	875.36
385.17	744.29
385.36	739.61
385.56	866.00
385.75	819.19
385.95	828.55
386.14	823.87
386.34	788.76
386.53	882.38
386.72	863.66
386.92	882.38
387.11	833.23
387.31	833.23
387.50	814.51
387.70	882.38
387.89	917.49
388.09	917.49
388.28	903.45
388.48	973.66
388.67	866.00
388.86	875.36
389.06	931.53
389.25	978.34
389.45	973.66
389.64	978.34
389.84	1029.84
390.03	971.32
390.22	959.62
390.42	997.07
390.61	971.32
390.81	945.58
391.00	1048.56
391.19	1146.86
391.39	1053.24
391.58	1104.73
391.78	1069.62
391.97	980.68
392.16	1032.18
392.36	1144.52
392.55	964.30
392.75	1006.43
392.94	901.11
393.13	1001.75
393.33	1057.92
393.52	976.00
393.71	1053.24
393.91	1076.65
394.10	1118.78
394.29	1142.18
394.49	1090.69
394.68	1137.50
394.88	1240.48
395.07	1217.08
395.26	1210.06
395.46	1203.04
395.65	1193.67
395.84	1179.63
396.04	1261.55
396.23	1135.16
396.42	1177.29
396.62	1158.57
396.81	1081.33
397.00	1210.06
397.19	1266.23
397.39	1336.45
397.58	1310.70
397.77	1303.68
397.97	1371.55
398.16	1301.34
398.35	1416.02
398.55	1418.36
398.74	1425.39
398.93	1437.09
399.12	1448.79
399.32	1397.30
399.51	1418.36
399.70	1483.90
399.90	1369.21
400.09	1589.22
400.28	1612.63
400.47	1523.69
400.67	1526.03
400.86	1530.71
401.05	1516.67
401.24	1535.39
401.44	1654.76
401.63	1661.78
401.82	1607.95
402.01	1544.75
402.21	1701.57
402.40	1603.27
402.59	1582.20
402.78	1629.01
402.97	1687.53
403.17	1717.95
403.36	1661.78
403.55	1736.68
403.74	1631.35
403.93	1755.40
404.13	1783.49
404.32	1647.74
404.51	1783.49
404.70	1806.89
404.89	1806.89
405.09	1921.58
405.28	1907.54
405.47	1893.49
405.66	1886.47
405.85	1893.49
406.05	1919.24
406.24	1930.94
406.43	1919.24
406.62	1930.94
406.81	2019.88
407.00	1998.82
407.20	1970.73
407.39	2022.22
407.58	2127.55
407.77	1991.80
407.96	2153.29
408.15	2251.60
408.34	2129.89
408.54	2183.72
408.73	2162.66
408.92	2260.96
409.11	2200.10
409.30	2160.31
409.49	2097.12
409.68	2195.42
409.87	2209.47
410.07	2235.21
410.26	2253.94
410.45	2375.64
410.64	2328.83
410.83	2394.37
411.02	2415.43
411.21	2574.59
411.40	2382.67
411.59	2497.35
411.78	2497.35
411.98	2483.31
412.17	2544.16
412.36	2551.18
412.55	2539.48
412.74	2637.78
412.93	2607.36
413.12	2537.14
413.31	2679.91
413.50	2583.95
413.69	2803.96
413.88	2630.76
414.07	2738.43
414.26	2871.84
414.45	2766.51
414.64	2860.13
414.83	2839.07
415.02	2869.50
415.22	2970.14
415.41	2902.26
415.60	2911.63
415.79	2810.98
415.98	3143.34
416.17	3126.96
416.36	3152.70
416.55	2998.23
416.74	3150.36
416.93	3087.17
417.12	3173.77
417.31	3251.00
417.50	3229.94
417.69	3304.84
417.88	3258.03
418.07	3208.87
418.26	3220.58
418.45	3258.03
418.64	3473.36
418.83	3424.20
419.02	3452.29
419.21	3531.87
419.39	3501.44
419.58	3293.13
419.77	3262.71
419.96	3475.70
420.15	3702.73
420.34	3557.61
420.53	3510.80
420.72	3707.41
420.91	3581.02
421.10	3681.66
421.29	3817.41
421.48	3541.23
421.67	3566.98
421.86	3552.93
422.05	3796.35
422.24	3588.04
422.43	3623.15
422.61	3775.28
422.80	3653.58
422.99	3754.22
423.18	3786.99
423.37	3749.54
423.56	3911.04
423.75	3789.33
423.94	3702.73
424.13	3356.33
424.32	3688.68
424.50	3845.50
424.69	3967.21
424.88	3875.93
425.07	3772.94
425.26	3887.63
425.45	3763.58
425.64	3803.37
425.83	3815.07
426.01	3955.51
426.20	3789.33
426.39	3852.52
426.58	3674.64
426.77	3836.14
426.96	3840.82
427.15	3721.45
427.33	3857.20
427.52	3889.97
427.71	4088.92
427.90	3974.23
428.09	3981.25
428.28	3955.51
428.46	3943.80
428.65	4018.70
428.84	4018.70
429.03	4133.39
429.22	3925.08
429.40	3894.65
429.59	4182.54
429.78	3765.92
429.97	3803.37
430.16	3850.18
430.34	4065.51
430.53	4081.89
430.72	3985.93
430.91	4119.34
431.10	4060.83
431.28	4297.22
431.47	4449.36
431.66	4461.06
431.85	4395.53
432.03	4449.36
432.22	4454.04
432.41	4559.36
432.60	4475.10
432.79	4442.34
432.97	4517.23
433.16	4449.36
433.35	4402.55
433.54	4454.04
433.72	4428.29
433.91	4409.57
434.10	4554.68
434.28	4615.54
434.47	4746.61
434.66	4674.05
434.85	4723.20
435.03	4798.10
435.22	4772.35
435.41	4723.20
435.59	4835.55
435.78	5032.15
435.97	4851.93
436.16	4910.44
436.34	4732.56
436.53	4940.87
436.72	5219.39
436.90	4903.42
437.09	4943.21
437.28	4868.31
437.46	5011.09
437.65	5060.24
437.84	5097.69
438.02	4922.15
438.21	4966.62
438.40	4961.94
438.58	5214.71
438.77	5172.58
438.96	5039.17
439.14	5228.76
439.33	5296.63
439.52	5453.45
439.70	5411.32
439.89	5261.52
440.08	5579.84
440.26	5458.13
440.45	5451.11
440.63	5558.77
440.82	5881.77
441.01	5703.89
441.19	5682.82
441.38	5818.57
441.57	5731.97
441.75	5841.98
441.94	5839.64
442.12	6001.13
442.31	6132.20
442.50	6087.73
442.68	5987.09
442.87	6050.28
443.05	6066.67
443.24	6239.87
443.43	6289.02
443.61	6146.25
443.80	6347.53
443.98	6066.67
444.17	5888.79
444.35	6368.60
444.54	6331.15
444.73	6296.04
444.91	6204.76
445.10	6164.97
445.28	6171.99
445.47	6113.48
445.65	5959.00
445.84	6026.88
446.02	6251.57
446.21	6296.04
446.39	6188.38
446.58	6445.84
446.77	6317.11
446.95	6195.40
447.14	6392.00
447.32	6375.62
447.51	6349.87
447.69	6317.11
447.88	6441.15
448.06	6352.21
448.25	6249.23
448.43	6499.67
448.62	6544.14
448.80	6267.95
448.99	6476.26
449.17	6497.33
449.36	6541.80
449.54	6682.23
449.73	6745.42
449.91	6906.92
450.10	6860.11
450.28	6771.17
450.46	6707.98
450.65	6764.15
450.83	6881.18
451.02	6895.22
451.20	6977.14
451.39	7143.32
451.57	6876.49
451.76	6757.13
451.94	6825.00
452.13	6906.92
452.31	6815.64
452.49	6876.49
452.68	6881.18
452.86	6895.22
453.05	7096.50
453.23	7073.10
453.42	6944.37
453.60	7112.89
453.78	7117.57
453.97	7070.76
454.15	7066.08
454.34	7229.91
454.52	7302.47
454.70	7260.34
454.89	7201.83
455.07	7155.02
455.26	7398.43
455.44	7463.97
455.62	7485.03
455.81	7297.79
455.99	7520.14
456.17	7456.95
456.36	7480.35
456.54	7508.44
456.73	7672.28
456.91	7763.56
457.09	7742.49
457.28	7700.36
457.46	7726.11
457.64	7843.14
457.83	7716.75
458.01	7531.84
458.19	7962.50
458.38	7749.51
458.56	7852.50
458.74	7901.65
458.93	7941.44
459.11	7939.10
459.29	7985.91
459.48	8086.55
459.66	7934.42
459.84	8004.63
460.03	8205.92
460.21	8175.49
460.39	8109.96
460.57	8222.30
460.76	8290.18
460.94	8262.09
461.12	8306.56
461.31	8271.45
461.49	8259.75
461.67	8304.22
461.85	8379.12
462.04	8257.41
462.22	9121.07
462.40	8524.23
462.59	8624.87
462.77	8477.42
462.95	8526.57
463.13	8561.68
463.32	8519.55
463.50	8580.40
463.68	8819.14
463.86	8786.37
464.05	8540.61
464.23	8582.74
464.41	8664.66
464.59	8744.24
464.78	8830.84
464.96	8655.30
465.14	8629.56
465.32	8877.65
465.50	9036.81
465.69	8709.13
465.87	8781.69
466.05	8816.80
466.23	8720.84
466.41	8870.63
466.60	8905.74
466.78	8940.85
466.96	8926.80
467.14	8938.51
467.32	9100.00
467.51	9186.60
467.69	8805.10
467.87	8997.02
468.05	9097.66
468.23	8870.63
468.41	9048.51
468.60	9128.09
468.78	9104.68
468.96	9135.11
469.14	9240.44
469.32	9500.23
469.50	9263.84
469.69	9441.72
469.87	9348.10
470.05	9352.78
470.23	9352.78
470.41	9373.85
470.59	9467.47
470.77	9666.41
470.95	9465.13
471.14	9968.34
471.32	9518.96
471.50	9994.09
471.68	10026.86
471.86	9734.29
472.04	9984.73
472.22	10338.15
472.40	10094.73
472.58	9989.41
472.77	10097.07
472.95	10242.18
473.13	10597.95
473.31	9977.70
473.49	10010.47
473.67	10223.46
473.85	10197.71
474.03	10399.00
474.21	10310.06
474.39	10675.18
474.57	10586.24
474.75	10635.39
474.93	10703.27
475.12	10611.99
475.30	10789.87
475.48	10850.72
475.66	11073.07
475.84	10862.43
476.02	10939.66
476.20	10911.58
476.38	11304.79
476.56	11463.94
476.74	11382.03
476.92	11405.43
477.10	11281.38
477.28	11660.55
477.46	11550.54
477.64	11910.99
477.82	11800.98
478.00	12119.29
478.18	12088.87
478.36	12056.10
478.54	12355.69
478.72	12032.69
478.90	12360.37
479.08	12322.92
479.26	12514.84
479.44	12674.00
479.62	12622.51
479.80	12959.55
479.98	12704.43
480.16	12819.11
480.34	13308.29
480.52	12973.59
480.70	13270.84
480.88	13184.24
481.06	13233.39
481.24	13411.27
481.41	13516.59
481.59	13837.25
481.77	13968.32
481.95	13942.57
482.13	13973.00
482.31	14092.37
482.49	14291.31
482.67	14193.01
482.85	14295.99
483.03	14750.06
483.21	14595.58
483.39	14850.70
483.57	14576.86
483.74	15068.37
483.92	15021.56
484.10	14815.59
484.28	15166.67
484.46	15433.49
484.64	15756.49
484.82	15410.09
485.00	15726.06
485.18	15761.17
485.35	15990.54
485.53	15704.99
485.71	15693.29
485.89	15936.71
486.07	15887.56
486.25	16098.20
486.43	16397.79
486.61	16489.07
486.78	16678.66
486.96	16744.19
487.14	17074.21
487.32	17315.28
487.50	17287.20
487.68	17500.19
487.85	17642.96
488.03	17752.96
488.21	17855.95
488.39	17839.56
488.57	18022.12
488.75	18209.37
488.92	18317.03
489.10	18714.92
489.28	18647.05
489.46	19051.96
489.64	18998.13
489.81	19374.95
489.99	19234.52
490.17	19513.05
490.35	19496.66
490.53	19536.45
490.70	19864.13
490.88	19969.45
491.06	19791.57
491.24	20084.14
491.41	20329.89
491.59	19779.87
491.77	19983.49
491.95	20568.63
492.13	20573.31
492.30	20828.43
492.48	20758.21
492.66	20922.05
492.84	21074.18
493.01	20926.73
493.19	21209.93
493.37	21689.74
493.54	21605.49
493.72	22192.96
493.90	21755.28
494.08	22419.99
494.25	22525.32
494.43	22534.68
494.61	22642.34
494.79	22621.28
494.96	22466.80
495.14	22665.75
495.32	22670.43
495.49	22878.74
495.67	22892.78
495.85	23197.05
496.02	23681.54
496.20	23370.25
496.38	23583.24
496.55	23601.96
496.73	24201.14
496.91	23946.02
497.09	24058.37
497.26	24168.37
497.44	24107.52
497.62	24081.77
497.79	24395.40
497.97	24226.89
498.14	24634.14
498.32	24816.70
498.50	25076.50
498.67	25310.55
498.85	25092.88
499.03	25500.14
499.20	25301.19
499.38	25282.47
499.56	25303.53
499.73	25626.53
499.91	25546.95
500.08	25713.13
500.26	25619.50
500.44	25364.39
500.61	26153.15
500.79	25916.75
500.97	25804.41
501.14	26279.54
501.32	26333.37
501.49	26628.27
501.67	26246.77
501.84	26679.77
502.02	26813.18
502.20	26693.81
502.37	26904.46
502.55	27058.93
502.72	27351.50
502.90	27461.51
503.07	27243.84
503.25	27541.08
503.43	27431.08
503.60	27704.92
503.78	27424.06
503.95	27239.15
504.13	27868.76
504.30	28048.98
504.48	28105.15
504.65	27995.15
504.83	27917.91
505.01	28292.40
505.18	28259.63
505.36	28627.09
505.53	28166.01
505.71	28922.00
505.88	28903.28
506.06	28278.35
506.23	28790.93
506.41	28610.71
506.58	29064.77
506.76	29137.33
506.93	29326.91
507.11	29034.35
507.28	29244.99
507.46	29244.99
507.63	29039.03
507.81	29237.97
507.98	29537.56
508.16	29640.54
508.33	29528.20
508.50	30043.12
508.68	29900.34
508.85	29961.20
509.03	30073.54
509.20	30043.12
509.38	30359.09
509.55	30256.11
509.73	30305.26
509.90	30775.70
510.08	30153.12
510.25	30600.16
510.42	31035.50
510.60	30817.83
510.77	31030.82
510.95	31065.93
511.12	31047.21
511.30	31049.55
511.47	31365.52
511.64	31168.91
511.82	31339.77
511.99	31456.80
512.17	31655.75
512.34	31515.31
512.51	31655.75
512.69	31754.05
512.86	31594.89
513.04	32196.41
513.21	32456.21
513.38	31957.67
513.56	32095.77
513.73	31594.89
513.90	31948.31
514.08	32343.86
514.25	32397.70
514.43	32613.02
514.60	32500.68
514.77	32348.54
514.95	33184.12
515.12	32575.58
515.29	32758.14
515.47	33216.88
515.64	32914.95
515.81	33130.28
515.99	33029.64
516.16	32872.82
516.33	33500.09
516.51	33165.39
516.68	32442.17
516.85	32350.88
517.03	32737.07
517.20	33120.92
517.37	33394.76
517.54	33310.50
517.72	33247.31
517.89	33198.16
518.06	33289.44
518.24	33039.00
518.41	33624.14
518.58	33479.02
518.75	34155.44
518.93	34246.72
519.10	33972.88
519.27	34408.22
519.45	34560.35
519.62	34668.02
519.79	34651.63
519.96	34639.93
520.14	35302.30
520.31	34171.82
520.48	34759.30
520.65	34316.93
520.83	34927.81
521.00	34955.90
521.17	34991.01
521.34	35026.12
521.52	34810.79
521.69	35454.44
521.86	35309.32
522.03	35089.31
522.20	35608.91
522.38	35374.86
522.55	35878.07
522.72	35840.62
522.89	35821.90
523.07	35880.41
523.24	35711.89
523.41	36229.15
523.58	36301.71
523.75	36404.69
523.92	36109.78
524.10	36414.05
524.27	36208.09
524.44	36692.58
524.61	36402.35
524.78	36921.95
524.96	36772.16
525.13	37120.90
525.30	37205.16
525.47	36957.06
525.64	36945.36
525.81	36629.38
525.98	36980.46
526.16	36524.06
526.33	36526.40
526.50	36884.50
526.67	36472.57
526.84	36968.76
527.01	36708.96
527.18	37020.25
527.36	37226.22
527.53	37415.80
527.70	37710.71
527.87	37830.08
528.04	37614.75
528.21	37811.35
528.38	37668.58
528.55	38045.41
528.72	37940.08
528.89	37748.16
529.07	37893.27
529.24	37820.72
529.41	38071.15
529.58	38082.86
529.75	38059.45
529.92	38036.05
530.09	38150.73
530.26	38258.40
530.43	38522.88
530.60	38405.85
530.77	38646.93
530.94	38443.30
531.11	38511.17
531.28	38644.59
531.46	38855.23
531.63	39103.33
531.80	38614.16
531.97	38712.46
532.14	38609.48
532.31	38424.57
532.48	38934.81
532.65	39040.14
532.82	38651.61
532.99	38775.66
533.16	39108.01
533.33	39014.39
533.50	39501.22
533.67	39367.81
533.84	38888.00
534.01	39159.50
534.18	39505.90
534.35	39405.26
534.52	39203.97
534.69	39620.59
534.86	39578.46
535.03	39519.95
535.20	40100.40
535.37	39955.29
535.54	39966.99
535.71	39765.70
535.88	39945.92
536.05	39796.13
536.22	39887.41
536.38	40088.70
536.55	39852.30
536.72	39880.39
536.89	39789.11
537.06	39952.94
537.23	40006.78
537.40	40446.80
537.57	40566.16
537.74	40954.69
537.91	40643.40
538.08	40484.25
538.25	39936.56
538.42	40664.47
538.59	40676.17
538.75	40065.29
538.92	40369.56
539.09	40708.94
539.26	40664.47
539.43	40348.50
539.60	41017.89
539.77	40687.87
539.94	40935.97
540.11	40720.64
540.28	40669.15
540.44	41045.97
540.61	41055.34
540.78	40563.82
540.95	41031.93
541.12	40786.18
541.29	40893.84
541.46	41401.74
541.62	41336.20
541.79	41415.78
541.96	40886.82
542.13	40987.46
542.30	41261.30
542.47	41738.77
542.63	41294.07
542.80	41661.54
542.97	42026.66
543.14	41682.60
543.31	42122.62
543.48	41762.18
543.64	42354.33
543.81	42457.32
543.98	42363.70
544.15	42204.54
544.32	42534.56
544.48	42534.56
544.65	41818.35
544.82	42157.73
544.99	41963.46
545.16	42244.33
545.32	41972.83
545.49	42717.12
545.66	42426.89
545.83	42412.85
546.00	42787.33
546.16	42539.24
546.33	42529.87
546.50	42129.64
546.67	42660.94
546.83	42340.29
547.00	42333.27
547.17	42291.14
547.34	42366.04
547.50	42330.93
547.67	42815.42
547.84	42508.81
548.00	43021.39
548.17	43002.66
548.34	42644.56
548.51	42986.28
548.67	43491.83
548.84	43313.95
549.01	42990.96
549.18	42677.33
549.34	42981.60
549.51	43540.99
549.68	42925.42
549.84	43328.00
550.01	43189.91
550.18	43538.65
550.34	43047.13
550.51	43606.52
550.68	43391.19
550.84	42808.40
551.01	43276.51
551.18	43814.83
551.34	43463.75
551.51	43253.10
551.68	43924.83
551.84	43807.81
552.01	43557.37
552.18	43271.82
552.34	43297.57
552.51	43786.74
552.68	43805.47
552.84	43971.64
553.01	44053.56
553.18	43917.81
553.34	43840.57
553.51	43627.59
553.67	44222.08
553.84	44217.40
554.01	44081.65
554.17	44245.49
554.34	44147.18
554.51	44088.67
554.67	44385.92
554.84	44437.41
555.00	43999.73
555.17	44062.93
555.33	44226.76
555.50	44320.38
555.67	44158.89
555.83	44245.49
556.00	44491.24
556.16	44500.61
556.33	44264.21
556.50	44348.47
556.66	44378.90
556.83	44516.99
556.99	44385.92
557.16	44299.32
557.32	44708.91
557.49	44711.25
557.65	44325.07
557.82	44165.91
557.98	44072.29
558.15	44299.32
558.32	44767.43
558.48	44580.18
558.65	44697.21
558.81	44184.63
558.98	44346.13
559.14	44360.17
559.31	44240.81
559.47	44535.71
559.64	44371.88
559.80	44589.55
559.97	44940.63
560.13	44964.03
560.30	44540.39
560.46	44648.06
560.63	45226.17
560.79	45312.77
560.96	45537.46
561.12	44835.30
561.29	44802.53
561.45	44870.41
561.61	44594.23
561.78	44788.49
561.94	44814.24
562.11	44811.90
562.27	44893.82
562.44	44676.15
562.60	45148.93
562.77	45146.59
562.93	45333.84
563.10	45148.93
563.26	45057.65
563.42	45249.58
563.59	45043.61
563.75	45130.21
563.92	45366.60
564.08	44933.60
564.24	45429.80
564.41	45020.20
564.57	45469.59
564.74	45272.98
564.90	45610.02
565.07	45223.83
565.23	45240.21
565.39	45429.80
565.56	45352.56
565.72	45008.50
565.88	45530.44
566.05	45371.28
566.21	45528.10
566.38	45221.49
566.54	45633.42
566.70	45790.24
566.87	45705.98
567.03	45270.64
567.19	45806.62
567.36	45581.93
567.52	45413.41
567.68	45296.39
567.85	45464.91
568.01	45544.48
568.17	45226.17
568.34	45453.20
568.50	45851.09
568.66	45043.61
568.83	45432.14
568.99	45574.91
569.15	45310.43
569.32	45308.09
569.48	45610.02
569.64	45551.51
569.81	45977.48
569.97	45689.60
570.13	45474.27
570.30	45195.74
570.46	45345.54
570.62	45120.85
570.78	45193.40
570.95	45120.85
571.11	45729.39
571.27	45457.88
571.43	45102.12
571.60	45743.43
571.76	45429.80
571.92	45333.84
572.09	45411.07
572.25	45715.34
572.41	45532.78
572.57	45397.03
572.74	46024.29
572.90	45879.18
573.06	45764.49
573.22	45305.75
573.38	45296.39
573.55	45404.05
573.71	45736.41
573.87	45530.44
574.03	45581.93
574.20	45563.21
574.36	45532.78
574.52	46036.00
574.68	45247.24
574.84	45675.55
575.01	45645.13
575.17	45420.44
575.33	45216.81
575.49	45504.70
575.65	45715.34
575.82	46061.74
575.98	45277.66
576.14	45862.80
576.30	45696.62
576.46	45177.02
576.62	45904.93
576.79	45605.34
576.95	45249.58
577.11	45633.42
577.27	45722.37
577.43	45661.51
577.59	45848.75
577.75	45427.46
577.92	45280.00
578.08	45673.21
578.24	45567.89
578.40	45872.16
578.56	45670.87
578.72	45797.26
578.88	46047.70
579.04	46089.83
579.21	45745.77
579.37	45750.45
579.53	45123.19
579.69	45223.83
579.85	45972.80
580.01	45698.96
580.17	45507.04
580.33	45893.22
580.49	45530.44
580.65	46054.72
580.82	45448.52
580.98	46148.34
581.14	45413.41
581.30	45593.64
581.46	45722.37
581.62	46251.33
581.78	45834.71
581.94	45998.55
582.10	45963.44
582.26	45890.88
582.42	45638.11
582.58	46213.88
582.74	45460.23
582.90	45492.99
583.06	45961.10
583.22	45668.53
583.38	46431.55
583.54	45888.54
583.70	45949.40
583.86	46150.68
584.02	45375.97
584.18	45993.87
584.34	45745.77
584.50	46036.00
584.66	45996.21
584.82	45904.93
584.98	45598.32
585.14	45649.81
585.30	45621.72
585.46	45509.38
585.62	45610.02
585.78	45867.48
585.94	45558.53
586.10	45933.01
586.26	45495.33
586.42	45827.69
586.58	45876.84
586.74	45897.91
586.90	45890.88
587.06	45750.45
587.22	45734.07
587.38	45492.99
587.54	46117.92
587.70	45570.23
587.86	45780.88
588.02	46356.65
588.18	46052.38
588.34	46024.29
588.49	45993.87
588.65	45567.89
588.81	45600.66
588.97	45804.28
589.13	45621.72
589.29	45542.14
589.45	45911.95
589.61	45911.95
589.77	46094.51
589.93	45947.06
590.08	46248.99
