SpectraSuite Data File
++++++++++++++++++++++++++++++++++++
Date: Fri Oct 25 11:25:08 EDT 2013
User: price-jones
Dark Spectrum Present: No
Reference Spectrum Present: No
Number of Sampled Component Spectra: 1
Spectrometers: USB2+H05261
Integration Time (usec): 100000 (USB2+H05261)
Spectra Averaged: 1 (USB2+H05261)
Boxcar Smoothing: 0 (USB2+H05261)
Correct for Electrical Dark: No (USB2+H05261)
Strobe/Lamp Enabled: No (USB2+H05261)
Correct for Detector Non-linearity: No (USB2+H05261)
Correct for Stray Light: No (USB2+H05261)
Number of Pixels in Processed Spectrum: 2048
>>>>>Begin Processed Spectral Data<<<<<
365.73	212.99
365.92	212.99
366.12	212.99
366.32	133.41
366.52	107.66
366.72	133.41
366.91	105.32
367.11	72.56
367.31	107.66
367.51	110.01
367.70	114.69
367.90	154.48
368.10	142.77
368.30	142.77
368.49	79.58
368.69	287.89
368.89	152.13
369.09	77.24
369.28	163.84
369.48	175.54
369.68	138.09
369.87	241.08
370.07	243.42
370.27	278.52
370.47	337.04
370.66	629.60
370.86	564.07
371.06	657.69
371.25	704.50
371.45	615.56
371.65	683.44
371.84	603.86
372.04	653.01
372.24	676.41
372.44	690.46
372.63	688.12
372.83	791.10
373.03	681.10
373.22	711.52
373.42	760.67
373.62	868.34
373.81	770.04
374.01	753.65
374.21	798.12
374.40	807.48
374.60	849.61
374.79	828.55
374.99	889.40
375.19	835.57
375.38	887.06
375.58	880.04
375.78	875.36
375.97	870.68
376.17	863.66
376.37	823.87
376.56	919.83
376.76	835.57
376.95	889.40
377.15	882.38
377.35	917.49
377.54	908.13
377.74	889.40
377.93	964.30
378.13	922.17
378.33	905.79
378.52	940.90
378.72	938.55
378.91	1036.86
379.11	964.30
379.31	891.74
379.50	938.55
379.70	992.39
379.89	1025.15
380.09	844.93
380.28	938.55
380.48	1057.92
380.68	990.05
380.87	976.00
381.07	1060.26
381.26	1097.71
381.46	1006.43
381.65	1046.22
381.85	1029.84
382.04	983.02
382.24	1081.33
382.43	1055.58
382.63	1020.47
382.83	1214.74
383.02	1081.33
383.22	1116.44
383.41	990.05
383.61	1104.73
383.80	1097.71
384.00	1158.57
384.19	1160.91
384.39	1069.62
384.58	1116.44
384.78	1188.99
384.97	1128.14
385.17	1163.25
385.36	1116.44
385.56	1123.46
385.75	1062.60
385.95	1128.14
386.14	1203.04
386.34	1128.14
386.53	1191.33
386.72	1181.97
386.92	1228.78
387.11	1200.69
387.31	1341.13
387.50	1165.59
387.70	1214.74
387.89	1266.23
388.09	1221.76
388.28	1212.40
388.48	1207.72
388.67	1310.70
388.86	1336.45
389.06	1252.19
389.25	1261.55
389.45	1350.49
389.64	1296.66
389.84	1348.15
390.03	1401.98
390.22	1357.51
390.42	1413.68
390.61	1427.73
390.81	1458.15
391.00	1324.74
391.19	1469.86
391.39	1348.15
391.58	1465.18
391.78	1493.26
391.97	1441.77
392.16	1479.22
392.36	1533.05
392.55	1385.60
392.75	1507.30
392.94	1504.96
393.13	1511.99
393.33	1540.07
393.52	1605.61
393.71	1603.27
393.91	1682.85
394.10	1584.54
394.29	1680.50
394.49	1577.52
394.68	1523.69
394.88	1572.84
395.07	1617.31
395.26	1612.63
395.46	1624.33
395.65	1654.76
395.84	1699.23
396.04	1823.28
396.23	1834.98
396.42	1692.21
396.62	1753.06
396.81	1750.72
397.00	1820.94
397.19	1790.51
397.39	1851.36
397.58	1813.92
397.77	1799.87
397.97	1837.32
398.16	1783.49
398.35	1902.86
398.55	1888.81
398.74	1781.15
398.93	1916.90
399.12	1926.26
399.32	1909.88
399.51	1912.22
399.70	2015.20
399.90	1867.75
400.09	1909.88
400.28	2038.61
400.47	2129.89
400.67	2026.90
400.86	2080.74
401.05	2015.20
401.24	2050.31
401.44	2141.59
401.63	2167.34
401.82	2064.35
402.01	2078.40
402.21	2146.27
402.40	2169.68
402.59	2141.59
402.78	2225.85
402.97	2275.00
403.17	2277.34
403.36	2237.55
403.55	2298.41
403.74	2392.03
403.93	2282.02
404.13	2256.28
404.32	2335.85
404.51	2408.41
404.70	2429.48
404.89	2406.07
405.09	2424.80
405.28	2452.88
405.47	2520.76
405.66	2511.39
405.85	2539.48
406.05	2375.64
406.24	2553.52
406.43	2502.03
406.62	2626.08
406.81	2628.42
407.00	2576.93
407.20	2469.27
407.39	2558.21
407.58	2691.62
407.77	2684.59
407.96	2700.98
408.15	2698.64
408.34	2656.51
408.54	2803.96
408.73	2743.11
408.92	2871.84
409.11	2963.12
409.30	2963.12
409.49	2932.69
409.68	2977.16
409.87	2897.58
410.07	2993.55
410.26	3052.06
410.45	2911.63
410.64	2991.20
410.83	3042.70
411.02	3096.53
411.21	3192.49
411.40	3162.06
411.59	3201.85
411.78	3241.64
411.98	3126.96
412.17	3194.83
412.36	3351.65
412.55	3276.75
412.74	3353.99
412.93	3370.37
413.12	3279.09
413.31	3543.57
413.50	3419.52
413.69	3351.65
413.88	3555.27
414.07	3566.98
414.26	3646.55
414.45	3651.24
414.64	3590.38
414.83	3693.37
415.02	3740.18
415.22	3850.18
415.41	3885.29
415.60	3875.93
415.79	3833.80
415.98	4081.89
416.17	4007.00
416.36	3803.37
416.55	3936.78
416.74	4021.04
416.93	4065.51
417.12	4168.49
417.31	4100.62
417.50	4156.79
417.69	4198.92
417.88	4227.01
418.07	4397.87
418.26	4294.88
418.45	4374.46
418.64	4365.10
418.83	4372.12
419.02	4337.01
419.21	4432.97
419.39	4266.80
419.58	4472.76
419.77	4346.37
419.96	4402.55
420.15	4676.39
420.34	4617.88
420.53	4606.17
420.72	4655.33
420.91	4676.39
421.10	4730.22
421.29	4645.96
421.48	4629.58
421.67	4711.50
421.86	4901.08
422.05	4645.96
422.24	4849.59
422.43	4805.12
422.61	4894.06
422.80	4917.47
422.99	4816.82
423.18	4915.12
423.37	4957.25
423.56	5011.09
423.75	4957.25
423.94	4975.98
424.13	4622.56
424.32	4716.18
424.50	4896.40
424.69	5071.94
424.88	5085.98
425.07	5011.09
425.26	4812.14
425.45	4882.36
425.64	4912.78
425.83	4856.61
426.01	4975.98
426.20	5020.45
426.39	4959.60
426.58	5100.03
426.77	5055.56
426.96	5130.45
427.15	5111.73
427.33	5125.77
427.52	5135.14
427.71	5303.65
427.90	5172.58
428.09	5317.70
428.28	5298.97
428.46	5331.74
428.65	5313.02
428.84	5455.79
429.03	5563.45
429.22	5291.95
429.40	5380.89
429.59	5605.58
429.78	5359.83
429.97	5305.99
430.16	5448.77
430.34	5530.69
430.53	5577.50
430.72	5685.16
430.91	5626.65
431.10	5717.93
431.28	5877.09
431.47	5830.27
431.66	5696.86
431.85	5717.93
432.03	5912.19
432.22	6087.73
432.41	5884.11
432.60	6176.67
432.79	6071.35
432.97	5895.81
433.16	5970.71
433.35	6019.86
433.54	6080.71
433.72	6239.87
433.91	6139.23
434.10	6092.41
434.28	6010.50
434.47	6179.01
434.66	6235.19
434.85	6204.76
435.03	6230.51
435.22	6321.79
435.41	6408.39
435.59	6284.34
435.78	6490.31
435.97	6450.52
436.16	6237.53
436.34	6534.78
436.53	6384.98
436.72	6752.45
436.90	6413.07
437.09	6490.31
437.28	6427.11
437.46	6422.43
437.65	6546.48
437.84	6764.15
438.02	6752.45
438.21	6616.69
438.40	6607.33
438.58	7014.59
438.77	7129.27
438.96	6963.09
439.14	7103.53
439.33	7187.79
439.52	6984.16
439.70	7218.21
439.89	7377.37
440.08	7274.38
440.26	7321.20
440.45	7178.42
440.63	7503.76
440.82	7850.16
441.01	7368.01
441.19	7768.24
441.38	7644.19
441.57	7571.63
441.75	7569.29
441.94	7896.97
442.12	7868.88
442.31	7990.59
442.50	7882.92
442.68	7894.63
442.87	8032.72
443.05	8105.28
443.24	8180.17
443.43	7929.74
443.61	8128.68
443.80	8327.63
443.98	8154.43
444.17	7765.90
444.35	8119.32
444.54	8311.24
444.73	8205.92
444.91	8383.80
445.10	8250.39
445.28	8299.54
445.47	8152.09
445.65	8147.40
445.84	8191.88
446.02	8432.95
446.21	8437.63
446.39	8376.78
446.58	8535.93
446.77	8311.24
446.95	8224.64
447.14	8329.97
447.32	8416.57
447.51	8449.33
447.69	8442.31
447.88	8479.76
448.06	8571.04
448.25	8470.40
448.43	8585.08
448.62	8552.32
448.80	8388.48
448.99	8512.53
449.17	8634.24
449.36	8531.25
449.54	8851.91
449.73	8870.63
449.91	8978.30
450.10	8926.80
450.28	9029.79
450.46	9025.11
450.65	8910.42
450.83	9202.99
451.02	9029.79
451.20	9046.17
451.39	9081.28
451.57	9083.62
451.76	9036.81
451.94	8964.25
452.13	9282.56
452.31	9338.74
452.49	9137.45
452.68	9420.66
452.86	9364.48
453.05	9331.72
453.23	9483.85
453.42	9235.75
453.60	9343.42
453.78	9600.88
453.97	9198.31
454.15	9369.16
454.34	9296.61
454.52	9706.20
454.70	9364.48
454.89	9668.75
455.07	9851.31
455.26	9867.70
455.44	9982.38
455.62	10073.67
455.81	9872.38
455.99	9905.15
456.17	10005.79
456.36	9928.55
456.54	10038.56
456.73	10155.58
456.91	10583.90
457.09	10513.69
457.28	10539.43
457.46	10345.17
457.64	10450.49
457.83	10434.11
458.01	10249.21
458.19	10583.90
458.38	10483.26
458.56	10752.42
458.74	10822.64
458.93	10342.83
459.11	10719.65
459.29	10705.61
459.48	10677.52
459.66	10597.95
459.84	10633.05
460.03	10967.75
460.21	10932.64
460.39	10855.40
460.57	10899.87
460.76	11325.85
460.94	11019.24
461.12	11089.46
461.31	11152.65
461.49	11096.48
461.67	10946.69
461.85	11566.93
462.04	11192.44
462.22	11896.94
462.40	11520.12
462.59	11438.20
462.77	11246.27
462.95	11548.20
463.13	11452.24
463.32	11307.13
463.50	11564.59
463.68	11630.12
463.86	11871.20
464.05	11651.19
464.23	11658.21
464.41	11871.20
464.59	11693.32
464.78	12037.38
464.96	11957.80
465.14	11681.61
465.32	11922.69
465.50	12156.74
465.69	12217.60
465.87	12079.50
466.05	12126.32
466.23	12138.02
466.41	11981.20
466.60	12243.34
466.78	12203.55
466.96	12093.55
467.14	12166.10
467.32	12264.41
467.51	12381.43
467.69	12035.03
467.87	12362.71
468.05	12620.17
468.23	12329.94
468.41	12400.16
468.60	12641.23
468.78	12723.15
468.96	12526.55
469.14	12762.94
469.32	13057.85
469.50	12603.78
469.69	12896.35
469.87	12854.22
470.05	12865.92
470.23	13004.02
470.41	13142.11
470.59	13130.41
470.77	13062.53
470.95	13268.50
471.14	13350.42
471.32	13067.21
471.50	13525.96
471.68	13455.74
471.86	13736.60
472.04	13439.36
472.22	13703.84
472.40	13699.16
472.58	13792.78
472.77	13752.99
472.95	13947.25
473.13	14403.66
473.31	14026.83
473.49	14155.56
473.67	13933.21
473.85	14087.68
474.03	14595.58
474.21	14604.94
474.39	14335.78
474.57	14548.77
474.75	14736.01
474.93	14841.34
475.12	14731.33
475.30	15122.20
475.48	15049.64
475.66	15094.11
475.84	14874.10
476.02	15421.79
476.20	15173.69
476.38	15480.30
476.56	16030.33
476.74	15803.30
476.92	15782.23
477.10	15868.83
477.28	15955.43
477.46	15936.71
477.64	16259.70
477.82	16109.91
478.00	16578.01
478.18	16519.50
478.36	16915.05
478.54	17062.51
478.72	17064.85
478.90	16819.09
479.08	17486.14
479.26	17640.62
479.44	17642.96
479.62	17942.55
479.80	17987.02
479.98	18338.10
480.16	18518.32
480.34	18078.30
480.52	18356.82
480.70	18530.02
480.88	18235.11
481.06	18801.52
481.24	18787.48
481.41	18794.50
481.59	19435.81
481.77	19381.98
481.95	19407.72
482.13	19358.57
482.31	19342.19
482.49	20280.74
482.67	19922.64
482.85	20467.98
483.03	20348.62
483.21	20505.43
483.39	20826.09
483.57	20671.61
483.74	21095.25
483.92	21205.25
484.10	20893.96
484.28	21575.06
484.46	21649.96
484.64	22230.41
484.82	21724.85
485.00	22223.39
485.18	22525.32
485.35	22738.30
485.53	22824.90
485.71	22944.27
485.89	23199.39
486.07	23255.56
486.25	23311.74
486.43	23321.10
486.61	23452.17
486.78	23770.48
486.96	24252.63
487.14	24489.03
487.32	24465.62
487.50	24652.86
487.68	24802.66
487.85	25001.60
488.03	25462.69
488.21	25647.59
488.39	25645.25
488.57	25912.07
488.75	25902.71
488.92	26590.83
489.10	26663.38
489.28	26827.22
489.46	27105.74
489.64	27019.14
489.81	27534.06
489.99	27480.23
490.17	27522.36
490.35	28100.47
490.53	28018.55
490.70	28166.01
490.88	28460.91
491.06	28489.00
491.24	29022.64
491.41	28811.99
491.59	29001.58
491.77	29465.00
491.95	29750.55
492.13	29575.01
492.30	29876.94
492.48	29811.40
492.66	29998.65
492.84	30354.41
493.01	30394.20
493.19	30433.99
493.37	31243.81
493.54	30766.34
493.72	31103.38
493.90	31431.05
494.08	31725.96
494.25	32154.28
494.43	31655.75
494.61	31957.67
494.79	32421.10
494.96	32327.48
495.14	32858.78
495.32	32968.79
495.49	32971.13
495.67	33668.61
495.85	33291.78
496.02	33535.20
496.20	33479.02
496.38	33923.72
496.55	34211.61
496.73	34672.70
496.91	34892.71
497.09	34455.03
497.26	35138.46
497.44	34829.51
497.62	35171.23
497.79	35576.14
497.97	35026.12
498.14	35498.91
498.32	35976.37
498.50	35845.30
498.67	36428.10
498.85	36077.02
499.03	36453.84
499.20	36905.57
499.38	36472.57
499.56	36605.98
499.73	37174.73
499.91	37193.45
500.08	37205.16
500.26	36893.86
500.44	37549.21
500.61	37645.18
500.79	37401.76
500.97	37912.00
501.14	38452.66
501.32	38586.07
501.49	38181.16
501.67	38452.66
501.84	38838.85
502.02	38471.39
502.20	39068.22
502.37	39054.18
502.55	38707.78
502.72	39222.70
502.90	39578.46
503.07	39454.41
503.25	39754.00
503.43	39309.30
503.60	39819.53
503.78	40318.07
503.95	39990.39
504.13	40208.06
504.30	40701.92
504.48	40325.09
504.65	40360.20
504.83	40872.78
505.01	40919.59
505.18	41083.42
505.36	41525.78
505.53	41406.42
505.71	41298.75
505.88	41502.38
506.06	41617.07
506.23	41593.66
506.41	41415.78
506.58	41956.44
506.76	42300.50
506.93	42117.94
507.11	41717.71
507.28	42206.88
507.46	42660.94
507.63	42696.05
507.81	43044.79
507.98	42852.87
508.16	42408.17
508.33	43124.37
508.50	43552.69
508.68	43360.76
508.85	43590.14
509.03	43590.14
509.20	43966.96
509.38	44154.21
509.55	43938.88
509.73	44147.18
509.90	44252.51
510.08	44554.44
510.25	44634.02
510.42	44708.91
510.60	44570.82
510.77	45123.19
510.95	45085.74
511.12	44636.36
511.30	44839.98
511.47	45687.26
511.64	45382.99
511.82	45684.92
511.99	45294.05
512.17	45687.26
512.34	45694.28
512.51	45928.33
512.69	46274.73
512.86	46485.38
513.04	46513.47
513.21	46351.97
513.38	46286.43
513.56	46326.22
513.73	46806.03
513.90	46859.87
514.08	46948.81
514.25	46899.65
514.43	47510.53
514.60	47138.39
514.77	47510.53
514.95	47592.45
515.12	47604.16
515.29	47241.37
515.47	47779.70
515.64	48013.75
515.81	47749.27
515.99	48027.79
516.16	48428.02
516.33	47749.27
516.51	48626.97
516.68	48395.26
516.85	48296.95
517.03	49209.76
517.20	48868.05
517.37	48655.06
517.54	48404.62
517.72	48687.82
517.89	49310.41
518.06	48919.54
518.24	48861.02
518.41	49186.36
518.58	49090.40
518.75	48846.98
518.93	49235.51
519.10	49284.66
519.27	49450.84
519.45	49282.32
519.62	49855.75
519.79	49902.56
519.96	49764.47
520.14	49947.03
520.31	49682.55
520.48	50358.97
520.65	50014.91
520.83	50515.78
521.00	50494.72
521.17	50305.13
521.34	50389.39
521.52	50857.50
521.69	50752.18
521.86	50738.13
522.03	50901.97
522.20	51241.35
522.38	50930.06
522.55	50997.93
522.72	51098.58
522.89	51391.14
523.07	51552.64
523.24	51117.30
523.41	51365.40
523.58	51114.96
523.75	51660.30
523.92	51756.27
524.10	51906.06
524.27	51936.49
524.44	52088.62
524.61	51903.72
524.78	51819.46
524.96	52219.69
525.13	51999.68
525.30	52055.85
525.47	52219.69
525.64	52179.90
525.81	52463.11
525.98	52683.12
526.16	52296.93
526.33	52465.45
526.50	52762.70
526.67	52748.65
526.84	52741.63
527.01	52626.95
527.18	52903.13
527.36	53020.16
527.53	53050.58
527.70	53373.58
527.87	53418.05
528.04	52978.03
528.21	53319.74
528.38	52942.92
528.55	53570.18
528.72	53045.90
528.89	53289.32
529.07	52861.00
529.24	53373.58
529.41	53387.62
529.58	53492.94
529.75	53427.41
529.92	53638.06
530.09	53600.61
530.26	53708.27
530.43	53858.07
530.60	53832.32
530.77	53921.26
530.94	53855.73
531.11	54014.88
531.28	53986.80
531.46	54195.10
531.63	54403.41
531.80	54005.52
531.97	53717.64
532.14	54150.63
532.31	54302.77
532.48	54183.40
532.65	54546.18
532.82	54354.26
532.99	54499.37
533.16	54452.56
533.33	54693.64
533.50	55023.65
533.67	54628.10
533.84	54431.50
534.01	54773.22
534.18	54805.98
534.35	54967.48
534.52	54894.92
534.69	54920.67
534.86	55145.36
535.03	54894.92
535.20	55238.98
535.37	55107.91
535.54	55257.71
535.71	55201.53
535.88	55224.94
536.05	55002.59
536.22	55505.80
536.38	55437.93
536.55	55409.84
536.72	55325.58
536.89	55068.12
537.06	55274.09
537.23	55543.25
537.40	55599.43
537.57	55613.47
537.74	55604.11
537.91	55821.78
538.08	55721.13
538.25	55709.43
538.42	55856.88
538.59	55945.83
538.75	55683.69
538.92	55847.52
539.09	56133.07
539.26	55784.33
539.43	56034.77
539.60	56294.56
539.77	56278.18
539.94	56261.80
540.11	56177.54
540.28	56423.29
540.44	56044.13
540.61	56123.71
540.78	56203.28
540.95	56545.00
541.12	56219.67
541.29	56470.11
541.46	56273.50
541.62	56427.98
541.79	56683.09
541.96	56430.32
542.13	56442.02
542.30	56516.92
542.47	56884.38
542.63	56617.56
542.80	56868.00
542.97	56949.92
543.14	56893.74
543.31	57050.56
543.48	57251.84
543.64	57118.43
543.81	57169.93
543.98	57120.77
544.15	57193.33
544.32	57223.76
544.48	57455.47
544.65	56942.89
544.82	57483.56
544.99	57001.41
545.16	57453.13
545.32	57319.72
545.49	57645.05
545.66	57628.67
545.83	57457.81
546.00	57441.43
546.16	57542.07
546.33	57691.86
546.50	57176.95
546.67	57848.68
546.83	57415.68
547.00	57504.62
547.17	57396.96
547.34	57663.78
547.50	57684.84
547.67	58068.69
547.84	57954.00
548.00	58024.22
548.17	58092.10
548.34	57860.38
548.51	58035.92
548.67	57813.57
548.84	57939.96
549.01	57862.72
549.18	57874.43
549.34	58344.87
549.51	58309.77
549.68	58115.50
549.84	58316.79
550.01	58237.21
550.18	58092.10
550.34	58307.43
550.51	58319.13
550.68	58454.88
550.84	57975.07
551.01	58405.73
551.18	58223.17
551.34	58440.84
551.51	58429.13
551.68	58314.45
551.84	58391.68
552.01	58513.39
552.18	58628.08
552.34	58372.96
552.51	58618.72
552.68	58450.20
552.84	58599.99
553.01	58740.42
553.18	58997.88
553.34	58777.87
553.51	58569.57
553.67	58731.06
553.84	58857.45
554.01	58941.71
554.17	58789.58
554.34	58782.55
554.51	58707.66
554.67	58812.98
554.84	58714.68
555.00	58770.85
555.17	58829.37
555.33	58983.84
555.50	58710.00
555.67	58820.00
555.83	59224.92
556.00	59082.14
556.16	59288.11
556.33	59334.92
556.50	59243.64
556.66	59292.79
556.83	58864.47
556.99	59271.73
557.16	59384.07
557.32	59451.95
557.49	59302.15
557.65	59119.59
557.82	59248.32
557.98	59084.48
558.15	59250.66
558.32	59442.59
558.48	59498.76
558.65	59414.50
558.81	59489.40
558.98	59487.06
559.14	59470.67
559.31	59489.40
559.47	59674.30
559.64	59777.28
559.80	59496.42
559.97	59419.18
560.13	59538.55
560.30	59365.35
560.46	59639.19
560.63	59604.08
560.79	59501.10
560.96	59643.87
561.12	59629.83
561.29	59760.90
561.45	59938.78
561.61	59959.84
561.78	59709.41
561.94	59618.13
562.11	59700.04
562.27	59786.64
562.44	59971.55
562.60	59845.16
562.77	59852.18
562.93	59742.17
563.10	59917.71
563.26	59760.90
563.42	60030.06
563.59	59796.01
563.75	59793.67
563.92	60041.76
564.08	59674.30
564.24	60069.85
564.41	59749.20
564.57	60097.94
564.74	60004.31
564.90	60072.19
565.07	59913.03
565.23	59976.23
565.39	60149.43
565.56	60247.73
565.72	60179.85
565.88	59959.84
566.05	59845.16
566.21	59840.48
566.38	60044.10
566.54	60196.24
566.70	60212.62
566.87	60111.98
567.03	60048.78
567.19	60449.02
567.36	60130.70
567.52	60065.17
567.68	60385.82
567.85	60231.35
568.01	60177.51
568.17	60011.34
568.34	60252.41
568.50	60460.72
568.66	60243.05
568.83	60179.85
568.99	60317.95
569.15	60135.38
569.32	60229.01
569.48	60041.76
569.64	60331.99
569.81	60425.61
569.97	60175.17
570.13	60315.61
570.30	60065.17
570.46	60437.31
570.62	60516.89
570.78	60390.50
570.95	60339.01
571.11	60427.95
571.27	60308.58
571.43	60371.78
571.60	60486.46
571.76	60481.78
571.92	60488.80
572.09	60458.38
572.25	60236.03
572.41	60481.78
572.57	60423.27
572.74	60561.36
572.90	60654.98
573.06	60662.00
573.22	60355.39
573.38	60350.71
573.55	60446.68
573.71	60657.32
573.87	60458.38
574.03	60301.56
574.20	60762.65
574.36	60573.06
574.52	60664.35
574.68	60563.70
574.84	60383.48
575.01	60734.56
575.17	60612.85
575.33	60687.75
575.49	60467.74
575.65	60601.15
575.82	60680.73
575.98	60542.64
576.14	60828.18
576.30	60673.71
576.46	60523.91
576.62	60449.02
576.79	60692.43
576.95	60687.75
577.11	60783.71
577.27	60715.84
577.43	60596.47
577.59	60636.26
577.75	60507.53
577.92	60575.40
578.08	60678.39
578.24	60666.69
578.40	60921.80
578.56	60823.50
578.72	60741.58
578.88	60996.70
579.04	61055.21
579.21	60659.66
579.37	60846.91
579.53	60772.01
579.69	60566.04
579.85	60673.71
580.01	60722.86
580.17	60699.45
580.33	60924.14
580.49	60830.52
580.65	60734.56
580.82	60669.03
580.98	60622.22
581.14	60793.07
581.30	60931.17
581.46	60552.00
581.62	60776.69
581.78	60825.84
581.94	60963.93
582.10	60711.16
582.26	60821.16
582.42	60818.82
582.58	60755.63
582.74	60814.14
582.90	60851.59
583.06	60802.44
583.22	60652.64
583.38	60811.80
583.54	60725.20
583.70	60640.94
583.86	60949.89
584.02	60839.89
584.18	60924.14
584.34	60807.12
584.50	60701.79
584.66	60687.75
584.82	60692.43
584.98	61146.50
585.14	61052.87
585.30	60603.49
585.46	60935.85
585.62	60842.23
585.78	61099.68
585.94	60601.15
586.10	60860.95
586.26	61055.21
586.42	60977.98
586.58	61111.39
586.74	60851.59
586.90	60853.93
587.06	60851.59
587.22	61022.45
587.38	61052.87
587.54	60856.27
587.70	61080.96
587.86	60982.66
588.02	61043.51
588.18	61099.68
588.34	60863.29
588.49	60673.71
