SpectraSuite Data File
++++++++++++++++++++++++++++++++++++
Date: Fri Oct 25 11:25:14 EDT 2013
User: price-jones
Dark Spectrum Present: No
Reference Spectrum Present: No
Number of Sampled Component Spectra: 1
Spectrometers: USB2+H05261
Integration Time (usec): 100000 (USB2+H05261)
Spectra Averaged: 1 (USB2+H05261)
Boxcar Smoothing: 0 (USB2+H05261)
Correct for Electrical Dark: No (USB2+H05261)
Strobe/Lamp Enabled: No (USB2+H05261)
Correct for Detector Non-linearity: No (USB2+H05261)
Correct for Stray Light: No (USB2+H05261)
Number of Pixels in Processed Spectrum: 2048
>>>>>Begin Processed Spectral Data<<<<<
365.73	215.33
365.92	215.33
366.12	215.33
366.32	126.39
366.52	135.75
366.72	224.69
366.91	140.43
367.11	163.84
367.31	156.82
367.51	182.56
367.70	149.79
367.90	93.62
368.10	152.13
368.30	201.29
368.49	105.32
368.69	170.86
368.89	201.29
369.09	149.79
369.28	166.18
369.48	112.35
369.68	212.99
369.87	184.90
370.07	224.69
370.27	341.72
370.47	304.27
370.66	580.45
370.86	688.12
371.06	730.25
371.25	748.97
371.45	601.52
371.65	751.31
371.84	690.46
372.04	711.52
372.24	718.54
372.44	758.33
372.63	732.59
372.83	709.18
373.03	723.23
373.22	795.78
373.42	826.21
373.62	755.99
373.81	805.14
374.01	779.40
374.21	737.27
374.40	784.08
374.60	753.65
374.79	837.91
374.99	849.61
375.19	858.98
375.38	816.85
375.58	863.66
375.78	924.51
375.97	912.81
376.17	947.92
376.37	816.85
376.56	908.13
376.76	943.24
376.95	908.13
377.15	861.32
377.35	938.55
377.54	866.00
377.74	922.17
377.93	936.21
378.13	887.06
378.33	997.07
378.52	999.41
378.72	889.40
378.91	994.73
379.11	896.43
379.31	896.43
379.50	870.68
379.70	1057.92
379.89	910.47
380.09	905.79
380.28	964.30
380.48	952.60
380.68	933.87
380.87	931.53
381.07	992.39
381.26	947.92
381.46	898.77
381.65	1090.69
381.85	1046.22
382.04	1029.84
382.24	1125.80
382.43	1020.47
382.63	1043.88
382.83	1114.10
383.02	1090.69
383.22	1116.44
383.41	1109.41
383.61	1048.56
383.80	1107.07
384.00	1151.54
384.19	1121.12
384.39	1114.10
384.58	1118.78
384.78	1107.07
384.97	1118.78
385.17	1188.99
385.36	1107.07
385.56	1160.91
385.75	1205.38
385.95	1146.86
386.14	1259.21
386.34	1198.35
386.53	1172.61
386.72	1128.14
386.92	1179.63
387.11	1139.84
387.31	1254.53
387.50	1186.65
387.70	1238.14
387.89	1210.06
388.09	1221.76
388.28	1191.33
388.48	1238.14
388.67	1245.16
388.86	1268.57
389.06	1299.00
389.25	1249.85
389.45	1315.38
389.64	1343.47
389.84	1378.58
390.03	1380.92
390.22	1401.98
390.42	1313.04
390.61	1322.40
390.81	1369.21
391.00	1270.91
391.19	1511.99
391.39	1416.02
391.58	1359.85
391.78	1362.19
391.97	1458.15
392.16	1465.18
392.36	1657.10
392.55	1448.79
392.75	1537.73
392.94	1493.26
393.13	1486.24
393.33	1479.22
393.52	1542.41
393.71	1598.59
393.91	1605.61
394.10	1582.20
394.29	1668.80
394.49	1607.95
394.68	1638.38
394.88	1631.35
395.07	1701.57
395.26	1661.78
395.46	1645.40
395.65	1708.59
395.84	1645.40
396.04	1811.57
396.23	1750.72
396.42	1792.85
396.62	1753.06
396.81	1790.51
397.00	1788.17
397.19	1664.12
397.39	1769.44
397.58	1776.47
397.77	1729.66
397.97	1849.02
398.16	1736.68
398.35	1804.55
398.55	1753.06
398.74	1849.02
398.93	1905.20
399.12	1923.92
399.32	1980.09
399.51	1877.11
399.70	2031.58
399.90	1930.94
400.09	2012.86
400.28	2005.84
400.47	2019.88
400.67	2136.91
400.86	2092.44
401.05	1940.30
401.24	2092.44
401.44	2106.48
401.63	2174.36
401.82	2218.83
402.01	2108.82
402.21	2099.46
402.40	1975.41
402.59	2207.13
402.78	2209.47
402.97	2225.85
403.17	2298.41
403.36	2267.98
403.55	2253.94
403.74	2340.54
403.93	2434.16
404.13	2321.81
404.32	2389.69
404.51	2310.11
404.70	2317.13
404.89	2347.56
405.09	2413.09
405.28	2392.03
405.47	2457.56
405.66	2480.97
405.85	2476.29
406.05	2399.05
406.24	2562.89
406.43	2520.76
406.62	2658.85
406.81	2642.46
407.00	2562.89
407.20	2469.27
407.39	2548.84
407.58	2740.77
407.77	2708.00
407.96	2661.19
408.15	2677.57
408.34	2733.75
408.54	2806.30
408.73	2738.43
408.92	2686.94
409.11	2813.32
409.30	2808.64
409.49	2899.92
409.68	2832.05
409.87	2724.38
410.07	2913.97
410.26	2916.31
410.45	2892.90
410.64	3133.98
410.83	3049.72
411.02	3035.67
411.21	3194.83
411.40	3166.74
411.59	3094.19
411.78	3155.04
411.98	3124.62
412.17	3215.90
412.36	3393.78
412.55	3396.12
412.74	3403.14
412.93	3379.73
413.12	3377.39
413.31	3407.82
413.50	3538.89
413.69	3499.10
413.88	3463.99
414.07	3592.72
414.26	3559.95
414.45	3639.53
414.64	3513.14
414.83	3728.47
415.02	3744.86
415.22	3943.80
415.41	3838.48
415.60	3904.01
415.79	3894.65
415.98	3840.82
416.17	3911.04
416.36	3969.55
416.55	3941.46
416.74	4058.49
416.93	4086.58
417.12	3955.51
417.31	4128.70
417.50	4126.36
417.69	4318.29
417.88	4276.16
418.07	4231.69
418.26	4318.29
418.45	4255.09
418.64	4430.63
418.83	4470.42
419.02	4325.31
419.21	4540.64
419.39	4416.59
419.58	4362.76
419.77	4252.75
419.96	4451.70
420.15	4542.98
420.34	4596.81
420.53	4608.51
420.72	4550.00
420.91	4582.77
421.10	4585.11
421.29	4851.93
421.48	4664.69
421.67	4887.04
421.86	4704.48
422.05	4697.46
422.24	4674.05
422.43	4739.58
422.61	4770.01
422.80	4863.63
422.99	4891.72
423.18	4961.94
423.37	4964.28
423.56	4943.21
423.75	4858.95
423.94	4957.25
424.13	4571.07
424.32	4779.37
424.50	4861.29
424.69	4954.91
424.88	4933.85
425.07	4936.19
425.26	4917.47
425.45	4940.87
425.64	4898.74
425.83	4844.91
426.01	4983.00
426.20	5001.72
426.39	4910.44
426.58	5027.47
426.77	4997.04
426.96	5177.26
427.15	5081.30
427.33	5179.61
427.52	4968.96
427.71	5275.57
427.90	5224.08
428.09	5203.01
428.28	5355.15
428.46	5317.70
428.65	5254.50
428.84	5542.39
429.03	5479.19
429.22	5210.03
429.40	5397.28
429.59	5448.77
429.78	5385.57
429.97	5167.90
430.16	5268.55
430.34	5511.96
430.53	5715.59
430.72	5596.22
430.91	5600.90
431.10	5619.63
431.28	5540.05
431.47	5741.33
431.66	5659.42
431.85	5825.59
432.03	5703.89
432.22	5827.93
432.41	5877.09
432.60	5844.32
432.79	6001.13
432.97	5877.09
433.16	5898.15
433.35	6092.41
433.54	5961.34
433.72	6040.92
433.91	6230.51
434.10	6174.33
434.28	6132.20
434.47	5994.11
434.66	6237.53
434.85	6291.36
435.03	6370.94
435.22	6310.08
435.41	6181.35
435.59	6211.78
435.78	6436.47
435.97	6424.77
436.16	6326.47
436.34	6377.96
436.53	6417.75
436.72	6490.31
436.90	6443.49
437.09	6279.66
437.28	6511.37
437.46	6483.28
437.65	6612.01
437.84	6693.93
438.02	6703.29
438.21	6647.12
438.40	6572.22
438.58	6974.80
438.77	6965.43
438.96	6799.26
439.14	6988.84
439.33	7014.59
439.52	7145.66
439.70	7286.09
439.89	7150.34
440.08	7220.55
440.26	7250.98
440.45	7150.34
440.63	7550.57
440.82	7733.13
441.01	7424.18
441.19	7564.61
441.38	7548.23
441.57	7576.31
441.75	7838.45
441.94	7730.79
442.12	7967.18
442.31	7992.93
442.50	7985.91
442.68	7854.84
442.87	7960.16
443.05	8269.11
443.24	8156.77
443.43	8081.87
443.61	8189.53
443.80	8177.83
443.98	7941.44
444.17	7641.85
444.35	8196.56
444.54	8325.29
444.73	8264.43
444.91	8278.47
445.10	8226.98
445.28	8285.50
445.47	8163.79
445.65	8252.73
445.84	8341.67
446.02	8418.91
446.21	8255.07
446.39	8367.42
446.58	8634.24
446.77	8472.74
446.95	8308.90
447.14	8163.79
447.32	8638.92
447.51	8475.08
447.69	8320.60
447.88	8463.38
448.06	8528.91
448.25	8393.16
448.43	8472.74
448.62	8472.74
448.80	8533.59
448.99	8645.94
449.17	8610.83
449.36	8601.47
449.54	8788.71
449.73	8868.29
449.91	9018.08
450.10	8795.73
450.28	9092.98
450.46	8975.95
450.65	9018.08
450.83	9078.94
451.02	9071.92
451.20	9315.33
451.39	9128.09
451.57	9118.73
451.76	8957.23
451.94	9102.34
452.13	9411.29
452.31	9355.12
452.49	9210.01
452.68	9521.30
452.86	9479.17
453.05	9359.80
453.23	9338.74
453.42	9324.69
453.60	9338.74
453.78	9266.18
453.97	9493.21
454.15	9483.85
454.34	9453.42
454.52	9547.05
454.70	9839.61
454.89	9757.69
455.07	9638.33
455.26	9633.64
455.44	9734.29
455.62	9788.12
455.81	9823.23
455.99	9893.44
456.17	9914.51
456.36	10153.24
456.54	10129.84
456.73	10104.09
456.91	10548.79
457.09	10038.56
457.28	10544.11
457.46	10118.14
457.64	10413.04
457.83	10661.14
458.01	10345.17
458.19	10661.14
458.38	10544.11
458.56	10459.85
458.74	10614.33
458.93	10569.86
459.11	10509.01
459.29	10640.08
459.48	10588.58
459.66	10679.86
459.84	10909.24
460.03	11169.04
460.21	10738.38
460.39	10750.08
460.57	11136.27
460.76	10902.22
460.94	11213.51
461.12	11068.39
461.31	11080.10
461.49	11122.23
461.67	11110.52
461.85	11330.53
462.04	11164.36
462.22	11639.48
462.40	11412.45
462.59	11183.08
462.77	11178.40
462.95	11571.61
463.13	11367.98
463.32	11265.00
463.50	11604.38
463.68	11543.52
463.86	11918.01
464.05	11435.86
464.23	11585.65
464.41	11770.55
464.59	11435.86
464.78	12081.85
464.96	11868.86
465.14	11566.93
465.32	11880.56
465.50	12095.89
465.69	11995.25
465.87	11967.16
466.05	12025.67
466.23	12013.97
466.41	12037.38
466.60	12163.76
466.78	12032.69
466.96	11948.43
467.14	12175.47
467.32	12243.34
467.51	12262.07
467.69	11988.22
467.87	12217.60
468.05	12273.77
468.23	12311.22
468.41	12360.37
468.60	12353.35
468.78	12435.27
468.96	12566.34
469.14	12734.85
469.32	13022.74
469.50	12568.68
469.69	12964.23
469.87	12858.90
470.05	13057.85
470.23	13132.75
470.41	12877.63
470.59	13366.80
470.77	12903.37
470.95	13291.90
471.14	13352.76
471.32	12950.18
471.50	13376.16
471.68	13319.99
471.86	13392.55
472.04	13504.89
472.22	13933.21
472.40	13448.72
472.58	13748.31
472.77	13701.50
472.95	14176.62
473.13	14480.89
473.31	14164.92
473.49	14083.00
473.67	14038.53
473.85	14090.02
474.03	14651.75
474.21	14665.80
474.39	14534.73
474.57	14513.66
474.75	14719.63
474.93	14853.04
475.12	14682.18
475.30	14967.73
475.48	14869.42
475.66	15054.33
475.84	15136.24
476.02	15147.95
476.20	15323.49
476.38	15562.22
476.56	15765.85
476.74	15421.79
476.92	15461.58
477.10	15702.65
477.28	15946.07
477.46	15730.74
477.64	16180.12
477.82	16446.94
478.00	16996.97
478.18	16538.23
478.36	16683.34
478.54	16589.72
478.72	17034.42
478.90	17317.62
479.08	17404.22
479.26	17558.70
479.44	17570.40
479.62	17518.91
479.80	17837.22
479.98	18214.05
480.16	18466.83
480.34	18129.79
480.52	18515.98
480.70	18420.02
480.88	17891.06
481.06	18703.22
481.24	18609.60
481.41	18838.97
481.59	19236.86
481.77	19496.66
481.95	19248.57
482.13	19494.32
482.31	19707.31
482.49	20002.22
482.67	19976.47
482.85	20369.68
483.03	20568.63
483.21	20683.31
483.39	20711.40
483.57	20737.15
483.74	21083.55
483.92	21315.26
484.10	20760.55
484.28	21490.80
484.46	21795.07
484.64	22071.25
484.82	21722.51
485.00	22302.96
485.18	22534.68
485.35	22750.01
485.53	22696.17
485.71	22955.97
485.89	23255.56
486.07	23070.66
486.25	23529.41
486.43	23480.25
486.61	23541.11
486.78	23695.58
486.96	23971.77
487.14	24325.19
487.32	24334.55
487.50	24692.65
487.68	24734.78
487.85	25064.80
488.03	25109.27
488.21	25415.88
488.39	25378.43
488.57	26012.71
488.75	25846.54
488.92	26419.97
489.10	26359.11
489.28	26295.92
489.46	26998.08
489.64	26785.09
489.81	27559.81
489.99	27433.42
490.17	27395.97
490.35	27955.36
490.53	27725.99
490.70	28297.08
490.88	28041.96
491.06	28346.23
491.24	28512.41
491.41	28732.42
491.59	28905.62
491.77	28744.12
491.95	29462.66
492.13	29582.03
492.30	29450.96
492.48	29628.84
492.66	29912.05
492.84	30061.84
493.01	29888.64
493.19	30609.53
493.37	30478.46
493.54	30869.33
493.72	31342.11
493.90	31344.45
494.08	31618.30
494.25	31367.86
494.43	31852.35
494.61	31892.14
494.79	32479.61
494.96	32032.57
495.14	32671.54
495.32	33046.02
495.49	32739.41
495.67	33165.39
495.85	33113.90
496.02	33523.49
496.20	33560.94
496.38	34026.71
496.55	33666.27
496.73	34377.79
496.91	34209.27
497.09	34429.28
497.26	34543.97
497.44	34462.05
497.62	35035.48
497.79	35157.19
497.97	35234.42
498.14	35377.20
498.32	36294.69
498.50	35917.86
498.67	35985.74
498.85	36149.57
499.03	36500.65
499.20	36360.22
499.38	36577.89
499.56	36580.23
499.73	36957.06
499.91	37378.36
500.08	37251.97
500.26	37305.80
500.44	37366.65
500.61	37460.27
500.79	37305.80
500.97	38024.34
501.14	38057.11
501.32	38040.73
501.49	37895.61
501.67	38391.81
501.84	38696.08
502.02	38773.31
502.20	38595.43
502.37	39002.69
502.55	39089.29
502.72	39049.50
502.90	39412.28
503.07	39234.40
503.25	39374.83
503.43	39405.26
503.60	39395.90
503.78	39906.13
503.95	39761.02
504.13	40196.36
504.30	40465.52
504.48	40484.25
504.65	40285.30
504.83	40524.04
505.01	40875.12
505.18	41155.98
505.36	41345.56
505.53	40774.47
505.71	41139.60
505.88	41553.87
506.06	41205.13
506.23	41867.50
506.41	41406.42
506.58	42146.03
506.76	42031.34
506.93	42333.27
507.11	42122.62
507.28	41881.55
507.46	42703.07
507.63	42148.37
507.81	42494.77
507.98	42576.69
508.16	42583.71
508.33	43077.56
508.50	43428.64
508.68	43543.33
508.85	43573.75
509.03	43363.11
509.20	43271.82
509.38	43821.85
509.55	44285.28
509.73	43992.71
509.90	44196.34
510.08	44367.20
510.25	44264.21
510.42	44451.45
510.60	44451.45
510.77	44847.00
510.95	45441.50
511.12	44722.96
511.30	45006.16
511.47	45251.92
511.64	45134.89
511.82	45656.83
511.99	45067.02
512.17	45357.24
512.34	45474.27
512.51	45815.99
512.69	46476.02
512.86	45935.35
513.04	46394.10
513.21	46223.24
513.38	46623.47
513.56	46438.57
513.73	46735.82
513.90	46649.22
514.08	46033.66
514.25	46799.01
514.43	47012.00
514.60	47089.24
514.77	46923.06
514.95	47239.03
515.12	47423.93
515.29	47304.57
515.47	47388.83
515.64	48095.67
515.81	47587.77
515.99	47723.52
516.16	48058.22
516.33	47943.53
516.51	48371.85
516.68	48535.69
516.85	48011.41
517.03	48364.83
517.20	48732.29
517.37	48418.66
517.54	48495.90
517.72	48615.27
517.89	48690.16
518.06	49174.66
518.24	49017.84
518.41	48994.43
518.58	49118.48
518.75	49052.95
518.93	49373.60
519.10	49085.72
519.27	49268.28
519.45	49401.69
519.62	49710.64
519.79	49862.77
519.96	49256.57
520.14	49734.04
520.31	49766.81
520.48	49921.29
520.65	49595.95
520.83	50349.60
521.00	50387.05
521.17	50122.57
521.34	50258.32
521.52	50646.85
521.69	50478.33
521.86	50511.10
522.03	50651.53
522.20	51208.58
522.38	51157.09
522.55	51442.63
522.72	51040.06
522.89	50962.82
523.07	51559.66
523.24	51229.65
523.41	51859.25
523.58	51353.69
523.75	51393.48
523.92	51501.15
524.10	51833.50
524.27	51957.55
524.44	51718.82
524.61	51643.92
524.78	52009.04
524.96	52058.20
525.13	51931.81
525.30	52210.33
525.47	52154.16
525.64	52128.41
525.81	52439.70
525.98	52357.78
526.16	52200.97
526.33	52486.51
526.50	52545.03
526.67	52451.41
526.84	52963.98
527.01	52741.63
527.18	52746.31
527.36	52797.80
527.53	52772.06
527.70	52896.11
527.87	53195.70
528.04	52935.90
528.21	53020.16
528.38	53020.16
528.55	53038.88
528.72	53059.94
528.89	53160.59
529.07	53368.90
529.24	53329.11
529.41	53467.20
529.58	53256.55
529.75	53373.58
529.92	53434.43
530.09	53645.08
530.26	53518.69
530.43	53495.28
530.60	53446.13
530.77	53408.68
530.94	53874.45
531.11	53425.07
531.28	53783.17
531.46	53956.37
531.63	54101.48
531.80	54059.35
531.97	54190.42
532.14	53977.43
532.31	54204.47
532.48	54178.72
532.65	54380.01
532.82	54131.91
532.99	54712.36
533.16	54234.89
533.33	54457.24
533.50	54719.38
533.67	54403.41
533.84	54277.02
534.01	54590.66
534.18	54784.92
534.35	55089.19
534.52	54703.00
534.69	54616.40
534.86	54913.65
535.03	54700.66
535.20	54948.76
535.37	55037.70
535.54	54904.29
535.71	54859.82
535.88	55274.09
536.05	55248.35
536.22	55299.84
536.38	55503.46
536.55	55213.24
536.72	55178.13
536.89	55110.25
537.06	55428.57
537.23	55657.94
537.40	55327.92
537.57	55363.03
537.74	55569.00
537.91	55533.89
538.08	55831.14
538.25	55470.70
538.42	55767.94
538.59	56044.13
538.75	55517.51
538.92	55767.94
539.09	55767.94
539.26	55856.88
539.43	55667.30
539.60	56004.34
539.77	56121.37
539.94	56229.03
540.11	56203.28
540.28	56212.65
540.44	56350.74
540.61	56182.22
540.78	56289.88
540.95	56287.54
541.12	56119.02
541.29	56348.40
541.46	56383.51
541.62	56495.85
541.79	56301.59
541.96	56102.64
542.13	56322.65
542.30	56533.30
542.47	56669.05
542.63	56615.22
542.80	56650.33
542.97	56741.61
543.14	57069.28
543.31	57043.54
543.48	57125.46
543.64	57113.75
543.81	57106.73
543.98	57085.67
544.15	57111.41
544.32	57279.93
544.48	57481.22
544.65	57158.22
544.82	57460.15
544.99	57076.30
545.16	57083.33
545.32	57106.73
545.49	57415.68
545.66	57298.65
545.83	57279.93
546.00	57455.47
546.16	57476.54
546.33	57401.64
546.50	57296.31
546.67	57485.90
546.83	57249.50
547.00	57474.20
547.17	57364.19
547.34	57640.37
547.50	57600.58
547.67	58197.42
547.84	57783.15
548.00	57928.26
548.17	57998.48
548.34	57783.15
548.51	57972.73
548.67	58024.22
548.84	57844.00
549.01	57827.62
549.18	57642.71
549.34	58014.86
549.51	58159.97
549.68	58178.70
549.84	58101.46
550.01	58136.57
550.18	58096.78
550.34	58155.29
550.51	57982.09
550.68	58298.06
550.84	58108.48
551.01	58473.60
551.18	58176.36
551.34	58361.26
551.51	58300.40
551.68	58536.80
551.84	58321.47
552.01	58192.74
552.18	58354.24
552.34	58269.98
552.51	58408.07
552.68	58265.30
552.84	58560.20
553.01	58810.64
553.18	58520.41
553.34	58787.24
553.51	58651.48
553.67	58443.18
553.84	58735.74
554.01	58827.02
554.17	58817.66
554.34	58763.83
554.51	58684.25
554.67	58745.11
554.84	58773.19
555.00	58761.49
555.17	58780.21
555.33	58817.66
555.50	58539.14
555.67	58756.81
555.83	58803.62
556.00	58920.65
556.16	59072.78
556.33	59023.63
556.50	59161.72
556.66	59044.69
556.83	58906.60
556.99	59040.01
557.16	59267.05
557.32	59236.62
557.49	59400.46
557.65	59393.43
557.82	59047.04
557.98	59171.08
558.15	59276.41
558.32	59428.54
558.48	59299.81
558.65	59337.26
558.81	59257.68
558.98	59276.41
559.14	59297.47
559.31	59473.01
559.47	59414.50
559.64	59447.27
559.80	59536.21
559.97	59732.81
560.13	59477.69
560.30	59473.01
560.46	59522.16
560.63	59592.38
560.79	59676.64
560.96	59592.38
561.12	59430.88
561.29	59718.77
561.45	59491.74
561.61	59613.44
561.78	59695.36
561.94	59545.57
562.11	59578.34
562.27	59538.55
562.44	59723.45
562.60	59950.48
562.77	59817.07
562.93	59690.68
563.10	59779.62
563.26	59456.63
563.42	60107.30
563.59	59866.22
563.75	59941.12
563.92	59716.43
564.08	59887.29
564.24	60018.36
564.41	60104.96
564.57	60016.02
564.74	59922.40
564.90	59779.62
565.07	59854.52
565.23	59835.80
565.39	59952.82
565.56	59957.50
565.72	59962.18
565.88	59934.10
566.05	60001.97
566.21	59777.28
566.38	59964.52
566.54	60083.89
566.70	59997.29
566.87	60252.41
567.03	59861.54
567.19	60221.98
567.36	60254.75
567.52	60055.81
567.68	60261.77
567.85	60109.64
568.01	60236.03
568.17	60179.85
568.34	60116.66
568.50	60186.88
568.66	60177.51
568.83	60170.49
568.99	60102.62
569.15	59969.21
569.32	60161.13
569.48	60231.35
569.64	60214.96
569.81	60479.44
569.97	60238.37
570.13	60198.58
570.30	60240.71
570.46	60282.84
570.62	60285.18
570.78	60170.49
570.95	60186.88
571.11	60512.21
571.27	60280.50
571.43	60200.92
571.60	60507.53
571.76	60367.10
571.92	60458.38
572.09	60406.89
572.25	60411.57
572.41	60287.52
572.57	60317.95
572.74	60589.45
572.90	60449.02
573.06	60292.20
573.22	60423.27
573.38	60413.91
573.55	60310.92
573.71	60523.91
573.87	60552.00
574.03	60266.45
574.20	60467.74
574.36	60416.25
574.52	60530.93
574.68	60617.53
574.84	60779.03
575.01	60638.60
575.17	60486.46
575.33	60322.63
575.49	60470.08
575.65	60528.59
575.82	60584.77
575.98	60664.35
576.14	60647.96
576.30	60800.10
576.46	60669.03
576.62	60360.08
576.79	60598.81
576.95	60516.89
577.11	60552.00
577.27	60488.80
577.43	60577.75
577.59	60486.46
577.75	60519.23
577.92	60456.04
578.08	60580.09
578.24	60652.64
578.40	60683.07
578.56	61080.96
578.72	60697.11
578.88	60891.38
579.04	60746.26
579.21	60615.19
579.37	60764.99
579.53	60807.12
579.69	60633.92
579.85	60591.79
580.01	60589.45
580.17	60528.59
580.33	60697.11
580.49	60832.86
580.65	60748.60
580.82	60528.59
580.98	60643.28
581.14	60587.11
581.30	60907.76
581.46	60828.18
581.62	60779.03
581.78	60626.90
581.94	60851.59
582.10	60706.47
582.26	60654.98
582.42	60659.66
582.58	60849.25
582.74	60687.75
582.90	60755.63
583.06	60776.69
583.22	60568.38
583.38	60680.73
583.54	60706.47
583.70	60856.27
583.86	60755.63
584.02	60701.79
584.18	60783.71
584.34	60907.76
584.50	60720.52
584.66	60839.89
584.82	60673.71
584.98	61059.90
585.14	60903.08
585.30	60697.11
585.46	60839.89
585.62	60917.12
585.78	60949.89
585.94	60587.11
586.10	60800.10
586.26	60811.80
586.42	60933.51
586.58	60900.74
586.74	60715.84
586.90	60732.22
587.06	60891.38
587.22	61113.73
587.38	60832.86
587.54	60985.00
587.70	60966.27
587.86	60835.20
588.02	60687.75
588.18	61022.45
588.34	60947.55
588.49	60741.58
