SpectraSuite Data File
++++++++++++++++++++++++++++++++++++
Date: Fri Oct 25 10:44:06 EDT 2013
User: price-jones
Dark Spectrum Present: No
Reference Spectrum Present: No
Number of Sampled Component Spectra: 1
Spectrometers: USB2+H05261
Integration Time (usec): 100000 (USB2+H05261)
Spectra Averaged: 1 (USB2+H05261)
Boxcar Smoothing: 0 (USB2+H05261)
Correct for Electrical Dark: No (USB2+H05261)
Strobe/Lamp Enabled: No (USB2+H05261)
Correct for Detector Non-linearity: No (USB2+H05261)
Correct for Stray Light: No (USB2+H05261)
Number of Pixels in Processed Spectrum: 2048
>>>>>Begin Processed Spectral Data<<<<<
365.73	131.07
365.92	131.07
366.12	131.07
366.32	67.88
366.52	14.04
366.72	0.00
366.91	0.00
367.11	0.00
367.31	0.00
367.51	25.75
367.70	72.56
367.90	44.47
368.10	9.36
368.30	25.75
368.49	65.54
368.69	53.83
368.89	60.85
369.09	37.45
369.28	23.41
369.48	16.38
369.68	135.75
369.87	72.56
370.07	63.19
370.27	201.29
370.47	189.58
370.66	327.68
370.86	430.66
371.06	447.04
371.25	463.43
371.45	475.13
371.65	531.30
371.84	454.06
372.04	535.98
372.24	491.51
372.44	433.00
372.63	510.24
372.83	596.84
373.03	414.27
373.22	505.56
373.42	524.28
373.62	540.66
373.81	524.28
374.01	638.97
374.21	568.75
374.40	493.85
374.60	622.58
374.79	610.88
374.99	615.56
375.19	566.41
375.38	631.94
375.58	514.92
375.78	699.82
375.97	606.20
376.17	615.56
376.37	636.63
376.56	671.73
376.76	608.54
376.95	573.43
377.15	664.71
377.35	704.50
377.54	725.57
377.74	732.59
377.93	599.18
378.13	645.99
378.33	678.76
378.52	573.43
378.72	657.69
378.91	711.52
379.11	662.37
379.31	606.20
379.50	617.90
379.70	767.70
379.89	690.46
380.09	627.26
380.28	718.54
380.48	688.12
380.68	660.03
380.87	617.90
381.07	723.23
381.26	730.25
381.46	692.80
381.65	655.35
381.85	720.88
382.04	662.37
382.24	685.78
382.43	727.91
382.63	676.41
382.83	697.48
383.02	674.07
383.22	777.06
383.41	770.04
383.61	730.25
383.80	821.53
384.00	788.76
384.19	830.89
384.39	805.14
384.58	816.85
384.78	863.66
384.97	755.99
385.17	854.30
385.36	805.14
385.56	809.83
385.75	781.74
385.95	873.02
386.14	812.17
386.34	884.72
386.53	898.77
386.72	793.44
386.92	919.83
387.11	915.15
387.31	837.91
387.50	922.17
387.70	840.25
387.89	959.62
388.09	985.37
388.28	875.36
388.48	973.66
388.67	940.90
388.86	915.15
389.06	910.47
389.25	1006.43
389.45	994.73
389.64	992.39
389.84	1022.81
390.03	978.34
390.22	1050.90
390.42	1022.81
390.61	940.90
390.81	1125.80
391.00	964.30
391.19	1064.94
391.39	1104.73
391.58	1004.09
391.78	1046.22
391.97	987.71
392.16	1011.11
392.36	1158.57
392.55	1013.45
392.75	1078.99
392.94	1043.88
393.13	999.41
393.33	1022.81
393.52	1043.88
393.71	1081.33
393.91	1109.41
394.10	1139.84
394.29	1259.21
394.49	1172.61
394.68	1191.33
394.88	1188.99
395.07	1263.89
395.26	1259.21
395.46	1174.95
395.65	1186.65
395.84	1282.61
396.04	1324.74
396.23	1156.22
396.42	1235.80
396.62	1233.46
396.81	1219.42
397.00	1238.14
397.19	1266.23
397.39	1254.53
397.58	1369.21
397.77	1448.79
397.97	1448.79
398.16	1359.85
398.35	1521.35
398.55	1406.66
398.74	1432.41
398.93	1638.38
399.12	1537.73
399.32	1476.88
399.51	1589.22
399.70	1575.18
399.90	1575.18
400.09	1621.99
400.28	1572.84
400.47	1523.69
400.67	1657.10
400.86	1600.93
401.05	1638.38
401.24	1694.55
401.44	1739.02
401.63	1816.26
401.82	1710.93
402.01	1720.29
402.21	1692.21
402.40	1818.60
402.59	1713.27
402.78	1722.63
402.97	1764.76
403.17	1902.86
403.36	1764.76
403.55	1795.19
403.74	1755.40
403.93	1844.34
404.13	1891.15
404.32	1778.81
404.51	1947.33
404.70	1839.66
404.89	1909.88
405.09	1994.14
405.28	2017.54
405.47	1956.69
405.66	1935.62
405.85	2012.86
406.05	2038.61
406.24	2008.18
406.43	2001.16
406.62	2064.35
406.81	2195.42
407.00	2031.58
407.20	2036.27
407.39	2115.84
407.58	2132.23
407.77	2115.84
407.96	2148.61
408.15	2356.92
408.34	2085.42
408.54	2354.58
408.73	2265.64
408.92	2317.13
409.11	2314.79
409.30	2352.24
409.49	2239.89
409.68	2275.00
409.87	2286.70
410.07	2298.41
410.26	2284.36
410.45	2324.15
410.64	2427.14
410.83	2490.33
411.02	2583.95
411.21	2703.32
411.40	2537.14
411.59	2576.93
411.78	2663.53
411.98	2637.78
412.17	2499.69
412.36	2684.59
412.55	2724.38
412.74	2801.62
412.93	2647.15
413.12	2684.59
413.31	2984.18
413.50	2768.85
413.69	2822.69
413.88	2799.28
414.07	2789.92
414.26	2857.79
414.45	2951.42
414.64	2935.03
414.83	3122.27
415.02	3075.46
415.22	3035.67
415.41	3073.12
415.60	3059.08
415.79	3030.99
415.98	3288.45
416.17	3272.07
416.36	3300.16
416.55	3304.84
416.74	3421.86
416.93	3302.50
417.12	3241.64
417.31	3400.80
417.50	3206.53
417.69	3440.59
417.88	3515.48
418.07	3417.18
418.26	3417.18
418.45	3440.59
418.64	3562.30
418.83	3548.25
419.02	3442.93
419.21	3583.36
419.39	3625.49
419.58	3562.30
419.77	3557.61
419.96	3639.53
420.15	3679.32
420.34	3588.04
420.53	3712.09
420.72	3819.75
420.91	3808.05
421.10	3779.97
421.29	3758.90
421.48	3850.18
421.67	3852.52
421.86	3786.99
422.05	3749.54
422.24	3782.31
422.43	3826.78
422.61	3918.06
422.80	4011.68
422.99	4056.15
423.18	3880.61
423.37	4049.13
423.56	3976.57
423.75	3847.84
423.94	3896.99
424.13	3693.37
424.32	3810.39
424.50	3936.78
424.69	4030.40
424.88	4093.60
425.07	3791.67
425.26	3861.88
425.45	3920.40
425.64	3889.97
425.83	3929.76
426.01	4014.02
426.20	3988.27
426.39	4145.09
426.58	3988.27
426.77	3995.29
426.96	4028.06
427.15	3974.23
427.33	4084.23
427.52	3999.98
427.71	4189.56
427.90	4196.58
428.09	4142.75
428.28	4168.49
428.46	4236.37
428.65	4159.13
428.84	4177.86
429.03	4131.05
429.22	4030.40
429.40	4168.49
429.59	4124.02
429.78	3932.10
429.97	3932.10
430.16	4112.32
430.34	4016.36
430.53	4170.83
430.72	4227.01
430.91	4304.25
431.10	4264.46
431.28	4524.26
431.47	4645.96
431.66	4603.83
431.85	4638.94
432.03	4514.89
432.22	4681.07
432.41	4491.49
432.60	4692.77
432.79	4674.05
432.97	4795.76
433.16	4786.40
433.35	4723.20
433.54	4641.28
433.72	4681.07
433.91	4718.52
434.10	4784.06
434.28	4697.46
434.47	4748.95
434.66	4781.71
434.85	4912.78
435.03	5013.43
435.22	4915.12
435.41	5107.05
435.59	5195.99
435.78	5055.56
435.97	5242.80
436.16	5200.67
436.34	5146.84
436.53	5186.63
436.72	5322.38
436.90	5118.75
437.09	5261.52
437.28	5172.58
437.46	5242.80
437.65	5111.73
437.84	5153.86
438.02	5036.83
438.21	5132.79
438.40	5200.67
438.58	5303.65
438.77	5359.83
438.96	5238.12
439.14	5366.85
439.33	5738.99
439.52	5575.16
439.70	5645.37
439.89	5717.93
440.08	5666.44
440.26	5682.82
440.45	5823.25
440.63	5982.41
440.82	5973.05
441.01	5998.79
441.19	5980.07
441.38	6005.81
441.57	6076.03
441.75	6106.46
441.94	6164.97
442.12	6354.55
442.31	6282.00
442.50	6289.02
442.68	6143.91
442.87	6267.95
443.05	6326.47
443.24	6382.64
443.43	6361.58
443.61	6658.82
443.80	6593.29
443.98	6235.19
444.17	6415.41
444.35	6490.31
444.54	6839.05
444.73	6401.37
444.91	6607.33
445.10	6623.72
445.28	6274.98
445.47	6406.05
445.65	6497.33
445.84	6693.93
446.02	6483.28
446.21	6576.91
446.39	6534.78
446.58	6593.29
446.77	6782.87
446.95	6464.56
447.14	6715.00
447.32	6806.28
447.51	6658.82
447.69	6640.10
447.88	6754.79
448.06	6740.74
448.25	6635.42
448.43	6689.25
448.62	6736.06
448.80	6766.49
448.99	6850.75
449.17	6920.96
449.36	6946.71
449.54	7035.65
449.73	7173.74
449.91	7103.53
450.10	7157.36
450.28	7124.59
450.46	7164.38
450.65	7330.56
450.83	7248.64
451.02	7049.69
451.20	7344.60
451.39	7398.43
451.57	7232.26
451.76	7295.45
451.94	7288.43
452.13	7396.09
452.31	7241.62
452.49	7075.44
452.68	7400.77
452.86	7243.96
453.05	7419.50
453.23	7382.05
453.42	7281.41
453.60	7150.34
453.78	7789.30
453.97	7232.26
454.15	7590.36
454.34	7307.15
454.52	7655.89
454.70	7501.42
454.89	7625.47
455.07	7480.35
455.26	7576.31
455.44	7688.66
455.62	7585.68
455.81	7648.87
455.99	7831.43
456.17	7754.19
456.36	7920.37
456.54	7964.84
456.73	7845.48
456.91	8161.45
457.09	8088.89
457.28	8222.30
457.46	8006.97
457.64	8086.55
457.83	8196.56
458.01	8009.31
458.19	8376.78
458.38	8259.75
458.56	8374.44
458.74	8201.24
458.93	8184.85
459.11	8271.45
459.29	8327.63
459.48	8355.71
459.66	8301.88
459.84	8329.97
460.03	8365.07
460.21	8613.17
460.39	8468.06
460.57	8599.13
460.76	8622.53
460.94	8699.77
461.12	8580.40
461.31	8718.50
461.49	8615.51
461.67	8697.43
461.85	9004.04
462.04	8748.92
462.22	9217.03
462.40	8837.86
462.59	9055.53
462.77	8872.97
462.95	9078.94
463.13	8961.91
463.32	8912.76
463.50	8943.19
463.68	9132.77
463.86	8980.64
464.05	8999.36
464.23	8896.38
464.41	9043.83
464.59	8851.91
464.78	9352.78
464.96	9242.78
465.14	9053.19
465.32	9301.29
465.50	9371.50
465.69	9158.52
465.87	9205.33
466.05	9186.60
466.23	9100.00
466.41	9174.90
466.60	9563.43
466.78	9123.41
466.96	9392.57
467.14	9378.53
467.32	9437.04
467.51	9345.76
467.69	9289.59
467.87	9226.39
468.05	9392.57
468.23	9486.19
468.41	9631.30
468.60	9699.18
468.78	9631.30
468.96	9509.60
469.14	9689.82
469.32	9949.62
469.50	9832.59
469.69	9743.65
469.87	9827.91
470.05	10071.33
470.23	9832.59
470.41	9877.06
470.59	9973.02
470.77	9867.70
470.95	9968.34
471.14	10391.98
471.32	10099.41
471.50	10389.64
471.68	10328.78
471.86	10518.37
472.04	10476.24
472.22	10527.73
472.40	10525.39
472.58	10506.66
472.77	10511.35
472.95	10441.13
473.13	10867.11
473.31	10399.00
473.49	10572.20
473.67	10731.36
473.85	10693.91
474.03	10918.60
474.21	10979.45
474.39	11225.21
474.57	11246.27
474.75	11194.78
474.93	11309.47
475.12	11253.30
475.30	11290.74
475.48	11222.87
475.66	11213.51
475.84	11356.28
476.02	11384.37
476.20	11517.78
476.38	11735.45
476.56	11974.18
476.74	11932.05
476.92	11836.09
477.10	11805.66
477.28	12042.06
477.46	11901.62
477.64	12339.30
477.82	12498.46
478.00	12634.21
478.18	12702.09
478.36	12468.03
478.54	12674.00
478.72	12781.67
478.90	13043.81
479.08	13135.09
479.26	13315.31
479.44	13095.30
479.62	13420.63
479.80	13221.69
479.98	13551.70
480.16	13633.62
480.34	13626.60
480.52	13776.39
480.70	13523.62
480.88	13715.54
481.06	13909.80
481.24	13933.21
481.41	14129.81
481.59	14235.14
481.77	14611.96
481.95	14363.87
482.13	14532.39
482.31	14670.48
482.49	14941.98
482.67	15070.71
482.85	14860.06
483.03	15253.27
483.21	15389.02
483.39	15510.73
483.57	15363.28
483.74	15360.94
483.92	15658.18
484.10	15639.46
484.28	16025.65
484.46	15992.88
484.64	16128.63
484.82	15971.82
485.00	16327.58
485.18	16617.80
485.35	16631.85
485.53	16198.85
485.71	16428.22
485.89	16615.46
486.07	16348.64
486.25	16622.48
486.43	16971.22
486.61	17083.57
486.78	17359.75
486.96	17514.23
487.14	17727.22
487.32	17797.43
487.50	18099.36
487.68	18228.09
487.85	18455.12
488.03	18609.60
488.21	18768.76
488.39	18438.74
488.57	18712.58
488.75	18693.86
488.92	19225.16
489.10	19271.97
489.28	19346.87
489.46	19728.38
489.64	19606.67
489.81	20266.70
489.99	20393.09
490.17	20226.91
490.35	20386.07
490.53	20177.76
490.70	20514.80
490.88	20648.21
491.06	20987.58
491.24	20659.91
491.41	20798.00
491.59	20994.61
491.77	20833.11
491.95	21341.00
492.13	21532.93
492.30	21476.76
492.48	21837.20
492.66	21617.19
492.84	21729.53
493.01	21979.97
493.19	21998.70
493.37	22611.92
493.54	22590.85
493.72	22691.49
493.90	22808.52
494.08	23051.94
494.25	23171.30
494.43	23283.65
494.61	23302.37
494.79	23590.26
494.96	23508.34
495.14	23651.11
495.32	23585.58
495.49	23655.79
495.67	23859.42
495.85	24074.75
496.02	24470.30
496.20	24432.85
496.38	24528.81
496.55	24830.74
496.73	25245.02
496.91	24833.08
497.09	24814.36
497.26	25221.61
497.44	25624.18
497.62	25090.54
497.79	25256.72
497.97	25401.83
498.14	25401.83
498.32	25827.81
498.50	25619.50
498.67	25752.91
498.85	25865.26
499.03	26281.88
499.20	26340.39
499.38	26504.23
499.56	26707.85
499.73	26665.72
499.91	27089.36
500.08	26969.99
500.26	26497.20
500.44	26888.07
500.61	26841.26
500.79	26792.11
500.97	26679.77
501.14	27356.18
501.32	27227.45
501.49	27316.39
501.67	27091.70
501.84	27679.18
502.02	27690.88
502.20	27447.46
502.37	27946.00
502.55	27686.20
502.72	28198.77
502.90	28233.88
503.07	27936.63
503.25	28456.23
503.43	28095.79
503.60	28489.00
503.78	28044.30
503.95	28404.74
504.13	28683.27
504.30	28400.06
504.48	28779.23
504.65	28987.53
504.83	29336.27
505.01	29013.28
505.18	29156.05
505.36	29443.94
505.53	29476.71
505.71	29846.51
505.88	29792.68
506.06	29780.98
506.23	29699.06
506.41	29659.27
506.58	30211.64
506.76	30017.37
506.93	30012.69
507.11	30174.19
507.28	29979.92
507.46	30181.21
507.63	30551.01
507.81	30136.74
507.98	30665.70
508.16	30672.72
508.33	30534.63
508.50	30955.93
508.68	31101.04
508.85	31164.23
509.03	31173.60
509.20	31363.18
509.38	31274.24
509.55	31515.31
509.73	31442.76
509.90	31831.29
510.08	31519.99
510.25	31758.73
510.42	31515.31
510.60	31627.66
510.77	31969.38
510.95	31978.74
511.12	32016.19
511.30	32144.92
511.47	32631.75
511.64	32584.94
511.82	32781.54
511.99	32477.27
512.17	32697.28
512.34	32229.18
512.51	32720.69
512.69	32992.19
512.86	33111.56
513.04	33149.01
513.21	32847.08
513.38	33310.50
513.56	33324.55
513.73	32893.89
513.90	33406.47
514.08	33130.28
514.25	33378.38
514.43	33195.82
514.60	33219.22
514.77	33448.60
514.95	33846.49
515.12	34110.97
515.29	34003.30
515.47	34335.66
515.64	34403.53
515.81	33628.82
515.99	33687.33
516.16	34239.70
516.33	33684.99
516.51	33497.75
516.68	33490.73
516.85	33394.76
517.03	33598.39
517.20	33954.15
517.37	34455.03
517.54	34534.60
517.72	34464.39
517.89	33839.47
518.06	34190.55
518.24	33874.57
518.41	34707.80
518.58	34635.25
518.75	34330.98
518.93	34998.03
519.10	34532.26
519.27	35304.64
519.45	35330.39
519.62	35232.08
519.79	35379.54
519.96	35264.85
520.14	36128.51
520.31	35503.59
520.48	35529.33
520.65	35838.28
520.83	35875.73
521.00	36156.60
521.17	36086.38
521.34	36308.73
521.52	36392.99
521.69	36449.16
521.86	36467.89
522.03	36137.87
522.20	36327.45
522.38	36538.10
522.55	36701.94
522.72	36538.10
522.89	36566.19
523.07	36945.36
523.24	36690.24
523.41	36858.76
523.58	36910.25
523.75	37507.08
523.92	37551.56
524.10	37516.45
524.27	37254.31
524.44	37502.40
524.61	37614.75
524.78	37567.94
524.96	37759.86
525.13	37610.07
525.30	37743.48
525.47	38218.61
525.64	37619.43
525.81	37869.87
525.98	37591.34
526.16	37455.59
526.33	37268.35
526.50	37944.76
526.67	37610.07
526.84	37422.83
527.01	37390.06
527.18	37762.20
527.36	38293.50
527.53	38335.63
527.70	38539.26
527.87	38293.50
528.04	38363.72
528.21	38639.90
528.38	38621.18
528.55	39049.50
528.72	39049.50
528.89	39255.46
529.07	38693.74
529.24	39138.44
529.41	39061.20
529.58	39068.22
529.75	39061.20
529.92	39391.22
530.09	39028.43
530.26	39337.38
530.43	39360.79
530.60	39225.04
530.77	39730.59
530.94	39641.65
531.11	39276.53
531.28	39746.98
531.46	40004.44
531.63	39704.85
531.80	39365.47
531.97	40009.12
532.14	39739.96
532.31	39379.51
532.48	39648.68
532.65	39669.74
532.82	39580.80
532.99	40016.14
533.16	39714.21
533.33	40275.94
533.50	40465.52
533.67	40355.52
533.84	40168.27
534.01	40163.59
534.18	40301.68
534.35	40425.73
534.52	40336.79
534.69	40865.75
534.86	40444.46
535.03	40261.90
535.20	40804.90
535.37	40821.28
535.54	40926.61
535.71	40662.13
535.88	40863.41
536.05	40793.20
536.22	40624.68
536.38	41104.49
536.55	40985.12
536.72	40807.24
536.89	40807.24
537.06	40872.78
537.23	41380.67
537.40	41294.07
537.57	41123.21
537.74	41036.61
537.91	41429.82
538.08	41427.48
538.25	41137.26
538.42	41563.23
538.59	41614.72
538.75	41003.85
538.92	41476.63
539.09	41476.63
539.26	41710.69
539.43	41832.39
539.60	41612.38
539.77	41471.95
539.94	41745.80
540.11	41118.53
540.28	41998.57
540.44	41469.61
540.61	41975.17
540.78	41390.03
540.95	41949.42
541.12	41490.68
541.29	41998.57
541.46	42000.91
541.62	41963.46
541.79	42443.27
541.96	41359.61
542.13	42033.68
542.30	42115.60
542.47	42000.91
542.63	42113.26
542.80	42211.56
542.97	42302.84
543.14	43136.07
543.31	42817.76
543.48	42401.14
543.64	43178.20
543.81	43264.80
543.98	42918.40
544.15	42398.80
544.32	43328.00
544.48	43445.02
544.65	42911.38
544.82	43208.63
544.99	42995.64
545.16	43498.86
545.32	42637.54
545.49	43342.04
545.66	43456.73
545.83	43629.93
546.00	43590.14
546.16	43335.02
546.33	43203.95
546.50	43002.66
546.67	43571.41
546.83	43505.88
547.00	43477.79
547.17	43206.29
547.34	43405.23
547.50	43283.53
547.67	43313.95
547.84	43398.21
548.00	43552.69
548.17	43817.17
548.34	44044.20
548.51	44161.23
548.67	44109.74
548.84	43555.03
549.01	43915.47
549.18	44329.75
549.34	43966.96
549.51	44374.22
549.68	44568.48
549.84	44198.68
550.01	44261.87
550.18	44109.74
550.34	44444.43
550.51	44189.31
550.68	44416.35
550.84	43613.54
551.01	44198.68
551.18	44425.71
551.34	44549.76
551.51	44891.48
551.68	44402.30
551.84	44287.62
552.01	43826.53
552.18	44715.93
552.34	44100.37
552.51	44631.68
552.68	44678.49
552.84	44870.41
553.01	45052.97
553.18	44975.73
553.34	44332.09
553.51	44346.13
553.67	44762.75
553.84	45022.54
554.01	45057.65
554.17	45001.48
554.34	44886.79
554.51	44879.77
554.67	45265.96
554.84	45029.57
555.00	44797.85
555.17	45123.19
555.33	44996.80
555.50	44793.17
555.67	44767.43
555.83	44814.24
556.00	44917.22
556.16	45291.71
556.33	44748.70
556.50	45139.57
556.66	45345.54
556.83	44877.43
556.99	45289.37
557.16	45659.17
557.32	45170.00
557.49	45378.31
557.65	45301.07
557.82	45111.49
557.98	45315.11
558.15	45612.36
558.32	45401.71
558.48	44783.81
558.65	44961.69
558.81	44882.11
558.98	45525.76
559.14	45247.24
559.31	45460.23
559.47	45904.93
559.64	45588.95
559.80	45471.93
559.97	45654.49
560.13	45368.94
560.30	45537.46
560.46	45198.09
560.63	45640.45
560.79	45883.86
560.96	45656.83
561.12	45710.66
561.29	45628.74
561.45	45209.79
561.61	45308.09
561.78	45663.85
561.94	45406.39
562.11	45787.90
562.27	45701.30
562.44	45319.79
562.60	45893.22
562.77	45984.51
562.93	45874.50
563.10	45666.19
563.26	45471.93
563.42	45509.38
563.59	45247.24
563.75	45610.02
563.92	46043.02
564.08	45729.39
564.24	46054.72
564.41	45879.18
564.57	45687.26
564.74	46080.47
564.90	45785.56
565.07	45766.84
565.23	45778.54
565.39	45925.99
565.56	45673.21
565.72	45570.23
565.88	45883.86
566.05	45844.07
566.21	45832.37
566.38	45689.60
566.54	45670.87
566.70	45925.99
566.87	46609.43
567.03	46202.18
567.19	46480.70
567.36	46040.68
567.52	46330.90
567.68	46396.44
567.85	45722.37
568.01	46429.21
568.17	45872.16
568.34	45951.74
568.50	45790.24
568.66	46167.07
568.83	45801.94
568.99	45347.88
569.15	46160.05
569.32	45853.44
569.48	46138.98
569.64	46115.58
569.81	46241.96
569.97	45893.22
570.13	46003.23
570.30	45492.99
570.46	45745.77
570.62	45794.92
570.78	46106.21
570.95	46038.34
571.11	46148.34
571.27	46178.77
571.43	45612.36
571.60	46181.11
571.76	46019.61
571.92	45951.74
572.09	46045.36
572.25	46253.67
572.41	46237.28
572.57	46356.65
572.74	46532.19
572.90	46122.60
573.06	46347.29
573.22	46370.69
573.38	46426.87
573.55	46157.70
573.71	46405.80
573.87	46047.70
574.03	45942.38
574.20	45895.56
574.36	45876.84
574.52	46232.60
574.68	46239.62
574.84	46003.23
575.01	46094.51
575.17	46281.75
575.33	46113.23
575.49	46377.72
575.65	46513.47
575.82	46415.16
575.98	46195.15
576.14	46127.28
576.30	46396.44
576.46	45858.12
576.62	45984.51
576.79	46239.62
576.95	46204.52
577.11	46419.84
577.27	46454.95
577.43	46115.58
577.59	45947.06
577.75	45876.84
577.92	45848.75
578.08	45577.25
578.24	46012.59
578.40	46138.98
578.56	45970.46
578.72	46167.07
578.88	46454.95
579.04	46136.64
579.21	46057.06
579.37	46284.09
579.53	46291.12
579.69	46244.30
579.85	46445.59
580.01	46616.45
580.17	46248.99
580.33	46260.69
580.49	46579.00
580.65	46375.37
580.82	46370.69
580.98	45944.72
581.14	46644.54
581.30	46759.22
581.46	46679.64
581.62	46595.38
581.78	46246.65
581.94	46557.94
582.10	46270.05
582.26	46419.84
582.42	46337.93
582.58	46216.22
582.74	46557.94
582.90	46380.06
583.06	46595.38
583.22	46209.20
583.38	46452.61
583.54	46803.69
583.70	46373.03
583.86	46066.42
584.02	46129.62
584.18	46216.22
584.34	46312.18
584.50	46408.14
584.66	45977.48
584.82	46401.12
584.98	46188.13
585.14	46312.18
585.30	46040.68
585.46	46525.17
585.62	45975.14
585.78	46185.79
585.94	46150.68
586.10	46178.77
586.26	46293.46
586.42	46218.56
586.58	46541.55
586.74	46550.91
586.90	46471.34
587.06	46213.88
587.22	46646.88
587.38	46417.50
587.54	46681.98
587.70	46576.66
587.86	46461.97
588.02	46204.52
588.18	46202.18
588.34	46087.49
588.49	46178.77
588.65	45820.67
588.81	45820.67
588.97	45813.65
589.13	46014.93
589.29	46141.32
589.45	46045.36
589.61	46344.95
589.77	46611.77
589.93	46410.48
