SpectraSuite Data File
++++++++++++++++++++++++++++++++++++
Date: Fri Oct 25 11:23:59 EDT 2013
User: price-jones
Dark Spectrum Present: No
Reference Spectrum Present: No
Number of Sampled Component Spectra: 1
Spectrometers: USB2+H05261
Integration Time (usec): 100000 (USB2+H05261)
Spectra Averaged: 1 (USB2+H05261)
Boxcar Smoothing: 0 (USB2+H05261)
Correct for Electrical Dark: No (USB2+H05261)
Strobe/Lamp Enabled: No (USB2+H05261)
Correct for Detector Non-linearity: No (USB2+H05261)
Correct for Stray Light: No (USB2+H05261)
Number of Pixels in Processed Spectrum: 2048
>>>>>Begin Processed Spectral Data<<<<<
365.73	264.48
365.92	264.48
366.12	264.48
366.32	177.88
366.52	91.28
366.72	107.66
366.91	84.26
367.11	159.16
367.31	163.84
367.51	159.16
367.70	145.11
367.90	95.96
368.10	77.24
368.30	142.77
368.49	121.71
368.69	121.71
368.89	173.20
369.09	126.39
369.28	142.77
369.48	110.01
369.68	187.24
369.87	177.88
370.07	215.33
370.27	227.03
370.47	318.31
370.66	587.47
370.86	575.77
371.06	692.80
371.25	678.76
371.45	620.24
371.65	662.37
371.84	596.84
372.04	716.20
372.24	599.18
372.44	648.33
372.63	744.29
372.83	741.95
373.03	676.41
373.22	753.65
373.42	713.86
373.62	819.19
373.81	809.83
374.01	826.21
374.21	765.36
374.40	903.45
374.60	844.93
374.79	718.54
374.99	833.23
375.19	833.23
375.38	819.19
375.58	781.74
375.78	919.83
375.97	833.23
376.17	891.74
376.37	833.23
376.56	809.83
376.76	807.48
376.95	875.36
377.15	933.87
377.35	844.93
377.54	856.64
377.74	938.55
377.93	849.61
378.13	912.81
378.33	933.87
378.52	929.19
378.72	938.55
378.91	971.32
379.11	915.15
379.31	882.38
379.50	917.49
379.70	1036.86
379.89	954.94
380.09	973.66
380.28	1057.92
380.48	964.30
380.68	994.73
380.87	966.64
381.07	1055.58
381.26	1048.56
381.46	985.37
381.65	1036.86
381.85	1083.67
382.04	1043.88
382.24	1036.86
382.43	978.34
382.63	1053.24
382.83	1107.07
383.02	1062.60
383.22	1116.44
383.41	1132.82
383.61	1020.47
383.80	1207.72
384.00	1139.84
384.19	1156.22
384.39	1212.40
384.58	1144.52
384.78	1116.44
384.97	1163.25
385.17	1188.99
385.36	1184.31
385.56	1212.40
385.75	1179.63
385.95	1233.46
386.14	1172.61
386.34	1132.82
386.53	1165.59
386.72	1261.55
386.92	1317.72
387.11	1273.25
387.31	1200.69
387.50	1268.57
387.70	1259.21
387.89	1184.31
388.09	1256.87
388.28	1259.21
388.48	1301.34
388.67	1329.42
388.86	1401.98
389.06	1437.09
389.25	1418.36
389.45	1401.98
389.64	1366.87
389.84	1392.62
390.03	1430.07
390.22	1411.34
390.42	1425.39
390.61	1378.58
390.81	1366.87
391.00	1399.64
391.19	1387.94
391.39	1355.17
391.58	1455.81
391.78	1437.09
391.97	1493.26
392.16	1453.47
392.36	1458.15
392.55	1420.71
392.75	1523.69
392.94	1472.20
393.13	1586.88
393.33	1511.99
393.52	1591.56
393.71	1572.84
393.91	1638.38
394.10	1558.80
394.29	1565.82
394.49	1558.80
394.68	1687.53
394.88	1703.91
395.07	1720.29
395.26	1650.08
395.46	1757.74
395.65	1710.93
395.84	1680.50
396.04	1736.68
396.23	1687.53
396.42	1703.91
396.62	1708.59
396.81	1724.97
397.00	1834.98
397.19	1832.64
397.39	1881.79
397.58	1879.45
397.77	1856.04
397.97	1825.62
398.16	1825.62
398.35	1963.71
398.55	1870.09
398.74	1898.17
398.93	1984.77
399.12	1902.86
399.32	1891.15
399.51	1977.75
399.70	1973.07
399.90	1853.70
400.09	1905.20
400.28	2036.27
400.47	2040.95
400.67	2052.65
400.86	2047.97
401.05	2108.82
401.24	2125.21
401.44	2134.57
401.63	2132.23
401.82	2157.97
402.01	2179.04
402.21	2148.61
402.40	2200.10
402.59	2122.87
402.78	2260.96
402.97	2258.62
403.17	2263.30
403.36	2272.66
403.55	2228.19
403.74	2298.41
403.93	2415.43
404.13	2289.04
404.32	2366.28
404.51	2373.30
404.70	2476.29
404.89	2406.07
405.09	2452.88
405.28	2558.21
405.47	2455.22
405.66	2506.71
405.85	2527.78
406.05	2558.21
406.24	2579.27
406.43	2736.09
406.62	2593.31
406.81	2605.02
407.00	2633.10
407.20	2546.50
407.39	2647.15
407.58	2605.02
407.77	2785.24
407.96	2747.79
408.15	2679.91
408.34	2693.96
408.54	2808.64
408.73	2754.81
408.92	2902.26
409.11	2911.63
409.30	2862.48
409.49	2932.69
409.68	2846.09
409.87	2932.69
410.07	3073.12
410.26	3028.65
410.45	2974.82
410.64	3084.83
410.83	3117.59
411.02	3225.26
411.21	3213.56
411.40	3108.23
411.59	3220.58
411.78	3262.71
411.98	3260.37
412.17	3122.27
412.36	3253.34
412.55	3368.03
412.74	3386.76
412.93	3463.99
413.12	3428.88
413.31	3461.65
413.50	3382.07
413.69	3405.48
413.88	3513.14
414.07	3583.36
414.26	3695.71
414.45	3679.32
414.64	3728.47
414.83	3672.30
415.02	3756.56
415.22	4042.11
415.41	3971.89
415.60	3955.51
415.79	3971.89
415.98	3915.72
416.17	3960.19
416.36	3920.40
416.55	4070.19
416.74	4072.53
416.93	4042.11
417.12	4058.49
417.31	4212.96
417.50	4259.78
417.69	4381.48
417.88	4166.15
418.07	4189.56
418.26	4329.99
418.45	4278.50
418.64	4510.21
418.83	4416.59
419.02	4514.89
419.21	4470.42
419.39	4397.87
419.58	4421.27
419.77	4615.54
419.96	4531.28
420.15	4624.90
420.34	4725.54
420.53	4617.88
420.72	4791.08
420.91	4655.33
421.10	4652.98
421.29	4795.76
421.48	4737.24
421.67	4903.42
421.86	4681.07
422.05	4723.20
422.24	4681.07
422.43	4821.50
422.61	4880.02
422.80	5078.96
422.99	4931.51
423.18	5018.11
423.37	5207.69
423.56	5001.72
423.75	4968.96
423.94	4821.50
424.13	4678.73
424.32	4809.80
424.50	5013.43
424.69	5184.29
424.88	5125.77
425.07	4968.96
425.26	4947.89
425.45	5043.85
425.64	5032.15
425.83	5013.43
426.01	4957.25
426.20	5074.28
426.39	5153.86
426.58	5102.37
426.77	5036.83
426.96	5160.88
427.15	5219.39
427.33	5097.69
427.52	5034.49
427.71	5432.38
427.90	5397.28
428.09	5474.51
428.28	5359.83
428.46	5416.00
428.65	5394.93
428.84	5533.03
429.03	5600.90
429.22	5434.72
429.40	5579.84
429.59	5350.46
429.78	5327.06
429.97	5252.16
430.16	5495.58
430.34	5544.73
430.53	5757.72
430.72	5654.73
430.91	5593.88
431.10	5554.09
431.28	5743.67
431.47	5816.23
431.66	5797.51
431.85	5884.11
432.03	5832.62
432.22	5959.00
432.41	6057.31
432.60	5923.90
432.79	5872.40
432.97	6036.24
433.16	6033.90
433.35	5975.39
433.54	6038.58
433.72	6230.51
433.91	6169.65
434.10	6139.23
434.28	6080.71
434.47	6237.53
434.66	6183.70
434.85	6471.58
435.03	6373.28
435.22	6267.95
435.41	6548.82
435.59	6352.21
435.78	6282.00
435.97	6506.69
436.16	6352.21
436.34	6429.45
436.53	6370.94
436.72	6703.29
436.90	6612.01
437.09	6623.72
437.28	6424.77
437.46	6731.38
437.65	6595.63
437.84	6771.17
438.02	6803.94
438.21	6759.47
438.40	6899.90
438.58	6977.14
438.77	7075.44
438.96	6939.69
439.14	7236.94
439.33	7206.51
439.52	7391.41
439.70	7211.19
439.89	7346.94
440.08	7492.05
440.26	7470.99
440.45	7316.51
440.63	7447.58
440.82	7604.40
441.01	7597.38
441.19	7749.51
441.38	7712.07
441.57	7955.48
441.75	7784.62
441.94	7985.91
442.12	7927.39
442.31	7915.69
442.50	8107.62
442.68	8159.11
442.87	8072.51
443.05	8156.77
443.24	8238.69
443.43	8065.49
443.61	8060.80
443.80	8437.63
443.98	8009.31
444.17	7864.20
444.35	8231.66
444.54	8451.67
444.73	8182.51
444.91	8346.35
445.10	8500.83
445.28	8503.17
445.47	8273.79
445.65	8372.10
445.84	8404.86
446.02	8414.23
446.21	8482.10
446.39	8435.29
446.58	8507.85
446.77	8606.15
446.95	8351.03
447.14	8549.98
447.32	8767.65
447.51	8641.26
447.69	8671.68
447.88	8538.27
448.06	8496.14
448.25	8514.87
448.43	8695.09
448.62	8566.36
448.80	8643.60
448.99	8442.31
449.17	8613.17
449.36	8699.77
449.54	8975.95
449.73	9004.04
449.91	9090.64
450.10	8980.64
450.28	9142.13
450.46	8992.34
450.65	8938.51
450.83	9219.37
451.02	8982.98
451.20	9341.08
451.39	9092.98
451.57	9062.55
451.76	9130.43
451.94	9212.35
452.13	9390.23
452.31	9287.25
452.49	9158.52
452.68	9406.61
452.86	9301.29
453.05	9537.68
453.23	9680.46
453.42	9397.25
453.60	9528.32
453.78	9572.79
453.97	9507.26
454.15	9760.03
454.34	9514.28
454.52	9706.20
454.70	9806.84
454.89	9729.61
455.07	9853.66
455.26	9926.21
455.44	10026.86
455.62	10120.48
455.81	9764.72
455.99	10019.83
456.17	10087.71
456.36	10073.67
456.54	10340.49
456.73	10228.14
456.91	10614.33
457.09	10640.08
457.28	10389.64
457.46	10518.37
457.64	10579.22
457.83	10600.29
458.01	10312.40
458.19	10855.40
458.38	10511.35
458.56	10843.70
458.74	10967.75
458.93	10654.12
459.11	10729.02
459.29	10703.27
459.48	10904.56
459.66	10726.68
459.84	10904.56
460.03	10944.34
460.21	10988.82
460.39	11082.44
460.57	11073.07
460.76	11213.51
460.94	10963.07
461.12	11232.23
461.31	11150.31
461.49	11173.72
461.67	11190.10
461.85	11389.05
462.04	11260.32
462.22	11468.62
462.40	11726.08
462.59	11597.35
462.77	11433.52
462.95	11583.31
463.13	11616.08
463.32	11845.45
463.50	11777.58
463.68	11672.25
463.86	11784.60
464.05	11733.11
464.23	11602.04
464.41	12126.32
464.59	11824.39
464.78	12006.95
464.96	12152.06
465.14	11873.54
465.32	11988.22
465.50	12138.02
465.69	12119.29
465.87	12297.17
466.05	12353.35
466.23	12400.16
466.41	12336.96
466.60	12596.76
466.78	12198.87
466.96	12386.12
467.14	12287.81
467.32	12592.08
467.51	12531.23
467.69	12044.40
467.87	12482.08
468.05	12596.76
468.23	12416.54
468.41	12603.78
468.60	12753.58
468.78	12765.28
468.96	12631.87
469.14	13067.21
469.32	13013.38
469.50	12788.69
469.69	13081.25
469.87	13062.53
470.05	13235.73
470.23	13034.44
470.41	12947.84
470.59	13577.45
470.77	13369.14
470.95	13715.54
471.14	13610.22
471.32	13261.48
471.50	13561.06
471.68	13713.20
471.86	13617.24
472.04	13617.24
472.22	14221.10
472.40	13642.98
472.58	13905.12
472.77	14132.15
472.95	14045.55
473.13	14775.80
473.31	14148.54
473.49	13933.21
473.67	14120.45
473.85	14331.10
474.03	14558.13
474.21	14511.32
474.39	15019.22
474.57	14867.08
474.75	15005.17
474.93	14860.06
475.12	14874.10
475.30	15260.29
475.48	15208.80
475.66	15176.03
475.84	15105.82
476.02	15243.91
476.20	15557.54
476.38	15573.92
476.56	16063.10
476.74	15946.07
476.92	16016.29
477.10	15651.16
477.28	16287.79
477.46	16318.22
477.64	16460.99
477.82	16830.79
478.00	16940.80
478.18	16947.82
478.36	16966.54
478.54	17317.62
478.72	17341.03
478.90	17439.33
479.08	17451.03
479.26	17710.83
479.44	17631.26
479.62	17919.14
479.80	18146.17
479.98	18026.81
480.16	18841.31
480.34	18424.70
480.52	18551.09
480.70	18780.46
480.88	18314.69
481.06	18848.33
481.24	19178.35
481.41	19108.13
481.59	19477.94
481.77	19250.91
481.95	19723.69
482.13	19494.32
482.31	19826.68
482.49	20297.13
482.67	20269.04
482.85	20493.73
483.03	20554.58
483.21	21032.05
483.39	21181.85
483.57	21277.81
483.74	21235.68
483.92	21577.40
484.10	21432.29
484.28	22017.42
484.46	21982.31
484.64	22401.27
484.82	22436.38
485.00	22731.28
485.18	22848.31
485.35	23302.37
485.53	22988.74
485.71	23002.78
485.89	23473.23
486.07	23601.96
486.25	23365.57
486.43	23419.40
486.61	23831.33
486.78	24215.18
486.96	24472.64
487.14	24790.95
487.32	24432.85
487.50	25247.36
487.68	25025.01
487.85	25427.58
488.03	25455.67
488.21	25750.57
488.39	26029.10
488.57	26272.51
488.75	26478.48
488.92	26525.29
489.10	26579.12
489.28	26883.39
489.46	27344.48
489.64	27391.29
489.81	27613.64
489.99	27585.55
490.17	27793.86
490.35	28264.31
490.53	28481.98
490.70	28240.90
490.88	28458.57
491.06	29024.98
491.24	29060.09
491.41	29605.44
491.59	29179.46
491.77	29394.79
491.95	29837.15
492.13	30019.71
492.30	30176.53
492.48	30211.64
492.66	30443.35
492.84	30209.29
493.01	30691.44
493.19	31051.89
493.37	31108.06
493.54	31527.02
493.72	31615.96
493.90	31562.12
494.08	31887.46
494.25	31981.08
494.43	32210.45
494.61	32128.53
494.79	32849.42
494.96	32615.37
495.14	32954.74
495.32	33029.64
495.49	33326.89
495.67	33490.73
495.85	33570.30
496.02	34087.56
496.20	34129.69
496.38	34312.25
496.55	34323.96
496.73	35002.71
496.91	34728.87
497.09	34871.64
497.26	35133.78
497.44	34866.96
497.62	35459.12
497.79	35728.28
497.97	35634.66
498.14	36477.25
498.32	36189.36
498.50	36601.30
498.67	36938.33
498.85	36601.30
499.03	36931.31
499.20	36947.70
499.38	36882.16
499.56	37184.09
499.73	37081.11
499.91	37902.64
500.08	37928.38
500.26	37600.71
500.44	37879.23
500.61	38232.65
500.79	37907.32
500.97	38089.88
501.14	38918.43
501.32	38504.15
501.49	38485.43
501.67	38557.99
501.84	39110.35
502.02	38623.52
502.20	39199.29
502.37	39433.35
502.55	39227.38
502.72	39756.34
502.90	40030.18
503.07	39667.40
503.25	39730.59
503.43	40046.57
503.60	40299.34
503.78	40509.99
503.95	40580.21
504.13	41003.85
504.30	40692.55
504.48	40610.64
504.65	41240.24
504.83	41261.30
505.01	41109.17
505.18	41558.55
505.36	41818.35
505.53	41586.64
505.71	41734.09
505.88	41879.21
506.06	41928.36
506.23	41965.81
506.41	41834.74
506.58	42241.99
506.76	42581.37
506.93	42567.32
507.11	42375.40
507.28	42763.93
507.46	42934.79
507.63	43143.09
507.81	43278.85
507.98	43133.73
508.16	43466.09
508.33	43215.65
508.50	43826.53
508.68	44271.23
508.85	44381.24
509.03	43887.39
509.20	44687.85
509.38	44589.55
509.55	44528.69
509.73	44844.66
509.90	44554.44
510.08	44498.26
510.25	45083.40
510.42	45184.04
510.60	45083.40
510.77	45640.45
510.95	45097.44
511.12	45382.99
511.30	45329.16
511.47	45579.59
511.64	45872.16
511.82	46106.21
511.99	45656.83
512.17	46073.45
512.34	46061.74
512.51	46576.66
512.69	46499.42
512.86	46511.13
513.04	46920.72
513.21	47012.00
513.38	47077.54
513.56	47040.09
513.73	46878.59
513.90	47372.44
514.08	47274.14
514.25	47473.09
514.43	47510.53
514.60	47456.70
514.77	47711.82
514.95	47784.38
515.12	47709.48
515.29	47782.04
515.47	48233.76
515.64	48531.01
515.81	47690.76
515.99	48421.00
516.16	48477.18
516.33	48477.18
516.51	48989.75
516.68	48662.08
516.85	48788.47
517.03	49228.49
517.20	48971.03
517.37	49045.93
517.54	49205.08
517.72	48978.05
517.89	48921.88
518.06	49148.91
518.24	49659.15
518.41	49205.08
518.58	49628.72
518.75	49287.00
518.93	49607.65
519.10	49769.15
519.27	49886.18
519.45	49890.86
519.62	50071.08
519.79	50141.30
519.96	50319.18
520.14	50611.74
520.31	50300.45
520.48	50394.07
520.65	50747.50
520.83	50916.01
521.00	50494.72
521.17	50955.80
521.34	50726.43
521.52	50815.37
521.69	50724.09
521.86	51480.08
522.03	51323.27
522.20	51519.87
522.38	51524.55
522.55	51498.81
522.72	51456.68
522.89	51601.79
523.07	51978.62
523.24	51491.79
523.41	52009.04
523.58	51505.83
523.75	51964.57
523.92	51908.40
524.10	52294.59
524.27	52275.87
524.44	52137.77
524.61	52353.10
524.78	52444.38
524.96	52306.29
525.13	52538.01
525.30	52706.52
525.47	52547.37
525.64	52212.67
525.81	52896.11
525.98	52755.68
526.16	52498.22
526.33	52849.30
526.50	53418.05
526.67	53066.97
526.84	52985.05
527.01	53123.14
527.18	53183.99
527.36	53092.71
527.53	53291.66
527.70	53586.57
527.87	53364.21
528.04	53371.24
528.21	53546.78
528.38	53687.21
528.55	53614.65
528.72	53436.77
528.89	53652.10
529.07	53462.52
529.24	53368.90
529.41	53822.96
529.58	53588.91
529.75	53890.83
529.92	53806.58
530.09	53886.15
530.26	54190.42
530.43	54326.17
530.60	53982.12
530.77	53928.28
530.94	54246.60
531.11	54410.43
531.28	54316.81
531.46	54431.50
531.63	54588.31
531.80	54466.61
531.97	54602.36
532.14	54550.87
532.31	54497.03
532.48	54532.14
532.65	54688.96
532.82	54522.78
532.99	54871.52
533.16	54611.72
533.33	54693.64
533.50	55014.29
533.67	54946.42
533.84	54953.44
534.01	54691.30
534.18	55131.32
534.35	55458.99
534.52	55274.09
534.69	55285.79
534.86	55264.73
535.03	55002.59
535.20	55388.78
535.37	55318.56
535.54	55299.84
535.71	55440.27
535.88	55353.67
536.05	55309.20
536.22	55774.97
536.38	55774.97
536.55	55571.34
536.72	55880.29
536.89	55728.16
537.06	55742.20
537.23	55973.91
537.40	55934.12
537.57	55920.08
537.74	55849.86
537.91	56037.11
538.08	55920.08
538.25	55887.31
538.42	56060.51
538.59	56051.15
538.75	56095.62
538.92	56027.74
539.09	56339.04
539.26	56212.65
539.43	56271.16
539.60	56308.61
539.77	56207.97
539.94	56500.53
540.11	56435.00
540.28	56493.51
540.44	56601.18
540.61	56530.96
540.78	56423.29
540.95	56640.96
541.12	56502.87
541.29	56680.75
541.46	56615.22
541.62	56680.75
541.79	56830.55
541.96	56479.47
542.13	56694.80
542.30	56652.67
542.47	56872.68
542.63	56860.97
542.80	56956.94
542.97	57205.03
543.14	57460.15
543.31	57361.85
543.48	57322.06
543.64	57443.77
543.81	57279.93
543.98	57661.44
544.15	57598.24
544.32	57504.62
544.48	57836.98
544.65	57434.41
544.82	57490.58
544.99	57333.76
545.16	57729.31
545.32	57532.71
545.49	57778.46
545.66	57907.19
545.83	57733.99
546.00	57776.12
546.16	57811.23
546.33	57757.40
546.50	57640.37
546.67	57818.25
546.83	57518.67
547.00	58010.18
547.17	57820.59
547.34	58059.33
547.50	58080.39
547.67	58272.32
547.84	57951.66
548.00	58337.85
548.17	58265.30
548.34	58000.82
548.51	58415.09
548.67	58379.98
548.84	58387.00
549.01	58101.46
549.18	58433.81
549.34	58246.57
549.51	58401.05
549.68	58319.13
549.84	58550.84
550.01	58571.91
550.18	58520.41
550.34	58405.73
550.51	58632.76
550.68	59002.56
550.84	58382.32
551.01	58866.81
551.18	58595.31
551.34	58588.29
551.51	58482.97
551.68	58686.59
551.84	58714.68
552.01	58548.50
552.18	58679.57
552.34	58726.38
552.51	58670.21
552.68	58829.37
552.84	58787.24
553.01	58934.69
553.18	58997.88
553.34	58934.69
553.51	59030.65
553.67	59035.33
553.84	58993.20
554.01	59119.59
554.17	59119.59
554.34	59143.00
554.51	58796.60
554.67	59152.36
554.84	59032.99
555.00	58901.92
555.17	59264.70
555.33	59311.52
555.50	59002.56
555.67	59224.92
555.83	59105.55
556.00	59213.21
556.16	59627.49
556.33	59348.96
556.50	59213.21
556.66	59400.46
556.83	59430.88
556.99	59414.50
557.16	59662.60
557.32	59604.08
557.49	59781.96
557.65	59421.52
557.82	59468.33
557.98	59337.26
558.15	59442.59
558.32	59477.69
558.48	59728.13
558.65	59540.89
558.81	59564.29
558.98	59767.92
559.14	59814.73
559.31	59681.32
559.47	59704.73
559.64	59915.37
559.80	59824.09
559.97	59760.90
560.13	59681.32
560.30	59641.53
560.46	59632.17
560.63	59950.48
560.79	59791.33
560.96	60025.38
561.12	59934.10
561.29	59943.46
561.45	60076.87
561.61	59990.27
561.78	60032.40
561.94	60030.06
562.11	59866.22
562.27	59957.50
562.44	59948.14
562.60	60072.19
562.77	60221.98
562.93	59852.18
563.10	60210.28
563.26	60081.55
563.42	60516.89
563.59	60079.21
563.75	59962.18
563.92	60243.05
564.08	59980.91
564.24	60247.73
564.41	60238.37
564.57	60374.12
564.74	60189.22
564.90	60203.26
565.07	60268.79
565.23	60418.59
565.39	60388.16
565.56	60622.22
565.72	60257.09
565.88	60165.81
566.05	60093.25
566.21	60308.58
566.38	60238.37
566.54	60229.01
566.70	60486.46
566.87	60444.33
567.03	60238.37
567.19	60507.53
567.36	60500.51
567.52	60463.06
567.68	60790.73
567.85	60505.19
568.01	60561.36
568.17	60320.29
568.34	60547.32
568.50	60559.02
568.66	60238.37
568.83	60491.15
568.99	60519.23
569.15	60395.18
569.32	60430.29
569.48	60498.17
569.64	60720.52
569.81	60629.24
569.97	60706.47
570.13	60645.62
570.30	60509.87
570.46	60603.49
570.62	60580.09
570.78	60554.34
570.95	60650.30
571.11	60877.33
571.27	60659.66
571.43	60594.13
571.60	60837.54
571.76	60762.65
571.92	60587.11
572.09	60678.39
572.25	60718.18
572.41	60549.66
572.57	60753.29
572.74	60692.43
572.90	60757.97
573.06	60692.43
573.22	60809.46
573.38	60706.47
573.55	60657.32
573.71	60807.12
573.87	60743.92
574.03	60580.09
574.20	60818.82
574.36	60764.99
574.52	60926.49
574.68	60814.14
574.84	60825.84
575.01	60882.02
575.17	60907.76
575.33	60814.14
575.49	60652.64
575.65	60692.43
575.82	60797.76
575.98	60900.74
576.14	60931.17
576.30	60893.72
576.46	60966.27
576.62	60851.59
576.79	60849.25
576.95	60704.13
577.11	60882.02
577.27	61003.72
577.43	60987.34
577.59	60736.90
577.75	60755.63
577.92	60879.67
578.08	60947.55
578.24	60903.08
578.40	61212.03
578.56	61022.45
578.72	60924.14
578.88	61120.75
579.04	61205.01
579.21	61013.08
579.37	61092.66
579.53	61043.51
579.69	60699.45
579.85	60886.70
580.01	60996.70
580.17	60970.96
580.33	61052.87
580.49	61080.96
580.65	60750.94
580.82	60879.67
580.98	60860.95
581.14	60863.29
581.30	61106.71
581.46	61024.79
581.62	60959.25
581.78	61151.18
581.94	61123.09
582.10	61083.30
582.26	60800.10
582.42	61006.06
582.58	61293.95
582.74	60900.74
582.90	61080.96
583.06	60987.34
583.22	60933.51
583.38	60952.23
583.54	61029.47
583.70	61092.66
583.86	61064.58
584.02	60783.71
584.18	61322.04
584.34	61087.98
584.50	61148.84
584.66	60980.32
584.82	60757.97
584.98	61300.97
585.14	61247.14
585.30	61029.47
585.46	61052.87
585.62	61233.10
585.78	61155.86
585.94	60973.30
586.10	61186.28
586.26	61205.01
586.42	61073.94
586.58	61322.04
586.74	61050.53
586.90	61095.00
587.06	61017.77
587.22	61048.19
587.38	61279.91
587.54	61329.06
587.70	61300.97
587.86	61240.12
588.02	61230.75
588.18	61298.63
588.34	61066.92
588.49	61418.00
