SpectraSuite Data File
++++++++++++++++++++++++++++++++++++
Date: Fri Oct 25 10:47:22 EDT 2013
User: price-jones
Dark Spectrum Present: No
Reference Spectrum Present: No
Number of Sampled Component Spectra: 1
Spectrometers: USB2+H05261
Integration Time (usec): 100000 (USB2+H05261)
Spectra Averaged: 1 (USB2+H05261)
Boxcar Smoothing: 0 (USB2+H05261)
Correct for Electrical Dark: No (USB2+H05261)
Strobe/Lamp Enabled: No (USB2+H05261)
Correct for Detector Non-linearity: No (USB2+H05261)
Correct for Stray Light: No (USB2+H05261)
Number of Pixels in Processed Spectrum: 2048
>>>>>Begin Processed Spectral Data<<<<<
365.73	128.73
365.92	128.73
366.12	128.73
366.32	53.83
366.52	44.47
366.72	100.64
366.91	42.13
367.11	74.90
367.31	0.00
367.51	72.56
367.70	51.49
367.90	77.24
368.10	0.00
368.30	37.45
368.49	46.81
368.69	46.81
368.89	18.72
369.09	140.43
369.28	81.92
369.48	70.22
369.68	121.71
369.87	152.13
370.07	119.37
370.27	138.09
370.47	220.01
370.66	318.31
370.86	397.89
371.06	423.64
371.25	451.72
371.45	418.96
371.65	442.36
371.84	428.32
372.04	409.59
372.24	491.51
372.44	479.81
372.63	454.06
372.83	489.17
373.03	554.71
373.22	486.83
373.42	484.49
373.62	475.13
373.81	533.64
374.01	510.24
374.21	580.45
374.40	484.49
374.60	540.66
374.79	601.52
374.99	582.79
375.19	531.30
375.38	491.51
375.58	493.85
375.78	545.34
375.97	585.13
376.17	681.10
376.37	512.58
376.56	564.07
376.76	538.32
376.95	627.26
377.15	594.50
377.35	543.00
377.54	571.09
377.74	603.86
377.93	608.54
378.13	587.47
378.33	674.07
378.52	627.26
378.72	613.22
378.91	627.26
379.11	617.90
379.31	631.94
379.50	606.20
379.70	643.65
379.89	645.99
380.09	685.78
380.28	671.73
380.48	690.46
380.68	716.20
380.87	645.99
381.07	662.37
381.26	650.67
381.46	638.97
381.65	664.71
381.85	603.86
382.04	601.52
382.24	709.18
382.43	674.07
382.63	587.47
382.83	702.16
383.02	727.91
383.22	713.86
383.41	688.12
383.61	734.93
383.80	725.57
384.00	671.73
384.19	702.16
384.39	767.70
384.58	725.57
384.78	774.72
384.97	727.91
385.17	821.53
385.36	821.53
385.56	711.52
385.75	706.84
385.95	786.42
386.14	863.66
386.34	753.65
386.53	814.51
386.72	802.80
386.92	837.91
387.11	819.19
387.31	814.51
387.50	809.83
387.70	816.85
387.89	816.85
388.09	823.87
388.28	849.61
388.48	823.87
388.67	894.08
388.86	873.02
389.06	905.79
389.25	891.74
389.45	877.70
389.64	908.13
389.84	882.38
390.03	917.49
390.22	926.85
390.42	901.11
390.61	976.00
390.81	889.40
391.00	943.24
391.19	978.34
391.39	976.00
391.58	992.39
391.78	926.85
391.97	959.62
392.16	959.62
392.36	985.37
392.55	884.72
392.75	997.07
392.94	919.83
393.13	1022.81
393.33	999.41
393.52	966.64
393.71	983.02
393.91	1118.78
394.10	1067.28
394.29	1053.24
394.49	980.68
394.68	1062.60
394.88	1029.84
395.07	1062.60
395.26	999.41
395.46	1053.24
395.65	1130.48
395.84	1111.75
396.04	1198.35
396.23	1132.82
396.42	1118.78
396.62	1111.75
396.81	1121.12
397.00	1095.37
397.19	1107.07
397.39	1212.40
397.58	1284.95
397.77	1219.42
397.97	1177.29
398.16	1327.08
398.35	1282.61
398.55	1242.82
398.74	1198.35
398.93	1317.72
399.12	1252.19
399.32	1303.68
399.51	1411.34
399.70	1336.45
399.90	1355.17
400.09	1345.81
400.28	1348.15
400.47	1313.04
400.67	1336.45
400.86	1453.47
401.05	1448.79
401.24	1399.64
401.44	1413.68
401.63	1481.56
401.82	1547.09
402.01	1530.71
402.21	1542.41
402.40	1490.92
402.59	1586.88
402.78	1495.60
402.97	1451.13
403.17	1514.33
403.36	1739.02
403.55	1563.48
403.74	1675.82
403.93	1572.84
404.13	1682.85
404.32	1619.65
404.51	1694.55
404.70	1689.87
404.89	1675.82
405.09	1701.57
405.28	1748.38
405.47	1724.97
405.66	1713.27
405.85	1720.29
406.05	1748.38
406.24	1631.35
406.43	1823.28
406.62	1937.96
406.81	1902.86
407.00	1792.85
407.20	1776.47
407.39	1767.10
407.58	1893.49
407.77	1884.13
407.96	1926.26
408.15	1809.23
408.34	2036.27
408.54	1912.22
408.73	2003.50
408.92	2120.53
409.11	2026.90
409.30	2050.31
409.49	2008.18
409.68	1944.99
409.87	2066.69
410.07	2094.78
410.26	2083.08
410.45	2097.12
410.64	2078.40
410.83	2200.10
411.02	2176.70
411.21	2195.42
411.40	2167.34
411.59	2328.83
411.78	2223.51
411.98	2324.15
412.17	2256.28
412.36	2373.30
412.55	2401.39
412.74	2368.62
412.93	2368.62
413.12	2307.77
413.31	2462.24
413.50	2417.77
413.69	2464.58
413.88	2490.33
414.07	2485.65
414.26	2422.45
414.45	2630.76
414.64	2537.14
414.83	2546.50
415.02	2590.97
415.22	2682.25
415.41	2743.11
415.60	2712.68
415.79	2736.09
415.98	2904.60
416.17	2815.66
416.36	2855.45
416.55	2843.75
416.74	2867.16
416.93	2860.13
417.12	2970.14
417.31	2832.05
417.50	3028.65
417.69	3094.19
417.88	2963.12
418.07	2946.73
418.26	3159.72
418.45	3080.14
418.64	3124.62
418.83	3091.85
419.02	3117.59
419.21	3133.98
419.39	3148.02
419.58	3115.25
419.77	3171.43
419.96	3236.96
420.15	3318.88
420.34	3321.22
420.53	3281.43
420.72	3321.22
420.91	3330.58
421.10	3375.05
421.29	3501.44
421.48	3222.92
421.67	3361.01
421.86	3445.27
422.05	3335.26
422.24	3332.92
422.43	3382.07
422.61	3459.31
422.80	3419.52
422.99	3339.94
423.18	3475.70
423.37	3592.72
423.56	3597.40
423.75	3372.71
423.94	3335.26
424.13	3199.51
424.32	3323.56
424.50	3571.66
424.69	3447.61
424.88	3506.12
425.07	3459.31
425.26	3391.44
425.45	3529.53
425.64	3449.95
425.83	3515.48
426.01	3562.30
426.20	3522.51
426.39	3531.87
426.58	3604.42
426.77	3449.95
426.96	3550.59
427.15	3581.02
427.33	3550.59
427.52	3590.38
427.71	3590.38
427.90	3529.53
428.09	3454.63
428.28	3740.18
428.46	3705.07
428.65	3698.05
428.84	3702.73
429.03	3714.43
429.22	3728.47
429.40	3665.28
429.59	3653.58
429.78	3543.57
429.97	3646.55
430.16	3728.47
430.34	3693.37
430.53	3772.94
430.72	3784.65
430.91	3826.78
431.10	3758.90
431.28	3943.80
431.47	3992.95
431.66	4119.34
431.85	3997.64
432.03	4037.42
432.22	4219.99
432.41	4135.73
432.60	4189.56
432.79	4217.65
432.97	4182.54
433.16	4212.96
433.35	4180.20
433.54	4217.65
433.72	4161.47
433.91	4198.92
434.10	4219.99
434.28	4229.35
434.47	4383.82
434.66	4400.21
434.85	4381.48
435.03	4189.56
435.22	4430.63
435.41	4447.02
435.59	4615.54
435.78	4557.02
435.97	4526.60
436.16	4470.42
436.34	4533.62
436.53	4608.51
436.72	4617.88
436.90	4528.94
437.09	4528.94
437.28	4594.47
437.46	4531.28
437.65	4603.83
437.84	4692.77
438.02	4641.28
438.21	4730.22
438.40	4631.92
438.58	4648.30
438.77	4786.40
438.96	4938.53
439.14	4908.10
439.33	4912.78
439.52	4938.53
439.70	5053.22
439.89	4975.98
440.08	5123.43
440.26	5050.88
440.45	5081.30
440.63	5193.65
440.82	5015.77
441.01	5158.54
441.19	5198.33
441.38	5366.85
441.57	5221.74
441.75	5341.10
441.94	5540.05
442.12	5610.26
442.31	5652.39
442.50	5500.26
442.68	5563.45
442.87	5638.35
443.05	5589.20
443.24	5762.40
443.43	5673.46
443.61	5813.89
443.80	5884.11
443.98	5628.99
444.17	5640.69
444.35	5856.02
444.54	5921.56
444.73	5668.78
444.91	5860.70
445.10	5699.20
445.28	5776.44
445.47	5701.54
445.65	5706.23
445.84	5785.80
446.02	5799.85
446.21	5902.83
446.39	5785.80
446.58	5832.62
446.77	5865.38
446.95	5703.89
447.14	5837.30
447.32	6052.63
447.51	5746.02
447.69	5818.57
447.88	5797.51
448.06	6047.94
448.25	5966.03
448.43	5795.17
448.62	5947.30
448.80	5959.00
448.99	6087.73
449.17	6057.31
449.36	6050.28
449.54	6274.98
449.73	6455.20
449.91	6291.36
450.10	6216.46
450.28	6394.34
450.46	6263.27
450.65	6106.46
450.83	6366.26
451.02	6417.75
451.20	6396.68
451.39	6324.13
451.57	6284.34
451.76	6228.17
451.94	6356.90
452.13	6590.95
452.31	6406.05
452.49	6307.74
452.68	6518.39
452.86	6356.90
453.05	6450.52
453.23	6331.15
453.42	6366.26
453.60	6443.49
453.78	6558.18
453.97	6614.35
454.15	6649.46
454.34	6345.19
454.52	6600.31
454.70	6633.08
454.89	6715.00
455.07	6715.00
455.26	6916.28
455.44	6843.73
455.62	6878.83
455.81	6822.66
455.99	6820.32
456.17	6911.60
456.36	6684.57
456.54	6799.26
456.73	7033.31
456.91	7173.74
457.09	7098.84
457.28	7419.50
457.46	7162.04
457.64	7176.08
457.83	7164.38
458.01	7094.16
458.19	7279.07
458.38	7129.27
458.56	7459.29
458.74	7386.73
458.93	7391.41
459.11	7407.80
459.29	7417.16
459.48	7403.11
459.66	7265.02
459.84	7346.94
460.03	7665.25
460.21	7480.35
460.39	7569.29
460.57	7414.82
460.76	7431.20
460.94	7679.30
461.12	7634.83
461.31	7644.19
461.49	7667.60
461.67	7707.38
461.85	7847.82
462.04	7669.94
462.22	8084.21
462.40	7950.80
462.59	7836.11
462.77	7950.80
462.95	7985.91
463.13	7829.09
463.32	8126.34
463.50	7915.69
463.68	8147.40
463.86	7934.42
464.05	7976.55
464.23	8037.40
464.41	8311.24
464.59	7850.16
464.78	8287.84
464.96	8067.83
465.14	7864.20
465.32	8241.03
465.50	8348.69
465.69	8145.06
465.87	8262.09
466.05	8402.52
466.23	8255.07
466.41	8182.51
466.60	8594.45
466.78	8395.50
466.96	8280.82
467.14	8156.77
467.32	8379.12
467.51	8379.12
467.69	8212.94
467.87	8344.01
468.05	8568.70
468.23	8381.46
468.41	8414.23
468.60	8383.80
468.78	8613.17
468.96	8500.83
469.14	8690.41
469.32	8559.34
469.50	8592.11
469.69	8739.56
469.87	8910.42
470.05	8718.50
470.23	8765.31
470.41	8905.74
470.59	8872.97
470.77	8777.01
470.95	8896.38
471.14	9074.26
471.32	8847.22
471.50	8968.93
471.68	9102.34
471.86	9202.99
472.04	9081.28
472.22	9385.55
472.40	9158.52
472.58	9142.13
472.77	9495.55
472.95	9366.82
473.13	9689.82
473.31	9418.32
473.49	9488.53
473.67	9352.78
473.85	9533.00
474.03	9760.03
474.21	9647.69
474.39	9914.51
474.57	9893.44
474.75	10106.43
474.93	9823.23
475.12	9879.40
475.30	10176.65
475.48	10178.99
475.66	10291.34
475.84	10118.14
476.02	10221.12
476.20	10373.25
476.38	10377.94
476.56	10675.18
476.74	10721.99
476.92	10497.30
477.10	10691.57
477.28	10714.97
477.46	10832.00
477.64	10946.69
477.82	11000.52
478.00	11311.81
478.18	11449.90
478.36	11274.36
478.54	11232.23
478.72	11573.95
478.90	11396.07
479.08	11592.67
479.26	11707.36
479.44	11810.34
479.62	11866.52
479.80	11885.24
479.98	12004.61
480.16	12264.41
480.34	12159.08
480.52	12362.71
480.70	12369.73
480.88	12109.93
481.06	12257.39
481.24	12533.57
481.41	12861.24
481.59	12851.88
481.77	12964.23
481.95	13022.74
482.13	13025.08
482.31	13193.60
482.49	13345.73
482.67	13205.30
482.85	13341.05
483.03	13678.09
483.21	13968.32
483.39	13745.97
483.57	13874.70
483.74	13958.96
483.92	13956.61
484.10	14012.79
484.28	14211.73
484.46	14471.53
484.64	14637.71
484.82	14183.65
485.00	14658.78
485.18	14789.85
485.35	14817.93
485.53	14523.02
485.71	14899.85
485.89	15213.48
486.07	15185.40
486.25	15143.27
486.43	15414.77
486.61	15330.51
486.78	15761.17
486.96	15978.84
487.14	15962.45
487.32	15936.71
487.50	16243.32
487.68	16456.31
487.85	16575.67
488.03	16582.70
488.21	16758.24
488.39	16931.44
488.57	16898.67
488.75	17013.35
488.92	17390.18
489.10	17703.81
489.28	17493.16
489.46	17795.09
489.64	17713.17
489.81	18328.74
489.99	18169.58
490.17	18295.97
490.35	18523.00
490.53	18317.03
490.70	18611.94
490.88	18490.23
491.06	18930.25
491.24	18890.46
491.41	18918.55
491.59	18986.43
491.77	19005.15
491.95	19264.95
492.13	19552.84
492.30	19417.08
492.48	19648.80
492.66	19571.56
492.84	19716.67
493.01	19880.51
493.19	19817.32
493.37	20360.32
493.54	20198.82
493.72	20680.97
493.90	19971.79
494.08	20538.20
494.25	20933.75
494.43	21216.96
494.61	21200.57
494.79	21537.61
494.96	21172.49
495.14	21191.21
495.32	21586.76
495.49	21605.49
495.67	21282.49
495.85	21799.75
496.02	21827.84
496.20	22324.03
496.38	22380.20
496.55	22256.15
496.73	22466.80
496.91	22530.00
497.09	22394.25
497.26	22897.46
497.44	22382.54
497.62	22888.10
497.79	23152.58
497.97	22892.78
498.14	23178.33
498.32	23171.30
498.50	23229.82
498.67	23620.69
498.85	23583.24
499.03	23665.16
499.20	23562.17
499.38	23658.14
499.56	23843.04
499.73	24074.75
499.91	24109.86
500.08	24100.50
500.26	23730.69
500.44	23983.47
500.61	24341.57
500.79	24510.09
500.97	24676.27
501.14	25233.32
501.32	24947.77
501.49	24727.76
501.67	25188.85
501.84	25020.33
502.02	25081.18
502.20	25605.46
502.37	25722.49
502.55	25202.89
502.72	25476.73
502.90	25708.44
503.07	25408.86
503.25	25546.95
503.43	25591.42
503.60	25773.98
503.78	25905.05
503.95	25876.96
504.13	25968.24
504.30	26307.62
504.48	25883.98
504.65	26003.35
504.83	26663.38
505.01	26677.43
505.18	26548.70
505.36	27040.21
505.53	26848.29
505.71	26553.38
505.88	27215.75
506.06	26801.47
506.23	27199.37
506.41	27103.40
506.58	27627.68
506.76	27302.35
506.93	27440.44
507.11	27718.96
507.28	27498.95
507.46	27770.46
507.63	27438.10
507.81	27931.95
507.98	27747.05
508.16	27798.54
508.33	27957.70
508.50	28329.84
508.68	28149.62
508.85	28383.68
509.03	28655.18
509.20	28493.68
509.38	28842.42
509.55	28535.81
509.73	28842.42
509.90	28608.37
510.08	28498.36
510.25	28837.74
510.42	28886.89
510.60	29130.31
510.77	28966.47
510.95	29275.42
511.12	29064.77
511.30	29209.89
511.47	29874.60
511.64	29823.11
511.82	29860.55
511.99	29617.14
512.17	29876.94
512.34	29560.97
512.51	29759.91
512.69	30024.39
512.86	30155.46
513.04	30373.13
513.21	30108.65
513.38	29900.34
513.56	29991.62
513.73	30412.92
513.90	30307.60
514.08	30581.44
514.25	30246.74
514.43	30600.16
514.60	30714.85
514.77	30312.28
514.95	31267.22
515.12	31225.09
515.29	31000.40
515.47	31758.73
515.64	31480.21
515.81	30923.16
515.99	31606.59
516.16	31105.72
516.33	31379.56
516.51	31246.15
516.68	31096.36
516.85	31002.74
517.03	31952.99
517.20	31353.82
517.37	31208.70
517.54	32130.87
517.72	31896.82
517.89	31662.77
518.06	31620.64
518.24	31770.43
518.41	31871.07
518.58	31770.43
518.75	32222.16
518.93	32114.49
519.10	32063.00
519.27	32467.91
519.45	32063.00
519.62	32273.65
519.79	32790.91
519.96	32554.51
520.14	32868.14
520.31	32952.40
520.48	33024.96
520.65	32814.31
520.83	33235.61
521.00	32804.95
521.17	33490.73
521.34	33167.73
521.52	33186.46
521.69	32957.08
521.86	33191.14
522.03	33755.21
522.20	33479.02
522.38	33570.30
522.55	34071.18
522.72	33809.04
522.89	34099.26
523.07	33907.34
523.24	33879.25
523.41	34232.68
523.58	34293.53
523.75	34679.72
523.92	34536.94
524.10	34675.04
524.27	34536.94
524.44	34494.82
524.61	34649.29
524.78	34789.72
524.96	34852.92
525.13	34848.24
525.30	35271.87
525.47	34778.02
525.64	34773.34
525.81	34962.92
525.98	35400.60
526.16	34925.47
526.33	34490.13
526.50	35433.37
526.67	35108.04
526.84	35178.25
527.01	35330.39
527.18	35182.93
527.36	35447.41
527.53	35159.53
527.70	35318.68
527.87	35988.08
528.04	35526.99
528.21	35428.69
528.38	35412.31
528.55	36194.04
528.72	36165.96
528.89	36463.21
529.07	36013.82
529.24	35604.23
529.41	36175.32
529.58	36219.79
529.75	36018.50
529.92	36280.64
530.09	36313.41
530.26	36388.31
530.43	36474.91
530.60	36259.58
530.77	36041.91
530.94	36484.27
531.11	36510.02
531.28	36659.81
531.46	36563.85
531.63	36980.46
531.80	36861.10
531.97	36858.76
532.14	37081.11
532.31	36933.65
532.48	36912.59
532.65	37064.72
532.82	36800.24
532.99	37102.17
533.16	36851.73
533.33	37371.33
533.50	37354.95
533.67	37132.60
533.84	37275.37
534.01	37860.51
534.18	37223.88
534.35	37659.22
534.52	37511.77
534.69	37633.47
534.86	37729.44
535.03	37490.70
535.20	37675.60
535.37	38087.54
535.54	38094.56
535.71	37631.13
535.88	37638.15
536.05	37839.44
536.22	37876.89
536.38	38403.51
536.55	38295.85
536.72	37696.67
536.89	37785.61
537.06	38108.60
537.23	38272.44
537.40	38183.50
537.57	38162.43
537.74	38508.83
537.91	38394.15
538.08	38803.74
538.25	38459.68
538.42	38298.19
538.59	39058.86
538.75	38080.52
538.92	38780.34
539.09	38487.77
539.26	38623.52
539.43	38981.62
539.60	38504.15
539.77	38319.25
539.94	38899.70
540.11	38951.20
540.28	39007.37
540.44	39360.79
540.61	38691.40
540.78	38895.02
540.95	38983.96
541.12	39136.10
541.29	38782.68
541.46	38974.60
541.62	39133.76
541.79	39798.47
541.96	39248.44
542.13	39168.87
542.30	39569.10
542.47	39321.00
542.63	39629.95
542.80	39667.40
542.97	39784.43
543.14	40332.11
543.31	39768.04
543.48	39786.77
543.64	40346.15
543.81	39798.47
543.98	40039.54
544.15	39812.51
544.32	40650.42
544.48	40655.11
544.65	40196.36
544.82	40285.30
544.99	39903.79
545.16	40587.23
545.32	40217.43
545.49	40451.48
545.66	40708.94
545.83	40610.64
546.00	40320.41
546.16	40650.42
546.33	40786.18
546.50	40315.73
546.67	40517.01
546.83	40222.11
547.00	40493.61
547.17	40566.16
547.34	40830.65
547.50	40732.34
547.67	40861.07
547.84	40896.18
548.00	40931.29
548.17	41099.81
548.34	40877.46
548.51	40875.12
548.67	41055.34
548.84	41347.90
549.01	41193.43
549.18	40985.12
549.34	41425.14
549.51	41336.20
549.68	41514.08
549.84	41710.69
550.01	41628.77
550.18	41771.54
550.34	41265.99
550.51	41455.57
550.68	41186.41
550.84	41324.50
551.01	41652.17
551.18	41165.34
551.34	41670.90
551.51	41841.76
551.68	41794.95
551.84	41617.07
552.01	41961.12
552.18	41507.06
552.34	41778.56
552.51	41797.29
552.68	41684.94
552.84	41991.55
553.01	42160.07
553.18	41680.26
553.34	41392.37
553.51	41965.81
553.67	41918.99
553.84	42440.93
554.01	41743.45
554.17	42417.53
554.34	42466.68
554.51	41984.53
554.67	42429.23
554.84	42223.26
555.00	42040.70
555.17	41804.31
555.33	42380.08
555.50	42204.54
555.67	42719.46
555.83	41956.44
556.00	42527.53
556.16	43049.47
556.33	42459.66
556.50	42745.20
556.66	42740.52
556.83	42047.72
556.99	42609.45
557.16	42679.67
557.32	43091.60
557.49	42836.48
557.65	42536.90
557.82	42946.49
557.98	42511.15
558.15	42810.74
558.32	42845.85
558.48	42560.30
558.65	42850.53
558.81	42618.81
558.98	42859.89
559.14	43187.56
559.31	43028.41
559.47	43086.92
559.64	43171.18
559.80	43302.25
559.97	43068.20
560.13	42492.43
560.30	42567.32
560.46	42780.31
560.63	43145.44
560.79	42876.27
560.96	43524.60
561.12	43070.54
561.29	43187.56
561.45	42768.61
561.61	42976.92
561.78	42775.63
561.94	43063.52
562.11	43103.31
562.27	43072.88
562.44	43026.07
562.60	43405.23
562.77	43379.49
562.93	43253.10
563.10	43285.87
563.26	42895.00
563.42	43260.12
563.59	43536.30
563.75	43487.15
563.92	43339.70
564.08	43232.04
564.24	43878.02
564.41	43435.66
564.57	43257.78
564.74	43365.45
564.90	43522.26
565.07	43384.17
565.23	43459.07
565.39	43323.32
565.56	43416.94
565.72	43093.94
565.88	43461.41
566.05	43297.57
566.21	43461.41
566.38	43391.19
566.54	43608.86
566.70	43587.80
566.87	43693.12
567.03	43983.35
567.19	43917.81
567.36	43976.33
567.52	43189.91
567.68	43973.98
567.85	43402.89
568.01	43992.71
568.17	43475.45
568.34	43498.86
568.50	43973.98
568.66	43372.47
568.83	43782.06
568.99	43402.89
569.15	43590.14
569.32	43583.12
569.48	43201.61
569.64	43576.09
569.81	43866.32
569.97	43753.97
570.13	43908.45
570.30	43487.15
570.46	43508.22
570.62	43679.08
570.78	43206.29
570.95	43538.65
571.11	43775.04
571.27	43796.10
571.43	43662.69
571.60	44037.18
571.76	43735.25
571.92	43512.90
572.09	43793.76
572.25	43672.06
572.41	43997.39
572.57	43894.41
572.74	44313.36
572.90	43674.40
573.06	44100.37
573.22	43587.80
573.38	43821.85
573.55	43723.55
573.71	43782.06
573.87	43990.37
574.03	43744.61
574.20	43650.99
574.36	44088.67
574.52	44175.27
574.68	43959.94
574.84	43833.55
575.01	44210.38
575.17	43798.44
575.33	43943.56
575.49	44226.76
575.65	44175.27
575.82	44559.12
575.98	43519.92
576.14	44336.77
576.30	44325.07
576.46	43878.02
576.62	43782.06
576.79	43852.28
576.95	43548.01
577.11	43608.86
577.27	44399.96
577.43	44257.19
577.59	43938.88
577.75	44257.19
577.92	43473.11
578.08	44133.14
578.24	43349.06
578.40	44069.95
578.56	44018.46
578.72	43744.61
578.88	44144.84
579.04	44334.43
579.21	43894.41
579.37	43695.46
579.53	43899.09
579.69	43367.79
579.85	44107.40
580.01	43880.36
580.17	43936.54
580.33	44516.99
580.49	43824.19
580.65	43885.04
580.82	44238.47
580.98	44060.58
581.14	43746.95
581.30	43983.35
581.46	44219.74
581.62	44212.72
581.78	43983.35
581.94	44608.27
582.10	43962.28
582.26	44275.91
582.42	43824.19
582.58	44341.45
582.74	43959.94
582.90	44168.25
583.06	44762.75
583.22	44191.65
583.38	44500.61
583.54	44280.60
583.70	44116.76
583.86	43896.75
584.02	43648.65
584.18	44311.02
584.34	43917.81
584.50	44189.31
584.66	44112.08
584.82	44062.93
584.98	44318.04
585.14	44357.83
585.30	44320.38
585.46	44364.85
585.62	43999.73
585.78	43931.86
585.94	43742.27
586.10	44346.13
586.26	44107.40
586.42	44205.70
586.58	44222.08
586.74	44362.51
586.90	44086.33
587.06	43995.05
587.22	44212.72
587.38	44177.61
587.54	44486.56
587.70	44264.21
587.86	44168.25
588.02	44570.82
588.18	44058.24
588.34	44343.79
588.49	43779.72
588.65	44011.43
588.81	43641.63
588.97	44212.72
589.13	43707.16
589.29	43948.24
589.45	44034.84
589.61	44596.57
589.77	44458.48
589.93	44526.35
590.08	44442.09
590.24	44254.85
