SpectraSuite Data File
++++++++++++++++++++++++++++++++++++
Date: Fri Oct 25 10:44:05 EDT 2013
User: price-jones
Dark Spectrum Present: No
Reference Spectrum Present: No
Number of Sampled Component Spectra: 1
Spectrometers: USB2+H05261
Integration Time (usec): 100000 (USB2+H05261)
Spectra Averaged: 1 (USB2+H05261)
Boxcar Smoothing: 0 (USB2+H05261)
Correct for Electrical Dark: No (USB2+H05261)
Strobe/Lamp Enabled: No (USB2+H05261)
Correct for Detector Non-linearity: No (USB2+H05261)
Correct for Stray Light: No (USB2+H05261)
Number of Pixels in Processed Spectrum: 2048
>>>>>Begin Processed Spectral Data<<<<<
365.73	128.73
365.92	128.73
366.12	128.73
366.32	51.49
366.52	0.00
366.72	18.72
366.91	39.79
367.11	11.70
367.31	0.00
367.51	0.00
367.70	37.45
367.90	14.04
368.10	30.43
368.30	18.72
368.49	32.77
368.69	0.00
368.89	14.04
369.09	0.00
369.28	28.09
369.48	46.81
369.68	88.94
369.87	44.47
370.07	142.77
370.27	53.83
370.47	182.56
370.66	372.15
370.86	411.93
371.06	409.59
371.25	514.92
371.45	416.62
371.65	451.72
371.84	430.66
372.04	407.25
372.24	472.79
372.44	507.90
372.63	500.87
372.83	552.37
373.03	454.06
373.22	531.30
373.42	561.73
373.62	571.09
373.81	482.15
374.01	496.19
374.21	578.11
374.40	540.66
374.60	496.19
374.79	491.51
374.99	592.16
375.19	545.34
375.38	585.13
375.58	627.26
375.78	648.33
375.97	620.24
376.17	615.56
376.37	613.22
376.56	561.73
376.76	645.99
376.95	578.11
377.15	610.88
377.35	678.76
377.54	671.73
377.74	697.48
377.93	617.90
378.13	706.84
378.33	655.35
378.52	723.23
378.72	624.92
378.91	657.69
379.11	596.84
379.31	594.50
379.50	636.63
379.70	751.31
379.89	622.58
380.09	704.50
380.28	709.18
380.48	697.48
380.68	695.14
380.87	702.16
381.07	784.08
381.26	667.05
381.46	758.33
381.65	695.14
381.85	669.39
382.04	732.59
382.24	716.20
382.43	676.41
382.63	697.48
382.83	653.01
383.02	723.23
383.22	779.40
383.41	706.84
383.61	727.91
383.80	746.63
384.00	774.72
384.19	734.93
384.39	814.51
384.58	767.70
384.78	725.57
384.97	844.93
385.17	730.25
385.36	739.61
385.56	755.99
385.75	758.33
385.95	816.85
386.14	873.02
386.34	896.43
386.53	828.55
386.72	915.15
386.92	877.70
387.11	870.68
387.31	854.30
387.50	880.04
387.70	898.77
387.89	856.64
388.09	966.64
388.28	887.06
388.48	971.32
388.67	961.96
388.86	917.49
389.06	926.85
389.25	950.26
389.45	1020.47
389.64	1001.75
389.84	1057.92
390.03	1081.33
390.22	959.62
390.42	959.62
390.61	971.32
390.81	1032.18
391.00	1118.78
391.19	1067.28
391.39	1004.09
391.58	1032.18
391.78	999.41
391.97	1125.80
392.16	1048.56
392.36	1139.84
392.55	994.73
392.75	933.87
392.94	1018.13
393.13	1039.20
393.33	926.85
393.52	1137.50
393.71	1200.69
393.91	1064.94
394.10	1034.52
394.29	1196.01
394.49	1158.57
394.68	1200.69
394.88	1200.69
395.07	1289.64
395.26	1231.12
395.46	1214.74
395.65	1282.61
395.84	1217.08
396.04	1308.36
396.23	1205.38
396.42	1156.22
396.62	1193.67
396.81	1170.27
397.00	1226.44
397.19	1313.04
397.39	1357.51
397.58	1390.28
397.77	1451.13
397.97	1359.85
398.16	1474.54
398.35	1362.19
398.55	1437.09
398.74	1523.69
398.93	1605.61
399.12	1519.01
399.32	1455.81
399.51	1535.39
399.70	1598.59
399.90	1556.46
400.09	1575.18
400.28	1675.82
400.47	1619.65
400.67	1582.20
400.86	1624.33
401.05	1689.87
401.24	1736.68
401.44	1757.74
401.63	1741.36
401.82	1682.85
402.01	1799.87
402.21	1755.40
402.40	1839.66
402.59	1783.49
402.78	1610.29
402.97	1886.47
403.17	1797.53
403.36	1865.41
403.55	1886.47
403.74	1851.36
403.93	1872.43
404.13	1914.56
404.32	1975.41
404.51	1947.33
404.70	1947.33
404.89	1844.34
405.09	2062.01
405.28	2085.42
405.47	1998.82
405.66	2040.95
405.85	2031.58
406.05	2045.63
406.24	2038.61
406.43	2071.37
406.62	2097.12
406.81	2167.34
407.00	2083.08
407.20	2108.82
407.39	2083.08
407.58	2085.42
407.77	2172.02
407.96	2289.04
408.15	2314.79
408.34	2223.51
408.54	2258.62
408.73	2303.09
408.92	2356.92
409.11	2282.02
409.30	2242.23
409.49	2333.51
409.68	2317.13
409.87	2321.81
410.07	2340.54
410.26	2431.82
410.45	2420.11
410.64	2509.05
410.83	2614.38
411.02	2665.87
411.21	2562.89
411.40	2597.99
411.59	2672.89
411.78	2583.95
411.98	2757.15
412.17	2703.32
412.36	2726.72
412.55	2747.79
412.74	2862.48
412.93	2696.30
413.12	2717.36
413.31	2881.20
413.50	2803.96
413.69	2920.99
413.88	2974.82
414.07	2956.10
414.26	2956.10
414.45	3035.67
414.64	3101.21
414.83	3059.08
415.02	2946.73
415.22	3194.83
415.41	3213.56
415.60	3138.66
415.79	3283.77
415.98	3309.52
416.17	3255.69
416.36	3379.73
416.55	3251.00
416.74	3297.81
416.93	3461.65
417.12	3461.65
417.31	3398.46
417.50	3318.88
417.69	3330.58
417.88	3466.33
418.07	3442.93
418.26	3524.85
418.45	3487.40
418.64	3672.30
418.83	3602.08
419.02	3611.45
419.21	3676.98
419.39	3658.26
419.58	3555.27
419.77	3550.59
419.96	3588.04
420.15	3712.09
420.34	3588.04
420.53	3887.63
420.72	3971.89
420.91	3829.12
421.10	4056.15
421.29	3960.19
421.48	3875.93
421.67	3824.44
421.86	3749.54
422.05	3805.71
422.24	3789.33
422.43	3803.37
422.61	3955.51
422.80	3908.69
422.99	4058.49
423.18	3948.48
423.37	4009.34
423.56	3953.16
423.75	3953.16
423.94	3901.67
424.13	3747.20
424.32	3953.16
424.50	3927.42
424.69	4021.04
424.88	4044.45
425.07	3831.46
425.26	3936.78
425.45	4032.74
425.64	3854.86
425.83	4004.66
426.01	4091.26
426.20	4025.72
426.39	4028.06
426.58	4044.45
426.77	4070.19
426.96	4039.76
427.15	4032.74
427.33	4255.09
427.52	4126.36
427.71	4128.70
427.90	4119.34
428.09	4234.03
428.28	4102.96
428.46	4161.47
428.65	4135.73
428.84	4322.97
429.03	4271.48
429.22	4219.99
429.40	4189.56
429.59	4205.94
429.78	4007.00
429.97	3960.19
430.16	4016.36
430.34	4018.70
430.53	4168.49
430.72	4217.65
430.91	4308.93
431.10	4416.59
431.28	4477.44
431.47	4711.50
431.66	4727.88
431.85	4667.03
432.03	4725.54
432.22	4627.24
432.41	4709.16
432.60	4603.83
432.79	4786.40
432.97	4823.84
433.16	4800.44
433.35	4636.60
433.54	4709.16
433.72	4655.33
433.91	4627.24
434.10	4884.70
434.28	4873.00
434.47	4854.27
434.66	5116.41
434.85	5128.11
435.03	5151.52
435.22	4875.34
435.41	5193.65
435.59	5186.63
435.78	5095.35
435.97	5277.91
436.16	5273.23
436.34	5198.33
436.53	5111.73
436.72	5188.97
436.90	5146.84
437.09	5282.59
437.28	5205.35
437.46	5217.05
437.65	5153.86
437.84	5228.76
438.02	5095.35
438.21	5259.18
438.40	5224.08
438.58	5568.13
438.77	5423.02
438.96	5444.09
439.14	5638.35
439.33	5701.54
439.52	5687.50
439.70	5757.72
439.89	5720.27
440.08	5804.53
440.26	5703.89
440.45	5729.63
440.63	5966.03
440.82	6129.86
441.01	5940.28
441.19	6129.86
441.38	6228.17
441.57	6043.26
441.75	6104.12
441.94	6368.60
442.12	6328.81
442.31	6471.58
442.50	6370.94
442.68	6335.83
442.87	6422.43
443.05	6169.65
443.24	6677.55
443.43	6462.22
443.61	6623.72
443.80	6693.93
443.98	6389.66
444.17	6279.66
444.35	6525.41
444.54	6806.28
444.73	6604.99
444.91	6628.40
445.10	6682.23
445.28	6499.67
445.47	6406.05
445.65	6478.60
445.84	6705.63
446.02	6600.31
446.21	6743.08
446.39	6637.76
446.58	6881.18
446.77	6722.02
446.95	6717.34
447.14	6974.80
447.32	6771.17
447.51	6682.23
447.69	6799.26
447.88	6902.24
448.06	6754.79
448.25	6574.56
448.43	6892.88
448.62	6715.00
448.80	6803.94
448.99	7016.93
449.17	6993.52
449.36	6827.34
449.54	6916.28
449.73	7133.95
449.91	7150.34
450.10	7185.44
450.28	7206.51
450.46	7363.33
450.65	7396.09
450.83	7293.11
451.02	7091.82
451.20	7480.35
451.39	7258.00
451.57	7283.75
451.76	7290.77
451.94	7255.66
452.13	7318.86
452.31	7140.97
452.49	7225.23
452.68	7410.14
452.86	7190.13
453.05	7438.22
453.23	7463.97
453.42	7372.69
453.60	7316.51
453.78	7550.57
453.97	7566.95
454.15	7480.35
454.34	7382.05
454.52	7686.32
454.70	7595.04
454.89	7620.78
455.07	7541.21
455.26	7669.94
455.44	7899.31
455.62	7815.05
455.81	7709.72
455.99	7932.08
456.17	7939.10
456.36	7981.23
456.54	8035.06
456.73	8100.59
456.91	8105.28
457.09	8276.13
457.28	8248.05
457.46	8175.49
457.64	8386.14
457.83	8219.96
458.01	8016.33
458.19	8425.93
458.38	8189.53
458.56	8456.36
458.74	8369.76
458.93	8393.16
459.11	8292.52
459.29	8353.37
459.48	8479.76
459.66	8327.63
459.84	8542.96
460.03	8613.17
460.21	8681.05
460.39	8592.11
460.57	8617.85
460.76	8711.47
460.94	8737.22
461.12	8643.60
461.31	8758.28
461.49	8739.56
461.67	8748.92
461.85	9130.43
462.04	9004.04
462.22	9500.23
462.40	9181.92
462.59	8964.25
462.77	8943.19
462.95	9032.13
463.13	8966.59
463.32	9172.56
463.50	8980.64
463.68	8926.80
463.86	9191.28
464.05	9090.64
464.23	9053.19
464.41	9181.92
464.59	8889.35
464.78	9289.59
464.96	9312.99
465.14	8877.65
465.32	9298.95
465.50	9558.75
465.69	9453.42
465.87	9380.87
466.05	9270.86
466.23	9181.92
466.41	9263.84
466.60	9408.95
466.78	9261.50
466.96	9177.24
467.14	9202.99
467.32	9427.68
467.51	9736.63
467.69	9247.46
467.87	9472.15
468.05	9628.96
468.23	9535.34
468.41	9479.17
468.60	9554.07
468.78	9823.23
468.96	9551.73
469.14	9872.38
469.32	9968.34
469.50	9666.41
469.69	9886.42
469.87	10129.84
470.05	9998.77
470.23	9966.00
470.41	9928.55
470.59	10237.50
470.77	10150.90
470.95	10260.91
471.14	10169.63
471.32	10031.54
471.50	10607.31
471.68	10462.19
471.86	10387.30
472.04	10452.83
472.22	10560.50
472.40	10345.17
472.58	10312.40
472.77	10607.31
472.95	10750.08
473.13	11126.91
473.31	10707.95
473.49	10726.68
473.67	10607.31
473.85	10930.30
474.03	10991.16
474.21	11253.30
474.39	10927.96
474.57	11314.15
474.75	11304.79
474.93	11346.92
475.12	11393.73
475.30	11353.94
475.48	11492.03
475.66	11356.28
475.84	11248.61
476.02	11482.67
476.20	11545.86
476.38	11637.14
476.56	12056.10
476.74	11899.28
476.92	11824.39
477.10	11932.05
477.28	12238.66
477.46	12306.54
477.64	12030.35
477.82	12334.62
478.00	12744.22
478.18	12578.04
478.36	12737.20
478.54	12978.27
478.72	12954.87
478.90	13341.05
479.08	13205.30
479.26	13296.58
479.44	12910.40
479.62	13511.91
479.80	13540.00
479.98	13659.37
480.16	13818.52
480.34	13788.10
480.52	14005.77
480.70	13823.20
480.88	13788.10
481.06	13996.40
481.24	14244.50
481.41	14689.20
481.59	14764.10
481.77	14963.04
481.95	14375.57
482.13	15007.52
482.31	14888.15
482.49	14909.21
482.67	14860.06
482.85	15386.68
483.03	15456.90
483.21	15508.39
483.39	15557.54
483.57	15641.80
483.74	15812.66
483.92	15894.58
484.10	15779.89
484.28	16166.08
484.46	16308.85
484.64	16465.67
484.82	16243.32
485.00	16269.06
485.18	16463.33
485.35	16695.04
485.53	16393.11
485.71	16252.68
485.89	16706.74
486.07	16645.89
486.25	16819.09
486.43	17104.64
486.61	17322.30
486.78	17334.01
486.96	17345.71
487.14	17884.03
487.32	18176.60
487.50	18347.46
487.68	18253.84
487.85	18525.34
488.03	18796.84
488.21	18754.71
488.39	18663.43
488.57	18726.63
488.75	18892.80
488.92	19283.67
489.10	19461.55
489.28	19463.90
489.46	19721.35
489.64	19786.89
489.81	20095.84
489.99	20372.02
490.17	20549.90
490.35	20666.93
490.53	20334.57
490.70	20573.31
490.88	20882.26
491.06	21221.64
491.24	20765.23
491.41	20744.17
491.59	20844.81
491.77	20980.56
491.95	21380.79
492.13	21776.34
492.30	22136.79
492.48	22162.53
492.66	22211.68
492.84	22391.91
493.01	22485.53
493.19	22408.29
493.37	22679.79
493.54	22621.28
493.72	23339.82
493.90	22986.40
494.08	23316.42
494.25	23438.12
494.43	23433.44
494.61	23503.66
494.79	23723.67
494.96	23601.96
495.14	23990.49
495.32	23964.75
495.49	24350.93
495.67	24123.90
495.85	24393.06
496.02	24734.78
496.20	24463.28
496.38	24666.91
496.55	24886.92
496.73	25315.23
496.91	25118.63
497.09	25287.15
497.26	25333.96
497.44	25355.02
497.62	25542.27
497.79	25640.57
497.97	25626.53
498.14	25769.30
498.32	25827.81
498.50	25827.81
498.67	26487.84
498.85	26211.66
499.03	26497.20
499.20	26696.15
499.38	26590.83
499.56	26625.93
499.73	26827.22
499.91	26876.37
500.08	26916.16
500.26	26576.78
500.44	26574.44
500.61	26902.12
500.79	26600.19
500.97	27236.81
501.14	27550.45
501.32	27583.21
501.49	27353.84
501.67	27524.70
501.84	27662.79
502.02	27817.27
502.20	28060.68
502.37	28325.16
502.55	28247.93
502.72	28276.01
502.90	28355.59
503.07	28430.49
503.25	28439.85
503.43	28292.40
503.60	28402.40
503.78	28395.38
503.95	28407.08
504.13	28868.17
504.30	28975.83
504.48	28893.91
504.65	29415.85
504.83	29446.28
505.01	29247.33
505.18	29542.24
505.36	29780.98
505.53	29710.76
505.71	30008.01
505.88	30171.85
506.06	29872.26
506.23	30075.88
506.41	29888.64
506.58	30419.94
506.76	30171.85
506.93	30279.51
507.11	30590.80
507.28	30040.78
507.46	30670.38
507.63	30321.64
507.81	30331.00
507.98	30572.08
508.16	30792.09
508.33	31077.63
508.50	31215.72
508.68	31573.83
508.85	31508.29
509.03	31157.21
509.20	31147.85
509.38	31604.25
509.55	31417.01
509.73	31580.85
509.90	31957.67
510.08	31772.77
510.25	31777.45
510.42	31913.20
510.60	31814.90
510.77	32510.04
510.95	32247.90
511.12	32182.37
511.30	32201.09
511.47	32851.76
511.64	32954.74
511.82	32842.40
511.99	32638.77
512.17	32449.19
512.34	32456.21
512.51	32650.47
512.69	33146.67
512.86	32657.49
513.04	33256.67
513.21	32840.06
513.38	33385.40
513.56	33427.53
513.73	33209.86
513.90	33195.82
514.08	33242.63
514.25	33436.89
514.43	33551.58
514.60	33841.81
514.77	33919.04
514.95	33895.64
515.12	33745.84
515.29	34031.39
515.47	34263.10
515.64	34597.80
515.81	34059.48
515.99	34398.85
516.16	34263.10
516.33	34064.16
516.51	33989.26
516.68	33865.21
516.85	33659.24
517.03	34155.44
517.20	34412.90
517.37	34567.37
517.54	34965.26
517.72	34316.93
517.89	34089.90
518.06	34356.72
518.24	34625.89
518.41	34494.82
518.58	35161.87
518.75	34824.83
518.93	35105.70
519.10	35049.52
519.27	35646.36
519.45	35398.26
519.62	36009.14
519.79	35592.53
519.96	35749.34
520.14	35789.13
520.31	35585.50
520.48	36376.61
520.65	35480.18
520.83	36528.74
521.00	36456.18
521.17	36301.71
521.34	36175.32
521.52	36301.71
521.69	36683.22
521.86	37036.64
522.03	36652.79
522.20	36732.37
522.38	36947.70
522.55	36844.71
522.72	36444.48
522.89	36407.03
523.07	37289.42
523.24	36854.08
523.41	37022.59
523.58	37411.12
523.75	37886.25
523.92	37773.91
524.10	37787.95
524.27	37600.71
524.44	37542.19
524.61	38000.94
524.78	37460.27
524.96	37731.78
525.13	37280.05
525.30	38485.43
525.47	37914.34
525.64	38232.65
525.81	38127.33
525.98	37766.88
526.16	37783.27
526.33	37610.07
526.50	37949.45
526.67	37645.18
526.84	37940.08
527.01	37610.07
527.18	38190.52
527.36	38391.81
527.53	38733.53
527.70	39241.42
527.87	38401.17
528.04	38646.93
528.21	38773.31
528.38	38660.97
528.55	38857.57
528.72	39082.27
528.89	39328.02
529.07	39171.21
529.24	39178.23
529.41	38824.81
529.58	39332.70
529.75	39274.19
529.92	39557.39
530.09	39526.97
530.26	39536.33
530.43	39613.57
530.60	39625.27
530.77	39110.35
530.94	39660.38
531.11	39936.56
531.28	39742.30
531.46	39669.74
531.63	39899.11
531.80	39959.97
531.97	39777.40
532.14	39632.29
532.31	39356.11
532.48	39735.27
532.65	39746.98
532.82	39959.97
532.99	40526.38
533.16	40058.27
533.33	40488.93
533.50	40545.10
533.67	40423.39
533.84	40158.91
534.01	40554.46
534.18	40182.32
534.35	40701.92
534.52	40430.41
534.69	40662.13
534.86	40872.78
535.03	41165.34
535.20	41633.45
535.37	41174.70
535.54	40898.52
535.71	40706.60
535.88	41050.66
536.05	41415.78
536.22	41511.74
536.38	41448.55
536.55	41326.84
536.72	40861.07
536.89	41153.64
537.06	41177.04
537.23	41317.48
537.40	41179.39
537.57	41591.32
537.74	41287.05
537.91	41750.48
538.08	41446.21
538.25	41565.57
538.42	41696.64
538.59	41900.27
538.75	41221.52
538.92	41261.30
539.09	41797.29
539.26	41897.93
539.43	41584.30
539.60	41612.38
539.77	41659.20
539.94	41783.24
540.11	41818.35
540.28	41764.52
540.44	41785.58
540.61	41312.80
540.78	41848.78
540.95	41677.92
541.12	41720.05
541.29	42059.43
541.46	41977.51
541.62	42368.38
541.79	42766.27
541.96	41916.65
542.13	42354.33
542.30	42382.42
542.47	42564.98
542.63	42480.72
542.80	42635.20
542.97	42939.47
543.14	43157.14
543.31	42717.12
543.48	42925.42
543.64	43210.97
543.81	43358.42
543.98	43063.52
544.15	43103.31
544.32	43019.05
544.48	43468.43
544.65	43529.28
544.82	43316.29
544.99	43239.06
545.16	43103.31
545.32	43208.63
545.49	43863.98
545.66	43606.52
545.83	43489.49
546.00	43906.11
546.16	43358.42
546.33	43281.19
546.50	43524.60
546.67	43852.28
546.83	42930.11
547.00	43487.15
547.17	43524.60
547.34	43662.69
547.50	43482.47
547.67	44287.62
547.84	43739.93
548.00	43852.28
548.17	44292.30
548.34	43985.69
548.51	44329.75
548.67	44093.35
548.84	44308.68
549.01	44079.31
549.18	44091.01
549.34	43810.15
549.51	44561.46
549.68	44547.42
549.84	44325.07
550.01	44636.36
550.18	44133.14
550.34	44268.89
550.51	44392.94
550.68	43931.86
550.84	44320.38
551.01	44516.99
551.18	44484.22
551.34	44652.74
551.51	44570.82
551.68	44552.10
551.84	44807.22
552.01	44509.97
552.18	44493.58
552.34	44201.02
552.51	44451.45
552.68	44755.72
552.84	44755.72
553.01	44910.20
553.18	44973.39
553.34	44809.56
553.51	44978.07
553.67	45137.23
553.84	45067.02
554.01	45017.86
554.17	45450.86
554.34	45193.40
554.51	45385.33
554.67	45305.75
554.84	45083.40
555.00	45219.15
555.17	45125.53
555.33	45085.74
555.50	45352.56
555.67	45626.40
555.83	45270.64
556.00	45181.70
556.16	45392.35
556.33	45219.15
556.50	45202.77
556.66	45371.28
556.83	45235.53
556.99	45315.11
557.16	45837.05
557.32	45539.80
557.49	45666.19
557.65	45401.71
557.82	45565.55
557.98	45682.58
558.15	45102.12
558.32	45446.18
558.48	45015.52
558.65	45539.80
558.81	45366.60
558.98	45375.97
559.14	45151.27
559.31	45642.79
559.47	45947.06
559.64	45645.13
559.80	45963.44
559.97	45666.19
560.13	45675.55
560.30	45675.55
560.46	45757.47
560.63	45918.97
560.79	46019.61
560.96	45507.04
561.12	46253.67
561.29	45759.81
561.45	45799.60
561.61	45490.65
561.78	45663.85
561.94	45474.27
562.11	45530.44
562.27	45736.41
562.44	46040.68
562.60	45972.80
562.77	46260.69
562.93	45570.23
563.10	45792.58
563.26	45668.53
563.42	46295.80
563.59	46089.83
563.75	46066.42
563.92	46204.52
564.08	46066.42
564.24	46148.34
564.41	46007.91
564.57	45855.78
564.74	45792.58
564.90	45895.56
565.07	45900.25
565.23	45876.84
565.39	46246.65
565.56	46066.42
565.72	45715.34
565.88	45605.34
566.05	45958.76
566.21	46288.77
566.38	46148.34
566.54	45764.49
566.70	46251.33
566.87	46309.84
567.03	46426.87
567.19	46656.24
567.36	46377.72
567.52	45965.78
567.68	46447.93
567.85	46176.43
568.01	46246.65
568.17	46174.09
568.34	46319.20
568.50	46410.48
568.66	46370.69
568.83	46050.04
568.99	46045.36
569.15	46136.64
569.32	45764.49
569.48	46183.45
569.64	46080.47
569.81	46288.77
569.97	46550.91
570.13	46431.55
570.30	45874.50
570.46	46099.19
570.62	45883.86
570.78	45890.88
570.95	46251.33
571.11	46574.32
571.27	45745.77
571.43	46036.00
571.60	46501.76
571.76	45977.48
571.92	46043.02
572.09	46335.59
572.25	45883.86
572.41	46564.96
572.57	46382.40
572.74	46960.51
572.90	46684.33
573.06	46312.18
573.22	46576.66
573.38	46138.98
573.55	46209.20
573.71	46646.88
573.87	46632.83
574.03	46452.61
574.20	46120.26
574.36	46431.55
574.52	46314.52
574.68	46356.65
574.84	46382.40
575.01	46174.09
575.17	46429.21
575.33	46370.69
575.49	46138.98
575.65	46162.39
575.82	46651.56
575.98	46192.81
576.14	46553.26
576.30	46569.64
576.46	46555.60
576.62	46171.75
576.79	46265.37
576.95	46281.75
577.11	46621.13
577.27	46677.30
577.43	46529.85
577.59	46106.21
577.75	46256.01
577.92	46000.89
578.08	46457.29
578.24	46204.52
578.40	46691.35
578.56	46478.36
578.72	46178.77
578.88	46639.86
579.04	46780.29
579.21	46681.98
579.37	46660.92
579.53	46478.36
579.69	46150.68
579.85	46452.61
580.01	46536.87
580.17	46115.58
580.33	46660.92
580.49	46387.08
580.65	46780.29
580.82	46548.57
580.98	46450.27
581.14	46473.68
581.30	46766.24
581.46	46691.35
581.62	46824.76
581.78	46466.66
581.94	46693.69
582.10	46520.49
582.26	46398.78
582.42	46522.83
582.58	46630.49
582.74	46375.37
582.90	46806.03
583.06	46548.57
583.22	46768.58
583.38	46663.26
583.54	47164.14
583.70	46948.81
583.86	46600.07
584.02	46272.39
584.18	47065.83
584.34	46178.77
584.50	47056.47
584.66	46499.42
584.82	46335.59
584.98	46913.70
585.14	46586.02
585.30	46155.36
585.46	46288.77
585.62	46347.29
585.78	46843.48
585.94	46319.20
586.10	46454.95
586.26	46492.40
586.42	46873.91
586.58	46850.50
586.74	46763.90
586.90	46529.85
587.06	46293.46
587.22	46721.77
587.38	46213.88
587.54	46373.03
587.70	46593.04
587.86	46784.97
588.02	46756.88
588.18	46588.36
588.34	46092.17
588.49	46370.69
588.65	45628.74
588.81	46223.24
588.97	46026.63
589.13	46277.07
589.29	46220.90
589.45	46382.40
589.61	46609.43
589.77	46710.07
589.93	46827.10
