SpectraSuite Data File
++++++++++++++++++++++++++++++++++++
Date: Fri Oct 25 11:23:50 EDT 2013
User: price-jones
Dark Spectrum Present: No
Reference Spectrum Present: No
Number of Sampled Component Spectra: 1
Spectrometers: USB2+H05261
Integration Time (usec): 100000 (USB2+H05261)
Spectra Averaged: 1 (USB2+H05261)
Boxcar Smoothing: 0 (USB2+H05261)
Correct for Electrical Dark: No (USB2+H05261)
Strobe/Lamp Enabled: No (USB2+H05261)
Correct for Detector Non-linearity: No (USB2+H05261)
Correct for Stray Light: No (USB2+H05261)
Number of Pixels in Processed Spectrum: 2048
>>>>>Begin Processed Spectral Data<<<<<
365.73	241.08
365.92	241.08
366.12	241.08
366.32	149.79
366.52	182.56
366.72	217.67
366.91	105.32
367.11	117.03
367.31	114.69
367.51	175.54
367.70	135.75
367.90	145.11
368.10	119.37
368.30	140.43
368.49	112.35
368.69	163.84
368.89	159.16
369.09	140.43
369.28	131.07
369.48	163.84
369.68	161.50
369.87	255.12
370.07	205.97
370.27	222.35
370.47	299.59
370.66	580.45
370.86	671.73
371.06	603.86
371.25	720.88
371.45	692.80
371.65	667.05
371.84	688.12
372.04	671.73
372.24	695.14
372.44	660.03
372.63	795.78
372.83	697.48
373.03	772.38
373.22	667.05
373.42	774.72
373.62	767.70
373.81	662.37
374.01	854.30
374.21	800.46
374.40	812.17
374.60	842.59
374.79	800.46
374.99	821.53
375.19	912.81
375.38	755.99
375.58	784.08
375.78	875.36
375.97	898.77
376.17	847.27
376.37	882.38
376.56	964.30
376.76	814.51
376.95	812.17
377.15	861.32
377.35	933.87
377.54	901.11
377.74	926.85
377.93	919.83
378.13	922.17
378.33	866.00
378.52	971.32
378.72	931.53
378.91	994.73
379.11	858.98
379.31	973.66
379.50	926.85
379.70	983.02
379.89	992.39
380.09	954.94
380.28	945.58
380.48	926.85
380.68	929.19
380.87	1015.79
381.07	1006.43
381.26	1055.58
381.46	966.64
381.65	1055.58
381.85	1078.99
382.04	1083.67
382.24	1093.03
382.43	1076.65
382.63	1043.88
382.83	1076.65
383.02	1130.48
383.22	1116.44
383.41	1090.69
383.61	992.39
383.80	1053.24
384.00	1125.80
384.19	1130.48
384.39	1114.10
384.58	1165.59
384.78	1219.42
384.97	1207.72
385.17	1135.16
385.36	1160.91
385.56	1165.59
385.75	1153.88
385.95	1181.97
386.14	1184.31
386.34	1210.06
386.53	1165.59
386.72	1135.16
386.92	1203.04
387.11	1163.25
387.31	1231.12
387.50	1294.32
387.70	1198.35
387.89	1156.22
388.09	1261.55
388.28	1275.59
388.48	1331.76
388.67	1275.59
388.86	1301.34
389.06	1313.04
389.25	1371.55
389.45	1338.79
389.64	1306.02
389.84	1439.43
390.03	1282.61
390.22	1472.20
390.42	1277.93
390.61	1359.85
390.81	1364.53
391.00	1352.83
391.19	1418.36
391.39	1453.47
391.58	1371.55
391.78	1411.34
391.97	1582.20
392.16	1404.32
392.36	1502.62
392.55	1509.65
392.75	1481.56
392.94	1619.65
393.13	1542.41
393.33	1568.16
393.52	1565.82
393.71	1586.88
393.91	1549.43
394.10	1610.29
394.29	1607.95
394.49	1577.52
394.68	1682.85
394.88	1582.20
395.07	1664.12
395.26	1678.16
395.46	1687.53
395.65	1778.81
395.84	1694.55
396.04	1717.95
396.23	1715.61
396.42	1771.79
396.62	1774.13
396.81	1755.40
397.00	1795.19
397.19	1830.30
397.39	1792.85
397.58	1806.89
397.77	1802.21
397.97	1764.76
398.16	1788.17
398.35	1874.77
398.55	1834.98
398.74	1863.07
398.93	1928.60
399.12	1879.45
399.32	1844.34
399.51	1898.17
399.70	2010.52
399.90	1853.70
400.09	1961.37
400.28	2092.44
400.47	2069.03
400.67	2197.76
400.86	2139.25
401.05	2120.53
401.24	2085.42
401.44	2101.80
401.63	2221.17
401.82	2139.25
402.01	2099.46
402.21	2230.53
402.40	2202.44
402.59	2230.53
402.78	2251.60
402.97	2305.43
403.17	2282.02
403.36	2253.94
403.55	2258.62
403.74	2289.04
403.93	2298.41
404.13	2244.57
404.32	2406.07
404.51	2310.11
404.70	2448.20
404.89	2324.15
405.09	2429.48
405.28	2616.72
405.47	2399.05
405.66	2485.65
405.85	2597.99
406.05	2574.59
406.24	2483.31
406.43	2504.37
406.62	2590.97
406.81	2712.68
407.00	2605.02
407.20	2750.13
407.39	2546.50
407.58	2719.70
407.77	2834.39
407.96	2834.39
408.15	2759.49
408.34	2787.58
408.54	2754.81
408.73	2806.30
408.92	2806.30
409.11	2883.54
409.30	2942.05
409.49	3014.61
409.68	2937.37
409.87	2878.86
410.07	3005.25
410.26	2972.48
410.45	3028.65
410.64	3012.27
410.83	3096.53
411.02	3112.91
411.21	3150.36
411.40	3124.62
411.59	3164.40
411.78	3190.15
411.98	3243.98
412.17	3269.73
412.36	3414.84
412.55	3251.00
412.74	3389.10
412.93	3489.74
413.12	3321.22
413.31	3627.83
413.50	3583.36
413.69	3522.51
413.88	3578.68
414.07	3583.36
414.26	3585.70
414.45	3639.53
414.64	3606.77
414.83	3775.28
415.02	3763.58
415.22	3913.38
415.41	3801.03
415.60	3906.35
415.79	3880.61
415.98	3997.64
416.17	3995.29
416.36	4032.74
416.55	3892.31
416.74	4049.13
416.93	3957.85
417.12	4128.70
417.31	4320.63
417.50	4035.08
417.69	4234.03
417.88	4348.72
418.07	4198.92
418.26	4365.10
418.45	4397.87
418.64	4482.13
418.83	4318.29
419.02	4477.44
419.21	4552.34
419.39	4493.83
419.58	4444.68
419.77	4552.34
419.96	4564.04
420.15	4655.33
420.34	4564.04
420.53	4762.99
420.72	4723.20
420.91	4779.37
421.10	4781.71
421.29	4706.82
421.48	4631.92
421.67	4709.16
421.86	4755.97
422.05	4847.25
422.24	4779.37
422.43	4767.67
422.61	4819.16
422.80	4971.30
422.99	4849.59
423.18	4865.97
423.37	4903.42
423.56	4966.62
423.75	5132.79
423.94	4924.49
424.13	4631.92
424.32	4798.10
424.50	5006.41
424.69	5235.78
424.88	4959.60
425.07	4968.96
425.26	4983.00
425.45	4971.30
425.64	4947.89
425.83	5004.07
426.01	5107.05
426.20	5064.92
426.39	4992.36
426.58	5018.11
426.77	5137.48
426.96	5137.48
427.15	5226.42
427.33	5088.32
427.52	5242.80
427.71	5219.39
427.90	5221.74
428.09	5259.18
428.28	5320.04
428.46	5420.68
428.65	5338.76
428.84	5397.28
429.03	5441.75
429.22	5338.76
429.40	5526.00
429.59	5605.58
429.78	5245.14
429.97	5350.46
430.16	5542.39
430.34	5547.07
430.53	5643.03
430.72	5678.14
430.91	5631.33
431.10	5638.35
431.28	5905.17
431.47	5820.91
431.66	5933.26
431.85	5935.60
432.03	5877.09
432.22	5893.47
432.41	5891.13
432.60	5928.58
432.79	5853.68
432.97	6057.31
433.16	6017.52
433.35	5944.96
433.54	6134.54
433.72	6239.87
433.91	6047.94
434.10	6139.23
434.28	6183.70
434.47	6300.72
434.66	6235.19
434.85	6307.74
435.03	6530.09
435.22	6073.69
435.41	6387.32
435.59	6422.43
435.78	6392.00
435.97	6408.39
436.16	6342.85
436.34	6455.20
436.53	6492.65
436.72	6700.95
436.90	6370.94
437.09	6747.76
437.28	6717.34
437.46	6691.59
437.65	6626.06
437.84	6614.35
438.02	6843.73
438.21	6808.62
438.40	6649.46
438.58	6911.60
438.77	7084.80
438.96	7045.01
439.14	7082.46
439.33	7131.61
439.52	7236.94
439.70	7353.96
439.89	7412.48
440.08	7531.84
440.26	7515.46
440.45	7335.24
440.63	7461.63
440.82	7482.69
441.01	7494.40
441.19	7662.91
441.38	7691.00
441.57	7779.94
441.75	7903.99
441.94	8046.76
442.12	7927.39
442.31	8163.79
442.50	8072.51
442.68	7875.90
442.87	8198.90
443.05	8262.09
443.24	8212.94
443.43	8344.01
443.61	8299.54
443.80	8414.23
443.98	7957.82
444.17	7852.50
444.35	8348.69
444.54	8315.92
444.73	8327.63
444.91	8531.25
445.10	8393.16
445.28	8208.26
445.47	8313.58
445.65	8315.92
445.84	8554.66
446.02	8578.06
446.21	8393.16
446.39	8355.71
446.58	8561.68
446.77	8304.22
446.95	8386.14
447.14	8414.23
447.32	8643.60
447.51	8552.32
447.69	8617.85
447.88	8435.29
448.06	8568.70
448.25	8472.74
448.43	8624.87
448.62	8692.75
448.80	8472.74
448.99	8690.41
449.17	8428.27
449.36	8636.58
449.54	8830.84
449.73	9167.88
449.91	9125.75
450.10	8847.22
450.28	9055.53
450.46	9085.96
450.65	9123.41
450.83	9076.60
451.02	9156.18
451.20	9212.35
451.39	9069.58
451.57	9146.81
451.76	9074.26
451.94	9282.56
452.13	9301.29
452.31	9378.53
452.49	9200.65
452.68	9420.66
452.86	9497.89
453.05	9401.93
453.23	9427.68
453.42	9399.59
453.60	9502.58
453.78	9671.09
453.97	9507.26
454.15	9645.35
454.34	9385.55
454.52	9645.35
454.70	9661.73
454.89	9891.10
455.07	9708.54
455.26	9813.87
455.44	9771.74
455.62	9767.06
455.81	10031.54
455.99	9921.53
456.17	10153.24
456.36	10239.84
456.54	10281.97
456.73	10183.67
456.91	10558.16
457.09	10422.41
457.28	10686.89
457.46	10441.13
457.64	10586.24
457.83	10476.24
458.01	10399.00
458.19	10693.91
458.38	10621.35
458.56	10490.28
458.74	10848.38
458.93	10611.99
459.11	10890.51
459.29	10757.10
459.48	10747.74
459.66	11014.56
459.84	10876.47
460.03	11094.14
460.21	11019.24
460.39	11033.29
460.57	10937.32
460.76	11143.29
460.94	11314.15
461.12	11372.66
461.31	11255.64
461.49	11335.21
461.67	11337.56
461.85	11564.59
462.04	11405.43
462.22	11536.50
462.40	11559.91
462.59	11578.63
462.77	11377.34
462.95	11676.93
463.13	11637.14
463.32	11721.40
463.50	11580.97
463.68	11800.98
463.86	11754.17
464.05	11747.15
464.23	11833.75
464.41	11950.78
464.59	11775.24
464.78	12215.26
464.96	11955.46
465.14	11864.18
465.32	11969.50
465.50	12245.68
465.69	12327.60
465.87	12320.58
466.05	12360.37
466.23	12201.21
466.41	12393.14
466.60	12571.02
466.78	12072.48
466.96	12198.87
467.14	12159.08
467.32	12449.31
467.51	12641.23
467.69	12360.37
467.87	12578.04
468.05	12683.36
468.23	12603.78
468.41	12540.59
468.60	12706.77
468.78	12814.43
468.96	12627.19
469.14	13032.10
469.32	13048.49
469.50	12784.01
469.69	13104.66
469.87	13053.17
470.05	13078.91
470.23	13341.05
470.41	13032.10
470.59	13476.80
470.77	13064.87
470.95	13331.69
471.14	13514.25
471.32	13296.58
471.50	13617.24
471.68	13453.40
471.86	13621.92
472.04	13734.26
472.22	14176.62
472.40	13832.57
472.58	13844.27
472.77	14045.55
472.95	14256.20
473.13	14483.24
473.31	14204.71
473.49	14150.88
473.67	14333.44
473.85	14487.92
474.03	14555.79
474.21	14553.45
474.39	14939.64
474.57	14714.95
474.75	14846.02
474.93	14979.43
475.12	15070.71
475.30	15286.04
475.48	15075.39
475.66	15676.91
475.84	15358.60
476.02	15585.63
476.20	15183.06
476.38	15655.84
476.56	16063.10
476.74	16222.25
476.92	16170.76
477.10	15939.05
477.28	16170.76
477.46	16477.37
477.64	16472.69
477.82	16886.97
478.00	16964.20
478.18	16720.79
478.36	16919.73
478.54	17221.66
478.72	17186.55
478.90	17224.00
479.08	17755.30
479.26	17933.18
479.44	17582.10
479.62	17853.61
479.80	18010.42
479.98	18478.53
480.16	18696.20
480.34	18471.51
480.52	18668.11
480.70	18649.39
480.88	18707.90
481.06	18773.44
481.24	18906.85
481.41	19016.85
481.59	19384.32
481.77	19501.34
481.95	19798.59
482.13	20154.35
482.31	20144.99
482.49	20233.93
482.67	20297.13
482.85	20517.14
483.03	20940.77
483.21	21085.89
483.39	20879.92
483.57	20624.80
483.74	21273.13
483.92	21525.91
484.10	21247.38
484.28	21785.71
484.46	22078.27
484.64	22408.29
484.82	21958.91
485.00	22424.67
485.18	22773.41
485.35	23293.01
485.53	22941.93
485.71	23187.69
485.89	23384.29
486.07	23587.92
486.25	23388.97
486.43	23908.57
486.61	24194.12
486.78	24166.03
486.96	24374.34
487.14	24989.90
487.32	24734.78
487.50	24917.34
487.68	24978.20
487.85	25167.78
488.03	25626.53
488.21	25795.04
488.39	26403.58
488.57	26333.37
488.75	26361.45
488.92	26548.70
489.10	26841.26
489.28	26843.60
489.46	27363.20
489.64	26958.29
489.81	27655.77
489.99	27587.89
490.17	27931.95
490.35	28362.61
490.53	28238.56
490.70	28704.33
490.88	28184.73
491.06	28999.24
491.24	28989.88
491.41	28835.40
491.59	29429.90
491.77	29532.88
491.95	29874.60
492.13	29769.27
492.30	30628.25
492.48	29841.83
492.66	30480.80
492.84	30815.49
493.01	30948.90
493.19	30558.03
493.37	31278.92
493.54	31206.36
493.72	31690.85
493.90	31658.09
494.08	31555.10
494.25	32114.49
494.43	32261.94
494.61	32512.38
494.79	32865.80
494.96	32659.84
495.14	33008.58
495.32	33528.17
495.49	33298.80
495.67	33460.30
495.85	34022.03
496.02	33626.48
496.20	34277.15
496.38	34515.88
496.55	34237.36
496.73	35014.41
496.91	34794.40
497.09	35075.27
497.26	35089.31
497.44	34866.96
497.62	35409.96
497.79	35732.96
497.97	35466.14
498.14	36219.79
498.32	36243.20
498.50	36201.07
498.67	36783.86
498.85	36711.30
499.03	36739.39
499.20	37151.32
499.38	36947.70
499.56	37001.53
499.73	37457.93
499.91	37394.74
500.08	38312.23
500.26	38022.00
500.44	37883.91
500.61	37900.29
500.79	38122.65
500.97	38380.10
501.14	38703.10
501.32	38859.91
501.49	38700.76
501.67	39089.29
501.84	39356.11
502.02	39208.65
502.20	39220.36
502.37	39250.78
502.55	39379.51
502.72	39585.48
502.90	39927.20
503.07	39494.20
503.25	40079.33
503.43	40126.14
503.60	40060.61
503.78	40491.27
503.95	40657.45
504.13	40758.09
504.30	40950.01
504.48	40561.48
504.65	40788.52
504.83	40921.93
505.01	41865.16
505.18	41420.46
505.36	41734.09
505.53	41647.49
505.71	41748.14
505.88	41926.02
506.06	41617.07
506.23	41954.10
506.41	41755.16
506.58	42602.43
506.76	42679.67
506.93	42724.14
507.11	42639.88
507.28	42911.38
507.46	43014.37
507.63	43063.52
507.81	43487.15
507.98	43555.03
508.16	43222.67
508.33	42829.46
508.50	43524.60
508.68	44112.08
508.85	44076.97
509.03	44083.99
509.20	44144.84
509.38	44479.54
509.55	44701.89
509.73	44243.15
509.90	44690.19
510.08	44732.32
510.25	44837.64
510.42	44818.92
510.60	45221.49
510.77	45345.54
510.95	45476.61
511.12	45380.65
511.30	45352.56
511.47	45991.53
511.64	45675.55
511.82	46246.65
511.99	46012.59
512.17	46134.30
512.34	45890.88
512.51	46515.81
512.69	46810.71
512.86	46316.86
513.04	46990.94
513.21	46717.09
513.38	46892.63
513.56	47229.67
513.73	46880.93
513.90	47791.40
514.08	47147.75
514.25	47683.73
514.43	47091.58
514.60	47730.54
514.77	47796.08
514.95	48266.53
515.12	48175.25
515.29	47920.13
515.47	48093.33
515.64	48390.58
515.81	48151.84
515.99	48641.01
516.16	48762.72
516.33	48378.87
516.51	48928.90
516.68	48507.60
516.85	48343.77
517.03	49249.55
517.20	48912.52
517.37	48978.05
517.54	49368.92
517.72	49102.10
517.89	49240.19
518.06	49610.00
518.24	49074.01
518.41	49368.92
518.58	49535.10
518.75	49865.11
518.93	49947.03
519.10	49677.87
519.27	49956.39
519.45	49914.26
519.62	50258.32
519.79	49940.01
519.96	50045.33
520.14	50110.87
520.31	50141.30
520.48	50806.01
520.65	50660.90
520.83	50878.57
521.00	50738.13
521.17	50897.29
521.34	50913.67
521.52	51255.39
521.69	50906.65
521.86	51262.41
522.03	51257.73
522.20	51222.62
522.38	51639.24
522.55	51744.56
522.72	51590.09
522.89	51480.08
523.07	51676.69
523.24	51849.89
523.41	51826.48
523.58	51653.28
523.75	52126.07
523.92	51859.25
524.10	52257.14
524.27	52123.73
524.44	52189.27
524.61	52278.21
524.78	52233.74
524.96	52397.57
525.13	52418.64
525.30	52673.76
525.47	52636.31
525.64	52425.66
525.81	52640.99
525.98	52954.62
526.16	52781.42
526.33	52781.42
526.50	53263.57
526.67	53097.39
526.84	53106.76
527.01	53041.22
527.18	52676.10
527.36	53123.14
527.53	53439.11
527.70	53198.04
527.87	53827.64
528.04	53542.10
528.21	53441.45
528.38	53471.88
528.55	53633.38
528.72	53464.86
528.89	53640.40
529.07	53614.65
529.24	53521.03
529.41	54028.93
529.58	54094.46
529.75	53808.92
529.92	53977.43
530.09	53921.26
530.26	53874.45
530.43	54211.49
530.60	53930.62
530.77	53925.94
530.94	54258.30
531.11	54284.04
531.28	54564.91
531.46	54127.23
531.63	54267.66
531.80	54635.13
531.97	54440.86
532.14	54625.76
532.31	54703.00
532.48	54738.11
532.65	54883.22
532.82	54665.55
532.99	54927.69
533.16	54719.38
533.33	55021.31
533.50	55229.62
533.67	54897.27
533.84	54803.64
534.01	54990.89
534.18	55114.94
534.35	55224.94
534.52	55374.73
534.69	55585.38
534.86	55269.41
535.03	55187.49
535.20	55522.19
535.37	55288.13
535.54	55320.90
535.71	55407.50
535.88	55433.25
536.05	55655.60
536.22	55737.52
536.38	55807.73
536.55	55922.42
536.72	55805.39
536.89	55725.81
537.06	55847.52
537.23	55941.14
537.40	55922.42
537.57	55758.58
537.74	55936.46
537.91	56062.85
538.08	55955.19
538.25	55875.61
538.42	55894.33
538.59	56100.30
538.75	56018.38
538.92	56385.85
539.09	56285.20
539.26	56264.14
539.43	56205.62
539.60	56313.29
539.77	56313.29
539.94	56463.08
540.11	56554.36
540.28	56451.38
540.44	56530.96
540.61	56566.07
540.78	56451.38
540.95	56753.31
541.12	56378.82
541.29	56711.18
541.46	56666.71
541.62	56811.82
541.79	56816.50
541.96	56561.39
542.13	56626.92
542.30	56701.82
542.47	56671.39
542.63	56942.89
542.80	57137.16
542.97	57254.18
543.14	57169.93
543.31	57167.58
543.48	57256.53
543.64	57581.86
543.81	57495.26
543.98	57675.48
544.15	57518.67
544.32	57605.26
544.48	57701.23
544.65	57420.36
544.82	57598.24
544.99	57392.28
545.16	57506.96
545.32	57521.01
545.49	57804.21
545.66	57801.87
545.83	57787.83
546.00	57801.87
546.16	57689.52
546.33	57635.69
546.50	57350.15
546.67	57939.96
546.83	57738.68
547.00	57965.71
547.17	57804.21
547.34	57792.51
547.50	58024.22
547.67	58054.65
547.84	58178.70
548.00	58293.38
548.17	58379.98
548.34	58237.21
548.51	58398.71
548.67	58326.15
548.84	58246.57
549.01	58202.10
549.18	58181.04
549.34	58415.09
549.51	58478.28
549.68	58401.05
549.84	58520.41
550.01	58417.43
550.18	58468.92
550.34	58588.29
550.51	58515.73
550.68	58642.12
550.84	58361.26
551.01	58665.53
551.18	58506.37
551.34	58501.69
551.51	58595.31
551.68	58482.97
551.84	58761.49
552.01	58632.76
552.18	58915.96
552.34	58642.12
552.51	58728.72
552.68	58663.19
552.84	58745.11
553.01	58972.14
553.18	59054.06
553.34	59224.92
553.51	58798.94
553.67	58972.14
553.84	59098.53
554.01	59016.61
554.17	59110.23
554.34	59040.01
554.51	59025.97
554.67	59196.83
554.84	59332.58
555.00	59140.66
555.17	59070.44
555.33	59358.33
555.50	59112.57
555.67	59175.76
555.83	58941.71
556.00	59269.39
556.16	59454.29
556.33	59405.14
556.50	59461.31
556.66	59543.23
556.83	59320.88
556.99	59592.38
557.16	59547.91
557.32	59587.70
557.49	59615.79
557.65	59351.30
557.82	59269.39
557.98	59433.22
558.15	59566.63
558.32	59618.13
558.48	59447.27
558.65	59601.74
558.81	59662.60
558.98	59725.79
559.14	59973.89
559.31	59746.86
559.47	59863.88
559.64	59718.77
559.80	59906.01
559.97	60018.36
560.13	59920.05
560.30	59945.80
560.46	59924.74
560.63	59994.95
560.79	59828.77
560.96	59781.96
561.12	60058.15
561.29	59922.40
561.45	59896.65
561.61	60013.68
561.78	59992.61
561.94	59861.54
562.11	60039.42
562.27	60034.74
562.44	60149.43
562.60	59934.10
562.77	59990.27
562.93	59983.25
563.10	60299.22
563.26	59908.35
563.42	60488.80
563.59	60095.60
563.75	60177.51
563.92	60313.26
564.08	60158.79
564.24	60285.18
564.41	60154.11
564.57	60161.13
564.74	60219.64
564.90	60226.66
565.07	60186.88
565.23	60109.64
565.39	60257.09
565.56	60357.74
565.72	60191.56
565.88	60306.24
566.05	60289.86
566.21	60374.12
566.38	60313.26
566.54	60465.40
566.70	60498.17
566.87	60493.49
567.03	60198.58
567.19	60603.49
567.36	60479.44
567.52	60360.08
567.68	60753.29
567.85	60591.79
568.01	60570.72
568.17	60458.38
568.34	60596.47
568.50	60458.38
568.66	60383.48
568.83	60535.62
568.99	60566.04
569.15	60537.96
569.32	60582.43
569.48	60568.38
569.64	60715.84
569.81	60591.79
569.97	60554.34
570.13	60561.36
570.30	60331.99
570.46	60673.71
570.62	60587.11
570.78	60694.77
570.95	60432.63
571.11	60823.50
571.27	60636.26
571.43	60720.52
571.60	60797.76
571.76	60587.11
571.92	60732.22
572.09	60746.26
572.25	60683.07
572.41	60720.52
572.57	60587.11
572.74	60811.80
572.90	60692.43
573.06	60739.24
573.22	60718.18
573.38	60853.93
573.55	60769.67
573.71	61073.94
573.87	60697.11
574.03	60725.20
574.20	60879.67
574.36	60486.46
574.52	61010.74
574.68	60982.66
574.84	61001.38
575.01	60828.18
575.17	60793.07
575.33	60772.01
575.49	60952.23
575.65	61148.84
575.82	60851.59
575.98	61015.43
576.14	61174.58
576.30	60804.78
576.46	60818.82
576.62	60694.77
576.79	60973.30
576.95	60828.18
577.11	60949.89
577.27	61015.43
577.43	60903.08
577.59	60811.80
577.75	60734.56
577.92	60786.05
578.08	60877.33
578.24	61076.28
578.40	61076.28
578.56	60956.91
578.72	60947.55
578.88	61087.98
579.04	61116.07
579.21	61073.94
579.37	61034.15
579.53	61076.28
579.69	60889.04
579.85	60919.46
580.01	61066.92
580.17	60774.35
580.33	61099.68
580.49	61001.38
580.65	61050.53
580.82	60914.78
580.98	60874.99
581.14	60954.57
581.30	61226.07
581.46	60947.55
581.62	61158.20
581.78	60764.99
581.94	60982.66
582.10	60982.66
582.26	60947.55
582.42	60863.29
582.58	61080.96
582.74	60886.70
582.90	60945.21
583.06	61029.47
583.22	60853.93
583.38	60956.91
583.54	61141.81
583.70	61221.39
583.86	61120.75
584.02	60956.91
584.18	61043.51
584.34	61181.60
584.50	61013.08
584.66	60828.18
584.82	60924.14
584.98	61244.80
585.14	61286.93
585.30	61031.81
585.46	60877.33
585.62	61132.45
585.78	61277.57
585.94	60992.02
586.10	61083.30
586.26	61148.84
586.42	61265.86
586.58	61062.24
586.74	61188.63
586.90	61116.07
587.06	61141.81
587.22	61284.59
587.38	61064.58
587.54	61226.07
587.70	61265.86
587.86	61130.11
588.02	61226.07
588.18	61286.93
588.34	61235.44
588.49	61268.20
