SpectraSuite Data File
++++++++++++++++++++++++++++++++++++
Date: Fri Oct 25 10:48:08 EDT 2013
User: price-jones
Dark Spectrum Present: No
Reference Spectrum Present: No
Number of Sampled Component Spectra: 1
Spectrometers: USB2+H05261
Integration Time (usec): 100000 (USB2+H05261)
Spectra Averaged: 1 (USB2+H05261)
Boxcar Smoothing: 0 (USB2+H05261)
Correct for Electrical Dark: No (USB2+H05261)
Strobe/Lamp Enabled: No (USB2+H05261)
Correct for Detector Non-linearity: No (USB2+H05261)
Correct for Stray Light: No (USB2+H05261)
Number of Pixels in Processed Spectrum: 2048
>>>>>Begin Processed Spectral Data<<<<<
365.73	131.07
365.92	131.07
366.12	131.07
366.32	72.56
366.52	23.41
366.72	140.43
366.91	0.00
367.11	0.00
367.31	21.06
367.51	42.13
367.70	74.90
367.90	53.83
368.10	14.04
368.30	25.75
368.49	91.28
368.69	16.38
368.89	72.56
369.09	0.00
369.28	60.85
369.48	112.35
369.68	133.41
369.87	220.01
370.07	63.19
370.27	154.48
370.47	187.24
370.66	351.08
370.86	430.66
371.06	411.93
371.25	500.87
371.45	393.21
371.65	472.79
371.84	381.51
372.04	320.65
372.24	470.45
372.44	433.00
372.63	540.66
372.83	491.51
373.03	564.07
373.22	484.49
373.42	470.45
373.62	543.00
373.81	561.73
374.01	596.84
374.21	505.56
374.40	456.40
374.60	531.30
374.79	514.92
374.99	545.34
375.19	575.77
375.38	568.75
375.58	566.41
375.78	580.45
375.97	613.22
376.17	627.26
376.37	589.82
376.56	599.18
376.76	559.39
376.95	547.69
377.15	669.39
377.35	620.24
377.54	573.43
377.74	620.24
377.93	594.50
378.13	624.92
378.33	575.77
378.52	617.90
378.72	589.82
378.91	620.24
379.11	641.31
379.31	550.03
379.50	631.94
379.70	695.14
379.89	650.67
380.09	550.03
380.28	545.34
380.48	629.60
380.68	601.52
380.87	695.14
381.07	624.92
381.26	669.39
381.46	678.76
381.65	650.67
381.85	615.56
382.04	648.33
382.24	777.06
382.43	660.03
382.63	748.97
382.83	660.03
383.02	718.54
383.22	681.10
383.41	580.45
383.61	727.91
383.80	781.74
384.00	760.67
384.19	763.01
384.39	720.88
384.58	709.18
384.78	772.38
384.97	685.78
385.17	823.87
385.36	821.53
385.56	763.01
385.75	746.63
385.95	610.88
386.14	737.27
386.34	697.48
386.53	711.52
386.72	732.59
386.92	770.04
387.11	793.44
387.31	833.23
387.50	805.14
387.70	809.83
387.89	823.87
388.09	854.30
388.28	826.21
388.48	798.12
388.67	887.06
388.86	854.30
389.06	842.59
389.25	973.66
389.45	940.90
389.64	901.11
389.84	882.38
390.03	873.02
390.22	861.32
390.42	971.32
390.61	889.40
390.81	924.51
391.00	887.06
391.19	999.41
391.39	957.28
391.58	917.49
391.78	919.83
391.97	978.34
392.16	959.62
392.36	959.62
392.55	873.02
392.75	933.87
392.94	961.96
393.13	1004.09
393.33	940.90
393.52	1025.15
393.71	1111.75
393.91	976.00
394.10	1011.11
394.29	1076.65
394.49	1027.50
394.68	1032.18
394.88	1071.97
395.07	1048.56
395.26	1097.71
395.46	1097.71
395.65	1172.61
395.84	1160.91
396.04	1111.75
396.23	1081.33
396.42	1081.33
396.62	1102.39
396.81	1093.03
397.00	1100.05
397.19	1170.27
397.39	1242.82
397.58	1210.06
397.77	1308.36
397.97	1188.99
398.16	1174.95
398.35	1238.14
398.55	1277.93
398.74	1418.36
398.93	1320.06
399.12	1341.13
399.32	1174.95
399.51	1306.02
399.70	1364.53
399.90	1430.07
400.09	1387.94
400.28	1362.19
400.47	1270.91
400.67	1315.38
400.86	1387.94
401.05	1502.62
401.24	1413.68
401.44	1511.99
401.63	1472.20
401.82	1362.19
402.01	1371.55
402.21	1423.05
402.40	1596.25
402.59	1481.56
402.78	1547.09
402.97	1551.78
403.17	1511.99
403.36	1600.93
403.55	1605.61
403.74	1591.56
403.93	1584.54
404.13	1659.44
404.32	1626.67
404.51	1591.56
404.70	1657.10
404.89	1610.29
405.09	1701.57
405.28	1748.38
405.47	1717.95
405.66	1729.66
405.85	1694.55
406.05	1736.68
406.24	1717.95
406.43	1734.34
406.62	1715.61
406.81	1860.73
407.00	1809.23
407.20	1720.29
407.39	1694.55
407.58	1823.28
407.77	1820.94
407.96	1923.92
408.15	1935.62
408.34	1975.41
408.54	1952.01
408.73	1926.26
408.92	2101.80
409.11	1994.14
409.30	2010.52
409.49	1806.89
409.68	1980.09
409.87	2104.14
410.07	2087.76
410.26	2143.93
410.45	2050.31
410.64	2066.69
410.83	2153.29
411.02	2202.44
411.21	2162.66
411.40	2148.61
411.59	2420.11
411.78	2237.55
411.98	2256.28
412.17	2221.17
412.36	2300.75
412.55	2307.77
412.74	2443.52
412.93	2448.20
413.12	2399.05
413.31	2541.82
413.50	2434.16
413.69	2434.16
413.88	2548.84
414.07	2511.39
414.26	2492.67
414.45	2478.63
414.64	2424.80
414.83	2633.10
415.02	2609.70
415.22	2738.43
415.41	2696.30
415.60	2605.02
415.79	2775.88
415.98	2860.13
416.17	2848.43
416.36	2822.69
416.55	2860.13
416.74	2768.85
416.93	2796.94
417.12	2862.48
417.31	2899.92
417.50	2857.79
417.69	2974.82
417.88	3038.02
418.07	2937.37
418.26	2949.08
418.45	3038.02
418.64	3138.66
418.83	2925.67
419.02	3173.77
419.21	3162.06
419.39	3227.60
419.58	3030.99
419.77	3061.42
419.96	3157.38
420.15	3328.24
420.34	3239.30
420.53	3339.94
420.72	3438.25
420.91	3290.79
421.10	3239.30
421.29	3428.88
421.48	3272.07
421.67	3445.27
421.86	3307.18
422.05	3396.12
422.24	3379.73
422.43	3396.12
422.61	3332.92
422.80	3419.52
422.99	3431.23
423.18	3412.50
423.37	3503.78
423.56	3494.42
423.75	3466.33
423.94	3368.03
424.13	3316.54
424.32	3335.26
424.50	3574.00
424.69	3550.59
424.88	3590.38
425.07	3433.57
425.26	3407.82
425.45	3412.50
425.64	3562.30
425.83	3510.80
426.01	3646.55
426.20	3536.55
426.39	3508.46
426.58	3447.61
426.77	3524.85
426.96	3534.21
427.15	3499.10
427.33	3524.85
427.52	3527.19
427.71	3562.30
427.90	3693.37
428.09	3527.19
428.28	3634.85
428.46	3779.97
428.65	3569.32
428.84	3772.94
429.03	3803.37
429.22	3592.72
429.40	3646.55
429.59	3733.15
429.78	3564.64
429.97	3571.66
430.16	3772.94
430.34	3747.20
430.53	3850.18
430.72	3880.61
430.91	3751.88
431.10	3948.48
431.28	4016.36
431.47	3992.95
431.66	4168.49
431.85	4184.88
432.03	4002.32
432.22	4145.09
432.41	4105.30
432.60	4198.92
432.79	4236.37
432.97	4147.43
433.16	4098.28
433.35	4121.68
433.54	4187.22
433.72	4133.39
433.91	4117.00
434.10	4245.73
434.28	4322.97
434.47	4355.74
434.66	4376.80
434.85	4285.52
435.03	4423.61
435.22	4362.76
435.41	4428.29
435.59	4552.34
435.78	4554.68
435.97	4423.61
436.16	4554.68
436.34	4500.85
436.53	4505.53
436.72	4554.68
436.90	4528.94
437.09	4489.15
437.28	4491.49
437.46	4521.92
437.65	4617.88
437.84	4709.16
438.02	4589.79
438.21	4648.30
438.40	4638.94
438.58	4631.92
438.77	4805.12
438.96	4739.58
439.14	4805.12
439.33	4954.91
439.52	5050.88
439.70	5013.43
439.89	5118.75
440.08	5041.51
440.26	5095.35
440.45	5011.09
440.63	5191.31
440.82	5228.76
441.01	5186.63
441.19	5198.33
441.38	5336.42
441.57	5327.06
441.75	5380.89
441.94	5521.32
442.12	5453.45
442.31	5696.86
442.50	5497.92
442.68	5439.40
442.87	5385.57
443.05	5451.11
443.24	5769.42
443.43	5533.03
443.61	5720.27
443.80	5741.33
443.98	5551.75
444.17	5547.07
444.35	5774.10
444.54	5722.61
444.73	5596.22
444.91	5720.27
445.10	5802.19
445.28	5753.04
445.47	5699.20
445.65	5767.08
445.84	5687.50
446.02	5909.85
446.21	5717.93
446.39	5841.98
446.58	5776.44
446.77	5806.87
446.95	5853.68
447.14	5797.51
447.32	5933.26
447.51	5839.64
447.69	5879.43
447.88	5888.79
448.06	5846.66
448.25	5849.00
448.43	6078.37
448.62	5856.02
448.80	5919.21
448.99	5893.47
449.17	6150.93
449.36	5877.09
449.54	6171.99
449.73	6214.12
449.91	6071.35
450.10	6230.51
450.28	6370.94
450.46	6258.59
450.65	6190.72
450.83	6312.42
451.02	6352.21
451.20	6504.35
451.39	6284.34
451.57	6263.27
451.76	6293.70
451.94	6483.28
452.13	6380.30
452.31	6377.96
452.49	6202.42
452.68	6331.15
452.86	6406.05
453.05	6420.09
453.23	6567.54
453.42	6370.94
453.60	6644.78
453.78	6483.28
453.97	6504.35
454.15	6551.16
454.34	6455.20
454.52	6478.60
454.70	6595.63
454.89	6626.06
455.07	6729.04
455.26	6609.67
455.44	6974.80
455.62	6876.49
455.81	6853.09
455.99	6946.71
456.17	6956.07
456.36	6958.41
456.54	7096.50
456.73	6853.09
456.91	7063.74
457.09	7192.47
457.28	7089.48
457.46	6918.62
457.64	7243.96
457.83	7133.95
458.01	7068.42
458.19	7293.11
458.38	7201.83
458.56	7403.11
458.74	7176.08
458.93	7258.00
459.11	7211.19
459.29	7314.17
459.48	7581.00
459.66	7564.61
459.84	7466.31
460.03	7470.99
460.21	7513.12
460.39	7581.00
460.57	7646.53
460.76	7583.34
460.94	7585.68
461.12	7557.59
461.31	7803.35
461.49	7585.68
461.67	7480.35
461.85	7728.45
462.04	7693.34
462.22	8222.30
462.40	7838.45
462.59	7735.47
462.77	7679.30
462.95	7691.00
463.13	7786.96
463.32	7932.08
463.50	7925.05
463.68	8049.10
463.86	7899.31
464.05	7967.18
464.23	7932.08
464.41	8100.59
464.59	7906.33
464.78	8053.78
464.96	7948.46
465.14	7908.67
465.32	8189.53
465.50	8362.73
465.69	8245.71
465.87	8013.99
466.05	8191.88
466.23	8280.82
466.41	8248.05
466.60	8454.02
466.78	8264.43
466.96	8297.20
467.14	8100.59
467.32	8325.29
467.51	8566.36
467.69	8180.17
467.87	8402.52
468.05	8444.65
468.23	8365.07
468.41	8318.26
468.60	8458.70
468.78	8627.21
468.96	8519.55
469.14	8468.06
469.32	8711.47
469.50	8528.91
469.69	8741.90
469.87	8781.69
470.05	8812.12
470.23	8739.56
470.41	8854.25
470.59	8758.28
470.77	8835.52
470.95	8828.50
471.14	9076.60
471.32	8748.92
471.50	9123.41
471.68	9064.89
471.86	9387.89
472.04	9137.45
472.22	9413.63
472.40	9111.71
472.58	9242.78
472.77	9312.99
472.95	9291.93
473.13	9643.01
473.31	9371.50
473.49	9488.53
473.67	9671.09
473.85	9633.64
474.03	9542.36
474.21	9748.33
474.39	9757.69
474.57	9823.23
474.75	9966.00
474.93	10031.54
475.12	9912.17
475.30	10071.33
475.48	9813.87
475.66	10134.52
475.84	10066.64
476.02	10413.04
476.20	10356.87
476.38	10438.79
476.56	10611.99
476.74	10551.14
476.92	10541.77
477.10	10537.09
477.28	11073.07
477.46	10808.59
477.64	10895.19
477.82	11037.97
478.00	11311.81
478.18	11119.89
478.36	11419.47
478.54	11033.29
478.72	11316.49
478.90	11480.33
479.08	11627.78
479.26	11758.85
479.44	11791.62
479.62	11845.45
479.80	11726.08
479.98	12093.55
480.16	12423.56
480.34	12084.19
480.52	12051.42
480.70	12217.60
480.88	11971.84
481.06	12346.33
481.24	12519.53
481.41	12465.69
481.59	12711.45
481.77	12917.42
481.95	12954.87
482.13	13027.42
482.31	12882.31
482.49	13542.34
482.67	13575.11
482.85	13397.23
483.03	13589.15
483.21	13785.76
483.39	13841.93
483.57	13790.44
483.74	14099.39
483.92	13991.72
484.10	13912.14
484.28	14342.80
484.46	14352.16
484.64	14785.16
484.82	14490.26
485.00	14555.79
485.18	14565.15
485.35	15080.07
485.53	14824.95
485.71	14965.39
485.89	15379.66
486.07	14853.04
486.25	15190.08
486.43	15358.60
486.61	15400.72
486.78	15702.65
486.96	15997.56
487.14	16006.92
487.32	16018.63
487.50	16236.30
487.68	16269.06
487.85	16484.39
488.03	16638.87
488.21	16765.26
488.39	16545.25
488.57	16779.30
488.75	17095.27
488.92	17277.83
489.10	17418.27
489.28	17310.60
489.46	17631.26
489.64	17783.39
489.81	17647.64
489.99	18162.56
490.17	18352.14
490.35	18373.21
490.53	18286.61
490.70	18422.36
490.88	18391.93
491.06	18871.74
491.24	18696.20
491.41	18665.77
491.59	19077.71
491.77	18808.54
491.95	19201.76
492.13	19281.33
492.30	19489.64
492.48	19796.25
492.66	19508.37
492.84	19601.99
493.01	19861.79
493.19	19875.83
493.37	20247.97
493.54	20163.72
493.72	20886.94
493.90	20521.82
494.08	20575.65
494.25	20968.86
494.43	21113.97
494.61	21034.39
494.79	21022.69
494.96	21067.16
495.14	21144.40
495.32	21565.70
495.49	21275.47
495.67	21713.15
495.85	21806.77
496.02	21865.28
496.20	21860.60
496.38	22078.27
496.55	22148.49
496.73	22637.66
496.91	22338.07
497.09	22434.03
497.26	22689.15
497.44	22574.47
497.62	22745.33
497.79	22824.90
497.97	23117.47
498.14	23328.12
498.32	23307.05
498.50	23473.23
498.67	23398.34
498.85	23730.69
499.03	23765.80
499.20	23686.22
499.38	23742.39
499.56	23950.70
499.73	23974.11
499.91	24362.64
500.08	24348.59
500.26	24297.10
500.44	24343.91
500.61	24526.47
500.79	24133.26
500.97	24439.87
501.14	24699.67
501.32	24561.58
501.49	24882.24
501.67	24861.17
501.84	25151.40
502.02	25102.25
502.20	25172.46
502.37	25280.13
502.55	25481.41
502.72	25369.07
502.90	25883.98
503.07	25404.17
503.25	25738.87
503.43	24982.88
503.60	25743.55
503.78	25989.31
503.95	25902.71
504.13	26141.44
504.30	26096.97
504.48	25701.42
504.65	26132.08
504.83	26698.49
505.01	26370.82
505.18	26761.69
505.36	26728.92
505.53	26988.72
505.71	26930.20
505.88	27292.99
506.06	26710.19
506.23	26909.14
506.41	27145.53
506.58	27777.48
506.76	27491.93
506.93	27859.40
507.11	27463.85
507.28	27559.81
507.46	27447.46
507.63	27215.75
507.81	27875.78
507.98	27672.15
508.16	27960.04
508.33	27826.63
508.50	27826.63
508.68	28147.28
508.85	28318.14
509.03	28477.30
509.20	28723.05
509.38	28804.97
509.55	29081.16
509.73	28910.30
509.90	28753.48
510.08	28952.43
510.25	28781.57
510.42	29027.32
510.60	29071.79
510.77	29146.69
510.95	29532.88
511.12	29146.69
511.30	29252.02
511.47	29582.03
511.64	29387.77
511.82	30024.39
511.99	29516.50
512.17	29876.94
512.34	29797.36
512.51	30078.22
512.69	30228.02
512.86	29944.81
513.04	30256.11
513.21	29956.52
513.38	30349.73
513.56	30300.58
513.73	30221.00
513.90	30529.95
514.08	30464.41
514.25	30611.87
514.43	30539.31
514.60	30471.43
514.77	30742.94
514.95	31211.04
515.12	31227.43
515.29	30874.01
515.47	31248.49
515.64	31498.93
515.81	30862.30
515.99	31292.96
516.16	31438.08
516.33	31220.41
516.51	31578.51
516.68	31438.08
516.85	31250.83
517.03	31335.09
517.20	31824.26
517.37	31948.31
517.54	31878.10
517.72	31868.73
517.89	31697.88
518.06	31824.26
518.24	32112.15
518.41	31983.42
518.58	31903.84
518.75	32051.30
518.93	32463.23
519.10	32505.36
519.27	32451.53
519.45	31931.93
519.62	32275.99
519.79	32236.20
519.96	32678.56
520.14	32905.59
520.31	32762.82
520.48	33345.61
520.65	32725.37
520.83	33099.86
521.00	33233.27
521.17	33266.03
521.34	33624.14
521.52	33457.96
521.69	33905.00
521.86	33504.77
522.03	33668.61
522.20	33968.19
522.38	33652.22
522.55	33935.43
522.72	33649.88
522.89	33703.71
523.07	34436.30
523.24	34033.73
523.41	33764.57
523.58	33837.12
523.75	34604.82
523.92	34314.59
524.10	34714.83
524.27	34445.66
524.44	34576.73
524.61	34625.89
524.78	34771.00
524.96	34967.60
525.13	34771.00
525.30	34742.91
525.47	35105.70
525.64	34998.03
525.81	34913.77
525.98	35129.10
526.16	34906.75
526.33	35058.88
526.50	35398.26
526.67	35189.95
526.84	35166.55
527.01	35529.33
527.18	35122.08
527.36	35241.45
527.53	35735.30
527.70	35952.97
527.87	35817.22
528.04	35440.39
528.21	36051.27
528.38	35569.12
528.55	36142.55
528.72	36011.48
528.89	36060.63
529.07	36060.63
529.24	35559.76
529.41	36343.84
529.58	36037.23
529.75	36280.64
529.92	36432.78
530.09	36392.99
530.26	36528.74
530.43	36334.48
530.60	36093.40
530.77	36390.65
530.94	36596.62
531.11	36512.36
531.28	36477.25
531.46	36748.75
531.63	37015.57
531.80	37076.43
531.97	36723.01
532.14	37078.77
532.31	36891.52
532.48	37329.20
532.65	36959.40
532.82	37240.26
532.99	37268.35
533.16	37029.62
533.33	37373.67
533.50	37734.12
533.67	37146.64
533.84	37331.54
534.01	37354.95
534.18	37373.67
534.35	37764.54
534.52	37549.21
534.69	37476.66
534.86	37773.91
535.03	37699.01
535.20	38211.59
535.37	38225.63
535.54	38595.43
535.71	37806.67
535.88	38328.61
536.05	38045.41
536.22	38103.92
536.38	38447.98
536.55	38359.04
536.72	38038.39
536.89	38087.54
537.06	38232.65
537.23	38478.41
537.40	38796.72
537.57	38333.29
537.74	38625.86
537.91	38675.01
538.08	38405.85
538.25	38792.04
538.42	38286.48
538.59	39079.92
538.75	38672.67
538.92	38555.64
539.09	38789.70
539.26	38763.95
539.43	39339.72
539.60	38923.11
539.77	38738.21
539.94	39384.19
540.11	38913.75
540.28	39325.68
540.44	39110.35
540.61	39009.71
540.78	39531.65
540.95	39325.68
541.12	38878.64
541.29	39030.77
541.46	39438.03
541.62	39232.06
541.79	39456.75
541.96	39206.31
542.13	39325.68
542.30	39533.99
542.47	39545.69
542.63	39735.27
542.80	40011.46
542.97	39864.00
543.14	40381.26
543.31	39985.71
543.48	40238.49
543.64	40229.13
543.81	40116.78
543.98	40072.31
544.15	40121.46
544.32	40430.41
544.48	41287.05
544.65	40308.71
544.82	40329.77
544.99	40376.58
545.16	40531.06
545.32	40086.36
545.49	40556.80
545.66	40861.07
545.83	40722.98
546.00	41413.44
546.16	40783.83
546.33	40542.76
546.50	40308.71
546.67	40788.52
546.83	40706.60
547.00	40615.32
547.17	40676.17
547.34	40797.88
547.50	41146.62
547.67	41270.67
547.84	41132.57
548.00	41315.14
548.17	40973.42
548.34	41071.72
548.51	41221.52
548.67	41626.43
548.84	41567.91
549.01	41137.26
549.18	40964.06
549.34	41289.39
549.51	41687.28
549.68	41827.71
549.84	41551.53
550.01	41816.01
550.18	41258.96
550.34	41713.03
550.51	41668.56
550.68	41425.14
550.84	41109.17
551.01	41911.97
551.18	41556.21
551.34	41605.36
551.51	41572.60
551.68	41825.37
551.84	41986.87
552.01	41670.90
552.18	41715.37
552.34	41827.71
552.51	42071.13
552.68	41846.44
552.84	41748.14
553.01	42059.43
553.18	42094.53
553.34	41954.10
553.51	41741.11
553.67	42347.31
553.84	42445.62
554.01	42272.42
554.17	42340.29
554.34	42581.37
554.51	42433.91
554.67	42473.70
554.84	42445.62
555.00	41963.46
555.17	41949.42
555.33	42368.38
555.50	42099.22
555.67	42277.10
555.83	42951.17
556.00	42389.44
556.16	43115.01
556.33	42855.21
556.50	42845.85
556.66	42995.64
556.83	42630.52
556.99	42794.36
557.16	42745.20
557.32	43475.45
557.49	42604.77
557.65	42342.63
557.82	42824.78
557.98	42740.52
558.15	43007.34
558.32	42951.17
558.48	43276.51
558.65	42885.64
558.81	42674.99
558.98	42813.08
559.14	43281.19
559.31	42623.50
559.47	43253.10
559.64	43131.39
559.80	43297.57
559.97	43285.87
560.13	43037.77
560.30	43084.58
560.46	43398.21
560.63	43686.10
560.79	43145.44
560.96	43161.82
561.12	43276.51
561.29	43278.85
561.45	43412.26
561.61	43505.88
561.78	43438.00
561.94	43405.23
562.11	43019.05
562.27	43271.82
562.44	43140.75
562.60	42845.85
562.77	43700.14
562.93	43421.62
563.10	43189.91
563.26	43440.34
563.42	43445.02
563.59	43639.29
563.75	43817.17
563.92	43536.30
564.08	43732.91
564.24	43482.47
564.41	43723.55
564.57	43803.13
564.74	43643.97
564.90	43662.69
565.07	43728.23
565.23	43702.48
565.39	43569.07
565.56	43700.14
565.72	43304.59
565.88	43627.59
566.05	43882.70
566.21	43606.52
566.38	43859.30
566.54	44119.10
566.70	43817.17
566.87	44259.53
567.03	43655.67
567.19	44044.20
567.36	44196.34
567.52	43920.15
567.68	43892.07
567.85	43948.24
568.01	44020.80
568.17	43917.81
568.34	43814.83
568.50	44072.29
568.66	43613.54
568.83	44013.77
568.99	43959.94
569.15	43585.46
569.32	43597.16
569.48	43655.67
569.64	44198.68
569.81	44610.61
569.97	43615.88
570.13	43784.40
570.30	43723.55
570.46	43613.54
570.62	43962.28
570.78	43852.28
570.95	43784.40
571.11	43882.70
571.27	44194.00
571.43	43718.87
571.60	43936.54
571.76	43910.79
571.92	44009.09
572.09	44093.35
572.25	44346.13
572.41	44098.03
572.57	44217.40
572.74	44748.70
572.90	44528.69
573.06	44254.85
573.22	44268.89
573.38	44147.18
573.55	44013.77
573.71	43941.22
573.87	43913.13
574.03	44100.37
574.20	44020.80
574.36	44062.93
574.52	44133.14
574.68	44425.71
574.84	44495.92
575.01	44343.79
575.17	44535.71
575.33	43772.70
575.49	44261.87
575.65	44421.03
575.82	44301.66
575.98	43952.92
576.14	44697.21
576.30	44383.58
576.46	43894.41
576.62	44374.22
576.79	44247.83
576.95	43999.73
577.11	44025.48
577.27	44009.09
577.43	44114.42
577.59	44542.74
577.75	44561.46
577.92	44266.55
578.08	43875.68
578.24	44278.25
578.40	44170.59
578.56	44135.48
578.72	44205.70
578.88	44294.64
579.04	44629.34
579.21	43936.54
579.37	44168.25
579.53	44196.34
579.69	43866.32
579.85	44074.63
580.01	44079.31
580.17	44488.90
580.33	44758.06
580.49	44353.15
580.65	44713.59
580.82	44451.45
580.98	44334.43
581.14	44418.69
581.30	44332.09
581.46	44528.69
581.62	44711.25
581.78	44687.85
581.94	44935.95
582.10	44402.30
582.26	44971.05
582.42	44329.75
582.58	44758.06
582.74	44521.67
582.90	44048.88
583.06	44509.97
583.22	44884.45
583.38	44589.55
583.54	44360.17
583.70	44371.88
583.86	44339.11
584.02	44381.24
584.18	44451.45
584.34	44472.52
584.50	44704.23
584.66	44266.55
584.82	44648.06
584.98	44584.86
585.14	44336.77
585.30	44189.31
585.46	44582.52
585.62	44016.11
585.78	44566.14
585.94	43615.88
586.10	44336.77
586.26	44161.23
586.42	44383.58
586.58	44725.30
586.74	44369.54
586.90	44610.61
587.06	44226.76
587.22	44552.10
587.38	44776.79
587.54	44949.99
587.70	44439.75
587.86	44617.63
588.02	44591.89
588.18	44889.13
588.34	44594.23
588.49	44381.24
588.65	44369.54
588.81	44285.28
588.97	44416.35
589.13	44318.04
589.29	44301.66
589.45	44406.98
589.61	44584.86
589.77	44680.83
589.93	44603.59
590.08	44877.43
590.24	45038.93
