SpectraSuite Data File
++++++++++++++++++++++++++++++++++++
Date: Fri Oct 25 10:47:38 EDT 2013
User: price-jones
Dark Spectrum Present: No
Reference Spectrum Present: No
Number of Sampled Component Spectra: 1
Spectrometers: USB2+H05261
Integration Time (usec): 100000 (USB2+H05261)
Spectra Averaged: 1 (USB2+H05261)
Boxcar Smoothing: 0 (USB2+H05261)
Correct for Electrical Dark: No (USB2+H05261)
Strobe/Lamp Enabled: No (USB2+H05261)
Correct for Detector Non-linearity: No (USB2+H05261)
Correct for Stray Light: No (USB2+H05261)
Number of Pixels in Processed Spectrum: 2048
>>>>>Begin Processed Spectral Data<<<<<
365.73	191.92
365.92	191.92
366.12	191.92
366.32	0.00
366.52	70.22
366.72	121.71
366.91	72.56
367.11	9.36
367.31	84.26
367.51	49.15
367.70	105.32
367.90	53.83
368.10	25.75
368.30	53.83
368.49	60.85
368.69	91.28
368.89	56.17
369.09	93.62
369.28	70.22
369.48	28.09
369.68	126.39
369.87	128.73
370.07	114.69
370.27	175.54
370.47	236.39
370.66	348.74
370.86	456.40
371.06	421.30
371.25	482.15
371.45	463.43
371.65	440.02
371.84	489.17
372.04	435.34
372.24	458.74
372.44	444.70
372.63	463.43
372.83	566.41
373.03	503.22
373.22	454.06
373.42	472.79
373.62	582.79
373.81	559.39
374.01	543.00
374.21	550.03
374.40	582.79
374.60	599.18
374.79	526.62
374.99	559.39
375.19	603.86
375.38	582.79
375.58	521.94
375.78	571.09
375.97	557.05
376.17	603.86
376.37	610.88
376.56	631.94
376.76	615.56
376.95	447.04
377.15	655.35
377.35	580.45
377.54	575.77
377.74	559.39
377.93	587.47
378.13	631.94
378.33	678.76
378.52	667.05
378.72	690.46
378.91	601.52
379.11	662.37
379.31	653.01
379.50	660.03
379.70	589.82
379.89	732.59
380.09	636.63
380.28	641.31
380.48	613.22
380.68	681.10
380.87	690.46
381.07	702.16
381.26	674.07
381.46	657.69
381.65	643.65
381.85	627.26
382.04	669.39
382.24	767.70
382.43	629.60
382.63	688.12
382.83	709.18
383.02	704.50
383.22	636.63
383.41	732.59
383.61	713.86
383.80	753.65
384.00	664.71
384.19	826.21
384.39	760.67
384.58	681.10
384.78	751.31
384.97	734.93
385.17	744.29
385.36	800.46
385.56	781.74
385.75	835.57
385.95	755.99
386.14	830.89
386.34	744.29
386.53	828.55
386.72	737.27
386.92	812.17
387.11	858.98
387.31	816.85
387.50	765.36
387.70	812.17
387.89	833.23
388.09	844.93
388.28	816.85
388.48	903.45
388.67	856.64
388.86	929.19
389.06	840.25
389.25	924.51
389.45	954.94
389.64	985.37
389.84	945.58
390.03	987.71
390.22	957.28
390.42	896.43
390.61	947.92
390.81	997.07
391.00	931.53
391.19	1050.90
391.39	1015.79
391.58	889.40
391.78	940.90
391.97	1048.56
392.16	976.00
392.36	987.71
392.55	1083.67
392.75	938.55
392.94	990.05
393.13	1022.81
393.33	1032.18
393.52	938.55
393.71	1008.77
393.91	1025.15
394.10	1078.99
394.29	1095.37
394.49	1053.24
394.68	1130.48
394.88	1128.14
395.07	1153.88
395.26	1221.76
395.46	1095.37
395.65	1165.59
395.84	1142.18
396.04	1158.57
396.23	1123.46
396.42	1057.92
396.62	1123.46
396.81	1153.88
397.00	1118.78
397.19	1132.82
397.39	1238.14
397.58	1306.02
397.77	1249.85
397.97	1296.66
398.16	1287.29
398.35	1357.51
398.55	1350.49
398.74	1341.13
398.93	1324.74
399.12	1376.24
399.32	1357.51
399.51	1245.16
399.70	1451.13
399.90	1341.13
400.09	1397.30
400.28	1488.58
400.47	1390.28
400.67	1504.96
400.86	1540.07
401.05	1458.15
401.24	1481.56
401.44	1516.67
401.63	1540.07
401.82	1519.01
402.01	1462.83
402.21	1570.50
402.40	1591.56
402.59	1540.07
402.78	1612.63
402.97	1629.01
403.17	1614.97
403.36	1717.95
403.55	1621.99
403.74	1788.17
403.93	1675.82
404.13	1708.59
404.32	1727.32
404.51	1654.76
404.70	1724.97
404.89	1666.46
405.09	1741.36
405.28	1696.89
405.47	1708.59
405.66	1813.92
405.85	1806.89
406.05	1788.17
406.24	1781.15
406.43	1893.49
406.62	1865.41
406.81	1877.11
407.00	1935.62
407.20	1851.36
407.39	1926.26
407.58	1980.09
407.77	1944.99
407.96	1937.96
408.15	1935.62
408.34	1916.90
408.54	2054.99
408.73	1961.37
408.92	2054.99
409.11	2050.31
409.30	2139.25
409.49	2080.74
409.68	2010.52
409.87	2045.63
410.07	2083.08
410.26	2136.91
410.45	2181.38
410.64	2031.58
410.83	2080.74
411.02	2253.94
411.21	2326.49
411.40	2282.02
411.59	2375.64
411.78	2324.15
411.98	2396.71
412.17	2431.82
412.36	2354.58
412.55	2502.03
412.74	2471.61
412.93	2541.82
413.12	2415.43
413.31	2670.55
413.50	2434.16
413.69	2672.89
413.88	2722.04
414.07	2586.29
414.26	2693.96
414.45	2621.40
414.64	2616.72
414.83	2771.19
415.02	2677.57
415.22	2771.19
415.41	2799.28
415.60	2773.53
415.79	2803.96
415.98	2958.44
416.17	3033.33
416.36	2939.71
416.55	2944.39
416.74	2986.52
416.93	2904.60
417.12	3007.59
417.31	3026.31
417.50	3126.96
417.69	3096.53
417.88	3288.45
418.07	3094.19
418.26	3075.46
418.45	3213.56
418.64	3185.47
418.83	3307.18
419.02	3183.13
419.21	3152.70
419.39	3131.64
419.58	3164.40
419.77	3131.64
419.96	3290.79
420.15	3494.42
420.34	3281.43
420.53	3501.44
420.72	3403.14
420.91	3304.84
421.10	3466.33
421.29	3363.35
421.48	3400.80
421.67	3412.50
421.86	3466.33
422.05	3503.78
422.24	3468.67
422.43	3529.53
422.61	3543.57
422.80	3627.83
422.99	3592.72
423.18	3634.85
423.37	3604.42
423.56	3590.38
423.75	3566.98
423.94	3471.01
424.13	3293.13
424.32	3562.30
424.50	3562.30
424.69	3634.85
424.88	3655.92
425.07	3508.46
425.26	3595.06
425.45	3529.53
425.64	3660.60
425.83	3709.75
426.01	3676.98
426.20	3545.91
426.39	3730.81
426.58	3709.75
426.77	3571.66
426.96	3623.15
427.15	3714.43
427.33	3765.92
427.52	3679.32
427.71	3819.75
427.90	3847.84
428.09	3906.35
428.28	3831.46
428.46	3810.39
428.65	3946.14
428.84	3911.04
429.03	3997.64
429.22	3763.58
429.40	4037.42
429.59	3843.16
429.78	3770.60
429.97	3658.26
430.16	3798.69
430.34	3878.27
430.53	3913.38
430.72	3974.23
430.91	3887.63
431.10	4105.30
431.28	4011.68
431.47	4210.62
431.66	4283.18
431.85	4016.36
432.03	4271.48
432.22	4273.82
432.41	4191.90
432.60	4173.18
432.79	4271.48
432.97	4351.06
433.16	4486.81
433.35	4175.52
433.54	4411.91
433.72	4360.42
433.91	4292.54
434.10	4367.44
434.28	4454.04
434.47	4374.46
434.66	4559.36
434.85	4627.24
435.03	4507.87
435.22	4599.15
435.41	4634.26
435.59	4585.11
435.78	4636.60
435.97	4777.03
436.16	4599.15
436.34	4573.41
436.53	4578.09
436.72	4753.63
436.90	4678.73
437.09	4613.20
437.28	4622.56
437.46	4781.71
437.65	4582.77
437.84	4690.43
438.02	4807.46
438.21	4828.53
438.40	4685.75
438.58	4891.72
438.77	5015.77
438.96	5025.13
439.14	5167.90
439.33	5043.85
439.52	5011.09
439.70	5144.50
439.89	5139.82
440.08	5280.25
440.26	5193.65
440.45	5348.12
440.63	5273.23
440.82	5486.22
441.01	5392.59
441.19	5451.11
441.38	5507.28
441.57	5493.24
441.75	5661.76
441.94	5668.78
442.12	5612.60
442.31	5874.74
442.50	5870.06
442.68	5687.50
442.87	5729.63
443.05	5830.27
443.24	5830.27
443.43	5916.87
443.61	5830.27
443.80	6017.52
443.98	5818.57
444.17	5806.87
444.35	5898.15
444.54	6040.92
444.73	6022.20
444.91	5809.21
445.10	5827.93
445.28	5909.85
445.47	5907.51
445.65	5856.02
445.84	5849.00
446.02	5996.45
446.21	6087.73
446.39	5902.83
446.58	6085.39
446.77	5973.05
446.95	5954.32
447.14	6080.71
447.32	6148.59
447.51	6003.47
447.69	6111.14
447.88	6083.05
448.06	6050.28
448.25	6190.72
448.43	6167.31
448.62	6223.48
448.80	6024.54
448.99	6125.18
449.17	6342.85
449.36	6282.00
449.54	6298.38
449.73	6366.26
449.91	6314.77
450.10	6429.45
450.28	6462.22
450.46	6399.02
450.65	6602.65
450.83	6576.91
451.02	6443.49
451.20	6455.20
451.39	6499.67
451.57	6567.54
451.76	6422.43
451.94	6604.99
452.13	6743.08
452.31	6581.59
452.49	6614.35
452.68	6750.10
452.86	6562.86
453.05	6696.27
453.23	6731.38
453.42	6626.06
453.60	6815.64
453.78	6949.05
453.97	6825.00
454.15	6747.76
454.34	6579.25
454.52	6956.07
454.70	6871.81
454.89	6820.32
455.07	6965.43
455.26	6993.52
455.44	7225.23
455.62	7129.27
455.81	7138.63
455.99	7045.01
456.17	7061.40
456.36	7042.67
456.54	7192.47
456.73	7117.57
456.91	7442.90
457.09	7314.17
457.28	7578.65
457.46	7370.35
457.64	7485.03
457.83	7269.70
458.01	7358.64
458.19	7618.44
458.38	7403.11
458.56	7496.74
458.74	7452.27
458.93	7618.44
459.11	7576.31
459.29	7475.67
459.48	7709.72
459.66	7576.31
459.84	7627.81
460.03	7723.77
460.21	7723.77
460.39	7627.81
460.57	7667.60
460.76	7878.24
460.94	7889.95
461.12	7822.07
461.31	7929.74
461.49	7786.96
461.67	7882.92
461.85	8039.74
462.04	7985.91
462.22	8505.51
462.40	8184.85
462.59	8201.24
462.77	8238.69
462.95	8355.71
463.13	8187.19
463.32	8241.03
463.50	8226.98
463.68	8252.73
463.86	8175.49
464.05	8203.58
464.23	8191.88
464.41	8568.70
464.59	8053.78
464.78	8514.87
464.96	8376.78
465.14	8306.56
465.32	8491.46
465.50	8475.08
465.69	8472.74
465.87	8484.44
466.05	8341.67
466.23	8732.54
466.41	8688.07
466.60	8879.99
466.78	8437.63
466.96	8407.20
467.14	8353.37
467.32	8613.17
467.51	8716.16
467.69	8500.83
467.87	8779.35
468.05	8540.61
468.23	8704.45
468.41	8734.88
468.60	8779.35
468.78	8889.35
468.96	8748.92
469.14	8615.51
469.32	8837.86
469.50	8730.20
469.69	8912.76
469.87	8931.48
470.05	9214.69
470.23	8894.04
470.41	8961.91
470.59	9394.91
470.77	9207.67
470.95	9135.11
471.14	9397.25
471.32	8978.30
471.50	9558.75
471.68	9432.36
471.86	9493.21
472.04	9680.46
472.22	9774.08
472.40	9493.21
472.58	9359.80
472.77	9806.84
472.95	9832.59
473.13	10092.39
473.31	9909.83
473.49	9575.13
473.67	9757.69
473.85	9778.76
474.03	9919.19
474.21	10143.88
474.39	10225.80
474.57	10214.10
474.75	10359.21
474.93	10125.16
475.12	10340.49
475.30	10314.74
475.48	10256.23
475.66	10406.02
475.84	10380.28
476.02	10448.15
476.20	10555.82
476.38	10588.58
476.56	10850.72
476.74	10810.93
476.92	10832.00
477.10	10876.47
477.28	11169.04
477.46	11154.99
477.64	11208.83
477.82	11492.03
478.00	11613.74
478.18	11538.84
478.36	11550.54
478.54	11571.61
478.72	11695.66
478.90	11955.46
479.08	12035.03
479.26	11997.59
479.44	12255.04
479.62	12322.92
479.80	12374.41
479.98	12194.19
480.16	12552.29
480.34	12643.57
480.52	12901.03
480.70	12664.64
480.88	12587.40
481.06	12915.08
481.24	12940.82
481.41	13022.74
481.59	13497.87
481.77	13371.48
481.95	13446.38
482.13	13411.27
482.31	13439.36
482.49	13727.24
482.67	13626.60
482.85	14127.47
483.03	14216.41
483.21	14258.54
483.39	14085.34
483.57	13991.72
483.74	14415.36
483.92	14298.33
484.10	14115.77
484.28	14803.89
484.46	14864.74
484.64	15115.18
484.82	14611.96
485.00	15049.64
485.18	15452.22
485.35	15360.94
485.53	15122.20
485.71	15342.21
485.89	15564.56
486.07	15335.19
486.25	15564.56
486.43	15726.06
486.61	15819.68
486.78	15880.53
486.96	16133.31
487.14	16315.87
487.32	16568.65
487.50	16709.08
487.68	16936.12
487.85	17003.99
488.03	17198.26
488.21	17338.69
488.39	17191.23
488.57	17179.53
488.75	17902.76
488.92	17785.73
489.10	17975.31
489.28	17895.74
489.46	18127.45
489.64	18047.87
489.81	18827.27
489.99	18808.54
490.17	18616.62
490.35	18724.29
490.53	18916.21
490.70	18974.72
490.88	19122.18
491.06	19332.82
491.24	19428.79
491.41	19428.79
491.59	19454.53
491.77	19323.46
491.95	19704.97
492.13	19864.13
492.30	20184.78
492.48	20063.07
492.66	20475.01
492.84	20271.38
493.01	20451.60
493.19	20669.27
493.37	20975.88
493.54	21015.67
493.72	20809.70
493.90	21018.01
494.08	21207.59
494.25	21542.29
494.43	21692.08
494.61	21853.58
494.79	21776.34
494.96	21876.99
495.14	21860.60
495.32	22005.72
495.49	21631.23
495.67	21991.67
495.85	22176.58
496.02	22583.83
496.20	22546.38
496.38	22916.19
496.55	23054.28
496.73	23384.29
496.91	22913.84
497.09	23073.00
497.26	23742.39
497.44	23379.61
497.62	23447.49
497.79	23431.10
497.97	23482.59
498.14	23772.82
498.32	23782.18
498.50	23941.34
498.67	24393.06
498.85	24039.64
499.03	24596.69
499.20	24580.31
499.38	24613.07
499.56	24922.02
499.73	24669.25
499.91	24627.12
500.08	24596.69
500.26	24744.14
500.44	25069.48
500.61	25127.99
500.79	24737.12
500.97	24807.34
501.14	25919.09
501.32	25855.90
501.49	25298.85
501.67	25301.19
501.84	25626.53
502.02	25900.37
502.20	25977.61
502.37	26050.16
502.55	25998.67
502.72	26256.13
502.90	26197.62
503.07	26125.06
503.25	26422.31
503.43	26335.71
503.60	26623.59
503.78	26450.39
503.95	26817.86
504.13	26668.06
504.30	26902.12
504.48	26848.29
504.65	27098.72
504.83	26895.10
505.01	27779.82
505.18	27241.50
505.36	27803.22
505.53	27323.41
505.71	27740.03
505.88	27892.16
506.06	27625.34
506.23	27948.34
506.41	27402.99
506.58	27826.63
506.76	27873.44
506.93	28107.49
507.11	28294.74
507.28	28332.18
507.46	28327.50
507.63	28041.96
507.81	28240.90
507.98	28423.47
508.16	28769.86
508.33	28800.29
508.50	28800.29
508.68	28919.66
508.85	29200.52
509.03	28954.77
509.20	28814.34
509.38	29511.81
509.55	29472.03
509.73	29565.65
509.90	29537.56
510.08	29408.83
510.25	29638.20
510.42	29635.86
510.60	29558.63
510.77	29818.42
510.95	30120.35
511.12	29825.45
511.30	30134.40
511.47	30855.28
511.64	30855.28
511.82	30808.47
511.99	30134.40
512.17	30721.87
512.34	30609.53
512.51	30684.42
512.69	30773.36
512.86	30885.71
513.04	30991.03
513.21	30984.01
513.38	31101.04
513.56	31328.07
513.73	30944.22
513.90	30958.27
514.08	31379.56
514.25	31049.55
514.43	31332.75
514.60	30995.71
514.77	31594.89
514.95	31613.62
515.12	31489.57
515.29	31847.67
515.47	31819.58
515.64	32119.17
515.81	32158.96
515.99	31791.50
516.16	31945.97
516.33	32072.36
516.51	32196.41
516.68	31955.33
516.85	32032.57
517.03	31868.73
517.20	32606.00
517.37	32219.81
517.54	32376.63
517.72	32517.06
517.89	32596.64
518.06	32334.50
518.24	32397.70
518.41	32219.81
518.58	32865.80
518.75	32868.14
518.93	33212.20
519.10	32716.01
519.27	33340.93
519.45	33146.67
519.62	32919.63
519.79	33874.57
519.96	33586.69
520.14	33406.47
520.31	33462.64
520.48	34075.86
520.65	33687.33
520.83	33773.93
521.00	33879.25
521.17	33593.71
521.34	34113.31
521.52	34181.18
521.69	34043.09
521.86	34572.05
522.03	34171.82
522.20	34527.58
522.38	34820.15
522.55	34728.87
522.72	34408.22
522.89	34745.25
523.07	34602.48
523.24	34726.53
523.41	34534.60
523.58	34735.89
523.75	35061.22
523.92	35445.07
524.10	35232.08
524.27	35281.24
524.44	35548.06
524.61	35667.42
524.78	35531.67
524.96	35346.77
525.13	35571.46
525.30	36011.48
525.47	35737.64
525.64	35927.22
525.81	35786.79
525.98	35765.73
526.16	35482.52
526.33	35555.08
526.50	35763.39
526.67	35424.01
526.84	35735.30
527.01	35386.56
527.18	35796.15
527.36	36577.89
527.53	36184.68
527.70	36460.87
527.87	36299.37
528.04	36381.29
528.21	36840.03
528.38	36484.27
528.55	36917.27
528.72	36821.31
528.89	37230.90
529.07	36769.82
529.24	36748.75
529.41	37116.22
529.58	36814.29
529.75	36999.19
529.92	36947.70
530.09	37046.00
530.26	36676.19
530.43	37509.43
530.60	36840.03
530.77	37350.27
530.94	37207.50
531.11	37408.78
531.28	37736.46
531.46	37724.75
531.63	37771.57
531.80	37404.10
531.97	37752.84
532.14	37851.14
532.31	37282.39
532.48	37558.58
532.65	37996.26
532.82	37886.25
532.99	38033.71
533.16	37865.19
533.33	38476.07
533.50	38242.01
533.67	38216.27
533.84	38103.92
534.01	38431.60
534.18	38199.88
534.35	38525.22
534.52	38511.17
534.69	38452.66
534.86	38349.68
535.03	38539.26
535.20	38693.74
535.37	38976.94
535.54	38759.27
535.71	38431.60
535.88	38820.13
536.05	38785.02
536.22	39002.69
536.38	39061.20
536.55	38749.91
536.72	38981.62
536.89	38733.53
537.06	39051.84
537.23	39470.79
537.40	38700.76
537.57	39299.94
537.74	39292.91
537.91	39849.96
538.08	39519.95
538.25	39278.87
538.42	39655.70
538.59	39889.75
538.75	39051.84
538.92	39548.03
539.09	39938.90
539.26	39505.90
539.43	39608.89
539.60	39725.91
539.77	39388.88
539.94	39735.27
540.11	39562.08
540.28	39789.11
540.44	40217.43
540.61	39461.43
540.78	39681.44
540.95	39456.75
541.12	39772.72
541.29	40687.87
541.46	39615.91
541.62	40280.62
541.79	40540.42
541.96	39861.66
542.13	40144.87
542.30	40238.49
542.47	40151.89
542.63	40236.15
542.80	40498.29
542.97	40861.07
543.14	41275.35
543.31	40720.64
543.48	40837.67
543.64	40924.27
543.81	40868.09
543.98	40797.88
544.15	41172.36
544.32	41237.90
544.48	41273.01
544.65	41467.27
544.82	41001.50
544.99	41172.36
545.16	41209.81
545.32	40538.08
545.49	41200.45
545.66	41338.54
545.83	41411.10
546.00	41471.95
546.16	41490.68
546.33	41303.43
546.50	41326.84
546.67	41670.90
546.83	41118.53
547.00	41544.51
547.17	41375.99
547.34	41130.23
547.50	41989.21
547.67	42000.91
547.84	41963.46
548.00	42155.39
548.17	41956.44
548.34	42110.92
548.51	42075.81
548.67	42218.58
548.84	41937.72
549.01	42408.17
549.18	42045.38
549.34	41867.50
549.51	42454.98
549.68	42279.44
549.84	42422.21
550.01	42029.00
550.18	42038.36
550.34	42117.94
550.51	42422.21
550.68	41993.89
550.84	42181.13
551.01	42595.41
551.18	42167.09
551.34	42099.22
551.51	42316.89
551.68	42534.56
551.84	42649.24
552.01	42305.18
552.18	42784.99
552.34	42576.69
552.51	42768.61
552.68	42724.14
552.84	42696.05
553.01	43414.60
553.18	43297.57
553.34	42560.30
553.51	42803.72
553.67	42684.35
553.84	42972.24
554.01	43063.52
554.17	43454.39
554.34	43487.15
554.51	43241.40
554.67	43330.34
554.84	43271.82
555.00	42892.66
555.17	42799.04
555.33	42801.38
555.50	43346.72
555.67	43299.91
555.83	43227.35
556.00	43643.97
556.16	43683.76
556.33	43129.05
556.50	43054.15
556.66	43236.72
556.83	43316.29
556.99	43496.52
557.16	43419.28
557.32	43222.67
557.49	43559.71
557.65	42990.96
557.82	42838.83
557.98	43475.45
558.15	43681.42
558.32	43611.20
558.48	43459.07
558.65	42979.26
558.81	43423.96
558.98	43494.18
559.14	43665.03
559.31	43852.28
559.47	44034.84
559.64	44254.85
559.80	44039.52
559.97	44025.48
560.13	43548.01
560.30	44123.78
560.46	43768.02
560.63	43447.36
560.79	44259.53
560.96	44334.43
561.12	44137.82
561.29	43913.13
561.45	44006.75
561.61	44006.75
561.78	43852.28
561.94	44238.47
562.11	44002.07
562.27	43711.84
562.44	43894.41
562.60	44041.86
562.77	44605.93
562.93	43477.79
563.10	43681.42
563.26	43868.66
563.42	43875.68
563.59	44149.53
563.75	43866.32
563.92	44524.01
564.08	43899.09
564.24	44514.65
564.41	43990.37
564.57	44257.19
564.74	44418.69
564.90	44341.45
565.07	44341.45
565.23	44009.09
565.39	44135.48
565.56	44486.56
565.72	44596.57
565.88	44339.11
566.05	44381.24
566.21	43995.05
566.38	44083.99
566.54	44378.90
566.70	44467.84
566.87	44507.63
567.03	44694.87
567.19	45179.36
567.36	44313.36
567.52	44083.99
567.68	44975.73
567.85	44587.21
568.01	44325.07
568.17	44175.27
568.34	44395.28
568.50	44444.43
568.66	44465.50
568.83	44788.49
568.99	44240.81
569.15	44760.40
569.32	44247.83
569.48	44313.36
569.64	44701.89
569.81	44704.23
569.97	44311.02
570.13	44804.88
570.30	44346.13
570.46	44259.53
570.62	44491.24
570.78	44554.44
570.95	44638.70
571.11	44924.24
571.27	44488.90
571.43	44767.43
571.60	44804.88
571.76	44980.42
571.92	44685.51
572.09	45062.33
572.25	44414.01
572.41	44779.13
572.57	44573.16
572.74	45165.32
572.90	44699.55
573.06	44652.74
573.22	44741.68
573.38	45041.27
573.55	44865.73
573.71	44964.03
573.87	44966.37
574.03	44505.29
574.20	44779.13
574.36	44641.04
574.52	44549.76
574.68	44931.26
574.84	45043.61
575.01	44898.50
575.17	44802.53
575.33	44678.49
575.49	45188.72
575.65	45230.85
575.82	45081.06
575.98	44648.06
576.14	45195.74
576.30	44708.91
576.46	44741.68
576.62	44886.79
576.79	44870.41
576.95	44769.77
577.11	44652.74
577.27	44832.96
577.43	44737.00
577.59	44514.65
577.75	44629.34
577.92	44430.39
578.08	44414.01
578.24	44467.84
578.40	44650.40
578.56	44952.33
578.72	45003.82
578.88	45322.13
579.04	44938.29
579.21	45123.19
579.37	44830.62
579.53	44657.42
579.69	44851.69
579.85	44697.21
580.01	44935.95
580.17	44879.77
580.33	45408.73
580.49	45184.04
580.65	45170.00
580.82	44786.15
580.98	45041.27
581.14	44535.71
581.30	45167.66
581.46	45059.99
581.62	44809.56
581.78	45153.62
581.94	45310.43
582.10	45092.76
582.26	44807.22
582.42	45050.63
582.58	44849.35
582.74	45125.53
582.90	44907.86
583.06	45151.27
583.22	45085.74
583.38	45029.57
583.54	45031.91
583.70	44783.81
583.86	44954.67
584.02	45113.83
584.18	44992.12
584.34	45249.58
584.50	45099.78
584.66	44868.07
584.82	44617.63
584.98	45015.52
585.14	45247.24
585.30	44704.23
585.46	44858.71
585.62	44767.43
585.78	44940.63
585.94	44474.86
586.10	44786.15
586.26	45038.93
586.42	44720.62
586.58	44889.13
586.74	44804.88
586.90	44287.62
587.06	44868.07
587.22	44931.26
587.38	44968.71
587.54	45254.26
587.70	45572.57
587.86	45195.74
588.02	45022.54
588.18	45572.57
588.34	45254.26
588.49	44921.90
588.65	45099.78
588.81	44772.11
588.97	44641.04
589.13	44669.12
589.29	44776.79
589.45	45029.57
589.61	45024.89
589.77	45553.85
589.93	45390.01
590.08	45258.94
590.24	45345.54
