SpectraSuite Data File
++++++++++++++++++++++++++++++++++++
Date: Fri Oct 25 11:25:24 EDT 2013
User: price-jones
Dark Spectrum Present: No
Reference Spectrum Present: No
Number of Sampled Component Spectra: 1
Spectrometers: USB2+H05261
Integration Time (usec): 100000 (USB2+H05261)
Spectra Averaged: 1 (USB2+H05261)
Boxcar Smoothing: 0 (USB2+H05261)
Correct for Electrical Dark: No (USB2+H05261)
Strobe/Lamp Enabled: No (USB2+H05261)
Correct for Detector Non-linearity: No (USB2+H05261)
Correct for Stray Light: No (USB2+H05261)
Number of Pixels in Processed Spectrum: 2048
>>>>>Begin Processed Spectral Data<<<<<
365.73	203.63
365.92	203.63
366.12	203.63
366.32	182.56
366.52	117.03
366.72	203.63
366.91	135.75
367.11	154.48
367.31	203.63
367.51	159.16
367.70	46.81
367.90	140.43
368.10	131.07
368.30	124.05
368.49	110.01
368.69	149.79
368.89	142.77
369.09	140.43
369.28	154.48
369.48	128.73
369.68	227.03
369.87	173.20
370.07	220.01
370.27	269.16
370.47	327.68
370.66	650.67
370.86	643.65
371.06	706.84
371.25	674.07
371.45	697.48
371.65	690.46
371.84	662.37
372.04	653.01
372.24	713.86
372.44	706.84
372.63	772.38
372.83	676.41
373.03	774.72
373.22	709.18
373.42	781.74
373.62	800.46
373.81	788.76
374.01	863.66
374.21	758.33
374.40	812.17
374.60	926.85
374.79	781.74
374.99	748.97
375.19	826.21
375.38	851.96
375.58	809.83
375.78	835.57
375.97	830.89
376.17	924.51
376.37	800.46
376.56	858.98
376.76	959.62
376.95	882.38
377.15	947.92
377.35	976.00
377.54	880.04
377.74	870.68
377.93	868.34
378.13	849.61
378.33	924.51
378.52	936.21
378.72	1015.79
378.91	973.66
379.11	894.08
379.31	985.37
379.50	887.06
379.70	1062.60
379.89	1004.09
380.09	994.73
380.28	959.62
380.48	1001.75
380.68	1006.43
380.87	976.00
381.07	985.37
381.26	1006.43
381.46	1018.13
381.65	1043.88
381.85	1053.24
382.04	1074.31
382.24	954.94
382.43	980.68
382.63	1011.11
382.83	1083.67
383.02	1048.56
383.22	1027.50
383.41	1116.44
383.61	1198.35
383.80	1100.05
384.00	1121.12
384.19	1093.03
384.39	1137.50
384.58	1137.50
384.78	1191.33
384.97	1083.67
385.17	1186.65
385.36	1177.29
385.56	1132.82
385.75	1163.25
385.95	1167.93
386.14	1123.46
386.34	1219.42
386.53	1327.08
386.72	1191.33
386.92	1198.35
387.11	1235.80
387.31	1273.25
387.50	1287.29
387.70	1198.35
387.89	1280.27
388.09	1214.74
388.28	1177.29
388.48	1247.51
388.67	1177.29
388.86	1320.06
389.06	1310.70
389.25	1357.51
389.45	1282.61
389.64	1299.00
389.84	1287.29
390.03	1383.26
390.22	1317.72
390.42	1423.05
390.61	1371.55
390.81	1399.64
391.00	1343.47
391.19	1465.18
391.39	1425.39
391.58	1425.39
391.78	1474.54
391.97	1460.49
392.16	1320.06
392.36	1519.01
392.55	1528.37
392.75	1626.67
392.94	1500.28
393.13	1472.20
393.33	1462.83
393.52	1547.09
393.71	1610.29
393.91	1565.82
394.10	1521.35
394.29	1652.42
394.49	1593.90
394.68	1563.48
394.88	1572.84
395.07	1554.12
395.26	1689.87
395.46	1692.21
395.65	1734.34
395.84	1710.93
396.04	1727.32
396.23	1722.63
396.42	1727.32
396.62	1783.49
396.81	1785.83
397.00	1760.08
397.19	1727.32
397.39	1858.39
397.58	1816.26
397.77	1921.58
397.97	1863.07
398.16	1809.23
398.35	1900.52
398.55	1849.02
398.74	1937.96
398.93	1886.47
399.12	1935.62
399.32	1963.71
399.51	1944.99
399.70	1954.35
399.90	1888.81
400.09	1959.03
400.28	1977.75
400.47	1874.77
400.67	2059.67
400.86	2045.63
401.05	2085.42
401.24	2026.90
401.44	2001.16
401.63	2080.74
401.82	2179.04
402.01	2139.25
402.21	2125.21
402.40	2111.16
402.59	2066.69
402.78	2162.66
402.97	2244.57
403.17	2162.66
403.36	2277.34
403.55	2214.15
403.74	2363.94
403.93	2452.88
404.13	2441.18
404.32	2361.60
404.51	2492.67
404.70	2349.90
404.89	2363.94
405.09	2464.58
405.28	2399.05
405.47	2534.80
405.66	2480.97
405.85	2530.12
406.05	2473.95
406.24	2495.01
406.43	2448.20
406.62	2607.36
406.81	2644.81
407.00	2443.52
407.20	2588.63
407.39	2593.31
407.58	2686.94
407.77	2630.76
407.96	2761.83
408.15	2745.45
408.34	2745.45
408.54	2806.30
408.73	2810.98
408.92	2836.73
409.11	2904.60
409.30	2904.60
409.49	2820.35
409.68	2913.97
409.87	2967.80
410.07	2960.78
410.26	2946.73
410.45	2972.48
410.64	3068.44
410.83	3049.72
411.02	3035.67
411.21	3133.98
411.40	3061.42
411.59	3150.36
411.78	3206.53
411.98	3152.70
412.17	3218.24
412.36	3314.20
412.55	3251.00
412.74	3372.71
412.93	3353.99
413.12	3290.79
413.31	3513.14
413.50	3466.33
413.69	3452.29
413.88	3475.70
414.07	3557.61
414.26	3545.91
414.45	3616.13
414.64	3655.92
414.83	3634.85
415.02	3779.97
415.22	3728.47
415.41	3765.92
415.60	3854.86
415.79	3894.65
415.98	3939.12
416.17	3918.06
416.36	4037.42
416.55	3922.74
416.74	4032.74
416.93	4053.81
417.12	3960.19
417.31	3983.59
417.50	4112.32
417.69	4273.82
417.88	4294.88
418.07	4194.24
418.26	4271.48
418.45	4322.97
418.64	4468.08
418.83	4496.17
419.02	4428.29
419.21	4526.60
419.39	4432.97
419.58	4367.44
419.77	4402.55
419.96	4484.47
420.15	4660.01
420.34	4479.79
420.53	4617.88
420.72	4669.37
420.91	4688.09
421.10	4716.18
421.29	4826.18
421.48	4805.12
421.67	4669.37
421.86	4706.82
422.05	4833.21
422.24	4765.33
422.43	4830.87
422.61	4975.98
422.80	5050.88
422.99	4884.70
423.18	4910.44
423.37	4957.25
423.56	5011.09
423.75	4952.57
423.94	4847.25
424.13	4573.41
424.32	4748.95
424.50	4910.44
424.69	4919.81
424.88	5146.84
425.07	4994.70
425.26	4945.55
425.45	4952.57
425.64	4931.51
425.83	4814.48
426.01	5074.28
426.20	5018.11
426.39	4926.83
426.58	4950.23
426.77	5048.54
426.96	5027.47
427.15	5032.15
427.33	5210.03
427.52	5118.75
427.71	5322.38
427.90	5107.05
428.09	5315.36
428.28	5256.84
428.46	5472.17
428.65	5329.40
428.84	5556.43
429.03	5504.94
429.22	5331.74
429.40	5441.75
429.59	5385.57
429.78	5437.06
429.97	5053.22
430.16	5476.85
430.34	5490.90
430.53	5657.07
430.72	5612.60
430.91	5678.14
431.10	5598.56
431.28	5687.50
431.47	5774.10
431.66	5818.57
431.85	5650.05
432.03	5844.32
432.22	5874.74
432.41	5933.26
432.60	5844.32
432.79	5989.43
432.97	6038.58
433.16	5930.92
433.35	5933.26
433.54	6073.69
433.72	6235.19
433.91	6066.67
434.10	5968.37
434.28	6143.91
434.47	6050.28
434.66	6167.31
434.85	5991.77
435.03	6221.14
435.22	6218.80
435.41	6286.68
435.59	6424.77
435.78	6401.37
435.97	6612.01
436.16	6417.75
436.34	6403.71
436.53	6612.01
436.72	6707.98
436.90	6518.39
437.09	6532.44
437.28	6630.74
437.46	6499.67
437.65	6593.29
437.84	6820.32
438.02	6558.18
438.21	6726.70
438.40	6665.85
438.58	6974.80
438.77	6977.14
438.96	6923.30
439.14	6888.20
439.33	7056.72
439.52	7066.08
439.70	7197.15
439.89	7229.91
440.08	7274.38
440.26	7368.01
440.45	7370.35
440.63	7386.73
440.82	7625.47
441.01	7527.16
441.19	7466.31
441.38	7564.61
441.57	7618.44
441.75	7667.60
441.94	7845.48
442.12	7880.58
442.31	7934.42
442.50	8046.76
442.68	7936.76
442.87	8112.30
443.05	8058.46
443.24	8177.83
443.43	8182.51
443.61	8006.97
443.80	8374.44
443.98	7978.89
444.17	7770.58
444.35	8212.94
444.54	8430.61
444.73	8180.17
444.91	8299.54
445.10	8311.24
445.28	8222.30
445.47	8170.81
445.65	8084.21
445.84	8535.93
446.02	8535.93
446.21	8313.58
446.39	8182.51
446.58	8404.86
446.77	8465.72
446.95	8079.53
447.14	8430.61
447.32	8416.57
447.51	8372.10
447.69	8404.86
447.88	8549.98
448.06	8318.26
448.25	8456.36
448.43	8477.42
448.62	8634.24
448.80	8376.78
448.99	8451.67
449.17	8578.06
449.36	8648.28
449.54	8828.50
449.73	8748.92
449.91	8978.30
450.10	8940.85
450.28	9039.15
450.46	9060.21
450.65	9032.13
450.83	9036.81
451.02	9151.49
451.20	9006.38
451.39	8992.34
451.57	9205.33
451.76	8950.21
451.94	9083.62
452.13	9205.33
452.31	9186.60
452.49	9114.05
452.68	9235.75
452.86	9195.96
453.05	9430.02
453.23	9371.50
453.42	9282.56
453.60	9139.79
453.78	9446.40
453.97	9207.67
454.15	9495.55
454.34	9556.41
454.52	9788.12
454.70	9612.58
454.89	9619.60
455.07	9535.34
455.26	9879.40
455.44	9893.44
455.62	9858.34
455.81	9858.34
455.99	10064.30
456.17	9886.42
456.36	9980.04
456.54	10043.24
456.73	10225.80
456.91	10516.03
457.09	10207.08
457.28	10345.17
457.46	10230.48
457.64	10609.65
457.83	10352.19
458.01	10387.30
458.19	10551.14
458.38	10417.72
458.56	10431.77
458.74	10864.77
458.93	10780.51
459.11	10478.58
459.29	10656.46
459.48	10745.40
459.66	10743.06
459.84	10738.38
460.03	10995.84
460.21	10815.62
460.39	10745.40
460.57	10871.79
460.76	10963.07
460.94	11290.74
461.12	11183.08
461.31	11150.31
461.49	11159.67
461.67	11080.10
461.85	11449.90
462.04	11124.57
462.22	11772.89
462.40	11749.49
462.59	11321.17
462.77	11492.03
462.95	11360.96
463.13	11417.13
463.32	11487.35
463.50	11854.81
463.68	11833.75
463.86	11639.48
464.05	11393.73
464.23	11915.67
464.41	11730.76
464.59	11433.52
464.78	12236.32
464.96	11812.68
465.14	11749.49
465.32	11885.24
465.50	11826.73
465.69	12088.87
465.87	12056.10
466.05	12039.72
466.23	12224.62
466.41	12154.40
466.60	12395.48
466.78	12063.12
466.96	12035.03
467.14	12306.54
467.32	12299.52
467.51	12533.57
467.69	11899.28
467.87	12266.75
468.05	12723.15
468.23	12290.15
468.41	12306.54
468.60	12552.29
468.78	12699.75
468.96	12627.19
469.14	12966.57
469.32	12861.24
469.50	12627.19
469.69	12762.94
469.87	13144.45
470.05	12999.34
470.23	13165.51
470.41	12917.42
470.59	13193.60
470.77	12875.29
470.95	13242.75
471.14	13708.52
471.32	12919.76
471.50	13628.94
471.68	13453.40
471.86	13701.50
472.04	13680.43
472.22	14066.62
472.40	13631.28
472.58	13755.33
472.77	14059.60
472.95	14043.21
473.13	14499.62
473.31	13809.16
473.49	14083.00
473.67	13734.26
473.85	14415.36
474.03	14675.16
474.21	14607.28
474.39	14450.47
474.57	14539.41
474.75	15016.88
474.93	14808.57
475.12	14876.44
475.30	15028.58
475.48	14656.43
475.66	14949.00
475.84	15007.52
476.02	15288.38
476.20	15520.09
476.38	15751.81
476.56	15761.17
476.74	15917.98
476.92	15768.19
477.10	15613.71
477.28	16299.49
477.46	16203.53
477.64	16121.61
477.82	16259.70
478.00	16889.31
478.18	16758.24
478.36	16772.28
478.54	16973.56
478.72	16685.68
478.90	17018.04
479.08	17303.58
479.26	17605.51
479.44	17530.61
479.62	17755.30
479.80	18005.74
479.98	17928.50
480.16	18265.54
480.34	18097.02
480.52	18534.70
480.70	18429.38
480.88	18464.49
481.06	18410.65
481.24	18785.14
481.41	18782.80
481.59	19122.18
481.77	19407.72
481.95	19503.68
482.13	19332.82
482.31	19309.42
482.49	20098.18
482.67	19988.18
482.85	20442.24
483.03	20793.32
483.21	20716.08
483.39	20666.93
483.57	20912.69
483.74	20938.43
483.92	21345.69
484.10	21029.71
484.28	21525.91
484.46	21867.63
484.64	22012.74
484.82	21750.60
485.00	22295.94
485.18	22703.20
485.35	22843.63
485.53	22768.73
485.71	22677.45
485.89	23431.10
486.07	23199.39
486.25	23122.15
486.43	23417.06
486.61	23784.52
486.78	24044.32
486.96	24212.84
487.14	24503.07
487.32	24507.75
487.50	24687.97
487.68	24730.10
487.85	25418.22
488.03	25242.68
488.21	25406.52
488.39	25633.55
488.57	25610.14
488.75	25565.67
488.92	26228.04
489.10	26754.66
489.28	26553.38
489.46	26644.66
489.64	27126.81
489.81	27559.81
489.99	27358.52
490.17	27447.46
490.35	28393.04
490.53	27821.95
490.70	28088.77
490.88	28133.24
491.06	28430.49
491.24	28896.25
491.41	28966.47
491.59	28940.72
491.77	29130.31
491.95	29228.61
492.13	29677.99
492.30	29778.64
492.48	29860.55
492.66	30092.27
492.84	29895.66
493.01	30377.81
493.19	30508.88
493.37	30359.09
493.54	31035.50
493.72	31264.88
493.90	31253.17
494.08	31592.55
494.25	31711.92
494.43	32044.27
494.61	32130.87
494.79	32308.76
494.96	32236.20
495.14	32327.48
495.32	33209.86
495.49	32748.78
495.67	33008.58
495.85	33422.85
496.02	33497.75
496.20	33670.95
496.38	33544.56
496.55	33795.00
496.73	34656.31
496.91	34457.37
497.09	34244.38
497.26	34513.54
497.44	34670.36
497.62	34785.04
497.79	35431.03
497.97	35489.54
498.14	35711.89
498.32	36070.00
498.50	35988.08
498.67	36676.19
498.85	36224.47
499.03	36790.88
499.20	36203.41
499.38	36898.55
499.56	36657.47
499.73	36355.54
499.91	36758.11
500.08	37237.92
500.26	36868.12
500.44	37422.83
500.61	37834.76
500.79	37294.10
500.97	37869.87
501.14	38321.59
501.32	38342.66
501.49	38377.76
501.67	38302.87
501.84	39089.29
502.02	38359.04
502.20	38871.62
502.37	39267.17
502.55	38841.19
502.72	39119.71
502.90	39335.04
503.07	39456.75
503.25	39793.79
503.43	39814.85
503.60	40194.02
503.78	39856.98
503.95	39882.73
504.13	40533.40
504.30	40491.27
504.48	40151.89
504.65	40336.79
504.83	40390.62
505.01	41076.40
505.18	40720.64
505.36	41406.42
505.53	41280.03
505.71	41399.40
505.88	41413.44
506.06	41378.33
506.23	42237.31
506.41	41432.16
506.58	42026.66
506.76	41900.27
506.93	41879.21
507.11	41717.71
507.28	42731.16
507.46	42349.65
507.63	42492.43
507.81	43115.01
507.98	42876.27
508.16	42696.05
508.33	43187.56
508.50	42995.64
508.68	43550.35
508.85	43704.82
509.03	43606.52
509.20	43498.86
509.38	43562.05
509.55	43856.96
509.73	44102.71
509.90	44767.43
510.08	44027.82
510.25	44524.01
510.42	44493.58
510.60	44701.89
510.77	45099.78
510.95	45432.14
511.12	44540.39
511.30	44832.96
511.47	45006.16
511.64	45525.76
511.82	45729.39
511.99	45020.20
512.17	45741.09
512.34	45645.13
512.51	46075.79
512.69	46050.04
512.86	46110.89
513.04	46342.61
513.21	46527.51
513.38	46625.81
513.56	47131.37
513.73	46417.50
513.90	46705.39
514.08	46658.58
514.25	47185.20
514.43	47482.45
514.60	47040.09
514.77	47154.77
514.95	47487.13
515.12	47402.87
515.29	47117.32
515.47	47735.23
515.64	47845.23
515.81	47346.70
515.99	47833.53
516.16	48116.73
516.33	48360.15
516.51	48060.56
516.68	48421.00
516.85	48413.98
517.03	48814.21
517.20	48083.97
517.37	48107.37
517.54	48603.56
517.72	48594.20
517.89	48584.84
518.06	48692.50
518.24	49324.45
518.41	48790.81
518.58	49279.98
518.75	49242.53
518.93	49303.38
519.10	49394.67
519.27	49357.22
519.45	49680.21
519.62	49715.32
519.79	49645.10
519.96	50050.02
520.14	49799.58
520.31	49687.23
520.48	50211.51
520.65	49673.19
520.83	50380.03
521.00	50581.32
521.17	50499.40
521.34	50511.10
521.52	50614.08
521.69	50539.19
521.86	50693.66
522.03	50974.53
522.20	51152.41
522.38	51412.21
522.55	50820.05
522.72	50901.97
522.89	51412.21
523.07	51295.18
523.24	50979.21
523.41	51356.03
523.58	51292.84
523.75	51554.98
523.92	51559.66
524.10	51676.69
524.27	51927.13
524.44	51861.59
524.61	51774.99
524.78	51803.08
524.96	52123.73
525.13	52348.42
525.30	52362.46
525.47	52170.54
525.64	52137.77
525.81	52399.91
525.98	52449.06
526.16	52528.64
526.33	52500.56
526.50	52790.78
526.67	52530.98
526.84	52849.30
527.01	52811.85
527.18	52383.53
527.36	52591.84
527.53	52835.25
527.70	53132.50
527.87	53038.88
528.04	52898.45
528.21	53382.94
528.38	53179.31
528.55	53326.77
528.72	53088.03
528.89	53392.30
529.07	53076.33
529.24	53113.78
529.41	53727.00
529.58	53404.00
529.75	53439.11
529.92	53495.28
530.09	53645.08
530.26	53755.08
530.43	53771.47
530.60	53481.24
530.77	53408.68
530.94	53970.41
531.11	53701.25
531.28	53890.83
531.46	54188.08
531.63	54171.70
531.80	54204.47
531.97	53991.48
532.14	54295.75
532.31	54192.76
532.48	54103.82
532.65	54401.07
532.82	54197.44
532.99	54557.89
533.16	54382.35
533.33	54850.45
533.50	54791.94
533.67	54644.49
533.84	54426.82
534.01	54674.91
534.18	54979.18
534.35	54923.01
534.52	54534.48
534.69	54908.97
534.86	55016.63
535.03	54887.90
535.20	55056.42
535.37	55267.07
535.54	55276.43
535.71	55152.38
535.88	55217.92
536.05	55224.94
536.22	55444.95
536.38	55414.52
536.55	55458.99
536.72	55227.28
536.89	55213.24
537.06	55281.11
537.23	55639.22
537.40	55428.57
537.57	55267.07
537.74	55643.90
537.91	55810.07
538.08	55786.67
538.25	55777.31
538.42	55611.13
538.59	55880.29
538.75	55552.62
538.92	55648.58
539.09	55943.48
539.26	55767.94
539.43	55866.25
539.60	55955.19
539.77	56100.30
539.94	56346.06
540.11	56168.18
540.28	56229.03
540.44	56193.92
540.61	56196.26
540.78	55994.98
540.95	56285.20
541.12	56097.96
541.29	56109.66
541.46	56339.04
541.62	56317.97
541.79	56418.61
541.96	55868.59
542.13	56294.56
542.30	56498.19
542.47	56743.95
542.63	56615.22
542.80	56339.04
542.97	56891.40
543.14	57251.84
543.31	57268.23
543.48	56804.80
543.64	57106.73
543.81	57127.80
543.98	57284.61
544.15	56973.32
544.32	57467.17
544.48	57460.15
544.65	57095.03
544.82	57279.93
544.99	57174.61
545.16	57279.93
545.32	57448.45
545.49	57469.51
545.66	57275.25
545.83	57413.34
546.00	57478.88
546.16	57492.92
546.33	57462.49
546.50	57380.57
546.67	57631.01
546.83	57258.87
547.00	57563.14
547.17	57546.75
547.34	57574.84
547.50	57755.06
547.67	57759.74
547.84	57836.98
548.00	57958.69
548.17	57975.07
548.34	57733.99
548.51	58174.02
548.67	57954.00
548.84	58047.63
549.01	57851.02
549.18	57780.81
549.34	57982.09
549.51	58040.60
549.68	58141.25
549.84	57895.49
550.01	58410.41
550.18	57844.00
550.34	58192.74
550.51	58220.83
550.68	58440.84
550.84	58103.80
551.01	58391.68
551.18	58375.30
551.34	58152.95
551.51	58326.15
551.68	58192.74
551.84	58529.78
552.01	58358.92
552.18	58284.02
552.34	58293.38
552.51	58539.14
552.68	58389.34
552.84	58494.67
553.01	58536.80
553.18	58522.76
553.34	58618.72
553.51	58541.48
553.67	58742.77
553.84	58824.68
554.01	58948.73
554.17	58794.26
554.34	58897.24
554.51	58787.24
554.67	58997.88
554.84	58691.27
555.00	58920.65
555.17	58742.77
555.33	58876.18
555.50	58808.30
555.67	59007.25
555.83	58812.98
556.00	58894.90
556.16	59157.04
556.33	59112.57
556.50	59166.40
556.66	59224.92
556.83	58986.18
556.99	59234.28
557.16	59398.12
557.32	59381.73
557.49	59496.42
557.65	58974.48
557.82	59257.68
557.98	59285.77
558.15	59255.34
558.32	59325.56
558.48	59002.56
558.65	59297.47
558.81	59412.16
558.98	59213.21
559.14	59461.31
559.31	59538.55
559.47	59599.40
559.64	59554.93
559.80	59564.29
559.97	59646.21
560.13	59494.08
560.30	59498.76
560.46	59573.66
560.63	59620.47
560.79	59531.53
560.96	59779.62
561.12	59655.57
561.29	59700.04
561.45	59568.97
561.61	59774.94
561.78	59634.51
561.94	59625.15
562.11	59604.08
562.27	59728.13
562.44	59969.21
562.60	59781.96
562.77	59887.29
562.93	59686.00
563.10	59702.38
563.26	59686.00
563.42	60121.34
563.59	59732.81
563.75	59763.24
563.92	60060.49
564.08	59838.14
564.24	60135.38
564.41	60018.36
564.57	59744.51
564.74	59971.55
564.90	59898.99
565.07	59903.67
565.23	59891.97
565.39	59917.71
565.56	60044.10
565.72	59924.74
565.88	60095.60
566.05	59987.93
566.21	60032.40
566.38	60170.49
566.54	60088.57
566.70	60214.96
566.87	60292.20
567.03	60044.10
567.19	60247.73
567.36	60282.84
567.52	60189.22
567.68	60331.99
567.85	60278.16
568.01	60296.88
568.17	60177.51
568.34	60154.11
568.50	60374.12
568.66	60203.26
568.83	60355.39
568.99	60069.85
569.15	60292.20
569.32	60133.04
569.48	60240.71
569.64	60495.83
569.81	60491.15
569.97	60140.07
570.13	60193.90
570.30	60280.50
570.46	60257.09
570.62	60193.90
570.78	60261.77
570.95	60114.32
571.11	60500.51
571.27	60184.54
571.43	60596.47
571.60	60479.44
571.76	60491.15
571.92	60610.51
572.09	60238.37
572.25	60446.68
572.41	60381.14
572.57	60552.00
572.74	60530.93
572.90	60399.86
573.06	60495.83
573.22	60425.61
573.38	60603.49
573.55	60523.91
573.71	60802.44
573.87	60610.51
574.03	60385.82
574.20	60362.42
574.36	60399.86
574.52	60676.05
574.68	60533.28
574.84	60842.23
575.01	60645.62
575.17	60556.68
575.33	60535.62
575.49	60334.33
575.65	60519.23
575.82	60640.94
575.98	60664.35
576.14	60755.63
576.30	60701.79
576.46	60610.51
576.62	60367.10
576.79	60683.07
576.95	60636.26
577.11	60505.19
577.27	60594.13
577.43	60617.53
577.59	60694.77
577.75	60474.76
577.92	60547.32
578.08	60816.48
578.24	60633.92
578.40	60720.52
578.56	60821.16
578.72	60556.68
578.88	60797.76
579.04	60903.08
579.21	60839.89
579.37	60874.99
579.53	60643.28
579.69	60601.15
579.85	60559.02
580.01	60748.60
580.17	60540.30
580.33	60865.63
580.49	60835.20
580.65	60837.54
580.82	60781.37
580.98	60753.29
581.14	60680.73
581.30	60935.85
581.46	60919.46
581.62	60945.21
581.78	60552.00
581.94	60853.93
582.10	60762.65
582.26	60589.45
582.42	60477.10
582.58	60640.94
582.74	60713.50
582.90	60610.51
583.06	60867.97
583.22	60521.57
583.38	60938.19
583.54	60748.60
583.70	60867.97
583.86	61059.90
584.02	60542.64
584.18	60741.58
584.34	60835.20
584.50	60851.59
584.66	60701.79
584.82	60863.29
584.98	61034.15
585.14	60842.23
585.30	60692.43
585.46	61057.56
585.62	61066.92
585.78	60977.98
585.94	60743.92
586.10	60973.30
586.26	60818.82
586.42	61001.38
586.58	61085.64
586.74	60940.53
586.90	60786.05
587.06	60977.98
587.22	61085.64
587.38	60903.08
587.54	60982.66
587.70	61183.94
587.86	60891.38
588.02	60985.00
588.18	60963.93
588.34	60889.04
588.49	60856.27
