SpectraSuite Data File
++++++++++++++++++++++++++++++++++++
Date: Fri Oct 25 10:47:17 EDT 2013
User: price-jones
Dark Spectrum Present: No
Reference Spectrum Present: No
Number of Sampled Component Spectra: 1
Spectrometers: USB2+H05261
Integration Time (usec): 100000 (USB2+H05261)
Spectra Averaged: 1 (USB2+H05261)
Boxcar Smoothing: 0 (USB2+H05261)
Correct for Electrical Dark: No (USB2+H05261)
Strobe/Lamp Enabled: No (USB2+H05261)
Correct for Detector Non-linearity: No (USB2+H05261)
Correct for Stray Light: No (USB2+H05261)
Number of Pixels in Processed Spectrum: 2048
>>>>>Begin Processed Spectral Data<<<<<
365.73	194.26
365.92	194.26
366.12	194.26
366.32	63.19
366.52	14.04
366.72	93.62
366.91	39.79
367.11	0.00
367.31	21.06
367.51	0.00
367.70	0.00
367.90	18.72
368.10	51.49
368.30	49.15
368.49	79.58
368.69	133.41
368.89	23.41
369.09	63.19
369.28	60.85
369.48	46.81
369.68	21.06
369.87	23.41
370.07	145.11
370.27	138.09
370.47	194.26
370.66	400.23
370.86	411.93
371.06	465.77
371.25	454.06
371.45	456.40
371.65	479.81
371.84	444.70
372.04	325.33
372.24	479.81
372.44	440.02
372.63	535.98
372.83	437.68
373.03	479.81
373.22	533.64
373.42	507.90
373.62	440.02
373.81	552.37
374.01	545.34
374.21	627.26
374.40	484.49
374.60	613.22
374.79	561.73
374.99	620.24
375.19	606.20
375.38	533.64
375.58	528.96
375.78	535.98
375.97	582.79
376.17	528.96
376.37	512.58
376.56	538.32
376.76	573.43
376.95	629.60
377.15	578.11
377.35	594.50
377.54	592.16
377.74	561.73
377.93	571.09
378.13	526.62
378.33	641.31
378.52	582.79
378.72	653.01
378.91	594.50
379.11	599.18
379.31	559.39
379.50	645.99
379.70	603.86
379.89	603.86
380.09	685.78
380.28	554.71
380.48	540.66
380.68	585.13
380.87	589.82
381.07	671.73
381.26	655.35
381.46	535.98
381.65	624.92
381.85	697.48
382.04	734.93
382.24	653.01
382.43	645.99
382.63	559.39
382.83	655.35
383.02	746.63
383.22	606.20
383.41	669.39
383.61	727.91
383.80	664.71
384.00	758.33
384.19	688.12
384.39	725.57
384.58	767.70
384.78	802.80
384.97	767.70
385.17	702.16
385.36	636.63
385.56	723.23
385.75	688.12
385.95	716.20
386.14	746.63
386.34	718.54
386.53	774.72
386.72	718.54
386.92	819.19
387.11	812.17
387.31	760.67
387.50	725.57
387.70	727.91
387.89	779.40
388.09	779.40
388.28	767.70
388.48	788.76
388.67	880.04
388.86	739.61
389.06	842.59
389.25	781.74
389.45	753.65
389.64	828.55
389.84	814.51
390.03	828.55
390.22	875.36
390.42	901.11
390.61	880.04
390.81	940.90
391.00	929.19
391.19	858.98
391.39	922.17
391.58	898.77
391.78	926.85
391.97	915.15
392.16	978.34
392.36	887.06
392.55	968.98
392.75	959.62
392.94	957.28
393.13	919.83
393.33	877.70
393.52	980.68
393.71	1022.81
393.91	943.24
394.10	922.17
394.29	1032.18
394.49	952.60
394.68	1083.67
394.88	1039.20
395.07	1029.84
395.26	1006.43
395.46	1062.60
395.65	1086.01
395.84	1076.65
396.04	1071.97
396.23	1137.50
396.42	1165.59
396.62	950.26
396.81	1111.75
397.00	1076.65
397.19	1062.60
397.39	1057.92
397.58	1160.91
397.77	1146.86
397.97	1118.78
398.16	1186.65
398.35	1247.51
398.55	1249.85
398.74	1284.95
398.93	1355.17
399.12	1301.34
399.32	1277.93
399.51	1221.76
399.70	1320.06
399.90	1359.85
400.09	1249.85
400.28	1338.79
400.47	1299.00
400.67	1322.40
400.86	1430.07
401.05	1352.83
401.24	1324.74
401.44	1296.66
401.63	1397.30
401.82	1387.94
402.01	1334.11
402.21	1378.58
402.40	1430.07
402.59	1458.15
402.78	1434.75
402.97	1437.09
403.17	1467.52
403.36	1533.05
403.55	1448.79
403.74	1603.27
403.93	1579.86
404.13	1572.84
404.32	1479.22
404.51	1563.48
404.70	1561.14
404.89	1502.62
405.09	1617.31
405.28	1661.78
405.47	1568.16
405.66	1633.69
405.85	1591.56
406.05	1582.20
406.24	1664.12
406.43	1750.72
406.62	1736.68
406.81	1734.34
407.00	1764.76
407.20	1680.50
407.39	1790.51
407.58	1757.74
407.77	1825.62
407.96	1806.89
408.15	1769.44
408.34	1881.79
408.54	1923.92
408.73	1851.36
408.92	1879.45
409.11	1916.90
409.30	1952.01
409.49	1942.64
409.68	1921.58
409.87	1984.77
410.07	1975.41
410.26	2113.50
410.45	2017.54
410.64	2043.29
410.83	2064.35
411.02	2090.10
411.21	2012.86
411.40	2134.57
411.59	2029.24
411.78	2244.57
411.98	2197.76
412.17	2218.83
412.36	2251.60
412.55	2272.66
412.74	2244.57
412.93	2296.07
413.12	2218.83
413.31	2333.51
413.50	2399.05
413.69	2342.88
413.88	2422.45
414.07	2434.16
414.26	2387.35
414.45	2492.67
414.64	2597.99
414.83	2473.95
415.02	2558.21
415.22	2581.61
415.41	2633.10
415.60	2616.72
415.79	2656.51
415.98	2644.81
416.17	2726.72
416.36	2736.09
416.55	2703.32
416.74	2747.79
416.93	2710.34
417.12	2836.73
417.31	2710.34
417.50	2782.90
417.69	2860.13
417.88	2775.88
418.07	2860.13
418.26	2871.84
418.45	2956.10
418.64	3040.36
418.83	2953.76
419.02	3101.21
419.21	3021.63
419.39	2953.76
419.58	2993.55
419.77	3026.31
419.96	3122.27
420.15	3103.55
420.34	3133.98
420.53	3246.32
420.72	3236.96
420.91	3194.83
421.10	3243.98
421.29	3311.86
421.48	3194.83
421.67	3265.05
421.86	3248.66
422.05	3372.71
422.24	3274.41
422.43	3316.54
422.61	3218.24
422.80	3442.93
422.99	3229.94
423.18	3412.50
423.37	3361.01
423.56	3283.77
423.75	3323.56
423.94	3342.28
424.13	3129.30
424.32	3211.22
424.50	3365.69
424.69	3330.58
424.88	3508.46
425.07	3297.81
425.26	3328.24
425.45	3323.56
425.64	3482.72
425.83	3344.63
426.01	3323.56
426.20	3396.12
426.39	3424.20
426.58	3314.20
426.77	3349.31
426.96	3293.13
427.15	3487.40
427.33	3550.59
427.52	3513.14
427.71	3522.51
427.90	3651.24
428.09	3564.64
428.28	3574.00
428.46	3571.66
428.65	3585.70
428.84	3705.07
429.03	3679.32
429.22	3538.89
429.40	3655.92
429.59	3564.64
429.78	3494.42
429.97	3566.98
430.16	3494.42
430.34	3669.96
430.53	3681.66
430.72	3730.81
430.91	3831.46
431.10	3716.77
431.28	3770.60
431.47	3850.18
431.66	4112.32
431.85	3824.44
432.03	3796.35
432.22	3899.33
432.41	4091.26
432.60	3983.59
432.79	4060.83
432.97	4051.47
433.16	3911.04
433.35	3974.23
433.54	4121.68
433.72	4049.13
433.91	4058.49
434.10	4114.66
434.28	4117.00
434.47	4095.94
434.66	4210.62
434.85	4234.03
435.03	4219.99
435.22	4224.67
435.41	4369.78
435.59	4365.10
435.78	4365.10
435.97	4425.95
436.16	4315.95
436.34	4381.48
436.53	4250.41
436.72	4514.89
436.90	4423.61
437.09	4458.72
437.28	4320.63
437.46	4559.36
437.65	4381.48
437.84	4484.47
438.02	4442.34
438.21	4606.17
438.40	4528.94
438.58	4575.75
438.77	4812.14
438.96	4638.94
439.14	4781.71
439.33	4774.69
439.52	4809.80
439.70	4765.33
439.89	4873.00
440.08	4919.81
440.26	4882.36
440.45	4877.68
440.63	4990.02
440.82	5083.64
441.01	4994.70
441.19	5104.71
441.38	5135.14
441.57	5263.86
441.75	5144.50
441.94	5359.83
442.12	5268.55
442.31	5378.55
442.50	5249.82
442.68	5458.13
442.87	5404.30
443.05	5530.69
443.24	5434.72
443.43	5554.09
443.61	5549.41
443.80	5603.24
443.98	5357.49
444.17	5268.55
444.35	5493.24
444.54	5497.92
444.73	5565.79
444.91	5376.21
445.10	5493.24
445.28	5518.98
445.47	5540.05
445.65	5544.73
445.84	5713.25
446.02	5746.02
446.21	5540.05
446.39	5486.22
446.58	5626.65
446.77	5757.72
446.95	5493.24
447.14	5631.33
447.32	5673.46
447.51	5767.08
447.69	5692.18
447.88	5720.27
448.06	5804.53
448.25	5577.50
448.43	5738.99
448.62	5741.33
448.80	5809.21
448.99	5818.57
449.17	5696.86
449.36	5596.22
449.54	5813.89
449.73	6026.88
449.91	6010.50
450.10	6118.16
450.28	6150.93
450.46	6118.16
450.65	6080.71
450.83	6066.67
451.02	5977.73
451.20	5989.43
451.39	6448.18
451.57	6188.38
451.76	6071.35
451.94	6214.12
452.13	6291.36
452.31	6038.58
452.49	6179.01
452.68	6324.13
452.86	6162.63
453.05	6179.01
453.23	6389.66
453.42	6300.72
453.60	6314.77
453.78	6340.51
453.97	6253.91
454.15	6230.51
454.34	6258.59
454.52	6492.65
454.70	6525.41
454.89	6560.52
455.07	6476.26
455.26	6602.65
455.44	6555.84
455.62	6731.38
455.81	6600.31
455.99	6703.29
456.17	6684.57
456.36	6754.79
456.54	6820.32
456.73	6759.47
456.91	7176.08
457.09	7054.37
457.28	7183.10
457.46	6857.77
457.64	7026.29
457.83	6953.73
458.01	6832.02
458.19	7084.80
458.38	7000.54
458.56	7007.56
458.74	7173.74
458.93	7115.23
459.11	7115.23
459.29	7136.29
459.48	7302.47
459.66	7094.16
459.84	7295.45
460.03	7463.97
460.21	7241.62
460.39	7346.94
460.57	7227.57
460.76	7386.73
460.94	7396.09
461.12	7339.92
461.31	7583.34
461.49	7363.33
461.67	7368.01
461.85	7641.85
462.04	7569.29
462.22	8035.06
462.40	7606.74
462.59	7524.82
462.77	7672.28
462.95	7662.91
463.13	7637.17
463.32	7779.94
463.50	7789.30
463.68	7644.19
463.86	7721.43
464.05	7630.15
464.23	7686.32
464.41	7932.08
464.59	7730.79
464.78	7728.45
464.96	7901.65
465.14	7939.10
465.32	8011.65
465.50	7878.24
465.69	7925.05
465.87	7859.52
466.05	8035.06
466.23	8067.83
466.41	7941.44
466.60	8051.44
466.78	7831.43
466.96	7707.38
467.14	8023.36
467.32	8212.94
467.51	8248.05
467.69	8037.40
467.87	8100.59
468.05	8056.12
468.23	8339.33
468.41	8109.96
468.60	8145.06
468.78	8360.39
468.96	8170.81
469.14	8397.84
469.32	8444.65
469.50	8292.52
469.69	8348.69
469.87	8500.83
470.05	8524.23
470.23	8655.30
470.41	8325.29
470.59	8404.86
470.77	8746.58
470.95	8622.53
471.14	8917.44
471.32	8737.22
471.50	8905.74
471.68	8830.84
471.86	8973.61
472.04	8865.95
472.22	9184.26
472.40	8992.34
472.58	9060.21
472.77	8872.97
472.95	9195.96
473.13	9523.64
473.31	9174.90
473.49	9104.68
473.67	9303.63
473.85	9366.82
474.03	9521.30
474.21	9439.38
474.39	9479.17
474.57	9865.36
474.75	9792.80
474.93	9839.61
475.12	9785.78
475.30	9731.95
475.48	9820.89
475.66	9867.70
475.84	9888.76
476.02	10071.33
476.20	9977.70
476.38	10267.93
476.56	10281.97
476.74	10197.71
476.92	10225.80
477.10	10272.61
477.28	10619.01
477.46	10555.82
477.64	10663.48
477.82	10520.71
478.00	10665.82
478.18	11005.20
478.36	10913.92
478.54	10862.43
478.72	10890.51
478.90	11194.78
479.08	11344.58
479.26	11552.88
479.44	11321.17
479.62	11351.60
479.80	11438.20
479.98	11566.93
480.16	11854.81
480.34	11810.34
480.52	11803.32
480.70	11822.05
480.88	11627.78
481.06	12156.74
481.24	12166.10
481.41	12400.16
481.59	12367.39
481.77	12395.48
481.95	12475.06
482.13	12676.34
482.31	12683.36
482.49	12741.88
482.67	12950.18
482.85	13345.73
483.03	13172.54
483.21	13198.28
483.39	13413.61
483.57	13598.51
483.74	13591.49
483.92	13841.93
484.10	13664.05
484.28	13994.06
484.46	13970.66
484.64	14127.47
484.82	14129.81
485.00	14080.66
485.18	14555.79
485.35	14590.90
485.53	14377.91
485.71	14555.79
485.89	14857.72
486.07	14714.95
486.25	14888.15
486.43	14841.34
486.61	15115.18
486.78	15316.47
486.96	15428.81
487.14	15576.27
487.32	15686.27
487.50	15618.39
487.68	15974.16
487.85	16259.70
488.03	15971.82
488.21	16367.37
488.39	16463.33
488.57	16430.56
488.75	16409.50
488.92	16828.45
489.10	16776.96
489.28	16950.16
489.46	17266.13
489.64	17083.57
489.81	17657.00
489.99	17563.38
490.17	17497.84
490.35	17942.55
490.53	18017.44
490.70	17628.92
490.88	18155.54
491.06	18518.32
491.24	18040.85
491.41	18302.99
491.59	18497.25
491.77	18237.45
491.95	18630.66
492.13	18778.12
492.30	18813.23
492.48	18752.37
492.66	19192.39
492.84	19157.28
493.01	19672.20
493.19	19599.65
493.37	19810.29
493.54	19475.60
493.72	19578.58
493.90	20060.73
494.08	20184.78
494.25	20184.78
494.43	20442.24
494.61	20610.76
494.79	20783.96
494.96	20355.64
495.14	20851.83
495.32	20851.83
495.49	20854.17
495.67	21214.62
495.85	21240.36
496.02	21572.72
496.20	21479.10
496.38	21727.19
496.55	21474.42
496.73	22204.66
496.91	21986.99
497.09	22064.23
497.26	22382.54
497.44	22073.59
497.62	22307.65
497.79	22691.49
497.97	22679.79
498.14	22752.35
498.32	22852.99
498.50	22630.64
498.67	23094.07
498.85	22948.95
499.03	23185.35
499.20	23278.97
499.38	23218.11
499.56	23601.96
499.73	23363.23
499.91	23393.65
500.08	23828.99
500.26	23585.58
500.44	23709.63
500.61	23997.51
500.79	23466.21
500.97	24067.73
501.14	24325.19
501.32	24306.46
501.49	24369.66
501.67	24304.12
501.84	24622.44
502.02	24844.79
502.20	24510.09
502.37	25069.48
502.55	24849.47
502.72	24851.81
502.90	25111.61
503.07	24758.19
503.25	24980.54
503.43	24978.20
503.60	25109.27
503.78	25621.84
503.95	25256.72
504.13	25514.18
504.30	25343.32
504.48	25640.57
504.65	25781.00
504.83	25954.20
505.01	26197.62
505.18	26228.04
505.36	26113.36
505.53	25986.97
505.71	26490.18
505.88	26122.72
506.06	26228.04
506.23	26820.20
506.41	26459.76
506.58	26871.69
506.76	26831.90
506.93	26738.28
507.11	26450.39
507.28	27005.10
507.46	27023.83
507.63	26960.63
507.81	27304.69
507.98	27033.19
508.16	27206.39
508.33	27274.26
508.50	27269.58
508.68	27431.08
508.85	27496.61
509.03	27971.74
509.20	27473.21
509.38	28116.86
509.55	27833.65
509.73	28084.09
509.90	28259.63
510.08	28034.94
510.25	28311.12
510.42	28336.87
510.60	28575.60
510.77	28664.54
510.95	28891.57
511.12	28306.44
511.30	28496.02
511.47	29104.56
511.64	28898.59
511.82	29174.78
511.99	28886.89
512.17	29331.59
512.34	29179.46
512.51	29230.95
512.69	29350.32
512.86	29593.73
513.04	29656.93
513.21	29792.68
513.38	29170.10
513.56	29638.20
513.73	29593.73
513.90	29752.89
514.08	29860.55
514.25	30178.87
514.43	29783.32
514.60	30270.15
514.77	30183.55
514.95	30677.40
515.12	30195.25
515.29	30384.83
515.47	30675.06
515.64	30679.74
515.81	30319.30
515.99	30733.57
516.16	30586.12
516.33	30684.42
516.51	30955.93
516.68	30773.36
516.85	30845.92
517.03	30937.20
517.20	31049.55
517.37	31033.16
517.54	31211.04
517.72	31262.54
517.89	31541.06
518.06	31468.50
518.24	31536.38
518.41	31503.61
518.58	31138.49
518.75	31576.17
518.93	31676.81
519.10	31971.72
519.27	31967.04
519.45	31960.02
519.62	32084.06
519.79	31948.31
519.96	32205.77
520.14	32554.51
520.31	32378.97
520.48	32158.96
520.65	32793.25
520.83	32671.54
521.00	32816.65
521.17	32952.40
521.34	32818.99
521.52	32697.28
521.69	32718.35
521.86	33266.03
522.03	32954.74
522.20	33008.58
522.38	32856.44
522.55	32837.72
522.72	33294.12
522.89	33139.65
523.07	33432.21
523.24	33165.39
523.41	33692.01
523.58	33523.49
523.75	33965.85
523.92	33502.43
524.10	33841.81
524.27	33968.19
524.44	33888.62
524.61	33844.15
524.78	33862.87
524.96	34316.93
525.13	34630.57
525.30	34429.28
525.47	34576.73
525.64	34405.88
525.81	34565.03
525.98	34316.93
526.16	34361.40
526.33	34192.89
526.50	34738.23
526.67	34146.08
526.84	34394.17
527.01	34050.11
527.18	34721.85
527.36	35009.73
527.53	34752.27
527.70	35302.30
527.87	35129.10
528.04	35103.35
528.21	35220.38
528.38	35220.38
528.55	35377.20
528.72	35604.23
528.89	35723.60
529.07	34883.34
529.24	35629.98
529.41	35512.95
529.58	35400.60
529.75	35578.48
529.92	35644.02
530.09	36077.02
530.26	35967.01
530.43	36048.93
530.60	35526.99
530.77	35927.22
530.94	36245.54
531.11	35882.75
531.28	36334.48
531.46	36027.87
531.63	36315.75
531.80	36100.42
531.97	36060.63
532.14	36048.93
532.31	35941.27
532.48	36442.14
532.65	36924.29
532.82	36503.00
532.99	36350.86
533.16	36261.92
533.33	36783.86
533.50	37226.22
533.67	36374.27
533.84	36449.16
534.01	36809.61
534.18	36926.63
534.35	37088.13
534.52	37116.22
534.69	37343.25
534.86	37158.34
535.03	36844.71
535.20	37254.31
535.37	37397.08
535.54	37493.04
535.71	37123.24
535.88	37366.65
536.05	37366.65
536.22	37703.69
536.38	37624.11
536.55	37488.36
536.72	37139.62
536.89	37532.83
537.06	37586.66
537.23	37848.80
537.40	37640.50
537.57	37708.37
537.74	38043.07
537.91	38103.92
538.08	38359.04
538.25	37820.72
538.42	38101.58
538.59	38291.16
538.75	37827.74
538.92	38033.71
539.09	38272.44
539.26	38522.88
539.43	38576.71
539.60	38202.22
539.77	38199.88
539.94	38377.76
540.11	38595.43
540.28	38457.34
540.44	38478.41
540.61	38532.24
540.78	38534.58
540.95	38653.95
541.12	38440.96
541.29	38546.28
541.46	38766.29
541.62	38480.75
541.79	38773.31
541.96	38394.15
542.13	38742.89
542.30	38916.09
542.47	39143.12
542.63	39110.35
542.80	39093.97
542.97	39735.27
543.14	39651.02
543.31	39117.37
543.48	39536.33
543.64	39878.05
543.81	39643.99
543.98	39505.90
544.15	39515.26
544.32	39910.82
544.48	39995.07
544.65	39531.65
544.82	39744.64
544.99	39812.51
545.16	39894.43
545.32	39782.09
545.49	40357.86
545.66	40156.57
545.83	40081.67
546.00	39959.97
546.16	40414.03
546.33	40137.85
546.50	39431.01
546.67	39775.06
546.83	39700.17
547.00	40065.29
547.17	40720.64
547.34	40643.40
547.50	40032.52
547.67	40416.37
547.84	40037.20
548.00	40634.04
548.17	40917.25
548.34	40751.07
548.51	40687.87
548.67	40336.79
548.84	41137.26
549.01	40383.60
549.18	40828.30
549.34	41134.92
549.51	40673.83
549.68	40959.38
549.84	40832.99
550.01	41074.06
550.18	40854.05
550.34	40950.01
550.51	40769.79
550.68	40875.12
550.84	40453.82
551.01	40980.44
551.18	40950.01
551.34	40978.10
551.51	41280.03
551.68	41544.51
551.84	40928.95
552.01	41256.62
552.18	41184.07
552.34	41144.28
552.51	41560.89
552.68	41198.11
552.84	41687.28
553.01	42136.66
553.18	41542.17
553.34	41605.36
553.51	41244.92
553.67	41404.08
553.84	41900.27
554.01	41511.74
554.17	41909.63
554.34	41918.99
554.51	42209.22
554.67	41691.96
554.84	41797.29
555.00	41521.10
555.17	41696.64
555.33	41991.55
555.50	41633.45
555.67	41930.70
555.83	41954.10
556.00	41720.05
556.16	42307.52
556.33	42356.67
556.50	42220.92
556.66	42469.02
556.83	41603.02
556.99	42307.52
557.16	42122.62
557.32	41926.02
557.49	42445.62
557.65	41759.84
557.82	42183.48
557.98	42415.19
558.15	42302.84
558.32	42630.52
558.48	42742.86
558.65	42794.36
558.81	41933.04
558.98	42281.78
559.14	42038.36
559.31	42141.35
559.47	42403.49
559.64	42754.57
559.80	42625.84
559.97	42529.87
560.13	42419.87
560.30	42188.16
560.46	42295.82
560.63	42806.06
560.79	42705.41
560.96	42955.85
561.12	42703.07
561.29	42813.08
561.45	42918.40
561.61	43086.92
561.78	42370.72
561.94	42478.38
562.11	42403.49
562.27	42480.72
562.44	42930.11
562.60	42883.30
562.77	42883.30
562.93	42873.93
563.10	42880.95
563.26	42651.58
563.42	43145.44
563.59	42534.56
563.75	42806.06
563.92	42946.49
564.08	43117.35
564.24	43246.08
564.41	42934.79
564.57	42902.02
564.74	42780.31
564.90	43342.04
565.07	43145.44
565.23	43126.71
565.39	43035.43
565.56	43295.23
565.72	42909.04
565.88	42988.62
566.05	42520.51
566.21	43040.11
566.38	42899.68
566.54	43035.43
566.70	43430.98
566.87	43344.38
567.03	43283.53
567.19	43454.39
567.36	42784.99
567.52	43072.88
567.68	43536.30
567.85	43082.24
568.01	43166.50
568.17	43299.91
568.34	43168.84
568.50	43295.23
568.66	43463.75
568.83	43580.78
568.99	43126.71
569.15	42745.20
569.32	43122.03
569.48	43583.12
569.64	43538.65
569.81	43473.11
569.97	42974.58
570.13	43576.09
570.30	43124.37
570.46	42962.87
570.62	43138.41
570.78	43030.75
570.95	42787.33
571.11	43540.99
571.27	43201.61
571.43	43208.63
571.60	43522.26
571.76	43505.88
571.92	43538.65
572.09	43718.87
572.25	43318.64
572.41	43459.07
572.57	43697.80
572.74	43693.12
572.90	43524.60
573.06	43681.42
573.22	43447.36
573.38	43615.88
573.55	43112.67
573.71	44051.22
573.87	43641.63
574.03	43309.27
574.20	43342.04
574.36	43548.01
574.52	43800.79
574.68	43597.16
574.84	43772.70
575.01	43662.69
575.17	43634.61
575.33	43299.91
575.49	43562.05
575.65	44023.14
575.82	43583.12
575.98	43344.38
576.14	44208.04
576.30	43686.10
576.46	43576.09
576.62	43107.99
576.79	44018.46
576.95	43292.89
577.11	43863.98
577.27	43725.89
577.43	43721.21
577.59	44133.14
577.75	43758.66
577.92	43620.56
578.08	43611.20
578.24	43342.04
578.40	43545.67
578.56	43613.54
578.72	43620.56
578.88	43835.89
579.04	43693.12
579.21	43765.68
579.37	43679.08
579.53	43650.99
579.69	43526.94
579.85	43908.45
580.01	43957.60
580.17	43576.09
580.33	44158.89
580.49	44341.45
580.65	43992.71
580.82	43941.22
580.98	43669.72
581.14	43627.59
581.30	43782.06
581.46	43508.22
581.62	43744.61
581.78	43861.64
581.94	44016.11
582.10	43999.73
582.26	43997.39
582.42	43679.08
582.58	44083.99
582.74	43606.52
582.90	43966.96
583.06	43583.12
583.22	43948.24
583.38	43927.17
583.54	43468.43
583.70	43742.27
583.86	43400.55
584.02	43608.86
584.18	43934.20
584.34	43838.23
584.50	43725.89
584.66	43758.66
584.82	43847.60
584.98	44390.60
585.14	43585.46
585.30	43540.99
585.46	43849.94
585.62	43800.79
585.78	43758.66
585.94	43955.26
586.10	43852.28
586.26	43768.02
586.42	44011.43
586.58	44184.63
586.74	43796.10
586.90	43463.75
587.06	43599.50
587.22	44140.16
587.38	44098.03
587.54	44074.63
587.70	44074.63
587.86	44100.37
588.02	44287.62
588.18	44233.78
588.34	44116.76
588.49	43995.05
588.65	43943.56
588.81	43826.53
588.97	43725.89
589.13	43920.15
589.29	44081.65
589.45	43873.34
589.61	43718.87
589.77	44226.76
589.93	44261.87
590.08	44163.57
590.24	44165.91
590.40	44350.81
