SpectraSuite Data File
++++++++++++++++++++++++++++++++++++
Date: Fri Oct 25 10:47:30 EDT 2013
User: price-jones
Dark Spectrum Present: No
Reference Spectrum Present: No
Number of Sampled Component Spectra: 1
Spectrometers: USB2+H05261
Integration Time (usec): 100000 (USB2+H05261)
Spectra Averaged: 1 (USB2+H05261)
Boxcar Smoothing: 0 (USB2+H05261)
Correct for Electrical Dark: No (USB2+H05261)
Strobe/Lamp Enabled: No (USB2+H05261)
Correct for Detector Non-linearity: No (USB2+H05261)
Correct for Stray Light: No (USB2+H05261)
Number of Pixels in Processed Spectrum: 2048
>>>>>Begin Processed Spectral Data<<<<<
365.73	177.88
365.92	177.88
366.12	177.88
366.32	37.45
366.52	98.30
366.72	100.64
366.91	72.56
367.11	60.85
367.31	0.00
367.51	39.79
367.70	14.04
367.90	65.54
368.10	46.81
368.30	0.00
368.49	21.06
368.69	16.38
368.89	100.64
369.09	23.41
369.28	53.83
369.48	0.00
369.68	60.85
369.87	128.73
370.07	182.56
370.27	140.43
370.47	215.33
370.66	346.40
370.86	383.85
371.06	383.85
371.25	430.66
371.45	322.99
371.65	540.66
371.84	402.57
372.04	444.70
372.24	484.49
372.44	475.13
372.63	503.22
372.83	538.32
373.03	528.96
373.22	514.92
373.42	540.66
373.62	505.56
373.81	512.58
374.01	594.50
374.21	493.85
374.40	514.92
374.60	498.53
374.79	547.69
374.99	573.43
375.19	573.43
375.38	500.87
375.58	491.51
375.78	550.03
375.97	564.07
376.17	638.97
376.37	505.56
376.56	519.60
376.76	601.52
376.95	484.49
377.15	547.69
377.35	573.43
377.54	615.56
377.74	603.86
377.93	634.29
378.13	653.01
378.33	568.75
378.52	648.33
378.72	615.56
378.91	653.01
379.11	606.20
379.31	634.29
379.50	631.94
379.70	706.84
379.89	566.41
380.09	582.79
380.28	538.32
380.48	624.92
380.68	606.20
380.87	540.66
381.07	648.33
381.26	627.26
381.46	610.88
381.65	578.11
381.85	711.52
382.04	695.14
382.24	662.37
382.43	641.31
382.63	709.18
382.83	734.93
383.02	638.97
383.22	734.93
383.41	650.67
383.61	706.84
383.80	758.33
384.00	681.10
384.19	737.27
384.39	720.88
384.58	631.94
384.78	760.67
384.97	704.50
385.17	765.36
385.36	702.16
385.56	697.48
385.75	720.88
385.95	739.61
386.14	751.31
386.34	706.84
386.53	807.48
386.72	784.08
386.92	716.20
387.11	800.46
387.31	793.44
387.50	732.59
387.70	758.33
387.89	856.64
388.09	828.55
388.28	828.55
388.48	812.17
388.67	842.59
388.86	828.55
389.06	844.93
389.25	830.89
389.45	910.47
389.64	863.66
389.84	887.06
390.03	868.34
390.22	863.66
390.42	922.17
390.61	908.13
390.81	908.13
391.00	896.43
391.19	950.26
391.39	910.47
391.58	966.64
391.78	997.07
391.97	945.58
392.16	882.38
392.36	959.62
392.55	1050.90
392.75	901.11
392.94	908.13
393.13	1006.43
393.33	922.17
393.52	1083.67
393.71	1011.11
393.91	978.34
394.10	1015.79
394.29	985.37
394.49	992.39
394.68	992.39
394.88	1050.90
395.07	1132.82
395.26	1055.58
395.46	1027.50
395.65	1069.62
395.84	1022.81
396.04	1172.61
396.23	1139.84
396.42	1160.91
396.62	1069.62
396.81	1210.06
397.00	1210.06
397.19	1181.97
397.39	1102.39
397.58	1167.93
397.77	1135.16
397.97	1231.12
398.16	1261.55
398.35	1261.55
398.55	1174.95
398.74	1296.66
398.93	1366.87
399.12	1282.61
399.32	1254.53
399.51	1341.13
399.70	1385.60
399.90	1329.42
400.09	1303.68
400.28	1348.15
400.47	1313.04
400.67	1437.09
400.86	1425.39
401.05	1336.45
401.24	1411.34
401.44	1500.28
401.63	1397.30
401.82	1490.92
402.01	1451.13
402.21	1474.54
402.40	1514.33
402.59	1486.24
402.78	1401.98
402.97	1483.90
403.17	1551.78
403.36	1673.48
403.55	1554.12
403.74	1636.03
403.93	1645.40
404.13	1638.38
404.32	1568.16
404.51	1523.69
404.70	1605.61
404.89	1586.88
405.09	1640.72
405.28	1769.44
405.47	1764.76
405.66	1659.44
405.85	1591.56
406.05	1790.51
406.24	1689.87
406.43	1715.61
406.62	1846.68
406.81	1795.19
407.00	1806.89
407.20	1792.85
407.39	1736.68
407.58	1795.19
407.77	1792.85
407.96	1844.34
408.15	1825.62
408.34	1806.89
408.54	1888.81
408.73	1879.45
408.92	1982.43
409.11	2015.20
409.30	1944.99
409.49	2008.18
409.68	1952.01
409.87	2017.54
410.07	2038.61
410.26	2040.95
410.45	2062.01
410.64	2083.08
410.83	2125.21
411.02	2076.06
411.21	2230.53
411.40	2277.34
411.59	2200.10
411.78	2150.95
411.98	2296.07
412.17	2232.87
412.36	2256.28
412.55	2392.03
412.74	2340.54
412.93	2359.26
413.12	2307.77
413.31	2438.84
413.50	2389.69
413.69	2495.01
413.88	2530.12
414.07	2551.18
414.26	2546.50
414.45	2539.48
414.64	2597.99
414.83	2670.55
415.02	2668.21
415.22	2607.36
415.41	2668.21
415.60	2672.89
415.79	2738.43
415.98	2733.75
416.17	2663.53
416.36	2775.88
416.55	2782.90
416.74	2796.94
416.93	2857.79
417.12	2970.14
417.31	2841.41
417.50	2995.89
417.69	3026.31
417.88	2888.22
418.07	2958.44
418.26	2911.63
418.45	3049.72
418.64	3173.77
418.83	3038.02
419.02	3087.17
419.21	3150.36
419.39	3136.32
419.58	3103.55
419.77	3059.08
419.96	3061.42
420.15	3206.53
420.34	3213.56
420.53	3187.81
420.72	3243.98
420.91	3115.25
421.10	3337.60
421.29	3232.28
421.48	3215.90
421.67	3370.37
421.86	3276.75
422.05	3283.77
422.24	3337.60
422.43	3279.09
422.61	3445.27
422.80	3358.67
422.99	3492.08
423.18	3393.78
423.37	3377.39
423.56	3405.48
423.75	3459.31
423.94	3330.58
424.13	3126.96
424.32	3496.76
424.50	3522.51
424.69	3438.25
424.88	3623.15
425.07	3550.59
425.26	3463.99
425.45	3440.59
425.64	3489.74
425.83	3494.42
426.01	3496.76
426.20	3602.08
426.39	3435.91
426.58	3531.87
426.77	3461.65
426.96	3574.00
427.15	3618.47
427.33	3609.11
427.52	3604.42
427.71	3571.66
427.90	3590.38
428.09	3700.39
428.28	3850.18
428.46	3684.00
428.65	3527.19
428.84	3829.12
429.03	3871.25
429.22	3637.19
429.40	3819.75
429.59	3693.37
429.78	3524.85
429.97	3555.27
430.16	3646.55
430.34	3730.81
430.53	3723.79
430.72	3850.18
430.91	3698.05
431.10	3794.01
431.28	3950.82
431.47	4077.21
431.66	4102.96
431.85	3864.22
432.03	4168.49
432.22	4128.70
432.41	4124.02
432.60	4196.58
432.79	4016.36
432.97	4084.23
433.16	4234.03
433.35	4156.79
433.54	4236.37
433.72	4112.32
433.91	3976.57
434.10	4166.15
434.28	4273.82
434.47	4262.12
434.66	4400.21
434.85	4215.30
435.03	4224.67
435.22	4273.82
435.41	4435.32
435.59	4648.30
435.78	4344.03
435.97	4404.89
436.16	4337.01
436.34	4580.43
436.53	4320.63
436.72	4725.54
436.90	4589.79
437.09	4545.32
437.28	4369.78
437.46	4432.97
437.65	4592.13
437.84	4620.22
438.02	4531.28
438.21	4578.09
438.40	4629.58
438.58	4676.39
438.77	4662.35
438.96	4868.31
439.14	4842.57
439.33	4788.74
439.52	5064.92
439.70	5025.13
439.89	5188.97
440.08	5104.71
440.26	5083.64
440.45	5146.84
440.63	4999.38
440.82	5193.65
441.01	5172.58
441.19	5172.58
441.38	5177.26
441.57	5357.49
441.75	5390.25
441.94	5329.40
442.12	5535.37
442.31	5500.26
442.50	5495.58
442.68	5579.84
442.87	5343.44
443.05	5441.75
443.24	5526.00
443.43	5720.27
443.61	5724.95
443.80	5701.54
443.98	5416.00
444.17	5369.19
444.35	5748.36
444.54	5731.97
444.73	5738.99
444.91	5568.13
445.10	5645.37
445.28	5771.76
445.47	5603.24
445.65	5643.03
445.84	5888.79
446.02	5834.96
446.21	5717.93
446.39	5687.50
446.58	6054.97
446.77	5930.92
446.95	5905.17
447.14	5799.85
447.32	5844.32
447.51	5771.76
447.69	5652.39
447.88	5792.83
448.06	5816.23
448.25	6008.16
448.43	5891.13
448.62	5907.51
448.80	5846.66
448.99	5874.74
449.17	5909.85
449.36	5984.75
449.54	5930.92
449.73	6031.56
449.91	6085.39
450.10	6176.67
450.28	6326.47
450.46	6342.85
450.65	6214.12
450.83	6242.21
451.02	6263.27
451.20	6300.72
451.39	6312.42
451.57	6141.57
451.76	6251.57
451.94	6183.70
452.13	6392.00
452.31	6319.45
452.49	6113.48
452.68	6420.09
452.86	6099.44
453.05	6359.24
453.23	6651.80
453.42	6143.91
453.60	6356.90
453.78	6476.26
453.97	6420.09
454.15	6459.88
454.34	6516.05
454.52	6494.99
454.70	6626.06
454.89	6590.95
455.07	6773.51
455.26	6778.19
455.44	6633.08
455.62	6635.42
455.81	6803.94
455.99	6654.14
456.17	6951.39
456.36	6904.58
456.54	6832.02
456.73	6810.96
456.91	7140.97
457.09	7026.29
457.28	7164.38
457.46	6857.77
457.64	7241.62
457.83	7077.78
458.01	7192.47
458.19	7360.98
458.38	7108.21
458.56	7276.73
458.74	7164.38
458.93	7180.76
459.11	7201.83
459.29	7335.24
459.48	7480.35
459.66	7180.76
459.84	7262.68
460.03	7564.61
460.21	7363.33
460.39	7564.61
460.57	7435.88
460.76	7588.02
460.94	7861.86
461.12	7768.24
461.31	7604.40
461.49	7396.09
461.67	7454.61
461.85	7721.43
462.04	7728.45
462.22	7941.44
462.40	7798.66
462.59	7845.48
462.77	7812.71
462.95	7648.87
463.13	7733.13
463.32	7889.95
463.50	7801.01
463.68	8002.29
463.86	8016.33
464.05	7817.39
464.23	7915.69
464.41	8025.70
464.59	7777.60
464.78	7925.05
464.96	8081.87
465.14	7967.18
465.32	7882.92
465.50	8374.44
465.69	8145.06
465.87	8149.75
466.05	8067.83
466.23	8208.26
466.41	8315.92
466.60	8301.88
466.78	8126.34
466.96	8023.36
467.14	8238.69
467.32	8482.10
467.51	8418.91
467.69	8140.38
467.87	8404.86
468.05	8517.21
468.23	8369.76
468.41	8084.21
468.60	8418.91
468.78	8538.27
468.96	8432.95
469.14	8559.34
469.32	8393.16
469.50	8496.14
469.69	8720.84
469.87	8688.07
470.05	8755.94
470.23	8847.22
470.41	8662.32
470.59	8851.91
470.77	8915.10
470.95	8854.25
471.14	8985.32
471.32	8727.86
471.50	9114.05
471.68	9083.62
471.86	9165.54
472.04	9043.83
472.22	9432.36
472.40	9090.64
472.58	9249.80
472.77	9291.93
472.95	9320.01
473.13	9465.13
473.31	9392.57
473.49	9385.55
473.67	9352.78
473.85	9521.30
474.03	9701.52
474.21	9439.38
474.39	9933.23
474.57	9598.54
474.75	9818.55
474.93	9727.27
475.12	9825.57
475.30	9954.30
475.48	10024.51
475.66	10003.45
475.84	10017.49
476.02	10036.22
476.20	10279.63
476.38	10464.54
476.56	10780.51
476.74	10401.34
476.92	10532.41
477.10	10267.93
477.28	10813.28
477.46	10656.46
477.64	10810.93
477.82	10953.71
478.00	11208.83
478.18	11098.82
478.36	11133.93
478.54	11339.90
478.72	11290.74
478.90	11389.05
479.08	11499.05
479.26	11763.53
479.44	11705.02
479.62	11609.06
479.80	11648.85
479.98	11850.13
480.16	12084.19
480.34	12159.08
480.52	12147.38
480.70	12236.32
480.88	12030.35
481.06	12070.14
481.24	12294.83
481.41	12650.60
481.59	12617.83
481.77	12748.90
481.95	12854.22
482.13	12826.14
482.31	13092.96
482.49	13092.96
482.67	13090.62
482.85	13554.04
483.03	13593.83
483.21	13596.17
483.39	14005.77
483.57	13502.55
483.74	13593.83
483.92	14134.50
484.10	13633.62
484.28	13879.38
484.46	14270.25
484.64	14373.23
484.82	14251.52
485.00	14633.03
485.18	14675.16
485.35	14949.00
485.53	14675.16
485.71	14654.09
485.89	14883.47
486.07	14941.98
486.25	15096.46
486.43	15400.72
486.61	15508.39
486.78	15667.55
486.96	15730.74
487.14	15964.79
487.32	15721.38
487.50	16243.32
487.68	16210.55
487.85	16531.20
488.03	16350.98
488.21	16587.38
488.39	16807.39
488.57	16973.56
488.75	17074.21
488.92	17305.92
489.10	17352.73
489.28	17280.18
489.46	17633.60
489.64	17586.79
489.81	18090.00
489.99	17884.03
490.17	18040.85
490.35	18237.45
490.53	18349.80
490.70	18497.25
490.88	18125.11
491.06	18717.26
491.24	18792.16
491.41	18714.92
491.59	18923.23
491.77	18663.43
491.95	18930.25
492.13	19335.17
492.30	19651.14
492.48	19733.06
492.66	19644.12
492.84	19524.75
493.01	19845.40
493.19	20142.65
493.37	20144.99
493.54	20219.89
493.72	20100.52
493.90	20334.57
494.08	20603.74
494.25	20847.15
494.43	20992.26
494.61	20798.00
494.79	20980.56
494.96	20774.60
495.14	21179.51
495.32	21530.59
495.49	21518.89
495.67	21563.36
495.85	21834.86
496.02	21914.44
496.20	22115.72
496.38	21998.70
496.55	22115.72
496.73	22525.32
496.91	22331.05
497.09	22654.05
497.26	22778.09
497.44	22242.11
497.62	22927.89
497.79	22813.20
497.97	22963.00
498.14	22906.82
498.32	23091.73
498.50	23372.59
498.67	23400.68
498.85	23491.96
499.03	23578.56
499.20	23573.88
499.38	23580.90
499.56	23896.87
499.73	24081.77
499.91	23999.85
500.08	24203.48
500.26	24004.53
500.44	24077.09
500.61	24327.53
500.79	24222.20
500.97	24360.30
501.14	24547.54
501.32	24453.92
501.49	24404.77
501.67	25120.97
501.84	24535.84
502.02	25050.75
502.20	25055.43
502.37	25745.89
502.55	25057.78
502.72	25144.38
502.90	25535.24
503.07	25146.72
503.25	25322.26
503.43	25411.20
503.60	25511.84
503.78	25752.91
503.95	25937.82
504.13	25914.41
504.30	25996.33
504.48	26010.37
504.65	26356.77
504.83	26398.90
505.01	27026.17
505.18	26340.39
505.36	26883.39
505.53	26728.92
505.71	26993.40
505.88	27044.89
506.06	26740.62
506.23	27255.54
506.41	26773.39
506.58	27094.04
506.76	27187.66
506.93	27601.94
507.11	27110.43
507.28	27555.13
507.46	27484.91
507.63	27824.29
507.81	27482.57
507.98	27651.09
508.16	28032.60
508.33	27831.31
508.50	28044.30
508.68	28144.94
508.85	28355.59
509.03	28194.09
509.20	28397.72
509.38	28814.34
509.55	28491.34
509.73	28474.96
509.90	28566.24
510.08	28517.09
510.25	28907.96
510.42	28973.49
510.60	28549.85
510.77	29137.33
510.95	29317.55
511.12	28741.78
511.30	29383.09
511.47	29202.86
511.64	29818.42
511.82	29240.31
511.99	29530.54
512.17	29572.67
512.34	29523.52
512.51	29500.11
512.69	30181.21
512.86	30061.84
513.04	30092.27
513.21	30328.66
513.38	30295.89
513.56	29905.02
513.73	30237.38
513.90	30621.23
514.08	30312.28
514.25	30298.23
514.43	30586.12
514.60	30602.50
514.77	30700.81
514.95	30848.26
515.12	30911.46
515.29	30827.20
515.47	30691.44
515.64	31166.57
515.81	30967.63
515.99	31297.64
516.16	31454.46
516.33	31491.91
516.51	31255.51
516.68	31122.10
516.85	30995.71
517.03	31285.94
517.20	31431.05
517.37	31709.58
517.54	31428.71
517.72	31477.86
517.89	31475.52
518.06	31978.74
518.24	31711.92
518.41	31793.84
518.58	31934.27
518.75	31679.15
518.93	32275.99
519.10	32212.79
519.27	32559.19
519.45	31894.48
519.62	32318.12
519.79	32407.06
519.96	32755.80
520.14	32999.21
520.31	32496.00
520.48	33015.60
520.65	33139.65
520.83	33139.65
521.00	32936.02
521.17	33273.06
521.34	33062.41
521.52	33589.03
521.69	33352.63
521.86	33111.56
522.03	33694.35
522.20	33572.64
522.38	33572.64
522.55	33949.47
522.72	33830.10
522.89	33935.43
523.07	34024.37
523.24	33404.13
523.41	33699.03
523.58	33684.99
523.75	34284.17
523.92	34284.17
524.10	34555.67
524.27	34532.26
524.44	34581.42
524.61	34373.11
524.78	34761.64
524.96	34902.07
525.13	34937.18
525.30	34981.65
525.47	34836.53
525.64	34911.43
525.81	34979.31
525.98	34775.68
526.16	34806.11
526.33	35136.12
526.50	34962.92
526.67	34803.77
526.84	34733.55
527.01	35122.08
527.18	35353.79
527.36	35264.85
527.53	35309.32
527.70	35800.83
527.87	35875.73
528.04	35377.20
528.21	35732.96
528.38	35634.66
528.55	35737.64
528.72	35957.65
528.89	35882.75
529.07	35896.80
529.24	35782.11
529.41	36093.40
529.58	35765.73
529.75	36187.02
529.92	36301.71
530.09	36680.88
530.26	36350.86
530.43	36409.37
530.60	36510.02
530.77	36428.10
530.94	36205.75
531.11	36552.15
531.28	36306.39
531.46	36816.63
531.63	36748.75
531.80	36725.35
531.97	36643.43
532.14	36519.38
532.31	36425.76
532.48	36928.97
532.65	36818.97
532.82	37092.81
532.99	37345.59
533.16	36790.88
533.33	37060.04
533.50	37237.92
533.67	37523.47
533.84	37514.11
534.01	36723.01
534.18	37069.40
534.35	37750.50
534.52	37221.54
534.69	37504.74
534.86	37507.08
535.03	37469.64
535.20	37865.19
535.37	37839.44
535.54	38164.78
535.71	37881.57
535.88	37996.26
536.05	37954.13
536.22	37633.47
536.38	38326.27
536.55	38085.20
536.72	37846.46
536.89	37699.01
537.06	38183.50
537.23	38220.95
537.40	37923.70
537.57	38202.22
537.74	38127.33
537.91	39049.50
538.08	38586.07
538.25	38354.36
538.42	38677.35
538.59	38396.49
538.75	38749.91
538.92	38330.95
539.09	38724.16
539.26	38979.28
539.43	38724.16
539.60	39089.29
539.77	38618.84
539.94	39164.18
540.11	38459.68
540.28	38824.81
540.44	38953.54
540.61	39143.12
540.78	38511.17
540.95	38880.98
541.12	38768.63
541.29	38663.31
541.46	39309.30
541.62	39138.44
541.79	39255.46
541.96	39416.96
542.13	39431.01
542.30	39356.11
542.47	39323.34
542.63	39168.87
542.80	39761.02
542.97	39878.05
543.14	39824.22
543.31	39566.76
543.48	39978.69
543.64	40409.35
543.81	39721.23
543.98	40219.77
544.15	39941.24
544.32	40362.54
544.48	40788.52
544.65	40308.71
544.82	40308.71
544.99	40292.32
545.16	40425.73
545.32	39908.47
545.49	40615.32
545.66	40664.47
545.83	40720.64
546.00	40725.32
546.16	40643.40
546.33	40610.64
546.50	39929.54
546.67	40521.69
546.83	40121.46
547.00	40575.53
547.17	40641.06
547.34	40509.99
547.50	40575.53
547.67	41071.72
547.84	40706.60
548.00	40924.27
548.17	41207.47
548.34	40942.99
548.51	41240.24
548.67	41270.67
548.84	40919.59
549.01	41167.68
549.18	41031.93
549.34	41427.48
549.51	41155.98
549.68	41343.22
549.84	41429.82
550.01	41642.81
550.18	41088.10
550.34	41446.21
550.51	41263.64
550.68	41375.99
550.84	40884.48
551.01	41750.48
551.18	41469.61
551.34	41532.81
551.51	41647.49
551.68	41500.04
551.84	41963.46
552.01	41528.13
552.18	41682.60
552.34	41626.43
552.51	41614.72
552.68	41668.56
552.84	42120.28
553.01	42277.10
553.18	41972.83
553.34	42038.36
553.51	41652.17
553.67	42038.36
553.84	41991.55
554.01	42183.48
554.17	42583.71
554.34	42557.96
554.51	42265.39
554.67	42335.61
554.84	42347.31
555.00	42064.11
555.17	41914.31
555.33	42550.94
555.50	42321.57
555.67	42265.39
555.83	42368.38
556.00	42033.68
556.16	42665.63
556.33	42583.71
556.50	42480.72
556.66	42492.43
556.83	42642.22
556.99	42787.33
557.16	42925.42
557.32	42642.22
557.49	42555.62
557.65	42403.49
557.82	42611.79
557.98	42342.63
558.15	42845.85
558.32	43070.54
558.48	42452.64
558.65	42560.30
558.81	42948.83
558.98	43049.47
559.14	42918.40
559.31	42494.77
559.47	42656.26
559.64	43332.68
559.80	43103.31
559.97	43484.81
560.13	42937.13
560.30	42869.25
560.46	42995.64
560.63	42848.19
560.79	43288.21
560.96	43423.96
561.12	42876.27
561.29	43189.91
561.45	42696.05
561.61	42878.61
561.78	43217.99
561.94	42997.98
562.11	43082.24
562.27	42555.62
562.44	43332.68
562.60	43618.22
562.77	43323.32
562.93	43119.69
563.10	43012.02
563.26	43215.65
563.42	43419.28
563.59	43000.32
563.75	43559.71
563.92	43732.91
564.08	43566.73
564.24	43756.32
564.41	43636.95
564.57	43456.73
564.74	43517.58
564.90	44088.67
565.07	43704.82
565.23	43889.73
565.39	43409.92
565.56	43501.20
565.72	43173.52
565.88	43643.97
566.05	43402.89
566.21	43690.78
566.38	43445.02
566.54	43784.40
566.70	43950.58
566.87	44144.84
567.03	43735.25
567.19	44088.67
567.36	44048.88
567.52	43564.39
567.68	43889.73
567.85	43845.26
568.01	43449.70
568.17	43585.46
568.34	43407.58
568.50	43896.75
568.66	43517.58
568.83	43798.44
568.99	43423.96
569.15	43955.26
569.32	43784.40
569.48	43842.92
569.64	43833.55
569.81	43842.92
569.97	43814.83
570.13	43489.49
570.30	43971.64
570.46	43494.18
570.62	43686.10
570.78	43770.36
570.95	44208.04
571.11	44098.03
571.27	44044.20
571.43	43718.87
571.60	44018.46
571.76	43323.32
571.92	44130.80
572.09	44069.95
572.25	44025.48
572.41	43290.55
572.57	43702.48
572.74	44151.87
572.90	43761.00
573.06	43564.39
573.22	44179.95
573.38	43622.90
573.55	43842.92
573.71	43990.37
573.87	44177.61
574.03	43868.66
574.20	44109.74
574.36	43625.25
574.52	44217.40
574.68	44039.52
574.84	44119.10
575.01	43873.34
575.17	43859.30
575.33	43796.10
575.49	43959.94
575.65	44222.08
575.82	44149.53
575.98	44245.49
576.14	44280.60
576.30	44093.35
576.46	44217.40
576.62	44107.40
576.79	43770.36
576.95	43599.50
577.11	44016.11
577.27	44280.60
577.43	44037.18
577.59	44463.16
577.75	44179.95
577.92	44079.31
578.08	43924.83
578.24	43885.04
578.40	44186.97
578.56	44144.84
578.72	43938.88
578.88	44020.80
579.04	44184.63
579.21	44065.27
579.37	44009.09
579.53	44009.09
579.69	43812.49
579.85	43901.43
580.01	44516.99
580.17	44069.95
580.33	44626.99
580.49	44219.74
580.65	44718.28
580.82	44369.54
580.98	43859.30
581.14	44004.41
581.30	44245.49
581.46	44247.83
581.62	44191.65
581.78	43838.23
581.94	44060.58
582.10	44240.81
582.26	44519.33
582.42	44477.20
582.58	44334.43
582.74	43924.83
582.90	44095.69
583.06	44769.77
583.22	44271.23
583.38	44285.28
583.54	44140.16
583.70	44158.89
583.86	44343.79
584.02	44254.85
584.18	44240.81
584.34	44278.25
584.50	44095.69
584.66	44231.44
584.82	43955.26
584.98	44538.05
585.14	44285.28
585.30	44074.63
585.46	44184.63
585.62	44233.78
585.78	44336.77
585.94	43723.55
586.10	43852.28
586.26	43697.80
586.42	44453.79
586.58	44112.08
586.74	44343.79
586.90	44098.03
587.06	44486.56
587.22	43995.05
587.38	43838.23
587.54	44636.36
587.70	44638.70
587.86	44442.09
588.02	44502.95
588.18	44343.79
588.34	44062.93
588.49	44114.42
588.65	44163.57
588.81	44109.74
588.97	44280.60
589.13	44587.21
589.29	44411.67
589.45	44203.36
589.61	44196.34
589.77	44842.32
589.93	44636.36
590.08	44460.82
590.24	44961.69
590.40	44505.29
