SpectraSuite Data File
++++++++++++++++++++++++++++++++++++
Date: Fri Oct 25 11:26:29 EDT 2013
User: price-jones
Dark Spectrum Present: No
Reference Spectrum Present: No
Number of Sampled Component Spectra: 1
Spectrometers: USB2+H05261
Integration Time (usec): 100000 (USB2+H05261)
Spectra Averaged: 1 (USB2+H05261)
Boxcar Smoothing: 0 (USB2+H05261)
Correct for Electrical Dark: No (USB2+H05261)
Strobe/Lamp Enabled: No (USB2+H05261)
Correct for Detector Non-linearity: No (USB2+H05261)
Correct for Stray Light: No (USB2+H05261)
Number of Pixels in Processed Spectrum: 2048
>>>>>Begin Processed Spectral Data<<<<<
365.73	201.29
365.92	201.29
366.12	201.29
366.32	168.52
366.52	142.77
366.72	145.11
366.91	154.48
367.11	65.54
367.31	131.07
367.51	173.20
367.70	112.35
367.90	126.39
368.10	180.22
368.30	138.09
368.49	220.01
368.69	67.88
368.89	170.86
369.09	114.69
369.28	154.48
369.48	138.09
369.68	138.09
369.87	131.07
370.07	217.67
370.27	278.52
370.47	372.15
370.66	627.26
370.86	622.58
371.06	627.26
371.25	653.01
371.45	699.82
371.65	683.44
371.84	732.59
372.04	697.48
372.24	753.65
372.44	748.97
372.63	653.01
372.83	727.91
373.03	791.10
373.22	854.30
373.42	739.61
373.62	758.33
373.81	802.80
374.01	826.21
374.21	889.40
374.40	751.31
374.60	854.30
374.79	854.30
374.99	788.76
375.19	889.40
375.38	837.91
375.58	826.21
375.78	856.64
375.97	777.06
376.17	994.73
376.37	809.83
376.56	889.40
376.76	816.85
376.95	856.64
377.15	926.85
377.35	933.87
377.54	875.36
377.74	870.68
377.93	826.21
378.13	940.90
378.33	978.34
378.52	924.51
378.72	959.62
378.91	940.90
379.11	915.15
379.31	1036.86
379.50	973.66
379.70	943.24
379.89	936.21
380.09	959.62
380.28	903.45
380.48	964.30
380.68	908.13
380.87	947.92
381.07	1008.77
381.26	1074.31
381.46	1022.81
381.65	1008.77
381.85	1008.77
382.04	1081.33
382.24	1067.28
382.43	1015.79
382.63	1160.91
382.83	1048.56
383.02	1132.82
383.22	1142.18
383.41	1043.88
383.61	1022.81
383.80	1181.97
384.00	1088.35
384.19	1100.05
384.39	1086.01
384.58	1062.60
384.78	1060.26
384.97	1170.27
385.17	1200.69
385.36	1137.50
385.56	1137.50
385.75	1132.82
385.95	1167.93
386.14	1275.59
386.34	1212.40
386.53	1268.57
386.72	1238.14
386.92	1247.51
387.11	1289.64
387.31	1301.34
387.50	1273.25
387.70	1310.70
387.89	1273.25
388.09	1231.12
388.28	1254.53
388.48	1275.59
388.67	1263.89
388.86	1310.70
389.06	1376.24
389.25	1387.94
389.45	1348.15
389.64	1397.30
389.84	1355.17
390.03	1420.71
390.22	1369.21
390.42	1376.24
390.61	1451.13
390.81	1427.73
391.00	1411.34
391.19	1404.32
391.39	1404.32
391.58	1397.30
391.78	1423.05
391.97	1472.20
392.16	1479.22
392.36	1488.58
392.55	1504.96
392.75	1486.24
392.94	1593.90
393.13	1535.39
393.33	1535.39
393.52	1612.63
393.71	1579.86
393.91	1523.69
394.10	1533.05
394.29	1603.27
394.49	1680.50
394.68	1621.99
394.88	1685.19
395.07	1652.42
395.26	1682.85
395.46	1724.97
395.65	1706.25
395.84	1771.79
396.04	1685.19
396.23	1774.13
396.42	1764.76
396.62	1762.42
396.81	1820.94
397.00	1795.19
397.19	1753.06
397.39	1806.89
397.58	1799.87
397.77	1818.60
397.97	1909.88
398.16	1834.98
398.35	1923.92
398.55	1790.51
398.74	1846.68
398.93	1930.94
399.12	1942.64
399.32	1884.13
399.51	1839.66
399.70	1956.69
399.90	1973.07
400.09	2069.03
400.28	2050.31
400.47	2003.50
400.67	2073.71
400.86	2113.50
401.05	2071.37
401.24	2015.20
401.44	2169.68
401.63	2115.84
401.82	2153.29
402.01	2160.31
402.21	2195.42
402.40	2165.00
402.59	2136.91
402.78	2181.38
402.97	2167.34
403.17	2216.49
403.36	2258.62
403.55	2267.98
403.74	2394.37
403.93	2345.22
404.13	2392.03
404.32	2389.69
404.51	2408.41
404.70	2333.51
404.89	2328.83
405.09	2436.50
405.28	2434.16
405.47	2420.11
405.66	2356.92
405.85	2518.42
406.05	2583.95
406.24	2602.68
406.43	2553.52
406.62	2621.40
406.81	2635.44
407.00	2586.29
407.20	2607.36
407.39	2537.14
407.58	2708.00
407.77	2663.53
407.96	2717.36
408.15	2766.51
408.34	2675.23
408.54	2792.26
408.73	2731.41
408.92	2808.64
409.11	2757.15
409.30	2743.11
409.49	2937.37
409.68	2928.01
409.87	2836.73
410.07	2979.50
410.26	2935.03
410.45	2993.55
410.64	3002.91
410.83	3042.70
411.02	3059.08
411.21	3126.96
411.40	3098.87
411.59	3274.41
411.78	3110.57
411.98	3178.45
412.17	3281.43
412.36	3372.71
412.55	3349.31
412.74	3473.36
412.93	3393.78
413.12	3349.31
413.31	3473.36
413.50	3442.93
413.69	3489.74
413.88	3641.87
414.07	3557.61
414.26	3510.80
414.45	3620.81
414.64	3742.52
414.83	3733.15
415.02	3817.41
415.22	3864.22
415.41	3744.86
415.60	3922.74
415.79	3908.69
415.98	3997.64
416.17	3969.55
416.36	3983.59
416.55	4030.40
416.74	3969.55
416.93	4072.53
417.12	4159.13
417.31	4201.26
417.50	4074.87
417.69	4231.69
417.88	4306.59
418.07	4224.67
418.26	4297.22
418.45	4320.63
418.64	4390.84
418.83	4449.36
419.02	4355.74
419.21	4465.74
419.39	4491.49
419.58	4397.87
419.77	4355.74
419.96	4402.55
420.15	4470.42
420.34	4587.45
420.53	4622.56
420.72	4638.94
420.91	4795.76
421.10	4692.77
421.29	4854.27
421.48	4613.20
421.67	4683.41
421.86	4716.18
422.05	4823.84
422.24	4718.52
422.43	4896.40
422.61	4950.23
422.80	4861.29
422.99	4858.95
423.18	4821.50
423.37	4929.17
423.56	4835.55
423.75	4924.49
423.94	4807.46
424.13	4641.28
424.32	4723.20
424.50	4954.91
424.69	5020.45
424.88	5067.26
425.07	4802.78
425.26	4793.42
425.45	4873.00
425.64	4922.15
425.83	4847.25
426.01	4980.66
426.20	4919.81
426.39	5046.20
426.58	4854.27
426.77	5081.30
426.96	5036.83
427.15	5067.26
427.33	5156.20
427.52	5212.37
427.71	5446.43
427.90	5149.18
428.09	5203.01
428.28	5352.81
428.46	5366.85
428.65	5383.23
428.84	5481.53
429.03	5305.99
429.22	5254.50
429.40	5439.40
429.59	5495.58
429.78	5352.81
429.97	5132.79
430.16	5521.32
430.34	5577.50
430.53	5806.87
430.72	5664.10
430.91	5652.39
431.10	5696.86
431.28	5741.33
431.47	5720.27
431.66	5757.72
431.85	5717.93
432.03	5830.27
432.22	6033.90
432.41	5717.93
432.60	5879.43
432.79	5919.21
432.97	6038.58
433.16	6017.52
433.35	6047.94
433.54	6143.91
433.72	6069.01
433.91	6043.26
434.10	6113.48
434.28	6008.16
434.47	6162.63
434.66	6202.42
434.85	6382.64
435.03	6480.94
435.22	6345.19
435.41	6396.68
435.59	6279.66
435.78	6347.53
435.97	6375.62
436.16	6408.39
436.34	6403.71
436.53	6525.41
436.72	6478.60
436.90	6502.01
437.09	6686.91
437.28	6476.26
437.46	6677.55
437.65	6359.24
437.84	6764.15
438.02	6614.35
438.21	6705.63
438.40	6700.95
438.58	7000.54
438.77	7033.31
438.96	7014.59
439.14	6986.50
439.33	6984.16
439.52	7059.06
439.70	7089.48
439.89	7332.90
440.08	7199.49
440.26	7290.77
440.45	7293.11
440.63	7375.03
440.82	7555.25
441.01	7283.75
441.19	7541.21
441.38	7531.84
441.57	7644.19
441.75	7604.40
441.94	7789.30
442.12	7791.64
442.31	7868.88
442.50	7964.84
442.68	8051.44
442.87	8126.34
443.05	8163.79
443.24	8311.24
443.43	8163.79
443.61	8093.57
443.80	8489.12
443.98	7939.10
444.17	7887.61
444.35	8147.40
444.54	8046.76
444.73	8138.04
444.91	8259.75
445.10	8383.80
445.28	8250.39
445.47	8276.13
445.65	8346.35
445.84	8404.86
446.02	8416.57
446.21	8236.35
446.39	8149.75
446.58	8442.31
446.77	8477.42
446.95	8175.49
447.14	8416.57
447.32	8482.10
447.51	8484.44
447.69	8360.39
447.88	8500.83
448.06	8393.16
448.25	8549.98
448.43	8620.19
448.62	8667.00
448.80	8489.12
448.99	8549.98
449.17	8648.28
449.36	8683.39
449.54	8662.32
449.73	8877.65
449.91	8903.40
450.10	8931.48
450.28	8947.87
450.46	8894.04
450.65	8980.64
450.83	9142.13
451.02	9064.89
451.20	9083.62
451.39	9212.35
451.57	9015.74
451.76	9032.13
451.94	8994.68
452.13	9383.21
452.31	9121.07
452.49	8922.12
452.68	9373.85
452.86	9114.05
453.05	9366.82
453.23	9312.99
453.42	9296.61
453.60	9364.48
453.78	9537.68
453.97	9380.87
454.15	9401.93
454.34	9366.82
454.52	9582.15
454.70	9654.71
454.89	9458.10
455.07	9652.37
455.26	9614.92
455.44	9813.87
455.62	9891.10
455.81	9731.95
455.99	10190.69
456.17	10066.64
456.36	9781.10
456.54	10183.67
456.73	10232.82
456.91	10377.94
457.09	10281.97
457.28	10511.35
457.46	10267.93
457.64	10415.38
457.83	10462.19
458.01	10319.42
458.19	10785.19
458.38	10476.24
458.56	10672.84
458.74	10635.39
458.93	10714.97
459.11	10597.95
459.29	10668.16
459.48	10815.62
459.66	10703.27
459.84	10888.17
460.03	10832.00
460.21	11056.69
460.39	10918.60
460.57	10853.06
460.76	11087.12
460.94	11119.89
461.12	11131.59
461.31	11019.24
461.49	11159.67
461.67	10953.71
461.85	11246.27
462.04	11297.77
462.22	11400.75
462.40	11412.45
462.59	11293.08
462.77	11260.32
462.95	11529.48
463.13	11562.25
463.32	11508.41
463.50	11749.49
463.68	11810.34
463.86	11761.19
464.05	11562.25
464.23	11566.93
464.41	11688.64
464.59	11646.51
464.78	12093.55
464.96	11936.73
465.14	11723.74
465.32	11798.64
465.50	12119.29
465.69	12093.55
465.87	11920.35
466.05	11857.15
466.23	12095.89
466.41	12093.55
466.60	12329.94
466.78	11995.25
466.96	12222.28
467.14	12308.88
467.32	12276.11
467.51	12470.37
467.69	12198.87
467.87	12322.92
468.05	12446.97
468.23	12432.93
468.41	12531.23
468.60	12540.59
468.78	12585.06
468.96	12348.67
469.14	12891.67
469.32	13064.87
469.50	12622.51
469.69	12945.50
469.87	13172.54
470.05	13064.87
470.23	13053.17
470.41	13132.75
470.59	13071.89
470.77	13104.66
470.95	13287.22
471.14	13352.76
471.32	13184.24
471.50	13633.62
471.68	13460.42
471.86	13413.61
472.04	13547.02
472.22	13958.96
472.40	13444.04
472.58	14008.11
472.77	13965.98
472.95	13970.66
473.13	14490.26
473.31	14005.77
473.49	13975.34
473.67	14216.41
473.85	14185.99
474.03	14525.36
474.21	14534.73
474.39	14881.13
474.57	14523.02
474.75	14541.75
474.93	14864.74
475.12	14909.21
475.30	15070.71
475.48	14941.98
475.66	15133.90
475.84	14789.85
476.02	15166.67
476.20	15307.10
476.38	15480.30
476.56	15634.78
476.74	15885.22
476.92	15616.05
477.10	15529.45
477.28	16126.29
477.46	15964.79
477.64	16365.03
477.82	16355.66
478.00	16638.87
478.18	16709.08
478.36	16727.81
478.54	17125.70
478.72	16964.20
478.90	17331.67
479.08	17228.68
479.26	17694.45
479.44	17575.08
479.62	17799.77
479.80	17867.65
479.98	18031.49
480.16	18347.46
480.34	18101.70
480.52	18553.43
480.70	18597.90
480.88	18242.14
481.06	18457.46
481.24	18768.76
481.41	18773.44
481.59	19211.12
481.77	19358.57
481.95	19454.53
482.13	19620.71
482.31	19470.92
482.49	20133.29
482.67	20081.80
482.85	20184.78
483.03	20379.04
483.21	20706.72
483.39	20744.17
483.57	20627.14
483.74	20931.41
483.92	21516.54
484.10	20945.45
484.28	21532.93
484.46	22008.06
484.64	22314.67
484.82	21813.79
485.00	22008.06
485.18	22445.74
485.35	22813.20
485.53	22773.41
485.71	23026.19
485.89	23318.76
486.07	23026.19
486.25	23405.36
486.43	23403.02
486.61	23665.16
486.78	23892.19
486.96	24051.34
487.14	24290.08
487.32	24105.18
487.50	24673.93
487.68	24795.64
487.85	25331.62
488.03	25167.78
488.21	25289.49
488.39	25350.34
488.57	25715.47
488.75	25848.88
488.92	26202.30
489.10	26366.13
489.28	26410.60
489.46	26794.45
489.64	26785.09
489.81	27421.72
489.99	27208.73
490.17	27718.96
490.35	27704.92
490.53	28058.34
490.70	28287.71
490.88	28362.61
491.06	28364.95
491.24	28704.33
491.41	29048.39
491.59	29170.10
491.77	28627.09
491.95	29479.05
492.13	29544.58
492.30	29715.44
492.48	29771.61
492.66	30052.48
492.84	30113.33
493.01	30314.62
493.19	30066.52
493.37	30555.69
493.54	31072.95
493.72	31480.21
493.90	30866.98
494.08	31349.14
494.25	31194.66
494.43	31690.85
494.61	32463.23
494.79	32252.58
494.96	32037.25
495.14	32620.05
495.32	32767.50
495.49	33106.88
495.67	33301.14
495.85	33310.50
496.02	33483.70
496.20	33848.83
496.38	33734.14
496.55	33947.13
496.73	34457.37
496.91	34167.14
497.09	34499.50
497.26	34852.92
497.44	35000.37
497.62	35360.81
497.79	35667.42
497.97	35344.43
498.14	35468.48
498.32	36013.82
498.50	36004.46
498.67	36339.16
498.85	36100.42
499.03	36481.93
499.20	36224.47
499.38	36903.23
499.56	36627.04
499.73	37123.24
499.91	37193.45
500.08	37331.54
500.26	37205.16
500.44	37294.10
500.61	37731.78
500.79	37460.27
500.97	37830.08
501.14	37947.11
501.32	38284.14
501.49	38391.81
501.67	38492.45
501.84	38831.83
502.02	38361.38
502.20	38749.91
502.37	39164.18
502.55	39271.85
502.72	38955.88
502.90	39086.95
503.07	39391.22
503.25	39454.41
503.43	39344.41
503.60	39730.59
503.78	40011.46
503.95	39510.58
504.13	40217.43
504.30	40650.42
504.48	40341.47
504.65	40371.90
504.83	40617.66
505.01	41053.00
505.18	40793.20
505.36	41106.83
505.53	41223.86
505.71	41106.83
505.88	41008.53
506.06	41661.54
506.23	41261.30
506.41	41469.61
506.58	41963.46
506.76	41600.68
506.93	41851.12
507.11	41970.49
507.28	42153.05
507.46	42330.93
507.63	43107.99
507.81	42916.06
507.98	42618.81
508.16	42972.24
508.33	43126.71
508.50	43253.10
508.68	43227.35
508.85	43482.47
509.03	43601.84
509.20	43784.40
509.38	43721.21
509.55	43899.09
509.73	44430.39
509.90	44233.78
510.08	44280.60
510.25	44322.72
510.42	44488.90
510.60	44481.88
510.77	44737.00
510.95	44589.55
511.12	44584.86
511.30	45207.45
511.47	45322.13
511.64	45291.71
511.82	45457.88
511.99	45132.55
512.17	45752.79
512.34	45713.00
512.51	45925.99
512.69	45837.05
512.86	46366.01
513.04	46583.68
513.21	46148.34
513.38	46251.33
513.56	46473.68
513.73	46314.52
513.90	46866.89
514.08	46288.77
514.25	46827.10
514.43	47295.21
514.60	47695.44
514.77	47152.43
514.95	47510.53
515.12	47330.31
515.29	47295.21
515.47	47552.66
515.64	48044.18
515.81	47784.38
515.99	47643.94
516.16	48184.61
516.33	48072.26
516.51	48147.16
516.68	47976.30
516.85	48083.97
517.03	48224.40
517.20	48636.33
517.37	48598.88
517.54	48793.15
517.72	48877.41
517.89	48732.29
518.06	48992.09
518.24	49020.18
518.41	48863.36
518.58	48919.54
518.75	48846.98
518.93	49769.15
519.10	48999.12
519.27	49602.97
519.45	49563.18
519.62	49769.15
519.79	50019.59
519.96	49591.27
520.14	49886.18
520.31	49851.07
520.48	49935.33
520.65	49989.16
520.83	50258.32
521.00	50635.15
521.17	50335.56
521.34	50492.38
521.52	50560.25
521.69	50279.39
521.86	50873.88
522.03	50768.56
522.20	50974.53
522.38	51253.05
522.55	51166.45
522.72	51203.90
522.89	50539.19
523.07	51473.06
523.24	51117.30
523.41	51758.61
523.58	51180.49
523.75	51409.87
523.92	51639.24
524.10	51941.17
524.27	51838.18
524.44	51948.19
524.61	51828.82
524.78	52273.52
524.96	52023.09
525.13	52121.39
525.30	52020.75
525.47	52357.78
525.64	52025.43
525.81	52266.50
525.98	52591.84
526.16	52388.21
526.33	52313.31
526.50	52933.56
526.67	52584.82
526.84	52582.48
527.01	52594.18
527.18	52753.33
527.36	52790.78
527.53	52978.03
527.70	53219.10
527.87	53179.31
528.04	53123.14
528.21	53155.91
528.38	52814.19
528.55	53176.97
528.72	53095.05
528.89	53303.36
529.07	53073.99
529.24	53141.86
529.41	53670.82
529.58	53528.05
529.75	53628.69
529.92	53647.42
530.09	53471.88
530.26	53834.66
530.43	53778.49
530.60	53425.07
530.77	53535.07
530.94	53949.35
531.11	53822.96
531.28	53958.71
531.46	53869.77
531.63	54209.15
531.80	54169.36
531.97	54253.62
532.14	54260.64
532.31	54234.89
532.48	54522.78
532.65	54485.33
532.82	54223.19
532.99	54478.31
533.16	54412.77
533.33	54464.27
533.50	54930.03
533.67	54667.89
533.84	54344.90
534.01	54550.87
534.18	54836.41
534.35	55234.30
534.52	54787.26
534.69	54871.52
534.86	54990.89
535.03	54866.84
535.20	54908.97
535.37	55243.66
535.54	55332.60
535.71	55037.70
535.88	55084.51
536.05	55238.98
536.22	55470.70
536.38	55297.50
536.55	55180.47
536.72	54953.44
536.89	55288.13
537.06	55433.25
537.23	55664.96
537.40	55709.43
537.57	55569.00
537.74	55674.32
537.91	55973.91
538.08	55739.86
538.25	55669.64
538.42	55732.84
538.59	56013.70
538.75	55632.19
538.92	55966.89
539.09	56161.15
539.26	55870.93
539.43	55861.57
539.60	56172.86
539.77	55980.93
539.94	56114.34
540.11	55945.83
540.28	56069.87
540.44	56217.33
540.61	55985.61
540.78	56357.76
540.95	56229.03
541.12	56229.03
541.29	56275.84
541.46	56282.86
541.62	56332.01
541.79	56210.31
541.96	56254.78
542.13	56238.39
542.30	56486.49
542.47	56692.46
542.63	56676.07
542.80	56825.87
542.97	56973.32
543.14	57085.67
543.31	56980.34
543.48	56987.36
543.64	57085.67
543.81	56935.87
543.98	57200.35
544.15	57315.04
544.32	57190.99
544.48	57570.16
544.65	57240.14
544.82	57275.25
544.99	57148.86
545.16	57008.43
545.32	57268.23
545.49	57436.75
545.66	57628.67
545.83	57439.09
546.00	57427.38
546.16	57347.81
546.33	57446.11
546.50	57160.56
546.67	57647.39
546.83	57118.43
547.00	57542.07
547.17	57752.72
547.34	57600.58
547.50	57804.21
547.67	58071.03
547.84	57741.02
548.00	57858.04
548.17	58099.12
548.34	58056.99
548.51	58007.84
548.67	58014.86
548.84	57794.85
549.01	57876.77
549.18	57881.45
549.34	58166.99
549.51	57963.37
549.68	58092.10
549.84	58330.83
550.01	58209.12
550.18	58056.99
550.34	58267.64
550.51	58450.20
550.68	58274.66
550.84	58087.42
551.01	58588.29
551.18	58398.71
551.34	58141.25
551.51	58291.04
551.68	58482.97
551.84	58379.98
552.01	58379.98
552.18	58408.07
552.34	58122.52
552.51	58417.43
552.68	58363.60
552.84	58508.71
553.01	58782.55
553.18	58581.27
553.34	58796.60
553.51	58731.06
553.67	58700.64
553.84	58738.08
554.01	58899.58
554.17	58894.90
554.34	58934.69
554.51	58941.71
554.67	58946.39
554.84	58735.74
555.00	58827.02
555.17	58937.03
555.33	58766.17
555.50	58644.46
555.67	58801.28
555.83	58876.18
556.00	59065.76
556.16	59299.81
556.33	59093.85
556.50	58932.35
556.66	59210.87
556.83	59049.38
556.99	59290.45
557.16	59203.85
557.32	59201.51
557.49	59435.56
557.65	59042.35
557.82	59353.65
557.98	59103.21
558.15	59433.22
558.32	59398.12
558.48	59058.74
558.65	59227.26
558.81	59444.93
558.98	59234.28
559.14	59348.96
559.31	59440.24
559.47	59561.95
559.64	59599.40
559.80	59461.31
559.97	59606.42
560.13	59456.63
560.30	59421.52
560.46	59632.17
560.63	59791.33
560.79	59599.40
560.96	59735.15
561.12	59744.51
561.29	59568.97
561.45	59725.79
561.61	59585.36
561.78	59667.28
561.94	59653.23
562.11	59770.26
562.27	59568.97
562.44	59856.86
562.60	59742.17
562.77	59842.82
562.93	59669.62
563.10	59817.07
563.26	59767.92
563.42	59983.25
563.59	59891.97
563.75	59803.03
563.92	59985.59
564.08	59807.71
564.24	59901.33
564.41	60163.47
564.57	59838.14
564.74	60058.15
564.90	59889.63
565.07	60030.06
565.23	60037.08
565.39	59896.65
565.56	60060.49
565.72	59859.20
565.88	59950.48
566.05	59781.96
566.21	60025.38
566.38	60165.81
566.54	60083.89
566.70	60299.22
566.87	60158.79
567.03	59845.16
567.19	60238.37
567.36	60060.49
567.52	60100.28
567.68	60203.26
567.85	60299.22
568.01	60526.25
568.17	60114.32
568.34	60191.56
568.50	60011.34
568.66	60179.85
568.83	60186.88
568.99	60069.85
569.15	60168.15
569.32	60252.41
569.48	60039.42
569.64	60451.36
569.81	60285.18
569.97	60168.15
570.13	60381.14
570.30	60072.19
570.46	60214.96
570.62	60364.76
570.78	60331.99
570.95	60221.98
571.11	60317.95
571.27	60498.17
571.43	60441.99
571.60	60306.24
571.76	60537.96
571.92	60250.07
572.09	60200.92
572.25	60280.50
572.41	60409.23
572.57	60175.17
572.74	60449.02
572.90	60292.20
573.06	60654.98
573.22	60451.36
573.38	60467.74
573.55	60509.87
573.71	60612.85
573.87	60542.64
574.03	60540.30
574.20	60587.11
574.36	60727.54
574.52	60446.68
574.68	60673.71
574.84	60767.33
575.01	60699.45
575.17	60687.75
575.33	60484.12
575.49	60313.26
575.65	60687.75
575.82	60708.82
575.98	60552.00
576.14	60755.63
576.30	60664.35
576.46	60521.57
576.62	60591.79
576.79	60596.47
576.95	60310.92
577.11	60537.96
577.27	60638.60
577.43	60720.52
577.59	60720.52
577.75	60800.10
577.92	60608.17
578.08	60671.37
578.24	60514.55
578.40	60835.20
578.56	60708.82
578.72	60460.72
578.88	60638.60
579.04	61104.37
579.21	60722.86
579.37	60764.99
579.53	60772.01
579.69	60638.60
579.85	60580.09
580.01	60589.45
580.17	60720.52
580.33	60879.67
580.49	60821.16
580.65	60849.25
580.82	60800.10
580.98	60542.64
581.14	60720.52
581.30	60851.59
581.46	60722.86
581.62	60837.54
581.78	60678.39
581.94	60891.38
582.10	60699.45
582.26	60804.78
582.42	60736.90
582.58	60729.88
582.74	60683.07
582.90	61050.53
583.06	60776.69
583.22	60509.87
583.38	60802.44
583.54	60762.65
583.70	60797.76
583.86	60907.76
584.02	60720.52
584.18	60921.80
584.34	60800.10
584.50	60807.12
584.66	60718.18
584.82	60837.54
584.98	60900.74
585.14	60870.31
585.30	60837.54
585.46	61043.51
585.62	60938.19
585.78	61043.51
585.94	60526.25
586.10	60832.86
586.26	60917.12
586.42	60949.89
586.58	60940.53
586.74	61027.13
586.90	60818.82
587.06	60762.65
587.22	60961.59
587.38	60786.05
587.54	61071.60
587.70	60931.17
587.86	60935.85
588.02	60835.20
588.18	61153.52
588.34	60931.17
588.49	60924.14
