SpectraSuite Data File
++++++++++++++++++++++++++++++++++++
Date: Fri Oct 25 11:23:06 EDT 2013
User: price-jones
Dark Spectrum Present: No
Reference Spectrum Present: No
Number of Sampled Component Spectra: 1
Spectrometers: USB2+H05261
Integration Time (usec): 100000 (USB2+H05261)
Spectra Averaged: 1 (USB2+H05261)
Boxcar Smoothing: 0 (USB2+H05261)
Correct for Electrical Dark: No (USB2+H05261)
Strobe/Lamp Enabled: No (USB2+H05261)
Correct for Detector Non-linearity: No (USB2+H05261)
Correct for Stray Light: No (USB2+H05261)
Number of Pixels in Processed Spectrum: 2048
>>>>>Begin Processed Spectral Data<<<<<
365.73	255.12
365.92	255.12
366.12	255.12
366.32	98.30
366.52	107.66
366.72	124.05
366.91	149.79
367.11	102.98
367.31	100.64
367.51	180.22
367.70	135.75
367.90	140.43
368.10	105.32
368.30	147.45
368.49	72.56
368.69	173.20
368.89	128.73
369.09	159.16
369.28	161.50
369.48	140.43
369.68	177.88
369.87	163.84
370.07	198.95
370.27	175.54
370.47	315.97
370.66	610.88
370.86	648.33
371.06	620.24
371.25	631.94
371.45	594.50
371.65	674.07
371.84	683.44
372.04	667.05
372.24	737.27
372.44	709.18
372.63	730.25
372.83	732.59
373.03	781.74
373.22	702.16
373.42	727.91
373.62	777.06
373.81	774.72
374.01	763.01
374.21	800.46
374.40	856.64
374.60	823.87
374.79	830.89
374.99	851.96
375.19	784.08
375.38	896.43
375.58	910.47
375.78	866.00
375.97	903.45
376.17	896.43
376.37	866.00
376.56	835.57
376.76	910.47
376.95	849.61
377.15	880.04
377.35	866.00
377.54	828.55
377.74	875.36
377.93	870.68
378.13	882.38
378.33	919.83
378.52	943.24
378.72	1008.77
378.91	896.43
379.11	891.74
379.31	1043.88
379.50	940.90
379.70	954.94
379.89	851.96
380.09	929.19
380.28	1097.71
380.48	1055.58
380.68	940.90
380.87	994.73
381.07	1036.86
381.26	1097.71
381.46	1039.20
381.65	1011.11
381.85	990.05
382.04	1046.22
382.24	1083.67
382.43	1011.11
382.63	924.51
382.83	1008.77
383.02	1167.93
383.22	1207.72
383.41	999.41
383.61	1123.46
383.80	1078.99
384.00	1067.28
384.19	1114.10
384.39	1130.48
384.58	1121.12
384.78	1149.20
384.97	1109.41
385.17	1078.99
385.36	1097.71
385.56	1177.29
385.75	1146.86
385.95	1184.31
386.14	1184.31
386.34	1224.10
386.53	1219.42
386.72	1174.95
386.92	1270.91
387.11	1268.57
387.31	1186.65
387.50	1277.93
387.70	1151.54
387.89	1329.42
388.09	1273.25
388.28	1268.57
388.48	1315.38
388.67	1275.59
388.86	1357.51
389.06	1245.16
389.25	1252.19
389.45	1238.14
389.64	1247.51
389.84	1252.19
390.03	1380.92
390.22	1394.96
390.42	1378.58
390.61	1556.46
390.81	1413.68
391.00	1336.45
391.19	1441.77
391.39	1416.02
391.58	1387.94
391.78	1448.79
391.97	1502.62
392.16	1479.22
392.36	1619.65
392.55	1593.90
392.75	1519.01
392.94	1519.01
393.13	1542.41
393.33	1568.16
393.52	1528.37
393.71	1493.26
393.91	1591.56
394.10	1537.73
394.29	1591.56
394.49	1526.03
394.68	1661.78
394.88	1624.33
395.07	1727.32
395.26	1659.44
395.46	1732.00
395.65	1717.95
395.84	1764.76
396.04	1739.02
396.23	1626.67
396.42	1799.87
396.62	1816.26
396.81	1790.51
397.00	1743.70
397.19	1757.74
397.39	1830.30
397.58	1820.94
397.77	1823.28
397.97	1769.44
398.16	1863.07
398.35	1898.17
398.55	1898.17
398.74	1914.56
398.93	1912.22
399.12	1914.56
399.32	1858.39
399.51	2064.35
399.70	1975.41
399.90	1933.28
400.09	2150.95
400.28	2172.02
400.47	2097.12
400.67	2153.29
400.86	1942.64
401.05	2026.90
401.24	2111.16
401.44	2073.71
401.63	2118.18
401.82	2162.66
402.01	2183.72
402.21	2099.46
402.40	2256.28
402.59	2232.87
402.78	2186.06
402.97	2218.83
403.17	2150.95
403.36	2279.68
403.55	2242.23
403.74	2401.39
403.93	2349.90
404.13	2387.35
404.32	2399.05
404.51	2408.41
404.70	2450.54
404.89	2370.96
405.09	2448.20
405.28	2565.23
405.47	2490.33
405.66	2466.92
405.85	2588.63
406.05	2579.27
406.24	2569.91
406.43	2544.16
406.62	2689.28
406.81	2810.98
407.00	2658.85
407.20	2499.69
407.39	2684.59
407.58	2761.83
407.77	2700.98
407.96	2848.43
408.15	2803.96
408.34	2775.88
408.54	2850.77
408.73	2796.94
408.92	2899.92
409.11	2885.88
409.30	2935.03
409.49	2953.76
409.68	2839.07
409.87	3014.61
410.07	3089.51
410.26	2972.48
410.45	3075.46
410.64	3047.38
410.83	3047.38
411.02	3110.57
411.21	3108.23
411.40	3136.32
411.59	3353.99
411.78	3248.66
411.98	3190.15
412.17	3187.81
412.36	3253.34
412.55	3206.53
412.74	3421.86
412.93	3503.78
413.12	3426.54
413.31	3522.51
413.50	3571.66
413.69	3405.48
413.88	3733.15
414.07	3634.85
414.26	3637.19
414.45	3651.24
414.64	3625.49
414.83	3627.83
415.02	3768.26
415.22	3789.33
415.41	3875.93
415.60	3908.69
415.79	3969.55
415.98	4009.34
416.17	3904.01
416.36	3995.29
416.55	4084.23
416.74	4135.73
416.93	4042.11
417.12	4072.53
417.31	4229.35
417.50	4297.22
417.69	4414.25
417.88	4227.01
418.07	4294.88
418.26	4269.14
418.45	4432.97
418.64	4334.67
418.83	4606.17
419.02	4528.94
419.21	4561.70
419.39	4526.60
419.58	4519.57
419.77	4479.79
419.96	4547.66
420.15	4547.66
420.34	4709.16
420.53	4793.42
420.72	4608.51
420.91	4655.33
421.10	4667.03
421.29	4683.41
421.48	4713.84
421.67	4915.12
421.86	4779.37
422.05	4802.78
422.24	4882.36
422.43	5025.13
422.61	4898.74
422.80	4983.00
422.99	4905.76
423.18	5004.07
423.37	5165.56
423.56	5095.35
423.75	4814.48
423.94	4908.10
424.13	4720.86
424.32	4814.48
424.50	4978.32
424.69	5123.43
424.88	5163.22
425.07	4990.02
425.26	4943.21
425.45	4891.72
425.64	4943.21
425.83	4987.68
426.01	5041.51
426.20	5093.01
426.39	5195.99
426.58	5053.22
426.77	5135.14
426.96	5249.82
427.15	5139.82
427.33	5249.82
427.52	5296.63
427.71	5313.02
427.90	5186.63
428.09	5352.81
428.28	5287.27
428.46	5254.50
428.65	5387.91
428.84	5715.59
429.03	5528.35
429.22	5298.97
429.40	5474.51
429.59	5537.71
429.78	5240.46
429.97	5296.63
430.16	5500.26
430.34	5572.82
430.53	5722.61
430.72	5771.76
430.91	5446.43
431.10	5657.07
431.28	5811.55
431.47	5877.09
431.66	5860.70
431.85	5816.23
432.03	5867.72
432.22	6069.01
432.41	5956.66
432.60	5963.68
432.79	6008.16
432.97	6080.71
433.16	6008.16
433.35	5989.43
433.54	6080.71
433.72	6099.44
433.91	6146.25
434.10	6267.95
434.28	6129.86
434.47	6321.79
434.66	6314.77
434.85	6394.34
435.03	6413.07
435.22	6223.48
435.41	6499.67
435.59	6527.75
435.78	6553.50
435.97	6619.04
436.16	6516.05
436.34	6466.90
436.53	6637.76
436.72	6897.56
436.90	6471.58
437.09	6743.08
437.28	6558.18
437.46	6565.20
437.65	6759.47
437.84	6796.92
438.02	6799.26
438.21	6808.62
438.40	6745.42
438.58	7136.29
438.77	7190.13
438.96	7007.56
439.14	7206.51
439.33	7206.51
439.52	7194.81
439.70	7403.11
439.89	7398.43
440.08	7344.60
440.26	7538.87
440.45	7478.01
440.63	7463.97
440.82	7726.11
441.01	7581.00
441.19	7534.18
441.38	7768.24
441.57	7686.32
441.75	7927.39
441.94	7887.61
442.12	7969.52
442.31	8065.49
442.50	8173.15
442.68	7903.99
442.87	8100.59
443.05	8196.56
443.24	8203.58
443.43	8088.89
443.61	8205.92
443.80	8479.76
443.98	8140.38
444.17	7833.77
444.35	8533.59
444.54	8484.44
444.73	8175.49
444.91	8325.29
445.10	8212.94
445.28	8318.26
445.47	8421.25
445.65	8365.07
445.84	8657.64
446.02	8659.98
446.21	8191.88
446.39	8402.52
446.58	8355.71
446.77	8461.04
446.95	8215.28
447.14	8456.36
447.32	8681.05
447.51	8627.21
447.69	8568.70
447.88	8585.08
448.06	8524.23
448.25	8589.77
448.43	8734.88
448.62	8774.67
448.80	8755.94
448.99	8674.03
449.17	8894.04
449.36	8819.14
449.54	8954.89
449.73	9043.83
449.91	8975.95
450.10	8933.82
450.28	9022.77
450.46	9198.31
450.65	9078.94
450.83	8997.02
451.02	9104.68
451.20	9277.88
451.39	9156.18
451.57	9085.96
451.76	9233.41
451.94	9291.93
452.13	9322.35
452.31	9383.21
452.49	9479.17
452.68	9242.78
452.86	9320.01
453.05	9708.54
453.23	9568.11
453.42	9432.36
453.60	9540.02
453.78	9731.95
453.97	9362.14
454.15	9619.60
454.34	9556.41
454.52	9820.89
454.70	9687.48
454.89	10001.11
455.07	9650.03
455.26	9900.47
455.44	10099.41
455.62	10087.71
455.81	9989.41
455.99	10090.05
456.17	10164.95
456.36	10085.37
456.54	10188.35
456.73	10403.68
456.91	10356.87
457.09	10576.88
457.28	10523.05
457.46	10354.53
457.64	10808.59
457.83	10607.31
458.01	10633.05
458.19	10956.05
458.38	10516.03
458.56	10731.36
458.74	10656.46
458.93	10661.14
459.11	10787.53
459.29	10775.83
459.48	10892.85
459.66	10850.72
459.84	11112.86
460.03	10927.96
460.21	11255.64
460.39	11033.29
460.57	10878.81
460.76	11185.42
460.94	11440.54
461.12	11346.92
461.31	11468.62
461.49	11323.51
461.67	11377.34
461.85	11459.26
462.04	11332.87
462.22	11559.91
462.40	11714.38
462.59	11229.89
462.77	11779.92
462.95	11705.02
463.13	11822.05
463.32	11669.91
463.50	11737.79
463.68	11803.32
463.86	11845.45
464.05	11644.17
464.23	12051.42
464.41	12079.50
464.59	11892.26
464.78	12091.21
464.96	12318.24
465.14	12074.82
465.32	12238.66
465.50	12196.53
465.69	12304.20
465.87	11946.09
466.05	12390.80
466.23	12308.88
466.41	12411.86
466.60	12610.81
466.78	12198.87
466.96	12313.56
467.14	12383.77
467.32	12571.02
467.51	12549.95
467.69	12102.91
467.87	12592.08
468.05	12655.28
468.23	12533.57
468.41	12564.00
468.60	12695.07
468.78	12779.32
468.96	12678.68
469.14	12851.88
469.32	13055.51
469.50	12784.01
469.69	12879.97
469.87	13193.60
470.05	13275.52
470.23	13387.86
470.41	13312.97
470.59	13146.79
470.77	13235.73
470.95	13394.89
471.14	13844.27
471.32	13345.73
471.50	13954.27
471.68	13827.88
471.86	13738.94
472.04	13795.12
472.22	13991.72
472.40	13844.27
472.58	13914.48
472.77	14094.71
472.95	14057.26
473.13	14633.03
473.31	14127.47
473.49	14223.44
473.67	14288.97
473.85	14216.41
474.03	14839.00
474.21	14644.73
474.39	14768.78
474.57	14932.62
474.75	15133.90
474.93	15400.72
475.12	15094.11
475.30	15096.46
475.48	15014.54
475.66	15215.82
475.84	15318.81
476.02	15721.38
476.20	15545.84
476.38	15693.29
476.56	16130.97
476.74	16407.16
476.92	15953.09
477.10	15946.07
477.28	16421.20
477.46	16255.02
477.64	16505.46
477.82	16676.32
478.00	17106.98
478.18	16938.46
478.36	17083.57
478.54	17238.05
478.72	17188.89
478.90	17483.80
479.08	17654.66
479.26	17465.08
479.44	17825.52
479.62	18024.47
479.80	17958.93
479.98	18120.43
480.16	18913.87
480.34	18677.48
480.52	18810.89
480.70	18871.74
480.88	18567.47
481.06	19016.85
481.24	18831.95
481.41	19555.18
481.59	19604.33
481.77	19648.80
481.95	19831.36
482.13	20046.69
482.31	20189.46
482.49	20531.18
482.67	20170.74
482.85	20739.49
483.03	20812.04
483.21	20863.54
483.39	21029.71
483.57	21198.23
483.74	21600.80
483.92	21429.94
484.10	21575.06
484.28	21884.01
484.46	22024.44
484.64	22506.59
484.82	22192.96
485.00	22595.53
485.18	23065.98
485.35	23332.80
485.53	22946.61
485.71	23274.29
485.89	23711.97
486.07	23641.75
486.25	23606.64
486.43	24166.03
486.61	24039.64
486.78	24341.57
486.96	24311.14
487.14	24877.55
487.32	24692.65
487.50	25106.93
487.68	25137.35
487.85	25902.71
488.03	25996.33
488.21	26082.93
488.39	26085.27
488.57	26206.98
488.75	26363.79
488.92	26293.58
489.10	27234.47
489.28	27136.17
489.46	27335.12
489.64	27208.73
489.81	27828.97
489.99	28081.75
490.17	27995.15
490.35	28210.48
490.53	28348.57
490.70	28643.48
490.88	28601.35
491.06	29226.27
491.24	28737.10
491.41	29326.91
491.59	29759.91
491.77	29385.43
491.95	30024.39
492.13	30366.11
492.30	29865.24
492.48	30354.41
492.66	30749.96
492.84	30656.34
493.01	31016.78
493.19	31124.44
493.37	31314.03
493.54	31732.98
493.72	31803.20
493.90	31431.05
494.08	31735.32
494.25	32299.39
494.43	32025.55
494.61	32542.81
494.79	33095.18
494.96	32985.17
495.14	32978.15
495.32	33462.64
495.49	33652.22
495.67	33603.07
495.85	33567.96
496.02	34335.66
496.20	34466.73
496.38	34328.64
496.55	34356.72
496.73	34972.28
496.91	34836.53
497.09	35168.89
497.26	35103.35
497.44	35124.42
497.62	35618.27
497.79	35693.17
497.97	35882.75
498.14	36271.28
498.32	36657.47
498.50	36304.05
498.67	37053.02
498.85	36360.22
499.03	37212.18
499.20	37111.53
499.38	37191.11
499.56	37207.50
499.73	37633.47
499.91	37235.58
500.08	37858.17
500.26	37797.31
500.44	38178.82
500.61	37949.45
500.79	38078.18
500.97	38546.28
501.14	38548.62
501.32	38698.42
501.49	38845.87
501.67	39084.61
501.84	39096.31
502.02	39098.65
502.20	39543.35
502.37	39438.03
502.55	39536.33
502.72	39915.50
502.90	40013.80
503.07	39749.32
503.25	39990.39
503.43	40147.21
503.60	40601.27
503.78	40781.49
503.95	40793.20
504.13	40725.32
504.30	40854.05
504.48	40907.88
504.65	41170.02
504.83	41228.54
505.01	41509.40
505.18	41537.49
505.36	41769.20
505.53	41429.82
505.71	42124.96
505.88	42148.37
506.06	41846.44
506.23	42085.17
506.41	41996.23
506.58	42319.23
506.76	42199.86
506.93	42485.40
507.11	42925.42
507.28	43320.98
507.46	43084.58
507.63	43002.66
507.81	43515.24
507.98	43571.41
508.16	43384.17
508.33	43622.90
508.50	43665.03
508.68	44259.53
508.85	44161.23
509.03	44671.46
509.20	44350.81
509.38	44399.96
509.55	44912.54
509.73	44968.71
509.90	45162.98
510.08	44994.46
510.25	45001.48
510.42	44814.24
510.60	45675.55
510.77	45434.48
510.95	45600.66
511.12	45167.66
511.30	45652.15
511.47	45715.34
511.64	46113.23
511.82	46178.77
511.99	45923.65
512.17	46604.75
512.34	46246.65
512.51	46862.21
512.69	46628.15
512.86	46553.26
513.04	46822.42
513.21	47107.96
513.38	47519.90
513.56	47339.68
513.73	47096.26
513.90	47110.30
514.08	47363.08
514.25	47491.81
514.43	48006.73
514.60	47849.91
514.77	47749.27
514.95	48179.93
515.12	47782.04
515.29	47988.00
515.47	48271.21
515.64	48554.41
515.81	48374.19
515.99	48385.89
516.16	48797.83
516.33	48685.48
516.51	48839.96
516.68	49162.95
516.85	48877.41
517.03	48938.26
517.20	49404.03
517.37	48971.03
517.54	49375.94
517.72	49279.98
517.89	49057.63
518.06	49551.48
518.24	49584.25
518.41	49731.70
518.58	49942.35
518.75	49780.85
518.93	49888.52
519.10	49916.61
519.27	50260.66
519.45	50253.64
519.62	50347.26
519.79	50176.40
519.96	50176.40
520.14	50674.94
520.31	50483.01
520.48	50543.87
520.65	50698.34
520.83	50831.75
521.00	50916.01
521.17	50742.81
521.34	51077.51
521.52	51014.32
521.69	51269.43
521.86	51253.05
522.03	51374.76
522.20	51863.93
522.38	51653.28
522.55	51498.81
522.72	51501.15
522.89	51910.74
523.07	52023.09
523.24	52030.11
523.41	52179.90
523.58	51770.31
523.75	52137.77
523.92	52219.69
524.10	52275.87
524.27	52252.46
524.44	52355.44
524.61	52404.59
524.78	52765.04
524.96	52584.82
525.13	52615.24
525.30	52832.91
525.47	52467.79
525.64	52533.32
525.81	52898.45
525.98	53097.39
526.16	52933.56
526.33	52685.46
526.50	53191.01
526.67	52835.25
526.84	53141.86
527.01	53265.91
527.18	53031.86
527.36	53188.67
527.53	53088.03
527.70	53532.73
527.87	53759.76
528.04	53090.37
528.21	53481.24
528.38	53567.84
528.55	53923.60
528.72	53563.16
528.89	53776.15
529.07	53600.61
529.24	53724.66
529.41	53764.45
529.58	53954.03
529.75	53762.11
529.92	54082.76
530.09	53982.12
530.26	53900.20
530.43	54475.97
530.60	54178.72
530.77	54092.12
530.94	54555.55
531.11	54204.47
531.28	54412.77
531.46	54408.09
531.63	54440.86
531.80	54578.95
531.97	54501.71
532.14	54831.73
532.31	54557.89
532.48	54770.88
532.65	54798.96
532.82	54885.56
532.99	54674.91
533.16	54780.24
533.33	55154.72
533.50	55248.35
533.67	55105.57
533.84	54883.22
534.01	55058.76
534.18	55337.29
534.35	55625.17
534.52	55246.00
534.69	55426.23
534.86	55629.85
535.03	55480.06
535.20	55494.10
535.37	55337.29
535.54	55515.17
535.71	55515.17
535.88	55503.46
536.05	55770.28
536.22	55821.78
536.38	55791.35
536.55	55814.76
536.72	55906.04
536.89	56053.49
537.06	56107.32
537.23	56011.36
537.40	55700.07
537.57	55985.61
537.74	56119.02
537.91	56037.11
538.08	56247.75
538.25	55948.17
538.42	55915.40
538.59	56334.35
538.75	56039.45
538.92	56210.31
539.09	56540.32
539.26	56430.32
539.43	56236.05
539.60	56402.23
539.77	56243.07
539.94	56711.18
540.11	56619.90
540.28	56652.67
540.44	56664.37
540.61	56870.34
540.78	56587.13
540.95	56495.85
541.12	56718.20
541.29	56704.16
541.46	56741.61
541.62	56811.82
541.79	56767.35
541.96	56706.50
542.13	56722.88
542.30	57015.45
542.47	57130.14
542.63	57006.09
542.80	57212.06
542.97	57256.53
543.14	57492.92
543.31	57551.43
543.48	57425.04
543.64	57647.39
543.81	57478.88
543.98	57612.29
544.15	57724.63
544.32	57687.18
544.48	57902.51
544.65	57635.69
544.82	57827.62
544.99	57523.35
545.16	57626.33
545.32	57598.24
545.49	57930.60
545.66	57984.43
545.83	58003.16
546.00	58017.20
546.16	57986.77
546.33	57874.43
546.50	57553.77
546.67	58054.65
546.83	57813.57
547.00	58071.03
547.17	58003.16
547.34	58064.01
547.50	58262.96
547.67	58295.72
547.84	58099.12
548.00	58429.13
548.17	58415.09
548.34	58473.60
548.51	58658.51
548.67	58602.33
548.84	58445.52
549.01	58457.22
549.18	58576.59
549.34	58576.59
549.51	58415.09
549.68	58564.88
549.84	58546.16
550.01	58464.24
550.18	58576.59
550.34	58691.27
550.51	58777.87
550.68	58707.66
550.84	58258.27
551.01	58827.02
551.18	58850.43
551.34	58944.05
551.51	58876.18
551.68	58618.72
551.84	58789.58
552.01	58791.92
552.18	58899.58
552.34	58684.25
552.51	58883.20
552.68	58789.58
552.84	58871.49
553.01	59213.21
553.18	58983.84
553.34	58979.16
553.51	58714.68
553.67	59105.55
553.84	59288.11
554.01	59178.10
554.17	59348.96
554.34	59196.83
554.51	59241.30
554.67	59435.56
554.84	59346.62
555.00	59021.29
555.17	58990.86
555.33	59194.49
555.50	59264.70
555.67	59351.30
555.83	59098.53
556.00	59260.02
556.16	59587.70
556.33	59423.86
556.50	59576.00
556.66	59468.33
556.83	59451.95
556.99	59746.86
557.16	59681.32
557.32	59873.24
557.49	59718.77
557.65	59398.12
557.82	59592.38
557.98	59557.27
558.15	59597.06
558.32	59714.09
558.48	59477.69
558.65	59627.49
558.81	59994.95
558.98	59859.20
559.14	59676.64
559.31	59983.25
559.47	59915.37
559.64	59793.67
559.80	59765.58
559.97	60109.64
560.13	59882.61
560.30	60123.68
560.46	59938.78
560.63	59997.29
560.79	59866.22
560.96	60058.15
561.12	60055.81
561.29	60086.23
561.45	60046.44
561.61	59908.35
561.78	60142.41
561.94	60111.98
562.11	60126.02
562.27	60107.30
562.44	60278.16
562.60	60278.16
562.77	60093.25
562.93	60020.70
563.10	60292.20
563.26	59994.95
563.42	60514.55
563.59	60088.57
563.75	60301.56
563.92	60046.44
564.08	60142.41
564.24	60411.57
564.41	60449.02
564.57	60191.56
564.74	60369.44
564.90	60465.40
565.07	60324.97
565.23	60210.28
565.39	60388.16
565.56	60563.70
565.72	60299.22
565.88	60418.59
566.05	60308.58
566.21	60336.67
566.38	60402.21
566.54	60434.97
566.70	60683.07
566.87	60629.24
567.03	60320.29
567.19	60886.70
567.36	60385.82
567.52	60460.72
567.68	60612.85
567.85	60484.12
568.01	60662.00
568.17	60673.71
568.34	60570.72
568.50	60767.33
568.66	60615.19
568.83	60608.17
568.99	60619.88
569.15	60533.28
569.32	60596.47
569.48	60608.17
569.64	60872.65
569.81	60608.17
569.97	60594.13
570.13	60694.77
570.30	60537.96
570.46	60608.17
570.62	60865.63
570.78	60680.73
570.95	60722.86
571.11	60774.35
571.27	60544.98
571.43	60662.00
571.60	61066.92
571.76	60762.65
571.92	60779.03
572.09	60657.32
572.25	60711.16
572.41	60903.08
572.57	60793.07
572.74	61041.17
572.90	60680.73
573.06	60722.86
573.22	60835.20
573.38	60825.84
573.55	60757.97
573.71	60893.72
573.87	60889.04
574.03	60659.66
574.20	60886.70
574.36	60900.74
574.52	60760.31
574.68	60968.61
574.84	60874.99
575.01	60973.30
575.17	60973.30
575.33	60837.54
575.49	60851.59
575.65	60809.46
575.82	60940.53
575.98	60874.99
576.14	61106.71
576.30	60966.27
576.46	60982.66
576.62	60935.85
576.79	60921.80
576.95	60844.57
577.11	61027.13
577.27	60956.91
577.43	61146.50
577.59	60823.50
577.75	60968.61
577.92	60968.61
578.08	60982.66
578.24	61041.17
578.40	61179.26
578.56	61123.09
578.72	61127.77
578.88	61113.73
579.04	61134.79
579.21	61221.39
579.37	61099.68
579.53	61197.99
579.69	60992.02
579.85	61003.72
580.01	61247.14
580.17	60919.46
580.33	61197.99
580.49	61113.73
580.65	61064.58
580.82	61062.24
580.98	61010.74
581.14	61181.60
581.30	61216.71
581.46	61059.90
581.62	61193.31
581.78	61219.05
581.94	61256.50
582.10	61247.14
582.26	61197.99
582.42	61043.51
582.58	61160.54
582.74	60982.66
582.90	60992.02
583.06	60919.46
583.22	61052.87
583.38	61244.80
583.54	61095.00
583.70	61333.74
583.86	61406.30
584.02	61151.18
584.18	61254.16
584.34	61165.22
584.50	61230.75
584.66	60963.93
584.82	60959.25
584.98	61418.00
585.14	61268.20
585.30	60977.98
585.46	61151.18
585.62	61151.18
585.78	61385.23
585.94	61169.90
586.10	61415.66
586.26	61228.41
586.42	61195.65
586.58	61364.17
586.74	61310.33
586.90	61214.37
587.06	61256.50
587.22	61469.49
587.38	61111.39
587.54	61336.08
587.70	61354.80
587.86	61268.20
588.02	61242.46
588.18	61499.92
588.34	61226.07
