SpectraSuite Data File
++++++++++++++++++++++++++++++++++++
Date: Fri Oct 25 10:43:33 EDT 2013
User: price-jones
Dark Spectrum Present: No
Reference Spectrum Present: No
Number of Sampled Component Spectra: 1
Spectrometers: USB2+H05261
Integration Time (usec): 100000 (USB2+H05261)
Spectra Averaged: 1 (USB2+H05261)
Boxcar Smoothing: 0 (USB2+H05261)
Correct for Electrical Dark: No (USB2+H05261)
Strobe/Lamp Enabled: No (USB2+H05261)
Correct for Detector Non-linearity: No (USB2+H05261)
Correct for Stray Light: No (USB2+H05261)
Number of Pixels in Processed Spectrum: 2048
>>>>>Begin Processed Spectral Data<<<<<
365.73	44.47
365.92	44.47
366.12	44.47
366.32	51.49
366.52	9.36
366.72	77.24
366.91	4.68
367.11	51.49
367.31	91.28
367.51	0.00
367.70	25.75
367.90	56.17
368.10	14.04
368.30	65.54
368.49	0.00
368.69	0.00
368.89	28.09
369.09	23.41
369.28	63.19
369.48	4.68
369.68	72.56
369.87	91.28
370.07	7.02
370.27	98.30
370.47	220.01
370.66	437.68
370.86	400.23
371.06	512.58
371.25	517.26
371.45	418.96
371.65	505.56
371.84	407.25
372.04	376.83
372.24	503.22
372.44	486.83
372.63	475.13
372.83	507.90
373.03	503.22
373.22	477.47
373.42	465.77
373.62	521.94
373.81	491.51
374.01	561.73
374.21	608.54
374.40	505.56
374.60	550.03
374.79	622.58
374.99	528.96
375.19	552.37
375.38	578.11
375.58	561.73
375.78	538.32
375.97	603.86
376.17	699.82
376.37	660.03
376.56	648.33
376.76	599.18
376.95	550.03
377.15	622.58
377.35	664.71
377.54	617.90
377.74	695.14
377.93	627.26
378.13	697.48
378.33	650.67
378.52	657.69
378.72	606.20
378.91	671.73
379.11	641.31
379.31	596.84
379.50	624.92
379.70	685.78
379.89	660.03
380.09	664.71
380.28	702.16
380.48	697.48
380.68	753.65
380.87	669.39
381.07	657.69
381.26	685.78
381.46	674.07
381.65	741.95
381.85	734.93
382.04	741.95
382.24	662.37
382.43	716.20
382.63	690.46
382.83	676.41
383.02	681.10
383.22	767.70
383.41	734.93
383.61	800.46
383.80	858.98
384.00	798.12
384.19	842.59
384.39	748.97
384.58	835.57
384.78	856.64
384.97	758.33
385.17	784.08
385.36	795.78
385.56	837.91
385.75	800.46
385.95	884.72
386.14	884.72
386.34	851.96
386.53	863.66
386.72	828.55
386.92	903.45
387.11	903.45
387.31	788.76
387.50	873.02
387.70	863.66
387.89	861.32
388.09	901.11
388.28	936.21
388.48	847.27
388.67	978.34
388.86	999.41
389.06	875.36
389.25	919.83
389.45	999.41
389.64	929.19
389.84	990.05
390.03	1071.97
390.22	1057.92
390.42	985.37
390.61	976.00
390.81	1036.86
391.00	1095.37
391.19	1116.44
391.39	1090.69
391.58	1062.60
391.78	901.11
391.97	1036.86
392.16	1088.35
392.36	992.39
392.55	1020.47
392.75	1050.90
392.94	1053.24
393.13	940.90
393.33	973.66
393.52	999.41
393.71	1095.37
393.91	1067.28
394.10	1114.10
394.29	1116.44
394.49	1238.14
394.68	1270.91
394.88	1170.27
395.07	1259.21
395.26	1256.87
395.46	1240.48
395.65	1235.80
395.84	1177.29
396.04	1291.98
396.23	1198.35
396.42	1102.39
396.62	1100.05
396.81	1219.42
397.00	1224.10
397.19	1252.19
397.39	1228.78
397.58	1376.24
397.77	1352.83
397.97	1364.53
398.16	1399.64
398.35	1523.69
398.55	1427.73
398.74	1490.92
398.93	1458.15
399.12	1563.48
399.32	1458.15
399.51	1448.79
399.70	1638.38
399.90	1521.35
400.09	1563.48
400.28	1678.16
400.47	1584.54
400.67	1619.65
400.86	1689.87
401.05	1696.89
401.24	1678.16
401.44	1687.53
401.63	1631.35
401.82	1734.34
402.01	1680.50
402.21	1774.13
402.40	1645.40
402.59	1795.19
402.78	1713.27
402.97	1760.08
403.17	1736.68
403.36	1771.79
403.55	1886.47
403.74	1912.22
403.93	1961.37
404.13	1930.94
404.32	1802.21
404.51	1893.49
404.70	1884.13
404.89	1959.03
405.09	1961.37
405.28	2005.84
405.47	2001.16
405.66	1996.48
405.85	1926.26
406.05	2047.97
406.24	2001.16
406.43	2108.82
406.62	2094.78
406.81	2167.34
407.00	2101.80
407.20	2099.46
407.39	2134.57
407.58	2174.36
407.77	2228.19
407.96	2242.23
408.15	2277.34
408.34	2275.00
408.54	2242.23
408.73	2249.25
408.92	2361.60
409.11	2359.26
409.30	2338.20
409.49	2389.69
409.68	2277.34
409.87	2230.53
410.07	2370.96
410.26	2422.45
410.45	2396.71
410.64	2396.71
410.83	2445.86
411.02	2656.51
411.21	2590.97
411.40	2555.86
411.59	2576.93
411.78	2668.21
411.98	2579.27
412.17	2614.38
412.36	2525.44
412.55	2700.98
412.74	2885.88
412.93	2649.49
413.12	2771.19
413.31	2963.12
413.50	2904.60
413.69	2963.12
413.88	2951.42
414.07	2932.69
414.26	2916.31
414.45	2899.92
414.64	3028.65
414.83	3035.67
415.02	3101.21
415.22	3155.04
415.41	3150.36
415.60	3180.79
415.79	3187.81
415.98	3311.86
416.17	3220.58
416.36	3194.83
416.55	3302.50
416.74	3307.18
416.93	3145.68
417.12	3262.71
417.31	3351.65
417.50	3342.28
417.69	3335.26
417.88	3485.06
418.07	3389.10
418.26	3391.44
418.45	3571.66
418.64	3604.42
418.83	3597.40
419.02	3646.55
419.21	3653.58
419.39	3581.02
419.58	3487.40
419.77	3599.74
419.96	3693.37
420.15	3693.37
420.34	3878.27
420.53	3712.09
420.72	3847.84
420.91	3833.80
421.10	3801.03
421.29	3847.84
421.48	3847.84
421.67	3829.12
421.86	3817.41
422.05	3824.44
422.24	3749.54
422.43	3892.31
422.61	3805.71
422.80	4107.64
422.99	3969.55
423.18	3859.54
423.37	4028.06
423.56	4018.70
423.75	3913.38
423.94	3868.91
424.13	3688.68
424.32	3873.59
424.50	3936.78
424.69	4016.36
424.88	4093.60
425.07	3929.76
425.26	3971.89
425.45	3911.04
425.64	3857.20
425.83	3985.93
426.01	4166.15
426.20	4086.58
426.39	4117.00
426.58	3939.12
426.77	3941.46
426.96	3957.85
427.15	4037.42
427.33	4252.75
427.52	4060.83
427.71	4189.56
427.90	4238.71
428.09	4255.09
428.28	4131.05
428.46	4067.85
428.65	4346.37
428.84	4210.62
429.03	4219.99
429.22	4117.00
429.40	4049.13
429.59	4014.02
429.78	3976.57
429.97	3967.21
430.16	4021.04
430.34	4124.02
430.53	4077.21
430.72	4236.37
430.91	4149.77
431.10	4229.35
431.28	4587.45
431.47	4755.97
431.66	4669.37
431.85	4486.81
432.03	4608.51
432.22	4770.01
432.41	4617.88
432.60	4870.65
432.79	4840.23
432.97	4823.84
433.16	4800.44
433.35	4748.95
433.54	4713.84
433.72	4585.11
433.91	4692.77
434.10	4688.09
434.28	4765.33
434.47	4945.55
434.66	4884.70
434.85	4784.06
435.03	5107.05
435.22	4983.00
435.41	5055.56
435.59	4945.55
435.78	5083.64
435.97	5266.21
436.16	5146.84
436.34	5123.43
436.53	5111.73
436.72	5350.46
436.90	5200.67
437.09	5130.45
437.28	5256.84
437.46	5486.22
437.65	5249.82
437.84	5352.81
438.02	5231.10
438.21	5217.05
438.40	5203.01
438.58	5352.81
438.77	5401.96
438.96	5432.38
439.14	5753.04
439.33	5816.23
439.52	5593.88
439.70	5806.87
439.89	5542.39
440.08	5743.67
440.26	5898.15
440.45	5731.97
440.63	5830.27
440.82	5856.02
441.01	6003.47
441.19	6052.63
441.38	6134.54
441.57	6113.48
441.75	6251.57
441.94	6408.39
442.12	6349.87
442.31	6260.93
442.50	6443.49
442.68	6328.81
442.87	6382.64
443.05	6375.62
443.24	6413.07
443.43	6480.94
443.61	6539.46
443.80	6682.23
443.98	6516.05
444.17	6277.32
444.35	6691.59
444.54	6700.95
444.73	6520.73
444.91	6644.78
445.10	6532.44
445.28	6555.84
445.47	6455.20
445.65	6361.58
445.84	6548.82
446.02	6700.95
446.21	6581.59
446.39	6586.27
446.58	6525.41
446.77	7016.93
446.95	6565.20
447.14	6904.58
447.32	6848.41
447.51	6672.87
447.69	6698.61
447.88	6715.00
448.06	6829.68
448.25	6808.62
448.43	6764.15
448.62	6810.96
448.80	6614.35
448.99	6899.90
449.17	6942.03
449.36	6925.65
449.54	6899.90
449.73	7260.34
449.91	7070.76
450.10	7197.15
450.28	7431.20
450.46	7283.75
450.65	7260.34
450.83	7267.36
451.02	7185.44
451.20	7241.62
451.39	7316.51
451.57	7325.88
451.76	7119.91
451.94	7143.32
452.13	7452.27
452.31	7131.61
452.49	7229.91
452.68	7309.49
452.86	7122.25
453.05	7159.70
453.23	7199.49
453.42	7393.75
453.60	7307.15
453.78	7683.98
453.97	7353.96
454.15	7365.67
454.34	7302.47
454.52	7611.42
454.70	7662.91
454.89	7517.80
455.07	7545.89
455.26	7602.06
455.44	7676.96
455.62	7618.44
455.81	7906.33
455.99	7763.56
456.17	7826.75
456.36	7969.52
456.54	7955.48
456.73	8168.47
456.91	8018.68
457.09	8074.85
457.28	8166.13
457.46	8107.62
457.64	8201.24
457.83	8105.28
458.01	7875.90
458.19	8468.06
458.38	8196.56
458.56	8241.03
458.74	8374.44
458.93	8203.58
459.11	8498.49
459.29	8489.12
459.48	8491.46
459.66	8322.94
459.84	8500.83
460.03	8496.14
460.21	8496.14
460.39	8730.20
460.57	8500.83
460.76	8748.92
460.94	8795.73
461.12	8655.30
461.31	8800.41
461.49	8622.53
461.67	8690.41
461.85	8840.20
462.04	8840.20
462.22	9516.62
462.40	9107.02
462.59	8737.22
462.77	8999.36
462.95	8971.27
463.13	8971.27
463.32	8938.51
463.50	9142.13
463.68	8959.57
463.86	9036.81
464.05	9125.75
464.23	8844.88
464.41	8896.38
464.59	8912.76
464.78	9144.47
464.96	9130.43
465.14	8997.02
465.32	9214.69
465.50	9341.08
465.69	9469.81
465.87	9207.67
466.05	9191.28
466.23	9193.62
466.41	9322.35
466.60	9317.67
466.78	9008.72
466.96	9245.12
467.14	9289.59
467.32	9605.56
467.51	9348.10
467.69	9312.99
467.87	9528.32
468.05	9694.50
468.23	9687.48
468.41	9645.35
468.60	9612.58
468.78	9645.35
468.96	9675.77
469.14	9680.46
469.32	9895.78
469.50	9518.96
469.69	10001.11
469.87	10031.54
470.05	9921.53
470.23	9820.89
470.41	9902.81
470.59	10050.26
470.77	10033.88
470.95	10043.24
471.14	10139.20
471.32	10193.03
471.50	10480.92
471.68	10188.35
471.86	10356.87
472.04	10436.45
472.22	10476.24
472.40	10359.21
472.58	10387.30
472.77	10637.73
472.95	10654.12
473.13	10885.83
473.31	10637.73
473.49	10480.92
473.67	10686.89
473.85	10668.16
474.03	10890.51
474.21	11169.04
474.39	11260.32
474.57	11136.27
474.75	11026.26
474.93	11302.45
475.12	11199.46
475.30	11316.49
475.48	11400.75
475.66	11157.33
475.84	11318.83
476.02	11456.92
476.20	11403.09
476.38	11714.38
476.56	11889.92
476.74	11557.57
476.92	11784.60
477.10	12051.42
477.28	12074.82
477.46	12187.17
477.64	12205.89
477.82	12528.89
478.00	12711.45
478.18	12566.34
478.36	12774.64
478.54	12791.03
478.72	12760.60
478.90	13046.15
479.08	13167.85
479.26	13350.42
479.44	13238.07
479.62	13202.96
479.80	13486.17
479.98	13514.25
480.16	13678.09
480.34	13647.66
480.52	13825.54
480.70	13727.24
480.88	13502.55
481.06	14036.19
481.24	13996.40
481.41	14228.12
481.59	14469.19
481.77	14485.58
481.95	14494.94
482.13	14733.67
482.31	14602.60
482.49	14977.09
482.67	14778.14
482.85	15103.48
483.03	15311.78
483.21	15281.36
483.39	15592.65
483.57	15445.20
483.74	15843.09
483.92	15499.03
484.10	15377.32
484.28	16046.71
484.46	16137.99
484.64	16283.11
484.82	16224.59
485.00	16051.39
485.18	16374.39
485.35	16566.31
485.53	16264.38
485.71	16212.89
485.89	16376.73
486.07	16313.53
486.25	16697.38
486.43	16776.96
486.61	16922.07
486.78	17493.16
486.96	17392.52
487.14	17701.47
487.32	17495.50
487.50	18232.77
487.68	18288.95
487.85	18698.54
488.03	18530.02
488.21	19014.51
488.39	18553.43
488.57	18813.23
488.75	18768.76
488.92	19087.07
489.10	19440.49
489.28	19335.17
489.46	19747.10
489.64	19784.55
489.81	20126.27
489.99	20507.77
490.17	20294.79
490.35	20243.29
490.53	20442.24
490.70	20301.81
490.88	20496.07
491.06	20926.73
491.24	21036.74
491.41	20697.36
491.59	21018.01
491.77	20994.61
491.95	21139.72
492.13	21544.63
492.30	21628.89
492.48	21759.96
492.66	21982.31
492.84	22183.60
493.01	22162.53
493.19	22078.27
493.37	22438.72
493.54	22469.14
493.72	22597.87
493.90	23168.96
494.08	22630.64
494.25	23087.04
494.43	23311.74
494.61	23644.09
494.79	23758.78
494.96	23419.40
495.14	23604.30
495.32	23810.27
495.49	23784.52
495.67	23864.10
495.85	24070.07
496.02	24292.42
496.20	24594.35
496.38	24229.23
496.55	24737.12
496.73	25146.72
496.91	25142.03
497.09	24931.39
497.26	25336.30
497.44	25287.15
497.62	25071.82
497.79	25460.35
497.97	25366.73
498.14	25738.87
498.32	25572.69
498.50	25837.17
498.67	25979.95
498.85	25963.56
499.03	26696.15
499.20	26281.88
499.38	26630.62
499.56	26387.20
499.73	26483.16
499.91	26625.93
500.08	26707.85
500.26	26562.74
500.44	26815.52
500.61	27002.76
500.79	26810.84
500.97	27037.87
501.14	27248.52
501.32	27721.30
501.49	26904.46
501.67	27505.98
501.84	27513.00
502.02	27700.24
502.20	27894.50
502.37	27686.20
502.55	27922.59
502.72	28369.63
502.90	28135.58
503.07	28032.60
503.25	28287.71
503.43	27761.09
503.60	28545.17
503.78	28458.57
503.95	28507.72
504.13	28802.63
504.30	28879.87
504.48	28924.34
504.65	29118.60
504.83	29432.24
505.01	29376.06
505.18	28987.53
505.36	29446.28
505.53	29053.07
505.71	29675.65
505.88	29895.66
506.06	29472.03
506.23	29673.31
506.41	29872.26
506.58	29699.06
506.76	29977.58
506.93	29989.28
507.11	30052.48
507.28	29998.65
507.46	30174.19
507.63	30206.95
507.81	30277.17
507.98	30118.01
508.16	30764.00
508.33	30169.51
508.50	31047.21
508.68	31157.21
508.85	31672.13
509.03	31239.13
509.20	31110.40
509.38	31243.81
509.55	31290.62
509.73	31344.45
509.90	31543.40
510.08	31440.42
510.25	31438.08
510.42	31304.67
510.60	32091.09
510.77	32070.02
510.95	32191.73
511.12	31917.89
511.30	32290.03
511.47	32280.67
511.64	32500.68
511.82	32325.14
511.99	32601.32
512.17	32353.23
512.34	32154.28
512.51	32659.84
512.69	33261.35
512.86	32629.41
513.04	33020.28
513.21	32959.42
513.38	32893.89
513.56	33303.48
513.73	33046.02
513.90	33034.32
514.08	33422.85
514.25	33333.91
514.43	33088.15
514.60	33743.50
514.77	33305.82
514.95	33785.63
515.12	33638.18
515.29	33748.18
515.47	34220.97
515.64	34036.07
515.81	34136.71
515.99	34181.18
516.16	33874.57
516.33	33692.01
516.51	33872.23
516.68	33226.24
516.85	33310.50
517.03	33762.23
517.20	33996.28
517.37	34309.91
517.54	34700.78
517.72	34302.89
517.89	34209.27
518.06	34277.15
518.24	34211.61
518.41	34352.04
518.58	34504.18
518.75	34918.45
518.93	34965.26
519.10	35171.23
519.27	35211.02
519.45	35208.68
519.62	35620.61
519.79	35562.10
519.96	35442.73
520.14	35538.69
520.31	35377.20
520.48	35601.89
520.65	35592.53
520.83	35749.34
521.00	35901.48
521.17	35892.12
521.34	36074.68
521.52	35910.84
521.69	36058.29
521.86	36334.48
522.03	36467.89
522.20	36388.31
522.38	36423.42
522.55	36865.78
522.72	36718.32
522.89	36261.92
523.07	36966.42
523.24	36926.63
523.41	37020.25
523.58	36652.79
523.75	37624.11
523.92	37296.44
524.10	37289.42
524.27	37532.83
524.44	37317.50
524.61	37539.85
524.78	37462.61
524.96	37535.17
525.13	37785.61
525.30	38162.43
525.47	37991.58
525.64	37488.36
525.81	37825.40
525.98	37427.51
526.16	37581.98
526.33	37174.73
526.50	37546.87
526.67	37450.91
526.84	37469.64
527.01	37418.14
527.18	37944.76
527.36	38061.79
527.53	38068.81
527.70	38220.95
527.87	38213.93
528.04	38663.31
528.21	38717.14
528.38	38305.21
528.55	38799.06
528.72	38799.06
528.89	38876.30
529.07	39035.45
529.24	38632.88
529.41	38955.88
529.58	38464.36
529.75	38937.15
529.92	39428.66
530.09	38780.34
530.26	39225.04
530.43	39423.98
530.60	38962.90
530.77	39374.83
530.94	39674.42
531.11	39608.89
531.28	39742.30
531.46	39466.11
531.63	39665.06
531.80	39604.20
531.97	39611.23
532.14	39660.38
532.31	39332.70
532.48	39035.45
532.65	39358.45
532.82	39615.91
532.99	40072.31
533.16	40023.16
533.33	40547.44
533.50	40474.88
533.67	40397.65
533.84	40023.16
534.01	40252.53
534.18	40023.16
534.35	40222.11
534.52	39950.60
534.69	40561.48
534.86	40521.69
535.03	40306.37
535.20	40975.76
535.37	41116.19
535.54	41179.39
535.71	40919.59
535.88	40507.65
536.05	40676.17
536.22	40762.77
536.38	40914.90
536.55	40966.40
536.72	40884.48
536.89	40570.85
537.06	40612.98
537.23	41118.53
537.40	41261.30
537.57	41397.06
537.74	41556.21
537.91	41607.70
538.08	41104.49
538.25	40898.52
538.42	41027.25
538.59	41888.57
538.75	41371.31
538.92	41544.51
539.09	41205.13
539.26	41486.00
539.43	41551.53
539.60	41347.90
539.77	41530.47
539.94	41713.03
540.11	41394.71
540.28	41769.20
540.44	41689.62
540.61	41523.44
540.78	41404.08
540.95	41464.93
541.12	41787.92
541.29	42117.94
541.46	41996.23
541.62	41937.72
541.79	42485.40
541.96	41551.53
542.13	42059.43
542.30	42380.08
542.47	41794.95
542.63	41734.09
542.80	42595.41
542.97	42260.71
543.14	42120.28
543.31	42321.57
543.48	42988.62
543.64	43239.06
543.81	43353.74
543.98	42572.00
544.15	42564.98
544.32	43021.39
544.48	43180.54
544.65	42862.23
544.82	42941.81
544.99	42459.66
545.16	43000.32
545.32	42932.45
545.49	43480.13
545.66	43459.07
545.83	43222.67
546.00	43753.97
546.16	43316.29
546.33	43295.23
546.50	42801.38
546.67	43433.32
546.83	43068.20
547.00	43278.85
547.17	43028.41
547.34	43225.01
547.50	43562.05
547.67	43648.65
547.84	43592.48
548.00	43526.94
548.17	43854.62
548.34	43676.74
548.51	43756.32
548.67	44083.99
548.84	43973.98
549.01	43770.36
549.18	43480.13
549.34	43798.44
549.51	43892.07
549.68	44095.69
549.84	43683.76
550.01	44083.99
550.18	43725.89
550.34	43770.36
550.51	43976.33
550.68	43950.58
550.84	43746.95
551.01	44474.86
551.18	43751.63
551.34	44198.68
551.51	44411.67
551.68	44676.15
551.84	44505.29
552.01	44229.10
552.18	44156.55
552.34	44032.50
552.51	44385.92
552.68	44100.37
552.84	44385.92
553.01	44449.11
553.18	44243.15
553.34	44177.61
553.51	44554.44
553.67	44280.60
553.84	45078.72
554.01	44996.80
554.17	44821.26
554.34	44481.88
554.51	44547.42
554.67	45027.23
554.84	44722.96
555.00	44350.81
555.17	44666.78
555.33	44821.26
555.50	44678.49
555.67	44942.97
555.83	44619.97
556.00	44975.73
556.16	45230.85
556.33	44797.85
556.50	44905.52
556.66	44722.96
556.83	44755.72
556.99	44992.12
557.16	45029.57
557.32	44612.95
557.49	45106.80
557.65	45069.36
557.82	45205.11
557.98	45015.52
558.15	44802.53
558.32	45586.61
558.48	45029.57
558.65	44619.97
558.81	45062.33
558.98	44720.62
559.14	45050.63
559.31	44641.04
559.47	45188.72
559.64	45280.00
559.80	45158.30
559.97	45364.26
560.13	44861.05
560.30	45418.10
560.46	45455.54
560.63	45076.38
560.79	45764.49
560.96	45687.26
561.12	45584.27
561.29	45382.99
561.45	45226.17
561.61	45495.33
561.78	45329.16
561.94	45375.97
562.11	45619.38
562.27	45361.92
562.44	45485.97
562.60	45263.62
562.77	45764.49
562.93	45528.10
563.10	45518.74
563.26	45675.55
563.42	45844.07
563.59	45549.17
563.75	45544.48
563.92	45776.20
564.08	45574.91
564.24	45834.71
564.41	45811.31
564.57	45698.96
564.74	45698.96
564.90	45633.42
565.07	45773.86
565.23	45511.72
565.39	45909.61
565.56	45841.73
565.72	45399.37
565.88	45544.48
566.05	45670.87
566.21	45511.72
566.38	45705.98
566.54	45647.47
566.70	46038.34
566.87	45684.92
567.03	46007.91
567.19	46270.05
567.36	45954.08
567.52	45862.80
567.68	45560.87
567.85	45530.44
568.01	46092.17
568.17	45366.60
568.34	45886.20
568.50	45893.22
568.66	45586.61
568.83	45738.75
568.99	45888.54
569.15	45937.69
569.32	45893.22
569.48	45762.15
569.64	45956.42
569.81	45656.83
569.97	46103.87
570.13	45818.33
570.30	45940.04
570.46	45254.26
570.62	45280.00
570.78	45563.21
570.95	45808.96
571.11	45970.46
571.27	45846.41
571.43	45553.85
571.60	45991.53
571.76	45478.95
571.92	45638.11
572.09	46087.49
572.25	45895.56
572.41	46195.15
572.57	46227.92
572.74	45937.69
572.90	46461.97
573.06	45862.80
573.22	46391.76
573.38	45844.07
573.55	45776.20
573.71	46099.19
573.87	46412.82
574.03	46094.51
574.20	46157.70
574.36	45750.45
574.52	46120.26
574.68	45612.36
574.84	46080.47
575.01	46141.32
575.17	45778.54
575.33	45748.11
575.49	45471.93
575.65	46108.55
575.82	46218.56
575.98	45406.39
576.14	46267.71
576.30	46040.68
576.46	45970.46
576.62	46113.23
576.79	45832.37
576.95	45937.69
577.11	46199.83
577.27	46227.92
577.43	46302.82
577.59	46078.13
577.75	45670.87
577.92	45539.80
578.08	45483.63
578.24	45392.35
578.40	45940.04
578.56	45736.41
578.72	46176.43
578.88	46337.93
579.04	46174.09
579.21	45462.57
579.37	45818.33
579.53	46197.49
579.69	45900.25
579.85	46017.27
580.01	45839.39
580.17	46218.56
580.33	46590.70
580.49	46433.89
580.65	46038.34
580.82	45858.12
580.98	45958.76
581.14	45659.17
581.30	46398.78
581.46	46426.87
581.62	46588.36
581.78	46057.06
581.94	46197.49
582.10	46328.56
582.26	46155.36
582.42	46494.74
582.58	46494.74
582.74	45839.39
582.90	46085.15
583.06	46445.59
583.22	46225.58
583.38	46225.58
583.54	45996.21
583.70	46391.76
583.86	46260.69
584.02	45879.18
584.18	46349.63
584.34	45895.56
584.50	46227.92
584.66	46244.30
584.82	45680.24
584.98	45736.41
585.14	46375.37
585.30	46108.55
585.46	45968.12
585.62	45993.87
585.78	45972.80
585.94	46356.65
586.10	45652.15
586.26	46115.58
586.42	46401.12
586.58	46138.98
586.74	45897.91
586.90	46211.54
587.06	46014.93
587.22	46110.89
587.38	46433.89
587.54	46174.09
587.70	46487.72
587.86	46342.61
588.02	46078.13
588.18	46157.70
588.34	45621.72
588.49	45415.76
588.65	45434.48
588.81	45579.59
588.97	45532.78
589.13	45949.40
589.29	46017.27
589.45	45902.59
589.61	45923.65
589.77	46080.47
589.93	46445.59
590.08	46190.47
