SpectraSuite Data File
++++++++++++++++++++++++++++++++++++
Date: Fri Oct 25 11:33:27 EDT 2013
User: price-jones
Dark Spectrum Present: No
Reference Spectrum Present: No
Number of Sampled Component Spectra: 1
Spectrometers: USB2+H05261
Integration Time (usec): 100000 (USB2+H05261)
Spectra Averaged: 1 (USB2+H05261)
Boxcar Smoothing: 0 (USB2+H05261)
Correct for Electrical Dark: No (USB2+H05261)
Strobe/Lamp Enabled: No (USB2+H05261)
Correct for Detector Non-linearity: No (USB2+H05261)
Correct for Stray Light: No (USB2+H05261)
Number of Pixels in Processed Spectrum: 2048
>>>>>Begin Processed Spectral Data<<<<<
365.73	332.36
365.92	332.36
366.12	332.36
366.32	262.14
366.52	180.22
366.72	191.92
366.91	154.48
367.11	159.16
367.31	161.50
367.51	191.92
367.70	187.24
367.90	180.22
368.10	140.43
368.30	72.56
368.49	135.75
368.69	191.92
368.89	163.84
369.09	131.07
369.28	205.97
369.48	266.82
369.68	234.05
369.87	243.42
370.07	196.60
370.27	292.57
370.47	353.42
370.66	484.49
370.86	503.22
371.06	594.50
371.25	554.71
371.45	580.45
371.65	540.66
371.84	491.51
372.04	622.58
372.24	571.09
372.44	521.94
372.63	449.38
372.83	578.11
373.03	641.31
373.22	589.82
373.42	564.07
373.62	552.37
373.81	655.35
374.01	662.37
374.21	657.69
374.40	674.07
374.60	685.78
374.79	706.84
374.99	636.63
375.19	631.94
375.38	730.25
375.58	648.33
375.78	681.10
375.97	695.14
376.17	741.95
376.37	669.39
376.56	620.24
376.76	650.67
376.95	648.33
377.15	685.78
377.35	683.44
377.54	690.46
377.74	662.37
377.93	685.78
378.13	685.78
378.33	751.31
378.52	674.07
378.72	734.93
378.91	692.80
379.11	704.50
379.31	816.85
379.50	755.99
379.70	748.97
379.89	681.10
380.09	730.25
380.28	760.67
380.48	727.91
380.68	791.10
380.87	755.99
381.07	781.74
381.26	809.83
381.46	732.59
381.65	739.61
381.85	767.70
382.04	711.52
382.24	739.61
382.43	905.79
382.63	816.85
382.83	777.06
383.02	777.06
383.22	788.76
383.41	847.27
383.61	807.48
383.80	781.74
384.00	807.48
384.19	711.52
384.39	723.23
384.58	795.78
384.78	905.79
384.97	828.55
385.17	891.74
385.36	858.98
385.56	833.23
385.75	823.87
385.95	898.77
386.14	854.30
386.34	882.38
386.53	894.08
386.72	784.08
386.92	983.02
387.11	870.68
387.31	828.55
387.50	882.38
387.70	842.59
387.89	889.40
388.09	884.72
388.28	875.36
388.48	889.40
388.67	964.30
388.86	856.64
389.06	905.79
389.25	940.90
389.45	938.55
389.64	980.68
389.84	999.41
390.03	992.39
390.22	1006.43
390.42	987.71
390.61	964.30
390.81	940.90
391.00	992.39
391.19	1008.77
391.39	994.73
391.58	1036.86
391.78	1050.90
391.97	1039.20
392.16	1039.20
392.36	1086.01
392.55	1041.54
392.75	1041.54
392.94	1109.41
393.13	1050.90
393.33	1032.18
393.52	1032.18
393.71	1067.28
393.91	1137.50
394.10	1055.58
394.29	1067.28
394.49	1088.35
394.68	1151.54
394.88	1181.97
395.07	1118.78
395.26	1139.84
395.46	1184.31
395.65	1142.18
395.84	1062.60
396.04	1207.72
396.23	1128.14
396.42	1259.21
396.62	1212.40
396.81	1226.44
397.00	1228.78
397.19	1303.68
397.39	1282.61
397.58	1242.82
397.77	1228.78
397.97	1291.98
398.16	1291.98
398.35	1308.36
398.55	1256.87
398.74	1317.72
398.93	1341.13
399.12	1331.76
399.32	1329.42
399.51	1355.17
399.70	1362.19
399.90	1287.29
400.09	1270.91
400.28	1425.39
400.47	1355.17
400.67	1488.58
400.86	1425.39
401.05	1313.04
401.24	1378.58
401.44	1376.24
401.63	1474.54
401.82	1411.34
402.01	1432.41
402.21	1434.75
402.40	1479.22
402.59	1399.64
402.78	1544.75
402.97	1453.47
403.17	1523.69
403.36	1476.88
403.55	1465.18
403.74	1577.52
403.93	1591.56
404.13	1572.84
404.32	1640.72
404.51	1551.78
404.70	1668.80
404.89	1722.63
405.09	1689.87
405.28	1687.53
405.47	1575.18
405.66	1729.66
405.85	1802.21
406.05	1823.28
406.24	1732.00
406.43	1776.47
406.62	1762.42
406.81	1827.96
407.00	1689.87
407.20	1760.08
407.39	1849.02
407.58	1823.28
407.77	1870.09
407.96	1755.40
408.15	1900.52
408.34	1884.13
408.54	1867.75
408.73	1944.99
408.92	1870.09
409.11	1891.15
409.30	1991.80
409.49	1944.99
409.68	2008.18
409.87	1916.90
410.07	2047.97
410.26	2001.16
410.45	1994.14
410.64	2090.10
410.83	2146.27
411.02	2085.42
411.21	2251.60
411.40	2078.40
411.59	2193.08
411.78	2300.75
411.98	2204.78
412.17	2186.06
412.36	2251.60
412.55	2251.60
412.74	2389.69
412.93	2298.41
413.12	2349.90
413.31	2366.28
413.50	2356.92
413.69	2370.96
413.88	2495.01
414.07	2459.90
414.26	2513.74
414.45	2551.18
414.64	2539.48
414.83	2459.90
415.02	2588.63
415.22	2647.15
415.41	2724.38
415.60	2590.97
415.79	2614.38
415.98	2757.15
416.17	2778.22
416.36	2656.51
416.55	2759.49
416.74	2794.60
416.93	2700.98
417.12	2789.92
417.31	2956.10
417.50	2841.41
417.69	2928.01
417.88	2801.62
418.07	2829.71
418.26	2986.52
418.45	3047.38
418.64	3110.57
418.83	3073.12
419.02	3105.89
419.21	3101.21
419.39	3148.02
419.58	3131.64
419.77	2986.52
419.96	3194.83
420.15	3206.53
420.34	3033.33
420.53	3190.15
420.72	3274.41
420.91	3232.28
421.10	3239.30
421.29	3293.13
421.48	3300.16
421.67	3382.07
421.86	3187.81
422.05	3220.58
422.24	3258.03
422.43	3363.35
422.61	3368.03
422.80	3419.52
422.99	3332.92
423.18	3456.97
423.37	3548.25
423.56	3346.97
423.75	3361.01
423.94	3414.84
424.13	3251.00
424.32	3281.43
424.50	3417.18
424.69	3417.18
424.88	3536.55
425.07	3321.22
425.26	3482.72
425.45	3262.71
425.64	3503.78
425.83	3599.74
426.01	3473.36
426.20	3506.12
426.39	3428.88
426.58	3517.83
426.77	3410.16
426.96	3592.72
427.15	3492.08
427.33	3714.43
427.52	3595.06
427.71	3548.25
427.90	3529.53
428.09	3506.12
428.28	3770.60
428.46	3545.91
428.65	3616.13
428.84	3791.67
429.03	3747.20
429.22	3686.34
429.40	3646.55
429.59	3702.73
429.78	3674.64
429.97	3660.60
430.16	3749.54
430.34	3831.46
430.53	3918.06
430.72	3798.69
430.91	3969.55
431.10	3803.37
431.28	3990.61
431.47	3981.25
431.66	4135.73
431.85	3953.16
432.03	3976.57
432.22	4049.13
432.41	4035.08
432.60	4014.02
432.79	4149.77
432.97	4007.00
433.16	4067.85
433.35	4091.26
433.54	4149.77
433.72	4264.46
433.91	4217.65
434.10	4234.03
434.28	4119.34
434.47	4311.27
434.66	4189.56
434.85	4376.80
435.03	4241.05
435.22	4262.12
435.41	4423.61
435.59	4355.74
435.78	4372.12
435.97	4418.93
436.16	4479.79
436.34	4411.91
436.53	4428.29
436.72	4498.51
436.90	4393.19
437.09	4697.46
437.28	4484.47
437.46	4519.57
437.65	4524.26
437.84	4599.15
438.02	4512.55
438.21	4575.75
438.40	4557.02
438.58	4840.23
438.77	4720.86
438.96	4713.84
439.14	4990.02
439.33	4938.53
439.52	4952.57
439.70	4835.55
439.89	5001.72
440.08	4990.02
440.26	5018.11
440.45	5020.45
440.63	5170.24
440.82	5275.57
441.01	5011.09
441.19	5198.33
441.38	5317.70
441.57	5259.18
441.75	5242.80
441.94	5298.97
442.12	5444.09
442.31	5458.13
442.50	5448.77
442.68	5366.85
442.87	5420.68
443.05	5439.40
443.24	5514.30
443.43	5416.00
443.61	5701.54
443.80	5664.10
443.98	5490.90
444.17	5298.97
444.35	5596.22
444.54	5687.50
444.73	5528.35
444.91	5738.99
445.10	5577.50
445.28	5621.97
445.47	5551.75
445.65	5647.71
445.84	5736.65
446.02	5902.83
446.21	5657.07
446.39	5621.97
446.58	5694.52
446.77	5472.17
446.95	5774.10
447.14	5624.31
447.32	5874.74
447.51	5771.76
447.69	5776.44
447.88	5671.12
448.06	5727.29
448.25	5909.85
448.43	5856.02
448.62	5830.27
448.80	5813.89
448.99	5849.00
449.17	5891.13
449.36	5811.55
449.54	5942.62
449.73	6017.52
449.91	5944.96
450.10	6167.31
450.28	6045.60
450.46	6186.04
450.65	6024.54
450.83	5935.60
451.02	6179.01
451.20	6277.32
451.39	6197.74
451.57	6118.16
451.76	6071.35
451.94	6356.90
452.13	6462.22
452.31	6352.21
452.49	6136.88
452.68	6312.42
452.86	6209.44
453.05	6274.98
453.23	6399.02
453.42	6305.40
453.60	6300.72
453.78	6436.47
453.97	6452.86
454.15	6431.79
454.34	6377.96
454.52	6532.44
454.70	6590.95
454.89	6595.63
455.07	6558.18
455.26	6661.16
455.44	6649.46
455.62	6595.63
455.81	6668.19
455.99	6740.74
456.17	6766.49
456.36	6738.40
456.54	6848.41
456.73	6897.56
456.91	6834.36
457.09	6909.26
457.28	7009.90
457.46	6846.07
457.64	7183.10
457.83	7232.26
458.01	6935.01
458.19	7112.89
458.38	7162.04
458.56	7269.70
458.74	7208.85
458.93	7124.59
459.11	7414.82
459.29	7206.51
459.48	7169.06
459.66	7110.55
459.84	7307.15
460.03	7440.56
460.21	7176.08
460.39	7405.46
460.57	7466.31
460.76	7592.70
460.94	7585.68
461.12	7506.10
461.31	7508.44
461.49	7566.95
461.67	7576.31
461.85	7737.81
462.04	7531.84
462.22	7992.93
462.40	7803.35
462.59	7625.47
462.77	7789.30
462.95	7779.94
463.13	7826.75
463.32	7906.33
463.50	7896.97
463.68	7901.65
463.86	8095.91
464.05	7932.08
464.23	7889.95
464.41	7906.33
464.59	7875.90
464.78	7981.23
464.96	8037.40
465.14	8037.40
465.32	8159.11
465.50	8044.42
465.69	8219.96
465.87	8124.00
466.05	8063.15
466.23	8175.49
466.41	8278.47
466.60	8170.81
466.78	7985.91
466.96	8194.22
467.14	8060.80
467.32	8379.12
467.51	8400.18
467.69	8063.15
467.87	8484.44
468.05	8479.76
468.23	8126.34
468.41	8308.90
468.60	8535.93
468.78	8430.61
468.96	8397.84
469.14	8353.37
469.32	8800.41
469.50	8425.93
469.69	8760.63
469.87	8758.28
470.05	8662.32
470.23	8875.31
470.41	8762.97
470.59	8926.80
470.77	8662.32
470.95	8961.91
471.14	9151.49
471.32	9027.45
471.50	8882.33
471.68	9074.26
471.86	9025.11
472.04	9149.15
472.22	9305.97
472.40	8964.25
472.58	9195.96
472.77	9427.68
472.95	9385.55
473.13	9598.54
473.31	9170.22
473.49	9528.32
473.67	9479.17
473.85	9404.27
474.03	9757.69
474.21	9762.37
474.39	9734.29
474.57	9844.29
474.75	9975.36
474.93	9870.04
475.12	9970.68
475.30	10078.35
475.48	10064.30
475.66	10092.39
475.84	10125.16
476.02	10132.18
476.20	10164.95
476.38	10300.70
476.56	10705.61
476.74	10588.58
476.92	10471.56
477.10	10518.37
477.28	10661.14
477.46	10738.38
477.64	10806.25
477.82	10813.28
478.00	11145.63
478.18	10853.06
478.36	11091.80
478.54	11187.76
478.72	11349.26
478.90	11428.84
479.08	11625.44
479.26	11393.73
479.44	11775.24
479.62	11779.92
479.80	11880.56
479.98	12023.33
480.16	12257.39
480.34	12107.59
480.52	12257.39
480.70	12367.39
480.88	12184.83
481.06	12388.46
481.24	12407.18
481.41	12575.70
481.59	12861.24
481.77	12730.17
481.95	12989.97
482.13	13116.36
482.31	13099.98
482.49	13343.39
482.67	13329.35
482.85	13296.58
483.03	13582.13
483.21	13666.39
483.39	13797.46
483.57	13664.05
483.74	14005.77
483.92	13944.91
484.10	13947.25
484.28	14104.07
484.46	14551.11
484.64	14785.16
484.82	14356.85
485.00	14581.54
485.18	14951.34
485.35	15140.93
485.53	14930.28
485.71	15021.56
485.89	15454.56
486.07	15487.32
486.25	15391.36
486.43	15487.32
486.61	15389.02
486.78	15950.75
486.96	15669.89
487.14	16023.31
487.32	16135.65
487.50	16468.01
487.68	16460.99
487.85	16587.38
488.03	16615.46
488.21	16854.20
488.39	16821.43
488.57	17451.03
488.75	17408.90
488.92	17142.08
489.10	17561.04
489.28	17544.66
489.46	17867.65
489.64	17916.80
489.81	17930.84
489.99	18239.79
490.17	18223.41
490.35	18258.52
490.53	18523.00
490.70	18611.94
490.88	18455.12
491.06	18892.80
491.24	18848.33
491.41	19047.28
491.59	19204.10
491.77	18986.43
491.95	19545.81
492.13	19754.12
492.30	19236.86
492.48	19819.66
492.66	19719.01
492.84	19838.38
493.01	20252.66
493.19	20322.87
493.37	20566.29
493.54	20521.82
493.72	20482.03
493.90	20535.86
494.08	21018.01
494.25	21165.46
494.43	20903.32
494.61	21188.87
494.79	21092.91
494.96	21039.08
495.14	21355.05
495.32	21413.56
495.49	21762.30
495.67	21511.86
495.85	22033.80
496.02	22331.05
496.20	22398.93
496.38	22267.86
496.55	22417.65
496.73	22703.20
496.91	22810.86
497.09	22822.56
497.26	22970.02
497.44	22740.64
497.62	23019.17
497.79	23194.71
497.97	22843.63
498.14	23194.71
498.32	23796.23
498.50	23789.20
498.67	23737.71
498.85	23969.43
499.03	23871.12
499.20	24332.21
499.38	24215.18
499.56	24474.98
499.73	24219.86
499.91	24711.38
500.08	24973.52
500.26	24278.38
500.44	24975.86
500.61	25008.62
500.79	24711.38
500.97	24868.19
501.14	25500.14
501.32	25483.75
501.49	25195.87
501.67	25738.87
501.84	25294.17
502.02	25385.45
502.20	25390.13
502.37	25671.00
502.55	25727.17
502.72	25921.43
502.90	25991.65
503.07	25853.56
503.25	26075.91
503.43	25951.86
503.60	26466.78
503.78	26244.43
503.95	26249.11
504.13	26522.95
504.30	26703.17
504.48	26480.82
504.65	27370.22
504.83	27211.07
505.01	27271.92
505.18	26951.27
505.36	27438.10
505.53	27047.23
505.71	27529.38
505.88	27821.95
506.06	27545.76
506.23	28044.30
506.41	27445.12
506.58	27817.27
506.76	27583.21
506.93	28449.21
507.11	27742.37
507.28	28084.09
507.46	28163.67
507.63	28123.88
507.81	28844.76
507.98	28493.68
508.16	28444.53
508.33	28760.50
508.50	28765.18
508.68	28723.05
508.85	29034.35
509.03	28648.16
509.20	28952.43
509.38	29708.42
509.55	29378.40
509.73	29244.99
509.90	29106.90
510.08	29291.80
510.25	29214.57
510.42	29570.33
510.60	29472.03
510.77	30139.08
510.95	29642.88
511.12	29909.71
511.30	29820.77
511.47	30115.67
511.64	30120.35
511.82	30101.63
511.99	30543.99
512.17	30654.00
512.34	30448.03
512.51	30976.99
512.69	30487.82
512.86	30789.75
513.04	30991.03
513.21	31049.55
513.38	31061.25
513.56	31583.19
513.73	31309.35
513.90	31358.50
514.08	31428.71
514.25	31323.39
514.43	31747.03
514.60	31651.06
514.77	31842.99
514.95	31669.79
515.12	31777.45
515.29	31714.26
515.47	31810.22
515.64	31985.76
515.81	31878.10
515.99	32044.27
516.16	32425.78
516.33	32070.02
516.51	32648.13
516.68	32467.91
516.85	32395.35
517.03	32645.79
517.20	32603.66
517.37	32711.33
517.54	32905.59
517.72	33041.34
517.89	33006.23
518.06	33149.01
518.24	32833.04
518.41	33340.93
518.58	33099.86
518.75	33156.03
518.93	33708.40
519.10	33305.82
519.27	33240.29
519.45	33640.52
519.62	33827.76
519.79	33888.62
519.96	33811.38
520.14	34120.33
520.31	33675.63
520.48	34110.97
520.65	34249.06
520.83	34574.39
521.00	34309.91
521.17	34033.73
521.34	34511.20
521.52	34625.89
521.69	34518.22
521.86	35005.05
522.03	34810.79
522.20	35023.78
522.38	35086.97
522.55	34742.91
522.72	35033.14
522.89	34967.60
523.07	35618.27
523.24	34888.03
523.41	35510.61
523.58	35339.75
523.75	35768.07
523.92	35346.77
524.10	35658.06
524.27	35660.40
524.44	35763.39
524.61	35983.40
524.78	35796.15
524.96	36044.25
525.13	36109.78
525.30	36535.76
525.47	36364.90
525.64	35948.29
525.81	36261.92
525.98	36107.44
526.16	36299.37
526.33	36009.14
526.50	36802.58
526.67	36346.18
526.84	36418.74
527.01	36488.95
527.18	36524.06
527.36	36987.49
527.53	36994.51
527.70	37102.17
527.87	37305.80
528.04	36636.41
528.21	37329.20
528.38	36800.24
528.55	37319.84
528.72	37010.89
528.89	37298.78
529.07	36971.10
529.24	37457.93
529.41	37813.70
529.58	37439.21
529.75	37586.66
529.92	37486.02
530.09	37413.46
530.26	37509.43
530.43	38117.96
530.60	37881.57
530.77	37862.85
530.94	38047.75
531.11	37912.00
531.28	37830.08
531.46	38022.00
531.63	38293.50
531.80	38270.10
531.97	38288.82
532.14	38691.40
532.31	38288.82
532.48	38859.91
532.65	38815.44
532.82	38377.76
532.99	38637.56
533.16	38464.36
533.33	38831.83
533.50	39129.08
533.67	38974.60
533.84	38724.16
534.01	38866.94
534.18	38930.13
534.35	39271.85
534.52	39168.87
534.69	39395.90
534.86	39529.31
535.03	39283.55
535.20	39484.84
535.37	39466.11
535.54	39613.57
535.71	39297.59
535.88	39456.75
536.05	40006.78
536.22	39721.23
536.38	39948.26
536.55	39927.20
536.72	39959.97
536.89	39428.66
537.06	39559.73
537.23	40053.59
537.40	39819.53
537.57	39770.38
537.74	39533.99
537.91	40154.23
538.08	39821.87
538.25	39924.86
538.42	40215.08
538.59	40458.50
538.75	40151.89
538.92	40388.28
539.09	40278.28
539.26	40800.22
539.43	40189.34
539.60	40442.12
539.77	40409.35
539.94	41207.47
540.11	41120.87
540.28	40947.67
540.44	40847.03
540.61	40722.98
540.78	40973.42
540.95	41060.02
541.12	40538.08
541.29	41581.96
541.46	41207.47
541.62	41305.77
541.79	41062.36
541.96	41179.39
542.13	40907.88
542.30	41425.14
542.47	41572.60
542.63	41698.98
542.80	41556.21
542.97	41584.30
543.14	42153.05
543.31	41785.58
543.48	41794.95
543.64	42038.36
543.81	42005.59
543.98	42183.48
544.15	42363.70
544.32	42094.53
544.48	42321.57
544.65	42068.79
544.82	42408.17
544.99	41949.42
545.16	42483.06
545.32	42094.53
545.49	42541.58
545.66	42806.06
545.83	42574.34
546.00	42799.04
546.16	42431.57
546.33	42822.44
546.50	42691.37
546.67	42508.81
546.83	42373.06
547.00	42642.22
547.17	42562.64
547.34	43227.35
547.50	42885.64
547.67	43115.01
547.84	42892.66
548.00	43157.14
548.17	43363.11
548.34	43522.26
548.51	43611.20
548.67	43325.66
548.84	43356.08
549.01	43412.26
549.18	42815.42
549.34	43505.88
549.51	43983.35
549.68	42995.64
549.84	43267.14
550.01	43445.02
550.18	43150.12
550.34	43379.49
550.51	43957.60
550.68	43768.02
550.84	43496.52
551.01	43749.29
551.18	43477.79
551.34	43885.04
551.51	43772.70
551.68	43999.73
551.84	43700.14
552.01	43807.81
552.18	43871.00
552.34	43950.58
552.51	44184.63
552.68	43957.60
552.84	43789.08
553.01	44397.62
553.18	43922.49
553.34	44217.40
553.51	44275.91
553.67	43988.03
553.84	44699.55
554.01	44414.01
554.17	44346.13
554.34	44491.24
554.51	44158.89
554.67	44732.32
554.84	44938.29
555.00	44683.17
555.17	44662.10
555.33	44739.34
555.50	44641.04
555.67	44767.43
555.83	44788.49
556.00	45132.55
556.16	45317.45
556.33	45022.54
556.50	44626.99
556.66	45219.15
556.83	45057.65
556.99	45439.16
557.16	45364.26
557.32	44931.26
557.49	45029.57
557.65	45045.95
557.82	45141.91
557.98	45390.01
558.15	45209.79
558.32	45186.38
558.48	45055.31
558.65	45532.78
558.81	45095.10
558.98	45081.06
559.14	45420.44
559.31	45511.72
559.47	45237.87
559.64	45448.52
559.80	45673.21
559.97	45539.80
560.13	45666.19
560.30	45399.37
560.46	46295.80
560.63	45542.14
560.79	45598.32
560.96	45839.39
561.12	45708.32
561.29	45839.39
561.45	45989.19
561.61	45996.21
561.78	45827.69
561.94	45748.11
562.11	45375.97
562.27	45478.95
562.44	45165.32
562.60	46129.62
562.77	45649.81
562.93	45523.42
563.10	45935.35
563.26	45874.50
563.42	46071.10
563.59	45708.32
563.75	45867.48
563.92	45560.87
564.08	45968.12
564.24	46480.70
564.41	45820.67
564.57	46351.97
564.74	46373.03
564.90	45947.06
565.07	45525.76
565.23	46253.67
565.39	46192.81
565.56	46438.57
565.72	46248.99
565.88	46328.56
566.05	45890.88
566.21	46202.18
566.38	46410.48
566.54	46085.15
566.70	46227.92
566.87	46836.46
567.03	46438.57
567.19	46663.26
567.36	46630.49
567.52	46571.98
567.68	46391.76
567.85	46239.62
568.01	46911.36
568.17	46267.71
568.34	46564.96
568.50	46883.27
568.66	45649.81
568.83	46337.93
568.99	46424.53
569.15	46347.29
569.32	46511.13
569.48	46450.27
569.64	46883.27
569.81	46710.07
569.97	47019.02
570.13	46663.26
570.30	46241.96
570.46	46843.48
570.62	47026.04
570.78	46710.07
570.95	46660.92
571.11	46955.83
571.27	46703.05
571.43	46717.09
571.60	46878.59
571.76	46511.13
571.92	46974.55
572.09	46597.73
572.25	46473.68
572.41	46693.69
572.57	46955.83
572.74	47241.37
572.90	46887.95
573.06	47138.39
573.22	47040.09
573.38	47040.09
573.55	47047.11
573.71	47290.52
573.87	47299.89
574.03	46801.35
574.20	47136.05
574.36	47023.70
574.52	46841.14
574.68	47173.50
574.84	47140.73
575.01	47454.36
575.17	47143.07
575.33	47454.36
575.49	46843.48
575.65	47264.78
575.82	47047.11
575.98	46712.41
576.14	47000.30
576.30	47379.46
576.46	47007.32
576.62	46941.78
576.79	47175.84
576.95	46541.55
577.11	47072.85
577.27	47023.70
577.43	47023.70
577.59	47210.95
577.75	47154.77
577.92	46880.93
578.08	46890.29
578.24	46883.27
578.40	47117.32
578.56	47353.72
578.72	47358.40
578.88	46670.28
579.04	47267.12
579.21	47339.68
579.37	46925.40
579.53	47243.71
579.69	46981.57
579.85	47110.30
580.01	47423.93
580.17	47241.37
580.33	47234.35
580.49	47220.31
580.65	47028.38
580.82	46932.42
580.98	47100.94
581.14	46848.16
581.30	47356.06
581.46	47033.07
581.62	47243.71
581.78	46948.81
581.94	47732.89
582.10	47543.30
582.26	47330.31
582.42	47313.93
582.58	47082.22
582.74	47262.44
582.90	47201.58
583.06	47672.03
583.22	47419.25
583.38	47498.83
583.54	47498.83
583.70	47498.83
583.86	47538.62
584.02	47239.03
584.18	47510.53
584.34	47599.47
584.50	47622.88
584.66	47597.13
584.82	47384.15
584.98	48016.09
585.14	47552.66
585.30	47571.39
585.46	47379.46
585.62	47299.89
585.78	47625.22
585.94	47164.14
586.10	47557.35
586.26	47150.09
586.42	47208.61
586.58	47187.54
586.74	47241.37
586.90	47323.29
587.06	47014.34
587.22	47590.11
587.38	47414.57
587.54	47868.64
587.70	47618.20
587.86	47796.08
588.02	47489.47
588.18	47379.46
588.34	47564.37
588.49	47543.30
588.65	47529.26
588.81	47299.89
588.97	47353.72
589.13	47775.02
589.29	47566.71
589.45	48016.09
589.61	47880.34
589.77	47716.50
589.93	47723.52
590.08	47826.51
