SpectraSuite Data File
++++++++++++++++++++++++++++++++++++
Date: Fri Oct 25 10:44:27 EDT 2013
User: price-jones
Dark Spectrum Present: No
Reference Spectrum Present: No
Number of Sampled Component Spectra: 1
Spectrometers: USB2+H05261
Integration Time (usec): 100000 (USB2+H05261)
Spectra Averaged: 1 (USB2+H05261)
Boxcar Smoothing: 0 (USB2+H05261)
Correct for Electrical Dark: No (USB2+H05261)
Strobe/Lamp Enabled: No (USB2+H05261)
Correct for Detector Non-linearity: No (USB2+H05261)
Correct for Stray Light: No (USB2+H05261)
Number of Pixels in Processed Spectrum: 2048
>>>>>Begin Processed Spectral Data<<<<<
365.73	98.30
365.92	98.30
366.12	98.30
366.32	107.66
366.52	25.75
366.72	44.47
366.91	0.00
367.11	0.00
367.31	0.00
367.51	0.00
367.70	28.09
367.90	67.88
368.10	44.47
368.30	65.54
368.49	0.00
368.69	23.41
368.89	67.88
369.09	0.00
369.28	51.49
369.48	37.45
369.68	23.41
369.87	72.56
370.07	95.96
370.27	128.73
370.47	241.08
370.66	437.68
370.86	472.79
371.06	454.06
371.25	479.81
371.45	470.45
371.65	524.28
371.84	411.93
372.04	484.49
372.24	519.60
372.44	533.64
372.63	435.34
372.83	521.94
373.03	512.58
373.22	484.49
373.42	559.39
373.62	540.66
373.81	557.05
374.01	585.13
374.21	578.11
374.40	559.39
374.60	538.32
374.79	571.09
374.99	643.65
375.19	592.16
375.38	594.50
375.58	627.26
375.78	538.32
375.97	533.64
376.17	620.24
376.37	662.37
376.56	620.24
376.76	585.13
376.95	643.65
377.15	667.05
377.35	702.16
377.54	669.39
377.74	753.65
377.93	669.39
378.13	690.46
378.33	739.61
378.52	671.73
378.72	667.05
378.91	650.67
379.11	566.41
379.31	690.46
379.50	692.80
379.70	744.29
379.89	697.48
380.09	678.76
380.28	660.03
380.48	748.97
380.68	718.54
380.87	777.06
381.07	720.88
381.26	779.40
381.46	739.61
381.65	718.54
381.85	692.80
382.04	690.46
382.24	755.99
382.43	734.93
382.63	732.59
382.83	737.27
383.02	760.67
383.22	765.36
383.41	739.61
383.61	798.12
383.80	786.42
384.00	777.06
384.19	784.08
384.39	849.61
384.58	854.30
384.78	795.78
384.97	840.25
385.17	847.27
385.36	732.59
385.56	868.34
385.75	861.32
385.95	851.96
386.14	786.42
386.34	784.08
386.53	844.93
386.72	805.14
386.92	959.62
387.11	903.45
387.31	908.13
387.50	880.04
387.70	929.19
387.89	891.74
388.09	875.36
388.28	891.74
388.48	912.81
388.67	992.39
388.86	978.34
389.06	1022.81
389.25	943.24
389.45	1001.75
389.64	992.39
389.84	1074.31
390.03	1074.31
390.22	1041.54
390.42	1062.60
390.61	1015.79
390.81	1032.18
391.00	1071.97
391.19	1100.05
391.39	1048.56
391.58	1086.01
391.78	1071.97
391.97	1144.52
392.16	1125.80
392.36	1097.71
392.55	992.39
392.75	1004.09
392.94	1116.44
393.13	966.64
393.33	1027.50
393.52	1102.39
393.71	1100.05
393.91	1135.16
394.10	1160.91
394.29	1137.50
394.49	1207.72
394.68	1198.35
394.88	1245.16
395.07	1303.68
395.26	1221.76
395.46	1242.82
395.65	1322.40
395.84	1233.46
396.04	1256.87
396.23	1217.08
396.42	1125.80
396.62	1203.04
396.81	1268.57
397.00	1254.53
397.19	1301.34
397.39	1423.05
397.58	1425.39
397.77	1387.94
397.97	1357.51
398.16	1474.54
398.35	1572.84
398.55	1523.69
398.74	1483.90
398.93	1577.52
399.12	1549.43
399.32	1533.05
399.51	1565.82
399.70	1579.86
399.90	1535.39
400.09	1565.82
400.28	1638.38
400.47	1598.59
400.67	1710.93
400.86	1643.06
401.05	1799.87
401.24	1652.42
401.44	1762.42
401.63	1701.57
401.82	1771.79
402.01	1732.00
402.21	1827.96
402.40	1764.76
402.59	1799.87
402.78	1797.53
402.97	1837.32
403.17	1830.30
403.36	1792.85
403.55	1865.41
403.74	1947.33
403.93	2005.84
404.13	1944.99
404.32	1811.57
404.51	1907.54
404.70	2085.42
404.89	1949.67
405.09	2071.37
405.28	1902.86
405.47	2033.93
405.66	2036.27
405.85	2045.63
406.05	1970.73
406.24	2078.40
406.43	2064.35
406.62	2073.71
406.81	2188.40
407.00	2076.06
407.20	2181.38
407.39	2157.97
407.58	2242.23
407.77	2118.18
407.96	2298.41
408.15	2403.73
408.34	2272.66
408.54	2260.96
408.73	2326.49
408.92	2258.62
409.11	2406.07
409.30	2455.22
409.49	2406.07
409.68	2471.61
409.87	2431.82
410.07	2324.15
410.26	2480.97
410.45	2492.67
410.64	2457.56
410.83	2504.37
411.02	2530.12
411.21	2633.10
411.40	2628.42
411.59	2717.36
411.78	2658.85
411.98	2633.10
412.17	2691.62
412.36	2696.30
412.55	2745.45
412.74	2972.48
412.93	2782.90
413.12	2911.63
413.31	2967.80
413.50	2909.29
413.69	2918.65
413.88	2979.50
414.07	2960.78
414.26	3005.25
414.45	3040.36
414.64	3035.67
414.83	3023.97
415.02	3000.57
415.22	3030.99
415.41	3171.43
415.60	3239.30
415.79	3143.34
415.98	3293.13
416.17	3351.65
416.36	3382.07
416.55	3478.04
416.74	3258.03
416.93	3314.20
417.12	3220.58
417.31	3356.33
417.50	3344.63
417.69	3485.06
417.88	3435.91
418.07	3550.59
418.26	3527.19
418.45	3552.93
418.64	3754.22
418.83	3676.98
419.02	3609.11
419.21	3585.70
419.39	3576.34
419.58	3496.76
419.77	3595.06
419.96	3723.79
420.15	3798.69
420.34	3719.11
420.53	3791.67
420.72	3967.21
420.91	3723.79
421.10	3911.04
421.29	3889.97
421.48	3803.37
421.67	3927.42
421.86	3887.63
422.05	3913.38
422.24	3866.56
422.43	3925.08
422.61	3838.48
422.80	4042.11
422.99	4004.66
423.18	4126.36
423.37	3985.93
423.56	4007.00
423.75	3918.06
423.94	4007.00
424.13	3896.99
424.32	3754.22
424.50	4002.32
424.69	4056.15
424.88	4238.71
425.07	4060.83
425.26	4042.11
425.45	4105.30
425.64	4086.58
425.83	4079.55
426.01	4056.15
426.20	4014.02
426.39	4037.42
426.58	4088.92
426.77	4051.47
426.96	4079.55
427.15	3967.21
427.33	4196.58
427.52	4079.55
427.71	4119.34
427.90	4205.94
428.09	4341.69
428.28	4262.12
428.46	4210.62
428.65	4273.82
428.84	4383.82
429.03	4407.23
429.22	4042.11
429.40	4196.58
429.59	4353.40
429.78	3974.23
429.97	4014.02
430.16	4105.30
430.34	4088.92
430.53	4142.75
430.72	4205.94
430.91	4358.08
431.10	4425.95
431.28	4627.24
431.47	4571.07
431.66	4809.80
431.85	4601.49
432.03	4699.80
432.22	4685.75
432.41	4671.71
432.60	4802.78
432.79	4828.53
432.97	4922.15
433.16	4620.22
433.35	4702.14
433.54	4802.78
433.72	4863.63
433.91	4746.61
434.10	4933.85
434.28	4793.42
434.47	5006.41
434.66	4968.96
434.85	5093.01
435.03	5130.45
435.22	5083.64
435.41	5327.06
435.59	5090.67
435.78	5277.91
435.97	5284.93
436.16	5266.21
436.34	5188.97
436.53	5224.08
436.72	5430.04
436.90	5275.57
437.09	5256.84
437.28	5256.84
437.46	5273.23
437.65	5320.04
437.84	5322.38
438.02	5228.76
438.21	5329.40
438.40	5170.24
438.58	5500.26
438.77	5490.90
438.96	5521.32
439.14	5589.20
439.33	5816.23
439.52	5790.49
439.70	5769.42
439.89	5816.23
440.08	5792.83
440.26	5863.04
440.45	5750.70
440.63	6073.69
440.82	5930.92
441.01	6031.56
441.19	6108.80
441.38	6349.87
441.57	6296.04
441.75	6307.74
441.94	6223.48
442.12	6305.40
442.31	6607.33
442.50	6476.26
442.68	6511.37
442.87	6303.06
443.05	6401.37
443.24	6553.50
443.43	6466.90
443.61	6551.16
443.80	6998.20
443.98	6560.52
444.17	6317.11
444.35	6527.75
444.54	6808.62
444.73	6710.32
444.91	6743.08
445.10	6649.46
445.28	6724.36
445.47	6743.08
445.65	6612.01
445.84	6752.45
446.02	6651.80
446.21	6677.55
446.39	6555.84
446.58	6810.96
446.77	6841.39
446.95	6820.32
447.14	6890.54
447.32	6991.18
447.51	6729.04
447.69	6780.53
447.88	6754.79
448.06	6658.82
448.25	6839.05
448.43	7059.06
448.62	6719.68
448.80	7014.59
448.99	7007.56
449.17	6986.50
449.36	6939.69
449.54	6956.07
449.73	7155.02
449.91	7281.41
450.10	7253.32
450.28	7538.87
450.46	7360.98
450.65	7260.34
450.83	7557.59
451.02	7286.09
451.20	7428.86
451.39	7520.14
451.57	7290.77
451.76	7323.54
451.94	7435.88
452.13	7304.81
452.31	7468.65
452.49	7398.43
452.68	7339.92
452.86	7307.15
453.05	7414.82
453.23	7459.29
453.42	7410.14
453.60	7391.41
453.78	7660.57
453.97	7524.82
454.15	7581.00
454.34	7485.03
454.52	7686.32
454.70	7548.23
454.89	7693.34
455.07	7801.01
455.26	7793.98
455.44	7859.52
455.62	7805.69
455.81	7892.29
455.99	7943.78
456.17	8173.15
456.36	8088.89
456.54	8046.76
456.73	8177.83
456.91	8156.77
457.09	8287.84
457.28	8578.06
457.46	8269.11
457.64	8578.06
457.83	8138.04
458.01	8182.51
458.19	8545.30
458.38	8177.83
458.56	8390.82
458.74	8308.90
458.93	8411.89
459.11	8549.98
459.29	8512.53
459.48	8592.11
459.66	8402.52
459.84	8519.55
460.03	8643.60
460.21	8898.72
460.39	8784.03
460.57	8571.04
460.76	8716.16
460.94	8830.84
461.12	8744.24
461.31	8730.20
461.49	8636.58
461.67	8922.12
461.85	8879.99
462.04	9142.13
462.22	8896.38
462.40	9144.47
462.59	9123.41
462.77	8985.32
462.95	8945.53
463.13	9158.52
463.32	8950.21
463.50	9130.43
463.68	9240.44
463.86	9153.84
464.05	9240.44
464.23	9090.64
464.41	9067.24
464.59	9123.41
464.78	9380.87
464.96	9324.69
465.14	9401.93
465.32	9474.49
465.50	9589.17
465.69	9643.01
465.87	9406.61
466.05	9287.25
466.23	9102.34
466.41	9455.76
466.60	9425.34
466.78	9355.12
466.96	9343.42
467.14	9769.40
467.32	9497.89
467.51	9748.33
467.69	9469.81
467.87	9612.58
468.05	9640.67
468.23	9664.07
468.41	9495.55
468.60	9713.22
468.78	10031.54
468.96	9654.71
469.14	9954.30
469.32	9895.78
469.50	9771.74
469.69	10045.58
469.87	10097.07
470.05	9872.38
470.23	10008.13
470.41	9832.59
470.59	10064.30
470.77	10125.16
470.95	10258.57
471.14	10289.00
471.32	10139.20
471.50	10483.26
471.68	10677.52
471.86	10672.84
472.04	10527.73
472.22	10635.39
472.40	10410.70
472.58	10541.77
472.77	10817.96
472.95	10813.28
473.13	10892.85
473.31	10705.61
473.49	10782.85
473.67	10764.12
473.85	10799.23
474.03	11147.97
474.21	11154.99
474.39	11023.92
474.57	11389.05
474.75	11293.08
474.93	11447.56
475.12	11281.38
475.30	11489.69
475.48	11372.66
475.66	11503.73
475.84	11590.33
476.02	11538.84
476.20	11353.94
476.38	11880.56
476.56	11941.41
476.74	12046.74
476.92	12044.40
477.10	12056.10
477.28	12107.59
477.46	12353.35
477.64	12477.40
477.82	12395.48
478.00	12807.41
478.18	12879.97
478.36	12622.51
478.54	12954.87
478.72	13043.81
478.90	13034.44
479.08	13179.56
479.26	13617.24
479.44	13329.35
479.62	13614.90
479.80	13642.98
479.98	13870.01
480.16	13968.32
480.34	13919.17
480.52	13809.16
480.70	13902.78
480.88	14092.37
481.06	14150.88
481.24	14359.19
481.41	14525.36
481.59	14855.38
481.77	14831.97
481.95	14450.47
482.13	14747.72
482.31	14918.57
482.49	15199.44
482.67	15229.87
482.85	15260.29
483.03	15456.90
483.21	15683.93
483.39	15548.18
483.57	15627.76
483.74	15882.88
483.92	16023.31
484.10	16018.63
484.28	16233.96
484.46	16269.06
484.64	16695.04
484.82	16334.60
485.00	16498.44
485.18	16725.47
485.35	16870.58
485.53	16491.41
485.71	16524.18
485.89	16540.57
486.07	16439.92
486.25	16886.97
486.43	17146.76
486.61	17401.88
486.78	17469.76
486.96	17841.90
487.14	17909.78
487.32	18057.23
487.50	18207.03
487.68	18429.38
487.85	18569.81
488.03	18979.40
488.21	18719.60
488.39	19185.37
488.57	19178.35
488.75	19187.71
488.92	19363.25
489.10	19454.53
489.28	20114.56
489.46	19903.92
489.64	20217.55
489.81	20617.78
489.99	20538.20
490.17	20891.62
490.35	20823.75
490.53	20989.92
490.70	20636.50
490.88	20491.39
491.06	21025.03
491.24	20823.75
491.41	20816.72
491.59	21656.98
491.77	21331.64
491.95	21266.11
492.13	21469.73
492.30	21963.59
492.48	21865.28
492.66	22300.62
492.84	22204.66
493.01	22583.83
493.19	22204.66
493.37	22466.80
493.54	22843.63
493.72	23234.50
493.90	23136.20
494.08	23253.22
494.25	23424.08
494.43	23646.43
494.61	23864.10
494.79	23845.38
494.96	23779.84
495.14	23819.63
495.32	24116.88
495.49	24198.80
495.67	24388.38
495.85	24458.60
496.02	24627.12
496.20	24774.57
496.38	25046.07
496.55	25010.96
496.73	25348.00
496.91	25163.10
497.09	25357.36
497.26	25722.49
497.44	25418.22
497.62	25369.07
497.79	26054.84
497.97	25736.53
498.14	25539.93
498.32	25720.15
498.50	25921.43
498.67	26551.04
498.85	26321.66
499.03	26691.47
499.20	26778.07
499.38	27108.08
499.56	26768.71
499.73	26876.37
499.91	26789.77
500.08	27030.85
500.26	26862.33
500.44	27351.50
500.61	27344.48
500.79	27077.66
500.97	27239.15
501.14	27803.22
501.32	27604.28
501.49	27693.22
501.67	27754.07
501.84	27618.32
502.02	27819.61
502.20	27997.49
502.37	28327.50
502.55	28170.69
502.72	28346.23
502.90	28779.23
503.07	28395.38
503.25	28556.88
503.43	28531.13
503.60	28734.76
503.78	28795.61
503.95	28833.06
504.13	29116.26
504.30	29315.21
504.48	29158.39
504.65	29259.04
504.83	29525.86
505.01	29310.53
505.18	29570.33
505.36	29900.34
505.53	30059.50
505.71	30253.76
505.88	29986.94
506.06	29717.78
506.23	30244.40
506.41	30127.38
506.58	30546.33
506.76	30583.78
506.93	30455.05
507.11	30293.55
507.28	30642.29
507.46	30445.69
507.63	30412.92
507.81	30705.49
507.98	30445.69
508.16	30703.15
508.33	31173.60
508.50	31117.42
508.68	31737.66
508.85	31512.97
509.03	31637.02
509.20	31548.08
509.38	31861.71
509.55	31777.45
509.73	31253.17
509.90	32173.00
510.08	31756.39
510.25	31903.84
510.42	32217.47
510.60	32088.74
510.77	32257.26
510.95	32790.91
511.12	32650.47
511.30	32245.56
511.47	33261.35
511.64	33027.30
511.82	33598.39
511.99	32868.14
512.17	32931.34
512.34	32559.19
512.51	33376.04
512.69	33373.70
512.86	33340.93
513.04	33116.24
513.21	33291.78
513.38	33425.19
513.56	33158.37
513.73	33268.37
513.90	33584.35
514.08	33488.38
514.25	33773.93
514.43	34026.71
514.60	34211.61
514.77	33998.62
514.95	34265.44
515.12	34026.71
515.29	34022.03
515.47	34536.94
515.64	34593.12
515.81	34635.25
515.99	34024.37
516.16	34359.06
516.33	33869.89
516.51	34712.49
516.68	33694.35
516.85	33787.97
517.03	33897.98
517.20	34834.19
517.37	34696.10
517.54	34841.21
517.72	34438.64
517.89	34312.25
518.06	34330.98
518.24	34632.91
518.41	34862.28
518.58	34934.84
518.75	34838.87
518.93	35372.52
519.10	35442.73
519.27	35599.55
519.45	35723.60
519.62	35681.47
519.79	35747.00
519.96	35871.05
520.14	36240.86
520.31	35962.33
520.48	36229.15
520.65	36254.90
520.83	36591.94
521.00	36568.53
521.17	36341.50
521.34	36549.81
521.52	36517.04
521.69	36912.59
521.86	36704.28
522.03	37027.28
522.20	37153.66
522.38	36987.49
522.55	36959.40
522.72	36793.22
522.89	37060.04
523.07	37305.80
523.24	37036.64
523.41	37691.99
523.58	37720.07
523.75	37521.13
523.92	37919.02
524.10	37851.14
524.27	37607.73
524.44	38113.28
524.61	38064.13
524.78	38106.26
524.96	38124.99
525.13	38022.00
525.30	38314.57
525.47	38611.82
525.64	38206.90
525.81	38012.64
525.98	38031.36
526.16	38216.27
526.33	38005.62
526.50	38150.73
526.67	37919.02
526.84	38164.78
527.01	38160.09
527.18	38087.54
527.36	38801.40
527.53	39311.64
527.70	38976.94
527.87	39138.44
528.04	39136.10
528.21	39480.16
528.38	39419.30
528.55	39660.38
528.72	39674.42
528.89	39470.79
529.07	39311.64
529.24	39555.05
529.41	39505.90
529.58	39391.22
529.75	39248.44
529.92	39578.46
530.09	39906.13
530.26	39763.36
530.43	39812.51
530.60	40086.36
530.77	39735.27
530.94	39915.50
531.11	39625.27
531.28	39985.71
531.46	40074.65
531.63	40421.05
531.80	40259.55
531.97	40041.88
532.14	40123.80
532.31	39672.08
532.48	40282.96
532.65	40116.78
532.82	40147.21
532.99	40081.67
533.16	40428.07
533.33	40339.13
533.50	40577.87
533.67	40676.17
533.84	40582.55
534.01	40416.37
534.18	40250.19
534.35	40924.27
534.52	40722.98
534.69	40919.59
534.86	41228.54
535.03	41226.20
535.20	41031.93
535.37	41783.24
535.54	41736.43
535.71	41125.55
535.88	41165.34
536.05	41216.83
536.22	41848.78
536.38	41691.96
536.55	41418.12
536.72	41523.44
536.89	41310.46
537.06	41675.58
537.23	41617.07
537.40	41284.71
537.57	41766.86
537.74	41977.51
537.91	42007.94
538.08	41918.99
538.25	41696.64
538.42	42153.05
538.59	41900.27
538.75	41832.39
538.92	41900.27
539.09	41883.89
539.26	41703.67
539.43	41860.48
539.60	41963.46
539.77	41855.80
539.94	41783.24
540.11	41823.03
540.28	42288.80
540.44	42307.52
540.61	42106.24
540.78	41493.02
540.95	42176.45
541.12	42146.03
541.29	42349.65
541.46	42307.52
541.62	42604.77
541.79	42529.87
541.96	42197.52
542.13	42412.85
542.30	42377.74
542.47	42564.98
542.63	42387.10
542.80	42909.04
542.97	43028.41
543.14	43246.08
543.31	42939.47
543.48	43325.66
543.64	43489.49
543.81	43938.88
543.98	43260.12
544.15	43316.29
544.32	43636.95
544.48	43908.45
544.65	43723.55
544.82	43599.50
544.99	43079.90
545.16	43276.51
545.32	43723.55
545.49	43889.73
545.66	44165.91
545.83	44020.80
546.00	44121.44
546.16	44055.90
546.33	43707.16
546.50	43529.28
546.67	44095.69
546.83	43395.87
547.00	43477.79
547.17	43746.95
547.34	43381.83
547.50	44041.86
547.67	44137.82
547.84	43927.17
548.00	44479.54
548.17	44088.67
548.34	44591.89
548.51	44189.31
548.67	44655.08
548.84	44608.27
549.01	44502.95
549.18	44449.11
549.34	44542.74
549.51	44367.20
549.68	44563.80
549.84	44287.62
550.01	44701.89
550.18	44556.78
550.34	44720.62
550.51	44795.51
550.68	44472.52
550.84	44257.19
551.01	44636.36
551.18	44563.80
551.34	44758.06
551.51	44652.74
551.68	44893.82
551.84	44645.72
552.01	44797.85
552.18	45027.23
552.34	44928.92
552.51	45015.52
552.68	45008.50
552.84	45038.93
553.01	44903.18
553.18	44914.88
553.34	44835.30
553.51	45071.70
553.67	45226.17
553.84	45485.97
554.01	45603.00
554.17	45633.42
554.34	45158.30
554.51	45350.22
554.67	45490.65
554.84	45474.27
555.00	45429.80
555.17	45434.48
555.33	45525.76
555.50	45525.76
555.67	45034.25
555.83	45308.09
556.00	45787.90
556.16	45890.88
556.33	45453.20
556.50	45184.04
556.66	45230.85
556.83	45106.80
556.99	45933.01
557.16	45539.80
557.32	45743.43
557.49	45769.18
557.65	45329.16
557.82	45565.55
557.98	45743.43
558.15	45177.02
558.32	45841.73
558.48	45638.11
558.65	45282.34
558.81	45902.59
558.98	45574.91
559.14	45539.80
559.31	45296.39
559.47	45975.14
559.64	46190.47
559.80	45958.76
559.97	45680.24
560.13	45350.22
560.30	45722.37
560.46	46061.74
560.63	45968.12
560.79	46007.91
560.96	46298.14
561.12	46071.10
561.29	46153.02
561.45	45862.80
561.61	45652.15
561.78	46019.61
561.94	45408.73
562.11	46253.67
562.27	46103.87
562.44	45970.46
562.60	45991.53
562.77	46354.31
562.93	46354.31
563.10	46113.23
563.26	45626.40
563.42	46499.42
563.59	45947.06
563.75	46621.13
563.92	46354.31
564.08	46136.64
564.24	46754.54
564.41	46106.21
564.57	46127.28
564.74	46258.35
564.90	46218.56
565.07	46485.38
565.23	46202.18
565.39	46272.39
565.56	46050.04
565.72	46323.88
565.88	46389.42
566.05	46424.53
566.21	46440.91
566.38	46094.51
566.54	46450.27
566.70	46815.40
566.87	46550.91
567.03	45937.69
567.19	47021.36
567.36	46532.19
567.52	46277.07
567.68	46656.24
567.85	46110.89
568.01	46611.77
568.17	45923.65
568.34	46131.96
568.50	46450.27
568.66	46258.35
568.83	46225.58
568.99	46096.85
569.15	46162.39
569.32	46429.21
569.48	46155.36
569.64	46583.68
569.81	46356.65
569.97	46148.34
570.13	46298.14
570.30	46284.09
570.46	46274.73
570.62	45965.78
570.78	45815.99
570.95	46265.37
571.11	46618.79
571.27	46490.06
571.43	46546.23
571.60	46092.17
571.76	46169.41
571.92	46408.14
572.09	46433.89
572.25	46836.46
572.41	46347.29
572.57	46295.80
572.74	46777.95
572.90	46986.25
573.06	46642.20
573.22	46810.71
573.38	46389.42
573.55	46251.33
573.71	46593.04
573.87	46469.00
574.03	46539.21
574.20	46850.50
574.36	46705.39
574.52	46808.37
574.68	46813.05
574.84	46553.26
575.01	46796.67
575.17	46674.96
575.33	46071.10
575.49	46384.74
575.65	46181.11
575.82	46649.22
575.98	46579.00
576.14	46944.12
576.30	46670.28
576.46	46625.81
576.62	46555.60
576.79	46848.16
576.95	46469.00
577.11	46658.58
577.27	46731.14
577.43	46969.87
577.59	46880.93
577.75	46459.63
577.92	46419.84
578.08	46536.87
578.24	46490.06
578.40	46504.10
578.56	46555.60
578.72	46408.14
578.88	46822.42
579.04	46698.37
579.21	46731.14
579.37	46646.88
579.53	46286.43
579.69	46557.94
579.85	46663.26
580.01	46717.09
580.17	46564.96
580.33	46983.91
580.49	46822.42
580.65	46869.23
580.82	46969.87
580.98	46476.02
581.14	46719.43
581.30	46616.45
581.46	46946.47
581.62	46749.86
581.78	46827.10
581.94	46838.80
582.10	46628.15
582.26	46871.57
582.42	47189.88
582.58	46813.05
582.74	46464.32
582.90	46590.70
583.06	46784.97
583.22	47257.76
583.38	47157.11
583.54	47100.94
583.70	47026.04
583.86	47166.48
584.02	46450.27
584.18	46719.43
584.34	46824.76
584.50	46951.15
584.66	46461.97
584.82	46576.66
584.98	47154.77
585.14	46958.17
585.30	46604.75
585.46	46885.61
585.62	46581.34
585.78	46738.16
585.94	45961.10
586.10	46480.70
586.26	46513.47
586.42	47356.06
586.58	46597.73
586.74	46930.08
586.90	47292.86
587.06	46808.37
587.22	46724.11
587.38	46326.22
587.54	46864.55
587.70	46665.60
587.86	46717.09
588.02	46478.36
588.18	46822.42
588.34	46911.36
588.49	46370.69
588.65	45806.62
588.81	46054.72
588.97	46225.58
589.13	46375.37
589.29	46312.18
589.45	46260.69
589.61	46686.67
589.77	46096.85
589.93	46609.43
