SpectraSuite Data File
++++++++++++++++++++++++++++++++++++
Date: Fri Oct 25 11:26:29 EDT 2013
User: price-jones
Dark Spectrum Present: No
Reference Spectrum Present: No
Number of Sampled Component Spectra: 1
Spectrometers: USB2+H05261
Integration Time (usec): 100000 (USB2+H05261)
Spectra Averaged: 1 (USB2+H05261)
Boxcar Smoothing: 0 (USB2+H05261)
Correct for Electrical Dark: No (USB2+H05261)
Strobe/Lamp Enabled: No (USB2+H05261)
Correct for Detector Non-linearity: No (USB2+H05261)
Correct for Stray Light: No (USB2+H05261)
Number of Pixels in Processed Spectrum: 2048
>>>>>Begin Processed Spectral Data<<<<<
365.73	241.08
365.92	241.08
366.12	241.08
366.32	227.03
366.52	128.73
366.72	154.48
366.91	166.18
367.11	140.43
367.31	95.96
367.51	110.01
367.70	102.98
367.90	124.05
368.10	159.16
368.30	149.79
368.49	173.20
368.69	191.92
368.89	231.71
369.09	105.32
369.28	196.60
369.48	177.88
369.68	203.63
369.87	182.56
370.07	255.12
370.27	231.71
370.47	339.38
370.66	540.66
370.86	589.82
371.06	718.54
371.25	671.73
371.45	622.58
371.65	594.50
371.84	713.86
372.04	711.52
372.24	760.67
372.44	755.99
372.63	678.76
372.83	781.74
373.03	791.10
373.22	660.03
373.42	828.55
373.62	777.06
373.81	805.14
374.01	854.30
374.21	844.93
374.40	793.44
374.60	854.30
374.79	847.27
374.99	840.25
375.19	791.10
375.38	894.08
375.58	858.98
375.78	926.85
375.97	805.14
376.17	891.74
376.37	961.96
376.56	894.08
376.76	912.81
376.95	849.61
377.15	823.87
377.35	901.11
377.54	943.24
377.74	903.45
377.93	917.49
378.13	940.90
378.33	976.00
378.52	903.45
378.72	1025.15
378.91	929.19
379.11	957.28
379.31	926.85
379.50	917.49
379.70	968.98
379.89	952.60
380.09	1015.79
380.28	1064.94
380.48	964.30
380.68	1018.13
380.87	924.51
381.07	1001.75
381.26	990.05
381.46	1043.88
381.65	1006.43
381.85	1032.18
382.04	1013.45
382.24	1109.41
382.43	997.07
382.63	1116.44
382.83	1151.54
383.02	1107.07
383.22	1081.33
383.41	1041.54
383.61	1137.50
383.80	1142.18
384.00	1135.16
384.19	1060.26
384.39	1093.03
384.58	1055.58
384.78	1062.60
384.97	1191.33
385.17	1158.57
385.36	1095.37
385.56	1137.50
385.75	1249.85
385.95	1284.95
386.14	1210.06
386.34	1198.35
386.53	1172.61
386.72	1228.78
386.92	1198.35
387.11	1247.51
387.31	1242.82
387.50	1291.98
387.70	1219.42
387.89	1296.66
388.09	1163.25
388.28	1245.16
388.48	1357.51
388.67	1387.94
388.86	1352.83
389.06	1221.76
389.25	1352.83
389.45	1348.15
389.64	1334.11
389.84	1453.47
390.03	1455.81
390.22	1390.28
390.42	1376.24
390.61	1324.74
390.81	1373.89
391.00	1444.11
391.19	1397.30
391.39	1411.34
391.58	1535.39
391.78	1483.90
391.97	1439.43
392.16	1460.49
392.36	1521.35
392.55	1497.94
392.75	1554.12
392.94	1507.30
393.13	1530.71
393.33	1521.35
393.52	1493.26
393.71	1469.86
393.91	1600.93
394.10	1561.14
394.29	1516.67
394.49	1584.54
394.68	1638.38
394.88	1701.57
395.07	1621.99
395.26	1692.21
395.46	1657.10
395.65	1729.66
395.84	1668.80
396.04	1799.87
396.23	1673.48
396.42	1767.10
396.62	1811.57
396.81	1902.86
397.00	1746.04
397.19	1750.72
397.39	1839.66
397.58	1809.23
397.77	1785.83
397.97	1851.36
398.16	1785.83
398.35	1966.05
398.55	1937.96
398.74	1923.92
398.93	1888.81
399.12	1928.60
399.32	1881.79
399.51	1954.35
399.70	1937.96
399.90	1902.86
400.09	1959.03
400.28	1944.99
400.47	1956.69
400.67	2029.24
400.86	1954.35
401.05	2050.31
401.24	2087.76
401.44	2071.37
401.63	2073.71
401.82	2094.78
402.01	2139.25
402.21	2001.16
402.40	2209.47
402.59	2251.60
402.78	2183.72
402.97	2296.07
403.17	2204.78
403.36	2197.76
403.55	2246.91
403.74	2345.22
403.93	2396.71
404.13	2312.45
404.32	2291.38
404.51	2401.39
404.70	2422.45
404.89	2366.28
405.09	2462.24
405.28	2366.28
405.47	2422.45
405.66	2413.09
405.85	2396.71
406.05	2457.56
406.24	2612.04
406.43	2541.82
406.62	2600.34
406.81	2668.21
407.00	2623.74
407.20	2668.21
407.39	2520.76
407.58	2637.78
407.77	2710.34
407.96	2743.11
408.15	2764.17
408.34	2719.70
408.54	2764.17
408.73	2651.83
408.92	2801.62
409.11	2745.45
409.30	2794.60
409.49	2850.77
409.68	2956.10
409.87	2822.69
410.07	2963.12
410.26	2958.44
410.45	3028.65
410.64	2942.05
410.83	3042.70
411.02	2939.71
411.21	3178.45
411.40	3073.12
411.59	3358.67
411.78	3068.44
411.98	3119.93
412.17	3318.88
412.36	3187.81
412.55	3255.69
412.74	3323.56
412.93	3405.48
413.12	3351.65
413.31	3543.57
413.50	3452.29
413.69	3480.38
413.88	3496.76
414.07	3595.06
414.26	3698.05
414.45	3620.81
414.64	3583.36
414.83	3810.39
415.02	3747.20
415.22	3894.65
415.41	3901.67
415.60	3775.28
415.79	3817.41
415.98	3892.31
416.17	3922.74
416.36	3953.16
416.55	4016.36
416.74	4074.87
416.93	3852.52
417.12	4016.36
417.31	4135.73
417.50	4128.70
417.69	4243.39
417.88	4208.28
418.07	4259.78
418.26	4449.36
418.45	4271.48
418.64	4479.79
418.83	4353.40
419.02	4219.99
419.21	4571.07
419.39	4507.87
419.58	4496.17
419.77	4437.66
419.96	4465.74
420.15	4617.88
420.34	4592.13
420.53	4503.19
420.72	4624.90
420.91	4760.65
421.10	4641.28
421.29	4662.35
421.48	4667.03
421.67	4723.20
421.86	4603.83
422.05	4692.77
422.24	4685.75
422.43	4739.58
422.61	4905.76
422.80	4966.62
422.99	4746.61
423.18	5018.11
423.37	4873.00
423.56	4854.27
423.75	4793.42
423.94	4889.38
424.13	4540.64
424.32	4751.29
424.50	4983.00
424.69	5114.07
424.88	5015.77
425.07	4877.68
425.26	4814.48
425.45	4805.12
425.64	4861.29
425.83	4833.21
426.01	5015.77
426.20	4865.97
426.39	4968.96
426.58	5008.75
426.77	4999.38
426.96	5165.56
427.15	5071.94
427.33	5093.01
427.52	5041.51
427.71	5287.27
427.90	5268.55
428.09	5280.25
428.28	5268.55
428.46	5352.81
428.65	5369.19
428.84	5371.53
429.03	5476.85
429.22	5334.08
429.40	5390.25
429.59	5434.72
429.78	5352.81
429.97	5259.18
430.16	5406.64
430.34	5544.73
430.53	5458.13
430.72	5734.31
430.91	5603.24
431.10	5703.89
431.28	5708.57
431.47	5731.97
431.66	5788.14
431.85	5792.83
432.03	6029.22
432.22	5968.37
432.41	5874.74
432.60	5914.53
432.79	5870.06
432.97	6001.13
433.16	5905.17
433.35	5926.24
433.54	6052.63
433.72	6150.93
433.91	6125.18
434.10	6003.47
434.28	5973.05
434.47	6108.80
434.66	6115.82
434.85	6171.99
435.03	6242.21
435.22	6274.98
435.41	6338.17
435.59	6406.05
435.78	6541.80
435.97	6452.86
436.16	6319.45
436.34	6359.24
436.53	6410.73
436.72	6558.18
436.90	6516.05
437.09	6373.28
437.28	6413.07
437.46	6473.92
437.65	6616.69
437.84	6743.08
438.02	6698.61
438.21	6736.06
438.40	6558.18
438.58	6949.05
438.77	6878.83
438.96	6881.18
439.14	7152.68
439.33	6972.46
439.52	7183.10
439.70	7143.32
439.89	7360.98
440.08	7316.51
440.26	7489.71
440.45	7185.44
440.63	7166.72
440.82	7405.46
441.01	7407.80
441.19	7620.78
441.38	7585.68
441.57	7779.94
441.75	7581.00
441.94	7793.98
442.12	7730.79
442.31	7875.90
442.50	8058.46
442.68	8006.97
442.87	7939.10
443.05	7927.39
443.24	8152.09
443.43	8259.75
443.61	8180.17
443.80	8250.39
443.98	8013.99
444.17	7999.95
444.35	8264.43
444.54	8053.78
444.73	8271.45
444.91	8205.92
445.10	8210.60
445.28	8416.57
445.47	8107.62
445.65	8402.52
445.84	8446.99
446.02	8329.97
446.21	8322.94
446.39	8442.31
446.58	8521.89
446.77	8271.45
446.95	8229.32
447.14	8255.07
447.32	8428.27
447.51	8297.20
447.69	8512.53
447.88	8559.34
448.06	8564.02
448.25	8388.48
448.43	8437.63
448.62	8423.59
448.80	8489.12
448.99	8573.38
449.17	8870.63
449.36	8631.90
449.54	8784.03
449.73	8854.25
449.91	8931.48
450.10	8711.47
450.28	8912.76
450.46	8830.84
450.65	8830.84
450.83	8992.34
451.02	9057.87
451.20	9046.17
451.39	9167.88
451.57	9046.17
451.76	8938.51
451.94	9142.13
452.13	9247.46
452.31	9146.81
452.49	9027.45
452.68	9357.46
452.86	9331.72
453.05	9291.93
453.23	9205.33
453.42	9268.52
453.60	9275.54
453.78	9296.61
453.97	9221.71
454.15	9378.53
454.34	9338.74
454.52	9542.36
454.70	9710.88
454.89	9654.71
455.07	9678.12
455.26	9645.35
455.44	9734.29
455.62	9762.37
455.81	10040.90
455.99	9879.40
456.17	10031.54
456.36	9820.89
456.54	10033.88
456.73	10415.38
456.91	10284.31
457.09	10200.05
457.28	10359.21
457.46	10272.61
457.64	10441.13
457.83	10525.39
458.01	10270.27
458.19	10881.15
458.38	10565.18
458.56	10635.39
458.74	10651.78
458.93	10520.71
459.11	10665.82
459.29	10523.05
459.48	10654.12
459.66	10595.61
459.84	10829.66
460.03	10963.07
460.21	10860.09
460.39	10808.59
460.57	10773.49
460.76	11037.97
460.94	11157.33
461.12	11145.63
461.31	11140.95
461.49	10892.85
461.67	11171.38
461.85	11367.98
462.04	11133.93
462.22	11796.30
462.40	11269.68
462.59	11349.26
462.77	11330.53
462.95	11555.22
463.13	11407.77
463.32	11609.06
463.50	11690.98
463.68	11644.17
463.86	11726.08
464.05	11543.52
464.23	11634.80
464.41	11866.52
464.59	11552.88
464.78	12028.01
464.96	11819.71
465.14	11580.97
465.32	11976.52
465.50	12107.59
465.69	11955.46
465.87	11903.96
466.05	12142.70
466.23	12102.91
466.41	12147.38
466.60	12346.33
466.78	12114.61
466.96	12072.48
467.14	12067.80
467.32	12280.79
467.51	12444.63
467.69	12095.89
467.87	12196.53
468.05	12564.00
468.23	12203.55
468.41	12388.46
468.60	12463.35
468.78	12594.42
468.96	12601.44
469.14	12496.12
469.32	12865.92
469.50	12456.33
469.69	12896.35
469.87	13069.55
470.05	13001.68
470.23	12987.63
470.41	13160.83
470.59	13219.35
470.77	12898.69
470.95	12968.91
471.14	13504.89
471.32	13064.87
471.50	13422.97
471.68	13408.93
471.86	13535.32
472.04	13701.50
472.22	14083.00
472.40	13666.39
472.58	13687.45
472.77	13933.21
472.95	14022.15
473.13	14480.89
473.31	13509.57
473.49	13930.87
473.67	13921.51
473.85	14190.67
474.03	14508.98
474.21	14455.15
474.39	14562.81
474.57	14569.83
474.75	14747.72
474.93	14895.17
475.12	14871.76
475.30	14810.91
475.48	14899.85
475.66	15208.80
475.84	14995.81
476.02	15426.47
476.20	15190.08
476.38	15550.52
476.56	15843.09
476.74	15990.54
476.92	15700.31
477.10	15527.11
477.28	15803.30
477.46	15967.13
477.64	16006.92
477.82	16273.74
478.00	16746.53
478.18	16720.79
478.36	16851.86
478.54	17029.74
478.72	16905.69
478.90	17362.09
479.08	17280.18
479.26	17624.23
479.44	17563.38
479.62	17715.51
479.80	18052.55
479.98	17898.08
480.16	18504.28
480.34	18129.79
480.52	18258.52
480.70	18457.46
480.88	18291.29
481.06	18740.67
481.24	18815.57
481.41	19000.47
481.59	18911.53
481.77	19300.06
481.95	19426.45
482.13	19716.67
482.31	19599.65
482.49	20067.75
482.67	19978.81
482.85	20341.60
483.03	20460.96
483.21	20746.51
483.39	20844.81
483.57	20514.80
483.74	20879.92
483.92	21149.08
484.10	21233.34
484.28	21827.84
484.46	22223.39
484.64	21970.61
484.82	21898.05
485.00	22120.40
485.18	22544.04
485.35	22731.28
485.53	22700.86
485.71	22672.77
485.89	23349.18
486.07	23070.66
486.25	23260.24
486.43	23314.08
486.61	23716.65
486.78	23484.94
486.96	23939.00
487.14	24629.46
487.32	24711.38
487.50	24828.40
487.68	24788.61
487.85	24584.99
488.03	25427.58
488.21	25553.97
488.39	25448.64
488.57	25628.87
488.75	25881.64
488.92	26324.01
489.10	26384.86
489.28	26492.52
489.46	26930.20
489.64	26499.55
489.81	27456.82
489.99	27386.61
490.17	27597.26
490.35	27885.14
490.53	28180.05
490.70	28325.16
490.88	28116.86
491.06	28594.32
491.24	28650.50
491.41	29177.12
491.59	28931.36
491.77	29095.20
491.95	29153.71
492.13	29472.03
492.30	29888.64
492.48	29680.33
492.66	30033.75
492.84	30064.18
493.01	30565.06
493.19	30558.03
493.37	30632.93
493.54	31110.40
493.72	31372.54
493.90	31494.25
494.08	31391.26
494.25	31557.44
494.43	31496.59
494.61	31707.24
494.79	31861.71
494.96	31775.11
495.14	32716.01
495.32	32493.66
495.49	32800.27
495.67	33193.48
495.85	33333.91
496.02	33432.21
496.20	33958.83
496.38	33486.04
496.55	34195.23
496.73	34834.19
496.91	33942.45
497.09	34398.85
497.26	34611.84
497.44	34508.86
497.62	35110.38
497.79	35367.84
497.97	35002.71
498.14	35590.19
498.32	35995.10
498.50	36297.03
498.67	36044.25
498.85	35997.44
499.03	36315.75
499.20	36334.48
499.38	36388.31
499.56	36917.27
499.73	36718.32
499.91	37244.94
500.08	37593.68
500.26	37038.98
500.44	37294.10
500.61	37441.55
500.79	37631.13
500.97	37869.87
501.14	38345.00
501.32	38328.61
501.49	38244.35
501.67	38307.55
501.84	38279.46
502.02	38567.35
502.20	38866.94
502.37	39079.92
502.55	38866.94
502.72	38927.79
502.90	39000.35
503.07	39012.05
503.25	39250.78
503.43	39662.72
503.60	39866.34
503.78	40093.38
503.95	39672.08
504.13	40088.70
504.30	40594.25
504.48	39964.65
504.65	40814.26
504.83	40797.88
505.01	40758.09
505.18	40477.22
505.36	41003.85
505.53	41163.00
505.71	41343.22
505.88	41542.17
506.06	41127.89
506.23	41844.10
506.41	41296.41
506.58	41570.25
506.76	42108.58
506.93	42220.92
507.11	42153.05
507.28	42347.31
507.46	42447.96
507.63	42696.05
507.81	43012.02
507.98	42829.46
508.16	43068.20
508.33	42794.36
508.50	43117.35
508.68	43358.42
508.85	43262.46
509.03	43405.23
509.20	43524.60
509.38	44172.93
509.55	43971.64
509.73	44140.16
509.90	44341.45
510.08	44105.06
510.25	44226.76
510.42	44402.30
510.60	44526.35
510.77	44322.72
510.95	45071.70
511.12	44708.91
511.30	45155.96
511.47	45427.46
511.64	45022.54
511.82	45411.07
511.99	45144.25
512.17	45820.67
512.34	45546.82
512.51	45968.12
512.69	46237.28
512.86	45815.99
513.04	46174.09
513.21	46199.83
513.38	46567.30
513.56	46471.34
513.73	46625.81
513.90	46593.04
514.08	46494.74
514.25	46815.40
514.43	47271.80
514.60	46953.49
514.77	47166.48
514.95	47695.44
515.12	47210.95
515.29	47515.22
515.47	47608.84
515.64	48058.22
515.81	47540.96
515.99	47889.70
516.16	48126.10
516.33	47997.37
516.51	48364.83
516.68	48392.92
516.85	48196.31
517.03	48893.79
517.20	48472.49
517.37	48531.01
517.54	48598.88
517.72	48332.06
517.89	48973.37
518.06	49106.78
518.24	48758.04
518.41	48945.28
518.58	48732.29
518.75	48727.61
518.93	49331.47
519.10	49141.89
519.27	49387.64
519.45	49284.66
519.62	49408.71
519.79	49883.84
519.96	49602.97
520.14	50042.99
520.31	49921.29
520.48	49930.65
520.65	50101.51
520.83	50368.33
521.00	50344.92
521.17	50199.81
521.34	50492.38
521.52	50843.46
521.69	50806.01
521.86	50562.59
522.03	50504.08
522.20	51105.60
522.38	51126.66
522.55	51000.27
522.72	51143.05
522.89	50841.12
523.07	51243.69
523.24	51281.14
523.41	51281.14
523.58	51217.94
523.75	51772.65
523.92	51402.85
524.10	51875.63
524.27	51906.06
524.44	51943.51
524.61	51983.30
524.78	51873.29
524.96	51917.76
525.13	51917.76
525.30	51985.64
525.47	52257.14
525.64	52266.50
525.81	52832.91
525.98	52416.30
526.16	52413.96
526.33	52395.23
526.50	52783.76
526.67	52411.62
526.84	52896.11
527.01	52945.26
527.18	52662.05
527.36	52758.02
527.53	52863.34
527.70	53162.93
527.87	53073.99
528.04	52973.34
528.21	53031.86
528.38	53406.34
528.55	53434.43
528.72	53240.17
528.89	53289.32
529.07	53116.12
529.24	52978.03
529.41	53488.26
529.58	53525.71
529.75	53036.54
529.92	53443.79
530.09	53677.85
530.26	53638.06
530.43	53841.68
530.60	53600.61
530.77	53708.27
530.94	54082.76
531.11	53865.09
531.28	53822.96
531.46	53984.46
531.63	54157.66
531.80	54080.42
531.97	54031.27
532.14	54340.22
532.31	54185.74
532.48	54375.33
532.65	54270.00
532.82	54293.41
532.99	54169.36
533.16	54258.30
533.33	54522.78
533.50	54621.08
533.67	54450.22
533.84	54534.48
534.01	54578.95
534.18	54665.55
534.35	55011.95
534.52	54754.49
534.69	55112.59
534.86	54967.48
535.03	54745.13
535.20	54906.63
535.37	55075.15
535.54	55164.09
535.71	54946.42
535.88	55391.12
536.05	55187.49
536.22	55487.08
536.38	55426.23
536.55	55117.28
536.72	55309.20
536.89	55231.96
537.06	55386.44
537.23	55597.09
537.40	55377.08
537.57	55470.70
537.74	55496.44
537.91	55702.41
538.08	55721.13
538.25	55805.39
538.42	55760.92
538.59	56100.30
538.75	55798.37
538.92	55751.56
539.09	55763.26
539.26	55749.22
539.43	56030.08
539.60	56018.38
539.77	55983.27
539.94	56184.56
540.11	56198.60
540.28	55943.48
540.44	56161.15
540.61	56322.65
540.78	56177.54
540.95	56224.35
541.12	56292.22
541.29	56156.47
541.46	56285.20
541.62	56395.21
541.79	56261.80
541.96	56388.19
542.13	56346.06
542.30	56530.96
542.47	56577.77
542.63	56699.48
542.80	56500.53
542.97	57057.58
543.14	57240.14
543.31	56924.17
543.48	56970.98
543.64	57095.03
543.81	57188.65
543.98	57052.90
544.15	57219.08
544.32	57223.76
544.48	57478.88
544.65	57118.43
544.82	57088.01
544.99	57006.09
545.16	57455.47
545.32	57092.69
545.49	57476.54
545.66	57471.85
545.83	57268.23
546.00	57675.48
546.16	57588.88
546.33	57275.25
546.50	57270.57
546.67	57488.24
546.83	57364.19
547.00	57698.89
547.17	57401.64
547.34	57558.45
547.50	57593.56
547.67	57755.06
547.84	57600.58
548.00	58064.01
548.17	57790.17
548.34	57825.28
548.51	58033.58
548.67	57991.45
548.84	57815.91
549.01	57897.83
549.18	58080.39
549.34	58061.67
549.51	58031.24
549.68	58253.59
549.84	58237.21
550.01	58209.12
550.18	58141.25
550.34	58312.11
550.51	58192.74
550.68	58089.76
550.84	58071.03
551.01	58330.83
551.18	58239.55
551.34	58515.73
551.51	58370.62
551.68	58300.40
551.84	58379.98
552.01	58422.11
552.18	58379.98
552.34	58422.11
552.51	58471.26
552.68	58300.40
552.84	58621.06
553.01	58979.16
553.18	58408.07
553.34	58656.17
553.51	58302.74
553.67	58658.51
553.84	58852.77
554.01	58899.58
554.17	58869.15
554.34	58890.22
554.51	58658.51
554.67	58871.49
554.84	58714.68
555.00	58777.87
555.17	58822.34
555.33	58798.94
555.50	58822.34
555.67	58951.07
555.83	58768.51
556.00	58815.32
556.16	59192.15
556.33	58976.82
556.50	58866.81
556.66	59297.47
556.83	59037.67
556.99	59241.30
557.16	59269.39
557.32	59344.28
557.49	59377.05
557.65	59018.95
557.82	59332.58
557.98	59224.92
558.15	59016.61
558.32	59536.21
558.48	59405.14
558.65	59236.62
558.81	59257.68
558.98	59208.53
559.14	59489.40
559.31	59360.67
559.47	59243.64
559.64	59470.67
559.80	59465.99
559.97	59440.24
560.13	59531.53
560.30	59618.13
560.46	59547.91
560.63	59709.41
560.79	59447.27
560.96	59496.42
561.12	59695.36
561.29	59538.55
561.45	59568.97
561.61	59686.00
561.78	59554.93
561.94	59700.04
562.11	59643.87
562.27	59669.62
562.44	59922.40
562.60	59945.80
562.77	59866.22
562.93	59515.14
563.10	59821.75
563.26	59828.77
563.42	60069.85
563.59	59737.49
563.75	59674.30
563.92	59676.64
564.08	59737.49
564.24	60184.54
564.41	59992.61
564.57	60023.04
564.74	60149.43
564.90	59891.97
565.07	59966.87
565.23	59962.18
565.39	59880.27
565.56	60140.07
565.72	59976.23
565.88	59903.67
566.05	60282.84
566.21	60142.41
566.38	59840.48
566.54	60200.92
566.70	60154.11
566.87	60301.56
567.03	59814.73
567.19	60191.56
567.36	60030.06
567.52	59950.48
567.68	60324.97
567.85	60147.09
568.01	60123.68
568.17	60119.00
568.34	60346.03
568.50	60032.40
568.66	59901.33
568.83	60306.24
568.99	60142.41
569.15	60364.76
569.32	60137.72
569.48	60154.11
569.64	60371.78
569.81	60175.17
569.97	60062.83
570.13	60233.69
570.30	60060.49
570.46	60240.71
570.62	60390.50
570.78	60341.35
570.95	60088.57
571.11	60425.61
571.27	60287.52
571.43	60273.48
571.60	60397.52
571.76	60278.16
571.92	60449.02
572.09	60418.59
572.25	60423.27
572.41	60416.25
572.57	60495.83
572.74	60427.95
572.90	60397.52
573.06	60357.74
573.22	60519.23
573.38	60420.93
573.55	60296.88
573.71	60612.85
573.87	60479.44
574.03	60474.76
574.20	60793.07
574.36	60329.65
574.52	60477.10
574.68	60514.55
574.84	60512.21
575.01	60659.66
575.17	60549.66
575.33	60463.06
575.49	60477.10
575.65	60617.53
575.82	60783.71
575.98	60559.02
576.14	60690.09
576.30	60505.19
576.46	60505.19
576.62	60547.32
576.79	60706.47
576.95	60500.51
577.11	60427.95
577.27	60570.72
577.43	60584.77
577.59	60434.97
577.75	60453.70
577.92	60409.23
578.08	60530.93
578.24	60692.43
578.40	60654.98
578.56	60619.88
578.72	60687.75
578.88	60816.48
579.04	60886.70
579.21	60659.66
579.37	60753.29
579.53	60666.69
579.69	60570.72
579.85	60512.21
580.01	60736.90
580.17	60336.67
580.33	60849.25
580.49	60905.42
580.65	60856.27
580.82	60612.85
580.98	60327.31
581.14	60678.39
581.30	60872.65
581.46	60795.42
581.62	60645.62
581.78	60654.98
581.94	60753.29
582.10	60687.75
582.26	60568.38
582.42	60690.09
582.58	60676.05
582.74	60727.54
582.90	60711.16
583.06	60629.24
583.22	60582.43
583.38	60762.65
583.54	60582.43
583.70	60746.26
583.86	60996.70
584.02	60762.65
584.18	60790.73
584.34	60828.18
584.50	60900.74
584.66	60594.13
584.82	60589.45
584.98	61050.53
585.14	60769.67
585.30	60491.15
585.46	60935.85
585.62	60872.65
585.78	60928.83
585.94	60619.88
586.10	60755.63
586.26	60977.98
586.42	60879.67
586.58	60905.42
586.74	60919.46
586.90	60680.73
587.06	60844.57
587.22	61029.47
587.38	60713.50
587.54	60977.98
587.70	61118.41
587.86	60804.78
588.02	60807.12
588.18	60987.34
588.34	61008.40
588.49	60987.34
