SpectraSuite Data File
++++++++++++++++++++++++++++++++++++
Date: Fri Oct 25 11:25:45 EDT 2013
User: price-jones
Dark Spectrum Present: No
Reference Spectrum Present: No
Number of Sampled Component Spectra: 1
Spectrometers: USB2+H05261
Integration Time (usec): 100000 (USB2+H05261)
Spectra Averaged: 1 (USB2+H05261)
Boxcar Smoothing: 0 (USB2+H05261)
Correct for Electrical Dark: No (USB2+H05261)
Strobe/Lamp Enabled: No (USB2+H05261)
Correct for Detector Non-linearity: No (USB2+H05261)
Correct for Stray Light: No (USB2+H05261)
Number of Pixels in Processed Spectrum: 2048
>>>>>Begin Processed Spectral Data<<<<<
365.73	257.46
365.92	257.46
366.12	257.46
366.32	121.71
366.52	135.75
366.72	161.50
366.91	135.75
367.11	119.37
367.31	95.96
367.51	138.09
367.70	187.24
367.90	175.54
368.10	102.98
368.30	126.39
368.49	133.41
368.69	177.88
368.89	182.56
369.09	135.75
369.28	152.13
369.48	128.73
369.68	196.60
369.87	177.88
370.07	198.95
370.27	297.25
370.47	280.86
370.66	596.84
370.86	622.58
371.06	601.52
371.25	774.72
371.45	704.50
371.65	606.20
371.84	695.14
372.04	667.05
372.24	739.61
372.44	786.42
372.63	713.86
372.83	737.27
373.03	704.50
373.22	760.67
373.42	748.97
373.62	868.34
373.81	786.42
374.01	830.89
374.21	830.89
374.40	791.10
374.60	823.87
374.79	791.10
374.99	830.89
375.19	884.72
375.38	908.13
375.58	828.55
375.78	823.87
375.97	814.51
376.17	917.49
376.37	952.60
376.56	840.25
376.76	936.21
376.95	882.38
377.15	894.08
377.35	884.72
377.54	917.49
377.74	910.47
377.93	896.43
378.13	1015.79
378.33	950.26
378.52	922.17
378.72	933.87
378.91	957.28
379.11	931.53
379.31	912.81
379.50	889.40
379.70	1036.86
379.89	1006.43
380.09	997.07
380.28	1006.43
380.48	910.47
380.68	959.62
380.87	978.34
381.07	1013.45
381.26	1015.79
381.46	1046.22
381.65	980.68
381.85	1011.11
382.04	968.98
382.24	1104.73
382.43	1144.52
382.63	971.32
382.83	1055.58
383.02	1179.63
383.22	1093.03
383.41	1163.25
383.61	1086.01
383.80	1156.22
384.00	1055.58
384.19	1214.74
384.39	1170.27
384.58	1200.69
384.78	1158.57
384.97	1139.84
385.17	1210.06
385.36	1156.22
385.56	1238.14
385.75	1144.52
385.95	1128.14
386.14	1188.99
386.34	1228.78
386.53	1090.69
386.72	1231.12
386.92	1291.98
387.11	1249.85
387.31	1275.59
387.50	1287.29
387.70	1364.53
387.89	1317.72
388.09	1205.38
388.28	1252.19
388.48	1217.08
388.67	1324.74
388.86	1266.23
389.06	1228.78
389.25	1430.07
389.45	1411.34
389.64	1221.76
389.84	1350.49
390.03	1399.64
390.22	1448.79
390.42	1376.24
390.61	1401.98
390.81	1266.23
391.00	1441.77
391.19	1474.54
391.39	1502.62
391.58	1507.30
391.78	1472.20
391.97	1467.52
392.16	1444.11
392.36	1509.65
392.55	1561.14
392.75	1444.11
392.94	1523.69
393.13	1476.88
393.33	1579.86
393.52	1500.28
393.71	1526.03
393.91	1661.78
394.10	1589.22
394.29	1526.03
394.49	1535.39
394.68	1626.67
394.88	1526.03
395.07	1797.53
395.26	1696.89
395.46	1781.15
395.65	1753.06
395.84	1722.63
396.04	1724.97
396.23	1746.04
396.42	1788.17
396.62	1748.38
396.81	1771.79
397.00	1795.19
397.19	1827.96
397.39	1849.02
397.58	1757.74
397.77	1816.26
397.97	1863.07
398.16	1884.13
398.35	1912.22
398.55	1872.43
398.74	1947.33
398.93	1956.69
399.12	1839.66
399.32	1881.79
399.51	2012.86
399.70	2054.99
399.90	1980.09
400.09	1952.01
400.28	2097.12
400.47	2033.93
400.67	2050.31
400.86	2054.99
401.05	1996.48
401.24	1963.71
401.44	2069.03
401.63	2169.68
401.82	2033.93
402.01	2136.91
402.21	2167.34
402.40	2242.23
402.59	2296.07
402.78	2202.44
402.97	2242.23
403.17	2258.62
403.36	2298.41
403.55	2270.32
403.74	2333.51
403.93	2275.00
404.13	2352.24
404.32	2413.09
404.51	2401.39
404.70	2321.81
404.89	2300.75
405.09	2469.27
405.28	2431.82
405.47	2469.27
405.66	2403.73
405.85	2333.51
406.05	2441.18
406.24	2523.10
406.43	2658.85
406.62	2712.68
406.81	2642.46
407.00	2600.34
407.20	2518.42
407.39	2609.70
407.58	2590.97
407.77	2679.91
407.96	2764.17
408.15	2789.92
408.34	2745.45
408.54	2775.88
408.73	2803.96
408.92	2778.22
409.11	2904.60
409.30	2829.71
409.49	2761.83
409.68	2911.63
409.87	2970.14
410.07	2897.58
410.26	2977.16
410.45	2993.55
410.64	2932.69
410.83	3068.44
411.02	3054.40
411.21	3236.96
411.40	3089.51
411.59	3288.45
411.78	3253.34
411.98	3183.13
412.17	3131.64
412.36	3330.58
412.55	3447.61
412.74	3442.93
412.93	3335.26
413.12	3393.78
413.31	3454.63
413.50	3562.30
413.69	3492.08
413.88	3534.21
414.07	3662.94
414.26	3576.34
414.45	3548.25
414.64	3747.20
414.83	3791.67
415.02	3775.28
415.22	3817.41
415.41	3794.01
415.60	3911.04
415.79	3915.72
415.98	3878.27
416.17	3913.38
416.36	4032.74
416.55	3992.95
416.74	4074.87
416.93	4046.79
417.12	4189.56
417.31	4145.09
417.50	4241.05
417.69	4262.12
417.88	4318.29
418.07	4402.55
418.26	4219.99
418.45	4320.63
418.64	4418.93
418.83	4451.70
419.02	4425.95
419.21	4435.32
419.39	4477.44
419.58	4416.59
419.77	4308.93
419.96	4470.42
420.15	4507.87
420.34	4578.09
420.53	4568.73
420.72	4638.94
420.91	4542.98
421.10	4732.56
421.29	4765.33
421.48	4596.81
421.67	4786.40
421.86	4807.46
422.05	4854.27
422.24	4601.49
422.43	4952.57
422.61	4765.33
422.80	4844.91
422.99	4760.65
423.18	4931.51
423.37	4980.66
423.56	4896.40
423.75	4931.51
423.94	4933.85
424.13	4531.28
424.32	4784.06
424.50	5004.07
424.69	5177.26
424.88	5130.45
425.07	4933.85
425.26	4737.24
425.45	4898.74
425.64	4880.02
425.83	4847.25
426.01	5111.73
426.20	5006.41
426.39	4964.28
426.58	4994.70
426.77	5071.94
426.96	5273.23
427.15	5071.94
427.33	5170.24
427.52	5013.43
427.71	5107.05
427.90	5301.31
428.09	5308.34
428.28	5249.82
428.46	5352.81
428.65	5275.57
428.84	5465.15
429.03	5366.85
429.22	5380.89
429.40	5247.48
429.59	5474.51
429.78	5315.36
429.97	5240.46
430.16	5528.35
430.34	5437.06
430.53	5778.78
430.72	5628.99
430.91	5778.78
431.10	5497.92
431.28	5750.70
431.47	5795.17
431.66	5738.99
431.85	5790.49
432.03	5921.56
432.22	5858.36
432.41	5867.72
432.60	5891.13
432.79	5874.74
432.97	6066.67
433.16	6005.81
433.35	6005.81
433.54	6061.99
433.72	6274.98
433.91	6087.73
434.10	5891.13
434.28	6061.99
434.47	6113.48
434.66	6291.36
434.85	6300.72
435.03	6345.19
435.22	6239.87
435.41	6623.72
435.59	6525.41
435.78	6450.52
435.97	6354.55
436.16	6558.18
436.34	6450.52
436.53	6469.24
436.72	6630.74
436.90	6380.30
437.09	6581.59
437.28	6434.13
437.46	6579.25
437.65	6754.79
437.84	6731.38
438.02	6707.98
438.21	6670.53
438.40	6532.44
438.58	6925.65
438.77	6949.05
438.96	6944.37
439.14	7009.90
439.33	7157.36
439.52	7229.91
439.70	7206.51
439.89	7506.10
440.08	7152.68
440.26	7356.30
440.45	7108.21
440.63	7447.58
440.82	7492.05
441.01	7581.00
441.19	7705.04
441.38	7646.53
441.57	7618.44
441.75	7761.22
441.94	7948.46
442.12	7789.30
442.31	8028.04
442.50	8119.32
442.68	7843.14
442.87	7992.93
443.05	8018.68
443.24	8159.11
443.43	8116.98
443.61	8098.25
443.80	8390.82
443.98	8011.65
444.17	8072.51
444.35	8219.96
444.54	8325.29
444.73	8243.37
444.91	8348.69
445.10	8091.23
445.28	8217.62
445.47	8315.92
445.65	8205.92
445.84	8430.61
446.02	8245.71
446.21	8589.77
446.39	8372.10
446.58	8498.49
446.77	8589.77
446.95	8325.29
447.14	8521.89
447.32	8524.23
447.51	8566.36
447.69	8512.53
447.88	8477.42
448.06	8496.14
448.25	8507.85
448.43	8503.17
448.62	8514.87
448.80	8573.38
448.99	8671.68
449.17	8755.94
449.36	8695.09
449.54	8751.26
449.73	8978.30
449.91	9055.53
450.10	8931.48
450.28	9219.37
450.46	8999.36
450.65	9053.19
450.83	9090.64
451.02	9090.64
451.20	9128.09
451.39	9083.62
451.57	9102.34
451.76	9235.75
451.94	8950.21
452.13	9212.35
452.31	9156.18
452.49	9060.21
452.68	9378.53
452.86	9193.62
453.05	9467.47
453.23	9533.00
453.42	9235.75
453.60	9439.38
453.78	9474.49
453.97	9446.40
454.15	9472.15
454.34	9458.10
454.52	9701.52
454.70	9521.30
454.89	9750.67
455.07	9582.15
455.26	9811.53
455.44	9909.83
455.62	9813.87
455.81	10078.35
455.99	9947.28
456.17	9975.36
456.36	10090.05
456.54	10249.21
456.73	10324.10
456.91	10361.55
457.09	10244.52
457.28	10359.21
457.46	10139.20
457.64	10387.30
457.83	10455.17
458.01	10324.10
458.19	10764.12
458.38	10527.73
458.56	10534.75
458.74	10635.39
458.93	10951.37
459.11	10555.82
459.29	10710.29
459.48	10815.62
459.66	10803.91
459.84	10930.30
460.03	11082.44
460.21	11044.99
460.39	10771.15
460.57	10897.53
460.76	10946.69
460.94	11075.42
461.12	11178.40
461.31	11147.97
461.49	11197.12
461.67	11225.21
461.85	11314.15
462.04	11398.41
462.22	11843.11
462.40	11527.14
462.59	11480.33
462.77	11482.67
462.95	11796.30
463.13	11583.31
463.32	11693.32
463.50	11620.76
463.68	11939.07
463.86	11800.98
464.05	11674.59
464.23	11709.70
464.41	11967.16
464.59	11599.70
464.78	12269.09
464.96	11976.52
465.14	11702.68
465.32	12147.38
465.50	12210.57
465.69	12079.50
465.87	12002.27
466.05	11967.16
466.23	12180.15
466.41	12285.47
466.60	12734.85
466.78	12184.83
466.96	11948.43
467.14	12063.12
467.32	12358.03
467.51	12463.35
467.69	12053.76
467.87	12362.71
468.05	12402.50
468.23	12278.45
468.41	12376.75
468.60	12453.99
468.78	12601.44
468.96	12498.46
469.14	12936.14
469.32	12950.18
469.50	12381.43
469.69	12884.65
469.87	12833.16
470.05	13050.83
470.23	13053.17
470.41	13064.87
470.59	13128.06
470.77	13214.66
470.95	13324.67
471.14	13359.78
471.32	13137.43
471.50	13572.77
471.68	13345.73
471.86	13521.27
472.04	13631.28
472.22	13963.64
472.40	13729.58
472.58	13659.37
472.77	13825.54
472.95	13996.40
473.13	14705.59
473.31	14012.79
473.49	14019.81
473.67	14204.71
473.85	14195.35
474.03	14621.33
474.21	14483.24
474.39	14661.12
474.57	14546.43
474.75	14951.34
474.93	14778.14
475.12	14801.55
475.30	15056.67
475.48	14885.81
475.66	15197.10
475.84	15236.89
476.02	15522.43
476.20	15166.67
476.38	15503.71
476.56	16030.33
476.74	15925.00
476.92	15939.05
477.10	15896.92
477.28	16294.81
477.46	16184.80
477.64	16458.65
477.82	16339.28
478.00	16875.26
478.18	16828.45
478.36	16716.11
478.54	17207.62
478.72	17125.70
478.90	17088.25
479.08	17132.72
479.26	17596.15
479.44	17827.86
479.62	17745.94
479.80	17841.90
479.98	18017.44
480.16	18527.68
480.34	18204.69
480.52	18436.40
480.70	18480.87
480.88	18263.20
481.06	18813.23
481.24	18888.12
481.41	19269.63
481.59	19484.96
481.77	19321.12
481.95	19080.05
482.13	19740.08
482.31	19634.75
482.49	19976.47
482.67	20109.88
482.85	20540.54
483.03	20357.98
483.21	20774.60
483.39	20889.28
483.57	20790.98
483.74	21006.31
483.92	21287.17
484.10	20989.92
484.28	21902.73
484.46	22214.02
484.64	21961.25
484.82	22120.40
485.00	21963.59
485.18	22405.95
485.35	22965.34
485.53	22822.56
485.71	22960.66
485.89	23253.22
486.07	23065.98
486.25	23194.71
486.43	23381.95
486.61	23756.44
486.78	24194.12
486.96	24140.29
487.14	24645.84
487.32	24624.78
487.50	24769.89
487.68	24943.09
487.85	25343.32
488.03	25467.37
488.21	25834.83
488.39	25956.54
488.57	25766.96
488.75	26408.26
488.92	26092.29
489.10	26792.11
489.28	26932.54
489.46	27143.19
489.64	26972.33
489.81	27608.96
489.99	27239.15
490.17	27770.46
490.35	27922.59
490.53	28397.72
490.70	28175.37
490.88	28397.72
491.06	28727.74
491.24	28879.87
491.41	28617.73
491.59	29380.74
491.77	29572.67
491.95	29535.22
492.13	29795.02
492.30	29996.31
492.48	29598.41
492.66	30225.68
492.84	30064.18
493.01	30604.84
493.19	30536.97
493.37	30820.17
493.54	30649.32
493.72	31686.17
493.90	31438.08
494.08	31707.24
494.25	31784.48
494.43	32168.32
494.61	32044.27
494.79	31990.44
494.96	32781.54
495.14	32774.52
495.32	32755.80
495.49	33301.14
495.67	33141.99
495.85	33392.42
496.02	33874.57
496.20	33626.48
496.38	34040.75
496.55	34096.92
496.73	34625.89
496.91	34403.53
497.09	34562.69
497.26	35040.16
497.44	35086.97
497.62	35426.35
497.79	35536.35
497.97	35580.82
498.14	35695.51
498.32	36027.87
498.50	36039.57
498.67	36322.77
498.85	36367.24
499.03	36210.43
499.20	36385.97
499.38	36481.93
499.56	36952.38
499.73	37083.45
499.91	37380.70
500.08	37406.44
500.26	37521.13
500.44	37663.90
500.61	37963.49
500.79	37783.27
500.97	37923.70
501.14	38038.39
501.32	38391.81
501.49	38499.47
501.67	38639.90
501.84	38899.70
502.02	38913.75
502.20	39159.50
502.37	39079.92
502.55	39079.92
502.72	39452.07
502.90	39620.59
503.07	39220.36
503.25	39700.17
503.43	39508.24
503.60	39777.40
503.78	40226.79
503.95	40229.13
504.13	40135.51
504.30	40776.81
504.48	40463.18
504.65	40587.23
504.83	40734.68
505.01	41579.62
505.18	41170.02
505.36	41249.60
505.53	41368.97
505.71	41261.30
505.88	41713.03
506.06	41207.47
506.23	41778.56
506.41	41823.03
506.58	42265.39
506.76	41993.89
506.93	42827.12
507.11	42148.37
507.28	42131.98
507.46	42653.92
507.63	42693.71
507.81	43260.12
507.98	42988.62
508.16	42726.48
508.33	43407.58
508.50	43278.85
508.68	43168.84
508.85	43578.43
509.03	43777.38
509.20	43908.45
509.38	44189.31
509.55	44381.24
509.73	44610.61
509.90	44346.13
510.08	44538.05
510.25	44507.63
510.42	44718.28
510.60	44898.50
510.77	44849.35
510.95	45148.93
511.12	44865.73
511.30	44872.75
511.47	45081.06
511.64	45462.57
511.82	45963.44
511.99	45621.72
512.17	45542.14
512.34	45780.88
512.51	46562.62
512.69	45897.91
512.86	46368.35
513.04	46174.09
513.21	46784.97
513.38	46550.91
513.56	46534.53
513.73	46780.29
513.90	46787.31
514.08	46696.03
514.25	47077.54
514.43	47285.84
514.60	47159.45
514.77	46990.94
514.95	47608.84
515.12	47241.37
515.29	47599.47
515.47	48065.24
515.64	48615.27
515.81	47856.93
515.99	47604.16
516.16	48411.64
516.33	48343.77
516.51	48538.03
516.68	47468.40
516.85	48430.36
517.03	48547.39
517.20	48531.01
517.37	48416.32
517.54	48446.75
517.72	48924.22
517.89	48830.60
518.06	48884.43
518.24	48959.33
518.41	49038.90
518.58	49195.72
518.75	49296.36
518.93	49476.58
519.10	49567.87
519.27	49743.41
519.45	49495.31
519.62	49717.66
519.79	49663.83
519.96	49769.15
520.14	50134.28
520.31	50096.83
520.48	50370.67
520.65	50169.38
520.83	50752.18
521.00	50492.38
521.17	50492.38
521.34	50593.02
521.52	50782.60
521.69	50878.57
521.86	50660.90
522.03	50913.67
522.20	50897.29
522.38	51323.27
522.55	51185.18
522.72	51210.92
522.89	51236.67
523.07	51452.00
523.24	51468.38
523.41	51566.68
523.58	51725.84
523.75	51751.59
523.92	51721.16
524.10	51978.62
524.27	51688.39
524.44	51903.72
524.61	51913.08
524.78	51966.91
524.96	52289.91
525.13	52271.18
525.30	52374.17
525.47	52758.02
525.64	52514.60
525.81	52390.55
525.98	52671.42
526.16	52343.74
526.33	52259.48
526.50	53010.79
526.67	52460.77
526.84	52767.38
527.01	52542.69
527.18	52704.18
527.36	52963.98
527.53	52966.32
527.70	53324.43
527.87	53235.48
528.04	53006.11
528.21	53296.34
528.38	53436.77
528.55	53294.00
528.72	53137.18
528.89	53130.16
529.07	53298.68
529.24	53605.29
529.41	53778.49
529.58	53499.97
529.75	53404.00
529.92	53818.28
530.09	53607.63
530.26	53771.47
530.43	53860.41
530.60	53645.08
530.77	53769.13
530.94	54284.04
531.11	53879.13
531.28	54291.07
531.46	54134.25
531.63	54110.85
531.80	53942.33
531.97	54178.72
532.14	54401.07
532.31	54204.47
532.48	54237.23
532.65	54475.97
532.82	54384.69
532.99	54672.57
533.16	54419.80
533.33	54712.36
533.50	54780.24
533.67	54789.60
533.84	54569.59
534.01	54604.70
534.18	54747.47
534.35	55285.79
534.52	54869.18
534.69	55147.70
534.86	55011.95
535.03	54808.32
535.20	55058.76
535.37	55494.10
535.54	55449.63
535.71	55189.83
535.88	55419.20
536.05	55288.13
536.22	55444.95
536.38	55723.47
536.55	55599.43
536.72	55400.48
536.89	55430.91
537.06	55760.92
537.23	55688.37
537.40	55470.70
537.57	55728.16
537.74	55655.60
537.91	55805.39
538.08	55693.05
538.25	55510.49
538.42	55861.57
538.59	56123.71
538.75	55884.97
538.92	56053.49
539.09	56179.88
539.26	55906.04
539.43	56016.04
539.60	55882.63
539.77	56203.28
539.94	56395.21
540.11	56357.76
540.28	56559.05
540.44	56245.41
540.61	56425.64
540.78	56308.61
540.95	56495.85
541.12	56285.20
541.29	56383.51
541.46	56397.55
541.62	56626.92
541.79	56615.22
541.96	56301.59
542.13	56647.99
542.30	56528.62
542.47	56612.88
542.63	56926.51
542.80	56849.27
542.97	56970.98
543.14	57088.01
543.31	57167.58
543.48	57104.39
543.64	57535.05
543.81	57275.25
543.98	57359.51
544.15	57125.46
544.32	57385.25
544.48	57301.00
544.65	57205.03
544.82	57427.38
544.99	57261.21
545.16	57380.57
545.32	57286.95
545.49	57635.69
545.66	57846.34
545.83	57698.89
546.00	57429.72
546.16	57434.41
546.33	57607.61
546.50	57551.43
546.67	57708.25
546.83	57471.85
547.00	57719.95
547.17	57759.74
547.34	57598.24
547.50	57808.89
547.67	57771.44
547.84	58300.40
548.00	58108.48
548.17	58176.36
548.34	57951.66
548.51	58258.27
548.67	58251.25
548.84	57989.11
549.01	57993.79
549.18	58071.03
549.34	58291.04
549.51	58078.05
549.68	58419.77
549.84	58403.39
550.01	58333.17
550.18	58176.36
550.34	58351.90
550.51	58265.30
550.68	58492.33
550.84	58019.54
551.01	58599.99
551.18	58387.00
551.34	58354.24
551.51	58525.10
551.68	58401.05
551.84	58522.76
552.01	58321.47
552.18	58637.44
552.34	58480.63
552.51	58578.93
552.68	58429.13
552.84	58492.33
553.01	58747.45
553.18	58761.49
553.34	58700.64
553.51	58702.98
553.67	58777.87
553.84	58972.14
554.01	58904.26
554.17	58719.36
554.34	59203.85
554.51	58834.05
554.67	59110.23
554.84	59000.22
555.00	58997.88
555.17	58932.35
555.33	58969.80
555.50	58815.32
555.67	58995.54
555.83	58855.11
556.00	59157.04
556.16	59175.76
556.33	59164.06
556.50	59133.63
556.66	59168.74
556.83	59077.46
556.99	59290.45
557.16	59363.01
557.32	59334.92
557.49	59681.32
557.65	59187.47
557.82	59377.05
557.98	59220.23
558.15	59456.63
558.32	59372.37
558.48	59288.11
558.65	59664.94
558.81	59395.77
558.98	59484.72
559.14	59554.93
559.31	59547.91
559.47	59501.10
559.64	59604.08
559.80	59576.00
559.97	59648.55
560.13	59524.50
560.30	59601.74
560.46	59522.16
560.63	59683.66
560.79	59774.94
560.96	59870.90
561.12	59793.67
561.29	59777.28
561.45	59683.66
561.61	59735.15
561.78	59765.58
561.94	59573.66
562.11	59765.58
562.27	59796.01
562.44	59952.82
562.60	60046.44
562.77	59983.25
562.93	59852.18
563.10	59962.18
563.26	59913.03
563.42	60095.60
563.59	59807.71
563.75	60011.34
563.92	59971.55
564.08	59793.67
564.24	60037.08
564.41	60065.17
564.57	59994.95
564.74	60001.97
564.90	60039.42
565.07	60023.04
565.23	60163.47
565.39	60058.15
565.56	60154.11
565.72	60121.34
565.88	60135.38
566.05	60196.24
566.21	60011.34
566.38	60156.45
566.54	60266.45
566.70	60221.98
566.87	60119.00
567.03	59976.23
567.19	60367.10
567.36	60245.39
567.52	60257.09
567.68	60463.06
567.85	60292.20
568.01	60130.70
568.17	60261.77
568.34	60434.97
568.50	60378.80
568.66	60278.16
568.83	60177.51
568.99	60266.45
569.15	60491.15
569.32	60219.64
569.48	60329.65
569.64	60406.89
569.81	60350.71
569.97	60423.27
570.13	60088.57
570.30	60189.22
570.46	60416.25
570.62	60257.09
570.78	60427.95
570.95	60404.55
571.11	60573.06
571.27	60353.05
571.43	60530.93
571.60	60544.98
571.76	60589.45
571.92	60498.17
572.09	60605.83
572.25	60636.26
572.41	60275.82
572.57	60608.17
572.74	60596.47
572.90	60449.02
573.06	60549.66
573.22	60399.86
573.38	60640.94
573.55	60507.53
573.71	60692.43
573.87	60371.78
574.03	60676.05
574.20	60776.69
574.36	60708.82
574.52	60601.15
574.68	60704.13
574.84	60577.75
575.01	60608.17
575.17	60582.43
575.33	60463.06
575.49	60472.42
575.65	60732.22
575.82	60739.24
575.98	60631.58
576.14	60870.31
576.30	60786.05
576.46	60732.22
576.62	60533.28
576.79	60727.54
576.95	60676.05
577.11	60711.16
577.27	60825.84
577.43	60994.36
577.59	60514.55
577.75	60671.37
577.92	60481.78
578.08	60769.67
578.24	60720.52
578.40	60837.54
578.56	60853.93
578.72	60652.64
578.88	60926.49
579.04	60886.70
579.21	60692.43
579.37	61034.15
579.53	60774.35
579.69	60687.75
579.85	60573.06
580.01	60835.20
580.17	60505.19
580.33	60804.78
580.49	60867.97
580.65	61109.05
580.82	60924.14
580.98	60750.94
581.14	60823.50
581.30	60928.83
581.46	60949.89
581.62	60905.42
581.78	60690.09
581.94	61073.94
582.10	61048.19
582.26	60844.57
582.42	60795.42
582.58	60938.19
582.74	60844.57
582.90	60867.97
583.06	60725.20
583.22	60795.42
583.38	60879.67
583.54	60858.61
583.70	60830.52
583.86	61123.09
584.02	60823.50
584.18	60959.25
584.34	61015.43
584.50	60781.37
584.66	60795.42
584.82	60746.26
584.98	61020.11
585.14	61113.73
585.30	60898.40
585.46	60987.34
585.62	60985.00
585.78	61097.34
585.94	60706.47
586.10	61059.90
586.26	61090.32
586.42	60858.61
586.58	61132.45
586.74	61183.94
586.90	60867.97
587.06	60797.76
587.22	60910.10
587.38	61064.58
587.54	60935.85
587.70	61228.41
587.86	60970.96
588.02	60903.08
588.18	61099.68
588.34	61071.60
588.49	60898.40
