SpectraSuite Data File
++++++++++++++++++++++++++++++++++++
Date: Fri Oct 25 11:25:15 EDT 2013
User: price-jones
Dark Spectrum Present: No
Reference Spectrum Present: No
Number of Sampled Component Spectra: 1
Spectrometers: USB2+H05261
Integration Time (usec): 100000 (USB2+H05261)
Spectra Averaged: 1 (USB2+H05261)
Boxcar Smoothing: 0 (USB2+H05261)
Correct for Electrical Dark: No (USB2+H05261)
Strobe/Lamp Enabled: No (USB2+H05261)
Correct for Detector Non-linearity: No (USB2+H05261)
Correct for Stray Light: No (USB2+H05261)
Number of Pixels in Processed Spectrum: 2048
>>>>>Begin Processed Spectral Data<<<<<
365.73	262.14
365.92	262.14
366.12	262.14
366.32	131.07
366.52	224.69
366.72	91.28
366.91	102.98
367.11	98.30
367.31	184.90
367.51	124.05
367.70	112.35
367.90	100.64
368.10	74.90
368.30	147.45
368.49	119.37
368.69	180.22
368.89	210.65
369.09	133.41
369.28	128.73
369.48	161.50
369.68	163.84
369.87	198.95
370.07	149.79
370.27	196.60
370.47	358.10
370.66	538.32
370.86	629.60
371.06	748.97
371.25	662.37
371.45	645.99
371.65	688.12
371.84	685.78
372.04	655.35
372.24	781.74
372.44	709.18
372.63	798.12
372.83	753.65
373.03	744.29
373.22	692.80
373.42	809.83
373.62	807.48
373.81	884.72
374.01	784.08
374.21	795.78
374.40	774.72
374.60	802.80
374.79	800.46
374.99	821.53
375.19	847.27
375.38	781.74
375.58	786.42
375.78	889.40
375.97	858.98
376.17	889.40
376.37	910.47
376.56	819.19
376.76	826.21
376.95	849.61
377.15	903.45
377.35	861.32
377.54	877.70
377.74	908.13
377.93	910.47
378.13	898.77
378.33	966.64
378.52	933.87
378.72	999.41
378.91	940.90
379.11	940.90
379.31	994.73
379.50	959.62
379.70	976.00
379.89	945.58
380.09	961.96
380.28	966.64
380.48	994.73
380.68	877.70
380.87	1036.86
381.07	968.98
381.26	1081.33
381.46	1046.22
381.65	1025.15
381.85	1011.11
382.04	1090.69
382.24	1053.24
382.43	1041.54
382.63	1022.81
382.83	1132.82
383.02	1081.33
383.22	1093.03
383.41	1111.75
383.61	1156.22
383.80	1116.44
384.00	1081.33
384.19	1153.88
384.39	1121.12
384.58	1125.80
384.78	1146.86
384.97	1137.50
385.17	1179.63
385.36	1207.72
385.56	1158.57
385.75	1125.80
385.95	1111.75
386.14	1158.57
386.34	1242.82
386.53	1151.54
386.72	1174.95
386.92	1203.04
387.11	1191.33
387.31	1210.06
387.50	1226.44
387.70	1273.25
387.89	1235.80
388.09	1217.08
388.28	1303.68
388.48	1212.40
388.67	1268.57
388.86	1303.68
389.06	1366.87
389.25	1306.02
389.45	1327.08
389.64	1427.73
389.84	1411.34
390.03	1341.13
390.22	1401.98
390.42	1327.08
390.61	1462.83
390.81	1387.94
391.00	1369.21
391.19	1469.86
391.39	1448.79
391.58	1554.12
391.78	1535.39
391.97	1504.96
392.16	1409.00
392.36	1607.95
392.55	1519.01
392.75	1519.01
392.94	1397.30
393.13	1537.73
393.33	1526.03
393.52	1577.52
393.71	1586.88
393.91	1661.78
394.10	1614.97
394.29	1612.63
394.49	1521.35
394.68	1610.29
394.88	1685.19
395.07	1678.16
395.26	1614.97
395.46	1612.63
395.65	1694.55
395.84	1675.82
396.04	1675.82
396.23	1816.26
396.42	1792.85
396.62	1715.61
396.81	1783.49
397.00	1720.29
397.19	1736.68
397.39	1785.83
397.58	1781.15
397.77	1762.42
397.97	1760.08
398.16	1856.04
398.35	1891.15
398.55	1879.45
398.74	1940.30
398.93	1989.46
399.12	1870.09
399.32	1820.94
399.51	1895.83
399.70	1909.88
399.90	1926.26
400.09	1914.56
400.28	1937.96
400.47	2073.71
400.67	2143.93
400.86	1982.43
401.05	2062.01
401.24	2050.31
401.44	2083.08
401.63	2040.95
401.82	2157.97
402.01	2085.42
402.21	2122.87
402.40	2197.76
402.59	2134.57
402.78	2174.36
402.97	2176.70
403.17	2242.23
403.36	2270.32
403.55	2207.13
403.74	2300.75
403.93	2300.75
404.13	2464.58
404.32	2324.15
404.51	2420.11
404.70	2527.78
404.89	2300.75
405.09	2436.50
405.28	2392.03
405.47	2399.05
405.66	2450.54
405.85	2551.18
406.05	2495.01
406.24	2490.33
406.43	2537.14
406.62	2551.18
406.81	2679.91
407.00	2593.31
407.20	2504.37
407.39	2513.74
407.58	2654.17
407.77	2736.09
407.96	2717.36
408.15	2703.32
408.34	2750.13
408.54	2820.35
408.73	2843.75
408.92	2846.09
409.11	2829.71
409.30	2787.58
409.49	3002.91
409.68	2820.35
409.87	2864.82
410.07	2946.73
410.26	2995.89
410.45	2937.37
410.64	3005.25
410.83	2944.39
411.02	3178.45
411.21	3169.09
411.40	3124.62
411.59	3194.83
411.78	3328.24
411.98	3131.64
412.17	3171.43
412.36	3222.92
412.55	3321.22
412.74	3447.61
412.93	3389.10
413.12	3208.87
413.31	3569.32
413.50	3510.80
413.69	3407.82
413.88	3478.04
414.07	3599.74
414.26	3616.13
414.45	3674.64
414.64	3531.87
414.83	3618.47
415.02	3728.47
415.22	3786.99
415.41	3852.52
415.60	3859.54
415.79	3878.27
415.98	3838.48
416.17	4051.47
416.36	4056.15
416.55	3990.61
416.74	4072.53
416.93	4049.13
417.12	4063.17
417.31	4201.26
417.50	4231.69
417.69	4280.84
417.88	4355.74
418.07	4269.14
418.26	4252.75
418.45	4138.07
418.64	4514.89
418.83	4503.19
419.02	4456.38
419.21	4402.55
419.39	4528.94
419.58	4578.09
419.77	4353.40
419.96	4573.41
420.15	4566.39
420.34	4624.90
420.53	4587.45
420.72	4816.82
420.91	4657.67
421.10	4610.86
421.29	4786.40
421.48	4664.69
421.67	4755.97
421.86	4847.25
422.05	4931.51
422.24	4725.54
422.43	4891.72
422.61	4840.23
422.80	4875.34
422.99	4873.00
423.18	4851.93
423.37	5039.17
423.56	4844.91
423.75	4926.83
423.94	4856.61
424.13	4627.24
424.32	4929.17
424.50	4997.04
424.69	5088.32
424.88	5088.32
425.07	5055.56
425.26	4795.76
425.45	4971.30
425.64	4924.49
425.83	4849.59
426.01	5013.43
426.20	4908.10
426.39	4971.30
426.58	4915.12
426.77	4919.81
426.96	5060.24
427.15	5097.69
427.33	5142.16
427.52	5132.79
427.71	5247.48
427.90	5186.63
428.09	5305.99
428.28	5364.51
428.46	5263.86
428.65	5291.95
428.84	5465.15
429.03	5483.88
429.22	5345.78
429.40	5324.72
429.59	5362.17
429.78	5341.10
429.97	5420.68
430.16	5472.17
430.34	5570.48
430.53	5701.54
430.72	5467.49
430.91	5537.71
431.10	5605.58
431.28	5624.31
431.47	5687.50
431.66	5750.70
431.85	5743.67
432.03	5713.25
432.22	5994.11
432.41	5769.42
432.60	5844.32
432.79	5867.72
432.97	6087.73
433.16	6024.54
433.35	5923.90
433.54	5949.64
433.72	6040.92
433.91	6045.60
434.10	6263.27
434.28	5811.55
434.47	6015.18
434.66	6303.06
434.85	6314.77
435.03	6293.70
435.22	6356.90
435.41	6431.79
435.59	6384.98
435.78	6310.08
435.97	6487.96
436.16	6314.77
436.34	6445.84
436.53	6527.75
436.72	6658.82
436.90	6546.48
437.09	6483.28
437.28	6509.03
437.46	6476.26
437.65	6553.50
437.84	6672.87
438.02	6747.76
438.21	6642.44
438.40	6736.06
438.58	7145.66
438.77	6923.30
438.96	6754.79
439.14	7091.82
439.33	7117.57
439.52	7124.59
439.70	6986.50
439.89	7316.51
440.08	7456.95
440.26	7342.26
440.45	7302.47
440.63	7391.41
440.82	7541.21
441.01	7487.37
441.19	7634.83
441.38	7529.50
441.57	7536.52
441.75	7796.32
441.94	7840.79
442.12	7955.48
442.31	8049.10
442.50	7854.84
442.68	7929.74
442.87	7885.26
443.05	8039.74
443.24	8203.58
443.43	7864.20
443.61	8201.24
443.80	8517.21
443.98	7936.76
444.17	7770.58
444.35	8063.15
444.54	8294.86
444.73	8114.64
444.91	8283.16
445.10	8248.05
445.28	8325.29
445.47	8037.40
445.65	8304.22
445.84	8388.48
446.02	8423.59
446.21	8531.25
446.39	8383.80
446.58	8439.97
446.77	8208.26
446.95	8215.28
447.14	8318.26
447.32	8571.04
447.51	8367.42
447.69	8311.24
447.88	8458.70
448.06	8472.74
448.25	8287.84
448.43	8528.91
448.62	8299.54
448.80	8449.33
448.99	8620.19
449.17	8753.60
449.36	8678.71
449.54	8788.71
449.73	9004.04
449.91	8835.52
450.10	8851.91
450.28	8945.53
450.46	9055.53
450.65	9022.77
450.83	8978.30
451.02	8828.50
451.20	9233.41
451.39	9041.49
451.57	9165.54
451.76	9064.89
451.94	9210.01
452.13	9125.75
452.31	9408.95
452.49	9228.73
452.68	9231.07
452.86	9341.08
453.05	9322.35
453.23	9315.33
453.42	9181.92
453.60	9362.14
453.78	9453.42
453.97	9352.78
454.15	9317.67
454.34	9359.80
454.52	9467.47
454.70	9474.49
454.89	9701.52
455.07	9783.44
455.26	9753.01
455.44	9776.42
455.62	10015.15
455.81	9650.03
455.99	9902.81
456.17	10059.62
456.36	10228.14
456.54	9909.83
456.73	10246.87
456.91	10403.68
457.09	10438.79
457.28	10478.58
457.46	10368.57
457.64	10391.98
457.83	10420.06
458.01	10270.27
458.19	10609.65
458.38	10448.15
458.56	10799.23
458.74	10621.35
458.93	10581.56
459.11	10782.85
459.29	10736.04
459.48	10714.97
459.66	10820.30
459.84	10731.36
460.03	11091.80
460.21	10827.32
460.39	10920.94
460.57	10911.58
460.76	11059.03
460.94	10949.03
461.12	11215.85
461.31	11218.19
461.49	11056.69
461.67	11117.54
461.85	11339.90
462.04	11253.30
462.22	11627.78
462.40	11365.64
462.59	11499.05
462.77	11349.26
462.95	11461.60
463.13	11473.31
463.32	11468.62
463.50	11564.59
463.68	11777.58
463.86	11782.26
464.05	11641.82
464.23	11686.29
464.41	11789.28
464.59	11749.49
464.78	11866.52
464.96	11850.13
465.14	11721.40
465.32	11999.93
465.50	11770.55
465.69	12236.32
465.87	12002.27
466.05	12072.48
466.23	12030.35
466.41	12147.38
466.60	12461.01
466.78	11892.26
466.96	12032.69
467.14	12067.80
467.32	12058.44
467.51	12549.95
467.69	12138.02
467.87	12451.65
468.05	12500.80
468.23	12060.78
468.41	12439.95
468.60	12493.78
468.78	12788.69
468.96	12528.89
469.14	12676.34
469.32	12662.30
469.50	12528.89
469.69	12767.62
469.87	13006.36
470.05	12989.97
470.23	12971.25
470.41	13092.96
470.59	13198.28
470.77	13228.71
470.95	13172.54
471.14	13334.03
471.32	12924.44
471.50	13556.38
471.68	13469.78
471.86	13614.90
472.04	13816.18
472.22	13923.85
472.40	13359.78
472.58	13806.82
472.77	13710.86
472.95	13659.37
473.13	14424.72
473.31	14031.51
473.49	14293.65
473.67	14012.79
473.85	14017.47
474.03	14537.07
474.21	14487.92
474.39	14684.52
474.57	14724.31
474.75	14679.84
474.93	14958.36
475.12	14764.10
475.30	14839.00
475.48	15133.90
475.66	15075.39
475.84	15295.40
476.02	15042.62
476.20	15070.71
476.38	15501.37
476.56	16154.38
476.74	15583.29
476.92	15585.63
477.10	15754.15
477.28	16027.99
477.46	15758.83
477.64	16198.85
477.82	16348.64
478.00	16772.28
478.18	16959.52
478.36	16748.87
478.54	16861.22
478.72	17067.19
478.90	17369.12
479.08	17277.83
479.26	17671.04
479.44	17472.10
479.62	17689.77
479.80	17961.27
479.98	18251.50
480.16	18431.72
480.34	17998.72
480.52	18698.54
480.70	18396.61
480.88	18298.31
481.06	18560.45
481.24	18628.32
481.41	18789.82
481.59	19393.68
481.77	19215.80
481.95	19431.13
482.13	19716.67
482.31	19836.04
482.49	20049.03
482.67	20081.80
482.85	20126.27
483.03	20360.32
483.21	20496.07
483.39	20905.66
483.57	20533.52
483.74	21027.37
483.92	21078.86
484.10	20758.21
484.28	21727.19
484.46	21589.10
484.64	22108.70
484.82	22012.74
485.00	22071.25
485.18	22501.91
485.35	22611.92
485.53	22649.36
485.71	22782.77
485.89	23030.87
486.07	23061.30
486.25	23103.43
486.43	23461.53
486.61	23356.21
486.78	23857.08
486.96	23648.77
487.14	24584.99
487.32	24512.43
487.50	24524.13
487.68	24922.02
487.85	24917.34
488.03	25364.39
488.21	25769.30
488.39	25724.83
488.57	26223.36
488.75	25961.22
488.92	26118.04
489.10	26586.15
489.28	26541.68
489.46	26817.86
489.64	26923.18
489.81	27234.47
489.99	27569.17
490.17	27447.46
490.35	28252.61
490.53	28252.61
490.70	28144.94
490.88	28329.84
491.06	28465.60
491.24	28474.96
491.41	28833.06
491.59	29357.34
491.77	28790.93
491.95	29104.56
492.13	29523.52
492.30	29977.58
492.48	29434.58
492.66	30047.80
492.84	29986.94
493.01	30457.39
493.19	30438.67
493.37	30881.03
493.54	30934.86
493.72	31243.81
493.90	31386.58
494.08	31660.43
494.25	31276.58
494.43	31906.18
494.61	32053.64
494.79	31913.20
494.96	32093.43
495.14	32479.61
495.32	32598.98
495.49	32957.08
495.67	32741.75
495.85	33350.29
496.02	33682.65
496.20	33699.03
496.38	33792.65
496.55	33841.81
496.73	34560.35
496.91	34096.92
497.09	34653.97
497.26	34623.54
497.44	34394.17
497.62	34693.76
497.79	35805.52
497.97	34991.01
498.14	35601.89
498.32	35885.09
498.50	35976.37
498.67	35976.37
498.85	36428.10
499.03	36463.21
499.20	36591.94
499.38	36582.57
499.56	36694.92
499.73	36952.38
499.91	37352.61
500.08	37457.93
500.26	36807.26
500.44	37359.63
500.61	37476.66
500.79	37453.25
500.97	38160.09
501.14	37907.32
501.32	38462.02
501.49	38511.17
501.67	38373.08
501.84	38471.39
502.02	38466.70
502.20	38836.51
502.37	38920.77
502.55	38998.01
502.72	39407.60
502.90	39381.85
503.07	39363.13
503.25	39496.54
503.43	39463.77
503.60	39749.32
503.78	39920.18
503.95	40060.61
504.13	40179.98
504.30	40388.28
504.48	40034.86
504.65	40659.79
504.83	40903.20
505.01	41155.98
505.18	40863.41
505.36	41212.15
505.53	40964.06
505.71	41453.23
505.88	41553.87
506.06	40844.69
506.23	41757.50
506.41	41368.97
506.58	42085.17
506.76	41872.18
506.93	42377.74
507.11	42302.84
507.28	42550.94
507.46	42157.73
507.63	42829.46
507.81	42862.23
507.98	42457.32
508.16	43248.42
508.33	42941.81
508.50	43236.72
508.68	43274.16
508.85	43636.95
509.03	43220.33
509.20	43363.11
509.38	44058.24
509.55	44217.40
509.73	44144.84
509.90	44479.54
510.08	44488.90
510.25	44201.02
510.42	44313.36
510.60	44566.14
510.77	44954.67
510.95	45001.48
511.12	44865.73
511.30	44446.77
511.47	45282.34
511.64	45092.76
511.82	45539.80
511.99	45106.80
512.17	45729.39
512.34	45181.70
512.51	45998.55
512.69	46258.35
512.86	46195.15
513.04	46377.72
513.21	45930.67
513.38	46417.50
513.56	46646.88
513.73	46471.34
513.90	46845.82
514.08	46738.16
514.25	46864.55
514.43	46962.85
514.60	47540.96
514.77	46930.08
514.95	47250.74
515.12	47672.03
515.29	47648.63
515.47	47540.96
515.64	48055.88
515.81	47702.46
515.99	47538.62
516.16	48053.54
516.33	47749.27
516.51	48034.81
516.68	48076.94
516.85	48222.06
517.03	48633.99
517.20	48872.73
517.37	48669.10
517.54	48760.38
517.72	48741.66
517.89	48886.77
518.06	48905.49
518.24	48844.64
518.41	48800.17
518.58	49031.88
518.75	48875.07
518.93	49572.55
519.10	49275.30
519.27	49340.83
519.45	49333.81
519.62	49698.94
519.79	49808.94
519.96	49588.93
520.14	49605.31
520.31	50045.33
520.48	50089.80
520.65	50192.79
520.83	50349.60
521.00	50344.92
521.17	50335.56
521.34	50419.82
521.52	50401.10
521.69	50721.75
521.86	50946.44
522.03	50747.50
522.20	50923.04
522.38	51023.68
522.55	51164.11
522.72	50801.33
522.89	51171.13
523.07	51547.96
523.24	50969.85
523.41	51386.46
523.58	51236.67
523.75	51306.88
523.92	51676.69
524.10	51746.90
524.27	51646.26
524.44	51922.44
524.61	51662.64
524.78	51955.21
524.96	51969.26
525.13	52039.47
525.30	52191.61
525.47	52317.99
525.64	52231.40
525.81	52603.54
525.98	52317.99
526.16	52196.29
526.33	52402.25
526.50	52678.44
526.67	52360.12
526.84	52591.84
527.01	52444.38
527.18	52294.59
527.36	52704.18
527.53	52959.30
527.70	53118.46
527.87	53043.56
528.04	52919.51
528.21	53048.24
528.38	53048.24
528.55	53296.34
528.72	53240.17
528.89	53343.15
529.07	53097.39
529.24	53219.10
529.41	53478.90
529.58	53553.80
529.75	53584.22
529.92	53687.21
530.09	53616.99
530.26	53727.00
530.43	53560.82
530.60	53698.91
530.77	53577.20
530.94	53937.65
531.11	53420.39
531.28	53872.11
531.46	54094.46
531.63	54284.04
531.80	53944.67
531.97	53965.73
532.14	54171.70
532.31	53932.96
532.48	54223.19
532.65	54319.15
532.82	54396.39
532.99	54405.75
533.16	54497.03
533.33	54583.63
533.50	54642.15
533.67	54754.49
533.84	54468.95
534.01	54693.64
534.18	54674.91
534.35	55271.75
534.52	55049.40
534.69	54981.52
534.86	55143.02
535.03	54740.45
535.20	55152.38
535.37	55145.36
535.54	55016.63
535.71	55224.94
535.88	55327.92
536.05	55201.53
536.22	55180.47
536.38	55515.17
536.55	55597.09
536.72	55381.76
536.89	55030.68
537.06	55456.65
537.23	55569.00
537.40	55283.45
537.57	55557.30
537.74	55667.30
537.91	55789.01
538.08	55468.36
538.25	55356.01
538.42	55845.18
538.59	56184.56
538.75	56041.79
538.92	55870.93
539.09	55987.95
539.26	55849.86
539.43	55920.08
539.60	56287.54
539.77	55929.44
539.94	56229.03
540.11	56226.69
540.28	56404.57
540.44	56100.30
540.61	56191.58
540.78	56280.52
540.95	56430.32
541.12	55978.59
541.29	56390.53
541.46	56385.85
541.62	56453.72
541.79	56540.32
541.96	56346.06
542.13	56149.45
542.30	56697.14
542.47	56741.61
542.63	56587.13
542.80	56741.61
542.97	56755.65
543.14	56942.89
543.31	57001.41
543.48	56982.68
543.64	57195.67
543.81	57258.87
543.98	57195.67
544.15	57022.47
544.32	57069.28
544.48	57256.53
544.65	57167.58
544.82	57172.27
544.99	57137.16
545.16	57183.97
545.32	57347.81
545.49	57598.24
545.66	57549.09
545.83	57497.60
546.00	57605.26
546.16	57401.64
546.33	57485.90
546.50	57310.36
546.67	57464.83
546.83	57340.78
547.00	57549.09
547.17	57455.47
547.34	57633.35
547.50	57776.12
547.67	57801.87
547.84	57972.73
548.00	57984.43
548.17	58216.14
548.34	57858.04
548.51	58113.16
548.67	57897.83
548.84	57813.57
549.01	57773.78
549.18	57925.92
549.34	58080.39
549.51	58183.38
549.68	58262.96
549.84	57986.77
550.01	58358.92
550.18	58213.80
550.34	58410.41
550.51	58159.97
550.68	58286.36
550.84	58045.29
551.01	58218.49
551.18	58298.06
551.34	58370.62
551.51	58117.84
551.68	58408.07
551.84	58403.39
552.01	58293.38
552.18	58440.84
552.34	58244.23
552.51	58660.85
552.68	58475.94
552.84	58611.70
553.01	58845.75
553.18	58759.15
553.34	58665.53
553.51	58445.52
553.67	58705.32
553.84	58597.65
554.01	58670.21
554.17	58653.82
554.34	58880.86
554.51	59018.95
554.67	58899.58
554.84	58822.34
555.00	58852.77
555.17	58653.82
555.33	58831.71
555.50	58693.61
555.67	58766.17
555.83	58932.35
556.00	58827.02
556.16	59255.34
556.33	59063.42
556.50	58997.88
556.66	59131.29
556.83	58901.92
556.99	59098.53
557.16	59646.21
557.32	59334.92
557.49	59451.95
557.65	59199.17
557.82	59248.32
557.98	59274.07
558.15	59199.17
558.32	59189.81
558.48	59185.13
558.65	59306.83
558.81	59393.43
558.98	59377.05
559.14	59384.07
559.31	59409.82
559.47	59419.18
559.64	59554.93
559.80	59522.16
559.97	59590.04
560.13	59414.50
560.30	59292.79
560.46	59664.94
560.63	59690.68
560.79	59559.61
560.96	59941.12
561.12	59554.93
561.29	59725.79
561.45	59732.81
561.61	59894.31
561.78	59678.98
561.94	59433.22
562.11	59906.01
562.27	59812.39
562.44	59962.18
562.60	59847.50
562.77	59859.20
562.93	59753.88
563.10	60041.76
563.26	59756.22
563.42	60062.83
563.59	60048.78
563.75	59667.28
563.92	59880.27
564.08	59990.27
564.24	59945.80
564.41	59915.37
564.57	59877.93
564.74	59980.91
564.90	60109.64
565.07	60034.74
565.23	59948.14
565.39	60020.70
565.56	60067.51
565.72	59906.01
565.88	59791.33
566.05	59884.95
566.21	60011.34
566.38	59990.27
566.54	60144.75
566.70	60196.24
566.87	60149.43
567.03	59889.63
567.19	60243.05
567.36	60086.23
567.52	60013.68
567.68	60533.28
567.85	60315.61
568.01	60292.20
568.17	60268.79
568.34	60119.00
568.50	60331.99
568.66	60158.79
568.83	60341.35
568.99	60060.49
569.15	60226.66
569.32	60210.28
569.48	60093.25
569.64	60350.71
569.81	60189.22
569.97	60186.88
570.13	60238.37
570.30	60296.88
570.46	60280.50
570.62	60306.24
570.78	60240.71
570.95	60367.10
571.11	60472.42
571.27	60341.35
571.43	60280.50
571.60	60441.99
571.76	60500.51
571.92	60289.86
572.09	60425.61
572.25	60296.88
572.41	60292.20
572.57	60411.57
572.74	60582.43
572.90	60449.02
573.06	60334.33
573.22	60402.21
573.38	60467.74
573.55	60416.25
573.71	60552.00
573.87	60439.65
574.03	60350.71
574.20	60610.51
574.36	60547.32
574.52	60573.06
574.68	60563.70
574.84	60610.51
575.01	60664.35
575.17	60505.19
575.33	60631.58
575.49	60559.02
575.65	60484.12
575.82	60811.80
575.98	60596.47
576.14	60666.69
576.30	60523.91
576.46	60425.61
576.62	60654.98
576.79	60683.07
576.95	60357.74
577.11	60603.49
577.27	60694.77
577.43	60757.97
577.59	60477.10
577.75	60610.51
577.92	60528.59
578.08	60491.15
578.24	60591.79
578.40	60846.91
578.56	60898.40
578.72	60544.98
578.88	60917.12
579.04	61045.85
579.21	60673.71
579.37	60699.45
579.53	60839.89
579.69	60437.31
579.85	60729.88
580.01	60575.40
580.17	60640.94
580.33	60640.94
580.49	60729.88
580.65	60807.12
580.82	60697.11
580.98	60439.65
581.14	60802.44
581.30	60860.95
581.46	60685.41
581.62	60842.23
581.78	60544.98
581.94	60757.97
582.10	60797.76
582.26	60715.84
582.42	60764.99
582.58	60856.27
582.74	60619.88
582.90	60807.12
583.06	60568.38
583.22	60643.28
583.38	60896.06
583.54	60753.29
583.70	60779.03
583.86	60734.56
584.02	60830.52
584.18	61027.13
584.34	60879.67
584.50	60713.50
584.66	60779.03
584.82	60903.08
584.98	61109.05
585.14	61034.15
585.30	60601.15
585.46	60970.96
585.62	60753.29
585.78	60856.27
585.94	60739.24
586.10	60743.92
586.26	60825.84
586.42	61036.49
586.58	60963.93
586.74	61010.74
586.90	60865.63
587.06	60842.23
587.22	60910.10
587.38	61031.81
587.54	60844.57
587.70	61076.28
587.86	60818.82
588.02	60802.44
588.18	61034.15
588.34	60893.72
588.49	60865.63
