SpectraSuite Data File
++++++++++++++++++++++++++++++++++++
Date: Fri Oct 25 11:25:53 EDT 2013
User: price-jones
Dark Spectrum Present: No
Reference Spectrum Present: No
Number of Sampled Component Spectra: 1
Spectrometers: USB2+H05261
Integration Time (usec): 100000 (USB2+H05261)
Spectra Averaged: 1 (USB2+H05261)
Boxcar Smoothing: 0 (USB2+H05261)
Correct for Electrical Dark: No (USB2+H05261)
Strobe/Lamp Enabled: No (USB2+H05261)
Correct for Detector Non-linearity: No (USB2+H05261)
Correct for Stray Light: No (USB2+H05261)
Number of Pixels in Processed Spectrum: 2048
>>>>>Begin Processed Spectral Data<<<<<
365.73	208.31
365.92	208.31
366.12	208.31
366.32	187.24
366.52	133.41
366.72	173.20
366.91	156.82
367.11	180.22
367.31	152.13
367.51	140.43
367.70	177.88
367.90	156.82
368.10	159.16
368.30	112.35
368.49	35.11
368.69	201.29
368.89	81.92
369.09	135.75
369.28	163.84
369.48	133.41
369.68	238.73
369.87	121.71
370.07	210.65
370.27	163.84
370.47	262.14
370.66	545.34
370.86	688.12
371.06	667.05
371.25	725.57
371.45	706.84
371.65	688.12
371.84	681.10
372.04	681.10
372.24	725.57
372.44	713.86
372.63	741.95
372.83	805.14
373.03	779.40
373.22	758.33
373.42	795.78
373.62	760.67
373.81	779.40
374.01	858.98
374.21	840.25
374.40	807.48
374.60	805.14
374.79	809.83
374.99	931.53
375.19	896.43
375.38	849.61
375.58	800.46
375.78	814.51
375.97	880.04
376.17	870.68
376.37	849.61
376.56	770.04
376.76	868.34
376.95	798.12
377.15	950.26
377.35	887.06
377.54	901.11
377.74	821.53
377.93	901.11
378.13	898.77
378.33	938.55
378.52	940.90
378.72	985.37
378.91	931.53
379.11	830.89
379.31	870.68
379.50	858.98
379.70	1022.81
379.89	1034.52
380.09	968.98
380.28	938.55
380.48	1022.81
380.68	924.51
380.87	1008.77
381.07	1139.84
381.26	978.34
381.46	959.62
381.65	1008.77
381.85	1053.24
382.04	994.73
382.24	1102.39
382.43	1055.58
382.63	1114.10
382.83	1114.10
383.02	1083.67
383.22	1149.20
383.41	1069.62
383.61	1018.13
383.80	1125.80
384.00	1090.69
384.19	1102.39
384.39	1062.60
384.58	1198.35
384.78	1069.62
384.97	1170.27
385.17	1069.62
385.36	1142.18
385.56	1156.22
385.75	1107.07
385.95	1090.69
386.14	1198.35
386.34	1198.35
386.53	1196.01
386.72	1207.72
386.92	1296.66
387.11	1242.82
387.31	1296.66
387.50	1301.34
387.70	1226.44
387.89	1231.12
388.09	1221.76
388.28	1259.21
388.48	1235.80
388.67	1270.91
388.86	1287.29
389.06	1235.80
389.25	1287.29
389.45	1324.74
389.64	1446.45
389.84	1434.75
390.03	1390.28
390.22	1385.60
390.42	1362.19
390.61	1383.26
390.81	1355.17
391.00	1465.18
391.19	1481.56
391.39	1444.11
391.58	1453.47
391.78	1488.58
391.97	1530.71
392.16	1427.73
392.36	1469.86
392.55	1383.26
392.75	1540.07
392.94	1504.96
393.13	1509.65
393.33	1577.52
393.52	1617.31
393.71	1596.25
393.91	1544.75
394.10	1671.14
394.29	1563.48
394.49	1509.65
394.68	1692.21
394.88	1547.09
395.07	1614.97
395.26	1626.67
395.46	1762.42
395.65	1743.70
395.84	1680.50
396.04	1825.62
396.23	1640.72
396.42	1692.21
396.62	1727.32
396.81	1746.04
397.00	1720.29
397.19	1802.21
397.39	1774.13
397.58	1811.57
397.77	1820.94
397.97	1881.79
398.16	1671.14
398.35	1893.49
398.55	1849.02
398.74	1849.02
398.93	1919.24
399.12	1926.26
399.32	1975.41
399.51	1834.98
399.70	1952.01
399.90	2015.20
400.09	2003.50
400.28	2017.54
400.47	2146.27
400.67	2062.01
400.86	1977.75
401.05	2099.46
401.24	2080.74
401.44	2069.03
401.63	2157.97
401.82	2101.80
402.01	2052.65
402.21	2249.25
402.40	2200.10
402.59	2249.25
402.78	2195.42
402.97	2235.21
403.17	2342.88
403.36	2298.41
403.55	2265.64
403.74	2307.77
403.93	2279.68
404.13	2410.75
404.32	2368.62
404.51	2483.31
404.70	2438.84
404.89	2275.00
405.09	2445.86
405.28	2555.86
405.47	2499.69
405.66	2459.90
405.85	2532.46
406.05	2555.86
406.24	2581.61
406.43	2497.35
406.62	2623.74
406.81	2656.51
407.00	2612.04
407.20	2506.71
407.39	2731.41
407.58	2619.06
407.77	2712.68
407.96	2672.89
408.15	2708.00
408.34	2705.66
408.54	2810.98
408.73	2855.45
408.92	2682.25
409.11	2860.13
409.30	2885.88
409.49	2869.50
409.68	2965.46
409.87	3054.40
410.07	2918.65
410.26	3033.33
410.45	3038.02
410.64	3005.25
410.83	3103.55
411.02	3110.57
411.21	3080.14
411.40	3239.30
411.59	3183.13
411.78	3311.86
411.98	3260.37
412.17	3251.00
412.36	3396.12
412.55	3258.03
412.74	3475.70
412.93	3344.63
413.12	3349.31
413.31	3569.32
413.50	3421.86
413.69	3524.85
413.88	3583.36
414.07	3531.87
414.26	3721.45
414.45	3735.50
414.64	3700.39
414.83	3782.31
415.02	3712.09
415.22	3808.05
415.41	3805.71
415.60	3838.48
415.79	3939.12
415.98	4028.06
416.17	3896.99
416.36	3978.91
416.55	3953.16
416.74	4131.05
416.93	4107.64
417.12	4081.89
417.31	4152.11
417.50	4124.02
417.69	4182.54
417.88	4283.18
418.07	4182.54
418.26	4329.99
418.45	4205.94
418.64	4449.36
418.83	4418.93
419.02	4393.19
419.21	4416.59
419.39	4442.34
419.58	4470.42
419.77	4423.61
419.96	4521.92
420.15	4510.21
420.34	4535.96
420.53	4559.36
420.72	4685.75
420.91	4674.05
421.10	4709.16
421.29	4880.02
421.48	4561.70
421.67	4760.65
421.86	4664.69
422.05	4856.61
422.24	4765.33
422.43	4826.18
422.61	4877.68
422.80	4791.08
422.99	4929.17
423.18	5081.30
423.37	5032.15
423.56	4894.06
423.75	5029.81
423.94	4858.95
424.13	4547.66
424.32	4767.67
424.50	4973.64
424.69	5064.92
424.88	4915.12
425.07	4791.08
425.26	4973.64
425.45	4903.42
425.64	4868.31
425.83	4971.30
426.01	5029.81
426.20	5165.56
426.39	5043.85
426.58	4975.98
426.77	5114.07
426.96	5055.56
427.15	4966.62
427.33	5240.46
427.52	5128.11
427.71	5123.43
427.90	5359.83
428.09	5282.59
428.28	5469.83
428.46	5214.71
428.65	5348.12
428.84	5500.26
429.03	5490.90
429.22	5444.09
429.40	5235.78
429.59	5327.06
429.78	5423.02
429.97	5280.25
430.16	5502.60
430.34	5535.37
430.53	5685.16
430.72	5746.02
430.91	5781.12
431.10	5570.48
431.28	5671.12
431.47	5596.22
431.66	5809.21
431.85	5891.13
432.03	5977.73
432.22	6125.18
432.41	5886.45
432.60	5867.72
432.79	5994.11
432.97	6129.86
433.16	5963.68
433.35	6059.65
433.54	6153.27
433.72	6143.91
433.91	6209.44
434.10	5998.79
434.28	6090.07
434.47	6104.12
434.66	6057.31
434.85	6375.62
435.03	6274.98
435.22	6237.53
435.41	6413.07
435.59	6389.66
435.78	6333.49
435.97	6424.77
436.16	6403.71
436.34	6373.28
436.53	6558.18
436.72	6483.28
436.90	6640.10
437.09	6448.18
437.28	6541.80
437.46	6427.11
437.65	6593.29
437.84	6691.59
438.02	6839.05
438.21	6761.81
438.40	6729.04
438.58	6958.41
438.77	7007.56
438.96	6890.54
439.14	6869.47
439.33	7253.32
439.52	7253.32
439.70	7145.66
439.89	7456.95
440.08	7337.58
440.26	7283.75
440.45	7183.10
440.63	7435.88
440.82	7414.82
441.01	7573.97
441.19	7693.34
441.38	7611.42
441.57	7616.10
441.75	7913.35
441.94	7714.41
442.12	7742.49
442.31	7882.92
442.50	7861.86
442.68	7903.99
442.87	8002.29
443.05	8016.33
443.24	8149.75
443.43	8163.79
443.61	8079.53
443.80	8486.78
443.98	8074.85
444.17	7861.86
444.35	8215.28
444.54	8404.86
444.73	8084.21
444.91	8271.45
445.10	8273.79
445.28	8182.51
445.47	8170.81
445.65	8271.45
445.84	8339.33
446.02	8269.11
446.21	8472.74
446.39	8409.54
446.58	8477.42
446.77	8458.70
446.95	8191.88
447.14	8332.31
447.32	8566.36
447.51	8432.95
447.69	8411.89
447.88	8449.33
448.06	8540.61
448.25	8634.24
448.43	8477.42
448.62	8599.13
448.80	8463.38
448.99	8674.03
449.17	8739.56
449.36	8622.53
449.54	8603.81
449.73	8943.19
449.91	8784.03
450.10	8762.97
450.28	9011.06
450.46	9039.15
450.65	9067.24
450.83	9139.79
451.02	8985.32
451.20	9273.20
451.39	9060.21
451.57	9284.91
451.76	9006.38
451.94	9022.77
452.13	9441.72
452.31	9338.74
452.49	9207.67
452.68	9298.95
452.86	9399.59
453.05	9500.23
453.23	9635.99
453.42	9327.03
453.60	9266.18
453.78	9521.30
453.97	9359.80
454.15	9231.07
454.34	9329.38
454.52	9568.11
454.70	9561.09
454.89	9537.68
455.07	9968.34
455.26	9785.78
455.44	9734.29
455.62	9823.23
455.81	9977.70
455.99	9806.84
456.17	9989.41
456.36	9994.09
456.54	10293.68
456.73	10296.02
456.91	10410.70
457.09	10286.65
457.28	10389.64
457.46	10249.21
457.64	10611.99
457.83	10431.77
458.01	10413.04
458.19	10455.17
458.38	10581.56
458.56	10729.02
458.74	10623.69
458.93	10478.58
459.11	10794.55
459.29	10616.67
459.48	10799.23
459.66	10752.42
459.84	10860.09
460.03	10974.77
460.21	10986.47
460.39	11014.56
460.57	11190.10
460.76	10972.43
460.94	11105.84
461.12	11311.81
461.31	11382.03
461.49	11260.32
461.67	11339.90
461.85	11222.87
462.04	11234.57
462.22	11871.20
462.40	11487.35
462.59	11496.71
462.77	11548.20
462.95	11716.72
463.13	11524.80
463.32	11669.91
463.50	11637.14
463.68	11639.48
463.86	11901.62
464.05	11632.46
464.23	11623.10
464.41	11810.34
464.59	11698.00
464.78	12142.70
464.96	12147.38
465.14	11815.02
465.32	12177.81
465.50	12121.63
465.69	12177.81
465.87	12046.74
466.05	12119.29
466.23	12077.16
466.41	12306.54
466.60	12336.96
466.78	12376.75
466.96	12449.31
467.14	12233.98
467.32	12386.12
467.51	12589.74
467.69	11854.81
467.87	12306.54
468.05	12521.87
468.23	12322.92
468.41	12519.53
468.60	12723.15
468.78	12741.88
468.96	12542.93
469.14	12690.38
469.32	12823.80
469.50	12664.64
469.69	12924.44
469.87	13200.62
470.05	12751.24
470.23	13067.21
470.41	13088.28
470.59	13345.73
470.77	13446.38
470.95	13167.85
471.14	13376.16
471.32	13107.00
471.50	13497.87
471.68	13589.15
471.86	13497.87
472.04	13619.58
472.22	13841.93
472.40	13678.09
472.58	13855.97
472.77	13886.40
472.95	14265.57
473.13	14303.01
473.31	14090.02
473.49	14197.69
473.67	13973.00
473.85	14127.47
474.03	14398.98
474.21	14450.47
474.39	14647.07
474.57	14656.43
474.75	14705.59
474.93	14684.52
475.12	14794.53
475.30	14995.81
475.48	14785.16
475.66	15311.78
475.84	15098.80
476.02	15302.42
476.20	15363.28
476.38	15466.26
476.56	15997.56
476.74	15878.19
476.92	16016.29
477.10	15690.95
477.28	15957.77
477.46	16093.52
477.64	16198.85
477.82	16575.67
478.00	16847.18
478.18	16657.59
478.36	16608.44
478.54	16805.05
478.72	17343.37
478.90	17415.93
479.08	17425.29
479.26	17657.00
479.44	17575.08
479.62	17825.52
479.80	18005.74
479.98	18223.41
480.16	18270.22
480.34	18333.42
480.52	18417.68
480.70	18546.40
480.88	18445.76
481.06	18340.44
481.24	18841.31
481.41	19066.00
481.59	19234.52
481.77	19269.63
481.95	19613.69
482.13	19756.46
482.31	19541.13
482.49	20065.41
482.67	20240.95
482.85	20547.56
483.03	20732.47
483.21	20666.93
483.39	21034.39
483.57	21317.60
483.74	20812.04
483.92	21425.26
484.10	21415.90
484.28	21429.94
484.46	21795.07
484.64	22312.33
484.82	21949.54
485.00	22157.85
485.18	23180.67
485.35	22785.12
485.53	22848.31
485.71	22991.08
485.89	23417.06
486.07	22965.34
486.25	23173.64
486.43	23494.30
486.61	23522.38
486.78	24091.13
486.96	24058.37
487.14	24336.89
487.32	24762.87
487.50	25071.82
487.68	25088.20
487.85	24973.52
488.03	25305.87
488.21	25806.75
488.39	25757.60
488.57	25816.11
488.75	25998.67
488.92	26408.26
489.10	26417.63
489.28	26506.57
489.46	27215.75
489.64	27159.58
489.81	27269.58
489.99	27505.98
490.17	27381.93
490.35	27901.53
490.53	27784.50
490.70	28591.98
490.88	28318.14
491.06	28407.08
491.24	28566.24
491.41	28463.25
491.59	29053.07
491.77	29198.18
491.95	29488.41
492.13	29575.01
492.30	29900.34
492.48	29706.08
492.66	30169.51
492.84	30026.73
493.01	30345.05
493.19	30572.08
493.37	30590.80
493.54	31232.11
493.72	31374.88
493.90	31508.29
494.08	31723.62
494.25	31807.88
494.43	31896.82
494.61	32297.05
494.79	32128.53
494.96	32250.24
495.14	32311.10
495.32	32926.66
495.49	33039.00
495.67	32716.01
495.85	33682.65
496.02	33684.99
496.20	34026.71
496.38	34125.01
496.55	33858.19
496.73	34728.87
496.91	34415.24
497.09	34677.38
497.26	34794.40
497.44	35105.70
497.62	35147.82
497.79	35730.62
497.97	35805.52
498.14	35552.74
498.32	35814.88
498.50	36044.25
498.67	36535.76
498.85	36666.83
499.03	36718.32
499.20	36371.92
499.38	36870.46
499.56	36893.86
499.73	37425.17
499.91	37284.73
500.08	37378.36
500.26	37303.46
500.44	37570.28
500.61	37617.09
500.79	37677.94
500.97	38026.68
501.14	38644.59
501.32	38419.89
501.49	38469.04
501.67	38504.15
501.84	38906.73
502.02	38792.04
502.20	38820.13
502.37	39208.65
502.55	38981.62
502.72	39452.07
502.90	39435.69
503.07	39431.01
503.25	39629.95
503.43	39749.32
503.60	40179.98
503.78	40119.12
503.95	40289.98
504.13	40278.28
504.30	40655.11
504.48	40472.54
504.65	40795.54
504.83	41240.24
505.01	41289.39
505.18	41057.68
505.36	41326.84
505.53	41027.25
505.71	41551.53
505.88	41961.12
506.06	41329.18
506.23	41787.92
506.41	41935.38
506.58	42052.41
506.76	41933.04
506.93	42721.80
507.11	42487.74
507.28	42494.77
507.46	42557.96
507.63	42806.06
507.81	42843.51
507.98	42717.12
508.16	42911.38
508.33	43496.52
508.50	43438.00
508.68	43119.69
508.85	43679.08
509.03	44264.21
509.20	43650.99
509.38	44226.76
509.55	44210.38
509.73	44456.14
509.90	44119.10
510.08	44594.23
510.25	44411.67
510.42	44591.89
510.60	44992.12
510.77	44985.10
510.95	45361.92
511.12	45076.38
511.30	44980.42
511.47	45670.87
511.64	44999.14
511.82	45427.46
511.99	45411.07
512.17	45687.26
512.34	45729.39
512.51	45951.74
512.69	46239.62
512.86	46218.56
513.04	46679.64
513.21	46527.51
513.38	47007.32
513.56	46897.31
513.73	46536.87
513.90	46801.35
514.08	46525.17
514.25	47035.41
514.43	47000.30
514.60	47426.28
514.77	46759.22
514.95	47599.47
515.12	47433.30
515.29	47463.72
515.47	47880.34
515.64	48121.41
515.81	47718.84
515.99	47976.30
516.16	48264.19
516.33	48203.33
516.51	48547.39
516.68	48081.63
516.85	48535.69
517.03	48624.63
517.20	48987.41
517.37	48935.92
517.54	48612.93
517.72	48884.43
517.89	48903.15
518.06	49287.00
518.24	49085.72
518.41	49305.73
518.58	49228.49
518.75	49340.83
518.93	49270.62
519.10	49411.05
519.27	49104.44
519.45	49404.03
519.62	49979.80
519.79	49757.45
519.96	49663.83
520.14	49827.66
520.31	49794.90
520.48	50443.23
520.65	50347.26
520.83	50424.50
521.00	50754.52
521.17	50225.56
521.34	50068.74
521.52	50754.52
521.69	50684.30
521.86	50798.99
522.03	51082.19
522.20	51103.26
522.38	51274.12
522.55	51091.55
522.72	50923.04
522.89	51011.98
523.07	51440.29
523.24	51334.97
523.41	51533.92
523.58	51463.70
523.75	51856.91
523.92	51648.60
524.10	51875.63
524.27	51849.89
524.44	52034.79
524.61	51983.30
524.78	51941.17
524.96	52203.31
525.13	52147.14
525.30	51983.30
525.47	52346.08
525.64	52053.51
525.81	52505.24
525.98	52722.91
526.16	52664.39
526.33	52622.26
526.50	52940.58
526.67	52741.63
526.84	52842.27
527.01	52739.29
527.18	52451.41
527.36	52596.52
527.53	53073.99
527.70	53221.44
527.87	53123.14
528.04	53045.90
528.21	53200.38
528.38	52907.81
528.55	53336.13
528.72	53144.20
528.89	52940.58
529.07	53319.74
529.24	53504.65
529.41	53600.61
529.58	53481.24
529.75	53518.69
529.92	53621.67
530.09	53897.86
530.26	53684.87
530.43	53888.49
530.60	53719.98
530.77	54110.85
530.94	54124.89
531.11	53876.79
531.28	54155.32
531.46	53965.73
531.63	54117.87
531.80	54403.41
531.97	53935.30
532.14	54403.41
532.31	54248.94
532.48	54459.58
532.65	54529.80
532.82	54368.30
532.99	54593.00
533.16	54255.96
533.33	54859.82
533.50	55091.53
533.67	54719.38
533.84	54756.83
534.01	54557.89
534.18	54777.90
534.35	55068.12
534.52	54845.77
534.69	55035.36
534.86	55196.85
535.03	54869.18
535.20	54951.10
535.37	55508.14
535.54	55299.84
535.71	55241.32
535.88	55271.75
536.05	55320.90
536.22	55491.76
536.38	55480.06
536.55	55517.51
536.72	55400.48
536.89	55557.30
537.06	55739.86
537.23	55599.43
537.40	55466.02
537.57	55812.41
537.74	55503.46
537.91	55868.59
538.08	55814.76
538.25	55559.64
538.42	55810.07
538.59	55955.19
538.75	55559.64
538.92	55891.99
539.09	56016.04
539.26	55978.59
539.43	55985.61
539.60	56182.22
539.77	56299.25
539.94	56432.66
540.11	56067.53
540.28	56238.39
540.44	56252.44
540.61	56439.68
540.78	56147.11
540.95	56603.52
541.12	56191.58
541.29	56360.10
541.46	56385.85
541.62	56257.12
541.79	56685.43
541.96	56184.56
542.13	56484.15
542.30	56446.70
542.47	56683.09
542.63	56872.68
542.80	56580.11
542.97	57064.60
543.14	56865.66
543.31	57174.61
543.48	57090.35
543.64	57471.85
543.81	57378.23
543.98	57186.31
544.15	57272.91
544.32	57401.64
544.48	57464.83
544.65	57247.16
544.82	57279.93
544.99	57305.68
545.16	57375.89
545.32	57432.07
545.49	57453.13
545.66	57862.72
545.83	57343.12
546.00	57504.62
546.16	57612.29
546.33	57560.79
546.50	57427.38
546.67	57647.39
546.83	57275.25
547.00	57616.97
547.17	57715.27
547.34	57647.39
547.50	57703.57
547.67	57963.37
547.84	57523.35
548.00	57949.32
548.17	57977.41
548.34	57968.05
548.51	58040.60
548.67	58052.31
548.84	58202.10
549.01	58159.97
549.18	58047.63
549.34	58211.46
549.51	58337.85
549.68	58286.36
549.84	58174.02
550.01	58288.70
550.18	58059.33
550.34	58330.83
550.51	58316.79
550.68	58539.14
550.84	58183.38
551.01	58539.14
551.18	58419.77
551.34	58504.03
551.51	58611.70
551.68	58382.32
551.84	58543.82
552.01	58602.33
552.18	58632.76
552.34	58520.41
552.51	58674.89
552.68	58188.06
552.84	58396.37
553.01	58735.74
553.18	58822.34
553.34	58618.72
553.51	58604.67
553.67	58602.33
553.84	58834.05
554.01	58852.77
554.17	59035.33
554.34	58983.84
554.51	58873.84
554.67	58944.05
554.84	58719.36
555.00	58951.07
555.17	59091.51
555.33	59032.99
555.50	58700.64
555.67	59079.80
555.83	58899.58
556.00	59178.10
556.16	59346.62
556.33	59185.13
556.50	59058.74
556.66	59241.30
556.83	59040.01
556.99	59426.20
557.16	59416.84
557.32	59440.24
557.49	59585.36
557.65	59145.34
557.82	59297.47
557.98	59161.72
558.15	59346.62
558.32	59475.35
558.48	59487.06
558.65	59580.68
558.81	59309.18
558.98	59475.35
559.14	59423.86
559.31	59468.33
559.47	59531.53
559.64	59604.08
559.80	59723.45
559.97	59826.43
560.13	59772.60
560.30	59412.16
560.46	59774.94
560.63	59449.61
560.79	59583.02
560.96	59798.35
561.12	59739.83
561.29	59578.34
561.45	59737.49
561.61	59798.35
561.78	59681.32
561.94	59686.00
562.11	59594.72
562.27	59707.07
562.44	59964.52
562.60	60177.51
562.77	59929.42
562.93	59880.27
563.10	59821.75
563.26	59875.58
563.42	60233.69
563.59	60102.62
563.75	59859.20
563.92	59777.28
564.08	59770.26
564.24	60051.12
564.41	59999.63
564.57	60053.47
564.74	59842.82
564.90	60016.02
565.07	60102.62
565.23	59875.58
565.39	59880.27
565.56	59948.14
565.72	59971.55
565.88	60020.70
566.05	59948.14
566.21	60224.32
566.38	60048.78
566.54	60184.54
566.70	60327.31
566.87	60467.74
567.03	59994.95
567.19	60399.86
567.36	60165.81
567.52	59980.91
567.68	60453.70
567.85	60465.40
568.01	60449.02
568.17	60107.30
568.34	60238.37
568.50	60217.30
568.66	60331.99
568.83	60341.35
568.99	60285.18
569.15	60221.98
569.32	60374.12
569.48	60299.22
569.64	60388.16
569.81	60259.43
569.97	60430.29
570.13	60378.80
570.30	60299.22
570.46	60353.05
570.62	60411.57
570.78	60245.39
570.95	60261.77
571.11	60552.00
571.27	60519.23
571.43	60322.63
571.60	60746.26
571.76	60467.74
571.92	60542.64
572.09	60477.10
572.25	60451.36
572.41	60458.38
572.57	60598.81
572.74	60762.65
572.90	60535.62
573.06	60498.17
573.22	60544.98
573.38	60360.08
573.55	60605.83
573.71	60662.00
573.87	60779.03
574.03	60493.49
574.20	60582.43
574.36	60519.23
574.52	60598.81
574.68	60949.89
574.84	60612.85
575.01	60678.39
575.17	60519.23
575.33	60591.79
575.49	60676.05
575.65	60636.26
575.82	60762.65
575.98	60814.14
576.14	60821.16
576.30	60779.03
576.46	60577.75
576.62	60587.11
576.79	60633.92
576.95	60514.55
577.11	60715.84
577.27	60683.07
577.43	60746.26
577.59	60734.56
577.75	60584.77
577.92	60573.06
578.08	60395.18
578.24	60844.57
578.40	60912.44
578.56	60903.08
578.72	60755.63
578.88	61183.94
579.04	61111.39
579.21	60818.82
579.37	60999.04
579.53	60903.08
579.69	60680.73
579.85	60626.90
580.01	60683.07
580.17	60636.26
580.33	60956.91
580.49	61038.83
580.65	60961.59
580.82	60659.66
580.98	60755.63
581.14	60830.52
581.30	60996.70
581.46	60809.46
581.62	60949.89
581.78	60746.26
581.94	60779.03
582.10	60743.92
582.26	60617.53
582.42	60889.04
582.58	60666.69
582.74	60825.84
582.90	61015.43
583.06	60921.80
583.22	60807.12
583.38	60837.54
583.54	60970.96
583.70	60800.10
583.86	60884.36
584.02	60879.67
584.18	60994.36
584.34	60928.83
584.50	60781.37
584.66	60636.26
584.82	60790.73
584.98	61001.38
585.14	60849.25
585.30	60544.98
585.46	61045.85
585.62	60795.42
585.78	61041.17
585.94	60769.67
586.10	60837.54
586.26	61066.92
586.42	60959.25
586.58	60952.23
586.74	61078.62
586.90	60851.59
587.06	60977.98
587.22	61113.73
587.38	60821.16
587.54	61080.96
587.70	61197.99
587.86	60919.46
588.02	60879.67
588.18	61092.66
588.34	61045.85
588.49	60886.70
