SpectraSuite Data File
++++++++++++++++++++++++++++++++++++
Date: Fri Oct 25 11:22:42 EDT 2013
User: price-jones
Dark Spectrum Present: No
Reference Spectrum Present: No
Number of Sampled Component Spectra: 1
Spectrometers: USB2+H05261
Integration Time (usec): 100000 (USB2+H05261)
Spectra Averaged: 1 (USB2+H05261)
Boxcar Smoothing: 0 (USB2+H05261)
Correct for Electrical Dark: No (USB2+H05261)
Strobe/Lamp Enabled: No (USB2+H05261)
Correct for Detector Non-linearity: No (USB2+H05261)
Correct for Stray Light: No (USB2+H05261)
Number of Pixels in Processed Spectrum: 2048
>>>>>Begin Processed Spectral Data<<<<<
365.73	163.84
365.92	163.84
366.12	163.84
366.32	142.77
366.52	95.96
366.72	98.30
366.91	56.17
367.11	121.71
367.31	126.39
367.51	140.43
367.70	91.28
367.90	119.37
368.10	124.05
368.30	121.71
368.49	88.94
368.69	173.20
368.89	168.52
369.09	140.43
369.28	105.32
369.48	175.54
369.68	128.73
369.87	168.52
370.07	241.08
370.27	163.84
370.47	248.10
370.66	606.20
370.86	608.54
371.06	713.86
371.25	727.91
371.45	704.50
371.65	667.05
371.84	767.70
372.04	727.91
372.24	732.59
372.44	739.61
372.63	748.97
372.83	786.42
373.03	807.48
373.22	767.70
373.42	727.91
373.62	741.95
373.81	798.12
374.01	746.63
374.21	819.19
374.40	770.04
374.60	795.78
374.79	835.57
374.99	791.10
375.19	835.57
375.38	819.19
375.58	875.36
375.78	856.64
375.97	861.32
376.17	835.57
376.37	784.08
376.56	833.23
376.76	910.47
376.95	896.43
377.15	805.14
377.35	819.19
377.54	926.85
377.74	1001.75
377.93	887.06
378.13	887.06
378.33	877.70
378.52	814.51
378.72	947.92
378.91	1006.43
379.11	973.66
379.31	952.60
379.50	976.00
379.70	1008.77
379.89	978.34
380.09	997.07
380.28	971.32
380.48	884.72
380.68	1001.75
380.87	1015.79
381.07	1008.77
381.26	964.30
381.46	1046.22
381.65	1048.56
381.85	1001.75
382.04	1041.54
382.24	1160.91
382.43	1015.79
382.63	1104.73
382.83	999.41
383.02	1076.65
383.22	1118.78
383.41	1172.61
383.61	1071.97
383.80	1123.46
384.00	1078.99
384.19	1139.84
384.39	1137.50
384.58	1165.59
384.78	1165.59
384.97	1151.54
385.17	1156.22
385.36	1210.06
385.56	1174.95
385.75	1160.91
385.95	1043.88
386.14	1181.97
386.34	1193.67
386.53	1170.27
386.72	1163.25
386.92	1280.27
387.11	1263.89
387.31	1214.74
387.50	1249.85
387.70	1191.33
387.89	1160.91
388.09	1315.38
388.28	1160.91
388.48	1259.21
388.67	1371.55
388.86	1355.17
389.06	1294.32
389.25	1359.85
389.45	1416.02
389.64	1343.47
389.84	1329.42
390.03	1390.28
390.22	1416.02
390.42	1341.13
390.61	1320.06
390.81	1411.34
391.00	1378.58
391.19	1399.64
391.39	1434.75
391.58	1460.49
391.78	1387.94
391.97	1547.09
392.16	1554.12
392.36	1537.73
392.55	1558.80
392.75	1596.25
392.94	1387.94
393.13	1509.65
393.33	1507.30
393.52	1591.56
393.71	1542.41
393.91	1554.12
394.10	1600.93
394.29	1577.52
394.49	1523.69
394.68	1636.03
394.88	1535.39
395.07	1722.63
395.26	1701.57
395.46	1727.32
395.65	1696.89
395.84	1603.27
396.04	1816.26
396.23	1650.08
396.42	1687.53
396.62	1830.30
396.81	1860.73
397.00	1764.76
397.19	1797.53
397.39	1781.15
397.58	1891.15
397.77	1811.57
397.97	1827.96
398.16	1825.62
398.35	1806.89
398.55	1909.88
398.74	1928.60
398.93	1905.20
399.12	1937.96
399.32	1837.32
399.51	1909.88
399.70	1947.33
399.90	1940.30
400.09	2143.93
400.28	2111.16
400.47	1980.09
400.67	2080.74
400.86	2005.84
401.05	1991.80
401.24	2076.06
401.44	2134.57
401.63	2031.58
401.82	2169.68
402.01	2108.82
402.21	2179.04
402.40	2139.25
402.59	2232.87
402.78	2195.42
402.97	2202.44
403.17	2275.00
403.36	2237.55
403.55	2230.53
403.74	2319.47
403.93	2242.23
404.13	2338.20
404.32	2389.69
404.51	2399.05
404.70	2455.22
404.89	2370.96
405.09	2492.67
405.28	2345.22
405.47	2443.52
405.66	2511.39
405.85	2539.48
406.05	2471.61
406.24	2436.50
406.43	2635.44
406.62	2633.10
406.81	2595.65
407.00	2541.82
407.20	2626.08
407.39	2616.72
407.58	2693.96
407.77	2715.02
407.96	2773.53
408.15	2904.60
408.34	2782.90
408.54	2778.22
408.73	2867.16
408.92	2782.90
409.11	2785.24
409.30	2836.73
409.49	2942.05
409.68	2998.23
409.87	2925.67
410.07	3087.17
410.26	2984.18
410.45	3012.27
410.64	3054.40
410.83	3077.80
411.02	3073.12
411.21	3211.22
411.40	3157.38
411.59	3227.60
411.78	3112.91
411.98	3176.11
412.17	3297.81
412.36	3295.47
412.55	3344.63
412.74	3377.39
412.93	3365.69
413.12	3349.31
413.31	3419.52
413.50	3473.36
413.69	3548.25
413.88	3637.19
414.07	3810.39
414.26	3545.91
414.45	3630.17
414.64	3609.11
414.83	3691.02
415.02	3810.39
415.22	3854.86
415.41	3829.12
415.60	3915.72
415.79	3922.74
415.98	3981.25
416.17	3948.48
416.36	3904.01
416.55	3946.14
416.74	3925.08
416.93	4009.34
417.12	4121.68
417.31	4173.18
417.50	4217.65
417.69	4381.48
417.88	4198.92
418.07	4126.36
418.26	4386.16
418.45	4276.16
418.64	4393.19
418.83	4381.48
419.02	4400.21
419.21	4444.68
419.39	4545.32
419.58	4479.79
419.77	4540.64
419.96	4690.43
420.15	4648.30
420.34	4664.69
420.53	4601.49
420.72	4629.58
420.91	4617.88
421.10	4706.82
421.29	4737.24
421.48	4683.41
421.67	4842.57
421.86	4870.65
422.05	4812.14
422.24	4870.65
422.43	4947.89
422.61	4924.49
422.80	5074.28
422.99	4957.25
423.18	5006.41
423.37	4985.34
423.56	4980.66
423.75	5013.43
423.94	4851.93
424.13	4578.09
424.32	4767.67
424.50	5142.16
424.69	5053.22
424.88	5046.20
425.07	4870.65
425.26	4908.10
425.45	4924.49
425.64	4983.00
425.83	4826.18
426.01	5081.30
426.20	4957.25
426.39	5109.39
426.58	4919.81
426.77	4959.60
426.96	5275.57
427.15	5114.07
427.33	5226.42
427.52	5188.97
427.71	5048.54
427.90	5177.26
428.09	5301.31
428.28	5439.40
428.46	5376.21
428.65	5268.55
428.84	5481.53
429.03	5589.20
429.22	5338.76
429.40	5544.73
429.59	5437.06
429.78	5210.03
429.97	5111.73
430.16	5338.76
430.34	5753.04
430.53	5678.14
430.72	5593.88
430.91	5710.91
431.10	5596.22
431.28	5778.78
431.47	5919.21
431.66	5806.87
431.85	5748.36
432.03	5996.45
432.22	5849.00
432.41	5947.30
432.60	6012.84
432.79	5746.02
432.97	6003.47
433.16	5928.58
433.35	6061.99
433.54	6087.73
433.72	6251.57
433.91	6092.41
434.10	6148.59
434.28	6146.25
434.47	6267.95
434.66	6230.51
434.85	6274.98
435.03	6511.37
435.22	6186.04
435.41	6551.16
435.59	6345.19
435.78	6469.24
435.97	6537.12
436.16	6438.81
436.34	6251.57
436.53	6441.15
436.72	6668.19
436.90	6490.31
437.09	6731.38
437.28	6434.13
437.46	6729.04
437.65	6593.29
437.84	6775.85
438.02	6731.38
438.21	6768.83
438.40	6623.72
438.58	7037.99
438.77	7000.54
438.96	7094.16
439.14	7119.91
439.33	7201.83
439.52	7243.96
439.70	7119.91
439.89	7433.54
440.08	7632.49
440.26	7480.35
440.45	7456.95
440.63	7515.46
440.82	7592.70
441.01	7508.44
441.19	7709.72
441.38	7609.08
441.57	7768.24
441.75	7798.66
441.94	7906.33
442.12	7836.11
442.31	7906.33
442.50	8056.12
442.68	8063.15
442.87	7918.03
443.05	8081.87
443.24	8376.78
443.43	8283.16
443.61	8100.59
443.80	8451.67
443.98	8109.96
444.17	8030.38
444.35	8257.41
444.54	8292.52
444.73	8203.58
444.91	8280.82
445.10	8376.78
445.28	8215.28
445.47	8390.82
445.65	8414.23
445.84	8297.20
446.02	8250.39
446.21	8458.70
446.39	8479.76
446.58	8463.38
446.77	8491.46
446.95	8484.44
447.14	8381.46
447.32	8650.62
447.51	8409.54
447.69	8451.67
447.88	8521.89
448.06	8526.57
448.25	8500.83
448.43	8645.94
448.62	8620.19
448.80	8615.51
448.99	8709.13
449.17	8858.93
449.36	8671.68
449.54	8786.37
449.73	8840.20
449.91	8973.61
450.10	9022.77
450.28	8915.10
450.46	8999.36
450.65	9156.18
450.83	9121.07
451.02	9179.58
451.20	9128.09
451.39	9095.32
451.57	9156.18
451.76	9163.20
451.94	9104.68
452.13	9437.04
452.31	9301.29
452.49	9053.19
452.68	9399.59
452.86	9448.74
453.05	9352.78
453.23	9413.63
453.42	9298.95
453.60	9420.66
453.78	9462.79
453.97	9404.27
454.15	9530.66
454.34	9479.17
454.52	9900.47
454.70	9671.09
454.89	9818.55
455.07	9797.48
455.26	9736.63
455.44	9881.74
455.62	9832.59
455.81	10057.28
455.99	10211.76
456.17	10136.86
456.36	9856.00
456.54	10094.73
456.73	10178.99
456.91	10703.27
457.09	10431.77
457.28	10424.75
457.46	10256.23
457.64	10455.17
457.83	10518.37
458.01	10492.62
458.19	10874.13
458.38	10459.85
458.56	10853.06
458.74	10691.57
458.93	10651.78
459.11	10565.18
459.29	10813.28
459.48	10937.32
459.66	10815.62
459.84	10927.96
460.03	11087.12
460.21	11246.27
460.39	11002.86
460.57	11140.95
460.76	11211.17
460.94	11344.58
461.12	10942.00
461.31	11180.74
461.49	11201.80
461.67	11304.79
461.85	11365.64
462.04	11356.28
462.22	11658.21
462.40	11590.33
462.59	11545.86
462.77	11747.15
462.95	11826.73
463.13	11667.57
463.32	11721.40
463.50	11810.34
463.68	11669.91
463.86	11765.87
464.05	11660.55
464.23	12109.93
464.41	12037.38
464.59	11620.76
464.78	12006.95
464.96	12093.55
465.14	11700.34
465.32	12112.27
465.50	12065.46
465.69	12018.65
465.87	12051.42
466.05	12233.98
466.23	12252.70
466.41	12285.47
466.60	12730.17
466.78	12065.46
466.96	12135.68
467.14	12212.92
467.32	12353.35
467.51	12531.23
467.69	12105.25
467.87	12608.47
468.05	12716.13
468.23	12365.05
468.41	12603.78
468.60	12582.72
468.78	12791.03
468.96	12517.18
469.14	12947.84
469.32	13097.64
469.50	12615.49
469.69	12982.95
469.87	13174.88
470.05	13191.26
470.23	13226.37
470.41	12968.91
470.59	13373.82
470.77	13209.98
470.95	13074.23
471.14	13385.52
471.32	13212.32
471.50	13694.47
471.68	13678.09
471.86	13586.81
472.04	13743.63
472.22	14015.13
472.40	13528.30
472.58	13884.06
472.77	14054.92
472.95	14045.55
473.13	14328.76
473.31	14094.71
473.49	14160.24
473.67	14413.02
473.85	14108.75
474.03	14504.30
474.21	14527.71
474.39	14810.91
474.57	14970.07
474.75	14967.73
474.93	14799.21
475.12	14904.53
475.30	15171.35
475.48	14986.45
475.66	15452.22
475.84	15129.22
476.02	15585.63
476.20	15218.16
476.38	15627.76
476.56	16023.31
476.74	15936.71
476.92	15819.68
477.10	16152.04
477.28	16166.08
477.46	16285.45
477.64	16589.72
477.82	16772.28
478.00	17212.30
478.18	16723.13
478.36	17003.99
478.54	17231.02
478.72	17310.60
478.90	17713.17
479.08	17528.27
479.26	17675.73
479.44	17350.39
479.62	18001.06
479.80	18080.64
479.98	18221.07
480.16	18850.67
480.34	18633.00
480.52	18520.66
480.70	18623.64
480.88	18630.66
481.06	18810.89
481.24	18881.10
481.41	19215.80
481.59	19674.54
481.77	19674.54
481.95	19578.58
482.13	19641.78
482.31	19566.88
482.49	20383.73
482.67	20446.92
482.85	20418.83
483.03	20879.92
483.21	20844.81
483.39	21198.23
483.57	21291.85
483.74	21067.16
483.92	21439.31
484.10	21139.72
484.28	21940.18
484.46	21888.69
484.64	22539.36
484.82	22097.00
485.00	22190.62
485.18	22764.05
485.35	22860.01
485.53	22916.19
485.71	23117.47
485.89	23714.31
486.07	23821.97
486.25	23339.82
486.43	23868.78
486.61	23852.40
486.78	24540.52
486.96	24500.73
487.14	24692.65
487.32	24451.58
487.50	25256.72
487.68	25003.94
487.85	25219.27
488.03	25530.56
488.21	25837.17
488.39	25666.31
488.57	25825.47
488.75	26239.75
488.92	26185.91
489.10	26906.80
489.28	27005.10
489.46	27248.52
489.64	26852.97
489.81	28039.62
489.99	27513.00
490.17	27651.09
490.35	28105.15
490.53	28114.52
490.70	28383.68
490.88	28535.81
491.06	29120.95
491.24	28833.06
491.41	29139.67
491.59	28870.51
491.77	29256.70
491.95	29879.28
492.13	29811.40
492.30	30595.48
492.48	29895.66
492.66	29890.98
492.84	30506.54
493.01	30658.68
493.19	30665.70
493.37	30913.80
493.54	31246.15
493.72	31473.18
493.90	31765.75
494.08	31990.44
494.25	31913.20
494.43	32177.68
494.61	32758.14
494.79	32620.05
494.96	32608.34
495.14	33209.86
495.32	33095.18
495.49	33483.70
495.67	33560.94
495.85	33701.37
496.02	33780.95
496.20	34029.05
496.38	33982.24
496.55	34141.39
496.73	35009.73
496.91	34153.10
497.09	35042.50
497.26	34899.73
497.44	34841.21
497.62	35431.03
497.79	35821.90
497.97	35622.95
498.14	36168.30
498.32	36264.26
498.50	36217.45
498.67	36603.64
498.85	36622.36
499.03	36788.54
499.20	36524.06
499.38	37069.40
499.56	36978.12
499.73	37282.39
499.91	37694.33
500.08	37708.37
500.26	37844.12
500.44	37841.78
500.61	38305.21
500.79	37701.35
500.97	37797.31
501.14	38845.87
501.32	38747.57
501.49	38717.14
501.67	38831.83
501.84	39339.72
502.02	38876.30
502.20	39358.45
502.37	39302.28
502.55	39356.11
502.72	39330.36
502.90	39526.97
503.07	39496.54
503.25	40158.91
503.43	39732.93
503.60	40130.83
503.78	40168.27
503.95	40374.24
504.13	40603.61
504.30	40818.94
504.48	40451.48
504.65	40760.43
504.83	41294.07
505.01	41385.35
505.18	41287.05
505.36	41603.02
505.53	41455.57
505.71	42082.83
505.88	41888.57
506.06	41408.76
506.23	42110.92
506.41	42333.27
506.58	42389.44
506.76	42197.52
506.93	42319.23
507.11	42852.87
507.28	42635.20
507.46	42890.32
507.63	43292.89
507.81	43367.79
507.98	42962.87
508.16	43290.55
508.33	43475.45
508.50	43487.15
508.68	43627.59
508.85	44446.77
509.03	43751.63
509.20	44226.76
509.38	44414.01
509.55	44542.74
509.73	44573.16
509.90	44435.07
510.08	44680.83
510.25	45064.67
510.42	45277.66
510.60	45333.84
510.77	45544.48
510.95	45757.47
511.12	45153.62
511.30	45347.88
511.47	45481.29
511.64	45406.39
511.82	45848.75
511.99	45504.70
512.17	46085.15
512.34	45949.40
512.51	46485.38
512.69	46321.54
512.86	46220.90
513.04	46696.03
513.21	46813.05
513.38	46969.87
513.56	47267.12
513.73	47215.63
513.90	47175.84
514.08	46712.41
514.25	47543.30
514.43	47372.44
514.60	47264.78
514.77	47739.91
514.95	47856.93
515.12	48203.33
515.29	47735.23
515.47	48023.11
515.64	48376.53
515.81	48170.57
515.99	48360.15
516.16	48577.82
516.33	48254.82
516.51	48535.69
516.68	48584.84
516.85	48643.35
517.03	49066.99
517.20	49074.01
517.37	48898.47
517.54	48839.96
517.72	49345.51
517.89	49251.89
518.06	49598.29
518.24	49277.64
518.41	49216.78
518.58	49631.06
518.75	49766.81
518.93	49752.77
519.10	49916.61
519.27	49958.73
519.45	50148.32
519.62	50160.02
519.79	50099.17
519.96	50302.79
520.14	50382.37
520.31	50305.13
520.48	50396.42
520.65	50433.86
520.83	50843.46
521.00	50740.47
521.17	51026.02
521.34	50326.20
521.52	50953.46
521.69	50869.20
521.86	51086.87
522.03	51091.55
522.20	51524.55
522.38	51723.50
522.55	51428.59
522.72	51814.78
522.89	51192.20
523.07	51700.09
523.24	51358.38
523.41	51702.43
523.58	51168.79
523.75	52004.36
523.92	52032.45
524.10	52097.98
524.27	52217.35
524.44	52067.56
524.61	52210.33
524.78	52364.81
524.96	52388.21
525.13	52317.99
525.30	52769.72
525.47	52846.96
525.64	52460.77
525.81	52481.83
525.98	52722.91
526.16	52882.06
526.33	52872.70
526.50	53141.86
526.67	52765.04
526.84	53003.77
527.01	52715.89
527.18	52903.13
527.36	53155.91
527.53	52973.34
527.70	53347.83
527.87	53392.30
528.04	53448.47
528.21	53366.55
528.38	53558.48
528.55	53464.86
528.72	53600.61
528.89	53551.46
529.07	53689.55
529.24	53581.88
529.41	53525.71
529.58	53794.87
529.75	53853.39
529.92	53492.94
530.09	54183.40
530.26	54344.90
530.43	54452.56
530.60	54085.10
530.77	53832.32
530.94	54213.83
531.11	54152.97
531.28	54232.55
531.46	54284.04
531.63	54337.88
531.80	54543.84
531.97	54616.40
532.14	54487.67
532.31	54688.96
532.48	54389.37
532.65	54927.69
532.82	54752.15
532.99	54979.18
533.16	54740.45
533.33	54883.22
533.50	54834.07
533.67	54855.14
533.84	54873.86
534.01	54859.82
534.18	55187.49
534.35	55365.37
534.52	55194.51
534.69	55522.19
534.86	55391.12
535.03	55271.75
535.20	55370.05
535.37	55348.99
535.54	55461.33
535.71	55564.32
535.88	55381.76
536.05	55250.69
536.22	55395.80
536.38	55693.05
536.55	55608.79
536.72	55880.29
536.89	55554.96
537.06	55859.23
537.23	55786.67
537.40	55849.86
537.57	55800.71
537.74	55987.95
537.91	56137.75
538.08	56034.77
538.25	55721.13
538.42	56231.37
538.59	56343.72
538.75	56067.53
538.92	56093.28
539.09	56332.01
539.26	56210.31
539.43	56137.75
539.60	56392.87
539.77	56442.02
539.94	56568.41
540.11	56418.61
540.28	56610.54
540.44	56626.92
540.61	56491.17
540.78	56355.42
540.95	56350.74
541.12	56591.81
541.29	56516.92
541.46	56886.72
541.62	56568.41
541.79	56753.31
541.96	56559.05
542.13	56849.27
542.30	56750.97
542.47	56748.63
542.63	57038.86
542.80	57006.09
542.97	57162.90
543.14	57155.88
543.31	57158.22
543.48	57331.42
543.64	57329.08
543.81	57455.47
543.98	57153.54
544.15	57340.78
544.32	57635.69
544.48	57827.62
544.65	57549.09
544.82	57546.75
544.99	57645.05
545.16	57724.63
545.32	57476.54
545.49	57783.15
545.66	57521.01
545.83	57874.43
546.00	57675.48
546.16	57982.09
546.33	57836.98
546.50	57612.29
546.67	57574.84
546.83	57689.52
547.00	57874.43
547.17	58089.76
547.34	57853.36
547.50	58127.20
547.67	58071.03
547.84	58279.34
548.00	58244.23
548.17	58190.40
548.34	58190.40
548.51	58342.53
548.67	58412.75
548.84	58284.02
549.01	58089.76
549.18	58265.30
549.34	58342.53
549.51	58211.46
549.68	58492.33
549.84	58569.57
550.01	58365.94
550.18	58253.59
550.34	58670.21
550.51	58686.59
550.68	58515.73
550.84	58482.97
551.01	58899.58
551.18	58569.57
551.34	58625.74
551.51	58560.20
551.68	58569.57
551.84	58599.99
552.01	58660.85
552.18	58983.84
552.34	58632.76
552.51	58937.03
552.68	58639.78
552.84	58913.62
553.01	58997.88
553.18	59002.56
553.34	58915.96
553.51	58707.66
553.67	59072.78
553.84	58969.80
554.01	58876.18
554.17	59112.57
554.34	59093.85
554.51	58976.82
554.67	59124.27
554.84	59079.80
555.00	59009.59
555.17	58988.52
555.33	59091.51
555.50	58965.12
555.67	59082.14
555.83	59145.34
556.00	59318.54
556.16	59515.14
556.33	59358.33
556.50	59391.09
556.66	59620.47
556.83	59304.49
556.99	59515.14
557.16	59524.50
557.32	59746.86
557.49	59634.51
557.65	59482.37
557.82	59332.58
557.98	59608.76
558.15	59442.59
558.32	59545.57
558.48	59379.39
558.65	59348.96
558.81	59737.49
558.98	59678.98
559.14	59564.29
559.31	59662.60
559.47	59709.41
559.64	59770.26
559.80	59849.84
559.97	59760.90
560.13	59796.01
560.30	59969.21
560.46	60004.31
560.63	59950.48
560.79	60016.02
560.96	60058.15
561.12	59997.29
561.29	59882.61
561.45	59859.20
561.61	59852.18
561.78	59990.27
561.94	59913.03
562.11	59842.82
562.27	59901.33
562.44	60053.47
562.60	60095.60
562.77	60001.97
562.93	59884.95
563.10	60221.98
563.26	60037.08
563.42	60425.61
563.59	60303.90
563.75	60011.34
563.92	60154.11
564.08	59936.44
564.24	60252.41
564.41	60067.51
564.57	60177.51
564.74	60247.73
564.90	60299.22
565.07	60039.42
565.23	60327.31
565.39	60177.51
565.56	60285.18
565.72	60046.44
565.88	60315.61
566.05	60137.72
566.21	60317.95
566.38	60432.63
566.54	60287.52
566.70	60434.97
566.87	60362.42
567.03	60313.26
567.19	60615.19
567.36	60575.40
567.52	60282.84
567.68	60697.11
567.85	60315.61
568.01	60554.34
568.17	60367.10
568.34	60416.25
568.50	60324.97
568.66	60399.86
568.83	60514.55
568.99	60399.86
569.15	60491.15
569.32	60512.21
569.48	60470.08
569.64	60554.34
569.81	60397.52
569.97	60631.58
570.13	60886.70
570.30	60580.09
570.46	60626.90
570.62	60664.35
570.78	60587.11
570.95	60662.00
571.11	60685.41
571.27	60650.30
571.43	60786.05
571.60	60764.99
571.76	60931.17
571.92	60722.86
572.09	60669.03
572.25	60739.24
572.41	60535.62
572.57	60697.11
572.74	61034.15
572.90	60673.71
573.06	60729.88
573.22	60816.48
573.38	60797.76
573.55	60603.49
573.71	60928.83
573.87	60746.26
574.03	60680.73
574.20	60874.99
574.36	60608.17
574.52	60856.27
574.68	60853.93
574.84	61066.92
575.01	60807.12
575.17	60708.82
575.33	60580.09
575.49	60837.54
575.65	60903.08
575.82	60935.85
575.98	60844.57
576.14	60896.06
576.30	60987.34
576.46	60949.89
576.62	60804.78
576.79	60877.33
576.95	60750.94
577.11	61059.90
577.27	60874.99
577.43	60851.59
577.59	60732.22
577.75	60839.89
577.92	60732.22
578.08	60790.73
578.24	60762.65
578.40	61057.56
578.56	60926.49
578.72	60891.38
578.88	61015.43
579.04	61127.77
579.21	60919.46
579.37	61020.11
579.53	60935.85
579.69	60879.67
579.85	60961.59
580.01	60928.83
580.17	60694.77
580.33	61062.24
580.49	61003.72
580.65	61006.06
580.82	60828.18
580.98	60926.49
581.14	60858.61
581.30	61144.16
581.46	61001.38
581.62	61251.82
581.78	60874.99
581.94	61104.37
582.10	60989.68
582.26	60879.67
582.42	60825.84
582.58	61059.90
582.74	60844.57
582.90	60975.64
583.06	61052.87
583.22	61183.94
583.38	61195.65
583.54	61123.09
583.70	60966.27
583.86	61188.63
584.02	60945.21
584.18	61270.54
584.34	61200.33
584.50	60896.06
584.66	60924.14
584.82	60870.31
584.98	61268.20
585.14	61212.03
585.30	61006.06
585.46	61041.17
585.62	61076.28
585.78	61366.51
585.94	61031.81
586.10	61113.73
586.26	61116.07
586.42	61050.53
586.58	60858.61
586.74	61254.16
586.90	61113.73
587.06	61073.94
587.22	61258.84
587.38	61312.67
587.54	61207.35
587.70	61193.31
587.86	61212.03
588.02	61336.08
588.18	61258.84
588.34	61188.63
588.49	61139.47
