SpectraSuite Data File
++++++++++++++++++++++++++++++++++++
Date: Fri Oct 25 11:26:30 EDT 2013
User: price-jones
Dark Spectrum Present: No
Reference Spectrum Present: No
Number of Sampled Component Spectra: 1
Spectrometers: USB2+H05261
Integration Time (usec): 100000 (USB2+H05261)
Spectra Averaged: 1 (USB2+H05261)
Boxcar Smoothing: 0 (USB2+H05261)
Correct for Electrical Dark: No (USB2+H05261)
Strobe/Lamp Enabled: No (USB2+H05261)
Correct for Detector Non-linearity: No (USB2+H05261)
Correct for Stray Light: No (USB2+H05261)
Number of Pixels in Processed Spectrum: 2048
>>>>>Begin Processed Spectral Data<<<<<
365.73	264.48
365.92	264.48
366.12	264.48
366.32	191.92
366.52	210.65
366.72	217.67
366.91	184.90
367.11	100.64
367.31	152.13
367.51	149.79
367.70	135.75
367.90	248.10
368.10	154.48
368.30	147.45
368.49	142.77
368.69	147.45
368.89	138.09
369.09	187.24
369.28	170.86
369.48	147.45
369.68	203.63
369.87	234.05
370.07	222.35
370.27	241.08
370.47	348.74
370.66	568.75
370.86	615.56
371.06	662.37
371.25	732.59
371.45	685.78
371.65	699.82
371.84	699.82
372.04	723.23
372.24	791.10
372.44	751.31
372.63	793.44
372.83	716.20
373.03	718.54
373.22	779.40
373.42	777.06
373.62	760.67
373.81	791.10
374.01	807.48
374.21	802.80
374.40	758.33
374.60	821.53
374.79	793.44
374.99	858.98
375.19	739.61
375.38	842.59
375.58	863.66
375.78	835.57
375.97	851.96
376.17	959.62
376.37	823.87
376.56	884.72
376.76	884.72
376.95	875.36
377.15	866.00
377.35	952.60
377.54	894.08
377.74	940.90
377.93	898.77
378.13	898.77
378.33	957.28
378.52	947.92
378.72	1022.81
378.91	943.24
379.11	901.11
379.31	943.24
379.50	884.72
379.70	1039.20
379.89	1055.58
380.09	1057.92
380.28	1039.20
380.48	990.05
380.68	966.64
380.87	938.55
381.07	952.60
381.26	1086.01
381.46	994.73
381.65	1006.43
381.85	1083.67
382.04	959.62
382.24	1046.22
382.43	1167.93
382.63	1001.75
382.83	1064.94
383.02	1109.41
383.22	1121.12
383.41	1036.86
383.61	1118.78
383.80	1181.97
384.00	1163.25
384.19	1172.61
384.39	1193.67
384.58	1188.99
384.78	1142.18
384.97	1207.72
385.17	1231.12
385.36	1114.10
385.56	1221.76
385.75	1125.80
385.95	1109.41
386.14	1238.14
386.34	1226.44
386.53	1280.27
386.72	1177.29
386.92	1270.91
387.11	1284.95
387.31	1235.80
387.50	1277.93
387.70	1287.29
387.89	1228.78
388.09	1277.93
388.28	1242.82
388.48	1277.93
388.67	1238.14
388.86	1373.89
389.06	1338.79
389.25	1313.04
389.45	1366.87
389.64	1399.64
389.84	1282.61
390.03	1387.94
390.22	1409.00
390.42	1423.05
390.61	1366.87
390.81	1399.64
391.00	1397.30
391.19	1394.96
391.39	1476.88
391.58	1549.43
391.78	1451.13
391.97	1521.35
392.16	1500.28
392.36	1509.65
392.55	1516.67
392.75	1460.49
392.94	1540.07
393.13	1528.37
393.33	1413.68
393.52	1540.07
393.71	1661.78
393.91	1619.65
394.10	1582.20
394.29	1617.31
394.49	1575.18
394.68	1645.40
394.88	1530.71
395.07	1717.95
395.26	1657.10
395.46	1717.95
395.65	1715.61
395.84	1687.53
396.04	1746.04
396.23	1678.16
396.42	1741.36
396.62	1694.55
396.81	1750.72
397.00	1750.72
397.19	1760.08
397.39	1813.92
397.58	1830.30
397.77	1870.09
397.97	1881.79
398.16	1853.70
398.35	1916.90
398.55	1877.11
398.74	1919.24
398.93	1928.60
399.12	1802.21
399.32	1790.51
399.51	1842.00
399.70	1942.64
399.90	1912.22
400.09	2057.33
400.28	1937.96
400.47	2033.93
400.67	2125.21
400.86	2010.52
401.05	2087.76
401.24	2052.65
401.44	1996.48
401.63	2083.08
401.82	2033.93
402.01	2057.33
402.21	2157.97
402.40	2235.21
402.59	2176.70
402.78	2174.36
402.97	2296.07
403.17	2225.85
403.36	2200.10
403.55	2310.11
403.74	2321.81
403.93	2394.37
404.13	2359.26
404.32	2307.77
404.51	2417.77
404.70	2506.71
404.89	2422.45
405.09	2551.18
405.28	2492.67
405.47	2434.16
405.66	2581.61
405.85	2548.84
406.05	2490.33
406.24	2551.18
406.43	2658.85
406.62	2675.23
406.81	2750.13
407.00	2583.95
407.20	2597.99
407.39	2597.99
407.58	2703.32
407.77	2724.38
407.96	2665.87
408.15	2733.75
408.34	2677.57
408.54	2815.66
408.73	2970.14
408.92	2913.97
409.11	2801.62
409.30	2885.88
409.49	2923.33
409.68	3016.95
409.87	2949.08
410.07	3045.04
410.26	3023.97
410.45	2963.12
410.64	2935.03
410.83	2993.55
411.02	3101.21
411.21	3033.33
411.40	3040.36
411.59	3155.04
411.78	3101.21
411.98	3260.37
412.17	3145.68
412.36	3269.73
412.55	3342.28
412.74	3246.32
412.93	3377.39
413.12	3431.23
413.31	3456.97
413.50	3508.46
413.69	3482.72
413.88	3686.34
414.07	3667.62
414.26	3620.81
414.45	3597.40
414.64	3597.40
414.83	3658.26
415.02	3691.02
415.22	3728.47
415.41	3852.52
415.60	3779.97
415.79	3861.88
415.98	3812.73
416.17	3899.33
416.36	3932.10
416.55	4007.00
416.74	4053.81
416.93	4084.23
417.12	4109.98
417.31	4217.65
417.50	4140.41
417.69	4234.03
417.88	4388.50
418.07	4219.99
418.26	4273.82
418.45	4381.48
418.64	4297.22
418.83	4379.14
419.02	4322.97
419.21	4409.57
419.39	4550.00
419.58	4428.29
419.77	4367.44
419.96	4503.19
420.15	4594.47
420.34	4554.68
420.53	4702.14
420.72	4816.82
420.91	4709.16
421.10	4671.71
421.29	4802.78
421.48	4636.60
421.67	4868.31
421.86	4800.44
422.05	4762.99
422.24	4683.41
422.43	5020.45
422.61	4865.97
422.80	4870.65
422.99	4802.78
423.18	4929.17
423.37	4994.70
423.56	4952.57
423.75	4891.72
423.94	4919.81
424.13	4617.88
424.32	4709.16
424.50	4980.66
424.69	5151.52
424.88	4952.57
425.07	4802.78
425.26	4950.23
425.45	4950.23
425.64	4915.12
425.83	4905.76
426.01	4947.89
426.20	4997.04
426.39	5116.41
426.58	4959.60
426.77	4973.64
426.96	5181.95
427.15	5188.97
427.33	5214.71
427.52	5114.07
427.71	5221.74
427.90	5158.54
428.09	5408.98
428.28	5432.38
428.46	5359.83
428.65	5282.59
428.84	5408.98
429.03	5593.88
429.22	5497.92
429.40	5341.10
429.59	5556.43
429.78	5245.14
429.97	5273.23
430.16	5362.17
430.34	5509.62
430.53	5743.67
430.72	5607.92
430.91	5650.05
431.10	5572.82
431.28	5720.27
431.47	5841.98
431.66	5877.09
431.85	5659.42
432.03	5865.38
432.22	6045.60
432.41	5790.49
432.60	5891.13
432.79	5886.45
432.97	5975.39
433.16	5937.94
433.35	5881.77
433.54	6134.54
433.72	6136.88
433.91	6078.37
434.10	6139.23
434.28	6127.52
434.47	6029.22
434.66	6279.66
434.85	6457.54
435.03	6431.79
435.22	6253.91
435.41	6485.62
435.59	6328.81
435.78	6312.42
435.97	6436.47
436.16	6471.58
436.34	6504.35
436.53	6291.36
436.72	6436.47
436.90	6380.30
437.09	6443.49
437.28	6532.44
437.46	6387.32
437.65	6469.24
437.84	6633.08
438.02	6712.66
438.21	6792.23
438.40	6654.14
438.58	6822.66
438.77	7012.24
438.96	6932.67
439.14	7080.12
439.33	7073.10
439.52	7042.67
439.70	7084.80
439.89	7323.54
440.08	7365.67
440.26	7428.86
440.45	7351.62
440.63	7459.29
440.82	7576.31
441.01	7501.42
441.19	7496.74
441.38	7667.60
441.57	7779.94
441.75	7740.15
441.94	7882.92
442.12	7892.29
442.31	8077.19
442.50	7971.86
442.68	7906.33
442.87	8016.33
443.05	8056.12
443.24	8189.53
443.43	8217.62
443.61	8156.77
443.80	8454.02
443.98	7983.57
444.17	7789.30
444.35	8056.12
444.54	8367.42
444.73	8327.63
444.91	8170.81
445.10	8322.94
445.28	8297.20
445.47	8072.51
445.65	8287.84
445.84	8315.92
446.02	8322.94
446.21	8468.06
446.39	8344.01
446.58	8201.24
446.77	8580.40
446.95	8266.77
447.14	8383.80
447.32	8475.08
447.51	8512.53
447.69	8526.57
447.88	8346.35
448.06	8360.39
448.25	8477.42
448.43	8585.08
448.62	8528.91
448.80	8512.53
448.99	8599.13
449.17	8657.64
449.36	8603.81
449.54	8784.03
449.73	8987.66
449.91	8891.70
450.10	8947.87
450.28	9078.94
450.46	9329.38
450.65	8912.76
450.83	9085.96
451.02	8931.48
451.20	9132.77
451.39	9053.19
451.57	9015.74
451.76	9029.79
451.94	9109.36
452.13	9104.68
452.31	9261.50
452.49	9294.27
452.68	9170.22
452.86	9469.81
453.05	9249.80
453.23	9549.39
453.42	9280.22
453.60	9312.99
453.78	9479.17
453.97	9338.74
454.15	9303.63
454.34	9362.14
454.52	9750.67
454.70	9760.03
454.89	9673.43
455.07	9790.46
455.26	9755.35
455.44	9870.04
455.62	10036.22
455.81	9909.83
455.99	9989.41
456.17	10017.49
456.36	9923.87
456.54	10008.13
456.73	10300.70
456.91	10349.85
457.09	10356.87
457.28	10668.16
457.46	10202.40
457.64	10391.98
457.83	10485.60
458.01	10445.81
458.19	10616.67
458.38	10368.57
458.56	10626.03
458.74	10487.94
458.93	10700.93
459.11	10710.29
459.29	10822.64
459.48	10717.31
459.66	10691.57
459.84	10743.06
460.03	11061.37
460.21	10995.84
460.39	10867.11
460.57	10979.45
460.76	11077.76
460.94	11140.95
461.12	11129.25
461.31	11293.08
461.49	10956.05
461.67	11108.18
461.85	11389.05
462.04	11234.57
462.22	11536.50
462.40	11686.29
462.59	11482.67
462.77	11543.52
462.95	11496.71
463.13	11342.24
463.32	11506.07
463.50	11922.69
463.68	11702.68
463.86	11772.89
464.05	11669.91
464.23	11800.98
464.41	11630.12
464.59	11440.54
464.78	11875.88
464.96	11887.58
465.14	11733.11
465.32	12091.21
465.50	12112.27
465.69	12063.12
465.87	12217.60
466.05	12231.64
466.23	12081.85
466.41	12032.69
466.60	12264.41
466.78	12212.92
466.96	12159.08
467.14	12304.20
467.32	12203.55
467.51	12507.82
467.69	12327.60
467.87	12348.67
468.05	12659.96
468.23	12369.73
468.41	12416.54
468.60	12622.51
468.78	12505.48
468.96	12435.27
469.14	12608.47
469.32	12868.27
469.50	12762.94
469.69	13048.49
469.87	13202.96
470.05	13135.09
470.23	13174.88
470.41	13018.06
470.59	13408.93
470.77	13046.15
470.95	13277.86
471.14	13305.95
471.32	13034.44
471.50	13437.02
471.68	13324.67
471.86	13495.53
472.04	13465.10
472.22	14047.90
472.40	13455.74
472.58	13802.14
472.77	14024.49
472.95	14228.12
473.13	14600.26
473.31	14059.60
473.49	13984.70
473.67	14162.58
473.85	14075.98
474.03	14445.79
474.21	14813.25
474.39	14532.39
474.57	14600.26
474.75	14516.00
474.93	14876.44
475.12	14724.31
475.30	15129.22
475.48	14855.38
475.66	15066.03
475.84	15035.60
476.02	15344.55
476.20	15431.15
476.38	15412.43
476.56	15887.56
476.74	15625.42
476.92	15983.52
477.10	15697.97
477.28	16170.76
477.46	16016.29
477.64	16067.78
477.82	16556.95
478.00	16947.82
478.18	16688.02
478.36	16882.28
478.54	17071.87
478.72	17188.89
478.90	17118.68
479.08	17408.90
479.26	17259.11
479.44	17514.23
479.62	17987.02
479.80	17776.37
479.98	17975.31
480.16	18293.63
480.34	18200.01
480.52	18244.48
480.70	18511.30
480.88	18422.36
481.06	18581.51
481.24	18445.76
481.41	18925.57
481.59	18993.45
481.77	19374.95
481.95	19360.91
482.13	19484.96
482.31	19723.69
482.49	19957.75
482.67	20105.20
482.85	20205.84
483.03	20617.78
483.21	20643.52
483.39	20863.54
483.57	20971.20
483.74	21078.86
483.92	21561.02
484.10	20947.79
484.28	21551.65
484.46	21635.91
484.64	22054.87
484.82	21748.26
485.00	22384.88
485.18	22286.58
485.35	22834.27
485.53	22272.54
485.71	22951.29
485.89	23346.84
486.07	23285.99
486.25	23213.43
486.43	23372.59
486.61	23981.13
486.78	23749.42
486.96	23917.93
487.14	24381.36
487.32	24222.20
487.50	24765.21
487.68	24996.92
487.85	25184.16
488.03	25174.80
488.21	25626.53
488.39	25551.63
488.57	25900.37
488.75	25986.97
488.92	26333.37
489.10	26607.21
489.28	26609.55
489.46	26822.54
489.64	27056.59
489.81	27302.35
489.99	27466.19
490.17	27758.75
490.35	27857.06
490.53	27974.08
490.70	28407.08
490.88	28329.84
491.06	28929.02
491.24	28421.13
491.41	29097.54
491.59	28898.59
491.77	29242.65
491.95	29336.27
492.13	29439.26
492.30	29881.62
492.48	29640.54
492.66	30108.65
492.84	29940.13
493.01	30206.95
493.19	30682.08
493.37	30735.92
493.54	31358.50
493.72	31536.38
493.90	31070.61
494.08	31559.78
494.25	31817.24
494.43	31803.20
494.61	32283.01
494.79	32077.04
494.96	31885.12
495.14	32877.51
495.32	32655.15
495.49	33392.42
495.67	33352.63
495.85	33312.84
496.02	33895.64
496.20	33411.15
496.38	33937.77
496.55	33804.36
496.73	35007.39
496.91	34457.37
497.09	34340.34
497.26	34665.67
497.44	34766.32
497.62	35281.24
497.79	35845.30
497.97	35234.42
498.14	35810.20
498.32	35999.78
498.50	35985.74
498.67	36505.34
498.85	36421.08
499.03	36360.22
499.20	36341.50
499.38	36905.57
499.56	36732.37
499.73	37057.70
499.91	37221.54
500.08	37336.23
500.26	37263.67
500.44	37649.86
500.61	37572.62
500.79	37350.27
500.97	37893.27
501.14	38260.74
501.32	38237.33
501.49	38660.97
501.67	38092.22
501.84	38831.83
502.02	38745.23
502.20	39049.50
502.37	38880.98
502.55	39267.17
502.72	39147.80
502.90	39438.03
503.07	39585.48
503.25	39519.95
503.43	39398.24
503.60	39714.21
503.78	39796.13
503.95	40126.14
504.13	40446.80
504.30	40062.95
504.48	39920.18
504.65	40730.00
504.83	40666.81
505.01	40788.52
505.18	40910.22
505.36	41291.73
505.53	41249.60
505.71	41368.97
505.88	41532.81
506.06	41357.27
506.23	41507.06
506.41	41614.72
506.58	41773.88
506.76	41909.63
506.93	42136.66
507.11	42370.72
507.28	42450.30
507.46	42738.18
507.63	42801.38
507.81	43126.71
507.98	43194.59
508.16	42745.20
508.33	43260.12
508.50	43182.88
508.68	43070.54
508.85	43683.76
509.03	43569.07
509.20	43875.68
509.38	44123.78
509.55	44158.89
509.73	44341.45
509.90	44140.16
510.08	44554.44
510.25	44196.34
510.42	44275.91
510.60	44945.31
510.77	44816.58
510.95	45464.91
511.12	44931.26
511.30	45137.23
511.47	45415.76
511.64	45261.28
511.82	45869.82
511.99	45521.08
512.17	45804.28
512.34	45794.92
512.51	46302.82
512.69	45792.58
512.86	46422.19
513.04	46319.20
513.21	46129.62
513.38	46894.97
513.56	46607.09
513.73	46405.80
513.90	46775.61
514.08	46555.60
514.25	46850.50
514.43	47615.86
514.60	47068.17
514.77	47442.66
514.95	47313.93
515.12	47484.79
515.29	47227.33
515.47	47983.32
515.64	47482.45
515.81	47632.24
515.99	48039.50
516.16	48444.41
516.33	47995.03
516.51	48411.64
516.68	48226.74
516.85	48151.84
517.03	48697.19
517.20	48500.58
517.37	48744.00
517.54	48935.92
517.72	48835.28
517.89	49228.49
518.06	48823.58
518.24	48809.53
518.41	48886.77
518.58	48818.89
518.75	48996.77
518.93	49214.44
519.10	49406.37
519.27	49518.71
519.45	49209.76
519.62	49762.13
519.79	49925.97
519.96	49689.57
520.14	49830.01
520.31	50057.04
520.48	50164.70
520.65	50230.24
520.83	50391.73
521.00	50258.32
521.17	50326.20
521.34	50389.39
521.52	50913.67
521.69	50766.22
521.86	50789.62
522.03	50965.17
522.20	51129.00
522.38	51283.48
522.55	51466.04
522.72	51136.02
522.89	51117.30
523.07	51590.09
523.24	51283.48
523.41	51402.85
523.58	51456.68
523.75	51540.94
523.92	51337.31
524.10	51751.59
524.27	51735.20
524.44	51707.12
524.61	51931.81
524.78	52051.17
524.96	51840.53
525.13	51976.28
525.30	52083.94
525.47	52130.75
525.64	52453.75
525.81	52566.09
525.98	52329.70
526.16	52362.46
526.33	52619.92
526.50	52580.13
526.67	52605.88
526.84	52779.08
527.01	52949.94
527.18	53041.22
527.36	52732.27
527.53	52931.22
527.70	52914.83
527.87	53291.66
528.04	52966.32
528.21	53235.48
528.38	53209.74
528.55	53305.70
528.72	53095.05
528.89	53352.51
529.07	53174.63
529.24	53427.41
529.41	53647.42
529.58	53483.58
529.75	53675.51
529.92	53422.73
530.09	53666.14
530.26	53844.02
530.43	53818.28
530.60	53684.87
530.77	53645.08
530.94	54110.85
531.11	53958.71
531.28	53965.73
531.46	54019.56
531.63	54284.04
531.80	53942.33
531.97	54057.01
532.14	54452.56
532.31	54344.90
532.48	54534.48
532.65	54475.97
532.82	54326.17
532.99	54473.63
533.16	54511.08
533.33	54703.00
533.50	54979.18
533.67	54672.57
533.84	54475.97
534.01	54742.79
534.18	54824.71
534.35	55159.41
534.52	54866.84
534.69	55210.90
534.86	55152.38
535.03	54820.03
535.20	55166.43
535.37	55070.46
535.54	55428.57
535.71	55114.94
535.88	55222.60
536.05	55430.91
536.22	55173.45
536.38	55533.89
536.55	55744.54
536.72	55484.74
536.89	55348.99
537.06	55496.44
537.23	55664.96
537.40	55393.46
537.57	55646.24
537.74	55388.78
537.91	55681.34
538.08	55714.11
538.25	55774.97
538.42	55826.46
538.59	56184.56
538.75	55840.50
538.92	55817.10
539.09	55833.48
539.26	55817.10
539.43	55854.54
539.60	56093.28
539.77	56296.91
539.94	56488.83
540.11	56198.60
540.28	56229.03
540.44	56179.88
540.61	56456.06
540.78	56240.73
540.95	56161.15
541.12	56317.97
541.29	56383.51
541.46	56514.58
541.62	56332.01
541.79	56631.60
541.96	56254.78
542.13	56640.96
542.30	56343.72
542.47	56650.33
542.63	56577.77
542.80	57031.83
542.97	57097.37
543.14	57277.59
543.31	57134.82
543.48	57200.35
543.64	57513.98
543.81	57315.04
543.98	57109.07
544.15	57298.65
544.32	57331.42
544.48	57446.11
544.65	56985.02
544.82	57216.74
544.99	57036.51
545.16	57499.94
545.32	57188.65
545.49	57319.72
545.66	57574.84
545.83	57584.20
546.00	57684.84
546.16	57551.43
546.33	57310.36
546.50	57619.31
546.67	57588.88
546.83	57439.09
547.00	57532.71
547.17	57677.82
547.34	57827.62
547.50	57982.09
547.67	57792.51
547.84	58021.88
548.00	57839.32
548.17	57939.96
548.34	58000.82
548.51	58174.02
548.67	58178.70
548.84	57914.22
549.01	57881.45
549.18	57965.71
549.34	58150.61
549.51	58085.07
549.68	58246.57
549.84	58220.83
550.01	58099.12
550.18	58148.27
550.34	58220.83
550.51	58363.60
550.68	58204.44
550.84	58148.27
551.01	58342.53
551.18	58499.35
551.34	58284.02
551.51	58305.09
551.68	58487.65
551.84	58529.78
552.01	58445.52
552.18	58389.34
552.34	58389.34
552.51	58431.47
552.68	58382.32
552.84	58433.81
553.01	58990.86
553.18	58637.44
553.34	58763.83
553.51	58541.48
553.67	58768.51
553.84	58717.02
554.01	58890.22
554.17	58922.99
554.34	58815.32
554.51	58695.95
554.67	59032.99
554.84	58981.50
555.00	58873.84
555.17	58962.78
555.33	58939.37
555.50	58866.81
555.67	58756.81
555.83	58824.68
556.00	58983.84
556.16	59437.90
556.33	59063.42
556.50	59093.85
556.66	59185.13
556.83	58995.54
556.99	59339.60
557.16	59524.50
557.32	59290.45
557.49	59449.61
557.65	58983.84
557.82	59292.79
557.98	59068.10
558.15	59515.14
558.32	59465.99
558.48	59264.70
558.65	59597.06
558.81	59377.05
558.98	59566.63
559.14	59437.90
559.31	59384.07
559.47	59461.31
559.64	59629.83
559.80	59655.57
559.97	59686.00
560.13	59395.77
560.30	59606.42
560.46	59676.64
560.63	59728.13
560.79	59686.00
560.96	59922.40
561.12	59718.77
561.29	59723.45
561.45	59641.53
561.61	59737.49
561.78	59702.38
561.94	59686.00
562.11	59650.89
562.27	59817.07
562.44	59896.65
562.60	59854.52
562.77	59966.87
562.93	59512.80
563.10	60067.51
563.26	59896.65
563.42	60243.05
563.59	60135.38
563.75	59826.43
563.92	59964.52
564.08	59938.78
564.24	60004.31
564.41	60051.12
564.57	60093.25
564.74	59955.16
564.90	60172.83
565.07	59814.73
565.23	59931.76
565.39	59971.55
565.56	60116.66
565.72	59950.48
565.88	59964.52
566.05	60097.94
566.21	60090.91
566.38	60313.26
566.54	60200.92
566.70	60179.85
566.87	60214.96
567.03	60128.36
567.19	60294.54
567.36	60217.30
567.52	60060.49
567.68	60219.64
567.85	60111.98
568.01	60165.81
568.17	59934.10
568.34	60331.99
568.50	60217.30
568.66	60219.64
568.83	60446.68
568.99	60430.29
569.15	60385.82
569.32	60343.69
569.48	60114.32
569.64	60425.61
569.81	60390.50
569.97	60334.33
570.13	60348.37
570.30	60210.28
570.46	60357.74
570.62	60423.27
570.78	60268.79
570.95	60343.69
571.11	60495.83
571.27	60367.10
571.43	60353.05
571.60	60687.75
571.76	60214.96
571.92	60544.98
572.09	60357.74
572.25	60355.39
572.41	60329.65
572.57	60444.33
572.74	60582.43
572.90	60615.19
573.06	60610.51
573.22	60409.23
573.38	60552.00
573.55	60322.63
573.71	60535.62
573.87	60692.43
574.03	60329.65
574.20	60650.30
574.36	60341.35
574.52	60713.50
574.68	60580.09
574.84	60755.63
575.01	60701.79
575.17	60378.80
575.33	60437.31
575.49	60385.82
575.65	60526.25
575.82	60704.13
575.98	60823.50
576.14	60896.06
576.30	60734.56
576.46	60533.28
576.62	60519.23
576.79	60718.18
576.95	60589.45
577.11	60652.64
577.27	60542.64
577.43	60706.47
577.59	60725.20
577.75	60680.73
577.92	60563.70
578.08	60683.07
578.24	60823.50
578.40	60940.53
578.56	60844.57
578.72	60849.25
578.88	60860.95
579.04	61022.45
579.21	60722.86
579.37	60807.12
579.53	61010.74
579.69	60526.25
579.85	60615.19
580.01	60800.10
580.17	60673.71
580.33	60666.69
580.49	60910.10
580.65	60666.69
580.82	60886.70
580.98	60582.43
581.14	60757.97
581.30	60985.00
581.46	60701.79
581.62	60781.37
581.78	60601.15
581.94	60772.01
582.10	60795.42
582.26	60825.84
582.42	60844.57
582.58	60804.78
582.74	60643.28
582.90	60788.39
583.06	60912.44
583.22	60720.52
583.38	60825.84
583.54	60664.35
583.70	60685.41
583.86	60795.42
584.02	60802.44
584.18	61001.38
584.34	61038.83
584.50	60757.97
584.66	60743.92
584.82	60776.69
584.98	61045.85
585.14	61066.92
585.30	60903.08
585.46	60849.25
585.62	60767.33
585.78	61034.15
585.94	60886.70
586.10	60900.74
586.26	60697.11
586.42	61120.75
586.58	60783.71
586.74	61062.24
586.90	60999.04
587.06	61104.37
587.22	61080.96
587.38	60739.24
587.54	61020.11
587.70	61083.30
587.86	60851.59
588.02	61003.72
588.18	61085.64
588.34	60889.04
588.49	60931.17
