SpectraSuite Data File
++++++++++++++++++++++++++++++++++++
Date: Fri Oct 25 10:47:55 EDT 2013
User: price-jones
Dark Spectrum Present: No
Reference Spectrum Present: No
Number of Sampled Component Spectra: 1
Spectrometers: USB2+H05261
Integration Time (usec): 100000 (USB2+H05261)
Spectra Averaged: 1 (USB2+H05261)
Boxcar Smoothing: 0 (USB2+H05261)
Correct for Electrical Dark: No (USB2+H05261)
Strobe/Lamp Enabled: No (USB2+H05261)
Correct for Detector Non-linearity: No (USB2+H05261)
Correct for Stray Light: No (USB2+H05261)
Number of Pixels in Processed Spectrum: 2048
>>>>>Begin Processed Spectral Data<<<<<
365.73	180.22
365.92	180.22
366.12	180.22
366.32	133.41
366.52	32.77
366.72	42.13
366.91	42.13
367.11	44.47
367.31	37.45
367.51	53.83
367.70	7.02
367.90	79.58
368.10	0.00
368.30	32.77
368.49	51.49
368.69	37.45
368.89	102.98
369.09	39.79
369.28	110.01
369.48	14.04
369.68	79.58
369.87	107.66
370.07	142.77
370.27	135.75
370.47	145.11
370.66	376.83
370.86	449.38
371.06	372.15
371.25	479.81
371.45	409.59
371.65	475.13
371.84	456.40
372.04	444.70
372.24	437.68
372.44	433.00
372.63	566.41
372.83	437.68
373.03	528.96
373.22	491.51
373.42	468.11
373.62	568.75
373.81	507.90
374.01	498.53
374.21	543.00
374.40	561.73
374.60	617.90
374.79	533.64
374.99	592.16
375.19	503.22
375.38	561.73
375.58	524.28
375.78	552.37
375.97	580.45
376.17	697.48
376.37	603.86
376.56	594.50
376.76	641.31
376.95	531.30
377.15	683.44
377.35	582.79
377.54	643.65
377.74	559.39
377.93	573.43
378.13	629.60
378.33	627.26
378.52	606.20
378.72	566.41
378.91	669.39
379.11	580.45
379.31	589.82
379.50	571.09
379.70	692.80
379.89	734.93
380.09	624.92
380.28	655.35
380.48	690.46
380.68	650.67
380.87	667.05
381.07	730.25
381.26	671.73
381.46	613.22
381.65	601.52
381.85	662.37
382.04	643.65
382.24	716.20
382.43	688.12
382.63	697.48
382.83	683.44
383.02	713.86
383.22	772.38
383.41	671.73
383.61	683.44
383.80	753.65
384.00	760.67
384.19	765.36
384.39	713.86
384.58	734.93
384.78	802.80
384.97	711.52
385.17	795.78
385.36	706.84
385.56	807.48
385.75	788.76
385.95	753.65
386.14	805.14
386.34	760.67
386.53	826.21
386.72	814.51
386.92	823.87
387.11	805.14
387.31	791.10
387.50	765.36
387.70	814.51
387.89	823.87
388.09	837.91
388.28	875.36
388.48	929.19
388.67	835.57
388.86	849.61
389.06	875.36
389.25	894.08
389.45	931.53
389.64	973.66
389.84	957.28
390.03	910.47
390.22	875.36
390.42	849.61
390.61	891.74
390.81	901.11
391.00	968.98
391.19	849.61
391.39	924.51
391.58	987.71
391.78	957.28
391.97	957.28
392.16	952.60
392.36	973.66
392.55	1004.09
392.75	887.06
392.94	837.91
393.13	968.98
393.33	945.58
393.52	945.58
393.71	1057.92
393.91	997.07
394.10	1034.52
394.29	1043.88
394.49	1034.52
394.68	1156.22
394.88	1053.24
395.07	1142.18
395.26	1121.12
395.46	1156.22
395.65	1139.84
395.84	1090.69
396.04	1200.69
396.23	1081.33
396.42	1221.76
396.62	1076.65
396.81	1095.37
397.00	1287.29
397.19	1186.65
397.39	1160.91
397.58	1214.74
397.77	1280.27
397.97	1259.21
398.16	1324.74
398.35	1193.67
398.55	1247.51
398.74	1343.47
398.93	1387.94
399.12	1233.46
399.32	1341.13
399.51	1315.38
399.70	1336.45
399.90	1418.36
400.09	1416.02
400.28	1423.05
400.47	1416.02
400.67	1474.54
400.86	1416.02
401.05	1434.75
401.24	1509.65
401.44	1519.01
401.63	1474.54
401.82	1458.15
402.01	1493.26
402.21	1453.47
402.40	1544.75
402.59	1568.16
402.78	1540.07
402.97	1490.92
403.17	1659.44
403.36	1617.31
403.55	1504.96
403.74	1647.74
403.93	1547.09
404.13	1612.63
404.32	1643.06
404.51	1713.27
404.70	1652.42
404.89	1633.69
405.09	1696.89
405.28	1788.17
405.47	1790.51
405.66	1790.51
405.85	1685.19
406.05	1696.89
406.24	1820.94
406.43	1778.81
406.62	1905.20
406.81	1860.73
407.00	1834.98
407.20	1834.98
407.39	1778.81
407.58	1825.62
407.77	2010.52
407.96	1905.20
408.15	2005.84
408.34	1947.33
408.54	1975.41
408.73	1970.73
408.92	2024.56
409.11	1966.05
409.30	2015.20
409.49	2026.90
409.68	2029.24
409.87	2040.95
410.07	2078.40
410.26	2092.44
410.45	2115.84
410.64	2225.85
410.83	2223.51
411.02	2195.42
411.21	2331.17
411.40	2256.28
411.59	2303.09
411.78	2408.41
411.98	2298.41
412.17	2356.92
412.36	2389.69
412.55	2363.94
412.74	2464.58
412.93	2387.35
413.12	2363.94
413.31	2483.31
413.50	2537.14
413.69	2562.89
413.88	2583.95
414.07	2541.82
414.26	2541.82
414.45	2574.59
414.64	2747.79
414.83	2640.12
415.02	2757.15
415.22	2717.36
415.41	2729.06
415.60	2708.00
415.79	2698.64
415.98	2818.00
416.17	2846.09
416.36	2881.20
416.55	2864.82
416.74	2813.32
416.93	2888.22
417.12	2932.69
417.31	2867.16
417.50	3030.99
417.69	3068.44
417.88	3052.06
418.07	3087.17
418.26	3014.61
418.45	3077.80
418.64	3293.13
418.83	3176.11
419.02	3253.34
419.21	3243.98
419.39	3288.45
419.58	3227.60
419.77	3218.24
419.96	3239.30
420.15	3438.25
420.34	3229.94
420.53	3309.52
420.72	3428.88
420.91	3375.05
421.10	3300.16
421.29	3485.06
421.48	3389.10
421.67	3471.01
421.86	3318.88
422.05	3501.44
422.24	3302.50
422.43	3288.45
422.61	3419.52
422.80	3442.93
422.99	3389.10
423.18	3496.76
423.37	3541.23
423.56	3513.14
423.75	3396.12
423.94	3524.85
424.13	3283.77
424.32	3417.18
424.50	3513.14
424.69	3576.34
424.88	3611.45
425.07	3321.22
425.26	3447.61
425.45	3494.42
425.64	3550.59
425.83	3613.79
426.01	3557.61
426.20	3578.68
426.39	3559.95
426.58	3536.55
426.77	3524.85
426.96	3723.79
427.15	3653.58
427.33	3772.94
427.52	3772.94
427.71	3581.02
427.90	3721.45
428.09	3885.29
428.28	3812.73
428.46	3847.84
428.65	3749.54
428.84	3901.67
429.03	3845.50
429.22	3719.11
429.40	3864.22
429.59	3676.98
429.78	3686.34
429.97	3669.96
430.16	3735.50
430.34	3791.67
430.53	3861.88
430.72	3850.18
430.91	3885.29
431.10	3976.57
431.28	4065.51
431.47	4102.96
431.66	4212.96
431.85	4084.23
432.03	4131.05
432.22	4325.31
432.41	4177.86
432.60	4180.20
432.79	4058.49
432.97	4315.95
433.16	4290.20
433.35	4257.43
433.54	4173.18
433.72	4273.82
433.91	4119.34
434.10	4264.46
434.28	4386.16
434.47	4334.67
434.66	4367.44
434.85	4367.44
435.03	4463.40
435.22	4528.94
435.41	4524.26
435.59	4599.15
435.78	4718.52
435.97	4706.82
436.16	4505.53
436.34	4620.22
436.53	4550.00
436.72	4798.10
436.90	4688.09
437.09	4667.03
437.28	4463.40
437.46	4681.07
437.65	4650.64
437.84	4678.73
438.02	4657.67
438.21	4671.71
438.40	4627.24
438.58	5071.94
438.77	4823.84
438.96	4875.34
439.14	4847.25
439.33	5132.79
439.52	5046.20
439.70	5233.44
439.89	5153.86
440.08	4978.32
440.26	4966.62
440.45	5071.94
440.63	5172.58
440.82	5355.15
441.01	5329.40
441.19	5392.59
441.38	5444.09
441.57	5444.09
441.75	5411.32
441.94	5610.26
442.12	5685.16
442.31	5703.89
442.50	5598.56
442.68	5671.12
442.87	5626.65
443.05	5706.23
443.24	5797.51
443.43	5820.91
443.61	5743.67
443.80	6045.60
443.98	5584.52
444.17	5610.26
444.35	5792.83
444.54	5767.08
444.73	5809.21
444.91	5802.19
445.10	5731.97
445.28	5788.14
445.47	5706.23
445.65	5738.99
445.84	6001.13
446.02	5923.90
446.21	5923.90
446.39	5989.43
446.58	5942.62
446.77	5909.85
446.95	5687.50
447.14	5825.59
447.32	6029.22
447.51	6076.03
447.69	5837.30
447.88	6015.18
448.06	6083.05
448.25	5968.37
448.43	6150.93
448.62	6005.81
448.80	6069.01
448.99	6097.10
449.17	6188.38
449.36	6019.86
449.54	6160.29
449.73	6314.77
449.91	6384.98
450.10	6469.24
450.28	6462.22
450.46	6420.09
450.65	6370.94
450.83	6452.86
451.02	6431.79
451.20	6513.71
451.39	6534.78
451.57	6392.00
451.76	6530.09
451.94	6321.79
452.13	6394.34
452.31	6375.62
452.49	6431.79
452.68	6413.07
452.86	6441.15
453.05	6494.99
453.23	6492.65
453.42	6394.34
453.60	6520.73
453.78	6684.57
453.97	6668.19
454.15	6476.26
454.34	6743.08
454.52	6745.42
454.70	6600.31
454.89	6597.97
455.07	6764.15
455.26	6920.96
455.44	6981.82
455.62	6949.05
455.81	7047.35
455.99	6846.07
456.17	7159.70
456.36	6995.86
456.54	7185.44
456.73	7143.32
456.91	7197.15
457.09	7108.21
457.28	7274.38
457.46	7164.38
457.64	7211.19
457.83	7412.48
458.01	7119.91
458.19	7382.05
458.38	7274.38
458.56	7515.46
458.74	7379.71
458.93	7456.95
459.11	7473.33
459.29	7272.04
459.48	7459.29
459.66	7442.90
459.84	7723.77
460.03	7754.19
460.21	7602.06
460.39	7627.81
460.57	7557.59
460.76	7545.89
460.94	7847.82
461.12	7854.84
461.31	7838.45
461.49	7630.15
461.67	7742.49
461.85	7864.20
462.04	7702.70
462.22	8278.47
462.40	8077.19
462.59	7915.69
462.77	7992.93
462.95	7995.27
463.13	8053.78
463.32	8028.04
463.50	8105.28
463.68	8013.99
463.86	8081.87
464.05	8035.06
464.23	8226.98
464.41	8189.53
464.59	8119.32
464.78	8325.29
464.96	8203.58
465.14	8145.06
465.32	8393.16
465.50	8311.24
465.69	8365.07
465.87	8461.04
466.05	8461.04
466.23	8329.97
466.41	8372.10
466.60	8575.72
466.78	8292.52
466.96	8315.92
467.14	8475.08
467.32	8578.06
467.51	8627.21
467.69	8416.57
467.87	8571.04
468.05	8720.84
468.23	8587.43
468.41	8526.57
468.60	8582.74
468.78	8737.22
468.96	8535.93
469.14	8695.09
469.32	8784.03
469.50	8613.17
469.69	8882.33
469.87	9018.08
470.05	8877.65
470.23	8952.55
470.41	8898.72
470.59	8994.68
470.77	9067.24
470.95	8919.78
471.14	8968.93
471.32	9109.36
471.50	9303.63
471.68	9497.89
471.86	9184.26
472.04	9415.98
472.22	9462.79
472.40	9210.01
472.58	9495.55
472.77	9500.23
472.95	9664.07
473.13	9905.15
473.31	9696.84
473.49	9558.75
473.67	9537.68
473.85	9544.70
474.03	9643.01
474.21	9989.41
474.39	9982.38
474.57	10143.88
474.75	10174.31
474.93	10291.34
475.12	10181.33
475.30	9973.02
475.48	10183.67
475.66	10483.26
475.84	10153.24
476.02	10380.28
476.20	10394.32
476.38	10548.79
476.56	10813.28
476.74	10649.44
476.92	10672.84
477.10	10949.03
477.28	10874.13
477.46	10939.66
477.64	11023.92
477.82	11276.70
478.00	11274.36
478.18	11573.95
478.36	11428.84
478.54	11637.14
478.72	11433.52
478.90	11810.34
479.08	11730.76
479.26	12070.14
479.44	11845.45
479.62	12046.74
479.80	12065.46
479.98	12037.38
480.16	12430.59
480.34	12517.18
480.52	12685.70
480.70	12592.08
480.88	12498.46
481.06	12643.57
481.24	12849.54
481.41	12945.50
481.59	13022.74
481.77	13111.68
481.95	13364.46
482.13	13277.86
482.31	13083.59
482.49	13657.03
482.67	13612.56
482.85	13668.73
483.03	13802.14
483.21	13928.53
483.39	13921.51
483.57	13923.85
483.74	14101.73
483.92	14174.28
484.10	14066.62
484.28	14471.53
484.46	14813.25
484.64	14810.91
484.82	14544.09
485.00	14897.51
485.18	15009.86
485.35	14965.39
485.53	14820.27
485.71	14993.47
485.89	15211.14
486.07	15115.18
486.25	15412.43
486.43	15672.23
486.61	15861.81
486.78	16084.16
486.96	16067.78
487.14	16453.97
487.32	16273.74
487.50	16355.66
487.68	16631.85
487.85	16795.68
488.03	16662.27
488.21	17053.14
488.39	16952.50
488.57	17420.61
488.75	17394.86
488.92	17406.56
489.10	17584.44
489.28	17830.20
489.46	17956.59
489.64	17947.23
489.81	18462.15
489.99	18347.46
490.17	18462.15
490.35	18871.74
490.53	18588.53
490.70	19044.94
490.88	18698.54
491.06	19194.73
491.24	18888.12
491.41	18892.80
491.59	19000.47
491.77	19140.90
491.95	19386.66
492.13	19550.49
492.30	19924.98
492.48	20002.22
492.66	19709.65
492.84	19920.30
493.01	20355.64
493.19	20514.80
493.37	20409.47
493.54	20343.94
493.72	20645.87
493.90	20898.64
494.08	21057.80
494.25	21158.44
494.43	21128.02
494.61	21453.35
494.79	21521.23
494.96	21530.59
495.14	21336.32
495.32	21703.79
495.49	21752.94
495.67	22043.17
495.85	21694.43
496.02	22539.36
496.20	22462.12
496.38	22192.96
496.55	22211.68
496.73	22867.03
496.91	22602.55
497.09	23021.51
497.26	23283.65
497.44	22665.75
497.62	22869.37
497.79	23452.17
497.97	23304.71
498.14	23342.16
498.32	23611.32
498.50	23491.96
498.67	23690.90
498.85	23676.86
499.03	24119.22
499.20	23953.04
499.38	24407.11
499.56	24156.67
499.73	24294.76
499.91	24575.62
500.08	24643.50
500.26	24292.42
500.44	24751.17
500.61	24702.01
500.79	24739.46
500.97	24826.06
501.14	24959.47
501.32	25144.38
501.49	25310.55
501.67	25448.64
501.84	25460.35
502.02	25207.57
502.20	25507.16
502.37	25827.81
502.55	25771.64
502.72	25750.57
502.90	25762.28
503.07	26153.15
503.25	25820.79
503.43	25738.87
503.60	26291.24
503.78	26476.14
503.95	25954.20
504.13	26529.97
504.30	26157.83
504.48	26609.55
504.65	26663.38
504.83	26867.01
505.01	26909.14
505.18	27044.89
505.36	27213.41
505.53	27164.26
505.71	27707.26
505.88	27304.69
506.06	27328.10
506.23	27489.59
506.41	27461.51
506.58	27229.79
506.76	27754.07
506.93	27810.25
507.11	28147.28
507.28	28224.52
507.46	28114.52
507.63	28168.35
507.81	28140.26
507.98	27854.72
508.16	28280.69
508.33	28650.50
508.50	28311.12
508.68	28336.87
508.85	28931.36
509.03	28814.34
509.20	28687.95
509.38	29062.43
509.55	29081.16
509.73	29083.50
509.90	29130.31
510.08	29085.84
510.25	29003.92
510.42	29586.71
510.60	29432.24
510.77	29523.52
510.95	29722.46
511.12	29273.08
511.30	29766.93
511.47	30106.31
511.64	30272.49
511.82	30101.63
511.99	29748.21
512.17	30391.86
512.34	30094.61
512.51	30195.25
512.69	30384.83
512.86	30338.02
513.04	30260.79
513.21	30742.94
513.38	30391.86
513.56	31035.50
513.73	30562.72
513.90	30852.94
514.08	30735.92
514.25	31201.68
514.43	31264.88
514.60	30981.67
514.77	30651.66
514.95	31047.21
515.12	31199.34
515.29	31000.40
515.47	31606.59
515.64	31665.11
515.81	31084.65
515.99	31531.70
516.16	31758.73
516.33	31765.75
516.51	31625.32
516.68	31653.40
516.85	31414.67
517.03	31573.83
517.20	32105.13
517.37	31786.82
517.54	32182.37
517.72	32231.52
517.89	32231.52
518.06	32283.01
518.24	32498.34
518.41	32252.58
518.58	32322.80
518.75	32411.74
518.93	32938.36
519.10	32568.55
519.27	32945.38
519.45	32772.18
519.62	33060.07
519.79	33029.64
519.96	33338.59
520.14	33273.06
520.31	32917.29
520.48	33570.30
520.65	33312.84
520.83	33741.16
521.00	33741.16
521.17	33352.63
521.34	33944.79
521.52	33443.91
521.69	34078.20
521.86	33855.85
522.03	34394.17
522.20	34054.79
522.38	34160.12
522.55	34003.30
522.72	34176.50
522.89	34263.10
523.07	34022.03
523.24	34508.86
523.41	34663.33
523.58	34227.99
523.75	35002.71
523.92	35112.72
524.10	35028.46
524.27	34974.63
524.44	34843.56
524.61	34836.53
524.78	35416.99
524.96	35054.20
525.13	35349.11
525.30	35571.46
525.47	35419.33
525.64	35168.89
525.81	35772.75
525.98	35416.99
526.16	35119.74
526.33	34799.08
526.50	35824.24
526.67	35384.22
526.84	35442.73
527.01	35306.98
527.18	35552.74
527.36	35676.79
527.53	36158.94
527.70	36460.87
527.87	36404.69
528.04	36231.49
528.21	36109.78
528.38	36299.37
528.55	36381.29
528.72	36236.17
528.89	36577.89
529.07	36081.70
529.24	36601.30
529.41	36573.21
529.58	36594.28
529.75	36266.60
529.92	36823.65
530.09	36882.16
530.26	36706.62
530.43	37001.53
530.60	36589.59
530.77	37076.43
530.94	37249.63
531.11	37151.32
531.28	36823.65
531.46	37254.31
531.63	37247.29
531.80	36968.76
531.97	37446.23
532.14	36966.42
532.31	37237.92
532.48	37310.48
532.65	37516.45
532.82	37390.06
532.99	37652.20
533.16	37589.00
533.33	37759.86
533.50	38188.18
533.67	37687.31
533.84	37546.87
534.01	37780.93
534.18	37956.47
534.35	38256.06
534.52	37855.82
534.69	38038.39
534.86	38691.40
535.03	37991.58
535.20	38459.68
535.37	38410.53
535.54	38913.75
535.71	38405.85
535.88	38487.77
536.05	38302.87
536.22	38094.56
536.38	38354.36
536.55	38780.34
536.72	38440.96
536.89	38478.41
537.06	38827.15
537.23	39023.75
537.40	38440.96
537.57	38560.33
537.74	38459.68
537.91	39040.14
538.08	39037.80
538.25	39021.41
538.42	38808.42
538.59	38880.98
538.75	38792.04
538.92	39262.49
539.09	39203.97
539.26	39676.76
539.43	38967.58
539.60	39552.71
539.77	39342.06
539.94	39440.37
540.11	39187.59
540.28	39346.75
540.44	39480.16
540.61	39475.48
540.78	39306.96
540.95	39316.32
541.12	39178.23
541.29	39854.64
541.46	39475.48
541.62	39882.73
541.79	40282.96
541.96	39253.12
542.13	39625.27
542.30	40072.31
542.47	40215.08
542.63	39899.11
542.80	39754.00
542.97	40376.58
543.14	40774.47
543.31	40282.96
543.48	40378.92
543.64	40671.49
543.81	40825.96
543.98	40542.76
544.15	40786.18
544.32	40800.22
544.48	41170.02
544.65	40933.63
544.82	40795.54
544.99	40313.39
545.16	40935.97
545.32	40627.02
545.49	41038.95
545.66	41518.76
545.83	40982.78
546.00	41160.66
546.16	40772.13
546.33	41045.97
546.50	40561.48
546.67	41305.77
546.83	40402.33
547.00	41387.69
547.17	40924.27
547.34	40992.14
547.50	41312.80
547.67	41958.78
547.84	41371.31
548.00	41682.60
548.17	41530.47
548.34	41701.32
548.51	41560.89
548.67	41698.98
548.84	41832.39
549.01	41621.75
549.18	41710.69
549.34	41680.26
549.51	41867.50
549.68	41851.12
549.84	42103.90
550.01	42068.79
550.18	41600.68
550.34	42117.94
550.51	41645.15
550.68	42160.07
550.84	41471.95
551.01	42064.11
551.18	42190.50
551.34	41827.71
551.51	42581.37
551.68	42370.72
551.84	42394.12
552.01	42249.01
552.18	41872.18
552.34	42153.05
552.51	42344.97
552.68	42550.94
552.84	42820.10
553.01	42520.51
553.18	42225.60
553.34	42106.24
553.51	42148.37
553.67	42721.80
553.84	42738.18
554.01	42651.58
554.17	42892.66
554.34	43241.40
554.51	42529.87
554.67	42834.14
554.84	42632.86
555.00	42850.53
555.17	42824.78
555.33	42995.64
555.50	42740.52
555.67	42836.48
555.83	43063.52
556.00	43103.31
556.16	43367.79
556.33	43290.55
556.50	43070.54
556.66	42979.26
556.83	43009.68
556.99	43320.98
557.16	43318.64
557.32	42958.19
557.49	43112.67
557.65	43047.13
557.82	43180.54
557.98	42794.36
558.15	43126.71
558.32	43515.24
558.48	43353.74
558.65	43302.25
558.81	43225.01
558.98	43700.14
559.14	43182.88
559.31	43363.11
559.47	43154.80
559.64	43800.79
559.80	43529.28
559.97	43681.42
560.13	43271.82
560.30	43304.59
560.46	43454.39
560.63	43189.91
560.79	43498.86
560.96	43761.00
561.12	43959.94
561.29	43812.49
561.45	43868.66
561.61	44060.58
561.78	43414.60
561.94	43625.25
562.11	43178.20
562.27	43887.39
562.44	44039.52
562.60	43812.49
562.77	44140.16
562.93	43971.64
563.10	43875.68
563.26	43636.95
563.42	44016.11
563.59	43880.36
563.75	43718.87
563.92	43901.43
564.08	43995.05
564.24	44296.98
564.41	43971.64
564.57	44189.31
564.74	43894.41
564.90	44392.94
565.07	44231.44
565.23	43931.86
565.39	43964.62
565.56	44130.80
565.72	43763.34
565.88	43920.15
566.05	44243.15
566.21	43948.24
566.38	43894.41
566.54	44116.76
566.70	44390.60
566.87	44308.68
567.03	43889.73
567.19	44308.68
567.36	44266.55
567.52	44404.64
567.68	44463.16
567.85	44334.43
568.01	44493.58
568.17	44032.50
568.34	44044.20
568.50	44238.47
568.66	44072.29
568.83	44179.95
568.99	44191.65
569.15	44168.25
569.32	44327.41
569.48	43920.15
569.64	44676.15
569.81	44271.23
569.97	44577.84
570.13	44472.52
570.30	44020.80
570.46	44320.38
570.62	43849.94
570.78	43978.67
570.95	44179.95
571.11	44573.16
571.27	44612.95
571.43	44254.85
571.60	44556.78
571.76	43863.98
571.92	44210.38
572.09	44348.47
572.25	44474.86
572.41	44030.16
572.57	44816.58
572.74	44247.83
572.90	44603.59
573.06	44229.10
573.22	44425.71
573.38	44259.53
573.55	44313.36
573.71	44505.29
573.87	44446.77
574.03	44095.69
574.20	44692.53
574.36	44484.22
574.52	44821.26
574.68	44540.39
574.84	44772.11
575.01	44526.35
575.17	44381.24
575.33	44161.23
575.49	44676.15
575.65	44486.56
575.82	45233.19
575.98	44325.07
576.14	44931.26
576.30	44428.05
576.46	44086.33
576.62	44215.06
576.79	44533.37
576.95	44350.81
577.11	44786.15
577.27	44968.71
577.43	44694.87
577.59	44421.03
577.75	44528.69
577.92	44378.90
578.08	43957.60
578.24	44112.08
578.40	44222.08
578.56	44744.02
578.72	44737.00
578.88	44603.59
579.04	44612.95
579.21	44582.52
579.37	44547.42
579.53	44210.38
579.69	44399.96
579.85	44605.93
580.01	44861.05
580.17	44889.13
580.33	45076.38
580.49	44938.29
580.65	44570.82
580.82	44708.91
580.98	44636.36
581.14	44954.67
581.30	44753.38
581.46	44559.12
581.62	44514.65
581.78	44547.42
581.94	44718.28
582.10	44322.72
582.26	44767.43
582.42	44659.76
582.58	44842.32
582.74	44638.70
582.90	44439.75
583.06	44849.35
583.22	45064.67
583.38	44774.45
583.54	45085.74
583.70	44804.88
583.86	44945.31
584.02	44315.70
584.18	44767.43
584.34	45099.78
584.50	44926.58
584.66	44507.63
584.82	44629.34
584.98	44903.18
585.14	44825.94
585.30	44790.83
585.46	44502.95
585.62	44350.81
585.78	44608.27
585.94	44610.61
586.10	44800.19
586.26	44545.08
586.42	44898.50
586.58	44821.26
586.74	44783.81
586.90	44746.36
587.06	44519.33
587.22	44556.78
587.38	44744.02
587.54	44907.86
587.70	45017.86
587.86	44725.30
588.02	44835.30
588.18	45191.06
588.34	44547.42
588.49	43824.19
588.65	44610.61
588.81	44435.07
588.97	44612.95
589.13	44479.54
589.29	44561.46
589.45	44783.81
589.61	44875.09
589.77	45174.68
589.93	45036.59
590.08	44966.37
590.24	45244.90
