SpectraSuite Data File
++++++++++++++++++++++++++++++++++++
Date: Fri Oct 25 10:48:25 EDT 2013
User: price-jones
Dark Spectrum Present: No
Reference Spectrum Present: No
Number of Sampled Component Spectra: 1
Spectrometers: USB2+H05261
Integration Time (usec): 100000 (USB2+H05261)
Spectra Averaged: 1 (USB2+H05261)
Boxcar Smoothing: 0 (USB2+H05261)
Correct for Electrical Dark: No (USB2+H05261)
Strobe/Lamp Enabled: No (USB2+H05261)
Correct for Detector Non-linearity: No (USB2+H05261)
Correct for Stray Light: No (USB2+H05261)
Number of Pixels in Processed Spectrum: 2048
>>>>>Begin Processed Spectral Data<<<<<
365.73	156.82
365.92	156.82
366.12	156.82
366.32	86.60
366.52	39.79
366.72	56.17
366.91	0.00
367.11	42.13
367.31	0.00
367.51	49.15
367.70	0.00
367.90	65.54
368.10	65.54
368.30	77.24
368.49	67.88
368.69	53.83
368.89	60.85
369.09	74.90
369.28	11.70
369.48	72.56
369.68	107.66
369.87	135.75
370.07	84.26
370.27	159.16
370.47	220.01
370.66	346.40
370.86	400.23
371.06	472.79
371.25	543.00
371.45	454.06
371.65	559.39
371.84	486.83
372.04	479.81
372.24	538.32
372.44	540.66
372.63	568.75
372.83	503.22
373.03	503.22
373.22	547.69
373.42	552.37
373.62	498.53
373.81	645.99
374.01	540.66
374.21	638.97
374.40	578.11
374.60	582.79
374.79	540.66
374.99	594.50
375.19	533.64
375.38	608.54
375.58	671.73
375.78	601.52
375.97	601.52
376.17	657.69
376.37	620.24
376.56	627.26
376.76	538.32
376.95	521.94
377.15	617.90
377.35	660.03
377.54	702.16
377.74	610.88
377.93	587.47
378.13	645.99
378.33	524.28
378.52	594.50
378.72	653.01
378.91	702.16
379.11	660.03
379.31	603.86
379.50	671.73
379.70	692.80
379.89	748.97
380.09	648.33
380.28	617.90
380.48	758.33
380.68	716.20
380.87	727.91
381.07	655.35
381.26	739.61
381.46	692.80
381.65	653.01
381.85	720.88
382.04	730.25
382.24	816.85
382.43	725.57
382.63	643.65
382.83	662.37
383.02	788.76
383.22	807.48
383.41	760.67
383.61	844.93
383.80	884.72
384.00	784.08
384.19	805.14
384.39	791.10
384.58	767.70
384.78	809.83
384.97	800.46
385.17	821.53
385.36	791.10
385.56	828.55
385.75	777.06
385.95	828.55
386.14	802.80
386.34	774.72
386.53	830.89
386.72	772.38
386.92	777.06
387.11	826.21
387.31	835.57
387.50	870.68
387.70	917.49
387.89	858.98
388.09	826.21
388.28	849.61
388.48	814.51
388.67	912.81
388.86	882.38
389.06	945.58
389.25	926.85
389.45	1004.09
389.64	964.30
389.84	917.49
390.03	922.17
390.22	950.26
390.42	1055.58
390.61	1006.43
390.81	1067.28
391.00	1018.13
391.19	1067.28
391.39	997.07
391.58	1029.84
391.78	943.24
391.97	1135.16
392.16	978.34
392.36	1088.35
392.55	961.96
392.75	936.21
392.94	978.34
393.13	1015.79
393.33	1004.09
393.52	1069.62
393.71	1100.05
393.91	1057.92
394.10	1081.33
394.29	1128.14
394.49	1100.05
394.68	1188.99
394.88	1107.07
395.07	1193.67
395.26	1144.52
395.46	1156.22
395.65	1188.99
395.84	1149.20
396.04	1156.22
396.23	1172.61
396.42	1128.14
396.62	1188.99
396.81	1165.59
397.00	1174.95
397.19	1240.48
397.39	1299.00
397.58	1310.70
397.77	1430.07
397.97	1329.42
398.16	1401.98
398.35	1467.52
398.55	1432.41
398.74	1437.09
398.93	1437.09
399.12	1465.18
399.32	1453.47
399.51	1453.47
399.70	1490.92
399.90	1488.58
400.09	1441.77
400.28	1507.30
400.47	1490.92
400.67	1668.80
400.86	1570.50
401.05	1570.50
401.24	1659.44
401.44	1584.54
401.63	1666.46
401.82	1631.35
402.01	1699.23
402.21	1650.08
402.40	1774.13
402.59	1607.95
402.78	1694.55
402.97	1643.06
403.17	1708.59
403.36	1717.95
403.55	1734.34
403.74	1689.87
403.93	1813.92
404.13	1844.34
404.32	1675.82
404.51	1755.40
404.70	1827.96
404.89	1741.36
405.09	1923.92
405.28	1919.24
405.47	1872.43
405.66	1851.36
405.85	1797.53
406.05	2012.86
406.24	1966.05
406.43	1884.13
406.62	1977.75
406.81	2118.18
407.00	1987.11
407.20	1886.47
407.39	2038.61
407.58	1991.80
407.77	2038.61
407.96	2165.00
408.15	2143.93
408.34	2115.84
408.54	2122.87
408.73	2253.94
408.92	2176.70
409.11	2263.30
409.30	2200.10
409.49	2230.53
409.68	2153.29
409.87	2162.66
410.07	2305.43
410.26	2321.81
410.45	2237.55
410.64	2263.30
410.83	2403.73
411.02	2375.64
411.21	2434.16
411.40	2443.52
411.59	2569.91
411.78	2558.21
411.98	2511.39
412.17	2455.22
412.36	2530.12
412.55	2487.99
412.74	2747.79
412.93	2675.23
413.12	2520.76
413.31	2771.19
413.50	2605.02
413.69	2862.48
413.88	2899.92
414.07	2810.98
414.26	2799.28
414.45	2792.26
414.64	2834.39
414.83	2951.42
415.02	2932.69
415.22	3049.72
415.41	3119.93
415.60	2958.44
415.79	3047.38
415.98	3052.06
416.17	3091.85
416.36	3152.70
416.55	3190.15
416.74	3038.02
416.93	3094.19
417.12	3180.79
417.31	3133.98
417.50	3145.68
417.69	3302.50
417.88	3361.01
418.07	3290.79
418.26	3276.75
418.45	3225.26
418.64	3452.29
418.83	3398.46
419.02	3454.63
419.21	3494.42
419.39	3515.48
419.58	3363.35
419.77	3372.71
419.96	3571.66
420.15	3609.11
420.34	3583.36
420.53	3646.55
420.72	3538.89
420.91	3716.77
421.10	3716.77
421.29	3777.62
421.48	3625.49
421.67	3578.68
421.86	3719.11
422.05	3775.28
422.24	3623.15
422.43	3707.41
422.61	3644.21
422.80	3772.94
422.99	3686.34
423.18	3859.54
423.37	3847.84
423.56	3838.48
423.75	3768.26
423.94	3829.12
424.13	3590.38
424.32	3730.81
424.50	3803.37
424.69	3829.12
424.88	3749.54
425.07	3908.69
425.26	3782.31
425.45	3960.19
425.64	3721.45
425.83	3815.07
426.01	3936.78
426.20	3995.29
426.39	3953.16
426.58	3775.28
426.77	3775.28
426.96	3934.44
427.15	3772.94
427.33	4011.68
427.52	3936.78
427.71	3950.82
427.90	3929.76
428.09	4056.15
428.28	4053.81
428.46	3992.95
428.65	3960.19
428.84	4079.55
429.03	4102.96
429.22	4095.94
429.40	3999.98
429.59	4086.58
429.78	3812.73
429.97	3794.01
430.16	4053.81
430.34	4002.32
430.53	4262.12
430.72	4095.94
430.91	4077.21
431.10	4121.68
431.28	4372.12
431.47	4355.74
431.66	4507.87
431.85	4266.80
432.03	4498.51
432.22	4428.29
432.41	4322.97
432.60	4634.26
432.79	4601.49
432.97	4685.75
433.16	4547.66
433.35	4386.16
433.54	4528.94
433.72	4521.92
433.91	4545.32
434.10	4688.09
434.28	4592.13
434.47	4720.86
434.66	4751.29
434.85	4800.44
435.03	4774.69
435.22	4704.48
435.41	5018.11
435.59	4978.32
435.78	4720.86
435.97	4877.68
436.16	4868.31
436.34	5022.79
436.53	4936.19
436.72	4975.98
436.90	4842.57
437.09	4929.17
437.28	4793.42
437.46	4985.34
437.65	5062.58
437.84	5032.15
438.02	5043.85
438.21	5013.43
438.40	4985.34
438.58	5132.79
438.77	5160.88
438.96	5270.89
439.14	5331.74
439.33	5416.00
439.52	5598.56
439.70	5301.31
439.89	5401.96
440.08	5423.02
440.26	5624.31
440.45	5488.56
440.63	5518.98
440.82	5703.89
441.01	5783.46
441.19	5944.96
441.38	5916.87
441.57	5863.04
441.75	6059.65
441.94	6045.60
442.12	6106.46
442.31	5905.17
442.50	6230.51
442.68	6125.18
442.87	6071.35
443.05	6047.94
443.24	6335.83
443.43	6225.82
443.61	6228.17
443.80	6282.00
443.98	6061.99
444.17	6052.63
444.35	6270.30
444.54	6441.15
444.73	6235.19
444.91	6150.93
445.10	6274.98
445.28	6277.32
445.47	6090.07
445.65	6153.27
445.84	6382.64
446.02	6424.77
446.21	6244.55
446.39	6377.96
446.58	6511.37
446.77	6354.55
446.95	6043.26
447.14	6225.82
447.32	6506.69
447.51	6401.37
447.69	6366.26
447.88	6466.90
448.06	6399.02
448.25	6532.44
448.43	6359.24
448.62	6509.03
448.80	6562.86
448.99	6492.65
449.17	6686.91
449.36	6700.95
449.54	6626.06
449.73	6719.68
449.91	6939.69
450.10	6869.47
450.28	6895.22
450.46	7037.99
450.65	6895.22
450.83	6916.28
451.02	6778.19
451.20	6820.32
451.39	6991.18
451.57	7007.56
451.76	6794.58
451.94	6923.30
452.13	7021.61
452.31	6871.81
452.49	6722.02
452.68	6993.52
452.86	6848.41
453.05	7014.59
453.23	6953.73
453.42	6937.35
453.60	7288.43
453.78	7337.58
453.97	7115.23
454.15	6977.14
454.34	7250.98
454.52	7325.88
454.70	7218.21
454.89	7267.36
455.07	7201.83
455.26	7454.61
455.44	7693.34
455.62	7440.56
455.81	7705.04
455.99	7698.02
456.17	7569.29
456.36	7478.01
456.54	7602.06
456.73	7765.90
456.91	7796.32
457.09	7808.03
457.28	7786.96
457.46	7688.66
457.64	7903.99
457.83	7868.88
458.01	7817.39
458.19	8013.99
458.38	7843.14
458.56	8109.96
458.74	8093.57
458.93	7992.93
459.11	8070.17
459.29	7826.75
459.48	8203.58
459.66	7985.91
459.84	8107.62
460.03	8079.53
460.21	8074.85
460.39	8243.37
460.57	8063.15
460.76	8308.90
460.94	8369.76
461.12	8346.35
461.31	8306.56
461.49	8269.11
461.67	8332.31
461.85	8475.08
462.04	8554.66
462.22	8830.84
462.40	8512.53
462.59	8428.27
462.77	8500.83
462.95	8631.90
463.13	8683.39
463.32	8655.30
463.50	8472.74
463.68	8648.28
463.86	8746.58
464.05	8439.97
464.23	8601.47
464.41	8830.84
464.59	8542.96
464.78	8879.99
464.96	8894.04
465.14	8744.24
465.32	8877.65
465.50	8896.38
465.69	8847.22
465.87	9022.77
466.05	8851.91
466.23	8692.75
466.41	8987.66
466.60	9235.75
466.78	8835.52
466.96	8985.32
467.14	9088.30
467.32	9034.47
467.51	9179.58
467.69	8952.55
467.87	9057.87
468.05	9247.46
468.23	9067.24
468.41	8992.34
468.60	9366.82
468.78	9200.65
468.96	9334.06
469.14	9294.27
469.32	9490.87
469.50	9448.74
469.69	9462.79
469.87	9460.45
470.05	9497.89
470.23	9437.04
470.41	9628.96
470.59	9514.28
470.77	9490.87
470.95	9547.05
471.14	9659.39
471.32	9504.92
471.50	9907.49
471.68	9914.51
471.86	9769.40
472.04	10019.83
472.22	10148.56
472.40	10019.83
472.58	10106.43
472.77	9926.21
472.95	10349.85
473.13	10504.32
473.31	10129.84
473.49	10408.36
473.67	10361.55
473.85	10300.70
474.03	10438.79
474.21	10541.77
474.39	10712.63
474.57	10724.33
474.75	10696.25
474.93	10733.70
475.12	10902.22
475.30	10895.19
475.48	10864.77
475.66	10944.34
475.84	10862.43
476.02	11164.36
476.20	11040.31
476.38	11426.50
476.56	11599.70
476.74	11353.94
476.92	11541.18
477.10	11552.88
477.28	11903.96
477.46	11733.11
477.64	11688.64
477.82	11927.37
478.00	12514.84
478.18	12065.46
478.36	12093.55
478.54	12138.02
478.72	12367.39
478.90	12669.32
479.08	12734.85
479.26	12585.06
479.44	12755.92
479.62	12802.73
479.80	12805.07
479.98	12877.63
480.16	13179.56
480.34	13121.04
480.52	13359.78
480.70	13465.10
480.88	13116.36
481.06	13394.89
481.24	13518.93
481.41	13781.07
481.59	13834.91
481.77	13984.70
481.95	13898.10
482.13	14141.52
482.31	13846.61
482.49	14501.96
482.67	14459.83
482.85	14548.77
483.03	14759.42
483.21	14963.04
483.39	14808.57
483.57	14829.63
483.74	15199.44
483.92	15548.18
484.10	15040.28
484.28	15370.30
484.46	15812.66
484.64	15866.49
484.82	15557.54
485.00	15791.59
485.18	16149.70
485.35	16004.58
485.53	15796.28
485.71	15861.81
485.89	16217.57
486.07	16091.18
486.25	16252.68
486.43	16622.48
486.61	16718.45
486.78	16947.82
486.96	17074.21
487.14	17261.45
487.32	17099.95
487.50	17380.82
487.68	17748.28
487.85	17731.90
488.03	17806.80
488.21	18059.57
488.39	18010.42
488.57	17961.27
488.75	18391.93
488.92	18167.24
489.10	18953.66
489.28	18937.27
489.46	19058.98
489.64	19007.49
489.81	19557.52
489.99	19489.64
490.17	19637.09
490.35	19920.30
490.53	19681.56
490.70	19971.79
490.88	20109.88
491.06	20404.79
491.24	20247.97
491.41	19924.98
491.59	20100.52
491.77	20266.70
491.95	20217.55
492.13	20753.53
492.30	21041.42
492.48	21172.49
492.66	21160.78
492.84	21254.40
493.01	21589.10
493.19	21415.90
493.37	21549.31
493.54	21558.67
493.72	21755.28
493.90	21923.80
494.08	22249.13
494.25	22583.83
494.43	22864.69
494.61	22775.75
494.79	22537.02
494.96	22689.15
495.14	22600.21
495.32	23159.60
495.49	23110.45
495.67	23517.70
495.85	23330.46
496.02	23854.74
496.20	23971.77
496.38	23648.77
496.55	23641.75
496.73	24704.35
496.91	24170.71
497.09	24306.46
497.26	24196.46
497.44	24276.04
497.62	24610.73
497.79	24739.46
497.97	24418.81
498.14	24622.44
498.32	24891.60
498.50	24706.70
498.67	25057.78
498.85	25397.15
499.03	25453.33
499.20	25668.66
499.38	25509.50
499.56	25692.06
499.73	25781.00
499.91	25717.81
500.08	25811.43
500.26	26066.55
500.44	25975.27
500.61	26019.74
500.79	26314.64
500.97	26352.09
501.14	26426.99
501.32	26670.40
501.49	26389.54
501.67	26581.46
501.84	26799.13
502.02	26551.04
502.20	27063.61
502.37	27208.73
502.55	26993.40
502.72	27283.62
502.90	27335.12
503.07	27140.85
503.25	27297.67
503.43	27550.45
503.60	27917.91
503.78	27482.57
503.95	27513.00
504.13	27782.16
504.30	27955.36
504.48	27751.73
504.65	27997.49
504.83	28299.42
505.01	28151.96
505.18	28432.83
505.36	28580.28
505.53	28781.57
505.71	28994.56
505.88	29120.95
506.06	28435.17
506.23	28835.40
506.41	28776.89
506.58	29254.36
506.76	29153.71
506.93	29855.87
507.11	29116.26
507.28	29727.14
507.46	29378.40
507.63	29191.16
507.81	29736.51
507.98	29816.08
508.16	29696.72
508.33	29687.36
508.50	30206.95
508.68	29900.34
508.85	30345.05
509.03	30087.59
509.20	30492.50
509.38	30721.87
509.55	30551.01
509.73	30415.26
509.90	31068.27
510.08	30572.08
510.25	30740.60
510.42	31019.12
510.60	31005.08
510.77	30937.20
510.95	31498.93
511.12	31346.79
511.30	31049.55
511.47	31349.14
511.64	31730.64
511.82	31594.89
511.99	31484.89
512.17	32119.17
512.34	31751.71
512.51	32086.40
512.69	32051.30
512.86	32116.83
513.04	32297.05
513.21	32250.24
513.38	31990.44
513.56	32430.46
513.73	32231.52
513.90	32474.93
514.08	32708.99
514.25	32622.39
514.43	32451.53
514.60	32575.58
514.77	32921.98
514.95	33062.41
515.12	33057.73
515.29	32905.59
515.47	33029.64
515.64	33397.10
515.81	33163.05
515.99	33099.86
516.16	33134.96
516.33	33048.36
516.51	33134.96
516.68	32814.31
516.85	32844.74
517.03	32760.48
517.20	33797.34
517.37	33563.28
517.54	33638.18
517.72	33963.51
517.89	33682.65
518.06	33598.39
518.24	33797.34
518.41	33935.43
518.58	34101.61
518.75	33881.60
518.93	34054.79
519.10	34415.24
519.27	34403.53
519.45	34670.36
519.62	34513.54
519.79	34785.04
519.96	34976.97
520.14	35026.12
520.31	35098.67
520.48	34754.61
520.65	34923.13
520.83	35395.92
521.00	35211.02
521.17	35075.27
521.34	35328.05
521.52	35824.24
521.69	35480.18
521.86	35747.00
522.03	35669.76
522.20	35592.53
522.38	35707.21
522.55	36048.93
522.72	35861.69
522.89	35768.07
523.07	36062.97
523.24	35854.67
523.41	36320.43
523.58	36098.08
523.75	36362.56
523.92	36210.43
524.10	36814.29
524.27	36847.05
524.44	36788.54
524.61	36870.46
524.78	36833.01
524.96	36488.95
525.13	36786.20
525.30	37661.56
525.47	37376.01
525.64	37373.67
525.81	37235.58
525.98	37230.90
526.16	36594.28
526.33	36781.52
526.50	37029.62
526.67	36905.57
526.84	36935.99
527.01	37263.67
527.18	37734.12
527.36	37766.88
527.53	37598.37
527.70	38181.16
527.87	37809.01
528.04	37689.65
528.21	37923.70
528.38	38031.36
528.55	38279.46
528.72	38057.11
528.89	38656.29
529.07	38646.93
529.24	37902.64
529.41	38120.31
529.58	38218.61
529.75	38429.26
529.92	38466.70
530.09	38583.73
530.26	38918.43
530.43	38696.08
530.60	38630.54
530.77	38195.20
530.94	38871.62
531.11	38588.41
531.28	38895.02
531.46	38923.11
531.63	39026.09
531.80	39040.14
531.97	39028.43
532.14	38759.27
532.31	38693.74
532.48	38686.71
532.65	39187.59
532.82	39054.18
532.99	39679.10
533.16	39508.24
533.33	39246.10
533.50	39728.25
533.67	39501.22
533.84	39391.22
534.01	39367.81
534.18	39725.91
534.35	39583.14
534.52	40084.01
534.69	40177.64
534.86	40072.31
535.03	39864.00
535.20	40514.67
535.37	40233.81
535.54	40062.95
535.71	40121.46
535.88	40231.47
536.05	40027.84
536.22	40119.12
536.38	40268.92
536.55	40605.95
536.72	40385.94
536.89	40121.46
537.06	40402.33
537.23	40788.52
537.40	40353.18
537.57	40631.70
537.74	40451.48
537.91	41120.87
538.08	40999.16
538.25	40350.84
538.42	40863.41
538.59	40994.48
538.75	40395.31
538.92	40774.47
539.09	41244.92
539.26	41074.06
539.43	40837.67
539.60	41214.49
539.77	40872.78
539.94	41268.33
540.11	40678.51
540.28	40868.09
540.44	40891.50
540.61	41591.32
540.78	40882.14
540.95	41202.79
541.12	40980.44
541.29	41553.87
541.46	40950.01
541.62	41429.82
541.79	41684.94
541.96	41139.60
542.13	41551.53
542.30	41390.03
542.47	41790.27
542.63	41769.20
542.80	41584.30
542.97	42092.19
543.14	42117.94
543.31	41982.19
543.48	42141.35
543.64	42536.90
543.81	42127.30
543.98	42377.74
544.15	42054.75
544.32	42410.51
544.48	42831.80
544.65	42761.59
544.82	42422.21
544.99	42017.30
545.16	42410.51
545.32	42560.30
545.49	42658.60
545.66	42639.88
545.83	42457.32
546.00	42930.11
546.16	42857.55
546.33	42679.67
546.50	42380.08
546.67	43210.97
546.83	42590.73
547.00	42560.30
547.17	42691.37
547.34	43023.73
547.50	42899.68
547.67	43246.08
547.84	43255.44
548.00	43526.94
548.17	43068.20
548.34	43414.60
548.51	43915.47
548.67	43412.26
548.84	43571.41
549.01	42862.23
549.18	43320.98
549.34	43487.15
549.51	43728.23
549.68	43562.05
549.84	43866.32
550.01	43526.94
550.18	43208.63
550.34	43641.63
550.51	43271.82
550.68	43552.69
550.84	43646.31
551.01	43697.80
551.18	43655.67
551.34	43824.19
551.51	43718.87
551.68	43873.34
551.84	44039.52
552.01	43805.47
552.18	43826.53
552.34	43313.95
552.51	44079.31
552.68	44098.03
552.84	43941.22
553.01	44233.78
553.18	44334.43
553.34	44095.69
553.51	43941.22
553.67	44233.78
553.84	44446.77
554.01	44655.08
554.17	44442.09
554.34	44531.03
554.51	44596.57
554.67	44643.38
554.84	44634.02
555.00	44186.97
555.17	44311.02
555.33	44383.58
555.50	44397.62
555.67	44449.11
555.83	44479.54
556.00	44699.55
556.16	45085.74
556.33	44327.41
556.50	44882.11
556.66	44973.39
556.83	44126.12
556.99	44847.00
557.16	44917.22
557.32	44584.86
557.49	45099.78
557.65	44739.34
557.82	44414.01
557.98	44645.72
558.15	44865.73
558.32	44690.19
558.48	44645.72
558.65	44559.12
558.81	44732.32
558.98	44926.58
559.14	45041.27
559.31	45097.44
559.47	44772.11
559.64	45778.54
559.80	45359.58
559.97	45022.54
560.13	44788.49
560.30	44821.26
560.46	45116.17
560.63	44837.64
560.79	44992.12
560.96	45324.47
561.12	45209.79
561.29	45130.21
561.45	45219.15
561.61	45184.04
561.78	45071.70
561.94	44704.23
562.11	45226.17
562.27	45085.74
562.44	45202.77
562.60	45504.70
562.77	45546.82
562.93	45469.59
563.10	45022.54
563.26	44933.60
563.42	45261.28
563.59	45298.73
563.75	45104.46
563.92	45504.70
564.08	45668.53
564.24	45659.17
564.41	45806.62
564.57	45530.44
564.74	45422.78
564.90	45553.85
565.07	45612.36
565.23	45375.97
565.39	45172.34
565.56	45680.24
565.72	45677.90
565.88	45315.11
566.05	45567.89
566.21	45420.44
566.38	45453.20
566.54	45382.99
566.70	45366.60
566.87	46068.76
567.03	45474.27
567.19	45823.01
567.36	45572.57
567.52	45872.16
567.68	45722.37
567.85	45233.19
568.01	45680.24
568.17	45518.74
568.34	45659.17
568.50	45731.73
568.66	45663.85
568.83	45757.47
568.99	46099.19
569.15	45773.86
569.32	45434.48
569.48	45668.53
569.64	46248.99
569.81	45659.17
569.97	45577.25
570.13	45347.88
570.30	45577.25
570.46	45256.60
570.62	45900.25
570.78	45397.03
570.95	45937.69
571.11	46010.25
571.27	45581.93
571.43	45825.35
571.60	46150.68
571.76	45619.38
571.92	45696.62
572.09	46108.55
572.25	45682.58
572.41	45638.11
572.57	45853.44
572.74	46674.96
572.90	46024.29
573.06	45743.43
573.22	45418.10
573.38	45862.80
573.55	45724.71
573.71	46307.50
573.87	45825.35
574.03	45544.48
574.20	46017.27
574.36	45771.52
574.52	45944.72
574.68	45848.75
574.84	46014.93
575.01	45684.92
575.17	46223.24
575.33	45532.78
575.49	45897.91
575.65	46284.09
575.82	46295.80
575.98	46178.77
576.14	46405.80
576.30	45790.24
576.46	45289.37
576.62	45872.16
576.79	45762.15
576.95	45518.74
577.11	45872.16
577.27	45947.06
577.43	45713.00
577.59	45769.18
577.75	45619.38
577.92	45343.20
578.08	45787.90
578.24	45965.78
578.40	45841.73
578.56	46061.74
578.72	45862.80
578.88	46244.30
579.04	45736.41
579.21	45846.41
579.37	45729.39
579.53	45738.75
579.69	45663.85
579.85	46567.30
580.01	46225.58
580.17	46253.67
580.33	46527.51
580.49	46183.45
580.65	46038.34
580.82	46082.81
580.98	46038.34
581.14	46167.07
581.30	46405.80
581.46	46190.47
581.62	46417.50
581.78	46073.45
581.94	46904.34
582.10	46312.18
582.26	46375.37
582.42	46129.62
582.58	46031.32
582.74	45975.14
582.90	46429.21
583.06	46494.74
583.22	46419.84
583.38	45986.85
583.54	45801.94
583.70	46204.52
583.86	46120.26
584.02	45659.17
584.18	46412.82
584.34	46054.72
584.50	45996.21
584.66	46323.88
584.82	46082.81
584.98	46424.53
585.14	46337.93
585.30	45825.35
585.46	46223.24
585.62	46050.04
585.78	45900.25
585.94	45717.68
586.10	45546.82
586.26	45968.12
586.42	46099.19
586.58	46382.40
586.74	45853.44
586.90	45933.01
587.06	45900.25
587.22	46246.65
587.38	45879.18
587.54	46012.59
587.70	46176.43
587.86	46401.12
588.02	45956.42
588.18	46466.66
588.34	45823.01
588.49	45617.04
588.65	45420.44
588.81	45727.05
588.97	45507.04
589.13	45605.34
589.29	45715.34
589.45	45879.18
589.61	46096.85
589.77	46354.31
589.93	46085.15
590.08	46246.65
