SpectraSuite Data File
++++++++++++++++++++++++++++++++++++
Date: Fri Oct 25 10:44:47 EDT 2013
User: price-jones
Dark Spectrum Present: No
Reference Spectrum Present: No
Number of Sampled Component Spectra: 1
Spectrometers: USB2+H05261
Integration Time (usec): 100000 (USB2+H05261)
Spectra Averaged: 1 (USB2+H05261)
Boxcar Smoothing: 0 (USB2+H05261)
Correct for Electrical Dark: No (USB2+H05261)
Strobe/Lamp Enabled: No (USB2+H05261)
Correct for Detector Non-linearity: No (USB2+H05261)
Correct for Stray Light: No (USB2+H05261)
Number of Pixels in Processed Spectrum: 2048
>>>>>Begin Processed Spectral Data<<<<<
365.73	112.35
365.92	112.35
366.12	112.35
366.32	70.22
366.52	63.19
366.72	0.00
366.91	0.00
367.11	0.00
367.31	0.00
367.51	0.00
367.70	21.06
367.90	16.38
368.10	0.00
368.30	60.85
368.49	49.15
368.69	18.72
368.89	46.81
369.09	51.49
369.28	65.54
369.48	105.32
369.68	56.17
369.87	105.32
370.07	58.51
370.27	107.66
370.47	210.65
370.66	381.51
370.86	407.25
371.06	461.09
371.25	395.55
371.45	477.47
371.65	404.91
371.84	374.49
372.04	423.64
372.24	369.80
372.44	461.09
372.63	435.34
372.83	442.36
373.03	524.28
373.22	477.47
373.42	468.11
373.62	484.49
373.81	547.69
374.01	514.92
374.21	540.66
374.40	486.83
374.60	559.39
374.79	627.26
374.99	524.28
375.19	596.84
375.38	519.60
375.58	535.98
375.78	575.77
375.97	496.19
376.17	629.60
376.37	582.79
376.56	582.79
376.76	585.13
376.95	599.18
377.15	557.05
377.35	622.58
377.54	617.90
377.74	573.43
377.93	547.69
378.13	634.29
378.33	587.47
378.52	676.41
378.72	571.09
378.91	664.71
379.11	613.22
379.31	582.79
379.50	648.33
379.70	573.43
379.89	571.09
380.09	692.80
380.28	564.07
380.48	596.84
380.68	624.92
380.87	657.69
381.07	636.63
381.26	695.14
381.46	638.97
381.65	638.97
381.85	720.88
382.04	641.31
382.24	699.82
382.43	674.07
382.63	674.07
382.83	688.12
383.02	662.37
383.22	760.67
383.41	702.16
383.61	645.99
383.80	737.27
384.00	725.57
384.19	676.41
384.39	716.20
384.58	699.82
384.78	758.33
384.97	812.17
385.17	713.86
385.36	805.14
385.56	732.59
385.75	781.74
385.95	734.93
386.14	784.08
386.34	699.82
386.53	763.01
386.72	716.20
386.92	755.99
387.11	877.70
387.31	788.76
387.50	763.01
387.70	725.57
387.89	830.89
388.09	851.96
388.28	788.76
388.48	744.29
388.67	767.70
388.86	809.83
389.06	798.12
389.25	837.91
389.45	915.15
389.64	856.64
389.84	896.43
390.03	957.28
390.22	957.28
390.42	847.27
390.61	901.11
390.81	938.55
391.00	910.47
391.19	1025.15
391.39	997.07
391.58	922.17
391.78	978.34
391.97	964.30
392.16	908.13
392.36	917.49
392.55	1027.50
392.75	954.94
392.94	884.72
393.13	924.51
393.33	954.94
393.52	1039.20
393.71	1078.99
393.91	1011.11
394.10	1057.92
394.29	1081.33
394.49	1078.99
394.68	1146.86
394.88	1006.43
395.07	1036.86
395.26	1142.18
395.46	1104.73
395.65	1102.39
395.84	1053.24
396.04	1086.01
396.23	985.37
396.42	1118.78
396.62	1081.33
396.81	1203.04
397.00	1149.20
397.19	1114.10
397.39	1245.16
397.58	1242.82
397.77	1177.29
397.97	1247.51
398.16	1352.83
398.35	1249.85
398.55	1287.29
398.74	1240.48
398.93	1409.00
399.12	1299.00
399.32	1322.40
399.51	1247.51
399.70	1329.42
399.90	1324.74
400.09	1329.42
400.28	1444.11
400.47	1352.83
400.67	1434.75
400.86	1359.85
401.05	1458.15
401.24	1497.94
401.44	1551.78
401.63	1502.62
401.82	1458.15
402.01	1483.90
402.21	1647.74
402.40	1607.95
402.59	1631.35
402.78	1629.01
402.97	1537.73
403.17	1535.39
403.36	1558.80
403.55	1586.88
403.74	1584.54
403.93	1650.08
404.13	1755.40
404.32	1680.50
404.51	1612.63
404.70	1668.80
404.89	1696.89
405.09	1776.47
405.28	1764.76
405.47	1645.40
405.66	1671.14
405.85	1753.06
406.05	1710.93
406.24	1760.08
406.43	1657.10
406.62	1809.23
406.81	1928.60
407.00	1877.11
407.20	1792.85
407.39	1989.46
407.58	1937.96
407.77	2008.18
407.96	1980.09
408.15	1984.77
408.34	2017.54
408.54	2047.97
408.73	2076.06
408.92	2076.06
409.11	2019.88
409.30	2038.61
409.49	1980.09
409.68	2118.18
409.87	2057.33
410.07	2139.25
410.26	2092.44
410.45	2207.13
410.64	2162.66
410.83	2251.60
411.02	2190.74
411.21	2307.77
411.40	2242.23
411.59	2263.30
411.78	2305.43
411.98	2338.20
412.17	2473.95
412.36	2307.77
412.55	2368.62
412.74	2504.37
412.93	2483.31
413.12	2413.09
413.31	2499.69
413.50	2565.23
413.69	2541.82
413.88	2546.50
414.07	2644.81
414.26	2621.40
414.45	2590.97
414.64	2712.68
414.83	2677.57
415.02	2719.70
415.22	2752.47
415.41	2764.17
415.60	2820.35
415.79	2881.20
415.98	2766.51
416.17	2899.92
416.36	2822.69
416.55	2925.67
416.74	2871.84
416.93	2897.58
417.12	2986.52
417.31	3038.02
417.50	2986.52
417.69	3028.65
417.88	3126.96
418.07	3012.27
418.26	3082.49
418.45	3122.27
418.64	3197.17
418.83	3192.49
419.02	3141.00
419.21	3241.64
419.39	3178.45
419.58	3358.67
419.77	3042.70
419.96	3295.47
420.15	3166.74
420.34	3339.94
420.53	3267.39
420.72	3449.95
420.91	3379.73
421.10	3475.70
421.29	3428.88
421.48	3396.12
421.67	3492.08
421.86	3419.52
422.05	3489.74
422.24	3522.51
422.43	3428.88
422.61	3396.12
422.80	3566.98
422.99	3564.64
423.18	3515.48
423.37	3604.42
423.56	3515.48
423.75	3524.85
423.94	3545.91
424.13	3349.31
424.32	3543.57
424.50	3576.34
424.69	3688.68
424.88	3747.20
425.07	3449.95
425.26	3651.24
425.45	3541.23
425.64	3578.68
425.83	3531.87
426.01	3602.08
426.20	3693.37
426.39	3613.79
426.58	3571.66
426.77	3552.93
426.96	3632.51
427.15	3639.53
427.33	3658.26
427.52	3798.69
427.71	3782.31
427.90	3791.67
428.09	3765.92
428.28	3763.58
428.46	3705.07
428.65	3716.77
428.84	3918.06
429.03	3805.71
429.22	3845.50
429.40	3875.93
429.59	3805.71
429.78	3756.56
429.97	3550.59
430.16	3798.69
430.34	3798.69
430.53	3826.78
430.72	3943.80
430.91	4121.68
431.10	3955.51
431.28	4018.70
431.47	4161.47
431.66	4205.94
431.85	4053.81
432.03	4133.39
432.22	4112.32
432.41	4161.47
432.60	4184.88
432.79	4276.16
432.97	4163.81
433.16	4386.16
433.35	4203.60
433.54	4212.96
433.72	4285.52
433.91	4283.18
434.10	4255.09
434.28	4383.82
434.47	4360.42
434.66	4369.78
434.85	4524.26
435.03	4381.48
435.22	4393.19
435.41	4631.92
435.59	4489.15
435.78	4589.79
435.97	4538.30
436.16	4669.37
436.34	4650.64
436.53	4699.80
436.72	4702.14
436.90	4650.64
437.09	4758.31
437.28	4617.88
437.46	4791.08
437.65	4699.80
437.84	4650.64
438.02	4667.03
438.21	4840.23
438.40	4774.69
438.58	4849.59
438.77	5048.54
438.96	4779.37
439.14	4985.34
439.33	5114.07
439.52	5064.92
439.70	5081.30
439.89	5071.94
440.08	5083.64
440.26	5116.41
440.45	5181.95
440.63	5280.25
440.82	5490.90
441.01	5348.12
441.19	5425.36
441.38	5418.34
441.57	5528.35
441.75	5376.21
441.94	5863.04
442.12	5668.78
442.31	5636.01
442.50	5743.67
442.68	5652.39
442.87	5764.74
443.05	5668.78
443.24	5858.36
443.43	5865.38
443.61	5902.83
443.80	5935.60
443.98	5778.78
444.17	5366.85
444.35	5825.59
444.54	5902.83
444.73	5823.25
444.91	5816.23
445.10	5769.42
445.28	5935.60
445.47	5671.12
445.65	5820.91
445.84	5884.11
446.02	5837.30
446.21	5881.77
446.39	6005.81
446.58	5942.62
446.77	6012.84
446.95	6005.81
447.14	6033.90
447.32	6115.82
447.51	5785.80
447.69	6047.94
447.88	6087.73
448.06	6083.05
448.25	6085.39
448.43	6064.33
448.62	5884.11
448.80	5893.47
448.99	6106.46
449.17	6127.52
449.36	6186.04
449.54	6289.02
449.73	6321.79
449.91	6368.60
450.10	6417.75
450.28	6473.92
450.46	6429.45
450.65	6424.77
450.83	6509.03
451.02	6342.85
451.20	6494.99
451.39	6427.11
451.57	6359.24
451.76	6282.00
451.94	6609.67
452.13	6497.33
452.31	6469.24
452.49	6565.20
452.68	6490.31
452.86	6572.22
453.05	6555.84
453.23	6616.69
453.42	6476.26
453.60	6633.08
453.78	6712.66
453.97	6555.84
454.15	6494.99
454.34	6572.22
454.52	6937.35
454.70	6766.49
454.89	6813.30
455.07	6691.59
455.26	6883.52
455.44	6939.69
455.62	6822.66
455.81	6988.84
455.99	6761.81
456.17	7145.66
456.36	7014.59
456.54	7075.44
456.73	7255.66
456.91	7468.65
457.09	7433.54
457.28	7403.11
457.46	7103.53
457.64	7267.36
457.83	7307.15
458.01	7501.42
458.19	7688.66
458.38	7307.15
458.56	7463.97
458.74	7377.37
458.93	7480.35
459.11	7515.46
459.29	7370.35
459.48	7482.69
459.66	7660.57
459.84	7763.56
460.03	7705.04
460.21	7611.42
460.39	7768.24
460.57	7768.24
460.76	7903.99
460.94	7742.49
461.12	7850.16
461.31	7927.39
461.49	7829.09
461.67	7833.77
461.85	8147.40
462.04	7747.17
462.22	8121.66
462.40	8128.68
462.59	8152.09
462.77	8126.34
462.95	8124.00
463.13	7990.59
463.32	8205.92
463.50	8145.06
463.68	8194.22
463.86	8016.33
464.05	8212.94
464.23	8187.19
464.41	8196.56
464.59	8320.60
464.78	8236.35
464.96	8411.89
465.14	8056.12
465.32	8161.45
465.50	8472.74
465.69	8505.51
465.87	8439.97
466.05	8210.60
466.23	8451.67
466.41	8507.85
466.60	8727.86
466.78	8271.45
466.96	8437.63
467.14	8362.73
467.32	8507.85
467.51	8678.71
467.69	8404.86
467.87	8458.70
468.05	8828.50
468.23	8535.93
468.41	8744.24
468.60	8631.90
468.78	8809.78
468.96	8517.21
469.14	8905.74
469.32	8908.08
469.50	8688.07
469.69	8936.17
469.87	8982.98
470.05	8968.93
470.23	8762.97
470.41	8795.73
470.59	9015.74
470.77	9025.11
470.95	8957.23
471.14	9198.31
471.32	9020.42
471.50	9392.57
471.68	9212.35
471.86	9259.16
472.04	9233.41
472.22	9610.24
472.40	9289.59
472.58	9404.27
472.77	9455.76
472.95	9666.41
473.13	9926.21
473.31	9493.21
473.49	9699.18
473.67	9678.12
473.85	9769.40
474.03	9874.72
474.21	9966.00
474.39	9886.42
474.57	9900.47
474.75	10207.08
474.93	10031.54
475.12	10094.73
475.30	10399.00
475.48	10225.80
475.66	10303.04
475.84	10190.69
476.02	10394.32
476.20	10296.02
476.38	10443.47
476.56	10661.14
476.74	10827.32
476.92	10714.97
477.10	10829.66
477.28	10782.85
477.46	11077.76
477.64	11077.76
477.82	11487.35
478.00	11435.86
478.18	11391.39
478.36	11337.56
478.54	11566.93
478.72	11449.90
478.90	11548.20
479.08	11887.58
479.26	11988.22
479.44	12065.46
479.62	12224.62
479.80	12023.33
479.98	12170.79
480.16	12332.28
480.34	12542.93
480.52	12346.33
480.70	12716.13
480.88	12435.27
481.06	12798.05
481.24	13022.74
481.41	13013.38
481.59	13029.76
481.77	13057.85
481.95	13062.53
482.13	13071.89
482.31	13277.86
482.49	13575.11
482.67	13717.88
482.85	13640.64
483.03	13689.79
483.21	13874.70
483.39	14040.87
483.57	14122.79
483.74	14099.39
483.92	14335.78
484.10	14340.46
484.28	14429.40
484.46	14597.92
484.64	14918.57
484.82	14775.80
485.00	15009.86
485.18	15047.30
485.35	15316.47
485.53	14714.95
485.71	15030.92
485.89	15178.37
486.07	15269.66
486.25	15360.94
486.43	15583.29
486.61	15700.31
486.78	16016.29
486.96	16011.60
487.14	16226.93
487.32	16074.80
487.50	16428.22
487.68	16556.95
487.85	16741.85
488.03	16980.59
488.21	16814.41
488.39	17118.68
488.57	17390.18
488.75	17317.62
488.92	17603.17
489.10	17977.65
489.28	17612.53
489.46	18050.21
489.64	17926.16
489.81	18265.54
489.99	18611.94
490.17	18630.66
490.35	18747.69
490.53	18574.49
490.70	18888.12
490.88	18670.45
491.06	19140.90
491.24	19442.83
491.41	19236.86
491.59	19171.33
491.77	19302.40
491.95	19372.61
492.13	19424.11
492.30	19702.63
492.48	19697.95
492.66	20037.33
492.84	19969.45
493.01	20100.52
493.19	20367.34
493.37	20418.83
493.54	20442.24
493.72	20760.55
493.90	20915.03
494.08	21099.93
494.25	21109.29
494.43	21273.13
494.61	21446.33
494.79	21355.05
494.96	21422.92
495.14	21944.86
495.32	21539.95
495.49	21834.86
495.67	22005.72
495.85	22064.23
496.02	22342.75
496.20	22539.36
496.38	22417.65
496.55	22803.84
496.73	23183.01
496.91	23005.13
497.09	22895.12
497.26	23405.36
497.44	22937.25
497.62	23410.04
497.79	23384.29
497.97	23281.31
498.14	23564.51
498.32	23496.64
498.50	23847.72
498.67	23983.47
498.85	24294.76
499.03	24081.77
499.20	24261.99
499.38	24119.22
499.56	24159.01
499.73	24484.34
499.91	24711.38
500.08	24411.79
500.26	24170.71
500.44	24903.30
500.61	24648.18
500.79	24533.50
500.97	24973.52
501.14	25348.00
501.32	25479.07
501.49	25223.95
501.67	25233.32
501.84	25043.73
502.02	25483.75
502.20	25584.40
502.37	26012.71
502.55	25883.98
502.72	25839.51
502.90	26412.95
503.07	25846.54
503.25	25869.94
503.43	25862.92
503.60	26052.50
503.78	26464.44
503.95	26462.10
504.13	26258.47
504.30	26445.71
504.48	26551.04
504.65	26689.13
504.83	27014.46
505.01	27304.69
505.18	26944.25
505.36	27543.42
505.53	27637.05
505.71	27180.64
505.88	27285.97
506.06	27147.87
506.23	27733.01
506.41	27395.97
506.58	27854.72
506.76	27662.79
506.93	27953.02
507.11	27772.80
507.28	27786.84
507.46	27910.89
507.63	28290.06
507.81	28208.14
507.98	28107.49
508.16	27999.83
508.33	28142.60
508.50	28732.42
508.68	28631.77
508.85	29008.60
509.03	28828.38
509.20	28947.75
509.38	29060.09
509.55	29144.35
509.73	29254.36
509.90	29357.34
510.08	29109.24
510.25	29319.89
510.42	29261.38
510.60	29575.01
510.77	29830.13
510.95	29965.88
511.12	29546.92
511.30	29935.45
511.47	30237.38
511.64	30085.25
511.82	30223.34
511.99	29907.37
512.17	30066.52
512.34	30036.09
512.51	30433.99
512.69	30525.27
512.86	30735.92
513.04	30607.19
513.21	31182.96
513.38	30485.48
513.56	30656.34
513.73	30499.52
513.90	30637.61
514.08	30831.88
514.25	31049.55
514.43	30993.37
514.60	31042.53
514.77	30845.92
514.95	31475.52
515.12	31409.99
515.29	31250.83
515.47	31611.28
515.64	31674.47
515.81	31126.78
515.99	31725.96
516.16	31646.38
516.33	31604.25
516.51	31908.52
516.68	31672.13
516.85	31686.17
517.03	31379.56
517.20	31917.89
517.37	32165.98
517.54	32130.87
517.72	32355.57
517.89	32034.91
518.06	32046.62
518.24	32133.21
518.41	31981.08
518.58	32336.84
518.75	32275.99
518.93	32882.19
519.10	32568.55
519.27	32905.59
519.45	32833.04
519.62	32762.82
519.79	33113.90
519.96	33207.52
520.14	33303.48
520.31	32861.12
520.48	33336.25
520.65	33408.81
520.83	33514.13
521.00	33769.25
521.17	33729.46
521.34	33902.66
521.52	33813.72
521.69	34010.32
521.86	33979.90
522.03	34611.84
522.20	34082.88
522.38	34286.51
522.55	34295.87
522.72	34436.30
522.89	34075.86
523.07	34115.65
523.24	34223.31
523.41	34946.54
523.58	34600.14
523.75	34838.87
523.92	35000.37
524.10	35124.42
524.27	34871.64
524.44	34763.98
524.61	35002.71
524.78	35133.78
524.96	35124.42
525.13	35468.48
525.30	35501.25
525.47	35658.06
525.64	35012.07
525.81	35115.06
525.98	35297.62
526.16	35751.68
526.33	35276.55
526.50	35632.32
526.67	35199.32
526.84	35136.12
527.01	35325.71
527.18	35538.69
527.36	35880.41
527.53	35908.50
527.70	36268.94
527.87	36362.56
528.04	36030.21
528.21	36149.57
528.38	36556.83
528.55	36610.66
528.72	36591.94
528.89	36610.66
529.07	36535.76
529.24	36170.64
529.41	36385.97
529.58	36662.15
529.75	36800.24
529.92	36575.55
530.09	36636.41
530.26	36751.09
530.43	37031.96
530.60	36622.36
530.77	36793.22
530.94	37104.51
531.11	36849.39
531.28	37156.00
531.46	37102.17
531.63	37432.19
531.80	37275.37
531.97	37151.32
532.14	37322.18
532.31	37153.66
532.48	37661.56
532.65	37275.37
532.82	37493.04
532.99	37490.70
533.16	37598.37
533.33	38017.32
533.50	37818.38
533.67	37757.52
533.84	37479.00
534.01	37757.52
534.18	37490.70
534.35	38230.31
534.52	37979.87
534.69	38202.22
534.86	37820.72
535.03	37883.91
535.20	38373.08
535.37	38181.16
535.54	38770.97
535.71	38363.72
535.88	37813.70
536.05	38251.38
536.22	38604.80
536.38	38663.31
536.55	38653.95
536.72	38401.17
536.89	38555.64
537.06	38909.07
537.23	39105.67
537.40	38782.68
537.57	38852.89
537.74	39189.93
537.91	39241.42
538.08	38930.13
538.25	38806.08
538.42	39145.46
538.59	38880.98
538.75	38768.63
538.92	39009.71
539.09	39292.91
539.26	39222.70
539.43	38967.58
539.60	38904.38
539.77	38967.58
539.94	39332.70
540.11	39208.65
540.28	39508.24
540.44	39115.03
540.61	39580.80
540.78	39428.66
540.95	39545.69
541.12	39463.77
541.29	39218.02
541.46	39777.40
541.62	39983.37
541.79	39435.69
541.96	39311.64
542.13	39648.68
542.30	39959.97
542.47	39491.86
542.63	40011.46
542.80	40119.12
542.97	40519.35
543.14	40699.58
543.31	40509.99
543.48	40336.79
543.64	40950.01
543.81	40374.24
543.98	41041.29
544.15	40622.34
544.32	41205.13
544.48	40591.91
544.65	40877.46
544.82	41200.45
544.99	40760.43
545.16	40849.37
545.32	40676.17
545.49	41757.50
545.66	41467.27
545.83	40940.65
546.00	41130.23
546.16	41111.51
546.33	40917.25
546.50	40692.55
546.67	41581.96
546.83	40924.27
547.00	41123.21
547.17	41031.93
547.34	41181.73
547.50	41413.44
547.67	41280.03
547.84	41191.09
548.00	41310.46
548.17	41694.30
548.34	41523.44
548.51	41689.62
548.67	41867.50
548.84	41750.48
549.01	41638.13
549.18	41476.63
549.34	41535.15
549.51	42024.32
549.68	41937.72
549.84	41642.81
550.01	41926.02
550.18	41698.98
550.34	41787.92
550.51	42115.60
550.68	42059.43
550.84	41706.01
551.01	41783.24
551.18	41769.20
551.34	41839.42
551.51	42078.15
551.68	42389.44
551.84	42382.42
552.01	41801.97
552.18	42171.77
552.34	41911.97
552.51	42045.38
552.68	41895.59
552.84	42794.36
553.01	42616.47
553.18	42375.40
553.34	42724.14
553.51	42218.58
553.67	42370.72
553.84	42246.67
554.01	42459.66
554.17	42288.80
554.34	43063.52
554.51	42621.16
554.67	42876.27
554.84	42564.98
555.00	42094.53
555.17	42471.36
555.33	42663.28
555.50	42595.41
555.67	42536.90
555.83	42698.39
556.00	42799.04
556.16	43290.55
556.33	42735.84
556.50	42775.63
556.66	43016.71
556.83	42864.57
556.99	43405.23
557.16	43136.07
557.32	43040.11
557.49	43173.52
557.65	42911.38
557.82	42733.50
557.98	43091.60
558.15	43077.56
558.32	43157.14
558.48	43339.70
558.65	43599.50
558.81	42878.61
558.98	43115.01
559.14	43550.35
559.31	43510.56
559.47	43585.46
559.64	43566.73
559.80	43681.42
559.97	43456.73
560.13	42892.66
560.30	42946.49
560.46	43138.41
560.63	43550.35
560.79	43690.78
560.96	44041.86
561.12	43564.39
561.29	43154.80
561.45	43599.50
561.61	43372.47
561.78	43632.27
561.94	43496.52
562.11	43597.16
562.27	43140.75
562.44	43920.15
562.60	43709.50
562.77	43887.39
562.93	43833.55
563.10	43817.17
563.26	43136.07
563.42	43393.53
563.59	43550.35
563.75	43770.36
563.92	44112.08
564.08	43964.62
564.24	43885.04
564.41	44006.75
564.57	43924.83
564.74	43845.26
564.90	43599.50
565.07	43962.28
565.23	44133.14
565.39	44086.33
565.56	44165.91
565.72	44037.18
565.88	43718.87
566.05	43882.70
566.21	43297.57
566.38	43629.93
566.54	43889.73
566.70	44023.14
566.87	44245.49
567.03	44240.81
567.19	44116.76
567.36	44041.86
567.52	43931.86
567.68	44095.69
567.85	43948.24
568.01	44144.84
568.17	43945.90
568.34	43952.92
568.50	44091.01
568.66	44037.18
568.83	44076.97
568.99	44158.89
569.15	43702.48
569.32	44025.48
569.48	43985.69
569.64	44376.56
569.81	44009.09
569.97	44406.98
570.13	44194.00
570.30	44016.11
570.46	44112.08
570.62	43934.20
570.78	43812.49
570.95	44053.56
571.11	44371.88
571.27	43903.77
571.43	43988.03
571.60	43838.23
571.76	44208.04
571.92	44308.68
572.09	43927.17
572.25	44023.14
572.41	44091.01
572.57	44341.45
572.74	44472.52
572.90	43969.30
573.06	44385.92
573.22	44259.53
573.38	44458.48
573.55	44179.95
573.71	44266.55
573.87	44184.63
574.03	44383.58
574.20	44587.21
574.36	44622.31
574.52	44250.17
574.68	44577.84
574.84	44369.54
575.01	44254.85
575.17	44458.48
575.33	44308.68
575.49	44287.62
575.65	44662.10
575.82	44435.07
575.98	44250.17
576.14	44495.92
576.30	44526.35
576.46	44446.77
576.62	44439.75
576.79	44467.84
576.95	43936.54
577.11	44669.12
577.27	44715.93
577.43	44245.49
577.59	44596.57
577.75	44296.98
577.92	43824.19
578.08	44243.15
578.24	44201.02
578.40	44105.06
578.56	44189.31
578.72	44222.08
578.88	44423.37
579.04	44348.47
579.21	44322.72
579.37	44432.73
579.53	44554.44
579.69	44002.07
579.85	44266.55
580.01	44271.23
580.17	44538.05
580.33	44446.77
580.49	44474.86
580.65	44690.19
580.82	44758.06
580.98	44566.14
581.14	44186.97
581.30	44671.46
581.46	44870.41
581.62	44423.37
581.78	44053.56
581.94	44608.27
582.10	44467.84
582.26	44772.11
582.42	44355.49
582.58	44570.82
582.74	44409.32
582.90	44673.81
583.06	44582.52
583.22	44313.36
583.38	44734.66
583.54	44414.01
583.70	44652.74
583.86	44715.93
584.02	43924.83
584.18	44435.07
584.34	44540.39
584.50	44325.07
584.66	44566.14
584.82	44306.34
584.98	44891.48
585.14	45029.57
585.30	44264.21
585.46	44678.49
585.62	44411.67
585.78	44549.76
585.94	44350.81
586.10	44751.04
586.26	44626.99
586.42	44622.31
586.58	44577.84
586.74	44641.04
586.90	44577.84
587.06	44521.67
587.22	44643.38
587.38	44294.64
587.54	44538.05
587.70	44842.32
587.86	44301.66
588.02	44250.17
588.18	44772.11
588.34	44673.81
588.49	44362.51
588.65	44245.49
588.81	44697.21
588.97	44531.03
589.13	44308.68
589.29	43889.73
589.45	44477.20
589.61	44790.83
589.77	44554.44
589.93	45151.27
590.08	44966.37
590.24	44914.88
