SpectraSuite Data File
++++++++++++++++++++++++++++++++++++
Date: Fri Oct 25 11:26:17 EDT 2013
User: price-jones
Dark Spectrum Present: No
Reference Spectrum Present: No
Number of Sampled Component Spectra: 1
Spectrometers: USB2+H05261
Integration Time (usec): 100000 (USB2+H05261)
Spectra Averaged: 1 (USB2+H05261)
Boxcar Smoothing: 0 (USB2+H05261)
Correct for Electrical Dark: No (USB2+H05261)
Strobe/Lamp Enabled: No (USB2+H05261)
Correct for Detector Non-linearity: No (USB2+H05261)
Correct for Stray Light: No (USB2+H05261)
Number of Pixels in Processed Spectrum: 2048
>>>>>Begin Processed Spectral Data<<<<<
365.73	217.67
365.92	217.67
366.12	217.67
366.32	152.13
366.52	156.82
366.72	180.22
366.91	177.88
367.11	105.32
367.31	147.45
367.51	166.18
367.70	180.22
367.90	191.92
368.10	147.45
368.30	135.75
368.49	119.37
368.69	198.95
368.89	182.56
369.09	147.45
369.28	161.50
369.48	135.75
369.68	140.43
369.87	189.58
370.07	205.97
370.27	231.71
370.47	360.44
370.66	585.13
370.86	648.33
371.06	699.82
371.25	692.80
371.45	615.56
371.65	706.84
371.84	683.44
372.04	617.90
372.24	704.50
372.44	620.24
372.63	723.23
372.83	746.63
373.03	716.20
373.22	779.40
373.42	793.44
373.62	744.29
373.81	812.17
374.01	814.51
374.21	844.93
374.40	793.44
374.60	833.23
374.79	861.32
374.99	833.23
375.19	863.66
375.38	835.57
375.58	908.13
375.78	819.19
375.97	828.55
376.17	889.40
376.37	833.23
376.56	903.45
376.76	882.38
376.95	842.59
377.15	889.40
377.35	851.96
377.54	830.89
377.74	940.90
377.93	938.55
378.13	844.93
378.33	924.51
378.52	933.87
378.72	903.45
378.91	957.28
379.11	952.60
379.31	957.28
379.50	936.21
379.70	1004.09
379.89	950.26
380.09	912.81
380.28	968.98
380.48	959.62
380.68	1006.43
380.87	1078.99
381.07	1018.13
381.26	1004.09
381.46	1057.92
381.65	1071.97
381.85	1090.69
382.04	1006.43
382.24	1043.88
382.43	1064.94
382.63	1093.03
382.83	1036.86
383.02	1146.86
383.22	1109.41
383.41	1104.73
383.61	1050.90
383.80	1177.29
384.00	1064.94
384.19	1111.75
384.39	1172.61
384.58	1142.18
384.78	1086.01
384.97	1245.16
385.17	1193.67
385.36	1181.97
385.56	1219.42
385.75	1212.40
385.95	1181.97
386.14	1228.78
386.34	1252.19
386.53	1203.04
386.72	1303.68
386.92	1224.10
387.11	1268.57
387.31	1247.51
387.50	1200.69
387.70	1270.91
387.89	1228.78
388.09	1214.74
388.28	1313.04
388.48	1259.21
388.67	1404.32
388.86	1308.36
389.06	1315.38
389.25	1352.83
389.45	1301.34
389.64	1329.42
389.84	1448.79
390.03	1392.62
390.22	1427.73
390.42	1394.96
390.61	1390.28
390.81	1481.56
391.00	1423.05
391.19	1404.32
391.39	1483.90
391.58	1497.94
391.78	1432.41
391.97	1556.46
392.16	1476.88
392.36	1549.43
392.55	1582.20
392.75	1607.95
392.94	1544.75
393.13	1535.39
393.33	1551.78
393.52	1542.41
393.71	1661.78
393.91	1540.07
394.10	1568.16
394.29	1509.65
394.49	1640.72
394.68	1572.84
394.88	1624.33
395.07	1680.50
395.26	1657.10
395.46	1645.40
395.65	1741.36
395.84	1621.99
396.04	1888.81
396.23	1734.34
396.42	1760.08
396.62	1598.59
396.81	1757.74
397.00	1764.76
397.19	1741.36
397.39	1753.06
397.58	1839.66
397.77	1935.62
397.97	1778.81
398.16	1827.96
398.35	1856.04
398.55	1788.17
398.74	1930.94
398.93	1912.22
399.12	1970.73
399.32	1888.81
399.51	1982.43
399.70	2045.63
399.90	1886.47
400.09	1947.33
400.28	2019.88
400.47	2064.35
400.67	2076.06
400.86	2001.16
401.05	2022.22
401.24	2050.31
401.44	2150.95
401.63	2150.95
401.82	2211.81
402.01	1952.01
402.21	2090.10
402.40	2106.48
402.59	2244.57
402.78	2165.00
402.97	2225.85
403.17	2207.13
403.36	2218.83
403.55	2352.24
403.74	2263.30
403.93	2305.43
404.13	2321.81
404.32	2382.67
404.51	2394.37
404.70	2392.03
404.89	2328.83
405.09	2530.12
405.28	2368.62
405.47	2452.88
405.66	2513.74
405.85	2518.42
406.05	2424.80
406.24	2537.14
406.43	2572.25
406.62	2459.90
406.81	2497.35
407.00	2605.02
407.20	2565.23
407.39	2668.21
407.58	2736.09
407.77	2703.32
407.96	2733.75
408.15	2722.04
408.34	2686.94
408.54	2848.43
408.73	2738.43
408.92	2773.53
409.11	2810.98
409.30	2794.60
409.49	2839.07
409.68	2916.31
409.87	2780.56
410.07	2956.10
410.26	3009.93
410.45	3023.97
410.64	3059.08
410.83	3129.30
411.02	3145.68
411.21	3157.38
411.40	3087.17
411.59	3096.53
411.78	3112.91
411.98	3066.10
412.17	3295.47
412.36	3190.15
412.55	3370.37
412.74	3445.27
412.93	3475.70
413.12	3339.94
413.31	3550.59
413.50	3363.35
413.69	3485.06
413.88	3613.79
414.07	3489.74
414.26	3623.15
414.45	3559.95
414.64	3733.15
414.83	3742.52
415.02	3761.24
415.22	3871.25
415.41	3892.31
415.60	3962.53
415.79	3887.63
415.98	3936.78
416.17	3939.12
416.36	3782.31
416.55	4011.68
416.74	4107.64
416.93	4067.85
417.12	4042.11
417.31	4126.36
417.50	4243.39
417.69	4166.15
417.88	4299.56
418.07	4191.90
418.26	4301.90
418.45	4250.41
418.64	4416.59
418.83	4360.42
419.02	4337.01
419.21	4465.74
419.39	4442.34
419.58	4507.87
419.77	4400.21
419.96	4528.94
420.15	4486.81
420.34	4517.23
420.53	4603.83
420.72	4844.91
420.91	4657.67
421.10	4652.98
421.29	4697.46
421.48	4791.08
421.67	4737.24
421.86	4730.22
422.05	4781.71
422.24	4809.80
422.43	4842.57
422.61	4760.65
422.80	4692.77
422.99	4842.57
423.18	4793.42
423.37	4999.38
423.56	4945.55
423.75	4889.38
423.94	4770.01
424.13	4482.13
424.32	4896.40
424.50	4945.55
424.69	5036.83
424.88	5074.28
425.07	4891.72
425.26	4997.04
425.45	4983.00
425.64	4983.00
425.83	4882.36
426.01	4997.04
426.20	5114.07
426.39	4964.28
426.58	5027.47
426.77	5032.15
426.96	5097.69
427.15	5013.43
427.33	5191.31
427.52	5144.50
427.71	5252.16
427.90	5226.42
428.09	5357.49
428.28	5205.35
428.46	5247.48
428.65	5315.36
428.84	5446.43
429.03	5547.07
429.22	5465.15
429.40	5582.18
429.59	5483.88
429.78	5329.40
429.97	5200.67
430.16	5556.43
430.34	5495.58
430.53	5696.86
430.72	5631.33
430.91	5659.42
431.10	5507.28
431.28	5689.84
431.47	5806.87
431.66	5743.67
431.85	5598.56
432.03	5724.95
432.22	5872.40
432.41	5753.04
432.60	5891.13
432.79	5870.06
432.97	5919.21
433.16	6073.69
433.35	6059.65
433.54	6146.25
433.72	6141.57
433.91	5982.41
434.10	6174.33
434.28	6073.69
434.47	6265.61
434.66	6228.17
434.85	6296.04
435.03	6310.08
435.22	6272.64
435.41	6331.15
435.59	6326.47
435.78	6340.51
435.97	6377.96
436.16	6410.73
436.34	6424.77
436.53	6548.82
436.72	6635.42
436.90	6621.38
437.09	6593.29
437.28	6324.13
437.46	6724.36
437.65	6565.20
437.84	6675.21
438.02	6736.06
438.21	6682.23
438.40	6731.38
438.58	6986.50
438.77	6946.71
438.96	6817.98
439.14	7012.24
439.33	7187.79
439.52	7208.85
439.70	7239.28
439.89	7307.15
440.08	7290.77
440.26	7272.04
440.45	7375.03
440.63	7435.88
440.82	7510.78
441.01	7389.07
441.19	7634.83
441.38	7597.38
441.57	7810.37
441.75	7590.36
441.94	7840.79
442.12	7847.82
442.31	7936.76
442.50	7936.76
442.68	7995.27
442.87	7990.59
443.05	8035.06
443.24	8175.49
443.43	8245.71
443.61	8156.77
443.80	8472.74
443.98	7953.14
444.17	7791.64
444.35	8086.55
444.54	8388.48
444.73	8262.09
444.91	8327.63
445.10	8294.86
445.28	8297.20
445.47	8339.33
445.65	8248.05
445.84	8533.59
446.02	8318.26
446.21	8215.28
446.39	8332.31
446.58	8327.63
446.77	8571.04
446.95	8329.97
447.14	8444.65
447.32	8538.27
447.51	8528.91
447.69	8458.70
447.88	8468.06
448.06	8568.70
448.25	8444.65
448.43	8617.85
448.62	8320.60
448.80	8421.25
448.99	8566.36
449.17	8535.93
449.36	8568.70
449.54	8655.30
449.73	8931.48
449.91	8903.40
450.10	8924.46
450.28	9018.08
450.46	8994.68
450.65	9125.75
450.83	9193.62
451.02	9039.15
451.20	9226.39
451.39	8865.95
451.57	9076.60
451.76	9067.24
451.94	9132.77
452.13	9231.07
452.31	9193.62
452.49	9081.28
452.68	9301.29
452.86	9308.31
453.05	9324.69
453.23	9565.77
453.42	9312.99
453.60	9331.72
453.78	9432.36
453.97	9469.81
454.15	9488.53
454.34	9252.14
454.52	9696.84
454.70	9502.58
454.89	9652.37
455.07	9600.88
455.26	9879.40
455.44	9846.63
455.62	9874.72
455.81	9832.59
455.99	9958.98
456.17	9846.63
456.36	10127.50
456.54	10211.76
456.73	10296.02
456.91	10328.78
457.09	10312.40
457.28	10410.70
457.46	10258.57
457.64	10263.25
457.83	10438.79
458.01	10415.38
458.19	10588.58
458.38	10623.69
458.56	10633.05
458.74	10764.12
458.93	10569.86
459.11	10588.58
459.29	10740.72
459.48	10689.23
459.66	10703.27
459.84	10892.85
460.03	10991.16
460.21	11033.29
460.39	11000.52
460.57	10839.02
460.76	11070.73
460.94	11300.11
461.12	10991.16
461.31	11056.69
461.49	11166.70
461.67	11133.93
461.85	11620.76
462.04	11087.12
462.22	11712.04
462.40	11499.05
462.59	11475.65
462.77	11513.10
462.95	11686.29
463.13	11356.28
463.32	11311.81
463.50	11576.29
463.68	11740.13
463.86	11737.79
464.05	11412.45
464.23	11569.27
464.41	11831.41
464.59	11496.71
464.78	11819.71
464.96	11885.24
465.14	11815.02
465.32	12065.46
465.50	12255.04
465.69	12381.43
465.87	12002.27
466.05	11995.25
466.23	12189.51
466.41	12196.53
466.60	12173.13
466.78	12109.93
466.96	12011.63
467.14	12133.34
467.32	12262.07
467.51	12545.27
467.69	12088.87
467.87	12219.94
468.05	12608.47
468.23	12336.96
468.41	12334.62
468.60	12561.66
468.78	12531.23
468.96	12599.10
469.14	12856.56
469.32	12917.42
469.50	12568.68
469.69	12669.32
469.87	12875.29
470.05	12943.16
470.23	13029.76
470.41	13018.06
470.59	13102.32
470.77	13116.36
470.95	13078.91
471.14	13488.51
471.32	12968.91
471.50	13769.37
471.68	13406.59
471.86	13575.11
472.04	13633.62
472.22	14024.49
472.40	13689.79
472.58	13708.52
472.77	14043.21
472.95	13968.32
473.13	14436.42
473.31	13956.61
473.49	13996.40
473.67	14008.11
473.85	14075.98
474.03	14513.66
474.21	14539.41
474.39	14532.39
474.57	14602.60
474.75	14705.59
474.93	15030.92
475.12	14843.68
475.30	15019.22
475.48	14846.02
475.66	15117.52
475.84	15094.11
476.02	15211.14
476.20	15290.72
476.38	15742.44
476.56	15859.47
476.74	15730.74
476.92	15672.23
477.10	15541.16
477.28	15772.87
477.46	15974.16
477.64	16533.54
477.82	16713.77
478.00	16664.61
478.18	16292.47
478.36	16627.17
478.54	16816.75
478.72	16772.28
478.90	16926.75
479.08	17308.26
479.26	17427.63
479.44	17617.21
479.62	17930.84
479.80	17909.78
479.98	18115.75
480.16	18302.99
480.34	18263.20
480.52	18267.88
480.70	18415.34
480.88	17984.68
481.06	18553.43
481.24	18661.09
481.41	19014.51
481.59	19058.98
481.77	19393.68
481.95	19384.32
482.13	19508.37
482.31	19634.75
482.49	20027.96
482.67	19920.30
482.85	20046.69
483.03	20547.56
483.21	20512.46
483.39	20638.84
483.57	20709.06
483.74	20980.56
483.92	21411.22
484.10	21074.18
484.28	21434.63
484.46	21778.68
484.64	22031.46
484.82	22059.55
485.00	21935.50
485.18	22754.69
485.35	22630.64
485.53	22530.00
485.71	22686.81
485.89	23559.83
486.07	23372.59
486.25	23356.21
486.43	23285.99
486.61	23770.48
486.78	23803.25
486.96	24191.78
487.14	24547.54
487.32	24556.90
487.50	24383.70
487.68	24833.08
487.85	25099.90
488.03	25759.94
488.21	25422.90
488.39	25511.84
488.57	25806.75
488.75	26225.70
488.92	26045.48
489.10	26448.05
489.28	26396.56
489.46	27063.61
489.64	26991.06
489.81	27061.27
489.99	27150.21
490.17	27548.11
490.35	27964.72
490.53	27660.45
490.70	28128.56
490.88	28065.36
491.06	28283.03
491.24	28877.53
491.41	28870.51
491.59	29064.77
491.77	29024.98
491.95	29713.10
492.13	29888.64
492.30	29949.50
492.48	30022.05
492.66	30279.51
492.84	30066.52
493.01	30382.49
493.19	30445.69
493.37	30539.31
493.54	31122.10
493.72	31442.76
493.90	31342.11
494.08	31182.96
494.25	31585.53
494.43	32222.16
494.61	32025.55
494.79	32437.48
494.96	32336.84
495.14	32470.25
495.32	33027.30
495.49	32858.78
495.67	32945.38
495.85	33401.79
496.02	33303.48
496.20	33890.96
496.38	33586.69
496.55	33610.09
496.73	34670.36
496.91	34206.93
497.09	34670.36
497.26	34698.44
497.44	35260.17
497.62	34918.45
497.79	36100.42
497.97	35234.42
498.14	35697.85
498.32	35658.06
498.50	36058.29
498.67	35952.97
498.85	36105.10
499.03	36243.20
499.20	36217.45
499.38	36830.67
499.56	36921.95
499.73	36858.76
499.91	37291.76
500.08	37404.10
500.26	36833.01
500.44	37748.16
500.61	37813.70
500.79	37352.61
500.97	38260.74
501.14	38429.26
501.32	37944.76
501.49	38246.69
501.67	38223.29
501.84	38902.04
502.02	38965.24
502.20	38813.10
502.37	38951.20
502.55	39028.43
502.72	39243.76
502.90	39091.63
503.07	38883.32
503.25	39636.97
503.43	39438.03
503.60	39840.60
503.78	39964.65
503.95	39920.18
504.13	40224.45
504.30	40137.85
504.48	40245.51
504.65	40208.06
504.83	40832.99
505.01	41240.24
505.18	40673.83
505.36	41378.33
505.53	40748.73
505.71	41399.40
505.88	41205.13
506.06	41137.26
506.23	41956.44
506.41	41808.99
506.58	41375.99
506.76	41663.88
506.93	42176.45
507.11	41888.57
507.28	42270.08
507.46	42464.34
507.63	42876.27
507.81	43047.13
507.98	42735.84
508.16	43056.50
508.33	43346.72
508.50	43391.19
508.68	43206.29
508.85	43779.72
509.03	43157.14
509.20	43615.88
509.38	44229.10
509.55	44149.53
509.73	44119.10
509.90	44348.47
510.08	44797.85
510.25	44126.12
510.42	44254.85
510.60	44701.89
510.77	45041.27
510.95	45251.92
511.12	44830.62
511.30	44919.56
511.47	45249.58
511.64	44931.26
511.82	45212.13
511.99	45607.68
512.17	45715.34
512.34	45579.59
512.51	46321.54
512.69	46375.37
512.86	45954.08
513.04	46326.22
513.21	46504.10
513.38	46293.46
513.56	46763.90
513.73	46651.56
513.90	46784.97
514.08	46604.75
514.25	47075.19
514.43	46749.86
514.60	47271.80
514.77	47103.28
514.95	47332.65
515.12	47110.30
515.29	47007.32
515.47	47545.64
515.64	48009.07
515.81	47459.04
515.99	48002.05
516.16	47885.02
516.33	47585.43
516.51	48299.30
516.68	48215.04
516.85	48348.45
517.03	48425.68
517.20	48704.21
517.37	48418.66
517.54	48329.72
517.72	48638.67
517.89	48645.69
518.06	48830.60
518.24	49017.84
518.41	49031.88
518.58	49139.55
518.75	49099.76
518.93	49345.51
519.10	49326.79
519.27	49752.77
519.45	49406.37
519.62	49881.50
519.79	49839.37
519.96	49780.85
520.14	50145.98
520.31	49626.38
520.48	49766.81
520.65	50117.89
520.83	50368.33
521.00	50588.34
521.17	50656.21
521.34	50637.49
521.52	50354.29
521.69	50740.47
521.86	50777.92
522.03	50857.50
522.20	50885.59
522.38	51505.83
522.55	51173.47
522.72	51164.11
522.89	50864.52
523.07	51480.08
523.24	51285.82
523.41	51480.08
523.58	51241.35
523.75	51845.21
523.92	51543.28
524.10	51789.03
524.27	51948.19
524.44	51737.54
524.61	51927.13
524.78	51957.55
524.96	51915.42
525.13	52048.83
525.30	52025.43
525.47	52486.51
525.64	52175.22
525.81	52327.36
525.98	52397.57
526.16	52622.26
526.33	52317.99
526.50	52636.31
526.67	52687.80
526.84	52729.93
527.01	52556.73
527.18	53015.47
527.36	52783.76
527.53	52788.44
527.70	53223.78
527.87	53073.99
528.04	52722.91
528.21	53116.12
528.38	53207.40
528.55	53322.08
528.72	53333.79
528.89	53509.33
529.07	53235.48
529.24	53172.29
529.41	53315.06
529.58	53488.26
529.75	53506.99
529.92	53696.57
530.09	53413.37
530.26	54094.46
530.43	53605.29
530.60	53455.50
530.77	53542.10
530.94	54026.59
531.11	53902.54
531.28	53825.30
531.46	54124.89
531.63	54122.55
531.80	54047.65
531.97	54145.95
532.14	54422.14
532.31	54138.93
532.48	54204.47
532.65	54134.25
532.82	54340.22
532.99	54377.67
533.16	54443.20
533.33	54623.42
533.50	54742.79
533.67	54681.94
533.84	54436.18
534.01	54660.87
534.18	54621.08
534.35	54794.28
534.52	54951.10
534.69	55121.96
534.86	54976.84
535.03	54752.15
535.20	55231.96
535.37	55234.30
535.54	55210.90
535.71	55231.96
535.88	55103.23
536.05	55246.00
536.22	55309.20
536.38	55133.66
536.55	55320.90
536.72	55487.08
536.89	55388.78
537.06	55278.77
537.23	55526.87
537.40	55334.95
537.57	55636.87
537.74	55501.12
537.91	55669.64
538.08	55725.81
538.25	55587.72
538.42	55650.92
538.59	55838.16
538.75	55859.23
538.92	55943.48
539.09	55777.31
539.26	55730.50
539.43	55903.70
539.60	55906.04
539.77	56034.77
539.94	56406.91
540.11	56294.56
540.28	56032.42
540.44	56076.90
540.61	56278.18
540.78	56210.31
540.95	56437.34
541.12	56285.20
541.29	56200.94
541.46	56299.25
541.62	56523.94
541.79	56746.29
541.96	56107.32
542.13	56575.43
542.30	56439.68
542.47	56725.22
542.63	56760.33
542.80	56699.48
542.97	57090.35
543.14	56849.27
543.31	57015.45
543.48	56849.27
543.64	57237.80
543.81	57158.22
543.98	57034.17
544.15	57371.21
544.32	57160.56
544.48	57460.15
544.65	57207.37
544.82	57364.19
544.99	57057.58
545.16	57396.96
545.32	57293.97
545.49	57439.09
545.66	57696.55
545.83	57375.89
546.00	57457.81
546.16	57497.60
546.33	57439.09
546.50	57183.97
546.67	57602.92
546.83	57427.38
547.00	57532.71
547.17	57373.55
547.34	57635.69
547.50	57645.05
547.67	57893.15
547.84	57764.42
548.00	57598.24
548.17	57757.40
548.34	57836.98
548.51	57911.88
548.67	57925.92
548.84	57876.77
549.01	57862.72
549.18	57986.77
549.34	57937.62
549.51	58234.87
549.68	58101.46
549.84	58166.99
550.01	58206.78
550.18	58192.74
550.34	58265.30
550.51	58286.36
550.68	58405.73
550.84	58101.46
551.01	58459.56
551.18	58232.53
551.34	58485.31
551.51	58396.37
551.68	58356.58
551.84	58471.26
552.01	58227.85
552.18	58438.50
552.34	58213.80
552.51	58492.33
552.68	58387.00
552.84	58604.67
553.01	58705.32
553.18	58693.61
553.34	58976.82
553.51	58644.46
553.67	58646.80
553.84	58843.41
554.01	58852.77
554.17	58808.30
554.34	58962.78
554.51	58700.64
554.67	58719.36
554.84	58803.62
555.00	58838.73
555.17	58836.39
555.33	58941.71
555.50	58656.17
555.67	58817.66
555.83	58501.69
556.00	58953.41
556.16	59332.58
556.33	59054.06
556.50	59107.89
556.66	59175.76
556.83	58829.37
556.99	59124.27
557.16	59550.25
557.32	59426.20
557.49	59217.89
557.65	59140.66
557.82	59276.41
557.98	59243.64
558.15	59334.92
558.32	59264.70
558.48	59245.98
558.65	59131.29
558.81	59482.37
558.98	59454.29
559.14	59381.73
559.31	59402.80
559.47	59639.19
559.64	59465.99
559.80	59531.53
559.97	59531.53
560.13	59517.48
560.30	59538.55
560.46	59430.88
560.63	59709.41
560.79	59634.51
560.96	59695.36
561.12	59384.07
561.29	59667.28
561.45	59571.32
561.61	59543.23
561.78	59819.41
561.94	59625.15
562.11	59498.76
562.27	59552.59
562.44	59957.50
562.60	59934.10
562.77	59788.98
562.93	59568.97
563.10	59894.31
563.26	59690.68
563.42	60051.12
563.59	60142.41
563.75	59938.78
563.92	59875.58
564.08	59840.48
564.24	60107.30
564.41	60048.78
564.57	59934.10
564.74	60009.00
564.90	59908.35
565.07	59788.98
565.23	59838.14
565.39	59721.11
565.56	59999.63
565.72	60156.45
565.88	60207.94
566.05	60016.02
566.21	60111.98
566.38	59903.67
566.54	60123.68
566.70	60203.26
566.87	60261.77
567.03	60018.36
567.19	60226.66
567.36	60135.38
567.52	60100.28
567.68	60362.42
567.85	59994.95
568.01	60170.49
568.17	60041.76
568.34	60217.30
568.50	60121.34
568.66	60149.43
568.83	60229.01
568.99	60095.60
569.15	60114.32
569.32	60217.30
569.48	60175.17
569.64	60343.69
569.81	60231.35
569.97	60238.37
570.13	60402.21
570.30	60067.51
570.46	60273.48
570.62	60425.61
570.78	60364.76
570.95	60294.54
571.11	60308.58
571.27	60229.01
571.43	60303.90
571.60	60636.26
571.76	60315.61
571.92	60470.08
572.09	60404.55
572.25	60547.32
572.41	60439.65
572.57	60481.78
572.74	60521.57
572.90	60535.62
573.06	60420.93
573.22	60460.72
573.38	60554.34
573.55	60203.26
573.71	60713.50
573.87	60465.40
574.03	60657.32
574.20	60701.79
574.36	60533.28
574.52	60502.85
574.68	60554.34
574.84	60521.57
575.01	60463.06
575.17	60544.98
575.33	60406.89
575.49	60402.21
575.65	60589.45
575.82	60540.30
575.98	60767.33
576.14	60900.74
576.30	60474.76
576.46	60612.85
576.62	60526.25
576.79	60683.07
576.95	60346.03
577.11	60542.64
577.27	60505.19
577.43	60816.48
577.59	60626.90
577.75	60645.62
577.92	60610.51
578.08	60636.26
578.24	60556.68
578.40	60832.86
578.56	60678.39
578.72	60673.71
578.88	60722.86
579.04	60846.91
579.21	60725.20
579.37	60823.50
579.53	60924.14
579.69	60364.76
579.85	60669.03
580.01	60542.64
580.17	60526.25
580.33	60685.41
580.49	60711.16
580.65	60676.05
580.82	60788.39
580.98	60575.40
581.14	60830.52
581.30	60793.07
581.46	60652.64
581.62	60659.66
581.78	60774.35
581.94	60647.96
582.10	60636.26
582.26	60762.65
582.42	60568.38
582.58	60825.84
582.74	60774.35
582.90	60725.20
583.06	60786.05
583.22	60552.00
583.38	60774.35
583.54	60811.80
583.70	60633.92
583.86	60781.37
584.02	60837.54
584.18	61015.43
584.34	60697.11
584.50	60760.31
584.66	60809.46
584.82	60692.43
584.98	60816.48
585.14	61015.43
585.30	60669.03
585.46	60830.52
585.62	60734.56
585.78	60914.78
585.94	60823.50
586.10	60757.97
586.26	60947.55
586.42	60898.40
586.58	61172.24
586.74	61095.00
586.90	60795.42
587.06	60769.67
587.22	61015.43
587.38	60718.18
587.54	60959.25
587.70	60896.06
587.86	60816.48
588.02	60865.63
588.18	60968.61
588.34	60870.31
588.49	60889.04
