SpectraSuite Data File
++++++++++++++++++++++++++++++++++++
Date: Fri Oct 25 11:22:51 EDT 2013
User: price-jones
Dark Spectrum Present: No
Reference Spectrum Present: No
Number of Sampled Component Spectra: 1
Spectrometers: USB2+H05261
Integration Time (usec): 100000 (USB2+H05261)
Spectra Averaged: 1 (USB2+H05261)
Boxcar Smoothing: 0 (USB2+H05261)
Correct for Electrical Dark: No (USB2+H05261)
Strobe/Lamp Enabled: No (USB2+H05261)
Correct for Detector Non-linearity: No (USB2+H05261)
Correct for Stray Light: No (USB2+H05261)
Number of Pixels in Processed Spectrum: 2048
>>>>>Begin Processed Spectral Data<<<<<
365.73	273.84
365.92	273.84
366.12	273.84
366.32	138.09
366.52	163.84
366.72	196.60
366.91	161.50
367.11	105.32
367.31	114.69
367.51	93.62
367.70	79.58
367.90	142.77
368.10	70.22
368.30	107.66
368.49	124.05
368.69	173.20
368.89	156.82
369.09	128.73
369.28	191.92
369.48	187.24
369.68	205.97
369.87	205.97
370.07	175.54
370.27	306.61
370.47	299.59
370.66	538.32
370.86	664.71
371.06	664.71
371.25	643.65
371.45	674.07
371.65	716.20
371.84	622.58
372.04	671.73
372.24	779.40
372.44	727.91
372.63	683.44
372.83	753.65
373.03	737.27
373.22	690.46
373.42	667.05
373.62	716.20
373.81	772.38
374.01	856.64
374.21	809.83
374.40	781.74
374.60	809.83
374.79	802.80
374.99	849.61
375.19	837.91
375.38	805.14
375.58	851.96
375.78	861.32
375.97	854.30
376.17	924.51
376.37	973.66
376.56	880.04
376.76	919.83
376.95	889.40
377.15	889.40
377.35	976.00
377.54	910.47
377.74	915.15
377.93	924.51
378.13	851.96
378.33	908.13
378.52	929.19
378.72	968.98
378.91	926.85
379.11	945.58
379.31	931.53
379.50	924.51
379.70	954.94
379.89	1067.28
380.09	950.26
380.28	1046.22
380.48	1062.60
380.68	919.83
380.87	938.55
381.07	987.71
381.26	992.39
381.46	987.71
381.65	1022.81
381.85	1123.46
382.04	1086.01
382.24	1053.24
382.43	1055.58
382.63	983.02
382.83	1097.71
383.02	1081.33
383.22	1121.12
383.41	1139.84
383.61	1186.65
383.80	1188.99
384.00	1086.01
384.19	1233.46
384.39	1121.12
384.58	1123.46
384.78	1210.06
384.97	1137.50
385.17	1123.46
385.36	1193.67
385.56	1151.54
385.75	1170.27
385.95	1125.80
386.14	1186.65
386.34	1196.01
386.53	1273.25
386.72	1235.80
386.92	1277.93
387.11	1238.14
387.31	1256.87
387.50	1268.57
387.70	1228.78
387.89	1322.40
388.09	1259.21
388.28	1291.98
388.48	1348.15
388.67	1301.34
388.86	1266.23
389.06	1277.93
389.25	1371.55
389.45	1355.17
389.64	1259.21
389.84	1287.29
390.03	1423.05
390.22	1350.49
390.42	1301.34
390.61	1336.45
390.81	1364.53
391.00	1451.13
391.19	1476.88
391.39	1350.49
391.58	1404.32
391.78	1469.86
391.97	1446.45
392.16	1390.28
392.36	1638.38
392.55	1483.90
392.75	1563.48
392.94	1493.26
393.13	1593.90
393.33	1420.71
393.52	1582.20
393.71	1584.54
393.91	1544.75
394.10	1549.43
394.29	1526.03
394.49	1462.83
394.68	1692.21
394.88	1638.38
395.07	1586.88
395.26	1647.74
395.46	1617.31
395.65	1734.34
395.84	1753.06
396.04	1797.53
396.23	1844.34
396.42	1739.02
396.62	1706.25
396.81	1687.53
397.00	1703.91
397.19	1825.62
397.39	1717.95
397.58	1832.64
397.77	1774.13
397.97	1788.17
398.16	1757.74
398.35	1860.73
398.55	1825.62
398.74	1823.28
398.93	1944.99
399.12	1914.56
399.32	1959.03
399.51	1907.54
399.70	1989.46
399.90	2012.86
400.09	2045.63
400.28	1994.14
400.47	2040.95
400.67	2101.80
400.86	2090.10
401.05	2097.12
401.24	2045.63
401.44	2064.35
401.63	2111.16
401.82	2207.13
402.01	2157.97
402.21	2202.44
402.40	2143.93
402.59	2202.44
402.78	2237.55
402.97	2193.08
403.17	2232.87
403.36	2225.85
403.55	2263.30
403.74	2349.90
403.93	2375.64
404.13	2251.60
404.32	2354.58
404.51	2436.50
404.70	2429.48
404.89	2382.67
405.09	2429.48
405.28	2443.52
405.47	2541.82
405.66	2504.37
405.85	2457.56
406.05	2523.10
406.24	2628.42
406.43	2537.14
406.62	2520.76
406.81	2724.38
407.00	2616.72
407.20	2485.65
407.39	2616.72
407.58	2726.72
407.77	2712.68
407.96	2693.96
408.15	2810.98
408.34	2754.81
408.54	2857.79
408.73	2771.19
408.92	2745.45
409.11	2928.01
409.30	2949.08
409.49	2981.84
409.68	2888.22
409.87	2864.82
410.07	2911.63
410.26	3009.93
410.45	2984.18
410.64	3077.80
410.83	3000.57
411.02	3101.21
411.21	3117.59
411.40	3173.77
411.59	3267.39
411.78	3173.77
411.98	3304.84
412.17	3295.47
412.36	3365.69
412.55	3398.46
412.74	3414.84
412.93	3517.83
413.12	3318.88
413.31	3602.08
413.50	3384.41
413.69	3548.25
413.88	3686.34
414.07	3662.94
414.26	3569.32
414.45	3578.68
414.64	3613.79
414.83	3875.93
415.02	3740.18
415.22	3894.65
415.41	3948.48
415.60	3894.65
415.79	3971.89
415.98	3915.72
416.17	4119.34
416.36	4079.55
416.55	3967.21
416.74	4117.00
416.93	4070.19
417.12	4182.54
417.31	4201.26
417.50	4175.52
417.69	4383.82
417.88	4400.21
418.07	4315.95
418.26	4517.23
418.45	4351.06
418.64	4372.12
418.83	4402.55
419.02	4444.68
419.21	4566.39
419.39	4535.96
419.58	4430.63
419.77	4521.92
419.96	4615.54
420.15	4571.07
420.34	4484.47
420.53	4533.62
420.72	4751.29
420.91	4828.53
421.10	4807.46
421.29	4781.71
421.48	4650.64
421.67	4791.08
421.86	4908.10
422.05	4954.91
422.24	4821.50
422.43	4933.85
422.61	4994.70
422.80	5004.07
422.99	4926.83
423.18	4959.60
423.37	4985.34
423.56	4884.70
423.75	4992.36
423.94	4887.04
424.13	4678.73
424.32	4716.18
424.50	5057.90
424.69	5121.09
424.88	5006.41
425.07	4905.76
425.26	4896.40
425.45	5004.07
425.64	4880.02
425.83	4917.47
426.01	5125.77
426.20	5135.14
426.39	5088.32
426.58	4997.04
426.77	5090.67
426.96	5102.37
427.15	5245.14
427.33	5294.29
427.52	5249.82
427.71	5238.12
427.90	5348.12
428.09	5238.12
428.28	5404.30
428.46	5387.91
428.65	5378.55
428.84	5434.72
429.03	5586.86
429.22	5371.53
429.40	5617.29
429.59	5495.58
429.78	5371.53
429.97	5308.34
430.16	5612.60
430.34	5533.03
430.53	5792.83
430.72	5638.35
430.91	5727.29
431.10	5612.60
431.28	5790.49
431.47	5720.27
431.66	5863.04
431.85	5764.74
432.03	5884.11
432.22	5994.11
432.41	6083.05
432.60	5792.83
432.79	5849.00
432.97	6052.63
433.16	6125.18
433.35	6073.69
433.54	6012.84
433.72	6106.46
433.91	6038.58
434.10	6104.12
434.28	6235.19
434.47	6258.59
434.66	6274.98
434.85	6314.77
435.03	6209.44
435.22	6502.01
435.41	6387.32
435.59	6312.42
435.78	6532.44
435.97	6539.46
436.16	6534.78
436.34	6436.47
436.53	6457.54
436.72	6813.30
436.90	6602.65
437.09	6588.61
437.28	6483.28
437.46	6609.67
437.65	6492.65
437.84	6700.95
438.02	6740.74
438.21	6909.26
438.40	6684.57
438.58	6986.50
438.77	7075.44
438.96	6857.77
439.14	7019.27
439.33	7258.00
439.52	7166.72
439.70	7140.97
439.89	7318.86
440.08	7297.79
440.26	7321.20
440.45	7253.32
440.63	7761.22
440.82	7541.21
441.01	7618.44
441.19	7634.83
441.38	7779.94
441.57	7676.96
441.75	7922.71
441.94	8032.72
442.12	7815.05
442.31	7927.39
442.50	8161.45
442.68	7992.93
442.87	8152.09
443.05	8074.85
443.24	8180.17
443.43	8255.07
443.61	8138.04
443.80	8514.87
443.98	8011.65
444.17	7871.22
444.35	8189.53
444.54	8444.65
444.73	8446.99
444.91	8315.92
445.10	8362.73
445.28	8360.39
445.47	8168.47
445.65	8376.78
445.84	8428.27
446.02	8552.32
446.21	8360.39
446.39	8407.20
446.58	8355.71
446.77	8557.00
446.95	8269.11
447.14	8571.04
447.32	8425.93
447.51	8421.25
447.69	8559.34
447.88	8468.06
448.06	8428.27
448.25	8491.46
448.43	8669.34
448.62	8645.94
448.80	8683.39
448.99	8751.26
449.17	9013.40
449.36	8723.18
449.54	9020.42
449.73	9067.24
449.91	9107.02
450.10	8896.38
450.28	9102.34
450.46	9114.05
450.65	9170.22
450.83	9085.96
451.02	9053.19
451.20	9317.67
451.39	9170.22
451.57	9284.91
451.76	9242.78
451.94	9308.31
452.13	9352.78
452.31	9291.93
452.49	9247.46
452.68	9439.38
452.86	9371.50
453.05	9533.00
453.23	9797.48
453.42	9355.12
453.60	9486.19
453.78	9624.28
453.97	9488.53
454.15	9586.83
454.34	9423.00
454.52	9827.91
454.70	9947.28
454.89	9872.38
455.07	9923.87
455.26	9727.27
455.44	10008.13
455.62	9937.91
455.81	10111.11
455.99	10005.79
456.17	10101.75
456.36	10059.62
456.54	10162.61
456.73	10272.61
456.91	10604.97
457.09	10394.32
457.28	10567.52
457.46	10377.94
457.64	10448.15
457.83	10588.58
458.01	10562.84
458.19	11040.31
458.38	10689.23
458.56	10796.89
458.74	10707.95
458.93	10649.44
459.11	10679.86
459.29	10918.60
459.48	10920.94
459.66	10953.71
459.84	10801.57
460.03	11234.57
460.21	10806.25
460.39	10934.98
460.57	11105.84
460.76	11201.80
460.94	11295.43
461.12	11255.64
461.31	11201.80
461.49	11508.41
461.67	11260.32
461.85	11683.95
462.04	11580.97
462.22	11777.58
462.40	11576.29
462.59	11702.68
462.77	11286.06
462.95	11508.41
463.13	11639.48
463.32	11770.55
463.50	11836.09
463.68	11918.01
463.86	11728.42
464.05	11810.34
464.23	11606.72
464.41	11950.78
464.59	11662.89
464.78	12030.35
464.96	12198.87
465.14	12032.69
465.32	12020.99
465.50	12238.66
465.69	12147.38
465.87	12540.59
466.05	12166.10
466.23	12203.55
466.41	12353.35
466.60	12620.17
466.78	12243.34
466.96	12311.22
467.14	12353.35
467.32	12423.56
467.51	12549.95
467.69	12217.60
467.87	12453.99
468.05	12688.04
468.23	12336.96
468.41	12402.50
468.60	12578.04
468.78	12868.27
468.96	12922.10
469.14	12800.39
469.32	13111.68
469.50	12552.29
469.69	12985.29
469.87	13231.05
470.05	13090.62
470.23	13312.97
470.41	13254.45
470.59	13572.77
470.77	13530.64
470.95	13404.25
471.14	13610.22
471.32	13174.88
471.50	13841.93
471.68	13530.64
471.86	13678.09
472.04	13736.60
472.22	14211.73
472.40	13776.39
472.58	13956.61
472.77	14265.57
472.95	14223.44
473.13	14459.83
473.31	14064.28
473.49	14111.09
473.67	14314.72
473.85	14345.14
474.03	14899.85
474.21	14649.41
474.39	14836.66
474.57	14930.28
474.75	15002.83
474.93	15096.46
475.12	15096.46
475.30	15105.82
475.48	15112.84
475.66	15417.11
475.84	15190.08
476.02	15389.02
476.20	15438.17
476.38	15920.32
476.56	16264.38
476.74	15957.77
476.92	15765.85
477.10	15779.89
477.28	16334.60
477.46	16222.25
477.64	16570.99
477.82	16851.86
478.00	17048.46
478.18	16961.86
478.36	17039.10
478.54	17193.58
478.72	17153.79
478.90	17273.15
479.08	18155.54
479.26	17820.84
479.44	18054.89
479.62	18066.60
479.80	18211.71
479.98	18134.47
480.16	18717.26
480.34	18274.90
480.52	18766.42
480.70	18771.10
480.88	18684.50
481.06	18771.10
481.24	18948.98
481.41	19381.98
481.59	19517.73
481.77	19772.85
481.95	19494.32
482.13	19726.04
482.31	19688.59
482.49	20430.54
482.67	20411.81
482.85	20409.47
483.03	20624.80
483.21	20702.04
483.39	21135.04
483.57	21149.08
483.74	21350.37
483.92	21563.36
484.10	21200.57
484.28	21759.96
484.46	22099.34
484.64	22441.06
484.82	22029.12
485.00	22115.72
485.18	22785.12
485.35	22906.82
485.53	23161.94
485.71	23220.45
485.89	23646.43
486.07	23508.34
486.25	23845.38
486.43	23772.82
486.61	24067.73
486.78	24039.64
486.96	24376.68
487.14	24685.63
487.32	24517.11
487.50	25315.23
487.68	25188.85
487.85	25621.84
488.03	25549.29
488.21	26380.18
488.39	26183.57
488.57	26066.55
488.75	26469.12
488.92	26712.53
489.10	26890.41
489.28	26902.12
489.46	27304.69
489.64	27335.12
489.81	27861.74
489.99	27725.99
490.17	27885.14
490.35	28425.81
490.53	28481.98
490.70	28526.45
490.88	28245.58
491.06	29228.61
491.24	29455.64
491.41	29673.31
491.59	29575.01
491.77	29762.25
491.95	29738.85
492.13	30101.63
492.30	30040.78
492.48	30323.98
492.66	30520.59
492.84	30293.55
493.01	30862.30
493.19	30789.75
493.37	31140.83
493.54	31569.15
493.72	31878.10
493.90	31662.77
494.08	31763.41
494.25	32006.83
494.43	32210.45
494.61	32503.02
494.79	32716.01
494.96	32601.32
495.14	32823.67
495.32	33422.85
495.49	33268.37
495.67	33825.42
495.85	33251.99
496.02	33902.66
496.20	34267.78
496.38	33839.47
496.55	34335.66
496.73	35093.99
496.91	34862.28
497.09	34934.84
497.26	35239.11
497.44	35246.13
497.62	35559.76
497.79	36423.42
497.97	35269.53
498.14	36325.11
498.32	36378.95
498.50	36601.30
498.67	36715.98
498.85	36638.75
499.03	36985.15
499.20	36734.71
499.38	36896.20
499.56	37308.14
499.73	37556.24
499.91	38052.43
500.08	37837.10
500.26	37605.39
500.44	37923.70
500.61	38323.93
500.79	38209.25
500.97	38541.60
501.14	38923.11
501.32	39131.42
501.49	38979.28
501.67	39093.97
501.84	39220.36
502.02	38721.82
502.20	39358.45
502.37	39550.37
502.55	39384.19
502.72	39625.27
502.90	39384.19
503.07	39817.19
503.25	40414.03
503.43	39370.15
503.60	40355.52
503.78	40493.61
503.95	40479.57
504.13	40896.18
504.30	40790.86
504.48	40676.17
504.65	41214.49
504.83	41289.39
505.01	41502.38
505.18	41172.36
505.36	41888.57
505.53	40987.46
505.71	41799.63
505.88	42153.05
506.06	41727.07
506.23	42410.51
506.41	41729.41
506.58	42237.31
506.76	42773.29
506.93	42485.40
507.11	42665.63
507.28	42902.02
507.46	43180.54
507.63	42878.61
507.81	43971.64
507.98	43107.99
508.16	43840.57
508.33	43468.43
508.50	43599.50
508.68	43627.59
508.85	44116.76
509.03	44182.29
509.20	44334.43
509.38	44753.38
509.55	44919.56
509.73	44526.35
509.90	44839.98
510.08	44629.34
510.25	45003.82
510.42	45045.95
510.60	45272.98
510.77	45317.45
510.95	45720.02
511.12	45315.11
511.30	45392.35
511.47	45565.55
511.64	45790.24
511.82	46480.70
511.99	46047.70
512.17	46337.93
512.34	46167.07
512.51	46396.44
512.69	46747.52
512.86	46293.46
513.04	46742.84
513.21	46873.91
513.38	46904.34
513.56	47445.00
513.73	46976.89
513.90	47295.21
514.08	47047.11
514.25	47756.29
514.43	47894.38
514.60	47700.12
514.77	47924.81
514.95	47810.12
515.12	47643.94
515.29	48016.09
515.47	48294.61
515.64	48123.75
515.81	48210.35
515.99	48182.27
516.16	48973.37
516.33	48561.44
516.51	48624.63
516.68	48619.95
516.85	49111.46
517.03	49155.93
517.20	49329.13
517.37	49104.44
517.54	49003.80
517.72	49289.34
517.89	49031.88
518.06	49237.85
518.24	49619.36
518.41	49301.04
518.58	49691.91
518.75	49467.22
518.93	49818.30
519.10	49406.37
519.27	50365.99
519.45	49954.05
519.62	50160.02
519.79	50057.04
519.96	50265.34
520.14	50302.79
520.31	50061.72
520.48	50616.43
520.65	50672.60
520.83	50986.23
521.00	50588.34
521.17	50749.84
521.34	50990.91
521.52	51089.21
521.69	51117.30
521.86	51037.72
522.03	51201.56
522.20	51302.20
522.38	51845.21
522.55	51716.48
522.72	51758.61
522.89	51552.64
523.07	51821.80
523.24	51547.96
523.41	51915.42
523.58	51943.51
523.75	52083.94
523.92	51924.78
524.10	52137.77
524.27	52437.36
524.44	52074.58
524.61	52046.49
524.78	52474.81
524.96	52376.51
525.13	52439.70
525.30	52699.50
525.47	52659.71
525.64	52273.52
525.81	52851.64
525.98	53106.76
526.16	52673.76
526.33	52697.16
526.50	53406.34
526.67	53160.59
526.84	53242.51
527.01	53064.63
527.18	53350.17
527.36	53148.88
527.53	52975.69
527.70	53757.42
527.87	53263.57
528.04	53109.10
528.21	53734.02
528.38	53506.99
528.55	53769.13
528.72	53270.59
528.89	53715.29
529.07	53785.51
529.24	53605.29
529.41	53666.14
529.58	53815.94
529.75	54092.12
529.92	53984.46
530.09	53923.60
530.26	54230.21
530.43	54127.23
530.60	53989.14
530.77	54197.44
530.94	54513.42
531.11	54040.63
531.28	54323.83
531.46	54199.79
531.63	54600.02
531.80	54241.92
531.97	54761.51
532.14	54487.67
532.31	54674.91
532.48	54803.64
532.65	54719.38
532.82	54553.21
532.99	55037.70
533.16	54878.54
533.33	54951.10
533.50	55145.36
533.67	55217.92
533.84	54981.52
534.01	55103.23
534.18	55213.24
534.35	55505.80
534.52	55402.82
534.69	55435.59
534.86	55613.47
535.03	55327.92
535.20	55147.70
535.37	55648.58
535.54	55494.10
535.71	55138.34
535.88	55697.73
536.05	55669.64
536.22	55847.52
536.38	55880.29
536.55	55908.38
536.72	55833.48
536.89	55877.95
537.06	55728.16
537.23	55934.12
537.40	55812.41
537.57	55971.57
537.74	56079.24
537.91	56369.46
538.08	56165.84
538.25	55969.23
538.42	56196.26
538.59	56219.67
538.75	56332.01
538.92	56250.09
539.09	56402.23
539.26	56058.17
539.43	56285.20
539.60	56397.55
539.77	56720.54
539.94	56617.56
540.11	56357.76
540.28	56692.46
540.44	56729.90
540.61	56643.30
540.78	56556.70
540.95	56779.06
541.12	56626.92
541.29	56519.26
541.46	56542.66
541.62	56968.64
541.79	56666.71
541.96	56526.28
542.13	56615.22
542.30	56896.08
542.47	57102.05
542.63	56978.00
542.80	57043.54
542.97	57382.91
543.14	57223.76
543.31	57200.35
543.48	57148.86
543.64	57612.29
543.81	57605.26
543.98	57490.58
544.15	57673.14
544.32	57591.22
544.48	57797.19
544.65	57251.84
544.82	57502.28
544.99	57378.23
545.16	57675.48
545.32	57797.19
545.49	57895.49
545.66	57829.96
545.83	57862.72
546.00	57911.88
546.16	57738.68
546.33	57733.99
546.50	57703.57
546.67	57778.46
546.83	57743.36
547.00	57836.98
547.17	57876.77
547.34	57860.38
547.50	58152.95
547.67	58293.38
547.84	57972.73
548.00	58248.91
548.17	58335.51
548.34	58422.11
548.51	58497.01
548.67	58326.15
548.84	58223.17
549.01	58363.60
549.18	58567.23
549.34	58293.38
549.51	58482.97
549.68	58663.19
549.84	58454.88
550.01	58543.82
550.18	58543.82
550.34	58623.40
550.51	58576.59
550.68	58728.72
550.84	58174.02
551.01	58686.59
551.18	58623.40
551.34	58670.21
551.51	58665.53
551.68	58777.87
551.84	58735.74
552.01	58653.82
552.18	58876.18
552.34	58700.64
552.51	58887.88
552.68	58625.74
552.84	58873.84
553.01	59133.63
553.18	58993.20
553.34	59238.96
553.51	58908.94
553.67	59007.25
553.84	59171.08
554.01	59140.66
554.17	59086.82
554.34	59082.14
554.51	59203.85
554.67	59313.86
554.84	59213.21
555.00	59187.47
555.17	59079.80
555.33	59260.02
555.50	59030.65
555.67	59185.13
555.83	59180.45
556.00	59222.58
556.16	59536.21
556.33	59716.43
556.50	59363.01
556.66	59538.55
556.83	59255.34
556.99	59517.48
557.16	59728.13
557.32	59550.25
557.49	59898.99
557.65	59760.90
557.82	59650.89
557.98	59568.97
558.15	59571.32
558.32	59571.32
558.48	59547.91
558.65	59634.51
558.81	59700.04
558.98	59784.30
559.14	59707.07
559.31	59756.22
559.47	59924.74
559.64	59924.74
559.80	59781.96
559.97	59760.90
560.13	59973.89
560.30	59737.49
560.46	59997.29
560.63	59842.82
560.79	60001.97
560.96	60097.94
561.12	60013.68
561.29	60062.83
561.45	60083.89
561.61	59913.03
561.78	59983.25
561.94	60004.31
562.11	60184.54
562.27	59980.91
562.44	60032.40
562.60	60250.07
562.77	60041.76
562.93	59917.71
563.10	60158.79
563.26	60079.21
563.42	60402.21
563.59	60053.47
563.75	60287.52
563.92	60179.85
564.08	60076.87
564.24	60441.99
564.41	60170.49
564.57	60168.15
564.74	60472.42
564.90	60233.69
565.07	60317.95
565.23	60341.35
565.39	60299.22
565.56	60369.44
565.72	60294.54
565.88	60350.71
566.05	60231.35
566.21	60544.98
566.38	60310.92
566.54	60470.08
566.70	60640.94
566.87	60563.70
567.03	60488.80
567.19	60533.28
567.36	60573.06
567.52	60392.84
567.68	60774.35
567.85	60636.26
568.01	60589.45
568.17	60528.59
568.34	60615.19
568.50	60554.34
568.66	60530.93
568.83	60591.79
568.99	60434.97
569.15	60643.28
569.32	60676.05
569.48	60706.47
569.64	60729.88
569.81	60570.72
569.97	60500.51
570.13	60718.18
570.30	60657.32
570.46	60732.22
570.62	60725.20
570.78	60495.83
570.95	60725.20
571.11	60830.52
571.27	60540.30
571.43	60610.51
571.60	60879.67
571.76	60706.47
571.92	60776.69
572.09	60776.69
572.25	60795.42
572.41	60657.32
572.57	60823.50
572.74	60956.91
572.90	60725.20
573.06	60945.21
573.22	60842.23
573.38	60837.54
573.55	60720.52
573.71	60966.27
573.87	60779.03
574.03	60779.03
574.20	60800.10
574.36	60591.79
574.52	60860.95
574.68	60874.99
574.84	60823.50
575.01	60945.21
575.17	61085.64
575.33	61003.72
575.49	60755.63
575.65	60748.60
575.82	60938.19
575.98	61092.66
576.14	61172.24
576.30	61097.34
576.46	60711.16
576.62	60779.03
576.79	60977.98
576.95	60832.86
577.11	61029.47
577.27	60999.04
577.43	61038.83
577.59	60917.12
577.75	60853.93
577.92	60903.08
578.08	60860.95
578.24	60863.29
578.40	61235.44
578.56	61059.90
578.72	60793.07
578.88	61385.23
579.04	61176.92
579.21	61069.26
579.37	61155.86
579.53	61193.31
579.69	60774.35
579.85	60989.68
580.01	60949.89
580.17	60884.36
580.33	61137.13
580.49	61116.07
580.65	61284.59
580.82	61113.73
580.98	60900.74
581.14	60893.72
581.30	61237.78
581.46	61022.45
581.62	60992.02
581.78	60853.93
581.94	61010.74
582.10	61116.07
582.26	61179.26
582.42	60973.30
582.58	61073.94
582.74	61055.21
582.90	61102.03
583.06	61034.15
583.22	61048.19
583.38	61120.75
583.54	61148.84
583.70	61153.52
583.86	61291.61
584.02	61132.45
584.18	61219.05
584.34	61214.37
584.50	61111.39
584.66	61120.75
584.82	61008.40
584.98	61228.41
585.14	61340.76
585.30	61001.38
585.46	61127.77
585.62	61282.25
585.78	61265.86
585.94	60954.57
586.10	61183.94
586.26	61282.25
586.42	61282.25
586.58	61237.78
586.74	61347.78
586.90	60982.66
587.06	61268.20
587.22	61378.21
587.38	61247.14
587.54	61272.88
587.70	61380.55
587.86	61359.48
588.02	61277.57
588.18	61247.14
588.34	61186.28
588.49	61289.27
