SpectraSuite Data File
++++++++++++++++++++++++++++++++++++
Date: Fri Oct 25 11:34:50 EDT 2013
User: price-jones
Dark Spectrum Present: No
Reference Spectrum Present: No
Number of Sampled Component Spectra: 1
Spectrometers: USB2+H05261
Integration Time (usec): 100000 (USB2+H05261)
Spectra Averaged: 1 (USB2+H05261)
Boxcar Smoothing: 0 (USB2+H05261)
Correct for Electrical Dark: No (USB2+H05261)
Strobe/Lamp Enabled: No (USB2+H05261)
Correct for Detector Non-linearity: No (USB2+H05261)
Correct for Stray Light: No (USB2+H05261)
Number of Pixels in Processed Spectrum: 2048
>>>>>Begin Processed Spectral Data<<<<<
365.73	332.36
365.92	332.36
366.12	332.36
366.32	243.42
366.52	177.88
366.72	189.58
366.91	166.18
367.11	217.67
367.31	145.11
367.51	128.73
367.70	191.92
367.90	121.71
368.10	198.95
368.30	208.31
368.49	215.33
368.69	304.27
368.89	203.63
369.09	215.33
369.28	156.82
369.48	168.52
369.68	105.32
369.87	201.29
370.07	194.26
370.27	273.84
370.47	339.38
370.66	430.66
370.86	491.51
371.06	498.53
371.25	538.32
371.45	496.19
371.65	547.69
371.84	557.05
372.04	545.34
372.24	498.53
372.44	564.07
372.63	552.37
372.83	571.09
373.03	617.90
373.22	559.39
373.42	716.20
373.62	610.88
373.81	620.24
374.01	622.58
374.21	655.35
374.40	620.24
374.60	683.44
374.79	613.22
374.99	617.90
375.19	671.73
375.38	667.05
375.58	629.60
375.78	606.20
375.97	650.67
376.17	685.78
376.37	685.78
376.56	692.80
376.76	624.92
376.95	617.90
377.15	667.05
377.35	725.57
377.54	624.92
377.74	664.71
377.93	699.82
378.13	669.39
378.33	697.48
378.52	657.69
378.72	676.41
378.91	737.27
379.11	671.73
379.31	636.63
379.50	683.44
379.70	786.42
379.89	746.63
380.09	697.48
380.28	741.95
380.48	734.93
380.68	702.16
380.87	645.99
381.07	734.93
381.26	772.38
381.46	779.40
381.65	608.54
381.85	770.04
382.04	784.08
382.24	823.87
382.43	688.12
382.63	802.80
382.83	786.42
383.02	882.38
383.22	842.59
383.41	746.63
383.61	826.21
383.80	777.06
384.00	767.70
384.19	774.72
384.39	748.97
384.58	795.78
384.78	851.96
384.97	877.70
385.17	814.51
385.36	774.72
385.56	854.30
385.75	826.21
385.95	819.19
386.14	807.48
386.34	751.31
386.53	833.23
386.72	821.53
386.92	908.13
387.11	863.66
387.31	821.53
387.50	814.51
387.70	830.89
387.89	898.77
388.09	842.59
388.28	873.02
388.48	910.47
388.67	866.00
388.86	856.64
389.06	891.74
389.25	887.06
389.45	896.43
389.64	880.04
389.84	851.96
390.03	976.00
390.22	863.66
390.42	924.51
390.61	917.49
390.81	938.55
391.00	910.47
391.19	931.53
391.39	1011.11
391.58	976.00
391.78	987.71
391.97	1008.77
392.16	938.55
392.36	1100.05
392.55	1074.31
392.75	1004.09
392.94	1048.56
393.13	1025.15
393.33	978.34
393.52	968.98
393.71	1034.52
393.91	1076.65
394.10	1029.84
394.29	1022.81
394.49	1015.79
394.68	1114.10
394.88	1132.82
395.07	1057.92
395.26	1093.03
395.46	1116.44
395.65	1196.01
395.84	1132.82
396.04	1041.54
396.23	1130.48
396.42	1174.95
396.62	1153.88
396.81	1156.22
397.00	1081.33
397.19	1181.97
397.39	1165.59
397.58	1167.93
397.77	1219.42
397.97	1226.44
398.16	1287.29
398.35	1242.82
398.55	1252.19
398.74	1235.80
398.93	1266.23
399.12	1277.93
399.32	1270.91
399.51	1217.08
399.70	1266.23
399.90	1245.16
400.09	1343.47
400.28	1352.83
400.47	1313.04
400.67	1235.80
400.86	1322.40
401.05	1369.21
401.24	1371.55
401.44	1345.81
401.63	1371.55
401.82	1362.19
402.01	1336.45
402.21	1366.87
402.40	1383.26
402.59	1420.71
402.78	1357.51
402.97	1425.39
403.17	1514.33
403.36	1563.48
403.55	1427.73
403.74	1441.77
403.93	1572.84
404.13	1544.75
404.32	1502.62
404.51	1547.09
404.70	1664.12
404.89	1511.99
405.09	1633.69
405.28	1638.38
405.47	1584.54
405.66	1661.78
405.85	1652.42
406.05	1671.14
406.24	1664.12
406.43	1650.08
406.62	1713.27
406.81	1802.21
407.00	1722.63
407.20	1654.76
407.39	1654.76
407.58	1741.36
407.77	1675.82
407.96	1802.21
408.15	1757.74
408.34	1877.11
408.54	1767.10
408.73	1909.88
408.92	1874.77
409.11	1944.99
409.30	1921.58
409.49	1823.28
409.68	1912.22
409.87	1916.90
410.07	1905.20
410.26	1830.30
410.45	2036.27
410.64	1966.05
410.83	2057.33
411.02	1973.07
411.21	2106.48
411.40	1966.05
411.59	2064.35
411.78	2059.67
411.98	2181.38
412.17	2017.54
412.36	2239.89
412.55	2230.53
412.74	2216.49
412.93	2188.40
413.12	2244.57
413.31	2359.26
413.50	2359.26
413.69	2169.68
413.88	2326.49
414.07	2223.51
414.26	2340.54
414.45	2300.75
414.64	2392.03
414.83	2366.28
415.02	2401.39
415.22	2464.58
415.41	2537.14
415.60	2441.18
415.79	2534.80
415.98	2663.53
416.17	2539.48
416.36	2597.99
416.55	2717.36
416.74	2565.23
416.93	2647.15
417.12	2574.59
417.31	2616.72
417.50	2605.02
417.69	2822.69
417.88	2796.94
418.07	2696.30
418.26	2780.56
418.45	2818.00
418.64	2818.00
418.83	2846.09
419.02	2878.86
419.21	2911.63
419.39	2977.16
419.58	2944.39
419.77	2935.03
419.96	2995.89
420.15	2977.16
420.34	2963.12
420.53	2991.20
420.72	3103.55
420.91	3084.83
421.10	3098.87
421.29	3152.70
421.48	3213.56
421.67	3274.41
421.86	3119.93
422.05	3112.91
422.24	3208.87
422.43	3101.21
422.61	3215.90
422.80	3323.56
422.99	3197.17
423.18	3243.98
423.37	3297.81
423.56	3129.30
423.75	3269.73
423.94	3080.14
424.13	3138.66
424.32	3246.32
424.50	3267.39
424.69	3318.88
424.88	3368.03
425.07	3255.69
425.26	3199.51
425.45	3353.99
425.64	3183.13
425.83	3152.70
426.01	3321.22
426.20	3363.35
426.39	3258.03
426.58	3330.58
426.77	3246.32
426.96	3442.93
427.15	3407.82
427.33	3316.54
427.52	3417.18
427.71	3468.67
427.90	3318.88
428.09	3414.84
428.28	3503.78
428.46	3541.23
428.65	3499.10
428.84	3536.55
429.03	3581.02
429.22	3492.08
429.40	3606.77
429.59	3651.24
429.78	3508.46
429.97	3426.54
430.16	3559.95
430.34	3660.60
430.53	3517.83
430.72	3754.22
430.91	3538.89
431.10	3602.08
431.28	3812.73
431.47	3740.18
431.66	3754.22
431.85	3779.97
432.03	3859.54
432.22	3796.35
432.41	3749.54
432.60	3782.31
432.79	3953.16
432.97	3812.73
433.16	3955.51
433.35	3904.01
433.54	3943.80
433.72	3854.86
433.91	3955.51
434.10	4056.15
434.28	4002.32
434.47	4072.53
434.66	3918.06
434.85	3983.59
435.03	4231.69
435.22	4231.69
435.41	4121.68
435.59	4219.99
435.78	4117.00
435.97	4091.26
436.16	4205.94
436.34	4133.39
436.53	4252.75
436.72	4395.53
436.90	4189.56
437.09	4311.27
437.28	4145.09
437.46	4353.40
437.65	4285.52
437.84	4334.67
438.02	4339.35
438.21	4351.06
438.40	4390.84
438.58	4542.98
438.77	4524.26
438.96	4550.00
439.14	4594.47
439.33	4767.67
439.52	4704.48
439.70	4730.22
439.89	4723.20
440.08	4755.97
440.26	4891.72
440.45	4758.31
440.63	4830.87
440.82	4966.62
441.01	4887.04
441.19	4903.42
441.38	4891.72
441.57	4943.21
441.75	5053.22
441.94	5043.85
442.12	5027.47
442.31	5109.39
442.50	5177.26
442.68	5081.30
442.87	5032.15
443.05	5179.61
443.24	5397.28
443.43	5109.39
443.61	5235.78
443.80	5467.49
443.98	5158.54
444.17	5006.41
444.35	5123.43
444.54	5350.46
444.73	5291.95
444.91	5231.10
445.10	5303.65
445.28	5242.80
445.47	5280.25
445.65	5341.10
445.84	5404.30
446.02	5406.64
446.21	5481.53
446.39	5404.30
446.58	5369.19
446.77	5446.43
446.95	5301.31
447.14	5245.14
447.32	5486.22
447.51	5465.15
447.69	5329.40
447.88	5423.02
448.06	5383.23
448.25	5467.49
448.43	5401.96
448.62	5392.59
448.80	5535.37
448.99	5647.71
449.17	5584.52
449.36	5572.82
449.54	5736.65
449.73	5755.38
449.91	5760.06
450.10	5713.25
450.28	5809.21
450.46	5825.59
450.65	5881.77
450.83	5884.11
451.02	5675.80
451.20	5804.53
451.39	5753.04
451.57	5804.53
451.76	5795.17
451.94	6005.81
452.13	6092.41
452.31	6015.18
452.49	5746.02
452.68	5811.55
452.86	5937.94
453.05	5975.39
453.23	6054.97
453.42	5944.96
453.60	5912.19
453.78	6010.50
453.97	5881.77
454.15	6160.29
454.34	5907.51
454.52	6183.70
454.70	6193.06
454.89	6066.67
455.07	6246.89
455.26	6015.18
455.44	6293.70
455.62	6317.11
455.81	6464.56
455.99	6352.21
456.17	6537.12
456.36	6452.86
456.54	6415.41
456.73	6513.71
456.91	6715.00
457.09	6722.02
457.28	6513.71
457.46	6565.20
457.64	6672.87
457.83	6696.27
458.01	6670.53
458.19	6909.26
458.38	6740.74
458.56	6808.62
458.74	6757.13
458.93	6752.45
459.11	6946.71
459.29	6848.41
459.48	6745.42
459.66	6965.43
459.84	6867.13
460.03	7035.65
460.21	7059.06
460.39	7094.16
460.57	6923.30
460.76	7082.46
460.94	6930.33
461.12	6977.14
461.31	7115.23
461.49	7206.51
461.67	7229.91
461.85	7410.14
462.04	7279.07
462.22	7300.13
462.40	7393.75
462.59	7349.28
462.77	7262.68
462.95	7368.01
463.13	7398.43
463.32	7346.94
463.50	7419.50
463.68	7410.14
463.86	7372.69
464.05	7349.28
464.23	7410.14
464.41	7555.25
464.59	7316.51
464.78	7616.10
464.96	7585.68
465.14	7456.95
465.32	7578.65
465.50	7688.66
465.69	7716.75
465.87	7557.59
466.05	7588.02
466.23	7763.56
466.41	7761.22
466.60	7808.03
466.78	7672.28
466.96	7861.86
467.14	7892.29
467.32	7700.36
467.51	7896.97
467.69	7660.57
467.87	7726.11
468.05	7960.16
468.23	7981.23
468.41	7878.24
468.60	7922.71
468.78	7845.48
468.96	7889.95
469.14	8226.98
469.32	7955.48
469.50	7983.57
469.69	8322.94
469.87	8248.05
470.05	8297.20
470.23	8114.64
470.41	8252.73
470.59	8386.14
470.77	8311.24
470.95	8344.01
471.14	8454.02
471.32	8229.32
471.50	8566.36
471.68	8519.55
471.86	8507.85
472.04	8795.73
472.22	8734.88
472.40	8634.24
472.58	8697.43
472.77	8894.04
472.95	8835.52
473.13	9303.63
473.31	8889.35
473.49	8868.29
473.67	9060.21
473.85	9064.89
474.03	9090.64
474.21	9109.36
474.39	9329.38
474.57	9282.56
474.75	9301.29
474.93	9303.63
475.12	9336.40
475.30	9415.98
475.48	9511.94
475.66	9603.22
475.84	9619.60
476.02	9685.14
476.20	9540.02
476.38	9734.29
476.56	9984.73
476.74	9844.29
476.92	9734.29
477.10	9830.25
477.28	9947.28
477.46	10167.29
477.64	10111.11
477.82	10253.89
478.00	10448.15
478.18	10569.86
478.36	10572.20
478.54	10551.14
478.72	10539.43
478.90	11019.24
479.08	10981.79
479.26	11066.05
479.44	10832.00
479.62	10911.58
479.80	11147.97
479.98	11365.64
480.16	11555.22
480.34	11248.61
480.52	11459.26
480.70	11506.07
480.88	11466.28
481.06	11819.71
481.24	11569.27
481.41	11976.52
481.59	12016.31
481.77	12159.08
481.95	12133.34
482.13	12224.62
482.31	12210.57
482.49	12395.48
482.67	12758.26
482.85	12781.67
483.03	12779.32
483.21	12837.84
483.39	12985.29
483.57	13048.49
483.74	13022.74
483.92	13315.31
484.10	12950.18
484.28	13390.20
484.46	13558.72
484.64	13535.32
484.82	13621.92
485.00	13891.08
485.18	13877.04
485.35	14157.90
485.53	14043.21
485.71	14319.40
485.89	14558.13
486.07	14375.57
486.25	14614.30
486.43	14766.44
486.61	14895.17
486.78	14841.34
486.96	14967.73
487.14	15101.14
487.32	15044.96
487.50	15552.86
487.68	15744.78
487.85	15594.99
488.03	15859.47
488.21	15920.32
488.39	15662.86
488.57	16243.32
488.75	16327.58
488.92	16362.69
489.10	16486.73
489.28	16290.13
489.46	16727.81
489.64	16570.99
489.81	17116.34
489.99	17078.89
490.17	17270.81
490.35	17195.92
490.53	17224.00
490.70	17504.87
490.88	17429.97
491.06	17741.26
491.24	17563.38
491.41	17809.14
491.59	18263.20
491.77	18090.00
491.95	18183.62
492.13	18160.22
492.30	18497.25
492.48	18523.00
492.66	18494.91
492.84	18707.90
493.01	19143.24
493.19	19042.60
493.37	18988.77
493.54	19243.88
493.72	19381.98
493.90	19346.87
494.08	19417.08
494.25	19515.39
494.43	19812.63
494.61	19496.66
494.79	19789.23
494.96	19852.42
495.14	20142.65
495.32	20615.44
495.49	20210.53
495.67	20884.60
495.85	20772.25
496.02	21078.86
496.20	21099.93
496.38	20999.29
496.55	20805.02
496.73	21406.54
496.91	21315.26
497.09	21678.04
497.26	21598.46
497.44	21575.06
497.62	21781.03
497.79	21839.54
497.97	21933.16
498.14	21933.16
498.32	22115.72
498.50	22230.41
498.67	22263.18
498.85	22522.98
499.03	22558.08
499.20	22513.61
499.38	22731.28
499.56	22806.18
499.73	23012.15
499.91	23103.43
500.08	23381.95
500.26	22955.97
500.44	23122.15
500.61	23241.52
500.79	23445.15
500.97	23393.65
501.14	23480.25
501.32	23793.89
501.49	23599.62
501.67	23847.72
501.84	23988.15
502.02	24027.94
502.20	23971.77
502.37	23791.55
502.55	24063.05
502.72	24297.10
502.90	24636.48
503.07	24030.28
503.25	24620.10
503.43	24322.85
503.60	24762.87
503.78	24542.86
503.95	24687.97
504.13	24793.29
504.30	24762.87
504.48	25167.78
504.65	24835.42
504.83	25235.66
505.01	25324.60
505.18	25167.78
505.36	25399.49
505.53	25266.08
505.71	25680.36
505.88	25816.11
506.06	25895.69
506.23	25731.85
506.41	25713.13
506.58	25834.83
506.76	26190.59
506.93	26302.94
507.11	26309.96
507.28	26221.02
507.46	26742.96
507.63	26553.38
507.81	26520.61
507.98	26644.66
508.16	26752.32
508.33	26733.60
508.50	26979.36
508.68	27419.38
508.85	27234.47
509.03	27016.80
509.20	27194.68
509.38	27475.55
509.55	27370.22
509.73	27384.27
509.90	27353.84
510.08	27606.62
510.25	27653.43
510.42	27641.73
510.60	27920.25
510.77	28023.23
510.95	28437.51
511.12	27826.63
511.30	28217.50
511.47	28402.40
511.64	28446.87
511.82	28311.12
511.99	28400.06
512.17	28542.83
512.34	28154.30
512.51	28622.41
512.69	29046.05
512.86	29003.92
513.04	29259.04
513.21	28645.82
513.38	29109.24
513.56	28968.81
513.73	29226.27
513.90	29041.37
514.08	29383.09
514.25	29364.36
514.43	29448.62
514.60	29575.01
514.77	29759.91
514.95	29881.62
515.12	30213.98
515.29	29720.12
515.47	29773.95
515.64	30286.53
515.81	29563.31
515.99	30157.80
516.16	30595.48
516.33	30384.83
516.51	30604.84
516.68	30265.47
516.85	30118.01
517.03	30106.31
517.20	30398.88
517.37	30452.71
517.54	30803.79
517.72	30693.79
517.89	30581.44
518.06	31136.15
518.24	31040.18
518.41	30955.93
518.58	30845.92
518.75	31047.21
518.93	31342.11
519.10	30946.56
519.27	31370.20
519.45	31585.53
519.62	31768.09
519.79	31510.63
519.96	31512.97
520.14	31393.61
520.31	31728.30
520.48	31906.18
520.65	31814.90
520.83	32385.99
521.00	32107.47
521.17	32416.42
521.34	32137.90
521.52	32376.63
521.69	32320.46
521.86	32404.72
522.03	32694.94
522.20	32893.89
522.38	32968.79
522.55	32870.48
522.72	32535.79
522.89	32748.78
523.07	33134.96
523.24	32889.21
523.41	33092.83
523.58	33015.60
523.75	33343.27
523.92	33273.06
524.10	33624.14
524.27	33488.38
524.44	33392.42
524.61	33446.26
524.78	33469.66
524.96	33439.23
525.13	33773.93
525.30	33514.13
525.47	33979.90
525.64	34038.41
525.81	34066.50
525.98	34143.74
526.16	34223.31
526.33	33722.44
526.50	34394.17
526.67	34520.56
526.84	34267.78
527.01	34621.20
527.18	34487.79
527.36	34504.18
527.53	34478.43
527.70	34775.68
527.87	35206.34
528.04	34490.13
528.21	34588.44
528.38	34932.50
528.55	35026.12
528.72	35182.93
528.89	34883.34
529.07	34567.37
529.24	34857.60
529.41	35449.75
529.58	35229.74
529.75	34759.30
529.92	35166.55
530.09	34841.21
530.26	35587.85
530.43	35447.41
530.60	35241.45
530.77	35360.81
530.94	35445.07
531.11	35599.55
531.28	35407.62
531.46	35522.31
531.63	35756.36
531.80	35489.54
531.97	35735.30
532.14	35725.94
532.31	35772.75
532.48	36058.29
532.65	36573.21
532.82	35866.37
532.99	36123.83
533.16	36011.48
533.33	36339.16
533.50	36488.95
533.67	36542.78
533.84	36517.04
534.01	36315.75
534.18	36470.23
534.35	36620.02
534.52	36409.37
534.69	37125.58
534.86	36767.48
535.03	36751.09
535.20	36659.81
535.37	37027.28
535.54	37221.54
535.71	36498.31
535.88	36847.05
536.05	37158.34
536.22	37474.32
536.38	37046.00
536.55	37163.03
536.72	36950.04
536.89	37418.14
537.06	37275.37
537.23	37659.22
537.40	37240.26
537.57	37345.59
537.74	37479.00
537.91	37448.57
538.08	38136.69
538.25	37352.61
538.42	37652.20
538.59	38019.66
538.75	37626.45
538.92	38000.94
539.09	38052.43
539.26	37872.21
539.43	38087.54
539.60	38085.20
539.77	38080.52
539.94	38447.98
540.11	37961.15
540.28	38050.09
540.44	38557.99
540.61	38169.46
540.78	38202.22
540.95	38513.52
541.12	38031.36
541.29	38447.98
541.46	38459.68
541.62	38698.42
541.79	38705.44
541.96	38714.80
542.13	38527.56
542.30	38782.68
542.47	38316.91
542.63	39091.63
542.80	39590.16
542.97	39049.50
543.14	39033.11
543.31	39072.90
543.48	39119.71
543.64	39835.92
543.81	39477.82
543.98	39042.48
544.15	39566.76
544.32	39831.24
544.48	39311.64
544.65	39746.98
544.82	39871.03
544.99	39330.36
545.16	39545.69
545.32	39995.07
545.49	39749.32
545.66	40297.00
545.83	39943.58
546.00	39768.04
546.16	39445.05
546.33	39742.30
546.50	39622.93
546.67	40130.83
546.83	39718.89
547.00	40341.47
547.17	39604.20
547.34	40233.81
547.50	40210.40
547.67	40369.56
547.84	40767.45
548.00	40563.82
548.17	40687.87
548.34	40470.20
548.51	40753.41
548.67	40931.29
548.84	40765.11
549.01	40652.76
549.18	40594.25
549.34	41048.32
549.51	40601.27
549.68	40786.18
549.84	41010.87
550.01	40996.82
550.18	40762.77
550.34	40760.43
550.51	41036.61
550.68	41228.54
550.84	40664.47
551.01	41434.50
551.18	41399.40
551.34	40982.78
551.51	41193.43
551.68	41132.57
551.84	41408.76
552.01	41155.98
552.18	41647.49
552.34	41223.86
552.51	41560.89
552.68	41331.52
552.84	41411.10
553.01	41689.62
553.18	41350.24
553.34	41811.33
553.51	41497.70
553.67	41706.01
553.84	41535.15
554.01	41624.09
554.17	41839.42
554.34	42117.94
554.51	41368.97
554.67	42080.49
554.84	41745.80
555.00	41696.64
555.17	41837.08
555.33	41591.32
555.50	42040.70
555.67	42085.17
555.83	41968.15
556.00	41708.35
556.16	42422.21
556.33	42003.25
556.50	42274.76
556.66	42361.36
556.83	42038.36
556.99	42436.25
557.16	42532.22
557.32	42021.98
557.49	42478.38
557.65	41881.55
557.82	42216.24
557.98	42101.56
558.15	42286.46
558.32	42445.62
558.48	41918.99
558.65	42625.84
558.81	42462.00
558.98	42321.57
559.14	42415.19
559.31	42389.44
559.47	42473.70
559.64	42604.77
559.80	42782.65
559.97	42859.89
560.13	42251.35
560.30	42532.22
560.46	42738.18
560.63	42773.29
560.79	42864.57
560.96	43274.16
561.12	42925.42
561.29	43335.02
561.45	42429.23
561.61	42841.17
561.78	42944.15
561.94	42967.55
562.11	42946.49
562.27	42967.55
562.44	42958.19
562.60	43414.60
562.77	42955.85
562.93	42834.14
563.10	43175.86
563.26	43161.82
563.42	43604.18
563.59	42925.42
563.75	42890.32
563.92	43199.27
564.08	43070.54
564.24	43557.37
564.41	43756.32
564.57	43487.15
564.74	43241.40
564.90	43309.27
565.07	43285.87
565.23	43278.85
565.39	43377.15
565.56	43449.70
565.72	43681.42
565.88	43246.08
566.05	43761.00
566.21	43742.27
566.38	43515.24
566.54	43419.28
566.70	43344.38
566.87	43716.53
567.03	43573.75
567.19	43807.81
567.36	43332.68
567.52	43494.18
567.68	43894.41
567.85	43725.89
568.01	43662.69
568.17	43562.05
568.34	43606.52
568.50	43955.26
568.66	43236.72
568.83	43604.18
568.99	43564.39
569.15	43910.79
569.32	43599.50
569.48	44151.87
569.64	43945.90
569.81	43730.57
569.97	43573.75
570.13	43735.25
570.30	43620.56
570.46	43983.35
570.62	44076.97
570.78	43679.08
570.95	43838.23
571.11	43966.96
571.27	43812.49
571.43	44149.53
571.60	43859.30
571.76	43901.43
571.92	44346.13
572.09	43264.80
572.25	43793.76
572.41	43758.66
572.57	44051.22
572.74	44219.74
572.90	43849.94
573.06	43950.58
573.22	43924.83
573.38	43976.33
573.55	44900.84
573.71	44201.02
573.87	43784.40
574.03	44430.39
574.20	44182.29
574.36	44451.45
574.52	44205.70
574.68	44179.95
574.84	44137.82
575.01	44271.23
575.17	44540.39
575.33	44371.88
575.49	44411.67
575.65	44477.20
575.82	44463.16
575.98	44144.84
576.14	44055.90
576.30	44711.25
576.46	44779.13
576.62	44617.63
576.79	44231.44
576.95	43899.09
577.11	44037.18
577.27	44737.00
577.43	44470.18
577.59	44238.47
577.75	44013.77
577.92	43777.38
578.08	44559.12
578.24	44273.57
578.40	44498.26
578.56	44495.92
578.72	44144.84
578.88	44659.76
579.04	43744.61
579.21	44341.45
579.37	44755.72
579.53	44217.40
579.69	44332.09
579.85	44226.76
580.01	44280.60
580.17	44533.37
580.33	44388.26
580.49	44320.38
580.65	44451.45
580.82	44622.31
580.98	44381.24
581.14	44301.66
581.30	44563.80
581.46	44376.56
581.62	44453.79
581.78	44184.63
581.94	44549.76
582.10	44538.05
582.26	44126.12
582.42	44446.77
582.58	44334.43
582.74	45029.57
582.90	44395.28
583.06	44437.41
583.22	44371.88
583.38	44439.75
583.54	43950.58
583.70	44680.83
583.86	44493.58
584.02	44341.45
584.18	44865.73
584.34	44458.48
584.50	44678.49
584.66	44694.87
584.82	44409.32
584.98	44870.41
585.14	44601.25
585.30	44355.49
585.46	44641.04
585.62	44409.32
585.78	44699.55
585.94	44301.66
586.10	44842.32
586.26	44308.68
586.42	44306.34
586.58	44474.86
586.74	44294.64
586.90	44275.91
587.06	44732.32
587.22	44694.87
587.38	44013.77
587.54	45270.64
587.70	44652.74
587.86	44526.35
588.02	44746.36
588.18	44802.53
588.34	44357.83
588.49	44790.83
588.65	44460.82
588.81	44390.60
588.97	44538.05
589.13	44601.25
589.29	44945.31
589.45	45008.50
589.61	44669.12
589.77	45031.91
589.93	44987.44
590.08	44734.66
590.24	44980.42
