SpectraSuite Data File
++++++++++++++++++++++++++++++++++++
Date: Fri Oct 25 11:34:34 EDT 2013
User: price-jones
Dark Spectrum Present: No
Reference Spectrum Present: No
Number of Sampled Component Spectra: 1
Spectrometers: USB2+H05261
Integration Time (usec): 100000 (USB2+H05261)
Spectra Averaged: 1 (USB2+H05261)
Boxcar Smoothing: 0 (USB2+H05261)
Correct for Electrical Dark: No (USB2+H05261)
Strobe/Lamp Enabled: No (USB2+H05261)
Correct for Detector Non-linearity: No (USB2+H05261)
Correct for Stray Light: No (USB2+H05261)
Number of Pixels in Processed Spectrum: 2048
>>>>>Begin Processed Spectral Data<<<<<
365.73	250.44
365.92	250.44
366.12	250.44
366.32	224.69
366.52	124.05
366.72	229.37
366.91	224.69
367.11	194.26
367.31	205.97
367.51	180.22
367.70	166.18
367.90	259.80
368.10	163.84
368.30	215.33
368.49	175.54
368.69	255.12
368.89	191.92
369.09	198.95
369.28	283.20
369.48	252.78
369.68	198.95
369.87	259.80
370.07	255.12
370.27	194.26
370.47	337.04
370.66	475.13
370.86	484.49
371.06	554.71
371.25	608.54
371.45	543.00
371.65	657.69
371.84	571.09
372.04	517.26
372.24	540.66
372.44	505.56
372.63	608.54
372.83	514.92
373.03	662.37
373.22	650.67
373.42	599.18
373.62	648.33
373.81	648.33
374.01	667.05
374.21	683.44
374.40	613.22
374.60	655.35
374.79	645.99
374.99	650.67
375.19	674.07
375.38	613.22
375.58	601.52
375.78	585.13
375.97	645.99
376.17	732.59
376.37	648.33
376.56	667.05
376.76	603.86
376.95	610.88
377.15	634.29
377.35	638.97
377.54	657.69
377.74	648.33
377.93	678.76
378.13	645.99
378.33	786.42
378.52	713.86
378.72	695.14
378.91	674.07
379.11	617.90
379.31	741.95
379.50	676.41
379.70	709.18
379.89	720.88
380.09	613.22
380.28	711.52
380.48	709.18
380.68	662.37
380.87	657.69
381.07	622.58
381.26	720.88
381.46	770.04
381.65	692.80
381.85	767.70
382.04	746.63
382.24	772.38
382.43	802.80
382.63	758.33
382.83	784.08
383.02	765.36
383.22	723.23
383.41	800.46
383.61	786.42
383.80	837.91
384.00	753.65
384.19	744.29
384.39	823.87
384.58	821.53
384.78	816.85
384.97	866.00
385.17	781.74
385.36	816.85
385.56	854.30
385.75	744.29
385.95	840.25
386.14	849.61
386.34	849.61
386.53	826.21
386.72	837.91
386.92	744.29
387.11	833.23
387.31	856.64
387.50	905.79
387.70	819.19
387.89	863.66
388.09	826.21
388.28	858.98
388.48	882.38
388.67	823.87
388.86	847.27
389.06	858.98
389.25	943.24
389.45	931.53
389.64	936.21
389.84	961.96
390.03	931.53
390.22	997.07
390.42	910.47
390.61	943.24
390.81	866.00
391.00	959.62
391.19	968.98
391.39	987.71
391.58	954.94
391.78	961.96
391.97	971.32
392.16	877.70
392.36	997.07
392.55	1013.45
392.75	987.71
392.94	1053.24
393.13	1011.11
393.33	994.73
393.52	1053.24
393.71	1088.35
393.91	1078.99
394.10	1111.75
394.29	1083.67
394.49	1074.31
394.68	1104.73
394.88	1069.62
395.07	1121.12
395.26	1137.50
395.46	1076.65
395.65	1151.54
395.84	1221.76
396.04	1212.40
396.23	1212.40
396.42	1191.33
396.62	1128.14
396.81	1121.12
397.00	1104.73
397.19	1132.82
397.39	1179.63
397.58	1191.33
397.77	1226.44
397.97	1259.21
398.16	1219.42
398.35	1252.19
398.55	1212.40
398.74	1238.14
398.93	1324.74
399.12	1266.23
399.32	1296.66
399.51	1322.40
399.70	1196.01
399.90	1235.80
400.09	1210.06
400.28	1294.32
400.47	1313.04
400.67	1320.06
400.86	1341.13
401.05	1418.36
401.24	1369.21
401.44	1371.55
401.63	1306.02
401.82	1404.32
402.01	1380.92
402.21	1366.87
402.40	1432.41
402.59	1474.54
402.78	1509.65
402.97	1437.09
403.17	1549.43
403.36	1526.03
403.55	1439.43
403.74	1446.45
403.93	1521.35
404.13	1570.50
404.32	1547.09
404.51	1584.54
404.70	1530.71
404.89	1547.09
405.09	1619.65
405.28	1568.16
405.47	1638.38
405.66	1645.40
405.85	1673.48
406.05	1638.38
406.24	1650.08
406.43	1729.66
406.62	1741.36
406.81	1720.29
407.00	1706.25
407.20	1605.61
407.39	1764.76
407.58	1802.21
407.77	1783.49
407.96	1849.02
408.15	1783.49
408.34	1750.72
408.54	1820.94
408.73	1816.26
408.92	1959.03
409.11	1776.47
409.30	1968.39
409.49	1858.39
409.68	1980.09
409.87	1902.86
410.07	1942.64
410.26	1956.69
410.45	2066.69
410.64	2019.88
410.83	2015.20
411.02	2080.74
411.21	2104.14
411.40	2111.16
411.59	2113.50
411.78	2101.80
411.98	2143.93
412.17	2066.69
412.36	2188.40
412.55	2275.00
412.74	2260.96
412.93	2296.07
413.12	2246.91
413.31	2387.35
413.50	2349.90
413.69	2230.53
413.88	2406.07
414.07	2429.48
414.26	2366.28
414.45	2476.29
414.64	2518.42
414.83	2450.54
415.02	2530.12
415.22	2476.29
415.41	2480.97
415.60	2520.76
415.79	2480.97
415.98	2612.04
416.17	2548.84
416.36	2581.61
416.55	2544.16
416.74	2731.41
416.93	2752.47
417.12	2717.36
417.31	2705.66
417.50	2857.79
417.69	2825.03
417.88	2913.97
418.07	2738.43
418.26	2768.85
418.45	2822.69
418.64	2956.10
418.83	2794.60
419.02	2813.32
419.21	2937.37
419.39	2951.42
419.58	2920.99
419.77	2944.39
419.96	3063.76
420.15	3063.76
420.34	3042.70
420.53	2984.18
420.72	2979.50
420.91	2979.50
421.10	3089.51
421.29	3173.77
421.48	3122.27
421.67	3281.43
421.86	3159.72
422.05	3101.21
422.24	3192.49
422.43	3218.24
422.61	3173.77
422.80	3133.98
422.99	3232.28
423.18	3218.24
423.37	3236.96
423.56	3180.79
423.75	3316.54
423.94	3204.19
424.13	3033.33
424.32	3229.94
424.50	3297.81
424.69	3365.69
424.88	3414.84
425.07	3243.98
425.26	3185.47
425.45	3103.55
425.64	3255.69
425.83	3332.92
426.01	3386.76
426.20	3382.07
426.39	3251.00
426.58	3262.71
426.77	3265.05
426.96	3405.48
427.15	3419.52
427.33	3452.29
427.52	3393.78
427.71	3386.76
427.90	3433.57
428.09	3691.02
428.28	3590.38
428.46	3517.83
428.65	3501.44
428.84	3592.72
429.03	3751.88
429.22	3454.63
429.40	3578.68
429.59	3623.15
429.78	3489.74
429.97	3478.04
430.16	3515.48
430.34	3588.04
430.53	3686.34
430.72	3695.71
430.91	3684.00
431.10	3693.37
431.28	3845.50
431.47	3847.84
431.66	3789.33
431.85	3775.28
432.03	3861.88
432.22	4021.04
432.41	3913.38
432.60	3861.88
432.79	3864.22
432.97	3882.95
433.16	3971.89
433.35	3889.97
433.54	3955.51
433.72	3985.93
433.91	4021.04
434.10	4007.00
434.28	4114.66
434.47	4021.04
434.66	4074.87
434.85	4184.88
435.03	4042.11
435.22	4196.58
435.41	4205.94
435.59	4140.41
435.78	4196.58
435.97	4264.46
436.16	4360.42
436.34	4224.67
436.53	4208.28
436.72	4238.71
436.90	4138.07
437.09	4416.59
437.28	4351.06
437.46	4271.48
437.65	4510.21
437.84	4425.95
438.02	4397.87
438.21	4486.81
438.40	4322.97
438.58	4535.96
438.77	4533.62
438.96	4491.49
439.14	4683.41
439.33	4624.90
439.52	4676.39
439.70	4664.69
439.89	4933.85
440.08	4758.31
440.26	4861.29
440.45	4849.59
440.63	4933.85
440.82	4908.10
441.01	4954.91
441.19	5036.83
441.38	5041.51
441.57	5006.41
441.75	5011.09
441.94	5008.75
442.12	5071.94
442.31	5261.52
442.50	5322.38
442.68	5252.16
442.87	5071.94
443.05	5207.69
443.24	5329.40
443.43	5198.33
443.61	5144.50
443.80	5378.55
443.98	5170.24
444.17	5097.69
444.35	5327.06
444.54	5392.59
444.73	5404.30
444.91	5331.74
445.10	5432.38
445.28	5191.31
445.47	5373.87
445.65	5451.11
445.84	5511.96
446.02	5408.98
446.21	5486.22
446.39	5352.81
446.58	5509.62
446.77	5523.66
446.95	5493.24
447.14	5495.58
447.32	5465.15
447.51	5523.66
447.69	5577.50
447.88	5523.66
448.06	5481.53
448.25	5689.84
448.43	5518.98
448.62	5526.00
448.80	5617.29
448.99	5673.46
449.17	5760.06
449.36	5493.24
449.54	5654.73
449.73	5652.39
449.91	5757.72
450.10	5823.25
450.28	5834.96
450.46	5816.23
450.65	5863.04
450.83	5909.85
451.02	5881.77
451.20	5961.34
451.39	6150.93
451.57	5846.66
451.76	6012.84
451.94	5923.90
452.13	5942.62
452.31	5961.34
452.49	5877.09
452.68	5870.06
452.86	5975.39
453.05	6029.22
453.23	6207.10
453.42	6083.05
453.60	6047.94
453.78	6099.44
453.97	6033.90
454.15	6183.70
454.34	6134.54
454.52	6059.65
454.70	6237.53
454.89	6312.42
455.07	6164.97
455.26	6331.15
455.44	6293.70
455.62	6300.72
455.81	6410.73
455.99	6572.22
456.17	6448.18
456.36	6476.26
456.54	6555.84
456.73	6569.88
456.91	6555.84
457.09	6548.82
457.28	6871.81
457.46	6677.55
457.64	6747.76
457.83	6806.28
458.01	6672.87
458.19	6803.94
458.38	6656.48
458.56	6726.70
458.74	6768.83
458.93	6963.09
459.11	6801.60
459.29	6874.15
459.48	6799.26
459.66	6970.12
459.84	7084.80
460.03	7143.32
460.21	6991.18
460.39	7094.16
460.57	7171.40
460.76	6977.14
460.94	7094.16
461.12	7201.83
461.31	7101.19
461.49	7190.13
461.67	7152.68
461.85	7506.10
462.04	7232.26
462.22	7719.09
462.40	7412.48
462.59	7393.75
462.77	7260.34
462.95	7201.83
463.13	7391.41
463.32	7515.46
463.50	7662.91
463.68	7557.59
463.86	7639.51
464.05	7470.99
464.23	7379.71
464.41	7611.42
464.59	7386.73
464.78	7679.30
464.96	7749.51
465.14	7648.87
465.32	7707.38
465.50	7712.07
465.69	7798.66
465.87	7861.86
466.05	7702.70
466.23	7847.82
466.41	7698.02
466.60	7779.94
466.78	7798.66
466.96	7679.30
467.14	7955.48
467.32	8016.33
467.51	7843.14
467.69	7597.38
467.87	7850.16
468.05	7990.59
468.23	7941.44
468.41	7920.37
468.60	7929.74
468.78	8133.36
468.96	8088.89
469.14	8262.09
469.32	8418.91
469.50	7999.95
469.69	8280.82
469.87	8376.78
470.05	8439.97
470.23	8374.44
470.41	8425.93
470.59	8671.68
470.77	8341.67
470.95	8215.28
471.14	8664.66
471.32	8542.96
471.50	8589.77
471.68	8542.96
471.86	8896.38
472.04	8688.07
472.22	8898.72
472.40	8559.34
472.58	9069.58
472.77	8812.12
472.95	8877.65
473.13	9125.75
473.31	9015.74
473.49	9027.45
473.67	9008.72
473.85	8805.10
474.03	9289.59
474.21	9446.40
474.39	9226.39
474.57	9371.50
474.75	9315.33
474.93	9507.26
475.12	9394.91
475.30	9593.86
475.48	9558.75
475.66	9727.27
475.84	9687.48
476.02	9713.22
476.20	9671.09
476.38	9844.29
476.56	10092.39
476.74	10029.20
476.92	10153.24
477.10	10003.45
477.28	10104.09
477.46	10111.11
477.64	10399.00
477.82	10286.65
478.00	10497.30
478.18	10565.18
478.36	10600.29
478.54	10839.02
478.72	10630.71
478.90	10998.18
479.08	11047.33
479.26	10998.18
479.44	11052.01
479.62	11154.99
479.80	11513.10
479.98	11459.26
480.16	11440.54
480.34	11658.21
480.52	11578.63
480.70	11545.86
480.88	11569.27
481.06	11749.49
481.24	11714.38
481.41	11850.13
481.59	12100.57
481.77	12154.40
481.95	12112.27
482.13	12329.94
482.31	12538.25
482.49	12695.07
482.67	12552.29
482.85	12692.73
483.03	13020.40
483.21	13107.00
483.39	12863.58
483.57	12877.63
483.74	13149.13
483.92	13224.03
484.10	13378.50
484.28	13549.36
484.46	13715.54
484.64	13785.76
484.82	13729.58
485.00	13951.93
485.18	14183.65
485.35	14494.94
485.53	14232.80
485.71	14286.63
485.89	14846.02
486.07	14349.82
486.25	14684.52
486.43	14946.66
486.61	14682.18
486.78	14927.94
486.96	15143.27
487.14	15040.28
487.32	15344.55
487.50	15377.32
487.68	15449.88
487.85	15866.49
488.03	16208.21
488.21	16360.34
488.39	16252.68
488.57	16020.97
488.75	16376.73
488.92	16374.39
489.10	16615.46
489.28	16723.13
489.46	16985.27
489.64	16723.13
489.81	16917.39
489.99	16980.59
490.17	17177.19
490.35	17373.80
490.53	17593.81
490.70	17556.36
490.88	17605.51
491.06	17701.47
491.24	17996.38
491.41	18061.91
491.59	18373.21
491.77	18129.79
491.95	18485.55
492.13	18471.51
492.30	18499.59
492.48	18836.63
492.66	19016.85
492.84	18941.96
493.01	19152.60
493.19	19014.51
493.37	19339.85
493.54	19131.54
493.72	19779.87
493.90	19496.66
494.08	19765.82
494.25	19660.50
494.43	20140.31
494.61	20411.81
494.79	20091.16
494.96	20037.33
495.14	20493.73
495.32	20657.57
495.49	20395.43
495.67	21081.21
495.85	21149.08
496.02	20959.50
496.20	21280.15
496.38	21364.41
496.55	21149.08
496.73	21699.11
496.91	21628.89
497.09	21603.14
497.26	21778.68
497.44	21493.14
497.62	21668.68
497.79	22279.56
497.97	22216.36
498.14	22513.61
498.32	22302.96
498.50	22574.47
498.67	22787.46
498.85	22764.05
499.03	22590.85
499.20	22871.72
499.38	22754.69
499.56	23012.15
499.73	23124.49
499.91	23075.34
500.08	23187.69
500.26	23133.86
500.44	23248.54
500.61	23482.59
500.79	23384.29
500.97	23887.51
501.14	24306.46
501.32	23939.00
501.49	24240.93
501.67	23892.19
501.84	24180.07
502.02	24374.34
502.20	24329.87
502.37	24254.97
502.55	24465.62
502.72	24577.97
502.90	24507.75
503.07	24603.71
503.25	24458.60
503.43	24980.54
503.60	25020.33
503.78	24861.17
503.95	24840.11
504.13	25092.88
504.30	25174.80
504.48	25263.74
504.65	25425.24
504.83	25259.06
505.01	25647.59
505.18	25773.98
505.36	26094.63
505.53	25652.27
505.71	26043.14
505.88	25610.14
506.06	25687.38
506.23	26038.46
506.41	26197.62
506.58	26218.68
506.76	26534.65
506.93	26513.59
507.11	26316.98
507.28	26761.69
507.46	26693.81
507.63	26881.05
507.81	26766.37
507.98	26859.99
508.16	27065.96
508.33	27173.62
508.50	27318.73
508.68	27667.47
508.85	27522.36
509.03	27428.74
509.20	27290.65
509.38	27864.08
509.55	28074.73
509.73	28030.26
509.90	27943.66
510.08	27927.27
510.25	27969.40
510.42	28432.83
510.60	28175.37
510.77	28442.19
510.95	28804.97
511.12	28254.95
511.30	28334.53
511.47	28589.64
511.64	28503.04
511.82	28701.99
511.99	28386.02
512.17	29109.24
512.34	29165.42
512.51	29357.34
512.69	29003.92
512.86	29326.91
513.04	29603.10
513.21	29357.34
513.38	29673.31
513.56	29699.06
513.73	29511.81
513.90	29572.67
514.08	29565.65
514.25	29701.40
514.43	30089.93
514.60	29921.41
514.77	30036.09
514.95	30115.67
515.12	30302.92
515.29	30129.72
515.47	30085.25
515.64	30469.09
515.81	30368.45
515.99	30728.89
516.16	30808.47
516.33	30934.86
516.51	30916.14
516.68	30885.71
516.85	30747.62
517.03	30993.37
517.20	31061.25
517.37	31012.10
517.54	31096.36
517.72	31173.60
517.89	31328.07
518.06	31578.51
518.24	31257.85
518.41	31491.91
518.58	31473.18
518.75	31407.65
518.93	31714.26
519.10	31482.55
519.27	32060.66
519.45	31447.44
519.62	32046.62
519.79	31798.52
519.96	31971.72
520.14	32470.25
520.31	31644.04
520.48	32280.67
520.65	32105.13
520.83	32556.85
521.00	32594.30
521.17	32215.13
521.34	32929.00
521.52	32624.73
521.69	32683.24
521.86	32877.51
522.03	32842.40
522.20	33350.29
522.38	33347.95
522.55	32982.83
522.72	33207.52
522.89	33401.79
523.07	33472.00
523.24	33130.28
523.41	33551.58
523.58	33357.32
523.75	33617.11
523.92	33879.25
524.10	33771.59
524.27	33979.90
524.44	34258.42
524.61	34244.38
524.78	33900.32
524.96	33926.07
525.13	34242.04
525.30	34356.72
525.47	34354.38
525.64	34064.16
525.81	34380.13
525.98	34623.54
526.16	34347.36
526.33	34216.29
526.50	34614.18
526.67	34691.42
526.84	35000.37
527.01	34609.50
527.18	34925.47
527.36	34747.59
527.53	35157.19
527.70	35105.70
527.87	35665.08
528.04	35225.06
528.21	35110.38
528.38	35002.71
528.55	35438.05
528.72	35182.93
528.89	35199.32
529.07	35503.59
529.24	35552.74
529.41	35714.23
529.58	35562.10
529.75	35599.55
529.92	35637.00
530.09	35660.40
530.26	36002.12
530.43	35929.56
530.60	35943.61
530.77	36009.14
530.94	36027.87
531.11	35927.22
531.28	36385.97
531.46	35992.76
531.63	36268.94
531.80	35704.87
531.97	36491.29
532.14	36390.65
532.31	36392.99
532.48	36538.10
532.65	36432.78
532.82	36697.26
532.99	36706.62
533.16	36889.18
533.33	36638.75
533.50	36591.94
533.67	36772.16
533.84	36636.41
534.01	36811.95
534.18	36961.74
534.35	37441.55
534.52	37116.22
534.69	37305.80
534.86	37610.07
535.03	36933.65
535.20	37659.22
535.37	37486.02
535.54	37244.94
535.71	37284.73
535.88	37769.22
536.05	37397.08
536.22	37703.69
536.38	37942.42
536.55	37581.98
536.72	37912.00
536.89	37256.65
537.06	38113.28
537.23	38506.49
537.40	37652.20
537.57	37820.72
537.74	38258.40
537.91	38522.88
538.08	37991.58
538.25	38115.62
538.42	38162.43
538.59	38387.13
538.75	38122.65
538.92	38288.82
539.09	38520.54
539.26	38658.63
539.43	38469.04
539.60	38848.21
539.77	38452.66
539.94	38895.02
540.11	38550.96
540.28	38408.19
540.44	38319.25
540.61	38815.44
540.78	38520.54
540.95	38827.15
541.12	38911.41
541.29	39335.04
541.46	38602.46
541.62	39098.65
541.79	39234.40
541.96	38930.13
542.13	39098.65
542.30	39147.80
542.47	39400.58
542.63	39381.85
542.80	39578.46
542.97	39749.32
543.14	39690.80
543.31	39789.11
543.48	39510.58
543.64	40142.53
543.81	39812.51
543.98	39742.30
544.15	39786.77
544.32	39992.73
544.48	40299.34
544.65	40072.31
544.82	40175.30
544.99	40142.53
545.16	40772.13
545.32	40069.97
545.49	40144.87
545.66	40514.67
545.83	40524.04
546.00	40409.35
546.16	40147.21
546.33	40428.07
546.50	40308.71
546.67	40851.71
546.83	39988.05
547.00	40341.47
547.17	40608.29
547.34	40217.43
547.50	40666.81
547.67	41071.72
547.84	40701.92
548.00	41317.48
548.17	41132.57
548.34	41132.57
548.51	41195.77
548.67	41120.87
548.84	41233.22
549.01	41017.89
549.18	41064.70
549.34	41057.68
549.51	41258.96
549.68	41244.92
549.84	41574.94
550.01	41556.21
550.18	41247.26
550.34	41794.95
550.51	41710.69
550.68	42061.77
550.84	41144.28
551.01	41687.28
551.18	41198.11
551.34	41542.17
551.51	41539.83
551.68	41736.43
551.84	41598.34
552.01	41514.08
552.18	41764.52
552.34	41750.48
552.51	42075.81
552.68	41804.31
552.84	41907.29
553.01	42277.10
553.18	41970.49
553.34	41759.84
553.51	41881.55
553.67	41914.31
553.84	42382.42
554.01	42747.54
554.17	42117.94
554.34	42431.57
554.51	42043.04
554.67	42806.06
554.84	42686.69
555.00	42087.51
555.17	42457.32
555.33	42410.51
555.50	42909.04
555.67	42658.60
555.83	42522.85
556.00	42609.45
556.16	43051.81
556.33	42850.53
556.50	42555.62
556.66	42752.23
556.83	42532.22
556.99	42632.86
557.16	43234.38
557.32	43086.92
557.49	42967.55
557.65	42691.37
557.82	42878.61
557.98	43056.50
558.15	42895.00
558.32	43096.28
558.48	43084.58
558.65	42906.70
558.81	43140.75
558.98	43037.77
559.14	43112.67
559.31	43220.33
559.47	42735.84
559.64	43061.18
559.80	43641.63
559.97	43000.32
560.13	42974.58
560.30	43297.57
560.46	43372.47
560.63	43739.93
560.79	43339.70
560.96	43906.11
561.12	43791.42
561.29	43580.78
561.45	43540.99
561.61	43943.56
561.78	43339.70
561.94	43653.33
562.11	43440.34
562.27	43524.60
562.44	43840.57
562.60	44004.41
562.77	43508.22
562.93	43402.89
563.10	43592.48
563.26	43206.29
563.42	44212.72
563.59	43592.48
563.75	44039.52
563.92	43686.10
564.08	43711.84
564.24	43487.15
564.41	44105.06
564.57	43665.03
564.74	43573.75
564.90	43625.25
565.07	43665.03
565.23	43849.94
565.39	43871.00
565.56	43992.71
565.72	43711.84
565.88	44053.56
566.05	44217.40
566.21	44018.46
566.38	43964.62
566.54	44304.00
566.70	44133.14
566.87	43847.60
567.03	44034.84
567.19	44465.50
567.36	44287.62
567.52	44037.18
567.68	44182.29
567.85	44329.75
568.01	44217.40
568.17	43983.35
568.34	44729.98
568.50	44147.18
568.66	43943.56
568.83	44329.75
568.99	44479.54
569.15	44650.40
569.32	44086.33
569.48	44336.77
569.64	44172.93
569.81	44488.90
569.97	44142.50
570.13	44821.26
570.30	44151.87
570.46	44727.64
570.62	44610.61
570.78	44526.35
570.95	44694.87
571.11	44465.50
571.27	44067.61
571.43	44144.84
571.60	44502.95
571.76	44266.55
571.92	44538.05
572.09	44105.06
572.25	44238.47
572.41	44329.75
572.57	44264.21
572.74	45275.32
572.90	44584.86
573.06	44940.63
573.22	44631.68
573.38	44776.79
573.55	44837.64
573.71	44900.84
573.87	44980.42
574.03	44601.25
574.20	45090.42
574.36	44568.48
574.52	44830.62
574.68	44680.83
574.84	44935.95
575.01	44989.78
575.17	44973.39
575.33	44737.00
575.49	44486.56
575.65	44844.66
575.82	44664.44
575.98	44701.89
576.14	44790.83
576.30	44884.45
576.46	45059.99
576.62	44924.24
576.79	44917.22
576.95	44301.66
577.11	44509.97
577.27	44795.51
577.43	44760.40
577.59	44847.00
577.75	44577.84
577.92	44357.83
578.08	44978.07
578.24	44870.41
578.40	45193.40
578.56	45291.71
578.72	44938.29
578.88	45162.98
579.04	45090.42
579.21	44807.22
579.37	44882.11
579.53	45284.68
579.69	44655.08
579.85	44924.24
580.01	45284.68
580.17	45024.89
580.33	45382.99
580.49	44835.30
580.65	45038.93
580.82	44493.58
580.98	44828.28
581.14	44271.23
581.30	44966.37
581.46	44863.39
581.62	44800.19
581.78	44835.30
581.94	45256.60
582.10	45415.76
582.26	45705.98
582.42	44729.98
582.58	45207.45
582.74	45078.72
582.90	44685.51
583.06	45205.11
583.22	44847.00
583.38	44938.29
583.54	44729.98
583.70	45048.29
583.86	45256.60
584.02	45116.17
584.18	45240.21
584.34	45071.70
584.50	45717.68
584.66	45207.45
584.82	44825.94
584.98	45624.06
585.14	45759.81
585.30	45324.47
585.46	45088.08
585.62	45078.72
585.78	45207.45
585.94	44701.89
586.10	45027.23
586.26	44823.60
586.42	45153.62
586.58	44975.73
586.74	45003.82
586.90	45151.27
587.06	45256.60
587.22	45170.00
587.38	44875.09
587.54	45326.81
587.70	45090.42
587.86	45167.66
588.02	44870.41
588.18	45446.18
588.34	45457.88
588.49	45277.66
588.65	45174.68
588.81	44935.95
588.97	45235.53
589.13	45352.56
589.29	45343.20
589.45	45298.73
589.61	45610.02
589.77	45722.37
589.93	45366.60
590.08	45478.95
