SpectraSuite Data File
++++++++++++++++++++++++++++++++++++
Date: Fri Oct 25 11:26:06 EDT 2013
User: price-jones
Dark Spectrum Present: No
Reference Spectrum Present: No
Number of Sampled Component Spectra: 1
Spectrometers: USB2+H05261
Integration Time (usec): 100000 (USB2+H05261)
Spectra Averaged: 1 (USB2+H05261)
Boxcar Smoothing: 0 (USB2+H05261)
Correct for Electrical Dark: No (USB2+H05261)
Strobe/Lamp Enabled: No (USB2+H05261)
Correct for Detector Non-linearity: No (USB2+H05261)
Correct for Stray Light: No (USB2+H05261)
Number of Pixels in Processed Spectrum: 2048
>>>>>Begin Processed Spectral Data<<<<<
365.73	189.58
365.92	189.58
366.12	189.58
366.32	135.75
366.52	112.35
366.72	119.37
366.91	119.37
367.11	142.77
367.31	91.28
367.51	119.37
367.70	152.13
367.90	173.20
368.10	117.03
368.30	124.05
368.49	180.22
368.69	196.60
368.89	147.45
369.09	248.10
369.28	184.90
369.48	177.88
369.68	168.52
369.87	212.99
370.07	156.82
370.27	222.35
370.47	313.63
370.66	479.81
370.86	631.94
371.06	638.97
371.25	657.69
371.45	681.10
371.65	760.67
371.84	725.57
372.04	692.80
372.24	772.38
372.44	720.88
372.63	765.36
372.83	734.93
373.03	711.52
373.22	830.89
373.42	760.67
373.62	798.12
373.81	828.55
374.01	793.44
374.21	758.33
374.40	784.08
374.60	798.12
374.79	805.14
374.99	767.70
375.19	863.66
375.38	812.17
375.58	826.21
375.78	795.78
375.97	805.14
376.17	896.43
376.37	866.00
376.56	917.49
376.76	889.40
376.95	889.40
377.15	882.38
377.35	922.17
377.54	912.81
377.74	863.66
377.93	856.64
378.13	875.36
378.33	821.53
378.52	973.66
378.72	957.28
378.91	943.24
379.11	1020.47
379.31	919.83
379.50	905.79
379.70	994.73
379.89	903.45
380.09	968.98
380.28	945.58
380.48	985.37
380.68	919.83
380.87	1013.45
381.07	1093.03
381.26	1011.11
381.46	980.68
381.65	1071.97
381.85	1034.52
382.04	1093.03
382.24	1067.28
382.43	1088.35
382.63	1048.56
382.83	1071.97
383.02	1093.03
383.22	1132.82
383.41	1083.67
383.61	1121.12
383.80	1207.72
384.00	1184.31
384.19	1181.97
384.39	1125.80
384.58	1100.05
384.78	1163.25
384.97	1158.57
385.17	1203.04
385.36	1144.52
385.56	1170.27
385.75	1116.44
385.95	1217.08
386.14	1219.42
386.34	1116.44
386.53	1146.86
386.72	1214.74
386.92	1266.23
387.11	1233.46
387.31	1165.59
387.50	1207.72
387.70	1282.61
387.89	1299.00
388.09	1235.80
388.28	1329.42
388.48	1254.53
388.67	1266.23
388.86	1217.08
389.06	1294.32
389.25	1291.98
389.45	1329.42
389.64	1397.30
389.84	1327.08
390.03	1383.26
390.22	1448.79
390.42	1392.62
390.61	1458.15
390.81	1446.45
391.00	1313.04
391.19	1434.75
391.39	1462.83
391.58	1451.13
391.78	1523.69
391.97	1540.07
392.16	1533.05
392.36	1469.86
392.55	1502.62
392.75	1535.39
392.94	1596.25
393.13	1528.37
393.33	1469.86
393.52	1502.62
393.71	1575.18
393.91	1589.22
394.10	1483.90
394.29	1603.27
394.49	1572.84
394.68	1647.74
394.88	1612.63
395.07	1675.82
395.26	1657.10
395.46	1664.12
395.65	1729.66
395.84	1685.19
396.04	1792.85
396.23	1685.19
396.42	1694.55
396.62	1804.55
396.81	1739.02
397.00	1743.70
397.19	1834.98
397.39	1879.45
397.58	1905.20
397.77	1870.09
397.97	1820.94
398.16	1816.26
398.35	1853.70
398.55	1863.07
398.74	1900.52
398.93	2001.16
399.12	1919.24
399.32	1914.56
399.51	1849.02
399.70	1961.37
399.90	1994.14
400.09	2031.58
400.28	2106.48
400.47	2033.93
400.67	2064.35
400.86	2012.86
401.05	2071.37
401.24	2010.52
401.44	2108.82
401.63	2172.02
401.82	2150.95
402.01	1977.75
402.21	2127.55
402.40	2167.34
402.59	2139.25
402.78	2253.94
402.97	2211.81
403.17	2359.26
403.36	2265.64
403.55	2375.64
403.74	2293.72
403.93	2368.62
404.13	2249.25
404.32	2354.58
404.51	2417.77
404.70	2392.03
404.89	2392.03
405.09	2434.16
405.28	2483.31
405.47	2450.54
405.66	2436.50
405.85	2595.65
406.05	2579.27
406.24	2647.15
406.43	2553.52
406.62	2609.70
406.81	2677.57
407.00	2469.27
407.20	2672.89
407.39	2586.29
407.58	2684.59
407.77	2768.85
407.96	2792.26
408.15	2792.26
408.34	2710.34
408.54	2761.83
408.73	2794.60
408.92	2754.81
409.11	2820.35
409.30	2953.76
409.49	2963.12
409.68	2991.20
409.87	2855.45
410.07	2998.23
410.26	2920.99
410.45	3059.08
410.64	3014.61
410.83	3094.19
411.02	3026.31
411.21	3117.59
411.40	3019.29
411.59	3166.74
411.78	3183.13
411.98	3239.30
412.17	3251.00
412.36	3375.05
412.55	3384.41
412.74	3421.86
412.93	3431.23
413.12	3375.05
413.31	3581.02
413.50	3398.46
413.69	3583.36
413.88	3667.62
414.07	3632.51
414.26	3592.72
414.45	3559.95
414.64	3779.97
414.83	3779.97
415.02	3831.46
415.22	3838.48
415.41	3927.42
415.60	3941.46
415.79	3922.74
415.98	3971.89
416.17	3927.42
416.36	4018.70
416.55	4081.89
416.74	4112.32
416.93	3950.82
417.12	4138.07
417.31	4142.75
417.50	4201.26
417.69	4327.65
417.88	4283.18
418.07	4245.73
418.26	4344.03
418.45	4400.21
418.64	4451.70
418.83	4360.42
419.02	4367.44
419.21	4512.55
419.39	4528.94
419.58	4535.96
419.77	4491.49
419.96	4491.49
420.15	4615.54
420.34	4512.55
420.53	4559.36
420.72	4716.18
420.91	4676.39
421.10	4582.77
421.29	4725.54
421.48	4685.75
421.67	4821.50
421.86	4819.16
422.05	4751.29
422.24	4758.31
422.43	4945.55
422.61	4821.50
422.80	4873.00
422.99	4880.02
423.18	4945.55
423.37	5022.79
423.56	5085.98
423.75	4990.02
423.94	4814.48
424.13	4554.68
424.32	4837.89
424.50	5071.94
424.69	4858.95
424.88	5093.01
425.07	4854.27
425.26	5067.26
425.45	4959.60
425.64	4992.36
425.83	5088.32
426.01	4992.36
426.20	4980.66
426.39	5151.52
426.58	5034.49
426.77	5111.73
426.96	5170.24
427.15	5156.20
427.33	5322.38
427.52	5153.86
427.71	5224.08
427.90	5259.18
428.09	5423.02
428.28	5341.10
428.46	5439.40
428.65	5392.59
428.84	5488.56
429.03	5516.64
429.22	5240.46
429.40	5420.68
429.59	5511.96
429.78	5296.63
429.97	5369.19
430.16	5425.36
430.34	5596.22
430.53	5720.27
430.72	5638.35
430.91	5514.30
431.10	5549.41
431.28	5547.07
431.47	5757.72
431.66	5785.80
431.85	5928.58
432.03	5902.83
432.22	5874.74
432.41	5781.12
432.60	5785.80
432.79	5982.41
432.97	6176.67
433.16	5963.68
433.35	6001.13
433.54	6080.71
433.72	6054.97
433.91	6186.04
434.10	6164.97
434.28	5919.21
434.47	6071.35
434.66	6235.19
434.85	6296.04
435.03	6181.35
435.22	6223.48
435.41	6569.88
435.59	6457.54
435.78	6464.56
435.97	6513.71
436.16	6567.54
436.34	6394.34
436.53	6546.48
436.72	6712.66
436.90	6579.25
437.09	6504.35
437.28	6516.05
437.46	6616.69
437.65	6480.94
437.84	6787.55
438.02	6679.89
438.21	6693.93
438.40	6602.65
438.58	7033.31
438.77	7005.22
438.96	6949.05
439.14	7126.93
439.33	7229.91
439.52	7148.00
439.70	7166.72
439.89	7297.79
440.08	7304.81
440.26	7311.83
440.45	7461.63
440.63	7403.11
440.82	7576.31
441.01	7510.78
441.19	7641.85
441.38	7716.75
441.57	7702.70
441.75	7765.90
441.94	7789.30
442.12	7864.20
442.31	8049.10
442.50	8095.91
442.68	7887.61
442.87	8107.62
443.05	8056.12
443.24	8072.51
443.43	8212.94
443.61	8121.66
443.80	8351.03
443.98	8234.00
444.17	7751.85
444.35	8388.48
444.54	8166.13
444.73	8201.24
444.91	8308.90
445.10	8393.16
445.28	8376.78
445.47	8170.81
445.65	8198.90
445.84	8353.37
446.02	8491.46
446.21	8505.51
446.39	8390.82
446.58	8631.90
446.77	8430.61
446.95	8140.38
447.14	8608.49
447.32	8617.85
447.51	8652.96
447.69	8313.58
447.88	8526.57
448.06	8592.11
448.25	8629.56
448.43	8610.83
448.62	8608.49
448.80	8674.03
448.99	8615.51
449.17	8828.50
449.36	8709.13
449.54	8786.37
449.73	8805.10
449.91	9090.64
450.10	8908.08
450.28	9186.60
450.46	9046.17
450.65	8954.89
450.83	8788.71
451.02	9142.13
451.20	9137.45
451.39	9060.21
451.57	9195.96
451.76	8908.08
451.94	9114.05
452.13	9242.78
452.31	9254.48
452.49	9071.92
452.68	9315.33
452.86	9336.40
453.05	9418.32
453.23	9535.34
453.42	9460.45
453.60	9334.06
453.78	9575.13
453.97	9514.28
454.15	9610.24
454.34	9734.29
454.52	9497.89
454.70	9736.63
454.89	9783.44
455.07	9736.63
455.26	9893.44
455.44	9914.51
455.62	9863.02
455.81	9863.02
455.99	10157.92
456.17	10181.33
456.36	9877.06
456.54	9989.41
456.73	10223.46
456.91	10616.67
457.09	10363.89
457.28	10391.98
457.46	10164.95
457.64	10602.63
457.83	10523.05
458.01	10471.56
458.19	10733.70
458.38	10595.61
458.56	10548.79
458.74	10684.55
458.93	10541.77
459.11	10590.92
459.29	10750.08
459.48	10958.39
459.66	10565.18
459.84	10986.47
460.03	11002.86
460.21	11030.94
460.39	10913.92
460.57	11138.61
460.76	10890.51
460.94	11335.21
461.12	11023.92
461.31	11171.38
461.49	11035.63
461.67	11304.79
461.85	11382.03
462.04	11335.21
462.22	11651.19
462.40	11557.57
462.59	11618.42
462.77	11367.98
462.95	11417.13
463.13	11604.38
463.32	11360.96
463.50	11915.67
463.68	11733.11
463.86	12091.21
464.05	11702.68
464.23	11578.63
464.41	11936.73
464.59	11901.62
464.78	12259.73
464.96	11990.56
465.14	11981.20
465.32	11789.28
465.50	12196.53
465.69	12156.74
465.87	12360.37
466.05	12049.08
466.23	12231.64
466.41	12131.00
466.60	12547.61
466.78	12292.49
466.96	12269.09
467.14	12297.17
467.32	12322.92
467.51	12304.20
467.69	12306.54
467.87	12252.70
468.05	12470.37
468.23	12170.79
468.41	12119.29
468.60	12423.56
468.78	12697.41
468.96	12318.24
469.14	12861.24
469.32	12868.27
469.50	12575.70
469.69	12830.82
469.87	13165.51
470.05	12879.97
470.23	13343.39
470.41	13104.66
470.59	13289.56
470.77	13256.79
470.95	13067.21
471.14	13504.89
471.32	13097.64
471.50	13692.13
471.68	13647.66
471.86	13647.66
472.04	13720.22
472.22	13886.40
472.40	13675.75
472.58	13584.47
472.77	14047.90
472.95	14075.98
473.13	14476.21
473.31	14050.24
473.49	14162.58
473.67	14164.92
473.85	14223.44
474.03	14511.32
474.21	14719.63
474.39	14689.20
474.57	14808.57
474.75	14738.35
474.93	14853.04
475.12	15089.43
475.30	15101.14
475.48	14981.77
475.66	14958.36
475.84	15300.08
476.02	15445.20
476.20	15473.28
476.38	15719.04
476.56	16039.69
476.74	15990.54
476.92	15751.81
477.10	15803.30
477.28	16035.01
477.46	16343.96
477.64	16236.30
477.82	16367.37
478.00	16776.96
478.18	16786.32
478.36	17034.42
478.54	16926.75
478.72	17341.03
478.90	17022.72
479.08	17287.20
479.26	17898.08
479.44	17806.80
479.62	17947.23
479.80	17947.23
479.98	18120.43
480.16	18705.56
480.34	18078.30
480.52	18726.63
480.70	18665.77
480.88	18518.32
481.06	18628.32
481.24	18434.06
481.41	18958.34
481.59	19419.42
481.77	19667.52
481.95	19625.39
482.13	19632.41
482.31	19679.22
482.49	20203.50
482.67	20264.36
482.85	20510.11
483.03	20596.71
483.21	20491.39
483.39	21001.63
483.57	20737.15
483.74	21165.46
483.92	21383.13
484.10	21446.33
484.28	21542.29
484.46	21869.97
484.64	22174.24
484.82	21900.39
485.00	22401.27
485.18	22504.25
485.35	23166.62
485.53	22808.52
485.71	22864.69
485.89	23274.29
486.07	22977.04
486.25	23271.95
486.43	23756.44
486.61	23697.92
486.78	23700.26
486.96	24318.17
487.14	24491.37
487.32	24669.25
487.50	24533.50
487.68	24779.25
487.85	25226.29
488.03	25277.79
488.21	25771.64
488.39	25560.99
488.57	26045.48
488.75	26099.31
488.92	26469.12
489.10	26441.03
489.28	26576.78
489.46	27395.97
489.64	26911.48
489.81	27679.18
489.99	27847.69
490.17	27407.67
490.35	28098.13
490.53	28245.58
490.70	28273.67
490.88	28109.83
491.06	28666.88
491.24	28636.45
491.41	28807.31
491.59	29186.48
491.77	28947.75
491.95	29427.56
492.13	29759.91
492.30	29575.01
492.48	29565.65
492.66	29706.08
492.84	30078.22
493.01	30700.81
493.19	30408.24
493.37	31047.21
493.54	30927.84
493.72	31407.65
493.90	31302.32
494.08	31178.28
494.25	31667.45
494.43	31688.51
494.61	32130.87
494.79	32636.43
494.96	32290.03
495.14	32751.12
495.32	33277.74
495.49	33326.89
495.67	33464.98
495.85	33514.13
496.02	33420.51
496.20	34155.44
496.38	34117.99
496.55	34110.97
496.73	34810.79
496.91	34604.82
497.09	34749.93
497.26	34906.75
497.44	35292.94
497.62	35393.58
497.79	35714.23
497.97	35381.88
498.14	35789.13
498.32	36006.80
498.50	36161.28
498.67	36421.08
498.85	36304.05
499.03	36849.39
499.20	36704.28
499.38	36975.78
499.56	37017.91
499.73	37067.06
499.91	36842.37
500.08	37567.94
500.26	37167.71
500.44	37486.02
500.61	38075.84
500.79	37376.01
500.97	37818.38
501.14	38396.49
501.32	38148.39
501.49	38543.94
501.67	38394.15
501.84	39063.54
502.02	38543.94
502.20	38944.17
502.37	39351.43
502.55	39084.61
502.72	39812.51
502.90	39229.72
503.07	39618.25
503.25	39786.77
503.43	39871.03
503.60	40044.23
503.78	40348.50
503.95	40116.78
504.13	40610.64
504.30	40348.50
504.48	40643.40
504.65	40491.27
504.83	40793.20
505.01	41471.95
505.18	41235.56
505.36	41900.27
505.53	41186.41
505.71	41546.85
505.88	41837.08
506.06	41284.71
506.23	42141.35
506.41	42038.36
506.58	41872.18
506.76	41551.53
506.93	42590.73
507.11	42288.80
507.28	42799.04
507.46	42602.43
507.63	42913.72
507.81	42862.23
507.98	42588.39
508.16	43440.34
508.33	43292.89
508.50	43491.83
508.68	43456.73
508.85	44105.06
509.03	43438.00
509.20	43779.72
509.38	44076.97
509.55	44271.23
509.73	44591.89
509.90	44669.12
510.08	44493.58
510.25	44594.23
510.42	44781.47
510.60	44994.46
510.77	45263.62
510.95	45338.52
511.12	45329.16
511.30	45315.11
511.47	45415.76
511.64	45291.71
511.82	45780.88
511.99	45944.72
512.17	46047.70
512.34	45851.09
512.51	46185.79
512.69	46492.40
512.86	46225.58
513.04	46377.72
513.21	46146.00
513.38	46597.73
513.56	46632.83
513.73	46391.76
513.90	47185.20
514.08	46831.78
514.25	47475.43
514.43	47250.74
514.60	47379.46
514.77	47732.89
514.95	47627.56
515.12	47508.19
515.29	47395.85
515.47	47704.80
515.64	48030.13
515.81	47767.99
515.99	48224.40
516.16	48371.85
516.33	48327.38
516.51	48299.30
516.68	47863.96
516.85	48484.20
517.03	48563.78
517.20	48589.52
517.37	48905.49
517.54	48844.64
517.72	48751.02
517.89	49177.00
518.06	48919.54
518.24	49022.52
518.41	49502.33
518.58	49244.87
518.75	49387.64
518.93	49113.80
519.10	49446.16
519.27	49441.48
519.45	49525.74
519.62	49984.48
519.79	49860.43
519.96	50188.11
520.14	50115.55
520.31	50211.51
520.48	50361.31
520.65	50277.05
520.83	50468.97
521.00	50688.98
521.17	50373.01
521.34	50274.71
521.52	50873.88
521.69	51121.98
521.86	50834.10
522.03	50831.75
522.20	51402.85
522.38	51297.52
522.55	51220.28
522.72	51470.72
522.89	51136.02
523.07	51657.96
523.24	51210.92
523.41	51693.07
523.58	51386.46
523.75	52200.97
523.92	51430.93
524.10	51772.65
524.27	52119.05
524.44	52018.41
524.61	52074.58
524.78	51955.21
524.96	52119.05
525.13	52200.97
525.30	52446.72
525.47	52463.11
525.64	52317.99
525.81	52598.86
525.98	52732.27
526.16	52437.36
526.33	52310.97
526.50	52844.62
526.67	52811.85
526.84	52830.57
527.01	53312.72
527.18	52954.62
527.36	52954.62
527.53	52973.34
527.70	53382.94
527.87	53378.26
528.04	53038.88
528.21	53303.36
528.38	53504.65
528.55	53485.92
528.72	53055.26
528.89	53415.71
529.07	53420.39
529.24	53364.21
529.41	53602.95
529.58	53371.24
529.75	53729.34
529.92	53621.67
530.09	53638.06
530.26	53996.16
530.43	54227.87
530.60	53631.04
530.77	53867.43
530.94	54078.08
531.11	54005.52
531.28	54061.69
531.46	54382.35
531.63	54106.16
531.80	54136.59
531.97	54454.90
532.14	54485.33
532.31	54679.60
532.48	54337.88
532.65	54372.99
532.82	54241.92
532.99	54394.05
533.16	54433.84
533.33	54801.30
533.50	54726.41
533.67	54693.64
533.84	54614.06
534.01	55089.19
534.18	54780.24
534.35	55103.23
534.52	54880.88
534.69	55341.97
534.86	54927.69
535.03	54684.28
535.20	55290.48
535.37	55332.60
535.54	55154.72
535.71	55138.34
535.88	55561.98
536.05	55547.93
536.22	55721.13
536.38	55686.03
536.55	55580.70
536.72	55384.10
536.89	55428.57
537.06	55320.90
537.23	55861.57
537.40	55412.18
537.57	55833.48
537.74	55758.58
537.91	55971.57
538.08	55852.20
538.25	55561.98
538.42	55751.56
538.59	56128.39
538.75	55833.48
538.92	55711.77
539.09	56067.53
539.26	55931.78
539.43	55906.04
539.60	56179.88
539.77	56224.35
539.94	56582.45
540.11	56072.21
540.28	56233.71
540.44	56264.14
540.61	56310.95
540.78	56458.40
540.95	56554.36
541.12	56399.89
541.29	56427.98
541.46	56250.09
541.62	56357.76
541.79	56692.46
541.96	56502.87
542.13	56598.83
542.30	56715.86
542.47	56687.78
542.63	56781.40
542.80	56837.57
542.97	57045.88
543.14	57272.91
543.31	57209.71
543.48	57256.53
543.64	57462.49
543.81	57226.10
543.98	57291.63
544.15	57373.55
544.32	57457.81
544.48	57354.83
544.65	57345.47
544.82	57326.74
544.99	57043.54
545.16	57502.28
545.32	57460.15
545.49	57640.37
545.66	57893.15
545.83	57415.68
546.00	57677.82
546.16	57532.71
546.33	57368.87
546.50	57375.89
546.67	57778.46
546.83	57478.88
547.00	57766.76
547.17	57626.33
547.34	57612.29
547.50	57951.66
547.67	57921.24
547.84	57982.09
548.00	58000.82
548.17	58045.29
548.34	57996.13
548.51	58066.35
548.67	58293.38
548.84	58080.39
549.01	57911.88
549.18	58141.25
549.34	58089.76
549.51	58281.68
549.68	58169.33
549.84	58152.95
550.01	58262.96
550.18	58157.63
550.34	58398.71
550.51	58377.64
550.68	58372.96
550.84	58094.44
551.01	58475.94
551.18	58342.53
551.34	58410.41
551.51	58520.41
551.68	58468.92
551.84	58543.82
552.01	58265.30
552.18	58506.37
552.34	58480.63
552.51	58525.10
552.68	58597.65
552.84	58693.61
553.01	58960.44
553.18	58766.17
553.34	58803.62
553.51	58707.66
553.67	58642.12
553.84	59035.33
554.01	59018.95
554.17	59143.00
554.34	58878.52
554.51	59100.87
554.67	58927.67
554.84	58948.73
555.00	58880.86
555.17	58782.55
555.33	58869.15
555.50	58941.71
555.67	58831.71
555.83	58993.20
556.00	59030.65
556.16	59355.99
556.33	59173.42
556.50	59267.05
556.66	59405.14
556.83	59128.95
556.99	59292.79
557.16	59423.86
557.32	59416.84
557.49	59508.12
557.65	59428.54
557.82	59344.28
557.98	59529.19
558.15	59325.56
558.32	59456.63
558.48	59430.88
558.65	59512.80
558.81	59620.47
558.98	59583.02
559.14	59327.90
559.31	59664.94
559.47	59480.03
559.64	59564.29
559.80	59606.42
559.97	59749.20
560.13	59508.12
560.30	59686.00
560.46	59749.20
560.63	59896.65
560.79	59723.45
560.96	59746.86
561.12	59709.41
561.29	59866.22
561.45	59882.61
561.61	59770.26
561.78	59793.67
561.94	59894.31
562.11	59746.86
562.27	59788.98
562.44	59791.33
562.60	59983.25
562.77	59913.03
562.93	59742.17
563.10	59952.82
563.26	59812.39
563.42	60030.06
563.59	59957.50
563.75	59772.60
563.92	60088.57
564.08	59917.71
564.24	60016.02
564.41	60011.34
564.57	59861.54
564.74	60093.25
564.90	60128.36
565.07	60032.40
565.23	59884.95
565.39	60016.02
565.56	60191.56
565.72	59903.67
565.88	60083.89
566.05	60252.41
566.21	60205.60
566.38	60020.70
566.54	60189.22
566.70	60449.02
566.87	60266.45
567.03	60030.06
567.19	60317.95
567.36	60416.25
567.52	60172.83
567.68	60413.91
567.85	60287.52
568.01	60388.16
568.17	60247.73
568.34	60439.65
568.50	60301.56
568.66	60315.61
568.83	60313.26
568.99	60294.54
569.15	60315.61
569.32	60308.58
569.48	60198.58
569.64	60559.02
569.81	60418.59
569.97	60165.81
570.13	60432.63
570.30	60275.82
570.46	60392.84
570.62	60320.29
570.78	60479.44
570.95	60556.68
571.11	60472.42
571.27	60294.54
571.43	60484.12
571.60	60523.91
571.76	60348.37
571.92	60563.70
572.09	60409.23
572.25	60577.75
572.41	60566.04
572.57	60561.36
572.74	60645.62
572.90	60385.82
573.06	60664.35
573.22	60465.40
573.38	60507.53
573.55	60566.04
573.71	60870.31
573.87	60715.84
574.03	60502.85
574.20	60605.83
574.36	60486.46
574.52	60657.32
574.68	60750.94
574.84	60786.05
575.01	60552.00
575.17	60676.05
575.33	60470.08
575.49	60589.45
575.65	60814.14
575.82	60788.39
575.98	60816.48
576.14	60807.12
576.30	60982.66
576.46	60811.80
576.62	60678.39
576.79	60800.10
576.95	60570.72
577.11	60692.43
577.27	60774.35
577.43	60814.14
577.59	60753.29
577.75	60830.52
577.92	60568.38
578.08	60666.69
578.24	60975.64
578.40	60898.40
578.56	60743.92
578.72	60835.20
578.88	61010.74
579.04	61144.16
579.21	60804.78
579.37	61001.38
579.53	60893.72
579.69	60715.84
579.85	60610.51
580.01	60917.12
580.17	60790.73
580.33	60985.00
580.49	60959.25
580.65	60825.84
580.82	60800.10
580.98	60690.09
581.14	60584.77
581.30	60940.53
581.46	60846.91
581.62	61020.11
581.78	60781.37
581.94	60690.09
582.10	60874.99
582.26	60762.65
582.42	60970.96
582.58	60783.71
582.74	60718.18
582.90	60926.49
583.06	61052.87
583.22	60722.86
583.38	60673.71
583.54	60994.36
583.70	60898.40
583.86	61080.96
584.02	60891.38
584.18	60992.02
584.34	60982.66
584.50	61010.74
584.66	60807.12
584.82	60750.94
584.98	61132.45
585.14	61043.51
585.30	60856.27
585.46	61130.11
585.62	60846.91
585.78	61031.81
585.94	60830.52
586.10	60980.32
586.26	61181.60
586.42	61048.19
586.58	60846.91
586.74	60959.25
586.90	60725.20
587.06	60893.72
587.22	61190.97
587.38	60926.49
587.54	61062.24
587.70	61212.03
587.86	61066.92
588.02	60905.42
588.18	61116.07
588.34	61010.74
588.49	60994.36
