SpectraSuite Data File
++++++++++++++++++++++++++++++++++++
Date: Fri Oct 25 10:44:40 EDT 2013
User: price-jones
Dark Spectrum Present: No
Reference Spectrum Present: No
Number of Sampled Component Spectra: 1
Spectrometers: USB2+H05261
Integration Time (usec): 100000 (USB2+H05261)
Spectra Averaged: 1 (USB2+H05261)
Boxcar Smoothing: 0 (USB2+H05261)
Correct for Electrical Dark: No (USB2+H05261)
Strobe/Lamp Enabled: No (USB2+H05261)
Correct for Detector Non-linearity: No (USB2+H05261)
Correct for Stray Light: No (USB2+H05261)
Number of Pixels in Processed Spectrum: 2048
>>>>>Begin Processed Spectral Data<<<<<
365.73	100.64
365.92	100.64
366.12	100.64
366.32	86.60
366.52	25.75
366.72	49.15
366.91	0.00
367.11	79.58
367.31	4.68
367.51	42.13
367.70	0.00
367.90	70.22
368.10	2.34
368.30	65.54
368.49	23.41
368.69	67.88
368.89	53.83
369.09	51.49
369.28	30.43
369.48	42.13
369.68	53.83
369.87	35.11
370.07	135.75
370.27	126.39
370.47	138.09
370.66	367.46
370.86	390.87
371.06	437.68
371.25	477.47
371.45	423.64
371.65	444.70
371.84	493.85
372.04	395.55
372.24	458.74
372.44	479.81
372.63	468.11
372.83	557.05
373.03	475.13
373.22	479.81
373.42	521.94
373.62	559.39
373.81	559.39
374.01	526.62
374.21	620.24
374.40	468.11
374.60	540.66
374.79	606.20
374.99	517.26
375.19	547.69
375.38	531.30
375.58	566.41
375.78	540.66
375.97	624.92
376.17	664.71
376.37	571.09
376.56	634.29
376.76	510.24
376.95	566.41
377.15	587.47
377.35	641.31
377.54	592.16
377.74	535.98
377.93	615.56
378.13	543.00
378.33	676.41
378.52	608.54
378.72	557.05
378.91	645.99
379.11	512.58
379.31	592.16
379.50	613.22
379.70	587.47
379.89	678.76
380.09	648.33
380.28	688.12
380.48	622.58
380.68	674.07
380.87	711.52
381.07	571.09
381.26	617.90
381.46	664.71
381.65	681.10
381.85	660.03
382.04	660.03
382.24	716.20
382.43	697.48
382.63	624.92
382.83	608.54
383.02	713.86
383.22	655.35
383.41	620.24
383.61	706.84
383.80	699.82
384.00	671.73
384.19	674.07
384.39	676.41
384.58	662.37
384.78	744.29
384.97	781.74
385.17	730.25
385.36	692.80
385.56	748.97
385.75	718.54
385.95	732.59
386.14	765.36
386.34	763.01
386.53	737.27
386.72	744.29
386.92	809.83
387.11	784.08
387.31	844.93
387.50	709.18
387.70	814.51
387.89	814.51
388.09	751.31
388.28	828.55
388.48	849.61
388.67	816.85
388.86	842.59
389.06	875.36
389.25	978.34
389.45	924.51
389.64	919.83
389.84	875.36
390.03	950.26
390.22	952.60
390.42	861.32
390.61	910.47
390.81	931.53
391.00	901.11
391.19	903.45
391.39	983.02
391.58	1060.26
391.78	891.74
391.97	931.53
392.16	1020.47
392.36	966.64
392.55	940.90
392.75	990.05
392.94	1004.09
393.13	1006.43
393.33	980.68
393.52	1008.77
393.71	1069.62
393.91	1020.47
394.10	997.07
394.29	1074.31
394.49	1008.77
394.68	1008.77
394.88	1135.16
395.07	1200.69
395.26	1069.62
395.46	1104.73
395.65	1086.01
395.84	1057.92
396.04	1118.78
396.23	1064.94
396.42	1090.69
396.62	1116.44
396.81	1104.73
397.00	1114.10
397.19	1277.93
397.39	1226.44
397.58	1242.82
397.77	1261.55
397.97	1245.16
398.16	1259.21
398.35	1207.72
398.55	1287.29
398.74	1256.87
398.93	1296.66
399.12	1308.36
399.32	1233.46
399.51	1423.05
399.70	1261.55
399.90	1324.74
400.09	1399.64
400.28	1465.18
400.47	1437.09
400.67	1401.98
400.86	1362.19
401.05	1437.09
401.24	1544.75
401.44	1474.54
401.63	1598.59
401.82	1558.80
402.01	1502.62
402.21	1533.05
402.40	1519.01
402.59	1558.80
402.78	1636.03
402.97	1617.31
403.17	1507.30
403.36	1565.82
403.55	1465.18
403.74	1591.56
403.93	1572.84
404.13	1554.12
404.32	1633.69
404.51	1563.48
404.70	1619.65
404.89	1734.34
405.09	1661.78
405.28	1645.40
405.47	1743.70
405.66	1755.40
405.85	1687.53
406.05	1795.19
406.24	1830.30
406.43	1825.62
406.62	1764.76
406.81	1823.28
407.00	1830.30
407.20	1809.23
407.39	1827.96
407.58	1886.47
407.77	1900.52
407.96	1879.45
408.15	1970.73
408.34	2001.16
408.54	1975.41
408.73	1837.32
408.92	1942.64
409.11	1959.03
409.30	2113.50
409.49	2052.65
409.68	2080.74
409.87	1989.46
410.07	2047.97
410.26	2118.18
410.45	2062.01
410.64	2186.06
410.83	2188.40
411.02	2202.44
411.21	2260.96
411.40	2181.38
411.59	2237.55
411.78	2225.85
411.98	2188.40
412.17	2345.22
412.36	2307.77
412.55	2417.77
412.74	2385.01
412.93	2443.52
413.12	2389.69
413.31	2490.33
413.50	2429.48
413.69	2530.12
413.88	2558.21
414.07	2544.16
414.26	2567.57
414.45	2551.18
414.64	2562.89
414.83	2572.25
415.02	2738.43
415.22	2881.20
415.41	2677.57
415.60	2600.34
415.79	2806.30
415.98	2892.90
416.17	2792.26
416.36	2836.73
416.55	2710.34
416.74	2867.16
416.93	2843.75
417.12	2906.95
417.31	2925.67
417.50	2867.16
417.69	3180.79
417.88	3038.02
418.07	3045.04
418.26	2956.10
418.45	3054.40
418.64	3302.50
418.83	3143.34
419.02	3243.98
419.21	3260.37
419.39	3300.16
419.58	3056.74
419.77	3075.46
419.96	3356.33
420.15	3382.07
420.34	3258.03
420.53	3279.09
420.72	3431.23
420.91	3529.53
421.10	3403.14
421.29	3440.59
421.48	3405.48
421.67	3445.27
421.86	3358.67
422.05	3393.78
422.24	3339.94
422.43	3265.05
422.61	3552.93
422.80	3482.72
422.99	3382.07
423.18	3375.05
423.37	3468.67
423.56	3524.85
423.75	3478.04
423.94	3417.18
424.13	3300.16
424.32	3389.10
424.50	3583.36
424.69	3543.57
424.88	3723.79
425.07	3449.95
425.26	3522.51
425.45	3510.80
425.64	3637.19
425.83	3485.06
426.01	3550.59
426.20	3676.98
426.39	3478.04
426.58	3660.60
426.77	3566.98
426.96	3667.62
427.15	3726.13
427.33	3688.68
427.52	3733.15
427.71	3798.69
427.90	3595.06
428.09	3805.71
428.28	3756.56
428.46	3761.24
428.65	3730.81
428.84	3836.14
429.03	3969.55
429.22	3742.52
429.40	3686.34
429.59	3864.22
429.78	3728.47
429.97	3529.53
430.16	3660.60
430.34	3695.71
430.53	4011.68
430.72	3934.44
430.91	3990.61
431.10	3906.35
431.28	4074.87
431.47	4161.47
431.66	4037.42
431.85	3957.85
432.03	4194.24
432.22	4329.99
432.41	4079.55
432.60	4191.90
432.79	4166.15
432.97	4290.20
433.16	4112.32
433.35	4259.78
433.54	4252.75
433.72	4301.90
433.91	4301.90
434.10	4374.46
434.28	4397.87
434.47	4294.88
434.66	4397.87
434.85	4402.55
435.03	4435.32
435.22	4402.55
435.41	4564.04
435.59	4709.16
435.78	4660.01
435.97	4657.67
436.16	4383.82
436.34	4461.06
436.53	4554.68
436.72	4652.98
436.90	4507.87
437.09	4610.86
437.28	4432.97
437.46	4500.85
437.65	4578.09
437.84	4793.42
438.02	4589.79
438.21	4688.09
438.40	4681.07
438.58	4723.20
438.77	4842.57
438.96	4926.83
439.14	5041.51
439.33	5020.45
439.52	5088.32
439.70	5076.62
439.89	5179.61
440.08	5067.26
440.26	5249.82
440.45	5224.08
440.63	5167.90
440.82	5348.12
441.01	5301.31
441.19	5460.47
441.38	5369.19
441.57	5537.71
441.75	5575.16
441.94	5626.65
442.12	5731.97
442.31	5647.71
442.50	5792.83
442.68	5584.52
442.87	5694.52
443.05	5584.52
443.24	5846.66
443.43	5734.31
443.61	5750.70
443.80	5888.79
443.98	5654.73
444.17	5434.72
444.35	5760.06
444.54	5638.35
444.73	5846.66
444.91	5792.83
445.10	5713.25
445.28	5783.46
445.47	5652.39
445.65	5825.59
445.84	5750.70
446.02	5860.70
446.21	5905.17
446.39	5816.23
446.58	5966.03
446.77	6087.73
446.95	5827.93
447.14	6038.58
447.32	6026.88
447.51	5961.34
447.69	5956.66
447.88	5994.11
448.06	5893.47
448.25	6019.86
448.43	5832.62
448.62	5956.66
448.80	6012.84
448.99	6097.10
449.17	6106.46
449.36	6132.20
449.54	6153.27
449.73	6333.49
449.91	6389.66
450.10	6246.89
450.28	6333.49
450.46	6434.13
450.65	6370.94
450.83	6413.07
451.02	6532.44
451.20	6413.07
451.39	6420.09
451.57	6424.77
451.76	6569.88
451.94	6548.82
452.13	6560.52
452.31	6525.41
452.49	6427.11
452.68	6499.67
452.86	6417.75
453.05	6600.31
453.23	6516.05
453.42	6541.80
453.60	6525.41
453.78	6743.08
453.97	6754.79
454.15	6651.80
454.34	6677.55
454.52	6916.28
454.70	6579.25
454.89	6850.75
455.07	6715.00
455.26	6787.55
455.44	7047.35
455.62	6876.49
455.81	6871.81
455.99	7164.38
456.17	6958.41
456.36	6899.90
456.54	7045.01
456.73	7185.44
456.91	7372.69
457.09	7311.83
457.28	7246.30
457.46	7140.97
457.64	7372.69
457.83	7140.97
458.01	7140.97
458.19	7307.15
458.38	7279.07
458.56	7360.98
458.74	7295.45
458.93	7466.31
459.11	7541.21
459.29	7548.23
459.48	7541.21
459.66	7482.69
459.84	7520.14
460.03	7676.96
460.21	7583.34
460.39	7674.62
460.57	7428.86
460.76	7543.55
460.94	7641.85
461.12	7761.22
461.31	7705.04
461.49	7754.19
461.67	7824.41
461.85	8032.72
462.04	8053.78
462.22	8074.85
462.40	8058.46
462.59	7824.41
462.77	7920.37
462.95	8021.02
463.13	7850.16
463.32	8018.68
463.50	8081.87
463.68	8205.92
463.86	7992.93
464.05	8145.06
464.23	7988.25
464.41	8177.83
464.59	8051.44
464.78	8301.88
464.96	8322.94
465.14	8063.15
465.32	8306.56
465.50	8458.70
465.69	8519.55
465.87	8224.64
466.05	8098.25
466.23	8280.82
466.41	8336.99
466.60	8496.14
466.78	8442.31
466.96	8376.78
467.14	8589.77
467.32	8273.79
467.51	8575.72
467.69	8329.97
467.87	8484.44
468.05	8561.68
468.23	8557.00
468.41	8561.68
468.60	8575.72
468.78	8674.03
468.96	8472.74
469.14	8645.94
469.32	8571.04
469.50	8561.68
469.69	8676.37
469.87	8791.05
470.05	8877.65
470.23	8870.63
470.41	8922.12
470.59	9092.98
470.77	8931.48
470.95	8957.23
471.14	9217.03
471.32	9238.09
471.50	9397.25
471.68	9345.76
471.86	9214.69
472.04	9378.53
472.22	9397.25
472.40	9247.46
472.58	9535.34
472.77	9341.08
472.95	9472.15
473.13	9703.86
473.31	9558.75
473.49	9530.66
473.67	9689.82
473.85	9643.01
474.03	9853.66
474.21	9940.26
474.39	9970.68
474.57	9949.62
474.75	9921.53
474.93	10230.48
475.12	10125.16
475.30	10277.29
475.48	10094.73
475.66	10211.76
475.84	10171.97
476.02	10431.77
476.20	10352.19
476.38	10471.56
476.56	10743.06
476.74	10792.21
476.92	10595.61
477.10	10902.22
477.28	10951.37
477.46	10895.19
477.64	11021.58
477.82	11030.94
478.00	11510.75
478.18	11260.32
478.36	11377.34
478.54	11559.91
478.72	11655.87
478.90	11854.81
479.08	11646.51
479.26	11939.07
479.44	11852.47
479.62	11957.80
479.80	12140.36
479.98	12006.95
480.16	12510.16
480.34	12308.88
480.52	12643.57
480.70	12463.35
480.88	12521.87
481.06	12423.56
481.24	12636.55
481.41	12903.37
481.59	13158.49
481.77	12769.96
481.95	13123.38
482.13	13298.92
482.31	12980.61
482.49	13563.40
482.67	13582.13
482.85	13525.96
483.03	13717.88
483.21	13795.12
483.39	13942.57
483.57	14204.71
483.74	14466.85
483.92	14106.41
484.10	14127.47
484.28	14300.67
484.46	14855.38
484.64	14593.24
484.82	14796.87
485.00	14572.18
485.18	14904.53
485.35	15192.42
485.53	14874.10
485.71	15012.20
485.89	15208.80
486.07	15255.61
486.25	15484.98
486.43	15293.06
486.61	15630.10
486.78	16056.08
486.96	15733.08
487.14	16203.53
487.32	16184.80
487.50	16521.84
487.68	16606.10
487.85	16826.11
488.03	16936.12
488.21	17322.30
488.39	17343.37
488.57	17216.98
488.75	17296.56
488.92	17614.87
489.10	17788.07
489.28	17596.15
489.46	17851.27
489.64	18005.74
489.81	18305.33
489.99	18127.45
490.17	18530.02
490.35	18515.98
490.53	18031.49
490.70	18775.78
490.88	18881.10
491.06	19197.07
491.24	18995.79
491.41	19096.43
491.59	19297.72
491.77	19311.76
491.95	19363.25
492.13	19587.94
492.30	20002.22
492.48	19580.92
492.66	19674.54
492.84	19964.77
493.01	20016.26
493.19	20259.68
493.37	20416.49
493.54	20336.91
493.72	20659.91
493.90	20706.72
494.08	20645.87
494.25	21050.78
494.43	21193.55
494.61	21343.35
494.79	21366.75
494.96	21460.37
495.14	21558.67
495.32	21823.16
495.49	21624.21
495.67	21689.74
495.85	21940.18
496.02	22038.48
496.20	22232.75
496.38	22382.54
496.55	22221.05
496.73	22918.53
496.91	22672.77
497.09	22445.74
497.26	22995.76
497.44	23208.75
497.62	23115.13
497.79	23253.22
497.97	23042.57
498.14	23384.29
498.32	23337.48
498.50	23740.05
498.67	23737.71
498.85	23735.37
499.03	24063.05
499.20	23957.72
499.38	24154.33
499.56	24203.48
499.73	24081.77
499.91	24369.66
500.08	24364.98
500.26	24294.76
500.44	24629.46
500.61	24383.70
500.79	24477.32
500.97	25048.41
501.14	25366.73
501.32	24886.92
501.49	25184.16
501.67	25160.76
501.84	25263.74
502.02	25413.54
502.20	25680.36
502.37	25759.94
502.55	25493.12
502.72	25799.73
502.90	25776.32
503.07	25338.64
503.25	25825.47
503.43	25724.83
503.60	26335.71
503.78	25954.20
503.95	25998.67
504.13	26216.34
504.30	26431.67
504.48	26845.94
504.65	26654.02
504.83	26895.10
505.01	26995.74
505.18	26909.14
505.36	27449.80
505.53	27349.16
505.71	27218.09
505.88	27108.08
506.06	26841.26
506.23	27211.07
506.41	27229.79
506.58	27805.56
506.76	27714.28
506.93	28058.34
507.11	27520.02
507.28	27445.12
507.46	27882.80
507.63	28046.64
507.81	27845.35
507.98	28133.24
508.16	28229.20
508.33	28346.23
508.50	28435.17
508.68	28334.53
508.85	28943.06
509.03	28596.67
509.20	28811.99
509.38	28748.80
509.55	28877.53
509.73	28835.40
509.90	28961.79
510.08	28692.63
510.25	29383.09
510.42	29270.74
510.60	29167.76
510.77	29441.60
510.95	29766.93
511.12	29727.14
511.30	29563.31
511.47	30059.50
511.64	29923.75
511.82	29979.92
511.99	29919.07
512.17	30272.49
512.34	29919.07
512.51	30340.36
512.69	30370.79
512.86	30590.80
513.04	30815.49
513.21	30284.19
513.38	30314.62
513.56	30644.63
513.73	30602.50
513.90	30637.61
514.08	30539.31
514.25	31040.18
514.43	30565.06
514.60	30895.07
514.77	31136.15
514.95	31129.12
515.12	31377.22
515.29	31431.05
515.47	31690.85
515.64	31665.11
515.81	31421.69
515.99	31515.31
516.16	31456.80
516.33	31178.28
516.51	31728.30
516.68	31681.49
516.85	31606.59
517.03	31393.61
517.20	31737.66
517.37	31728.30
517.54	31873.42
517.72	32390.67
517.89	31887.46
518.06	31943.63
518.24	32470.25
518.41	32184.71
518.58	32357.91
518.75	32364.93
518.93	32872.82
519.10	32645.79
519.27	32542.81
519.45	32823.67
519.62	32737.07
519.79	32961.76
519.96	33296.46
520.14	33270.72
520.31	32807.29
520.48	33401.79
520.65	32898.57
520.83	34036.07
521.00	33399.44
521.17	33783.29
521.34	34040.75
521.52	33883.94
521.69	33811.38
521.86	33757.55
522.03	33757.55
522.20	34113.31
522.38	34125.01
522.55	34419.92
522.72	33869.89
522.89	34007.98
523.07	34132.03
523.24	33830.10
523.41	34326.30
523.58	34405.88
523.75	34576.73
523.92	34946.54
524.10	34668.02
524.27	34836.53
524.44	34834.19
524.61	34663.33
524.78	35108.04
524.96	35262.51
525.13	34983.99
525.30	34941.86
525.47	35559.76
525.64	35196.98
525.81	35152.51
525.98	35311.66
526.16	34993.35
526.33	35180.59
526.50	35278.89
526.67	34665.67
526.84	35246.13
527.01	35407.62
527.18	35255.49
527.36	35637.00
527.53	36032.55
527.70	36245.54
527.87	35779.77
528.04	36023.19
528.21	35672.10
528.38	35988.08
528.55	36622.36
528.72	36341.50
528.89	36390.65
529.07	36261.92
529.24	36011.48
529.41	36451.50
529.58	36208.09
529.75	36280.64
529.92	36212.77
530.09	36297.03
530.26	36624.70
530.43	36818.97
530.60	36694.92
530.77	36397.67
530.94	37191.11
531.11	36385.97
531.28	36940.68
531.46	37453.25
531.63	37027.28
531.80	36804.92
531.97	36917.27
532.14	36830.67
532.31	37062.38
532.48	37308.14
532.65	37537.51
532.82	37383.04
532.99	37483.68
533.16	36861.10
533.33	37816.04
533.50	37383.04
533.67	37914.34
533.84	37626.45
534.01	37900.29
534.18	37434.53
534.35	38075.84
534.52	37502.40
534.69	37867.53
534.86	38134.35
535.03	37865.19
535.20	38319.25
535.37	38415.21
535.54	38644.59
535.71	38106.26
535.88	38202.22
536.05	37928.38
536.22	38469.04
536.38	38724.16
536.55	38569.69
536.72	38391.81
536.89	38230.31
537.06	38340.32
537.23	38993.32
537.40	38848.21
537.57	38485.43
537.74	38899.70
537.91	39061.20
538.08	38960.56
538.25	39035.45
538.42	38541.60
538.59	39215.68
538.75	38773.31
538.92	38962.90
539.09	38904.38
539.26	38857.57
539.43	38637.56
539.60	38780.34
539.77	39037.80
539.94	38810.76
540.11	38920.77
540.28	39267.17
540.44	39435.69
540.61	38965.24
540.78	39423.98
540.95	39089.29
541.12	38986.30
541.29	39271.85
541.46	39512.92
541.62	39583.14
541.79	39665.06
541.96	39309.30
542.13	39515.26
542.30	39859.32
542.47	39590.16
542.63	39826.56
542.80	40112.10
542.97	39992.73
543.14	40149.55
543.31	39775.06
543.48	40561.48
543.64	40229.13
543.81	40205.72
543.98	40517.01
544.15	40751.07
544.32	40540.42
544.48	40882.14
544.65	40404.67
544.82	40030.18
544.99	40699.58
545.16	40786.18
545.32	40418.71
545.49	40814.26
545.66	40804.90
545.83	40526.38
546.00	40783.83
546.16	40720.64
546.33	40837.67
546.50	40718.30
546.67	40938.31
546.83	40900.86
547.00	40980.44
547.17	41003.85
547.34	40947.67
547.50	41043.63
547.67	41357.27
547.84	41411.10
548.00	41769.20
548.17	41633.45
548.34	41352.58
548.51	41752.82
548.67	41731.75
548.84	41542.17
549.01	41263.64
549.18	41684.94
549.34	41570.25
549.51	41439.18
549.68	41750.48
549.84	41706.01
550.01	41647.49
550.18	41755.16
550.34	41532.81
550.51	41874.52
550.68	41701.32
550.84	41493.02
551.01	42071.13
551.18	41708.35
551.34	41837.08
551.51	42115.60
551.68	41493.02
551.84	42073.47
552.01	41603.02
552.18	42124.96
552.34	41619.41
552.51	41598.34
552.68	42050.06
552.84	42550.94
553.01	42419.87
553.18	42019.64
553.34	42431.57
553.51	42068.79
553.67	42293.48
553.84	42674.99
554.01	42609.45
554.17	42560.30
554.34	42836.48
554.51	42387.10
554.67	42862.23
554.84	42562.64
555.00	42440.93
555.17	42572.00
555.33	42660.94
555.50	42466.68
555.67	42466.68
555.83	42808.40
556.00	42485.40
556.16	43042.45
556.33	42438.59
556.50	42944.15
556.66	43056.50
556.83	42178.79
556.99	43002.66
557.16	43086.92
557.32	43140.75
557.49	42995.64
557.65	42595.41
557.82	43161.82
557.98	42953.51
558.15	43035.43
558.32	43414.60
558.48	42588.39
558.65	42677.33
558.81	42873.93
558.98	42909.04
559.14	43194.59
559.31	43100.97
559.47	43180.54
559.64	43316.29
559.80	43225.01
559.97	42899.68
560.13	42913.72
560.30	43409.92
560.46	42866.91
560.63	43337.36
560.79	43613.54
560.96	43625.25
561.12	43222.67
561.29	43290.55
561.45	42997.98
561.61	43744.61
561.78	43828.87
561.94	43077.56
562.11	43105.65
562.27	43365.45
562.44	43012.02
562.60	43892.07
562.77	43496.52
562.93	43606.52
563.10	43791.42
563.26	43297.57
563.42	43643.97
563.59	43562.05
563.75	43220.33
563.92	44142.50
564.08	43461.41
564.24	43487.15
564.41	43629.93
564.57	43442.68
564.74	43576.09
564.90	43540.99
565.07	43423.96
565.23	43758.66
565.39	43157.14
565.56	44018.46
565.72	43608.86
565.88	43461.41
566.05	43863.98
566.21	44083.99
566.38	43524.60
566.54	43789.08
566.70	43730.57
566.87	44088.67
567.03	43910.79
567.19	44411.67
567.36	43955.26
567.52	43700.14
567.68	44236.12
567.85	43716.53
568.01	44016.11
568.17	44072.29
568.34	44210.38
568.50	43662.69
568.66	43976.33
568.83	43943.56
568.99	43344.38
569.15	43562.05
569.32	43498.86
569.48	43831.21
569.64	44273.57
569.81	43957.60
569.97	44081.65
570.13	44196.34
570.30	43838.23
570.46	44126.12
570.62	43487.15
570.78	43868.66
570.95	43674.40
571.11	44229.10
571.27	44051.22
571.43	44002.07
571.60	43768.02
571.76	43847.60
571.92	43985.69
572.09	44119.10
572.25	44226.76
572.41	43686.10
572.57	44163.57
572.74	44107.40
572.90	43931.86
573.06	44170.59
573.22	43761.00
573.38	44023.14
573.55	44114.42
573.71	44067.61
573.87	44196.34
574.03	43856.96
574.20	44119.10
574.36	44055.90
574.52	44175.27
574.68	44343.79
574.84	44236.12
575.01	44142.50
575.17	44362.51
575.33	43646.31
575.49	44081.65
575.65	44289.96
575.82	44350.81
575.98	44128.46
576.14	44215.06
576.30	44191.65
576.46	43997.39
576.62	44076.97
576.79	44353.15
576.95	44004.41
577.11	44327.41
577.27	44252.51
577.43	44498.26
577.59	44137.82
577.75	44212.72
577.92	43632.27
578.08	44168.25
578.24	44058.24
578.40	44093.35
578.56	44186.97
578.72	44201.02
578.88	44273.57
579.04	44421.03
579.21	44650.40
579.37	44182.29
579.53	44306.34
579.69	44378.90
579.85	44030.16
580.01	44755.72
580.17	44058.24
580.33	44252.51
580.49	43936.54
580.65	44446.77
580.82	44435.07
580.98	44250.17
581.14	44240.81
581.30	44486.56
581.46	44065.27
581.62	44891.48
581.78	44158.89
581.94	44594.23
582.10	43892.07
582.26	44418.69
582.42	44348.47
582.58	44147.18
582.74	44201.02
582.90	44435.07
583.06	44552.10
583.22	44172.93
583.38	44889.13
583.54	44212.72
583.70	43920.15
583.86	44252.51
584.02	44032.50
584.18	44236.12
584.34	44362.51
584.50	44414.01
584.66	43828.87
584.82	44041.86
584.98	44535.71
585.14	44634.02
585.30	44509.97
585.46	44594.23
585.62	44554.44
585.78	44486.56
585.94	44442.09
586.10	44196.34
586.26	44308.68
586.42	44591.89
586.58	44205.70
586.74	44575.50
586.90	44266.55
587.06	44189.31
587.22	44587.21
587.38	43863.98
587.54	44184.63
587.70	44652.74
587.86	44746.36
588.02	44346.13
588.18	44879.77
588.34	44559.12
588.49	43964.62
588.65	44203.36
588.81	44528.69
588.97	44383.58
589.13	44177.61
589.29	44320.38
589.45	44409.32
589.61	44079.31
589.77	44655.08
589.93	44238.47
590.08	45106.80
590.24	44907.86
