SpectraSuite Data File
++++++++++++++++++++++++++++++++++++
Date: Fri Oct 25 11:25:02 EDT 2013
User: price-jones
Dark Spectrum Present: No
Reference Spectrum Present: No
Number of Sampled Component Spectra: 1
Spectrometers: USB2+H05261
Integration Time (usec): 100000 (USB2+H05261)
Spectra Averaged: 1 (USB2+H05261)
Boxcar Smoothing: 0 (USB2+H05261)
Correct for Electrical Dark: No (USB2+H05261)
Strobe/Lamp Enabled: No (USB2+H05261)
Correct for Detector Non-linearity: No (USB2+H05261)
Correct for Stray Light: No (USB2+H05261)
Number of Pixels in Processed Spectrum: 2048
>>>>>Begin Processed Spectral Data<<<<<
365.73	278.52
365.92	278.52
366.12	278.52
366.32	224.69
366.52	152.13
366.72	187.24
366.91	149.79
367.11	177.88
367.31	110.01
367.51	227.03
367.70	147.45
367.90	152.13
368.10	147.45
368.30	138.09
368.49	166.18
368.69	173.20
368.89	208.31
369.09	203.63
369.28	201.29
369.48	119.37
369.68	168.52
369.87	159.16
370.07	156.82
370.27	255.12
370.47	365.12
370.66	608.54
370.86	580.45
371.06	688.12
371.25	655.35
371.45	601.52
371.65	683.44
371.84	732.59
372.04	631.94
372.24	741.95
372.44	732.59
372.63	734.93
372.83	716.20
373.03	725.57
373.22	758.33
373.42	653.01
373.62	753.65
373.81	828.55
374.01	875.36
374.21	842.59
374.40	833.23
374.60	901.11
374.79	802.80
374.99	816.85
375.19	814.51
375.38	837.91
375.58	835.57
375.78	915.15
375.97	917.49
376.17	898.77
376.37	833.23
376.56	908.13
376.76	940.90
376.95	847.27
377.15	840.25
377.35	908.13
377.54	945.58
377.74	987.71
377.93	954.94
378.13	882.38
378.33	950.26
378.52	844.93
378.72	891.74
378.91	898.77
379.11	976.00
379.31	987.71
379.50	990.05
379.70	1006.43
379.89	976.00
380.09	938.55
380.28	954.94
380.48	992.39
380.68	1011.11
380.87	985.37
381.07	1034.52
381.26	1069.62
381.46	987.71
381.65	1015.79
381.85	1041.54
382.04	1053.24
382.24	1015.79
382.43	1107.07
382.63	1032.18
382.83	1060.26
383.02	1146.86
383.22	1123.46
383.41	1095.37
383.61	1057.92
383.80	1170.27
384.00	1135.16
384.19	1071.97
384.39	1102.39
384.58	1149.20
384.78	1172.61
384.97	1109.41
385.17	1078.99
385.36	1193.67
385.56	1167.93
385.75	1139.84
385.95	1226.44
386.14	1245.16
386.34	1144.52
386.53	1217.08
386.72	1252.19
386.92	1186.65
387.11	1299.00
387.31	1282.61
387.50	1198.35
387.70	1322.40
387.89	1210.06
388.09	1242.82
388.28	1252.19
388.48	1200.69
388.67	1317.72
388.86	1334.11
389.06	1350.49
389.25	1336.45
389.45	1345.81
389.64	1284.95
389.84	1291.98
390.03	1397.30
390.22	1474.54
390.42	1348.15
390.61	1371.55
390.81	1327.08
391.00	1444.11
391.19	1352.83
391.39	1486.24
391.58	1455.81
391.78	1455.81
391.97	1507.30
392.16	1462.83
392.36	1523.69
392.55	1523.69
392.75	1554.12
392.94	1476.88
393.13	1444.11
393.33	1467.52
393.52	1671.14
393.71	1558.80
393.91	1579.86
394.10	1582.20
394.29	1652.42
394.49	1633.69
394.68	1661.78
394.88	1624.33
395.07	1650.08
395.26	1624.33
395.46	1565.82
395.65	1722.63
395.84	1612.63
396.04	1783.49
396.23	1760.08
396.42	1778.81
396.62	1664.12
396.81	1732.00
397.00	1757.74
397.19	1823.28
397.39	1685.19
397.58	1813.92
397.77	1781.15
397.97	1769.44
398.16	1865.41
398.35	1921.58
398.55	1849.02
398.74	1898.17
398.93	1907.54
399.12	1944.99
399.32	2064.35
399.51	1970.73
399.70	1961.37
399.90	2012.86
400.09	2024.56
400.28	2118.18
400.47	2024.56
400.67	2108.82
400.86	2022.22
401.05	2050.31
401.24	2033.93
401.44	2120.53
401.63	2172.02
401.82	2106.48
402.01	2043.29
402.21	2090.10
402.40	2221.17
402.59	2239.89
402.78	2256.28
402.97	2277.34
403.17	2253.94
403.36	2167.34
403.55	2176.70
403.74	2385.01
403.93	2363.94
404.13	2452.88
404.32	2319.47
404.51	2466.92
404.70	2455.22
404.89	2399.05
405.09	2525.44
405.28	2495.01
405.47	2382.67
405.66	2483.31
405.85	2520.76
406.05	2527.78
406.24	2593.31
406.43	2595.65
406.62	2551.18
406.81	2665.87
407.00	2555.86
407.20	2644.81
407.39	2579.27
407.58	2670.55
407.77	2693.96
407.96	2628.42
408.15	2750.13
408.34	2745.45
408.54	2754.81
408.73	2794.60
408.92	2686.94
409.11	2768.85
409.30	2890.56
409.49	2848.43
409.68	2822.69
409.87	2977.16
410.07	2881.20
410.26	2986.52
410.45	2944.39
410.64	3077.80
410.83	3023.97
411.02	3047.38
411.21	3201.85
411.40	3150.36
411.59	3232.28
411.78	3201.85
411.98	3208.87
412.17	3344.63
412.36	3342.28
412.55	3304.84
412.74	3290.79
412.93	3407.82
413.12	3307.18
413.31	3578.68
413.50	3566.98
413.69	3513.14
413.88	3574.00
414.07	3597.40
414.26	3655.92
414.45	3674.64
414.64	3691.02
414.83	3784.65
415.02	3777.62
415.22	3747.20
415.41	3922.74
415.60	3838.48
415.79	3796.35
415.98	3929.76
416.17	3896.99
416.36	4049.13
416.55	3992.95
416.74	4014.02
416.93	3969.55
417.12	4056.15
417.31	4072.53
417.50	4266.80
417.69	4393.19
417.88	4280.84
418.07	4173.18
418.26	4245.73
418.45	4304.25
418.64	4465.74
418.83	4404.89
419.02	4442.34
419.21	4402.55
419.39	4468.08
419.58	4423.61
419.77	4440.00
419.96	4390.84
420.15	4542.98
420.34	4512.55
420.53	4648.30
420.72	4774.69
420.91	4709.16
421.10	4816.82
421.29	4784.06
421.48	4566.39
421.67	4774.69
421.86	4772.35
422.05	4889.38
422.24	4777.03
422.43	4812.14
422.61	4784.06
422.80	4865.97
422.99	4891.72
423.18	4828.53
423.37	5083.64
423.56	4987.68
423.75	4990.02
423.94	4952.57
424.13	4718.52
424.32	4734.90
424.50	4915.12
424.69	5057.90
424.88	5097.69
425.07	4910.44
425.26	4748.95
425.45	4938.53
425.64	4887.04
425.83	5085.98
426.01	5090.67
426.20	5125.77
426.39	4983.00
426.58	4973.64
426.77	5067.26
426.96	5165.56
427.15	5067.26
427.33	5163.22
427.52	5203.01
427.71	5224.08
427.90	5298.97
428.09	5282.59
428.28	5303.65
428.46	5289.61
428.65	5282.59
428.84	5526.00
429.03	5397.28
429.22	5502.60
429.40	5497.92
429.59	5551.75
429.78	5179.61
429.97	5191.31
430.16	5575.16
430.34	5664.10
430.53	5556.43
430.72	5727.29
430.91	5717.93
431.10	5774.10
431.28	5738.99
431.47	5696.86
431.66	5839.64
431.85	5701.54
432.03	6010.50
432.22	5947.30
432.41	5722.61
432.60	5909.85
432.79	5804.53
432.97	5909.85
433.16	6141.57
433.35	5818.57
433.54	6122.84
433.72	6200.08
433.91	6106.46
434.10	6244.55
434.28	6012.84
434.47	6155.61
434.66	6216.46
434.85	6232.85
435.03	6253.91
435.22	6209.44
435.41	6614.35
435.59	6270.30
435.78	6361.58
435.97	6445.84
436.16	6544.14
436.34	6530.09
436.53	6413.07
436.72	6534.78
436.90	6363.92
437.09	6553.50
437.28	6319.45
437.46	6642.44
437.65	6471.58
437.84	6684.57
438.02	6754.79
438.21	6766.49
438.40	6733.72
438.58	6916.28
438.77	6869.47
438.96	6946.71
439.14	7056.72
439.33	7190.13
439.52	7316.51
439.70	7007.56
439.89	7335.24
440.08	7300.13
440.26	7400.77
440.45	7410.14
440.63	7342.26
440.82	7513.12
441.01	7452.27
441.19	7557.59
441.38	7803.35
441.57	7723.77
441.75	7604.40
441.94	7789.30
442.12	7908.67
442.31	7824.41
442.50	8011.65
442.68	7808.03
442.87	7960.16
443.05	8140.38
443.24	8049.10
443.43	8056.12
443.61	8084.21
443.80	8386.14
443.98	7903.99
444.17	7819.73
444.35	8243.37
444.54	8411.89
444.73	8180.17
444.91	8124.00
445.10	8299.54
445.28	8226.98
445.47	8294.86
445.65	8271.45
445.84	8489.12
446.02	8517.21
446.21	8308.90
446.39	8390.82
446.58	8449.33
446.77	8542.96
446.95	8196.56
447.14	8470.40
447.32	8505.51
447.51	8379.12
447.69	8444.65
447.88	8521.89
448.06	8273.79
448.25	8489.12
448.43	8564.02
448.62	8622.53
448.80	8395.50
448.99	8585.08
449.17	8765.31
449.36	8589.77
449.54	8812.12
449.73	9071.92
449.91	9006.38
450.10	8868.29
450.28	9004.04
450.46	9046.17
450.65	9020.42
450.83	8957.23
451.02	8973.61
451.20	9081.28
451.39	8994.68
451.57	9149.15
451.76	9022.77
451.94	9418.32
452.13	9284.91
452.31	9254.48
452.49	9205.33
452.68	9256.82
452.86	9366.82
453.05	9320.01
453.23	9652.37
453.42	9430.02
453.60	9378.53
453.78	9467.47
453.97	9301.29
454.15	9614.92
454.34	9542.36
454.52	9626.62
454.70	9654.71
454.89	9633.64
455.07	9902.81
455.26	9790.46
455.44	9930.89
455.62	9956.64
455.81	9797.48
455.99	10012.81
456.17	9844.29
456.36	10134.52
456.54	9886.42
456.73	10171.97
456.91	10354.53
457.09	10485.60
457.28	10485.60
457.46	10141.54
457.64	10562.84
457.83	10551.14
458.01	10335.81
458.19	10602.63
458.38	10544.11
458.56	10560.50
458.74	10616.67
458.93	10619.01
459.11	10677.52
459.29	10824.98
459.48	10717.31
459.66	10768.80
459.84	11133.93
460.03	11073.07
460.21	11000.52
460.39	10956.05
460.57	10974.77
460.76	10932.64
460.94	11218.19
461.12	11143.29
461.31	11272.02
461.49	11108.18
461.67	11016.90
461.85	11363.30
462.04	11398.41
462.22	11693.32
462.40	11550.54
462.59	11459.26
462.77	11370.32
462.95	11676.93
463.13	11485.01
463.32	11524.80
463.50	11552.88
463.68	11470.97
463.86	11716.72
464.05	11695.66
464.23	11625.44
464.41	11988.22
464.59	11784.60
464.78	12114.61
464.96	11981.20
465.14	11728.42
465.32	12051.42
465.50	12086.53
465.69	12149.72
465.87	11847.79
466.05	12133.34
466.23	12280.79
466.41	12479.74
466.60	12297.17
466.78	11918.01
466.96	12182.49
467.14	12018.65
467.32	12348.67
467.51	12461.01
467.69	11992.90
467.87	12395.48
468.05	12561.66
468.23	12280.79
468.41	12444.63
468.60	12542.93
468.78	12791.03
468.96	12524.21
469.14	12683.36
469.32	13282.54
469.50	12444.63
469.69	12755.92
469.87	13111.68
470.05	12982.95
470.23	13254.45
470.41	13097.64
470.59	13149.13
470.77	13078.91
470.95	13493.19
471.14	13355.10
471.32	13015.72
471.50	13565.74
471.68	13371.48
471.86	13462.76
472.04	13785.76
472.22	13851.29
472.40	13549.36
472.58	13722.56
472.77	13771.71
472.95	13921.51
473.13	14480.89
473.31	13745.97
473.49	14115.77
473.67	14059.60
473.85	13958.96
474.03	14548.77
474.21	14537.07
474.39	14604.94
474.57	14750.06
474.75	14511.32
474.93	15213.48
475.12	14967.73
475.30	14960.70
475.48	14827.29
475.66	15030.92
475.84	15180.71
476.02	15386.68
476.20	15314.13
476.38	15594.99
476.56	16023.31
476.74	16177.78
476.92	15723.72
477.10	15953.09
477.28	15934.37
477.46	16212.89
477.64	16276.09
477.82	16531.20
478.00	16847.18
478.18	16521.84
478.36	16737.17
478.54	17219.32
478.72	17034.42
478.90	17502.53
479.08	17479.12
479.26	17703.81
479.44	17664.02
479.62	17764.67
479.80	17996.38
479.98	18024.47
480.16	18508.96
480.34	18527.68
480.52	18345.12
480.70	18501.93
480.88	18403.63
481.06	18354.48
481.24	18445.76
481.41	19084.73
481.59	19384.32
481.77	19730.72
481.95	19482.62
482.13	19506.02
482.31	19810.29
482.49	20044.35
482.67	20013.92
482.85	20215.21
483.03	20247.97
483.21	20570.97
483.39	20680.97
483.57	20989.92
483.74	21102.27
483.92	21205.25
484.10	21142.06
484.28	21610.17
484.46	21947.20
484.64	21898.05
484.82	21944.86
485.00	22317.01
485.18	22551.06
485.35	22916.19
485.53	22750.01
485.71	22789.80
485.89	23208.75
486.07	23349.18
486.25	23405.36
486.43	23772.82
486.61	23964.75
486.78	23941.34
486.96	24219.86
487.14	24786.27
487.32	24795.64
487.50	24739.46
487.68	24975.86
487.85	25228.63
488.03	25633.55
488.21	25762.28
488.39	25570.35
488.57	25778.66
488.75	26089.95
488.92	26347.41
489.10	26492.52
489.28	26464.44
489.46	27229.79
489.64	26703.17
489.81	27536.40
489.99	27608.96
490.17	27770.46
490.35	28065.36
490.53	27807.90
490.70	28287.71
490.88	27995.15
491.06	28507.72
491.24	28671.56
491.41	29113.92
491.59	29343.30
491.77	29095.20
491.95	29446.28
492.13	29479.05
492.30	29865.24
492.48	30221.00
492.66	29764.59
492.84	30352.07
493.01	30766.34
493.19	30342.70
493.37	30740.60
493.54	31136.15
493.72	31559.78
493.90	31468.50
494.08	31409.99
494.25	31887.46
494.43	31761.07
494.61	32135.56
494.79	32493.66
494.96	32486.64
495.14	32582.60
495.32	33048.36
495.49	33062.41
495.67	33151.35
495.85	33350.29
496.02	33919.04
496.20	34024.37
496.38	34038.41
496.55	33951.81
496.73	34792.06
496.91	34803.77
497.09	34494.82
497.26	34518.22
497.44	35049.52
497.62	35489.54
497.79	35484.86
497.97	35225.06
498.14	35737.64
498.32	36327.45
498.50	35842.96
498.67	36383.63
498.85	36034.89
499.03	36624.70
499.20	36292.35
499.38	36723.01
499.56	37078.77
499.73	37177.07
499.91	37230.90
500.08	37518.79
500.26	37024.93
500.44	37074.09
500.61	37621.77
500.79	37975.19
500.97	37816.04
501.14	38593.09
501.32	38066.47
501.49	38529.90
501.67	38665.65
501.84	38993.32
502.02	38466.70
502.20	39201.63
502.37	39236.74
502.55	39339.72
502.72	38895.02
502.90	39636.97
503.07	39449.73
503.25	39496.54
503.43	39442.71
503.60	40086.36
503.78	40233.81
503.95	40212.74
504.13	40327.43
504.30	40589.57
504.48	41071.72
504.65	40509.99
504.83	40737.02
505.01	41324.50
505.18	41254.28
505.36	41457.91
505.53	41064.70
505.71	41654.51
505.88	41588.98
506.06	41677.92
506.23	41638.13
506.41	41558.55
506.58	42230.29
506.76	41869.84
506.93	42450.30
507.11	42274.76
507.28	42291.14
507.46	42492.43
507.63	42569.66
507.81	42810.74
507.98	42895.00
508.16	42953.51
508.33	43475.45
508.50	43512.90
508.68	43215.65
508.85	43810.15
509.03	43646.31
509.20	43943.56
509.38	44512.31
509.55	44430.39
509.73	44112.08
509.90	44580.18
510.08	44247.83
510.25	44566.14
510.42	44411.67
510.60	45092.76
510.77	45263.62
510.95	45364.26
511.12	45085.74
511.30	45263.62
511.47	45034.25
511.64	45397.03
511.82	45830.03
511.99	45317.45
512.17	45918.97
512.34	45633.42
512.51	45933.01
512.69	46384.74
512.86	46553.26
513.04	46377.72
513.21	46351.97
513.38	46824.76
513.56	46822.42
513.73	46653.90
513.90	46665.60
514.08	46939.44
514.25	46913.70
514.43	47686.07
514.60	47210.95
514.77	47498.83
514.95	47620.54
515.12	47510.53
515.29	47421.59
515.47	48233.76
515.64	47775.02
515.81	47707.14
515.99	48444.41
516.16	48671.44
516.33	48128.44
516.51	48353.13
516.68	48247.80
516.85	48219.72
517.03	48905.49
517.20	48875.07
517.37	48271.21
517.54	48818.89
517.72	48744.00
517.89	48947.62
518.06	49123.16
518.24	49034.22
518.41	49179.34
518.58	49226.15
518.75	49146.57
518.93	49502.33
519.10	49572.55
519.27	49415.73
519.45	49471.90
519.62	49764.47
519.79	49579.57
519.96	49911.92
520.14	49844.05
520.31	49832.35
520.48	50230.24
520.65	50328.54
520.83	50426.84
521.00	50295.77
521.17	50454.93
521.34	50609.40
521.52	50768.56
521.69	50454.93
521.86	51241.35
522.03	51009.64
522.20	51274.12
522.38	51370.08
522.55	51386.46
522.72	51381.78
522.89	51306.88
523.07	51421.57
523.24	51545.62
523.41	51662.64
523.58	51255.39
523.75	51786.69
523.92	51604.13
524.10	51995.00
524.27	51779.67
524.44	51999.68
524.61	52112.03
524.78	52114.37
524.96	52065.22
525.13	52158.84
525.30	52266.50
525.47	52327.36
525.64	52203.31
525.81	52648.01
525.98	52903.13
526.16	52722.91
526.33	52402.25
526.50	52746.31
526.67	52811.85
526.84	52554.39
527.01	52865.68
527.18	52872.70
527.36	52868.02
527.53	52877.38
527.70	53249.53
527.87	53057.60
528.04	53298.68
528.21	53148.88
528.38	53153.57
528.55	53120.80
528.72	53247.19
528.89	53399.32
529.07	53125.48
529.24	53226.12
529.41	53551.46
529.58	53687.21
529.75	53530.39
529.92	53689.55
530.09	53771.47
530.26	53745.72
530.43	53743.38
530.60	53769.13
530.77	53970.41
530.94	53851.05
531.11	53834.66
531.28	54117.87
531.46	53909.56
531.63	54342.56
531.80	54328.52
531.97	54316.81
532.14	54225.53
532.31	54508.74
532.48	54529.80
532.65	54705.34
532.82	54375.33
532.99	54499.37
533.16	54574.27
533.33	54803.64
533.50	54948.76
533.67	54801.30
533.84	54457.24
534.01	54813.01
534.18	54981.52
534.35	55089.19
534.52	54993.23
534.69	55072.81
534.86	55117.28
535.03	54972.16
535.20	54986.21
535.37	55264.73
535.54	55166.43
535.71	55203.88
535.88	55356.01
536.05	55318.56
536.22	55423.89
536.38	55508.14
536.55	55435.59
536.72	55571.34
536.89	55344.31
537.06	55664.96
537.23	55536.23
537.40	55430.91
537.57	55386.44
537.74	55664.96
537.91	55737.52
538.08	55817.10
538.25	55664.96
538.42	55870.93
538.59	56079.24
538.75	55800.71
538.92	56264.14
539.09	56156.47
539.26	56083.92
539.43	55910.72
539.60	56189.24
539.77	56252.44
539.94	56411.59
540.11	56289.88
540.28	56378.82
540.44	56655.01
540.61	56470.11
540.78	56093.28
540.95	56498.19
541.12	56406.91
541.29	56324.99
541.46	56545.00
541.62	56420.95
541.79	56409.25
541.96	56320.31
542.13	56509.89
542.30	56662.03
542.47	56610.54
542.63	56631.60
542.80	56882.04
542.97	57006.09
543.14	56987.36
543.31	56994.39
543.48	57226.10
543.64	57333.76
543.81	57272.91
543.98	57181.63
544.15	57364.19
544.32	57181.63
544.48	57441.43
544.65	57270.57
544.82	57298.65
544.99	57146.52
545.16	57270.57
545.32	57425.04
545.49	57495.26
545.66	57577.18
545.83	57883.79
546.00	57687.18
546.16	57483.56
546.33	57612.29
546.50	57113.75
546.67	57818.25
546.83	57223.76
547.00	57670.80
547.17	57535.05
547.34	57574.84
547.50	57977.41
547.67	58033.58
547.84	57687.18
548.00	58052.31
548.17	58248.91
548.34	57972.73
548.51	58206.78
548.67	58188.06
548.84	57895.49
549.01	57923.58
549.18	58375.30
549.34	58246.57
549.51	58164.65
549.68	58347.21
549.84	58213.80
550.01	58522.76
550.18	58000.82
550.34	58471.26
550.51	58323.81
550.68	58475.94
550.84	58035.92
551.01	58478.28
551.18	58466.58
551.34	58548.50
551.51	58342.53
551.68	58665.53
551.84	58377.64
552.01	58333.17
552.18	58698.30
552.34	58253.59
552.51	58581.27
552.68	58166.99
552.84	58597.65
553.01	59040.01
553.18	58574.25
553.34	58820.00
553.51	58567.23
553.67	58646.80
553.84	58658.51
554.01	59124.27
554.17	59105.55
554.34	58906.60
554.51	59063.42
554.67	58948.73
554.84	59061.08
555.00	58976.82
555.17	58915.96
555.33	58876.18
555.50	58738.08
555.67	59058.74
555.83	58995.54
556.00	59091.51
556.16	59320.88
556.33	59140.66
556.50	59323.22
556.66	58976.82
556.83	59105.55
556.99	59260.02
557.16	59409.82
557.32	59489.40
557.49	59529.19
557.65	59147.68
557.82	59508.12
557.98	59458.97
558.15	59192.15
558.32	59674.30
558.48	59372.37
558.65	59545.57
558.81	59442.59
558.98	59583.02
559.14	59615.79
559.31	59515.14
559.47	59454.29
559.64	59695.36
559.80	59554.93
559.97	59697.70
560.13	59543.23
560.30	59571.32
560.46	59662.60
560.63	59620.47
560.79	59732.81
560.96	59718.77
561.12	59751.54
561.29	59749.20
561.45	59718.77
561.61	59714.09
561.78	59643.87
561.94	59693.02
562.11	59725.79
562.27	59859.20
562.44	59884.95
562.60	60037.08
562.77	59817.07
562.93	59807.71
563.10	60114.32
563.26	59800.69
563.42	59943.46
563.59	59852.18
563.75	59690.68
563.92	59983.25
564.08	59810.05
564.24	59898.99
564.41	60149.43
564.57	60013.68
564.74	59903.67
564.90	60128.36
565.07	60018.36
565.23	60135.38
565.39	59901.33
565.56	60037.08
565.72	60161.13
565.88	60186.88
566.05	59927.08
566.21	60119.00
566.38	60196.24
566.54	60229.01
566.70	60250.07
566.87	60259.43
567.03	60119.00
567.19	60205.60
567.36	60257.09
567.52	60350.71
567.68	60259.43
567.85	60310.92
568.01	60282.84
568.17	60240.71
568.34	60350.71
568.50	60107.30
568.66	60327.31
568.83	60308.58
568.99	60198.58
569.15	60280.50
569.32	60058.15
569.48	60261.77
569.64	60413.91
569.81	60374.12
569.97	60350.71
570.13	60556.68
570.30	60467.74
570.46	60378.80
570.62	60451.36
570.78	60441.99
570.95	60453.70
571.11	60544.98
571.27	60346.03
571.43	60388.16
571.60	60598.81
571.76	60397.52
571.92	60594.13
572.09	60390.50
572.25	60516.89
572.41	60591.79
572.57	60547.32
572.74	60687.75
572.90	60418.59
573.06	60523.91
573.22	60669.03
573.38	60591.79
573.55	60589.45
573.71	60814.14
573.87	60664.35
574.03	60561.36
574.20	60622.22
574.36	60425.61
574.52	60629.24
574.68	60453.70
574.84	60750.94
575.01	60818.82
575.17	60631.58
575.33	60629.24
575.49	60470.08
575.65	60699.45
575.82	60692.43
575.98	60685.41
576.14	60832.86
576.30	60458.38
576.46	60596.47
576.62	60739.24
576.79	60727.54
576.95	60636.26
577.11	60757.97
577.27	60832.86
577.43	60856.27
577.59	60711.16
577.75	60573.06
577.92	60697.11
578.08	60783.71
578.24	60905.42
578.40	60928.83
578.56	60816.48
578.72	60694.77
578.88	60870.31
579.04	61066.92
579.21	60720.52
579.37	60683.07
579.53	60945.21
579.69	60556.68
579.85	60615.19
580.01	60580.09
580.17	60650.30
580.33	60685.41
580.49	60905.42
580.65	61071.60
580.82	60636.26
580.98	60809.46
581.14	60757.97
581.30	61127.77
581.46	60882.02
581.62	60870.31
581.78	60807.12
581.94	60896.06
582.10	60772.01
582.26	60729.88
582.42	60954.57
582.58	60853.93
582.74	60790.73
582.90	60816.48
583.06	60814.14
583.22	60699.45
583.38	60910.10
583.54	60898.40
583.70	60940.53
583.86	60804.78
584.02	60800.10
584.18	60996.70
584.34	60863.29
584.50	60940.53
584.66	60828.18
584.82	60900.74
584.98	61052.87
585.14	61073.94
585.30	60818.82
585.46	61024.79
585.62	60846.91
585.78	60975.64
585.94	60870.31
586.10	60877.33
586.26	60973.30
586.42	61118.41
586.58	61027.13
586.74	61155.86
586.90	60907.76
587.06	61045.85
587.22	61158.20
587.38	61120.75
587.54	60975.64
587.70	61127.77
587.86	60912.44
588.02	61001.38
588.18	61165.22
588.34	60903.08
588.49	60977.98
