SpectraSuite Data File
++++++++++++++++++++++++++++++++++++
Date: Fri Oct 25 11:23:29 EDT 2013
User: price-jones
Dark Spectrum Present: No
Reference Spectrum Present: No
Number of Sampled Component Spectra: 1
Spectrometers: USB2+H05261
Integration Time (usec): 100000 (USB2+H05261)
Spectra Averaged: 1 (USB2+H05261)
Boxcar Smoothing: 0 (USB2+H05261)
Correct for Electrical Dark: No (USB2+H05261)
Strobe/Lamp Enabled: No (USB2+H05261)
Correct for Detector Non-linearity: No (USB2+H05261)
Correct for Stray Light: No (USB2+H05261)
Number of Pixels in Processed Spectrum: 2048
>>>>>Begin Processed Spectral Data<<<<<
365.73	147.45
365.92	147.45
366.12	147.45
366.32	152.13
366.52	161.50
366.72	149.79
366.91	93.62
367.11	215.33
367.31	110.01
367.51	201.29
367.70	133.41
367.90	124.05
368.10	124.05
368.30	140.43
368.49	145.11
368.69	77.24
368.89	173.20
369.09	154.48
369.28	189.58
369.48	149.79
369.68	147.45
369.87	198.95
370.07	194.26
370.27	217.67
370.47	332.36
370.66	627.26
370.86	573.43
371.06	711.52
371.25	674.07
371.45	636.63
371.65	751.31
371.84	638.97
372.04	770.04
372.24	676.41
372.44	767.70
372.63	706.84
372.83	751.31
373.03	739.61
373.22	753.65
373.42	706.84
373.62	734.93
373.81	788.76
374.01	765.36
374.21	816.85
374.40	741.95
374.60	828.55
374.79	763.01
374.99	856.64
375.19	908.13
375.38	816.85
375.58	840.25
375.78	856.64
375.97	903.45
376.17	926.85
376.37	917.49
376.56	894.08
376.76	887.06
376.95	889.40
377.15	800.46
377.35	861.32
377.54	826.21
377.74	915.15
377.93	959.62
378.13	947.92
378.33	940.90
378.52	997.07
378.72	1025.15
378.91	910.47
379.11	910.47
379.31	856.64
379.50	1001.75
379.70	994.73
379.89	1020.47
380.09	910.47
380.28	964.30
380.48	1011.11
380.68	997.07
380.87	1025.15
381.07	1025.15
381.26	1046.22
381.46	1078.99
381.65	1078.99
381.85	994.73
382.04	908.13
382.24	1011.11
382.43	1142.18
382.63	1090.69
382.83	1088.35
383.02	1104.73
383.22	1196.01
383.41	1097.71
383.61	1083.67
383.80	1210.06
384.00	1107.07
384.19	1172.61
384.39	1172.61
384.58	1114.10
384.78	1226.44
384.97	1224.10
385.17	1174.95
385.36	1181.97
385.56	1135.16
385.75	1057.92
385.95	1221.76
386.14	1280.27
386.34	1149.20
386.53	1191.33
386.72	1193.67
386.92	1270.91
387.11	1252.19
387.31	1296.66
387.50	1212.40
387.70	1177.29
387.89	1303.68
388.09	1299.00
388.28	1320.06
388.48	1334.11
388.67	1394.96
388.86	1296.66
389.06	1299.00
389.25	1441.77
389.45	1313.04
389.64	1420.71
389.84	1359.85
390.03	1458.15
390.22	1329.42
390.42	1350.49
390.61	1380.92
390.81	1362.19
391.00	1383.26
391.19	1490.92
391.39	1366.87
391.58	1455.81
391.78	1497.94
391.97	1507.30
392.16	1490.92
392.36	1549.43
392.55	1535.39
392.75	1572.84
392.94	1556.46
393.13	1600.93
393.33	1481.56
393.52	1638.38
393.71	1621.99
393.91	1586.88
394.10	1605.61
394.29	1561.14
394.49	1643.06
394.68	1696.89
394.88	1699.23
395.07	1671.14
395.26	1617.31
395.46	1722.63
395.65	1701.57
395.84	1626.67
396.04	1839.66
396.23	1792.85
396.42	1741.36
396.62	1799.87
396.81	1834.98
397.00	1858.39
397.19	1844.34
397.39	1813.92
397.58	1827.96
397.77	1834.98
397.97	1795.19
398.16	1867.75
398.35	1893.49
398.55	1839.66
398.74	1956.69
398.93	1944.99
399.12	1893.49
399.32	1902.86
399.51	1846.68
399.70	1877.11
399.90	1914.56
400.09	1933.28
400.28	2162.66
400.47	2078.40
400.67	2064.35
400.86	2038.61
401.05	2057.33
401.24	2148.61
401.44	2085.42
401.63	2235.21
401.82	2202.44
402.01	2120.53
402.21	2246.91
402.40	2195.42
402.59	2211.81
402.78	2216.49
402.97	2235.21
403.17	2218.83
403.36	2338.20
403.55	2251.60
403.74	2275.00
403.93	2370.96
404.13	2317.13
404.32	2375.64
404.51	2377.98
404.70	2436.50
404.89	2284.36
405.09	2473.95
405.28	2450.54
405.47	2401.39
405.66	2490.33
405.85	2555.86
406.05	2464.58
406.24	2602.68
406.43	2558.21
406.62	2600.34
406.81	2752.47
407.00	2581.61
407.20	2502.03
407.39	2553.52
407.58	2551.18
407.77	2623.74
407.96	2642.46
408.15	2768.85
408.34	2747.79
408.54	2789.92
408.73	2818.00
408.92	2834.39
409.11	2862.48
409.30	2923.33
409.49	2745.45
409.68	2935.03
409.87	3019.29
410.07	3014.61
410.26	2991.20
410.45	3040.36
410.64	3033.33
410.83	3038.02
411.02	3108.23
411.21	3005.25
411.40	3152.70
411.59	3253.34
411.78	3131.64
411.98	3227.60
412.17	3197.17
412.36	3201.85
412.55	3300.16
412.74	3265.05
412.93	3361.01
413.12	3471.01
413.31	3503.78
413.50	3419.52
413.69	3501.44
413.88	3480.38
414.07	3599.74
414.26	3655.92
414.45	3630.17
414.64	3712.09
414.83	3726.13
415.02	3742.52
415.22	3805.71
415.41	3850.18
415.60	3985.93
415.79	3955.51
415.98	3976.57
416.17	3922.74
416.36	3955.51
416.55	4053.81
416.74	4095.94
416.93	4044.45
417.12	4255.09
417.31	4086.58
417.50	4159.13
417.69	4325.31
417.88	4341.69
418.07	4322.97
418.26	4362.76
418.45	4407.23
418.64	4440.00
418.83	4381.48
419.02	4376.80
419.21	4440.00
419.39	4491.49
419.58	4641.28
419.77	4329.99
419.96	4514.89
420.15	4599.15
420.34	4484.47
420.53	4493.83
420.72	4667.03
420.91	4774.69
421.10	4587.45
421.29	4760.65
421.48	4800.44
421.67	4557.02
421.86	4685.75
422.05	4791.08
422.24	4720.86
422.43	4887.04
422.61	4903.42
422.80	4842.57
422.99	4915.12
423.18	5060.24
423.37	5076.62
423.56	5004.07
423.75	4826.18
423.94	4961.94
424.13	4681.07
424.32	4833.21
424.50	5074.28
424.69	5104.71
424.88	5081.30
425.07	4994.70
425.26	5064.92
425.45	4896.40
425.64	4908.10
425.83	4978.32
426.01	4985.34
426.20	5088.32
426.39	5013.43
426.58	5025.13
426.77	5043.85
426.96	5076.62
427.15	5242.80
427.33	5287.27
427.52	5233.44
427.71	5240.46
427.90	5219.39
428.09	5357.49
428.28	5352.81
428.46	5310.68
428.65	5252.16
428.84	5425.36
429.03	5432.38
429.22	5261.52
429.40	5366.85
429.59	5584.52
429.78	5376.21
429.97	5184.29
430.16	5575.16
430.34	5425.36
430.53	5743.67
430.72	5795.17
430.91	5671.12
431.10	5540.05
431.28	5659.42
431.47	5837.30
431.66	5884.11
431.85	5612.60
432.03	5865.38
432.22	6008.16
432.41	5935.60
432.60	5970.71
432.79	5930.92
432.97	6099.44
433.16	6057.31
433.35	5856.02
433.54	5863.04
433.72	6115.82
433.91	6174.33
434.10	6188.38
434.28	6200.08
434.47	6052.63
434.66	6256.25
434.85	6305.40
435.03	6225.82
435.22	6249.23
435.41	6525.41
435.59	6305.40
435.78	6394.34
435.97	6551.16
436.16	6450.52
436.34	6387.32
436.53	6417.75
436.72	6628.40
436.90	6483.28
437.09	6665.85
437.28	6345.19
437.46	6738.40
437.65	6576.91
437.84	6740.74
438.02	6970.12
438.21	6719.68
438.40	6731.38
438.58	6942.03
438.77	7108.21
438.96	6923.30
439.14	7145.66
439.33	7323.54
439.52	7236.94
439.70	7194.81
439.89	7311.83
440.08	7424.18
440.26	7421.84
440.45	7269.70
440.63	7459.29
440.82	7702.70
441.01	7489.71
441.19	7756.54
441.38	7723.77
441.57	7756.54
441.75	7843.14
441.94	7941.44
442.12	7943.78
442.31	8011.65
442.50	8072.51
442.68	8021.02
442.87	8107.62
443.05	8177.83
443.24	8145.06
443.43	8224.64
443.61	8306.56
443.80	8540.61
443.98	8011.65
444.17	7906.33
444.35	8128.68
444.54	8273.79
444.73	8308.90
444.91	8121.66
445.10	8489.12
445.28	8393.16
445.47	8468.06
445.65	8383.80
445.84	8341.67
446.02	8596.79
446.21	8446.99
446.39	8358.05
446.58	8468.06
446.77	8358.05
446.95	8259.75
447.14	8332.31
447.32	8676.37
447.51	8510.19
447.69	8512.53
447.88	8519.55
448.06	8610.83
448.25	8624.87
448.43	8650.62
448.62	8554.66
448.80	8552.32
448.99	8730.20
449.17	8894.04
449.36	8664.66
449.54	8861.27
449.73	9071.92
449.91	8980.64
450.10	8802.75
450.28	9121.07
450.46	9025.11
450.65	8945.53
450.83	9170.22
451.02	9217.03
451.20	9359.80
451.39	9247.46
451.57	9198.31
451.76	9191.28
451.94	9202.99
452.13	9266.18
452.31	9568.11
452.49	9186.60
452.68	9469.81
452.86	9404.27
453.05	9430.02
453.23	9568.11
453.42	9394.91
453.60	9369.16
453.78	9537.68
453.97	9507.26
454.15	9366.82
454.34	9528.32
454.52	9888.76
454.70	9603.22
454.89	9645.35
455.07	9870.04
455.26	9764.72
455.44	9830.25
455.62	9884.08
455.81	9933.23
455.99	9902.81
456.17	10307.72
456.36	10183.67
456.54	10279.63
456.73	10253.89
456.91	10509.01
457.09	10361.55
457.28	10663.48
457.46	10296.02
457.64	10546.45
457.83	10586.24
458.01	10569.86
458.19	10817.96
458.38	10562.84
458.56	10621.35
458.74	10675.18
458.93	10862.43
459.11	10675.18
459.29	10541.77
459.48	10895.19
459.66	10761.78
459.84	11159.67
460.03	11002.86
460.21	11005.20
460.39	10827.32
460.57	10824.98
460.76	11197.12
460.94	11302.45
461.12	11026.26
461.31	11311.81
461.49	10977.11
461.67	11150.31
461.85	11358.62
462.04	11365.64
462.22	11740.13
462.40	11669.91
462.59	11653.53
462.77	11323.51
462.95	11653.53
463.13	11616.08
463.32	11875.88
463.50	11700.34
463.68	11709.70
463.86	11831.41
464.05	11595.01
464.23	11676.93
464.41	11864.18
464.59	11786.94
464.78	12262.07
464.96	11969.50
465.14	11875.88
465.32	12109.93
465.50	12250.36
465.69	12081.85
465.87	12152.06
466.05	12156.74
466.23	12086.53
466.41	12285.47
466.60	12372.07
466.78	12446.97
466.96	12131.00
467.14	12540.59
467.32	12566.34
467.51	12533.57
467.69	12456.33
467.87	12512.50
468.05	12655.28
468.23	12468.03
468.41	12549.95
468.60	12781.67
468.78	12648.26
468.96	12617.83
469.14	12882.31
469.32	12624.85
469.50	12533.57
469.69	13137.43
469.87	13298.92
470.05	13224.03
470.23	13125.72
470.41	13008.70
470.59	13160.83
470.77	13383.18
470.95	13348.08
471.14	13345.73
471.32	13319.99
471.50	13558.72
471.68	13741.29
471.86	13767.03
472.04	13619.58
472.22	14181.31
472.40	13755.33
472.58	13680.43
472.77	14003.43
472.95	14246.84
473.13	14492.60
473.31	14136.84
473.49	14174.28
473.67	14129.81
473.85	14338.12
474.03	14581.54
474.21	14565.15
474.39	14651.75
474.57	14635.37
474.75	14773.46
474.93	14941.98
475.12	14815.59
475.30	15124.54
475.48	15169.01
475.66	15328.17
475.84	15489.67
476.02	15335.19
476.20	15550.52
476.38	15688.61
476.56	15903.94
476.74	16011.60
476.92	15721.38
477.10	16245.66
477.28	16133.31
477.46	16259.70
477.64	16755.90
477.82	16395.45
478.00	17263.79
478.18	16903.35
478.36	17167.83
478.54	17114.00
478.72	17277.83
478.90	17631.26
479.08	17933.18
479.26	17724.88
479.44	17661.68
479.62	17792.75
479.80	17975.31
479.98	18127.45
480.16	18602.58
480.34	18398.95
480.52	18808.54
480.70	18576.83
480.88	18408.31
481.06	18801.52
481.24	18757.05
481.41	19168.99
481.59	19468.58
481.77	19676.88
481.95	19351.55
482.13	19833.70
482.31	19662.84
482.49	20482.03
482.67	20692.68
482.85	20641.18
483.03	20744.17
483.21	20657.57
483.39	21123.33
483.57	20732.47
483.74	21226.32
483.92	21310.58
484.10	21406.54
484.28	21507.18
484.46	22307.65
484.64	22471.48
484.82	22293.60
485.00	22572.13
485.18	22735.96
485.35	23222.80
485.53	22838.95
485.71	22754.69
485.89	23398.34
486.07	23321.10
486.25	23466.21
486.43	23866.44
486.61	24030.28
486.78	24194.12
486.96	24414.13
487.14	24533.50
487.32	24814.36
487.50	24788.61
487.68	24982.88
487.85	25425.24
488.03	25654.61
488.21	26157.83
488.39	26155.49
488.57	25979.95
488.75	26146.12
488.92	26696.15
489.10	27194.68
489.28	26469.12
489.46	27295.33
489.64	27243.84
489.81	27756.41
489.99	27906.21
490.17	28011.53
490.35	28327.50
490.53	28519.43
490.70	28416.44
490.88	28730.08
491.06	28989.88
491.24	28973.49
491.41	28835.40
491.59	29209.89
491.77	29331.59
491.95	29727.14
492.13	30080.56
492.30	30155.46
492.48	30176.53
492.66	30469.09
492.84	30632.93
493.01	30953.58
493.19	30824.86
493.37	31552.76
493.54	31405.31
493.72	31730.64
493.90	31732.98
494.08	31880.44
494.25	32283.01
494.43	32311.10
494.61	32442.17
494.79	32577.92
494.96	32748.78
495.14	33120.92
495.32	33598.39
495.49	33446.26
495.67	33296.46
495.85	33610.09
496.02	33605.41
496.20	34113.31
496.38	34670.36
496.55	34057.14
496.73	35077.61
496.91	34827.17
497.09	35129.10
497.26	34937.18
497.44	34906.75
497.62	35384.22
497.79	35491.88
497.97	35487.20
498.14	35957.65
498.32	36584.91
498.50	36739.39
498.67	36751.09
498.85	36495.97
499.03	36723.01
499.20	37186.43
499.38	36875.14
499.56	37268.35
499.73	37429.85
499.91	37530.49
500.08	37839.44
500.26	37404.10
500.44	37933.06
500.61	37865.19
500.79	37553.90
500.97	38209.25
501.14	38469.04
501.32	39328.02
501.49	38869.28
501.67	38728.84
501.84	39323.34
502.02	38841.19
502.20	39189.93
502.37	39194.61
502.55	39063.54
502.72	39489.52
502.90	39400.58
503.07	40044.23
503.25	39962.31
503.43	39800.81
503.60	40507.65
503.78	40332.11
503.95	40112.10
504.13	40528.72
504.30	40715.96
504.48	40294.66
504.65	40765.11
504.83	41383.01
505.01	41593.66
505.18	41097.47
505.36	41811.33
505.53	41375.99
505.71	41551.53
505.88	41947.08
506.06	41371.31
506.23	42192.84
506.41	41947.08
506.58	42054.75
506.76	42335.61
506.93	42539.24
507.11	42419.87
507.28	42597.75
507.46	43030.75
507.63	42852.87
507.81	43515.24
507.98	43367.79
508.16	42815.42
508.33	43697.80
508.50	43730.57
508.68	43896.75
508.85	44311.02
509.03	43758.66
509.20	44287.62
509.38	44570.82
509.55	44741.68
509.73	44381.24
509.90	44266.55
510.08	44797.85
510.25	44978.07
510.42	45020.20
510.60	45406.39
510.77	45214.47
510.95	45352.56
511.12	45170.00
511.30	45649.81
511.47	45546.82
511.64	45705.98
511.82	46099.19
511.99	45808.96
512.17	46019.61
512.34	45612.36
512.51	46174.09
512.69	46724.11
512.86	46263.03
513.04	46625.81
513.21	46543.89
513.38	46595.38
513.56	47145.41
513.73	46941.78
513.90	47093.92
514.08	47098.60
514.25	47299.89
514.43	47334.99
514.60	48027.79
514.77	47803.10
514.95	47969.28
515.12	47550.32
515.29	47896.72
515.47	47665.01
515.64	48357.81
515.81	48215.04
515.99	48399.94
516.16	48594.20
516.33	48741.66
516.51	48882.09
516.68	48701.87
516.85	48584.84
517.03	49097.42
517.20	49118.48
517.37	48739.32
517.54	49179.34
517.72	49076.35
517.89	49034.22
518.06	49502.33
518.24	49387.64
518.41	49404.03
518.58	49429.77
518.75	49689.57
518.93	50007.89
519.10	49418.07
519.27	49972.78
519.45	50064.06
519.62	50204.49
519.79	50211.51
519.96	50319.18
520.14	50611.74
520.31	50461.95
520.48	50396.42
520.65	50263.00
520.83	50412.80
521.00	50958.14
521.17	50710.05
521.34	50679.62
521.52	50939.42
521.69	50815.37
521.86	51239.01
522.03	51224.96
522.20	51657.96
522.38	51613.49
522.55	51274.12
522.72	51260.07
522.89	51339.65
523.07	51594.77
523.24	51730.52
523.41	51812.44
523.58	51533.92
523.75	51861.59
523.92	51842.87
524.10	52102.67
524.27	52327.36
524.44	52095.64
524.61	52222.03
524.78	52521.62
524.96	52406.94
525.13	52449.06
525.30	52889.09
525.47	52884.40
525.64	52247.78
525.81	52683.12
525.98	52884.40
526.16	52603.54
526.33	52804.83
526.50	53275.27
526.67	52865.68
526.84	53111.44
527.01	52856.32
527.18	53158.25
527.36	53263.57
527.53	53294.00
527.70	53757.42
527.87	53361.87
528.04	53275.27
528.21	53179.31
528.38	53357.19
528.55	53675.51
528.72	53382.94
528.89	53661.46
529.07	53528.05
529.24	53441.45
529.41	53687.21
529.58	53834.66
529.75	53499.97
529.92	54057.01
530.09	53911.90
530.26	54209.15
530.43	53989.14
530.60	53792.53
530.77	54164.68
530.94	54279.36
531.11	54204.47
531.28	54377.67
531.46	54354.26
531.63	54438.52
531.80	54422.14
531.97	54471.29
532.14	54569.59
532.31	54532.14
532.48	54754.49
532.65	54487.67
532.82	54567.25
532.99	54955.78
533.16	54560.23
533.33	54827.05
533.50	55089.19
533.67	54951.10
533.84	54614.06
534.01	55262.39
534.18	55112.59
534.35	55215.58
534.52	55217.92
534.69	55318.56
534.86	55379.42
535.03	55339.63
535.20	55351.33
535.37	55332.60
535.54	55601.77
535.71	55611.13
535.88	55552.62
536.05	55414.52
536.22	55856.88
536.38	55519.85
536.55	55618.15
536.72	55884.97
536.89	55627.51
537.06	55739.86
537.23	55877.95
537.40	55578.36
537.57	56090.94
537.74	56058.17
537.91	56156.47
538.08	56137.75
538.25	55683.69
538.42	56020.72
538.59	56238.39
538.75	55990.30
538.92	55908.38
539.09	56294.56
539.26	56112.00
539.43	55980.93
539.60	56200.94
539.77	56306.27
539.94	56383.51
540.11	56500.53
540.28	56257.12
540.44	56540.32
540.61	56568.41
540.78	56350.74
540.95	56537.98
541.12	56449.04
541.29	56559.05
541.46	56554.36
541.62	56528.62
541.79	56720.54
541.96	56477.13
542.13	56704.16
542.30	56802.46
542.47	56970.98
542.63	56968.64
542.80	56772.03
542.97	57155.88
543.14	57415.68
543.31	57279.93
543.48	57293.97
543.64	57530.37
543.81	57387.60
543.98	57378.23
544.15	57214.40
544.32	57675.48
544.48	57815.91
544.65	57441.43
544.82	57457.81
544.99	57375.89
545.16	57523.35
545.32	57289.29
545.49	57820.59
545.66	57766.76
545.83	57666.12
546.00	58166.99
546.16	57818.25
546.33	57729.31
546.50	57616.97
546.67	57921.24
546.83	57631.01
547.00	57752.72
547.17	57705.91
547.34	57846.34
547.50	58131.89
547.67	58223.17
547.84	58073.37
548.00	58174.02
548.17	58377.64
548.34	58197.42
548.51	58560.20
548.67	58298.06
548.84	58248.91
549.01	58232.53
549.18	58323.81
549.34	58410.41
549.51	58508.71
549.68	58321.47
549.84	58391.68
550.01	58450.20
550.18	58354.24
550.34	58731.06
550.51	58609.35
550.68	58253.59
550.84	58478.28
551.01	58569.57
551.18	58466.58
551.34	58412.75
551.51	58597.65
551.68	58717.02
551.84	58721.70
552.01	58738.08
552.18	58925.33
552.34	58581.27
552.51	58967.46
552.68	58810.64
552.84	58567.23
553.01	59047.04
553.18	58976.82
553.34	59107.89
553.51	58614.04
553.67	58974.48
553.84	59276.41
554.01	58908.94
554.17	59138.32
554.34	59086.82
554.51	58993.20
554.67	59203.85
554.84	59224.92
555.00	59093.85
555.17	58878.52
555.33	59131.29
555.50	59042.35
555.67	59199.17
555.83	59009.59
556.00	59065.76
556.16	59484.72
556.33	59440.24
556.50	59112.57
556.66	59318.54
556.83	59215.55
556.99	59578.34
557.16	59615.79
557.32	59587.70
557.49	59678.98
557.65	59274.07
557.82	59435.56
557.98	59482.37
558.15	59526.84
558.32	59517.48
558.48	59517.48
558.65	59320.88
558.81	59585.36
558.98	59606.42
559.14	59824.09
559.31	59693.02
559.47	59746.86
559.64	59788.98
559.80	59873.24
559.97	59873.24
560.13	59882.61
560.30	59608.76
560.46	59943.46
560.63	59854.52
560.79	59957.50
560.96	59800.69
561.12	59856.86
561.29	59735.15
561.45	59948.14
561.61	59898.99
561.78	59807.71
561.94	59828.77
562.11	60051.12
562.27	59938.78
562.44	59985.59
562.60	60259.43
562.77	60090.91
562.93	59852.18
563.10	60083.89
563.26	59976.23
563.42	60163.47
563.59	60006.65
563.75	60168.15
563.92	59980.91
564.08	60184.54
564.24	60149.43
564.41	60226.66
564.57	60449.02
564.74	60327.31
564.90	60261.77
565.07	60299.22
565.23	60104.96
565.39	60072.19
565.56	60350.71
565.72	60353.05
565.88	60409.23
566.05	60413.91
566.21	60083.89
566.38	60130.70
566.54	60315.61
566.70	60381.14
566.87	60495.83
567.03	60149.43
567.19	60542.64
567.36	60299.22
567.52	60322.63
567.68	60809.46
567.85	60512.21
568.01	60502.85
568.17	60409.23
568.34	60718.18
568.50	60699.45
568.66	60231.35
568.83	60509.87
568.99	60474.76
569.15	60360.08
569.32	60507.53
569.48	60453.70
569.64	60474.76
569.81	60219.64
569.97	60446.68
570.13	60343.69
570.30	60530.93
570.46	60486.46
570.62	60601.15
570.78	60692.43
570.95	60528.59
571.11	60673.71
571.27	60720.52
571.43	60465.40
571.60	60678.39
571.76	60669.03
571.92	60626.90
572.09	60533.28
572.25	60673.71
572.41	60636.26
572.57	60729.88
572.74	60940.53
572.90	60711.16
573.06	60823.50
573.22	60610.51
573.38	60893.72
573.55	60678.39
573.71	60809.46
573.87	60575.40
574.03	60650.30
574.20	60879.67
574.36	60713.50
574.52	60767.33
574.68	60807.12
574.84	60867.97
575.01	60659.66
575.17	60809.46
575.33	60846.91
575.49	60910.10
575.65	60928.83
575.82	60846.91
575.98	61043.51
576.14	61237.78
576.30	60917.12
576.46	60711.16
576.62	60701.79
576.79	60907.76
576.95	60566.04
577.11	61027.13
577.27	61038.83
577.43	60867.97
577.59	60804.78
577.75	60996.70
577.92	60835.20
578.08	60816.48
578.24	61034.15
578.40	60931.17
578.56	61209.69
578.72	60748.60
578.88	61258.84
579.04	61230.75
579.21	60947.55
579.37	61010.74
579.53	60952.23
579.69	60830.52
579.85	60954.57
580.01	60933.51
580.17	60828.18
580.33	60966.27
580.49	61078.62
580.65	61139.47
580.82	61052.87
580.98	60856.27
581.14	60961.59
581.30	61125.43
581.46	60882.02
581.62	61022.45
581.78	60947.55
581.94	61197.99
582.10	60992.02
582.26	60846.91
582.42	60989.68
582.58	60996.70
582.74	60921.80
582.90	60910.10
583.06	60935.85
583.22	60842.23
583.38	61095.00
583.54	61272.88
583.70	61097.34
583.86	61181.60
584.02	60973.30
584.18	61155.86
584.34	61130.11
584.50	61078.62
584.66	61137.13
584.82	60966.27
584.98	61111.39
585.14	61116.07
585.30	61137.13
585.46	61293.95
585.62	61141.81
585.78	61144.16
585.94	60907.76
586.10	60945.21
586.26	60954.57
586.42	61338.42
586.58	61008.40
586.74	61095.00
586.90	60992.02
587.06	60933.51
587.22	61319.70
587.38	61027.13
587.54	61289.27
587.70	61261.18
587.86	61097.34
588.02	61132.45
588.18	61247.14
588.34	61048.19
588.49	61155.86
