SpectraSuite Data File
++++++++++++++++++++++++++++++++++++
Date: Fri Oct 25 10:43:16 EDT 2013
User: price-jones
Dark Spectrum Present: No
Reference Spectrum Present: No
Number of Sampled Component Spectra: 1
Spectrometers: USB2+H05261
Integration Time (usec): 100000 (USB2+H05261)
Spectra Averaged: 1 (USB2+H05261)
Boxcar Smoothing: 0 (USB2+H05261)
Correct for Electrical Dark: No (USB2+H05261)
Strobe/Lamp Enabled: No (USB2+H05261)
Correct for Detector Non-linearity: No (USB2+H05261)
Correct for Stray Light: No (USB2+H05261)
Number of Pixels in Processed Spectrum: 2048
>>>>>Begin Processed Spectral Data<<<<<
365.73	126.39
365.92	126.39
366.12	126.39
366.32	65.54
366.52	0.00
366.72	88.94
366.91	0.00
367.11	63.19
367.31	0.00
367.51	0.00
367.70	63.19
367.90	0.00
368.10	46.81
368.30	0.00
368.49	14.04
368.69	126.39
368.89	74.90
369.09	77.24
369.28	67.88
369.48	37.45
369.68	81.92
369.87	25.75
370.07	51.49
370.27	105.32
370.47	198.95
370.66	454.06
370.86	437.68
371.06	393.21
371.25	444.70
371.45	465.77
371.65	482.15
371.84	414.27
372.04	500.87
372.24	463.43
372.44	498.53
372.63	482.15
372.83	512.58
373.03	519.60
373.22	486.83
373.42	571.09
373.62	596.84
373.81	545.34
374.01	493.85
374.21	580.45
374.40	456.40
374.60	524.28
374.79	566.41
374.99	634.29
375.19	641.31
375.38	622.58
375.58	648.33
375.78	606.20
375.97	601.52
376.17	638.97
376.37	620.24
376.56	645.99
376.76	561.73
376.95	608.54
377.15	660.03
377.35	685.78
377.54	603.86
377.74	617.90
377.93	643.65
378.13	660.03
378.33	678.76
378.52	711.52
378.72	727.91
378.91	643.65
379.11	678.76
379.31	641.31
379.50	622.58
379.70	732.59
379.89	657.69
380.09	688.12
380.28	634.29
380.48	613.22
380.68	676.41
380.87	671.73
381.07	774.72
381.26	603.86
381.46	667.05
381.65	688.12
381.85	641.31
382.04	683.44
382.24	671.73
382.43	704.50
382.63	802.80
382.83	671.73
383.02	699.82
383.22	753.65
383.41	720.88
383.61	760.67
383.80	823.87
384.00	837.91
384.19	798.12
384.39	807.48
384.58	816.85
384.78	784.08
384.97	823.87
385.17	781.74
385.36	753.65
385.56	746.63
385.75	779.40
385.95	840.25
386.14	814.51
386.34	795.78
386.53	844.93
386.72	856.64
386.92	866.00
387.11	884.72
387.31	887.06
387.50	875.36
387.70	779.40
387.89	919.83
388.09	849.61
388.28	943.24
388.48	854.30
388.67	947.92
388.86	959.62
389.06	985.37
389.25	1006.43
389.45	926.85
389.64	924.51
389.84	994.73
390.03	919.83
390.22	1018.13
390.42	999.41
390.61	980.68
390.81	924.51
391.00	1006.43
391.19	1078.99
391.39	1081.33
391.58	1203.04
391.78	1020.47
391.97	1086.01
392.16	1006.43
392.36	1027.50
392.55	1006.43
392.75	961.96
392.94	936.21
393.13	1018.13
393.33	929.19
393.52	1046.22
393.71	1074.31
393.91	1137.50
394.10	1174.95
394.29	1100.05
394.49	1160.91
394.68	1242.82
394.88	1205.38
395.07	1193.67
395.26	1247.51
395.46	1186.65
395.65	1214.74
395.84	1242.82
396.04	1240.48
396.23	1212.40
396.42	1151.54
396.62	1254.53
396.81	1247.51
397.00	1238.14
397.19	1242.82
397.39	1231.12
397.58	1371.55
397.77	1329.42
397.97	1406.66
398.16	1416.02
398.35	1469.86
398.55	1430.07
398.74	1444.11
398.93	1535.39
399.12	1394.96
399.32	1542.41
399.51	1528.37
399.70	1617.31
399.90	1493.26
400.09	1640.72
400.28	1579.86
400.47	1519.01
400.67	1589.22
400.86	1664.12
401.05	1764.76
401.24	1701.57
401.44	1760.08
401.63	1703.91
401.82	1853.70
402.01	1687.53
402.21	1795.19
402.40	1675.82
402.59	1732.00
402.78	1797.53
402.97	1785.83
403.17	1811.57
403.36	1863.07
403.55	1863.07
403.74	1867.75
403.93	1792.85
404.13	1762.42
404.32	1834.98
404.51	1949.67
404.70	1994.14
404.89	1914.56
405.09	2069.03
405.28	1956.69
405.47	1886.47
405.66	2033.93
405.85	2005.84
406.05	2080.74
406.24	1980.09
406.43	2094.78
406.62	2040.95
406.81	2167.34
407.00	2090.10
407.20	2097.12
407.39	2101.80
407.58	2106.48
407.77	2223.51
407.96	2200.10
408.15	2317.13
408.34	2153.29
408.54	2340.54
408.73	2296.07
408.92	2340.54
409.11	2347.56
409.30	2338.20
409.49	2326.49
409.68	2270.32
409.87	2235.21
410.07	2312.45
410.26	2403.73
410.45	2373.30
410.64	2396.71
410.83	2473.95
411.02	2499.69
411.21	2548.84
411.40	2602.68
411.59	2630.76
411.78	2635.44
411.98	2546.50
412.17	2619.06
412.36	2574.59
412.55	2684.59
412.74	2729.06
412.93	2703.32
413.12	2595.65
413.31	2808.64
413.50	2808.64
413.69	2862.48
413.88	2974.82
414.07	2925.67
414.26	2761.83
414.45	3023.97
414.64	2965.46
414.83	3066.10
415.02	2928.01
415.22	3054.40
415.41	3159.72
415.60	3138.66
415.79	3162.06
415.98	3269.73
416.17	3234.62
416.36	3372.71
416.55	3159.72
416.74	3251.00
416.93	3225.26
417.12	3155.04
417.31	3302.50
417.50	3258.03
417.69	3400.80
417.88	3492.08
418.07	3454.63
418.26	3391.44
418.45	3426.54
418.64	3555.27
418.83	3548.25
419.02	3536.55
419.21	3754.22
419.39	3716.77
419.58	3541.23
419.77	3566.98
419.96	3613.79
420.15	3730.81
420.34	3775.28
420.53	3719.11
420.72	3868.91
420.91	3815.07
421.10	3808.05
421.29	3768.26
421.48	3719.11
421.67	3723.79
421.86	3770.60
422.05	3770.60
422.24	3606.77
422.43	3688.68
422.61	3875.93
422.80	3953.16
422.99	3866.56
423.18	3932.10
423.37	4032.74
423.56	3918.06
423.75	3889.97
423.94	3946.14
424.13	3723.79
424.32	3915.72
424.50	4077.21
424.69	4079.55
424.88	3983.59
425.07	3904.01
425.26	3976.57
425.45	3967.21
425.64	4004.66
425.83	3932.10
426.01	3875.93
426.20	3964.87
426.39	4060.83
426.58	3983.59
426.77	3882.95
426.96	3896.99
427.15	3981.25
427.33	4079.55
427.52	3955.51
427.71	4095.94
427.90	4067.85
428.09	4285.52
428.28	4032.74
428.46	4215.30
428.65	4091.26
428.84	4135.73
429.03	4315.95
429.22	4074.87
429.40	4205.94
429.59	4133.39
429.78	4021.04
429.97	3932.10
430.16	4100.62
430.34	4227.01
430.53	4046.79
430.72	4198.92
430.91	4248.07
431.10	4365.10
431.28	4596.81
431.47	4571.07
431.66	4695.11
431.85	4500.85
432.03	4695.11
432.22	4779.37
432.41	4655.33
432.60	4685.75
432.79	4723.20
432.97	4716.18
433.16	4685.75
433.35	4709.16
433.54	4767.67
433.72	4685.75
433.91	4503.19
434.10	4746.61
434.28	4882.36
434.47	4905.76
434.66	5095.35
434.85	4933.85
435.03	4919.81
435.22	4915.12
435.41	5083.64
435.59	5067.26
435.78	4901.08
435.97	5085.98
436.16	5078.96
436.34	5170.24
436.53	5275.57
436.72	5334.08
436.90	5256.84
437.09	5116.41
437.28	5221.74
437.46	5170.24
437.65	5008.75
437.84	5432.38
438.02	5228.76
438.21	5132.79
438.40	5039.17
438.58	5259.18
438.77	5488.56
438.96	5507.28
439.14	5645.37
439.33	5624.31
439.52	5547.07
439.70	5706.23
439.89	5692.18
440.08	5617.29
440.26	5727.29
440.45	5788.14
440.63	5788.14
440.82	6050.28
441.01	5905.17
441.19	6092.41
441.38	6038.58
441.57	6267.95
441.75	6253.91
441.94	6317.11
442.12	6101.78
442.31	6382.64
442.50	6253.91
442.68	6342.85
442.87	6342.85
443.05	6345.19
443.24	6551.16
443.43	6457.54
443.61	6473.92
443.80	6684.57
443.98	6422.43
444.17	6216.46
444.35	6574.56
444.54	6715.00
444.73	6612.01
444.91	6363.92
445.10	6384.98
445.28	6403.71
445.47	6340.51
445.65	6377.96
445.84	6457.54
446.02	6546.48
446.21	6541.80
446.39	6576.91
446.58	6630.74
446.77	6729.04
446.95	6532.44
447.14	6579.25
447.32	6787.55
447.51	6595.63
447.69	6794.58
447.88	6717.34
448.06	6607.33
448.25	6822.66
448.43	6778.19
448.62	6740.74
448.80	6743.08
448.99	6876.49
449.17	6773.51
449.36	6679.89
449.54	6953.73
449.73	7101.19
449.91	7323.54
450.10	7138.63
450.28	7164.38
450.46	7197.15
450.65	7274.38
450.83	7192.47
451.02	7171.40
451.20	7236.94
451.39	7145.66
451.57	7143.32
451.76	7232.26
451.94	7194.81
452.13	7250.98
452.31	7176.08
452.49	7000.54
452.68	7152.68
452.86	7178.42
453.05	7124.59
453.23	7316.51
453.42	7155.02
453.60	7360.98
453.78	7461.63
453.97	7358.64
454.15	7222.89
454.34	7344.60
454.52	7616.10
454.70	7417.16
454.89	7669.94
455.07	7517.80
455.26	7737.81
455.44	7716.75
455.62	7693.34
455.81	7700.36
455.99	7707.38
456.17	7899.31
456.36	7873.56
456.54	7976.55
456.73	8074.85
456.91	7962.50
457.09	8208.26
457.28	8184.85
457.46	7971.86
457.64	8313.58
457.83	8006.97
458.01	8173.15
458.19	8388.48
458.38	8102.93
458.56	8191.88
458.74	8336.99
458.93	8124.00
459.11	8201.24
459.29	8182.51
459.48	8301.88
459.66	8128.68
459.84	8271.45
460.03	8561.68
460.21	8599.13
460.39	8603.81
460.57	8461.04
460.76	8498.49
460.94	8723.18
461.12	8496.14
461.31	8486.78
461.49	8706.79
461.67	8826.16
461.85	9006.38
462.04	8589.77
462.22	9418.32
462.40	9076.60
462.59	8882.33
462.77	8882.33
462.95	8882.33
463.13	8896.38
463.32	8837.86
463.50	9172.56
463.68	8933.82
463.86	8870.63
464.05	9083.62
464.23	8739.56
464.41	8982.98
464.59	8828.50
464.78	9226.39
464.96	9167.88
465.14	8954.89
465.32	9263.84
465.50	9518.96
465.69	9348.10
465.87	9338.74
466.05	9170.22
466.23	9235.75
466.41	8975.95
466.60	9191.28
466.78	9296.61
466.96	9149.15
467.14	9191.28
467.32	9423.00
467.51	9598.54
467.69	9064.89
467.87	9404.27
468.05	9647.69
468.23	9401.93
468.41	9380.87
468.60	9476.83
468.78	9734.29
468.96	9401.93
469.14	9741.31
469.32	9809.19
469.50	9392.57
469.69	9727.27
469.87	9837.27
470.05	9874.72
470.23	9703.86
470.41	9863.02
470.59	9966.00
470.77	9755.35
470.95	9926.21
471.14	10120.48
471.32	9881.74
471.50	10284.31
471.68	10333.47
471.86	10258.57
472.04	10232.82
472.22	10544.11
472.40	10284.31
472.58	10317.08
472.77	10553.48
472.95	10574.54
473.13	10848.38
473.31	10321.76
473.49	10569.86
473.67	10679.86
473.85	10832.00
474.03	10876.47
474.21	11190.10
474.39	11108.18
474.57	11002.86
474.75	11197.12
474.93	11129.25
475.12	11101.16
475.30	11136.27
475.48	11199.46
475.66	11398.41
475.84	11257.98
476.02	11520.12
476.20	11400.75
476.38	11609.06
476.56	11892.26
476.74	11716.72
476.92	11763.53
477.10	11763.53
477.28	12006.95
477.46	12119.29
477.64	12133.34
477.82	12453.99
478.00	12475.06
478.18	12533.57
478.36	12425.90
478.54	12636.55
478.72	12732.51
478.90	12917.42
479.08	12793.37
479.26	13020.40
479.44	13429.99
479.62	13074.23
479.80	13142.11
479.98	13193.60
480.16	13717.88
480.34	13640.64
480.52	13603.19
480.70	13558.72
480.88	13816.18
481.06	14150.88
481.24	13886.40
481.41	14249.18
481.59	14209.39
481.77	14188.33
481.95	14328.76
482.13	14539.41
482.31	14595.58
482.49	14686.86
482.67	14782.82
482.85	15108.16
483.03	15183.06
483.21	15283.70
483.39	15171.35
483.57	15250.93
483.74	15501.37
483.92	15604.35
484.10	15618.39
484.28	15873.51
484.46	15997.56
484.64	16685.68
484.82	15880.53
485.00	16051.39
485.18	16320.56
485.35	16262.04
485.53	16189.49
485.71	16341.62
485.89	16587.38
486.07	16222.25
486.25	16844.84
486.43	16669.30
486.61	16706.74
486.78	17404.22
486.96	17151.45
487.14	17685.09
487.32	17947.23
487.50	17724.88
487.68	17792.75
487.85	18331.08
488.03	18452.78
488.21	18532.36
488.39	18342.78
488.57	18499.59
488.75	18614.28
488.92	19087.07
489.10	19377.30
489.28	19459.21
489.46	19454.53
489.64	19707.31
489.81	20060.73
489.99	20308.83
490.17	20226.91
490.35	20381.38
490.53	20245.63
490.70	20299.47
490.88	20500.75
491.06	20779.28
491.24	20631.82
491.41	20659.91
491.59	20767.57
491.77	20568.63
491.95	21060.14
492.13	20886.94
492.30	21600.80
492.48	21380.79
492.66	22167.21
492.84	21656.98
493.01	21888.69
493.19	22153.17
493.37	22417.65
493.54	22211.68
493.72	22312.33
493.90	22895.12
494.08	22995.76
494.25	22918.53
494.43	23330.46
494.61	23180.67
494.79	23318.76
494.96	23288.33
495.14	23707.29
495.32	23651.11
495.49	23562.17
495.67	23789.20
495.85	24034.96
496.02	24107.52
496.20	24383.70
496.38	24629.46
496.55	24521.79
496.73	25275.45
496.91	24664.57
497.09	24657.54
497.26	25214.59
497.44	24875.21
497.62	24877.55
497.79	25380.77
497.97	25149.06
498.14	25832.49
498.32	25628.87
498.50	25598.44
498.67	26284.22
498.85	26031.44
499.03	26176.55
499.20	26396.56
499.38	26239.75
499.56	26480.82
499.73	26216.34
499.91	26398.90
500.08	26487.84
500.26	26518.27
500.44	26607.21
500.61	26852.97
500.79	26410.60
500.97	26749.98
501.14	26874.03
501.32	27140.85
501.49	27047.23
501.67	27075.32
501.84	27412.35
502.02	27367.88
502.20	27601.94
502.37	27545.76
502.55	27522.36
502.72	27817.27
502.90	27910.89
503.07	27730.67
503.25	27882.80
503.43	27845.35
503.60	28123.88
503.78	28091.11
503.95	27910.89
504.13	28051.32
504.30	28519.43
504.48	28910.30
504.65	28964.13
504.83	28945.41
505.01	29015.62
505.18	28790.93
505.36	29472.03
505.53	29296.49
505.71	29322.23
505.88	29659.27
506.06	29324.57
506.23	29432.24
506.41	29420.53
506.58	29645.23
506.76	30022.05
506.93	29937.79
507.11	29689.70
507.28	29890.98
507.46	29352.66
507.63	29755.23
507.81	30213.98
507.98	29947.15
508.16	30359.09
508.33	30651.66
508.50	30960.61
508.68	30707.83
508.85	31211.04
509.03	30906.77
509.20	31072.95
509.38	30862.30
509.55	31407.65
509.73	31115.08
509.90	31407.65
510.08	31721.28
510.25	31283.60
510.42	31531.70
510.60	31384.24
510.77	31655.75
510.95	32224.50
511.12	31828.95
511.30	32231.52
511.47	31906.18
511.64	32510.04
511.82	32285.35
511.99	31803.20
512.17	31800.86
512.34	32133.21
512.51	32233.86
512.69	32531.11
512.86	32332.16
513.04	33102.20
513.21	32786.22
513.38	32554.51
513.56	32765.16
513.73	32680.90
513.90	32772.18
514.08	32744.09
514.25	33078.79
514.43	33172.41
514.60	33338.59
514.77	33053.05
514.95	33748.18
515.12	33813.72
515.29	33291.78
515.47	34384.81
515.64	33635.84
515.81	33855.85
515.99	33483.70
516.16	33511.79
516.33	33834.78
516.51	33692.01
516.68	33116.24
516.85	33209.86
517.03	33404.13
517.20	33729.46
517.37	34211.61
517.54	34424.60
517.72	34029.05
517.89	33841.81
518.06	33834.78
518.24	33708.40
518.41	33968.19
518.58	34363.75
518.75	34300.55
518.93	34632.91
519.10	34518.22
519.27	35171.23
519.45	35000.37
519.62	34991.01
519.79	35480.18
519.96	35323.36
520.14	35405.28
520.31	34939.52
520.48	35545.72
520.65	35292.94
520.83	36112.13
521.00	35903.82
521.17	35749.34
521.34	36074.68
521.52	36067.66
521.69	36048.93
521.86	36357.88
522.03	36500.65
522.20	36353.20
522.38	36137.87
522.55	36495.97
522.72	36364.90
522.89	36481.93
523.07	36470.23
523.24	36519.38
523.41	36947.70
523.58	36900.89
523.75	37301.12
523.92	36842.37
524.10	37188.77
524.27	37200.47
524.44	37127.92
524.61	37083.45
524.78	37216.86
524.96	37003.87
525.13	37518.79
525.30	37645.18
525.47	37488.36
525.64	37460.27
525.81	37553.90
525.98	37127.92
526.16	37223.88
526.33	37504.74
526.50	37102.17
526.67	37233.24
526.84	37064.72
527.01	37539.85
527.18	37881.57
527.36	38286.48
527.53	37610.07
527.70	38550.96
527.87	38295.85
528.04	38557.99
528.21	38522.88
528.38	38773.31
528.55	39049.50
528.72	38852.89
528.89	38923.11
529.07	38609.48
529.24	38637.56
529.41	38354.36
529.58	38796.72
529.75	38803.74
529.92	38990.98
530.09	38759.27
530.26	40074.65
530.43	39033.11
530.60	39117.37
530.77	39093.97
530.94	39452.07
531.11	39613.57
531.28	38831.83
531.46	39501.22
531.63	39639.31
531.80	39660.38
531.97	39232.06
532.14	39119.71
532.31	38988.64
532.48	39292.91
532.65	38944.17
532.82	39751.66
532.99	39292.91
533.16	39775.06
533.33	39957.63
533.50	40065.29
533.67	39735.27
533.84	39704.85
534.01	40013.80
534.18	39749.32
534.35	40343.81
534.52	39835.92
534.69	40346.15
534.86	41034.27
535.03	40362.54
535.20	40818.94
535.37	40350.84
535.54	40802.56
535.71	40549.78
535.88	40828.30
536.05	40612.98
536.22	40886.82
536.38	40804.90
536.55	40287.64
536.72	40402.33
536.89	40273.60
537.06	40245.51
537.23	40657.45
537.40	40657.45
537.57	40676.17
537.74	41074.06
537.91	41495.36
538.08	40847.03
538.25	40823.62
538.42	41003.85
538.59	41127.89
538.75	40608.29
538.92	41312.80
539.09	41034.27
539.26	41076.40
539.43	41406.42
539.60	41268.33
539.77	41141.94
539.94	41275.35
540.11	41340.88
540.28	41287.05
540.44	41373.65
540.61	41441.53
540.78	41120.87
540.95	41535.15
541.12	41050.66
541.29	41684.94
541.46	42094.53
541.62	41759.84
541.79	41647.49
541.96	41336.20
542.13	42031.34
542.30	41483.66
542.47	41500.04
542.63	41970.49
542.80	41965.81
542.97	42422.21
543.14	42417.53
543.31	42225.60
543.48	42232.63
543.64	42794.36
543.81	42906.70
543.98	43030.75
544.15	42218.58
544.32	42923.08
544.48	43302.25
544.65	42850.53
544.82	42635.20
544.99	42309.86
545.16	42316.89
545.32	42424.55
545.49	43047.13
545.66	43526.94
545.83	42979.26
546.00	43367.79
546.16	43196.93
546.33	42899.68
546.50	42464.34
546.67	43234.38
546.83	42628.18
547.00	42588.39
547.17	43005.00
547.34	43313.95
547.50	43445.02
547.67	42972.24
547.84	43454.39
548.00	43854.62
548.17	43629.93
548.34	43285.87
548.51	43695.46
548.67	43889.73
548.84	43765.68
549.01	43342.04
549.18	43583.12
549.34	43728.23
549.51	43768.02
549.68	43597.16
549.84	43833.55
550.01	43812.49
550.18	43791.42
550.34	43676.74
550.51	43772.70
550.68	43669.72
550.84	43384.17
551.01	43976.33
551.18	43648.65
551.34	43756.32
551.51	44212.72
551.68	43952.92
551.84	44039.52
552.01	43854.62
552.18	44261.87
552.34	43615.88
552.51	44168.25
552.68	43847.60
552.84	43889.73
553.01	44388.26
553.18	44196.34
553.34	44313.36
553.51	44053.56
553.67	44425.71
553.84	44561.46
554.01	44996.80
554.17	44737.00
554.34	44556.78
554.51	44212.72
554.67	44959.35
554.84	44488.90
555.00	44186.97
555.17	44680.83
555.33	44622.31
555.50	44711.25
555.67	44753.38
555.83	44294.64
556.00	44598.91
556.16	45188.72
556.33	44357.83
556.50	44931.26
556.66	44758.06
556.83	44727.64
556.99	44774.45
557.16	44687.85
557.32	44479.54
557.49	45228.51
557.65	44727.64
557.82	44772.11
557.98	44872.75
558.15	45233.19
558.32	45394.69
558.48	44882.11
558.65	44502.95
558.81	44404.64
558.98	44725.30
559.14	44636.36
559.31	44975.73
559.47	44847.00
559.64	45071.70
559.80	44989.78
559.97	44638.70
560.13	44512.31
560.30	44816.58
560.46	45418.10
560.63	45237.87
560.79	45198.09
560.96	45591.30
561.12	45064.67
561.29	45043.61
561.45	45020.20
561.61	44938.29
561.78	45191.06
561.94	44589.55
562.11	45628.74
562.27	45116.17
562.44	45219.15
562.60	45361.92
562.77	45502.35
562.93	45347.88
563.10	45778.54
563.26	45441.50
563.42	45626.40
563.59	44856.37
563.75	45387.67
563.92	45577.25
564.08	45497.67
564.24	45652.15
564.41	45301.07
564.57	45233.19
564.74	45291.71
564.90	45340.86
565.07	45268.30
565.23	45595.98
565.39	45565.55
565.56	45717.68
565.72	45045.95
565.88	45411.07
566.05	45390.01
566.21	45593.64
566.38	45603.00
566.54	45509.38
566.70	45888.54
566.87	46188.13
567.03	45708.32
567.19	45851.09
567.36	46178.77
567.52	45382.99
567.68	45942.38
567.85	45347.88
568.01	45811.31
568.17	45399.37
568.34	46078.13
568.50	45312.77
568.66	45617.04
568.83	45574.91
568.99	45270.64
569.15	45916.63
569.32	45631.08
569.48	45638.11
569.64	45965.78
569.81	45907.27
569.97	45336.18
570.13	45591.30
570.30	45371.28
570.46	45361.92
570.62	45226.17
570.78	45244.90
570.95	45425.12
571.11	45689.60
571.27	45649.81
571.43	45862.80
571.60	45612.36
571.76	45509.38
571.92	45591.30
572.09	46021.95
572.25	46494.74
572.41	46017.27
572.57	46021.95
572.74	46220.90
572.90	45771.52
573.06	46047.70
573.22	45464.91
573.38	45827.69
573.55	45930.67
573.71	46218.56
573.87	45909.61
574.03	45612.36
574.20	45792.58
574.36	45827.69
574.52	45792.58
574.68	45951.74
574.84	46033.66
575.01	45502.35
575.17	45940.04
575.33	45415.76
575.49	45497.67
575.65	46487.72
575.82	45705.98
575.98	45673.21
576.14	45886.20
576.30	45968.12
576.46	46014.93
576.62	45535.12
576.79	45738.75
576.95	45497.67
577.11	45738.75
577.27	46026.63
577.43	45720.02
577.59	45698.96
577.75	45832.37
577.92	45635.77
578.08	45146.59
578.24	45705.98
578.40	46007.91
578.56	46028.98
578.72	45844.07
578.88	45998.55
579.04	46209.20
579.21	45626.40
579.37	45694.28
579.53	45638.11
579.69	45652.15
579.85	45734.07
580.01	45986.85
580.17	45584.27
580.33	45958.76
580.49	45464.91
580.65	45993.87
580.82	45820.67
580.98	45925.99
581.14	45729.39
581.30	46054.72
581.46	46071.10
581.62	46064.08
581.78	45818.33
581.94	46305.16
582.10	45963.44
582.26	46113.23
582.42	46003.23
582.58	45979.82
582.74	45757.47
582.90	46127.28
583.06	46270.05
583.22	45970.46
583.38	46134.30
583.54	46073.45
583.70	46047.70
583.86	46064.08
584.02	45366.60
584.18	46110.89
584.34	45790.24
584.50	45673.21
584.66	46204.52
584.82	45722.37
584.98	46005.57
585.14	45907.27
585.30	45820.67
585.46	45743.43
585.62	45701.30
585.78	45844.07
585.94	45862.80
586.10	45701.30
586.26	45411.07
586.42	45806.62
586.58	46129.62
586.74	46003.23
586.90	45329.16
587.06	46033.66
587.22	46115.58
587.38	45886.20
587.54	45904.93
587.70	46389.42
587.86	45825.35
588.02	46480.70
588.18	45851.09
588.34	45911.95
588.49	45600.66
588.65	45345.54
588.81	45509.38
588.97	45504.70
589.13	45703.64
589.29	45635.77
589.45	45741.09
589.61	45511.72
589.77	45979.82
589.93	46333.24
590.08	45916.63
