SpectraSuite Data File
++++++++++++++++++++++++++++++++++++
Date: Fri Oct 25 11:25:19 EDT 2013
User: price-jones
Dark Spectrum Present: No
Reference Spectrum Present: No
Number of Sampled Component Spectra: 1
Spectrometers: USB2+H05261
Integration Time (usec): 100000 (USB2+H05261)
Spectra Averaged: 1 (USB2+H05261)
Boxcar Smoothing: 0 (USB2+H05261)
Correct for Electrical Dark: No (USB2+H05261)
Strobe/Lamp Enabled: No (USB2+H05261)
Correct for Detector Non-linearity: No (USB2+H05261)
Correct for Stray Light: No (USB2+H05261)
Number of Pixels in Processed Spectrum: 2048
>>>>>Begin Processed Spectral Data<<<<<
365.73	231.71
365.92	231.71
366.12	231.71
366.32	191.92
366.52	168.52
366.72	175.54
366.91	107.66
367.11	166.18
367.31	163.84
367.51	154.48
367.70	86.60
367.90	215.33
368.10	128.73
368.30	177.88
368.49	86.60
368.69	198.95
368.89	191.92
369.09	191.92
369.28	152.13
369.48	163.84
369.68	182.56
369.87	161.50
370.07	170.86
370.27	166.18
370.47	287.89
370.66	575.77
370.86	631.94
371.06	592.16
371.25	741.95
371.45	662.37
371.65	671.73
371.84	627.26
372.04	716.20
372.24	636.63
372.44	734.93
372.63	741.95
372.83	690.46
373.03	739.61
373.22	676.41
373.42	798.12
373.62	812.17
373.81	800.46
374.01	772.38
374.21	837.91
374.40	814.51
374.60	812.17
374.79	828.55
374.99	748.97
375.19	840.25
375.38	901.11
375.58	793.44
375.78	875.36
375.97	880.04
376.17	884.72
376.37	861.32
376.56	868.34
376.76	837.91
376.95	964.30
377.15	947.92
377.35	901.11
377.54	976.00
377.74	933.87
377.93	816.85
378.13	877.70
378.33	1011.11
378.52	957.28
378.72	903.45
378.91	922.17
379.11	950.26
379.31	875.36
379.50	971.32
379.70	1039.20
379.89	961.96
380.09	973.66
380.28	985.37
380.48	957.28
380.68	966.64
380.87	1006.43
381.07	1004.09
381.26	1039.20
381.46	992.39
381.65	997.07
381.85	990.05
382.04	1048.56
382.24	1090.69
382.43	1081.33
382.63	1100.05
382.83	1060.26
383.02	1109.41
383.22	1156.22
383.41	1048.56
383.61	1139.84
383.80	1121.12
384.00	1071.97
384.19	1158.57
384.39	1144.52
384.58	1104.73
384.78	1100.05
384.97	1198.35
385.17	1144.52
385.36	1170.27
385.56	1100.05
385.75	1142.18
385.95	1179.63
386.14	1224.10
386.34	1174.95
386.53	1263.89
386.72	1212.40
386.92	1139.84
387.11	1245.16
387.31	1231.12
387.50	1284.95
387.70	1235.80
387.89	1235.80
388.09	1280.27
388.28	1306.02
388.48	1320.06
388.67	1329.42
388.86	1306.02
389.06	1282.61
389.25	1350.49
389.45	1329.42
389.64	1256.87
389.84	1376.24
390.03	1413.68
390.22	1357.51
390.42	1345.81
390.61	1343.47
390.81	1352.83
391.00	1366.87
391.19	1486.24
391.39	1448.79
391.58	1490.92
391.78	1359.85
391.97	1446.45
392.16	1493.26
392.36	1526.03
392.55	1469.86
392.75	1455.81
392.94	1502.62
393.13	1556.46
393.33	1528.37
393.52	1551.78
393.71	1502.62
393.91	1519.01
394.10	1689.87
394.29	1586.88
394.49	1666.46
394.68	1640.72
394.88	1563.48
395.07	1645.40
395.26	1694.55
395.46	1664.12
395.65	1734.34
395.84	1771.79
396.04	1781.15
396.23	1699.23
396.42	1778.81
396.62	1746.04
396.81	1846.68
397.00	1739.02
397.19	1827.96
397.39	1717.95
397.58	1811.57
397.77	1788.17
397.97	1820.94
398.16	1930.94
398.35	1865.41
398.55	1900.52
398.74	1851.36
398.93	1977.75
399.12	1863.07
399.32	1790.51
399.51	1952.01
399.70	1912.22
399.90	1907.54
400.09	1952.01
400.28	2040.95
400.47	1991.80
400.67	2165.00
400.86	2031.58
401.05	2040.95
401.24	2099.46
401.44	1998.82
401.63	2062.01
401.82	2256.28
402.01	2071.37
402.21	2204.78
402.40	2258.62
402.59	2169.68
402.78	2155.63
402.97	2139.25
403.17	2197.76
403.36	2305.43
403.55	2232.87
403.74	2424.80
403.93	2377.98
404.13	2349.90
404.32	2270.32
404.51	2347.56
404.70	2389.69
404.89	2502.03
405.09	2560.55
405.28	2509.05
405.47	2551.18
405.66	2523.10
405.85	2436.50
406.05	2509.05
406.24	2649.49
406.43	2597.99
406.62	2581.61
406.81	2656.51
407.00	2466.92
407.20	2595.65
407.39	2726.72
407.58	2633.10
407.77	2534.80
407.96	2853.11
408.15	2778.22
408.34	2717.36
408.54	2761.83
408.73	2801.62
408.92	2754.81
409.11	2906.95
409.30	2747.79
409.49	2855.45
409.68	2902.26
409.87	2815.66
410.07	2932.69
410.26	2977.16
410.45	2918.65
410.64	3070.78
410.83	3059.08
411.02	3005.25
411.21	3178.45
411.40	3119.93
411.59	3236.96
411.78	3183.13
411.98	3211.22
412.17	3197.17
412.36	3243.98
412.55	3300.16
412.74	3412.50
412.93	3466.33
413.12	3321.22
413.31	3428.88
413.50	3475.70
413.69	3517.83
413.88	3529.53
414.07	3583.36
414.26	3517.83
414.45	3674.64
414.64	3655.92
414.83	3763.58
415.02	3705.07
415.22	3719.11
415.41	3866.56
415.60	3831.46
415.79	3742.52
415.98	4051.47
416.17	3899.33
416.36	3995.29
416.55	3981.25
416.74	3992.95
416.93	3852.52
417.12	4035.08
417.31	4117.00
417.50	4154.45
417.69	4337.01
417.88	4339.35
418.07	4234.03
418.26	4147.43
418.45	4229.35
418.64	4535.96
418.83	4381.48
419.02	4566.39
419.21	4435.32
419.39	4440.00
419.58	4470.42
419.77	4447.02
419.96	4552.34
420.15	4341.69
420.34	4592.13
420.53	4608.51
420.72	4664.69
420.91	4751.29
421.10	4627.24
421.29	4606.17
421.48	4702.14
421.67	4681.07
421.86	4877.68
422.05	4805.12
422.24	4730.22
422.43	4854.27
422.61	4875.34
422.80	4800.44
422.99	4856.61
423.18	4997.04
423.37	5048.54
423.56	4975.98
423.75	4912.78
423.94	4894.06
424.13	4531.28
424.32	4650.64
424.50	5022.79
424.69	5006.41
424.88	5111.73
425.07	4758.31
425.26	4849.59
425.45	4891.72
425.64	4788.74
425.83	4938.53
426.01	5041.51
426.20	4968.96
426.39	4992.36
426.58	5032.15
426.77	5008.75
426.96	5015.77
427.15	4908.10
427.33	5268.55
427.52	4985.34
427.71	5254.50
427.90	5144.50
428.09	5226.42
428.28	5317.70
428.46	5191.31
428.65	5376.21
428.84	5472.17
429.03	5458.13
429.22	5268.55
429.40	5504.94
429.59	5439.40
429.78	5256.84
429.97	5193.65
430.16	5416.00
430.34	5411.32
430.53	5617.29
430.72	5596.22
430.91	5565.79
431.10	5549.41
431.28	5521.32
431.47	5647.71
431.66	5781.12
431.85	5753.04
432.03	5872.40
432.22	5881.77
432.41	5809.21
432.60	5853.68
432.79	5856.02
432.97	6057.31
433.16	6071.35
433.35	5849.00
433.54	5991.77
433.72	6221.14
433.91	6104.12
434.10	6076.03
434.28	6167.31
434.47	6195.40
434.66	6017.52
434.85	6359.24
435.03	6174.33
435.22	6265.61
435.41	6450.52
435.59	6282.00
435.78	6406.05
435.97	6644.78
436.16	6335.83
436.34	6436.47
436.53	6593.29
436.72	6462.22
436.90	6530.09
437.09	6539.46
437.28	6480.94
437.46	6450.52
437.65	6541.80
437.84	6722.02
438.02	6478.60
438.21	6661.16
438.40	6630.74
438.58	6909.26
438.77	7026.29
438.96	6878.83
439.14	7066.08
439.33	7180.76
439.52	7218.21
439.70	7061.40
439.89	7508.44
440.08	7272.04
440.26	7286.09
440.45	7260.34
440.63	7456.95
440.82	7410.14
441.01	7510.78
441.19	7543.55
441.38	7573.97
441.57	7777.60
441.75	7854.84
441.94	7808.03
442.12	7997.61
442.31	7971.86
442.50	7889.95
442.68	7943.78
442.87	8070.17
443.05	8006.97
443.24	8042.08
443.43	8065.49
443.61	8051.44
443.80	8334.65
443.98	7871.22
444.17	7770.58
444.35	8079.53
444.54	8262.09
444.73	8198.90
444.91	8217.62
445.10	8163.79
445.28	8437.63
445.47	8252.73
445.65	8297.20
445.84	8439.97
446.02	8355.71
446.21	8374.44
446.39	8208.26
446.58	8379.12
446.77	8414.23
446.95	8128.68
447.14	8339.33
447.32	8500.83
447.51	8252.73
447.69	8292.52
447.88	8486.78
448.06	8500.83
448.25	8575.72
448.43	8498.49
448.62	8472.74
448.80	8608.49
448.99	8674.03
449.17	8575.72
449.36	8624.87
449.54	8861.27
449.73	8922.12
449.91	8784.03
450.10	8781.69
450.28	9020.42
450.46	8954.89
450.65	8973.61
450.83	9064.89
451.02	8961.91
451.20	9191.28
451.39	8978.30
451.57	8987.66
451.76	8891.70
451.94	9067.24
452.13	9343.42
452.31	9158.52
452.49	9254.48
452.68	9121.07
452.86	9287.25
453.05	9366.82
453.23	9490.87
453.42	9376.19
453.60	9149.15
453.78	9502.58
453.97	9383.21
454.15	9481.51
454.34	9404.27
454.52	9654.71
454.70	9628.96
454.89	9542.36
455.07	9661.73
455.26	9738.97
455.44	10148.56
455.62	9755.35
455.81	9951.96
455.99	9970.68
456.17	9949.62
456.36	10010.47
456.54	10015.15
456.73	10256.23
456.91	10382.62
457.09	10396.66
457.28	10377.94
457.46	10223.46
457.64	10406.02
457.83	10518.37
458.01	10253.89
458.19	10581.56
458.38	10459.85
458.56	10583.90
458.74	10803.91
458.93	10349.85
459.11	10600.29
459.29	10677.52
459.48	10700.93
459.66	10590.92
459.84	10834.34
460.03	11098.82
460.21	10960.73
460.39	10841.36
460.57	10862.43
460.76	11059.03
460.94	11239.25
461.12	10803.91
461.31	11215.85
461.49	11021.58
461.67	11192.44
461.85	11110.52
462.04	11101.16
462.22	11749.49
462.40	11534.16
462.59	11463.94
462.77	11367.98
462.95	11463.94
463.13	11492.03
463.32	11531.82
463.50	11700.34
463.68	11557.57
463.86	11733.11
464.05	11414.79
464.23	11707.36
464.41	11735.45
464.59	11550.54
464.78	12088.87
464.96	11831.41
465.14	11693.32
465.32	11932.05
465.50	12091.21
465.69	12037.38
465.87	12002.27
466.05	12112.27
466.23	11943.75
466.41	12212.92
466.60	12407.18
466.78	11864.18
466.96	12241.00
467.14	11995.25
467.32	12166.10
467.51	12634.21
467.69	12163.76
467.87	12219.94
468.05	12491.44
468.23	12311.22
468.41	12189.51
468.60	12669.32
468.78	12556.97
468.96	12465.69
469.14	12835.50
469.32	13004.02
469.50	12358.03
469.69	12971.25
469.87	13149.13
470.05	12994.65
470.23	13076.57
470.41	13099.98
470.59	13102.32
470.77	12975.93
470.95	13263.82
471.14	13474.46
471.32	13153.81
471.50	13556.38
471.68	13565.74
471.86	13465.10
472.04	13640.64
472.22	13912.14
472.40	13472.12
472.58	13848.95
472.77	13799.80
472.95	14207.05
473.13	14427.06
473.31	13982.36
473.49	14129.81
473.67	14022.15
473.85	14087.68
474.03	14642.39
474.21	14295.99
474.39	14785.16
474.57	14637.71
474.75	14684.52
474.93	14846.02
475.12	14684.52
475.30	14986.45
475.48	14902.19
475.66	15297.74
475.84	15066.03
476.02	15365.62
476.20	15272.00
476.38	15407.75
476.56	15868.83
476.74	15667.55
476.92	15548.18
477.10	15627.76
477.28	15939.05
477.46	16088.84
477.64	16285.45
477.82	16453.97
478.00	16905.69
478.18	16507.80
478.36	17085.91
478.54	17099.95
478.72	17097.61
478.90	16996.97
479.08	17270.81
479.26	17642.96
479.44	17528.27
479.62	17551.68
479.80	17696.79
479.98	18197.67
480.16	18391.93
480.34	18001.06
480.52	18661.09
480.70	18120.43
480.88	18265.54
481.06	18448.10
481.24	18616.62
481.41	18995.79
481.59	19295.38
481.77	19309.42
481.95	19185.37
482.13	19442.83
482.31	19541.13
482.49	20292.44
482.67	19894.55
482.85	20205.84
483.03	20592.03
483.21	20327.55
483.39	20648.21
483.57	20531.18
483.74	20861.19
483.92	21249.72
484.10	21322.28
484.28	21542.29
484.46	21598.46
484.64	22075.93
484.82	21837.20
485.00	22249.13
485.18	22511.27
485.35	22530.00
485.53	22787.46
485.71	22867.03
485.89	23594.94
486.07	23236.84
486.25	23754.10
486.43	23665.16
486.61	23552.81
486.78	23882.83
486.96	23716.65
487.14	24484.34
487.32	24575.62
487.50	24814.36
487.68	24709.04
487.85	25181.82
488.03	25207.57
488.21	25490.77
488.39	25528.22
488.57	25968.24
488.75	25947.18
488.92	26403.58
489.10	26419.97
489.28	26572.10
489.46	27044.89
489.64	26586.15
489.81	27410.01
489.99	27388.95
490.17	27487.25
490.35	28191.75
490.53	27798.54
490.70	28334.53
490.88	27936.63
491.06	28737.10
491.24	28348.57
491.41	28788.59
491.59	29127.97
491.77	29076.48
491.95	29291.80
492.13	29488.41
492.30	29689.70
492.48	29570.33
492.66	30080.56
492.84	29926.09
493.01	30312.28
493.19	30607.19
493.37	31009.76
493.54	30712.51
493.72	31054.23
493.90	31414.67
494.08	31585.53
494.25	31910.86
494.43	31728.30
494.61	32013.85
494.79	32261.94
494.96	31871.07
495.14	32538.13
495.32	32648.13
495.49	33078.79
495.67	32905.59
495.85	33113.90
496.02	33076.45
496.20	33762.23
496.38	33804.36
496.55	34015.01
496.73	34562.69
496.91	34375.45
497.09	34696.10
497.26	34993.35
497.44	34696.10
497.62	35040.16
497.79	35707.21
497.97	35211.02
498.14	35992.76
498.32	36107.44
498.50	35838.28
498.67	35892.12
498.85	36116.81
499.03	36514.70
499.20	36465.55
499.38	36748.75
499.56	36861.10
499.73	36624.70
499.91	36968.76
500.08	37361.97
500.26	37235.58
500.44	37331.54
500.61	37497.72
500.79	37331.54
500.97	37900.29
501.14	38487.77
501.32	38132.01
501.49	38291.16
501.67	38773.31
501.84	38677.35
502.02	38628.20
502.20	38752.25
502.37	38974.60
502.55	39028.43
502.72	39105.67
502.90	39391.22
503.07	39061.20
503.25	39269.51
503.43	39321.00
503.60	39735.27
503.78	40091.04
503.95	40184.66
504.13	40184.66
504.30	40297.00
504.48	40170.61
504.65	40790.86
504.83	40776.81
505.01	41141.94
505.18	40959.38
505.36	41130.23
505.53	40868.09
505.71	40914.90
505.88	41446.21
506.06	41109.17
506.23	41497.70
506.41	41165.34
506.58	41930.70
506.76	41865.16
506.93	42454.98
507.11	42026.66
507.28	42342.63
507.46	42164.75
507.63	42583.71
507.81	42969.90
507.98	42583.71
508.16	43100.97
508.33	42836.48
508.50	42983.94
508.68	43091.60
508.85	43475.45
509.03	43805.47
509.20	43428.64
509.38	44273.57
509.55	43903.77
509.73	44285.28
509.90	44105.06
510.08	44332.09
510.25	44334.43
510.42	44140.16
510.60	44945.31
510.77	44699.55
510.95	45233.19
511.12	44980.42
511.30	45069.36
511.47	45418.10
511.64	45567.89
511.82	45544.48
511.99	45404.05
512.17	45745.77
512.34	45731.73
512.51	46019.61
512.69	46176.43
512.86	46335.59
513.04	46337.93
513.21	46504.10
513.38	46286.43
513.56	46738.16
513.73	46171.75
513.90	46873.91
514.08	46525.17
514.25	46838.80
514.43	46836.46
514.60	47199.24
514.77	47192.22
514.95	47536.28
515.12	46967.53
515.29	47299.89
515.47	47463.72
515.64	47880.34
515.81	47463.72
515.99	47709.48
516.16	47753.95
516.33	48224.40
516.51	48542.71
516.68	48266.53
516.85	48196.31
517.03	48573.14
517.20	48594.20
517.37	48526.33
517.54	48636.33
517.72	48231.42
517.89	48854.00
518.06	48793.15
518.24	48886.77
518.41	49059.97
518.58	48701.87
518.75	49134.87
518.93	49436.80
519.10	49134.87
519.27	49509.35
519.45	49287.00
519.62	49495.31
519.79	49659.15
519.96	49860.43
520.14	49661.49
520.31	49731.70
520.48	50129.59
520.65	50234.92
520.83	50291.09
521.00	50272.37
521.17	50384.71
521.34	50571.96
521.52	50225.56
521.69	50714.73
521.86	50801.33
522.03	50677.28
522.20	51023.68
522.38	51187.52
522.55	51035.38
522.72	50923.04
522.89	51107.94
523.07	51428.59
523.24	51138.36
523.41	51613.49
523.58	51283.48
523.75	51943.51
523.92	51365.40
524.10	51526.89
524.27	51501.15
524.44	51856.91
524.61	52013.73
524.78	51632.22
524.96	52088.62
525.13	51863.93
525.30	52144.80
525.47	52048.83
525.64	52315.65
525.81	52240.76
525.98	52498.22
526.16	52233.74
526.33	52332.04
526.50	52863.34
526.67	52425.66
526.84	52664.39
527.01	52615.24
527.18	52575.45
527.36	52933.56
527.53	52540.35
527.70	53043.56
527.87	53455.50
528.04	52849.30
528.21	53427.41
528.38	53193.36
528.55	53605.29
528.72	53251.87
528.89	53261.23
529.07	53193.36
529.24	53083.35
529.41	53418.05
529.58	53572.52
529.75	53453.15
529.92	53558.48
530.09	53832.32
530.26	53593.59
530.43	53925.94
530.60	53621.67
530.77	53656.78
530.94	53907.22
531.11	53701.25
531.28	54237.23
531.46	54143.61
531.63	54096.80
531.80	53932.96
531.97	54429.16
532.14	54101.48
532.31	54251.28
532.48	54148.29
532.65	54719.38
532.82	54326.17
532.99	54492.35
533.16	54508.74
533.33	54834.07
533.50	54752.15
533.67	54550.87
533.84	54457.24
534.01	54695.98
534.18	54660.87
534.35	55096.21
534.52	54497.03
534.69	54901.95
534.86	55091.53
535.03	54862.16
535.20	55079.83
535.37	55175.79
535.54	55201.53
535.71	55042.38
535.88	55051.74
536.05	55229.62
536.22	55161.75
536.38	55496.44
536.55	55440.27
536.72	55262.39
536.89	55234.30
537.06	55260.05
537.23	55545.59
537.40	55456.65
537.57	55278.77
537.74	55615.81
537.91	55849.86
538.08	55545.59
538.25	55543.25
538.42	55760.92
538.59	55908.38
538.75	55636.87
538.92	55803.05
539.09	56032.42
539.26	56133.07
539.43	55896.67
539.60	55889.65
539.77	55906.04
539.94	56107.32
540.11	56133.07
540.28	56137.75
540.44	56095.62
540.61	56126.05
540.78	56231.37
540.95	56301.59
541.12	56275.84
541.29	56481.81
541.46	56413.93
541.62	56554.36
541.79	56231.37
541.96	55943.48
542.13	56509.89
542.30	56416.27
542.47	56664.37
542.63	56552.02
542.80	56746.29
542.97	56849.27
543.14	57111.41
543.31	57027.15
543.48	57176.95
543.64	57071.62
543.81	57137.16
543.98	57071.62
544.15	57116.09
544.32	57411.00
544.48	57457.81
544.65	57261.21
544.82	57310.36
544.99	57153.54
545.16	57436.75
545.32	57275.25
545.49	57539.73
545.66	57221.42
545.83	57378.23
546.00	57556.11
546.16	57504.62
546.33	57471.85
546.50	57375.89
546.67	57506.96
546.83	57406.32
547.00	57584.20
547.17	57633.35
547.34	57528.03
547.50	57705.91
547.67	57876.77
547.84	57656.76
548.00	57722.29
548.17	57792.51
548.34	57879.11
548.51	58225.51
548.67	58124.86
548.84	58150.61
549.01	57715.27
549.18	57956.35
549.34	58241.89
549.51	58054.65
549.68	58026.56
549.84	58349.56
550.01	58127.20
550.18	58080.39
550.34	58314.45
550.51	58281.68
550.68	58260.62
550.84	58155.29
551.01	58398.71
551.18	58239.55
551.34	58403.39
551.51	58211.46
551.68	58426.79
551.84	58412.75
552.01	58262.96
552.18	58539.14
552.34	58429.13
552.51	58431.47
552.68	58293.38
552.84	58415.09
553.01	58759.15
553.18	58609.35
553.34	58782.55
553.51	58808.30
553.67	58805.96
553.84	58745.11
554.01	58796.60
554.17	58934.69
554.34	58838.73
554.51	58901.92
554.67	58775.53
554.84	58850.43
555.00	58663.19
555.17	58878.52
555.33	58820.00
555.50	58885.54
555.67	58969.80
555.83	58969.80
556.00	59037.67
556.16	59248.32
556.33	59215.55
556.50	59110.23
556.66	59138.32
556.83	58878.52
556.99	59313.86
557.16	59295.13
557.32	59363.01
557.49	59498.76
557.65	59180.45
557.82	59126.61
557.98	59150.02
558.15	59222.58
558.32	59234.28
558.48	59250.66
558.65	59332.58
558.81	59414.50
558.98	59281.09
559.14	59320.88
559.31	59477.69
559.47	59386.41
559.64	59517.48
559.80	59367.69
559.97	59224.92
560.13	59299.81
560.30	59578.34
560.46	59585.36
560.63	59735.15
560.79	59538.55
560.96	59819.41
561.12	59653.23
561.29	59681.32
561.45	59601.74
561.61	59681.32
561.78	59746.86
561.94	59634.51
562.11	59749.20
562.27	59473.01
562.44	59690.68
562.60	59976.23
562.77	60093.25
562.93	59660.26
563.10	59877.93
563.26	59590.04
563.42	59870.90
563.59	59812.39
563.75	59730.47
563.92	59868.56
564.08	59735.15
564.24	60144.75
564.41	59999.63
564.57	59950.48
564.74	60025.38
564.90	59931.76
565.07	60018.36
565.23	59788.98
565.39	59922.40
565.56	60062.83
565.72	59798.35
565.88	59791.33
566.05	60016.02
566.21	59990.27
566.38	60193.90
566.54	60137.72
566.70	60158.79
566.87	60296.88
567.03	59920.05
567.19	60214.96
567.36	60116.66
567.52	59978.57
567.68	60273.48
567.85	60280.50
568.01	60306.24
568.17	60280.50
568.34	60245.39
568.50	60207.94
568.66	60203.26
568.83	60343.69
568.99	60243.05
569.15	60294.54
569.32	60507.53
569.48	60147.09
569.64	60322.63
569.81	60207.94
569.97	60156.45
570.13	60418.59
570.30	60278.16
570.46	60264.11
570.62	60097.94
570.78	60287.52
570.95	60299.22
571.11	60474.76
571.27	60177.51
571.43	60254.75
571.60	60441.99
571.76	60498.17
571.92	60299.22
572.09	60430.29
572.25	60451.36
572.41	60350.71
572.57	60470.08
572.74	60598.81
572.90	60371.78
573.06	60542.64
573.22	60355.39
573.38	60566.04
573.55	60402.21
573.71	60636.26
573.87	60533.28
574.03	60413.91
574.20	60544.98
574.36	60535.62
574.52	60554.34
574.68	60612.85
574.84	60544.98
575.01	60727.54
575.17	60339.01
575.33	60247.73
575.49	60624.56
575.65	60439.65
575.82	60451.36
575.98	60743.92
576.14	60774.35
576.30	60769.67
576.46	60542.64
576.62	60479.44
576.79	60584.77
576.95	60315.61
577.11	60502.85
577.27	60736.90
577.43	60837.54
577.59	60612.85
577.75	60622.22
577.92	60327.31
578.08	60577.75
578.24	60711.16
578.40	60566.04
578.56	60802.44
578.72	60708.82
578.88	60741.58
579.04	60846.91
579.21	60818.82
579.37	60835.20
579.53	61029.47
579.69	60561.36
579.85	60547.32
580.01	60671.37
580.17	60498.17
580.33	60856.27
580.49	60933.51
580.65	60626.90
580.82	60718.18
580.98	60683.07
581.14	60666.69
581.30	60989.68
581.46	60764.99
581.62	60814.14
581.78	60554.34
581.94	60900.74
582.10	60650.30
582.26	60636.26
582.42	60505.19
582.58	60713.50
582.74	60835.20
582.90	60762.65
583.06	60692.43
583.22	60643.28
583.38	60673.71
583.54	61001.38
583.70	60760.31
583.86	60722.86
584.02	60767.33
584.18	60959.25
584.34	60849.25
584.50	60917.12
584.66	60640.94
584.82	60390.50
584.98	60811.80
585.14	60877.33
585.30	60629.24
585.46	60757.97
585.62	60816.48
585.78	60884.36
585.94	60671.37
586.10	60795.42
586.26	60982.66
586.42	61024.79
586.58	60828.18
586.74	60788.39
586.90	60865.63
587.06	60821.16
587.22	60856.27
587.38	60711.16
587.54	61024.79
587.70	60992.02
587.86	60851.59
588.02	60781.37
588.18	60846.91
588.34	60837.54
588.49	60872.65
