SpectraSuite Data File
++++++++++++++++++++++++++++++++++++
Date: Fri Oct 25 10:44:05 EDT 2013
User: price-jones
Dark Spectrum Present: No
Reference Spectrum Present: No
Number of Sampled Component Spectra: 1
Spectrometers: USB2+H05261
Integration Time (usec): 100000 (USB2+H05261)
Spectra Averaged: 1 (USB2+H05261)
Boxcar Smoothing: 0 (USB2+H05261)
Correct for Electrical Dark: No (USB2+H05261)
Strobe/Lamp Enabled: No (USB2+H05261)
Correct for Detector Non-linearity: No (USB2+H05261)
Correct for Stray Light: No (USB2+H05261)
Number of Pixels in Processed Spectrum: 2048
>>>>>Begin Processed Spectral Data<<<<<
365.73	84.26
365.92	84.26
366.12	84.26
366.32	37.45
366.52	0.00
366.72	16.38
366.91	11.70
367.11	51.49
367.31	0.00
367.51	25.75
367.70	16.38
367.90	32.77
368.10	35.11
368.30	7.02
368.49	23.41
368.69	18.72
368.89	21.06
369.09	30.43
369.28	93.62
369.48	32.77
369.68	18.72
369.87	84.26
370.07	121.71
370.27	126.39
370.47	168.52
370.66	423.64
370.86	447.04
371.06	388.53
371.25	444.70
371.45	491.51
371.65	444.70
371.84	447.04
372.04	395.55
372.24	510.24
372.44	440.02
372.63	493.85
372.83	519.60
373.03	491.51
373.22	447.04
373.42	596.84
373.62	559.39
373.81	533.64
374.01	543.00
374.21	575.77
374.40	540.66
374.60	580.45
374.79	580.45
374.99	571.09
375.19	622.58
375.38	566.41
375.58	568.75
375.78	615.56
375.97	706.84
376.17	655.35
376.37	571.09
376.56	667.05
376.76	521.94
376.95	594.50
377.15	634.29
377.35	709.18
377.54	711.52
377.74	615.56
377.93	662.37
378.13	723.23
378.33	678.76
378.52	641.31
378.72	645.99
378.91	685.78
379.11	688.12
379.31	688.12
379.50	629.60
379.70	643.65
379.89	755.99
380.09	613.22
380.28	692.80
380.48	596.84
380.68	711.52
380.87	674.07
381.07	791.10
381.26	772.38
381.46	683.44
381.65	695.14
381.85	617.90
382.04	746.63
382.24	725.57
382.43	755.99
382.63	697.48
382.83	814.51
383.02	770.04
383.22	755.99
383.41	671.73
383.61	765.36
383.80	800.46
384.00	760.67
384.19	816.85
384.39	835.57
384.58	753.65
384.78	767.70
384.97	788.76
385.17	814.51
385.36	739.61
385.56	887.06
385.75	765.36
385.95	894.08
386.14	854.30
386.34	875.36
386.53	819.19
386.72	819.19
386.92	882.38
387.11	915.15
387.31	866.00
387.50	791.10
387.70	898.77
387.89	880.04
388.09	940.90
388.28	940.90
388.48	887.06
388.67	924.51
388.86	903.45
389.06	990.05
389.25	1015.79
389.45	1067.28
389.64	990.05
389.84	990.05
390.03	957.28
390.22	997.07
390.42	1001.75
390.61	992.39
390.81	1074.31
391.00	1116.44
391.19	1125.80
391.39	1109.41
391.58	1125.80
391.78	1011.11
391.97	1097.71
392.16	1029.84
392.36	1060.26
392.55	1097.71
392.75	1013.45
392.94	889.40
393.13	1041.54
393.33	983.02
393.52	1069.62
393.71	1132.82
393.91	1135.16
394.10	1097.71
394.29	1228.78
394.49	1256.87
394.68	1270.91
394.88	1193.67
395.07	1327.08
395.26	1228.78
395.46	1249.85
395.65	1329.42
395.84	1196.01
396.04	1301.34
396.23	1233.46
396.42	1193.67
396.62	1158.57
396.81	1327.08
397.00	1217.08
397.19	1263.89
397.39	1273.25
397.58	1455.81
397.77	1439.43
397.97	1526.03
398.16	1469.86
398.35	1493.26
398.55	1441.77
398.74	1528.37
398.93	1467.52
399.12	1629.01
399.32	1469.86
399.51	1624.33
399.70	1551.78
399.90	1624.33
400.09	1685.19
400.28	1715.61
400.47	1661.78
400.67	1743.70
400.86	1781.15
401.05	1732.00
401.24	1736.68
401.44	1736.68
401.63	1699.23
401.82	1820.94
402.01	1781.15
402.21	1811.57
402.40	1715.61
402.59	1825.62
402.78	1722.63
402.97	1748.38
403.17	1856.04
403.36	1863.07
403.55	1865.41
403.74	1959.03
403.93	1975.41
404.13	1940.30
404.32	1954.35
404.51	1846.68
404.70	2047.97
404.89	1893.49
405.09	1984.77
405.28	1907.54
405.47	2076.06
405.66	2062.01
405.85	2083.08
406.05	2083.08
406.24	2141.59
406.43	1991.80
406.62	2172.02
406.81	2085.42
407.00	2169.68
407.20	2167.34
407.39	2148.61
407.58	2104.14
407.77	2186.06
407.96	2249.25
408.15	2256.28
408.34	2340.54
408.54	2347.56
408.73	2380.32
408.92	2246.91
409.11	2347.56
409.30	2363.94
409.49	2443.52
409.68	2385.01
409.87	2410.75
410.07	2457.56
410.26	2483.31
410.45	2464.58
410.64	2612.04
410.83	2530.12
411.02	2530.12
411.21	2605.02
411.40	2651.83
411.59	2579.27
411.78	2647.15
411.98	2616.72
412.17	2775.88
412.36	2675.23
412.55	2867.16
412.74	2778.22
412.93	2867.16
413.12	2759.49
413.31	3005.25
413.50	2986.52
413.69	2935.03
413.88	3016.95
414.07	2977.16
414.26	3056.74
414.45	2967.80
414.64	2974.82
414.83	3133.98
415.02	3098.87
415.22	3162.06
415.41	3236.96
415.60	3232.28
415.79	3183.13
415.98	3332.92
416.17	3407.82
416.36	3375.05
416.55	3337.60
416.74	3365.69
416.93	3335.26
417.12	3379.73
417.31	3421.86
417.50	3487.40
417.69	3536.55
417.88	3545.91
418.07	3515.48
418.26	3562.30
418.45	3520.17
418.64	3749.54
418.83	3655.92
419.02	3669.96
419.21	3634.85
419.39	3716.77
419.58	3548.25
419.77	3744.86
419.96	3698.05
420.15	3726.13
420.34	3847.84
420.53	3794.01
420.72	3999.98
420.91	3740.18
421.10	3899.33
421.29	3915.72
421.48	3904.01
421.67	4016.36
421.86	3833.80
422.05	3791.67
422.24	3843.16
422.43	3880.61
422.61	3936.78
422.80	3946.14
422.99	4114.66
423.18	3992.95
423.37	4084.23
423.56	4086.58
423.75	4037.42
423.94	3981.25
424.13	3719.11
424.32	4007.00
424.50	4166.15
424.69	4124.02
424.88	4222.33
425.07	4037.42
425.26	3992.95
425.45	3918.06
425.64	4007.00
425.83	4014.02
426.01	4215.30
426.20	4147.43
426.39	4117.00
426.58	3988.27
426.77	4119.34
426.96	4166.15
427.15	4044.45
427.33	4121.68
427.52	4039.76
427.71	4044.45
427.90	4318.29
428.09	4224.67
428.28	4259.78
428.46	4236.37
428.65	4215.30
428.84	4423.61
429.03	4423.61
429.22	4297.22
429.40	4255.09
429.59	4222.33
429.78	4058.49
429.97	4049.13
430.16	4112.32
430.34	4180.20
430.53	4325.31
430.72	4390.84
430.91	4416.59
431.10	4454.04
431.28	4620.22
431.47	4643.62
431.66	4678.73
431.85	4610.86
432.03	4699.80
432.22	4713.84
432.41	4652.98
432.60	4807.46
432.79	4880.02
432.97	4910.44
433.16	4985.34
433.35	4718.52
433.54	4826.18
433.72	4683.41
433.91	4751.29
434.10	4858.95
434.28	4868.31
434.47	5053.22
434.66	4994.70
434.85	5123.43
435.03	5053.22
435.22	5032.15
435.41	5320.04
435.59	5298.97
435.78	5376.21
435.97	5139.82
436.16	5320.04
436.34	5334.08
436.53	5282.59
436.72	5516.64
436.90	5289.61
437.09	5184.29
437.28	5252.16
437.46	5179.61
437.65	5291.95
437.84	5184.29
438.02	5310.68
438.21	5495.58
438.40	5383.23
438.58	5462.81
438.77	5479.19
438.96	5518.98
439.14	5727.29
439.33	5898.15
439.52	5764.74
439.70	5736.65
439.89	5792.83
440.08	5790.49
440.26	5891.13
440.45	5944.96
440.63	5951.98
440.82	6059.65
441.01	6214.12
441.19	6263.27
441.38	6307.74
441.57	6361.58
441.75	6382.64
441.94	6628.40
442.12	6399.02
442.31	6651.80
442.50	6480.94
442.68	6462.22
442.87	6473.92
443.05	6457.54
443.24	6677.55
443.43	6635.42
443.61	6621.38
443.80	6902.24
443.98	6651.80
444.17	6282.00
444.35	6590.95
444.54	6853.09
444.73	6609.67
444.91	6766.49
445.10	6672.87
445.28	6750.10
445.47	6593.29
445.65	6633.08
445.84	6661.16
446.02	6766.49
446.21	6815.64
446.39	6684.57
446.58	6813.30
446.77	6832.02
446.95	6696.27
447.14	6874.15
447.32	6883.52
447.51	7030.97
447.69	6869.47
447.88	6843.73
448.06	6803.94
448.25	6974.80
448.43	6806.28
448.62	6862.45
448.80	6981.82
448.99	7026.29
449.17	7180.76
449.36	7035.65
449.54	7136.29
449.73	7241.62
449.91	7318.86
450.10	7236.94
450.28	7356.30
450.46	7466.31
450.65	7295.45
450.83	7225.23
451.02	7295.45
451.20	7531.84
451.39	7396.09
451.57	7428.86
451.76	7330.56
451.94	7527.16
452.13	7503.76
452.31	7424.18
452.49	7339.92
452.68	7414.82
452.86	7475.67
453.05	7527.16
453.23	7506.10
453.42	7520.14
453.60	7723.77
453.78	7716.75
453.97	7653.55
454.15	7681.64
454.34	7611.42
454.52	7602.06
454.70	7735.47
454.89	7859.52
455.07	7779.94
455.26	7721.43
455.44	7899.31
455.62	8039.74
455.81	7978.89
455.99	7985.91
456.17	8018.68
456.36	7852.50
456.54	8287.84
456.73	8322.94
456.91	8437.63
457.09	8283.16
457.28	8505.51
457.46	8531.25
457.64	8535.93
457.83	8496.14
458.01	8116.98
458.19	8264.43
458.38	8442.31
458.56	8596.79
458.74	8510.19
458.93	8491.46
459.11	8505.51
459.29	8512.53
459.48	8479.76
459.66	8709.13
459.84	8552.32
460.03	8601.47
460.21	8739.56
460.39	8938.51
460.57	8819.14
460.76	8791.05
460.94	8664.66
461.12	8854.25
461.31	8929.14
461.49	8800.41
461.67	8868.29
461.85	9149.15
462.04	9062.55
462.22	9467.47
462.40	9191.28
462.59	9018.08
462.77	8947.87
462.95	9219.37
463.13	9291.93
463.32	9240.44
463.50	9266.18
463.68	9142.13
463.86	9242.78
464.05	9078.94
464.23	9277.88
464.41	9500.23
464.59	9013.40
464.78	9537.68
464.96	9355.12
465.14	9184.26
465.32	9507.26
465.50	9408.95
465.69	9617.26
465.87	9593.86
466.05	9572.79
466.23	9291.93
466.41	9397.25
466.60	9645.35
466.78	9476.83
466.96	9413.63
467.14	9296.61
467.32	9593.86
467.51	9596.20
467.69	9411.29
467.87	9685.14
468.05	9778.76
468.23	9774.08
468.41	9750.67
468.60	9713.22
468.78	9750.67
468.96	9790.46
469.14	9958.98
469.32	10092.39
469.50	9799.82
469.69	10061.96
469.87	10143.88
470.05	10272.61
470.23	10085.37
470.41	10223.46
470.59	10097.07
470.77	9958.98
470.95	10162.61
471.14	10441.13
471.32	10120.48
471.50	10410.70
471.68	10642.42
471.86	10642.42
472.04	10675.18
472.22	11103.50
472.40	10445.81
472.58	10733.70
472.77	10707.95
472.95	10757.10
473.13	11283.72
473.31	10686.89
473.49	10714.97
473.67	10806.25
473.85	10904.56
474.03	11033.29
474.21	11431.18
474.39	11365.64
474.57	11290.74
474.75	11108.18
474.93	11470.97
475.12	11463.94
475.30	11506.07
475.48	11367.98
475.66	11672.25
475.84	11595.01
476.02	11747.15
476.20	11843.11
476.38	12006.95
476.56	12255.04
476.74	12299.52
476.92	11948.43
477.10	12215.26
477.28	12379.09
477.46	12376.75
477.64	12666.98
477.82	12919.76
478.00	12786.35
478.18	12947.84
478.36	12994.65
478.54	13069.55
478.72	13034.44
478.90	13125.72
479.08	13350.42
479.26	13369.14
479.44	13540.00
479.62	13364.46
479.80	13462.76
479.98	13750.65
480.16	14085.34
480.34	13762.35
480.52	14321.74
480.70	14050.24
480.88	14017.47
481.06	14483.24
481.24	14375.57
481.41	14448.13
481.59	14689.20
481.77	14806.23
481.95	15063.69
482.13	14977.09
482.31	15140.93
482.49	15253.27
482.67	15253.27
482.85	15286.04
483.03	15564.56
483.21	15688.61
483.39	15786.91
483.57	15674.57
483.74	16006.92
483.92	15922.66
484.10	16100.55
484.28	16226.93
484.46	16463.33
484.64	16720.79
484.82	16578.01
485.00	16734.83
485.18	16599.08
485.35	17109.32
485.53	16606.10
485.71	16493.76
485.89	16882.28
486.07	16987.61
486.25	17170.17
486.43	17544.66
486.61	17451.03
486.78	17727.22
486.96	17940.21
487.14	17928.50
487.32	18010.42
487.50	18403.63
487.68	18686.84
487.85	18724.29
488.03	19037.92
488.21	18963.02
488.39	19042.60
488.57	19311.76
488.75	19379.64
488.92	19487.30
489.10	19791.57
489.28	19637.09
489.46	19983.49
489.64	19922.64
489.81	20549.90
489.99	20575.65
490.17	20482.03
490.35	20971.20
490.53	20809.70
490.70	20788.64
490.88	20898.64
491.06	21411.22
491.24	21163.12
491.41	21350.37
491.59	21018.01
491.77	21392.50
491.95	21394.84
492.13	21504.84
492.30	22148.49
492.48	22164.87
492.66	22174.24
492.84	22359.14
493.01	22499.57
493.19	22391.91
493.37	22583.83
493.54	23014.49
493.72	23227.48
493.90	23138.54
494.08	23562.17
494.25	23681.54
494.43	23784.52
494.61	23782.18
494.79	23733.03
494.96	23800.91
495.14	23999.85
495.32	24297.10
495.49	24238.59
495.67	24116.88
495.85	24575.62
496.02	24664.57
496.20	24994.58
496.38	24917.34
496.55	25249.70
496.73	25795.04
496.91	25340.98
497.09	25687.38
497.26	25645.25
497.44	26031.44
497.62	25771.64
497.79	25993.99
497.97	25493.12
498.14	26141.44
498.32	26518.27
498.50	26265.49
498.67	26829.56
498.85	26686.79
499.03	26651.68
499.20	26925.52
499.38	26918.50
499.56	26869.35
499.73	27351.50
499.91	27133.83
500.08	27527.04
500.26	26892.76
500.44	27564.49
500.61	27379.59
500.79	27019.14
500.97	27524.70
501.14	27744.71
501.32	27744.71
501.49	27906.21
501.67	27688.54
501.84	27817.27
502.02	28112.17
502.20	28496.02
502.37	28156.64
502.55	28355.59
502.72	28652.84
502.90	28748.80
503.07	28938.38
503.25	28886.89
503.43	28430.49
503.60	28638.80
503.78	28943.06
503.95	28936.04
504.13	28732.42
504.30	29427.56
504.48	29296.49
504.65	29495.43
504.83	30129.72
505.01	30125.04
505.18	29720.12
505.36	30347.39
505.53	30108.65
505.71	30197.59
505.88	30541.65
506.06	29989.28
506.23	30345.05
506.41	30396.54
506.58	30525.27
506.76	30279.51
506.93	30368.45
507.11	30705.49
507.28	30773.36
507.46	30719.53
507.63	30637.61
507.81	30707.83
507.98	30721.87
508.16	30972.31
508.33	31166.57
508.50	31571.49
508.68	31587.87
508.85	31793.84
509.03	31573.83
509.20	31749.37
509.38	31978.74
509.55	32133.21
509.73	32126.19
509.90	32016.19
510.08	31999.80
510.25	32128.53
510.42	32460.89
510.60	32577.92
510.77	32453.87
510.95	32577.92
511.12	32708.99
511.30	32938.36
511.47	32858.78
511.64	32992.19
511.82	33336.25
511.99	32858.78
512.17	32893.89
512.34	33024.96
512.51	33137.30
512.69	33467.32
512.86	33699.03
513.04	33350.29
513.21	33696.69
513.38	33493.07
513.56	33729.46
513.73	33132.62
513.90	33816.06
514.08	33848.83
514.25	33551.58
514.43	33834.78
514.60	34195.23
514.77	33820.74
514.95	34183.52
515.12	34384.81
515.29	34389.49
515.47	34895.05
515.64	34536.94
515.81	33806.70
515.99	34588.44
516.16	34169.48
516.33	34237.36
516.51	34377.79
516.68	34323.96
516.85	33900.32
517.03	34391.83
517.20	34588.44
517.37	35257.83
517.54	34967.60
517.72	34918.45
517.89	34632.91
518.06	34665.67
518.24	34789.72
518.41	35110.38
518.58	35154.85
518.75	35211.02
518.93	35597.21
519.10	35129.10
519.27	35475.50
519.45	35786.79
519.62	36240.86
519.79	35852.33
519.96	36236.17
520.14	36039.57
520.31	35903.82
520.48	36521.72
520.65	36245.54
520.83	36531.08
521.00	36376.61
521.17	36877.48
521.34	36797.90
521.52	36708.96
521.69	37137.28
521.86	37038.98
522.03	37109.19
522.20	36907.91
522.38	37450.91
522.55	37464.96
522.72	37146.64
522.89	36989.83
523.07	37413.46
523.24	37619.43
523.41	37858.17
523.58	37303.46
523.75	38171.80
523.92	37830.08
524.10	38323.93
524.27	37972.85
524.44	38167.12
524.61	38436.28
524.78	38127.33
524.96	38424.57
525.13	38260.74
525.30	38429.26
525.47	38689.06
525.64	38473.73
525.81	38073.49
525.98	38124.99
526.16	38134.35
526.33	37902.64
526.50	38132.01
526.67	37982.21
526.84	38251.38
527.01	37956.47
527.18	38253.72
527.36	38785.02
527.53	38859.91
527.70	39358.45
527.87	38829.49
528.04	38916.09
528.21	39058.86
528.38	39484.84
528.55	39335.04
528.72	39988.05
528.89	39751.66
529.07	39398.24
529.24	39363.13
529.41	39599.52
529.58	39498.88
529.75	39377.17
529.92	40074.65
530.09	39564.42
530.26	39459.09
530.43	39910.82
530.60	40156.57
530.77	39999.76
530.94	40126.14
531.11	40032.52
531.28	40158.91
531.46	40545.10
531.63	40229.13
531.80	40034.86
531.97	39936.56
532.14	40381.26
532.31	39690.80
532.48	40212.74
532.65	40430.41
532.82	40142.53
532.99	40823.62
533.16	40261.90
533.33	40690.21
533.50	40851.71
533.67	40772.13
533.84	40905.54
534.01	40575.53
534.18	40734.68
534.35	40854.05
534.52	41139.60
534.69	41212.15
534.86	40978.10
535.03	41074.06
535.20	41446.21
535.37	41827.71
535.54	41874.52
535.71	41280.03
535.88	41865.16
536.05	41521.10
536.22	41448.55
536.38	41745.80
536.55	41502.38
536.72	41411.10
536.89	41471.95
537.06	41418.12
537.23	41914.31
537.40	41631.11
537.57	41977.51
537.74	42162.41
537.91	42293.48
538.08	41816.01
538.25	41631.11
538.42	41881.55
538.59	42445.62
538.75	41729.41
538.92	42115.60
539.09	42572.00
539.26	42174.11
539.43	42536.90
539.60	42321.57
539.77	41832.39
539.94	41965.81
540.11	41947.08
540.28	42164.75
540.44	42249.01
540.61	42291.14
540.78	42234.97
540.95	42024.32
541.12	42183.48
541.29	42412.85
541.46	42670.31
541.62	42356.67
541.79	42782.65
541.96	42211.56
542.13	42742.86
542.30	42426.89
542.47	42799.04
542.63	43012.02
542.80	43152.46
542.97	43260.12
543.14	43545.67
543.31	43285.87
543.48	43213.31
543.64	44060.58
543.81	43789.08
543.98	43648.65
544.15	43346.72
544.32	44168.25
544.48	44013.77
544.65	43927.17
544.82	43796.10
544.99	43519.92
545.16	43985.69
545.32	43555.03
545.49	43849.94
545.66	44107.40
545.83	44163.57
546.00	43739.93
546.16	44156.55
546.33	43672.06
546.50	43737.59
546.67	43508.22
546.83	43704.82
547.00	43838.23
547.17	43711.84
547.34	43812.49
547.50	43896.75
547.67	43828.87
547.84	44095.69
548.00	44390.60
548.17	44414.01
548.34	44395.28
548.51	44942.97
548.67	44921.90
548.84	44175.27
549.01	44364.85
549.18	44306.34
549.34	44732.32
549.51	44854.03
549.68	44680.83
549.84	44474.86
550.01	44882.11
550.18	44421.03
550.34	44802.53
550.51	44975.73
550.68	44470.18
550.84	44406.98
551.01	44587.21
551.18	44802.53
551.34	44793.17
551.51	45247.24
551.68	45177.02
551.84	44959.35
552.01	45296.39
552.18	45387.67
552.34	44669.12
552.51	44912.54
552.68	44687.85
552.84	45301.07
553.01	44964.03
553.18	45013.18
553.34	45024.89
553.51	45139.57
553.67	44769.77
553.84	45876.84
554.01	45354.90
554.17	45343.20
554.34	45663.85
554.51	45565.55
554.67	45413.41
554.84	45661.51
555.00	45223.83
555.17	45368.94
555.33	45855.78
555.50	44992.12
555.67	45020.20
555.83	45806.62
556.00	45450.86
556.16	45830.03
556.33	45755.13
556.50	45298.73
556.66	45408.73
556.83	45263.62
556.99	45439.16
557.16	45963.44
557.32	45710.66
557.49	46059.40
557.65	45778.54
557.82	45897.91
557.98	45989.19
558.15	45818.33
558.32	45940.04
558.48	45551.51
558.65	45560.87
558.81	45914.29
558.98	45867.48
559.14	45729.39
559.31	45715.34
559.47	45837.05
559.64	46508.79
559.80	46057.06
559.97	46167.07
560.13	45638.11
560.30	45673.21
560.46	46256.01
560.63	46010.25
560.79	46541.55
560.96	46106.21
561.12	45893.22
561.29	45989.19
561.45	46080.47
561.61	46092.17
561.78	46195.15
561.94	45874.50
562.11	46326.22
562.27	46045.36
562.44	45780.88
562.60	46471.34
562.77	46499.42
562.93	46335.59
563.10	46487.72
563.26	45867.48
563.42	46326.22
563.59	45897.91
563.75	46157.70
563.92	46337.93
564.08	46014.93
564.24	46356.65
564.41	46220.90
564.57	46663.26
564.74	46178.77
564.90	45944.72
565.07	46293.46
565.23	46473.68
565.39	46103.87
565.56	46251.33
565.72	46181.11
565.88	46218.56
566.05	46103.87
566.21	46321.54
566.38	46354.31
566.54	46499.42
566.70	46789.65
566.87	46600.07
567.03	46494.74
567.19	46916.04
567.36	46267.71
567.52	46731.14
567.68	46616.45
567.85	46267.71
568.01	46920.72
568.17	46429.21
568.34	46625.81
568.50	46373.03
568.66	46602.41
568.83	46330.90
568.99	46150.68
569.15	46368.35
569.32	46314.52
569.48	46274.73
569.64	46656.24
569.81	46625.81
569.97	46225.58
570.13	46770.93
570.30	46028.98
570.46	46681.98
570.62	46307.50
570.78	46284.09
570.95	46263.03
571.11	46527.51
571.27	46440.91
571.43	46569.64
571.60	46567.30
571.76	46485.38
571.92	46859.87
572.09	46710.07
572.25	46141.32
572.41	46536.87
572.57	46852.84
572.74	46862.21
572.90	46810.71
573.06	46918.38
573.22	46391.76
573.38	46747.52
573.55	46513.47
573.71	46689.01
573.87	46712.41
574.03	46487.72
574.20	46927.74
574.36	46614.11
574.52	46527.51
574.68	46974.55
574.84	46857.52
575.01	46916.04
575.17	46571.98
575.33	46803.69
575.49	46698.37
575.65	46597.73
575.82	46511.13
575.98	46738.16
576.14	46813.05
576.30	47147.75
576.46	46679.64
576.62	46646.88
576.79	46761.56
576.95	46253.67
577.11	46651.56
577.27	47131.37
577.43	46536.87
577.59	46183.45
577.75	46291.12
577.92	45745.77
578.08	46155.36
578.24	46256.01
578.40	46834.12
578.56	46665.60
578.72	46834.12
578.88	46820.08
579.04	46904.34
579.21	46651.56
579.37	46478.36
579.53	46483.04
579.69	46450.27
579.85	46857.52
580.01	46894.97
580.17	46649.22
580.33	46667.94
580.49	46892.63
580.65	46703.05
580.82	46848.16
580.98	46808.37
581.14	46927.74
581.30	47026.04
581.46	47267.12
581.62	46997.96
581.78	46815.40
581.94	47049.45
582.10	46997.96
582.26	46930.08
582.42	46836.46
582.58	47316.27
582.74	47016.68
582.90	46791.99
583.06	47140.73
583.22	47007.32
583.38	47519.90
583.54	47047.11
583.70	46511.13
583.86	47302.23
584.02	46576.66
584.18	46962.85
584.34	47117.32
584.50	46630.49
584.66	46782.63
584.82	46735.82
584.98	47309.25
585.14	46941.78
585.30	46499.42
585.46	46866.89
585.62	46438.57
585.78	46838.80
585.94	46209.20
586.10	46618.79
586.26	46635.17
586.42	46543.89
586.58	47475.43
586.74	46862.21
586.90	46724.11
587.06	46948.81
587.22	47421.59
587.38	46789.65
587.54	46637.51
587.70	46955.83
587.86	47358.40
588.02	46845.82
588.18	47014.34
588.34	46941.78
588.49	46195.15
588.65	46295.80
588.81	46349.63
588.97	46443.25
589.13	46550.91
589.29	46604.75
589.45	46937.10
589.61	46787.31
589.77	46871.57
589.93	47114.98
