SpectraSuite Data File
++++++++++++++++++++++++++++++++++++
Date: Fri Oct 25 11:33:53 EDT 2013
User: price-jones
Dark Spectrum Present: No
Reference Spectrum Present: No
Number of Sampled Component Spectra: 1
Spectrometers: USB2+H05261
Integration Time (usec): 100000 (USB2+H05261)
Spectra Averaged: 1 (USB2+H05261)
Boxcar Smoothing: 0 (USB2+H05261)
Correct for Electrical Dark: No (USB2+H05261)
Strobe/Lamp Enabled: No (USB2+H05261)
Correct for Detector Non-linearity: No (USB2+H05261)
Correct for Stray Light: No (USB2+H05261)
Number of Pixels in Processed Spectrum: 2048
>>>>>Begin Processed Spectral Data<<<<<
365.73	236.39
365.92	236.39
366.12	236.39
366.32	159.16
366.52	217.67
366.72	126.39
366.91	198.95
367.11	107.66
367.31	170.86
367.51	102.98
367.70	159.16
367.90	203.63
368.10	166.18
368.30	135.75
368.49	154.48
368.69	315.97
368.89	147.45
369.09	168.52
369.28	269.16
369.48	198.95
369.68	205.97
369.87	203.63
370.07	173.20
370.27	238.73
370.47	306.61
370.66	456.40
370.86	458.74
371.06	547.69
371.25	613.22
371.45	533.64
371.65	447.04
371.84	547.69
372.04	500.87
372.24	589.82
372.44	547.69
372.63	594.50
372.83	608.54
373.03	599.18
373.22	587.47
373.42	606.20
373.62	599.18
373.81	624.92
374.01	660.03
374.21	606.20
374.40	660.03
374.60	638.97
374.79	557.05
374.99	608.54
375.19	671.73
375.38	650.67
375.58	603.86
375.78	720.88
375.97	674.07
376.17	727.91
376.37	627.26
376.56	711.52
376.76	650.67
376.95	699.82
377.15	629.60
377.35	678.76
377.54	730.25
377.74	711.52
377.93	793.44
378.13	748.97
378.33	697.48
378.52	688.12
378.72	746.63
378.91	706.84
379.11	669.39
379.31	695.14
379.50	713.86
379.70	697.48
379.89	697.48
380.09	681.10
380.28	732.59
380.48	770.04
380.68	741.95
380.87	671.73
381.07	748.97
381.26	800.46
381.46	774.72
381.65	814.51
381.85	741.95
382.04	763.01
382.24	781.74
382.43	849.61
382.63	779.40
382.83	755.99
383.02	816.85
383.22	854.30
383.41	807.48
383.61	779.40
383.80	819.19
384.00	781.74
384.19	772.38
384.39	807.48
384.58	905.79
384.78	833.23
384.97	866.00
385.17	858.98
385.36	812.17
385.56	793.44
385.75	856.64
385.95	908.13
386.14	842.59
386.34	875.36
386.53	823.87
386.72	877.70
386.92	917.49
387.11	880.04
387.31	887.06
387.50	884.72
387.70	894.08
387.89	926.85
388.09	858.98
388.28	877.70
388.48	940.90
388.67	917.49
388.86	919.83
389.06	954.94
389.25	919.83
389.45	926.85
389.64	898.77
389.84	978.34
390.03	997.07
390.22	999.41
390.42	926.85
390.61	959.62
390.81	933.87
391.00	973.66
391.19	945.58
391.39	987.71
391.58	1022.81
391.78	990.05
391.97	976.00
392.16	1011.11
392.36	1060.26
392.55	1039.20
392.75	1067.28
392.94	1022.81
393.13	1043.88
393.33	1050.90
393.52	997.07
393.71	985.37
393.91	1123.46
394.10	1086.01
394.29	1062.60
394.49	1083.67
394.68	1093.03
394.88	1139.84
395.07	1149.20
395.26	1128.14
395.46	1025.15
395.65	1249.85
395.84	1266.23
396.04	1306.02
396.23	1109.41
396.42	1128.14
396.62	1179.63
396.81	1200.69
397.00	1158.57
397.19	1235.80
397.39	1296.66
397.58	1273.25
397.77	1172.61
397.97	1188.99
398.16	1261.55
398.35	1315.38
398.55	1263.89
398.74	1366.87
398.93	1252.19
399.12	1217.08
399.32	1399.64
399.51	1315.38
399.70	1331.76
399.90	1329.42
400.09	1313.04
400.28	1369.21
400.47	1315.38
400.67	1387.94
400.86	1404.32
401.05	1427.73
401.24	1448.79
401.44	1535.39
401.63	1413.68
401.82	1476.88
402.01	1423.05
402.21	1434.75
402.40	1488.58
402.59	1462.83
402.78	1434.75
402.97	1479.22
403.17	1591.56
403.36	1516.67
403.55	1572.84
403.74	1607.95
403.93	1610.29
404.13	1643.06
404.32	1535.39
404.51	1540.07
404.70	1617.31
404.89	1570.50
405.09	1673.48
405.28	1654.76
405.47	1633.69
405.66	1732.00
405.85	1755.40
406.05	1757.74
406.24	1734.34
406.43	1673.48
406.62	1795.19
406.81	1715.61
407.00	1724.97
407.20	1654.76
407.39	1865.41
407.58	1856.04
407.77	1863.07
407.96	1863.07
408.15	1788.17
408.34	1905.20
408.54	1930.94
408.73	1872.43
408.92	1874.77
409.11	1905.20
409.30	2026.90
409.49	1944.99
409.68	1987.11
409.87	2003.50
410.07	2008.18
410.26	1998.82
410.45	2090.10
410.64	2125.21
410.83	2052.65
411.02	2024.56
411.21	2160.31
411.40	2232.87
411.59	2239.89
411.78	2122.87
411.98	2167.34
412.17	2380.32
412.36	2204.78
412.55	2160.31
412.74	2359.26
412.93	2431.82
413.12	2296.07
413.31	2478.63
413.50	2317.13
413.69	2352.24
413.88	2413.09
414.07	2469.27
414.26	2464.58
414.45	2436.50
414.64	2511.39
414.83	2572.25
415.02	2525.44
415.22	2668.21
415.41	2766.51
415.60	2661.19
415.79	2686.94
415.98	2705.66
416.17	2722.04
416.36	2813.32
416.55	2698.64
416.74	2895.24
416.93	2768.85
417.12	2818.00
417.31	2736.09
417.50	2820.35
417.69	2909.29
417.88	2871.84
418.07	2953.76
418.26	2953.76
418.45	2995.89
418.64	2895.24
418.83	3070.78
419.02	3033.33
419.21	3084.83
419.39	3101.21
419.58	3030.99
419.77	3101.21
419.96	3105.89
420.15	3133.98
420.34	3201.85
420.53	3033.33
420.72	3157.38
420.91	3122.27
421.10	3279.09
421.29	3227.60
421.48	3211.22
421.67	3363.35
421.86	3192.49
422.05	3293.13
422.24	3211.22
422.43	3349.31
422.61	3297.81
422.80	3433.57
422.99	3412.50
423.18	3384.41
423.37	3482.72
423.56	3365.69
423.75	3332.92
423.94	3258.03
424.13	3246.32
424.32	3349.31
424.50	3473.36
424.69	3520.17
424.88	3583.36
425.07	3386.76
425.26	3346.97
425.45	3442.93
425.64	3332.92
425.83	3452.29
426.01	3499.10
426.20	3307.18
426.39	3440.59
426.58	3440.59
426.77	3487.40
426.96	3461.65
427.15	3499.10
427.33	3478.04
427.52	3618.47
427.71	3452.29
427.90	3506.12
428.09	3644.21
428.28	3627.83
428.46	3658.26
428.65	3625.49
428.84	3632.51
429.03	3712.09
429.22	3609.11
429.40	3660.60
429.59	3728.47
429.78	3623.15
429.97	3604.42
430.16	3932.10
430.34	3939.12
430.53	3913.38
430.72	3871.25
430.91	3850.18
431.10	3836.14
431.28	4011.68
431.47	3948.48
431.66	3960.19
431.85	3941.46
432.03	4014.02
432.22	4074.87
432.41	4004.66
432.60	4032.74
432.79	3943.80
432.97	4042.11
433.16	4002.32
433.35	4140.41
433.54	4086.58
433.72	4294.88
433.91	4126.36
434.10	4126.36
434.28	4124.02
434.47	4219.99
434.66	4142.75
434.85	4198.92
435.03	4273.82
435.22	4301.90
435.41	4332.33
435.59	4348.72
435.78	4304.25
435.97	4358.08
436.16	4456.38
436.34	4285.52
436.53	4313.61
436.72	4470.42
436.90	4425.95
437.09	4491.49
437.28	4360.42
437.46	4496.17
437.65	4526.60
437.84	4645.96
438.02	4531.28
438.21	4507.87
438.40	4540.64
438.58	4697.46
438.77	4943.21
438.96	4723.20
439.14	4795.76
439.33	4727.88
439.52	4858.95
439.70	4697.46
439.89	4863.63
440.08	5039.17
440.26	4858.95
440.45	5015.77
440.63	5085.98
440.82	5179.61
441.01	5050.88
441.19	5305.99
441.38	5167.90
441.57	5156.20
441.75	5135.14
441.94	5359.83
442.12	5394.93
442.31	5495.58
442.50	5504.94
442.68	5493.24
442.87	5497.92
443.05	5369.19
443.24	5500.26
443.43	5441.75
443.61	5495.58
443.80	5645.37
443.98	5486.22
444.17	5217.05
444.35	5369.19
444.54	5488.56
444.73	5621.97
444.91	5753.04
445.10	5605.58
445.28	5631.33
445.47	5516.64
445.65	5563.45
445.84	5785.80
446.02	5729.63
446.21	5575.16
446.39	5671.12
446.58	5731.97
446.77	5706.23
446.95	5636.01
447.14	5657.07
447.32	5781.12
447.51	5729.63
447.69	5685.16
447.88	5757.72
448.06	5633.67
448.25	5837.30
448.43	5753.04
448.62	5652.39
448.80	5790.49
448.99	5907.51
449.17	5933.26
449.36	5809.21
449.54	5994.11
449.73	5905.17
449.91	5926.24
450.10	6190.72
450.28	6050.28
450.46	6031.56
450.65	5921.56
450.83	5996.45
451.02	6181.35
451.20	6061.99
451.39	6200.08
451.57	6171.99
451.76	5959.00
451.94	6361.58
452.13	6230.51
452.31	6209.44
452.49	6059.65
452.68	6169.65
452.86	6143.91
453.05	6345.19
453.23	6546.48
453.42	6392.00
453.60	6211.78
453.78	6480.94
453.97	6356.90
454.15	6382.64
454.34	6321.79
454.52	6387.32
454.70	6569.88
454.89	6558.18
455.07	6534.78
455.26	6541.80
455.44	6686.91
455.62	6715.00
455.81	6675.21
455.99	6693.93
456.17	6663.51
456.36	6780.53
456.54	6857.77
456.73	7080.12
456.91	6993.52
457.09	7012.24
457.28	7028.63
457.46	6712.66
457.64	6965.43
457.83	7042.67
458.01	6885.86
458.19	7248.64
458.38	7068.42
458.56	7140.97
458.74	7077.78
458.93	7082.46
459.11	7358.64
459.29	6904.58
459.48	7262.68
459.66	7019.27
459.84	7131.61
460.03	7302.47
460.21	7279.07
460.39	7276.73
460.57	7133.95
460.76	7379.71
460.94	7445.24
461.12	7669.94
461.31	7428.86
461.49	7524.82
461.67	7555.25
461.85	7843.14
462.04	7581.00
462.22	8039.74
462.40	7576.31
462.59	7597.38
462.77	7655.89
462.95	7714.41
463.13	7740.15
463.32	7655.89
463.50	7822.07
463.68	7777.60
463.86	7882.92
464.05	7688.66
464.23	7824.41
464.41	8112.30
464.59	7808.03
464.78	8042.08
464.96	7875.90
465.14	7772.92
465.32	8107.62
465.50	8229.32
465.69	8084.21
465.87	7969.52
466.05	8215.28
466.23	7882.92
466.41	8042.08
466.60	8325.29
466.78	7995.27
466.96	8042.08
467.14	8177.83
467.32	8344.01
467.51	8421.25
467.69	8194.22
467.87	8226.98
468.05	8390.82
468.23	8395.50
468.41	8154.43
468.60	8292.52
468.78	8489.12
468.96	8428.27
469.14	8475.08
469.32	8538.27
469.50	8650.62
469.69	8781.69
469.87	8496.14
470.05	8657.64
470.23	8725.52
470.41	8856.59
470.59	8964.25
470.77	8762.97
470.95	8624.87
471.14	8982.98
471.32	8603.81
471.50	8945.53
471.68	9006.38
471.86	9090.64
472.04	8830.84
472.22	9254.48
472.40	9022.77
472.58	9111.71
472.77	9315.33
472.95	9268.52
473.13	9530.66
473.31	9296.61
473.49	9645.35
473.67	9383.21
473.85	9479.17
474.03	9607.90
474.21	9633.64
474.39	9533.00
474.57	9720.24
474.75	9760.03
474.93	9774.08
475.12	9921.53
475.30	9928.55
475.48	9996.43
475.66	9989.41
475.84	9884.08
476.02	10193.03
476.20	10118.14
476.38	10305.38
476.56	10408.36
476.74	10527.73
476.92	10335.81
477.10	10384.96
477.28	10523.05
477.46	10628.37
477.64	10665.82
477.82	11185.42
478.00	11225.21
478.18	10874.13
478.36	11225.21
478.54	11421.81
478.72	11178.40
478.90	11494.37
479.08	11578.63
479.26	11454.58
479.44	11672.25
479.62	11463.94
479.80	11765.87
479.98	11929.71
480.16	12077.16
480.34	12074.82
480.52	12203.55
480.70	12292.49
480.88	11927.37
481.06	12201.21
481.24	12477.40
481.41	12465.69
481.59	12456.33
481.77	12652.94
481.95	12594.42
482.13	13029.76
482.31	13034.44
482.49	13167.85
482.67	13254.45
482.85	13535.32
483.03	13465.10
483.21	13554.04
483.39	13781.07
483.57	13415.95
483.74	13561.06
483.92	13855.97
484.10	13956.61
484.28	14338.12
484.46	14324.08
484.64	14487.92
484.82	14181.31
485.00	14583.88
485.18	14841.34
485.35	15073.05
485.53	14906.87
485.71	14946.66
485.89	15204.12
486.07	15190.08
486.25	15335.19
486.43	15419.45
486.61	15379.66
486.78	15550.52
486.96	15686.27
487.14	16065.44
487.32	15824.36
487.50	15946.07
487.68	16081.82
487.85	16203.53
488.03	16798.02
488.21	16863.56
488.39	16755.90
488.57	16917.39
488.75	17158.47
488.92	17074.21
489.10	17420.61
489.28	17338.69
489.46	17575.08
489.64	17605.51
489.81	17848.93
489.99	17596.15
490.17	17881.69
490.35	18361.50
490.53	18331.08
490.70	18235.11
490.88	18698.54
491.06	18696.20
491.24	18707.90
491.41	18878.76
491.59	19131.54
491.77	19089.41
491.95	19421.77
492.13	19367.93
492.30	19386.66
492.48	19541.13
492.66	19456.87
492.84	19859.45
493.01	19932.00
493.19	19627.73
493.37	20320.53
493.54	20133.29
493.72	20233.93
493.90	20680.97
494.08	20802.68
494.25	20671.61
494.43	20772.25
494.61	20786.30
494.79	20886.94
494.96	21153.76
495.14	21263.77
495.32	21839.54
495.49	21584.42
495.67	21577.40
495.85	21699.11
496.02	22066.57
496.20	21972.95
496.38	22097.00
496.55	22319.35
496.73	22925.55
496.91	22258.49
497.09	22427.01
497.26	22766.39
497.44	22499.57
497.62	22874.06
497.79	23157.26
497.97	23360.89
498.14	23344.50
498.32	23531.75
498.50	23482.59
498.67	23805.59
498.85	23777.50
499.03	23772.82
499.20	24142.63
499.38	24027.94
499.56	24161.35
499.73	24044.32
499.91	24694.99
500.08	24201.14
500.26	24524.13
500.44	24950.11
500.61	24575.62
500.79	24500.73
500.97	24556.90
501.14	25364.39
501.32	24940.75
501.49	25160.76
501.67	25322.26
501.84	25479.07
502.02	25088.20
502.20	25364.39
502.37	25301.19
502.55	25462.69
502.72	25914.41
502.90	25703.76
503.07	26103.99
503.25	26064.21
503.43	25692.06
503.60	26174.21
503.78	26338.05
503.95	26499.55
504.13	26424.65
504.30	26726.58
504.48	26471.46
504.65	26616.57
504.83	26511.25
505.01	27138.51
505.18	26969.99
505.36	26817.86
505.53	26855.31
505.71	27213.41
505.88	27194.68
506.06	26639.98
506.23	27529.38
506.41	27515.34
506.58	27342.14
506.76	27410.01
506.93	27632.36
507.11	27646.41
507.28	27608.96
507.46	27868.76
507.63	28376.66
507.81	28327.50
507.98	28180.05
508.16	28032.60
508.33	28425.81
508.50	28175.37
508.68	28517.09
508.85	28622.41
509.03	28339.21
509.20	29001.58
509.38	29083.50
509.55	29441.60
509.73	29184.14
509.90	29172.44
510.08	29240.31
510.25	29205.20
510.42	29333.93
510.60	29537.56
510.77	29954.18
510.95	29771.61
511.12	29685.01
511.30	30094.61
511.47	29937.79
511.64	29811.40
511.82	30146.10
511.99	29755.23
512.17	30389.52
512.34	29694.38
512.51	30328.66
512.69	30785.07
512.86	30602.50
513.04	30969.97
513.21	30920.82
513.38	31365.52
513.56	31016.78
513.73	30651.66
513.90	30885.71
514.08	30923.16
514.25	30948.90
514.43	31054.23
514.60	31187.64
514.77	31040.18
514.95	31559.78
515.12	31276.58
515.29	31559.78
515.47	31971.72
515.64	31735.32
515.81	31653.40
515.99	31730.64
516.16	32004.49
516.33	32130.87
516.51	32360.25
516.68	31709.58
516.85	32275.99
517.03	32634.09
517.20	32320.46
517.37	32734.73
517.54	32341.52
517.72	32631.75
517.89	32730.05
518.06	32758.14
518.24	32624.73
518.41	32348.54
518.58	33062.41
518.75	32566.21
518.93	33244.97
519.10	32973.47
519.27	33193.48
519.45	33507.11
519.62	32961.76
519.79	33647.54
519.96	33720.10
520.14	33523.49
520.31	33699.03
520.48	33708.40
520.65	33591.37
520.83	33942.45
521.00	33893.30
521.17	34272.46
521.34	34022.03
521.52	33797.34
521.69	34017.35
521.86	34312.25
522.03	34307.57
522.20	34473.75
522.38	34178.84
522.55	34609.50
522.72	34682.06
522.89	35016.75
523.07	35274.21
523.24	35124.42
523.41	35101.01
523.58	34829.51
523.75	35105.70
523.92	35072.93
524.10	35339.75
524.27	35267.19
524.44	35281.24
524.61	35463.80
524.78	35620.61
524.96	35407.62
525.13	35981.06
525.30	35667.42
525.47	35924.88
525.64	35763.39
525.81	35526.99
525.98	36285.33
526.16	36018.50
526.33	36072.34
526.50	36053.61
526.67	36135.53
526.84	36224.47
527.01	36247.88
527.18	36418.74
527.36	36627.04
527.53	36622.36
527.70	36856.42
527.87	36849.39
528.04	36528.74
528.21	36622.36
528.38	36751.09
528.55	36992.17
528.72	36697.26
528.89	36779.18
529.07	37085.79
529.24	36877.48
529.41	37221.54
529.58	37043.66
529.75	37453.25
529.92	37364.31
530.09	37202.82
530.26	37457.93
530.43	37897.95
530.60	37139.62
530.77	37228.56
530.94	37687.31
531.11	37324.52
531.28	38068.81
531.46	37970.51
531.63	37610.07
531.80	37809.01
531.97	38230.31
532.14	37834.76
532.31	37776.25
532.48	37860.51
532.65	38232.65
532.82	38267.76
532.99	38546.28
533.16	38330.95
533.33	38469.04
533.50	38279.46
533.67	38286.48
533.84	37958.81
534.01	38492.45
534.18	38895.02
534.35	38890.34
534.52	38843.53
534.69	39056.52
534.86	39192.27
535.03	38745.23
535.20	38747.57
535.37	39182.91
535.54	39225.04
535.71	38974.60
535.88	39126.74
536.05	39332.70
536.22	39519.95
536.38	39423.98
536.55	39239.08
536.72	39241.42
536.89	39227.38
537.06	39508.24
537.23	39821.87
537.40	39218.02
537.57	39503.56
537.74	39351.43
537.91	40266.58
538.08	39562.08
538.25	39761.02
538.42	39920.18
538.59	40116.78
538.75	39697.83
538.92	39835.92
539.09	40549.78
539.26	40002.10
539.43	40336.79
539.60	40215.08
539.77	40179.98
539.94	40734.68
540.11	40477.22
540.28	40832.99
540.44	40355.52
540.61	40671.49
540.78	40591.91
540.95	40648.08
541.12	40500.63
541.29	40517.01
541.46	40526.38
541.62	40706.60
541.79	40645.74
541.96	40624.68
542.13	40961.72
542.30	40818.94
542.47	41383.01
542.63	41221.52
542.80	41289.39
542.97	41820.69
543.14	41364.29
543.31	41383.01
543.48	41249.60
543.64	42005.59
543.81	41736.43
543.98	41958.78
544.15	41600.68
544.32	41600.68
544.48	42078.15
544.65	41738.77
544.82	41996.23
544.99	41813.67
545.16	41926.02
545.32	41771.54
545.49	42373.06
545.66	42218.58
545.83	42260.71
546.00	42178.79
546.16	42476.04
546.33	42005.59
546.50	41876.86
546.67	42389.44
546.83	41862.82
547.00	42394.12
547.17	42380.08
547.34	42162.41
547.50	42862.23
547.67	42646.90
547.84	42733.50
548.00	42836.48
548.17	42738.18
548.34	42852.87
548.51	42457.32
548.67	42590.73
548.84	43033.09
549.01	42759.25
549.18	42866.91
549.34	43236.72
549.51	43346.72
549.68	42742.86
549.84	42557.96
550.01	43704.82
550.18	43119.69
550.34	42951.17
550.51	43344.38
550.68	43070.54
550.84	42756.91
551.01	43264.80
551.18	43538.65
551.34	43508.22
551.51	43515.24
551.68	43592.48
551.84	43086.92
552.01	43641.63
552.18	43721.21
552.34	43117.35
552.51	43819.51
552.68	43866.32
552.84	44065.27
553.01	43569.07
553.18	43803.13
553.34	43831.21
553.51	43753.97
553.67	43903.77
553.84	44074.63
554.01	43955.26
554.17	43978.67
554.34	44257.19
554.51	43894.41
554.67	44367.20
554.84	44170.59
555.00	44402.30
555.17	44194.00
555.33	44626.99
555.50	44521.67
555.67	44308.68
555.83	44367.20
556.00	44329.75
556.16	44851.69
556.33	44414.01
556.50	44624.65
556.66	45109.14
556.83	44495.92
556.99	44622.31
557.16	44617.63
557.32	44816.58
557.49	44587.21
557.65	44715.93
557.82	44966.37
557.98	45015.52
558.15	44746.36
558.32	44797.85
558.48	44598.91
558.65	45216.81
558.81	44802.53
558.98	44732.32
559.14	44795.51
559.31	44547.42
559.47	45167.66
559.64	44957.01
559.80	45120.85
559.97	45130.21
560.13	44957.01
560.30	45045.95
560.46	45289.37
560.63	45399.37
560.79	45364.26
560.96	45521.08
561.12	45436.82
561.29	44898.50
561.45	45563.21
561.61	44975.73
561.78	44975.73
561.94	45186.38
562.11	45319.79
562.27	45378.31
562.44	45394.69
562.60	45256.60
562.77	45518.74
562.93	46038.34
563.10	45605.34
563.26	45654.49
563.42	46150.68
563.59	45598.32
563.75	45677.90
563.92	45801.94
564.08	45811.31
564.24	45815.99
564.41	45656.83
564.57	45572.57
564.74	45958.76
564.90	45626.40
565.07	45811.31
565.23	45736.41
565.39	45336.18
565.56	45923.65
565.72	45813.65
565.88	45879.18
566.05	46089.83
566.21	45839.39
566.38	45684.92
566.54	45567.89
566.70	45820.67
566.87	46178.77
567.03	45652.15
567.19	46253.67
567.36	45823.01
567.52	45713.00
567.68	46351.97
567.85	45865.14
568.01	45860.46
568.17	45982.16
568.34	46307.50
568.50	46267.71
568.66	45825.35
568.83	46078.13
568.99	46036.00
569.15	46328.56
569.32	45998.55
569.48	46012.59
569.64	46569.64
569.81	46068.76
569.97	46206.86
570.13	46501.76
570.30	45942.38
570.46	46391.76
570.62	46167.07
570.78	46382.40
570.95	46181.11
571.11	46344.95
571.27	46120.26
571.43	46525.17
571.60	46096.85
571.76	46246.65
571.92	46234.94
572.09	46059.40
572.25	46092.17
572.41	45972.80
572.57	46169.41
572.74	46850.50
572.90	46913.70
573.06	46658.58
573.22	46742.84
573.38	46806.03
573.55	46211.54
573.71	46663.26
573.87	46445.59
574.03	46579.00
574.20	46564.96
574.36	46494.74
574.52	46770.93
574.68	46696.03
574.84	46738.16
575.01	46637.51
575.17	46866.89
575.33	46473.68
575.49	46534.53
575.65	47264.78
575.82	46904.34
575.98	46817.74
576.14	47056.47
576.30	46763.90
576.46	47077.54
576.62	46452.61
576.79	46625.81
576.95	46459.63
577.11	46302.82
577.27	46829.44
577.43	46667.94
577.59	46733.48
577.75	46763.90
577.92	46227.92
578.08	46593.04
578.24	46522.83
578.40	46820.08
578.56	46948.81
578.72	46789.65
578.88	46958.17
579.04	46813.05
579.21	47026.04
579.37	47215.63
579.53	46941.78
579.69	46965.19
579.85	46766.24
580.01	47056.47
580.17	47009.66
580.33	47152.43
580.49	46967.53
580.65	47030.72
580.82	46476.02
580.98	47222.65
581.14	46375.37
581.30	46981.57
581.46	46791.99
581.62	46642.20
581.78	46728.80
581.94	46590.70
582.10	46782.63
582.26	46717.09
582.42	47040.09
582.58	47004.98
582.74	46979.23
582.90	46766.24
583.06	47056.47
583.22	46944.12
583.38	47079.88
583.54	46766.24
583.70	47075.19
583.86	47035.41
584.02	46822.42
584.18	47391.17
584.34	46937.10
584.50	47309.25
584.66	47208.61
584.82	47435.64
584.98	47131.37
585.14	47180.52
585.30	46777.95
585.46	46953.49
585.62	46794.33
585.78	47114.98
585.94	46674.96
586.10	47276.48
586.26	46644.54
586.42	47129.03
586.58	46981.57
586.74	46883.27
586.90	47220.31
587.06	46899.65
587.22	47618.20
587.38	46836.46
587.54	47337.33
587.70	47269.46
587.86	47091.58
588.02	47285.84
588.18	46885.61
588.34	47243.71
588.49	47255.42
588.65	46806.03
588.81	47318.61
588.97	47070.51
589.13	46831.78
589.29	46983.91
589.45	47065.83
589.61	47236.69
589.77	47657.99
589.93	47320.95
590.08	47407.55
