SpectraSuite Data File
++++++++++++++++++++++++++++++++++++
Date: Fri Oct 25 11:34:22 EDT 2013
User: price-jones
Dark Spectrum Present: No
Reference Spectrum Present: No
Number of Sampled Component Spectra: 1
Spectrometers: USB2+H05261
Integration Time (usec): 100000 (USB2+H05261)
Spectra Averaged: 1 (USB2+H05261)
Boxcar Smoothing: 0 (USB2+H05261)
Correct for Electrical Dark: No (USB2+H05261)
Strobe/Lamp Enabled: No (USB2+H05261)
Correct for Detector Non-linearity: No (USB2+H05261)
Correct for Stray Light: No (USB2+H05261)
Number of Pixels in Processed Spectrum: 2048
>>>>>Begin Processed Spectral Data<<<<<
365.73	271.50
365.92	271.50
366.12	271.50
366.32	170.86
366.52	215.33
366.72	184.90
366.91	163.84
367.11	117.03
367.31	175.54
367.51	114.69
367.70	182.56
367.90	241.08
368.10	161.50
368.30	191.92
368.49	196.60
368.69	191.92
368.89	231.71
369.09	229.37
369.28	273.84
369.48	180.22
369.68	205.97
369.87	271.50
370.07	287.89
370.27	264.48
370.47	292.57
370.66	407.25
370.86	491.51
371.06	514.92
371.25	519.60
371.45	540.66
371.65	564.07
371.84	482.15
372.04	517.26
372.24	608.54
372.44	547.69
372.63	571.09
372.83	657.69
373.03	629.60
373.22	543.00
373.42	702.16
373.62	573.43
373.81	650.67
374.01	594.50
374.21	578.11
374.40	615.56
374.60	643.65
374.79	653.01
374.99	678.76
375.19	603.86
375.38	615.56
375.58	617.90
375.78	683.44
375.97	688.12
376.17	702.16
376.37	662.37
376.56	720.88
376.76	615.56
376.95	664.71
377.15	674.07
377.35	702.16
377.54	711.52
377.74	692.80
377.93	608.54
378.13	671.73
378.33	755.99
378.52	709.18
378.72	763.01
378.91	692.80
379.11	662.37
379.31	678.76
379.50	730.25
379.70	774.72
379.89	741.95
380.09	737.27
380.28	704.50
380.48	699.82
380.68	772.38
380.87	699.82
381.07	718.54
381.26	713.86
381.46	800.46
381.65	681.10
381.85	770.04
382.04	791.10
382.24	828.55
382.43	711.52
382.63	791.10
382.83	795.78
383.02	809.83
383.22	891.74
383.41	772.38
383.61	842.59
383.80	753.65
384.00	758.33
384.19	781.74
384.39	868.34
384.58	826.21
384.78	765.36
384.97	781.74
385.17	823.87
385.36	837.91
385.56	807.48
385.75	786.42
385.95	777.06
386.14	861.32
386.34	823.87
386.53	847.27
386.72	847.27
386.92	816.85
387.11	889.40
387.31	873.02
387.50	828.55
387.70	842.59
387.89	936.21
388.09	910.47
388.28	945.58
388.48	858.98
388.67	882.38
388.86	950.26
389.06	903.45
389.25	985.37
389.45	954.94
389.64	917.49
389.84	968.98
390.03	1022.81
390.22	959.62
390.42	940.90
390.61	971.32
390.81	985.37
391.00	938.55
391.19	933.87
391.39	931.53
391.58	964.30
391.78	936.21
391.97	961.96
392.16	994.73
392.36	976.00
392.55	1004.09
392.75	1078.99
392.94	1018.13
393.13	1095.37
393.33	1078.99
393.52	1093.03
393.71	1050.90
393.91	1062.60
394.10	1036.86
394.29	1074.31
394.49	1093.03
394.68	1046.22
394.88	1139.84
395.07	1090.69
395.26	1142.18
395.46	1151.54
395.65	1102.39
395.84	1170.27
396.04	1184.31
396.23	1137.50
396.42	1163.25
396.62	1128.14
396.81	1224.10
397.00	1210.06
397.19	1188.99
397.39	1177.29
397.58	1277.93
397.77	1207.72
397.97	1172.61
398.16	1259.21
398.35	1203.04
398.55	1156.22
398.74	1224.10
398.93	1327.08
399.12	1261.55
399.32	1167.93
399.51	1352.83
399.70	1240.48
399.90	1327.08
400.09	1359.85
400.28	1369.21
400.47	1289.64
400.67	1427.73
400.86	1338.79
401.05	1486.24
401.24	1355.17
401.44	1345.81
401.63	1371.55
401.82	1465.18
402.01	1439.43
402.21	1427.73
402.40	1373.89
402.59	1392.62
402.78	1341.13
402.97	1474.54
403.17	1404.32
403.36	1416.02
403.55	1526.03
403.74	1523.69
403.93	1673.48
404.13	1629.01
404.32	1593.90
404.51	1540.07
404.70	1617.31
404.89	1619.65
405.09	1568.16
405.28	1659.44
405.47	1629.01
405.66	1640.72
405.85	1617.31
406.05	1636.03
406.24	1647.74
406.43	1753.06
406.62	1633.69
406.81	1706.25
407.00	1795.19
407.20	1727.32
407.39	1750.72
407.58	1877.11
407.77	1739.02
407.96	1916.90
408.15	1806.89
408.34	1813.92
408.54	1870.09
408.73	1753.06
408.92	1834.98
409.11	1865.41
409.30	1856.04
409.49	1909.88
409.68	1933.28
409.87	1998.82
410.07	1912.22
410.26	1970.73
410.45	1952.01
410.64	1973.07
410.83	1996.48
411.02	2073.71
411.21	2040.95
411.40	2069.03
411.59	2200.10
411.78	2019.88
411.98	2202.44
412.17	2202.44
412.36	2188.40
412.55	2265.64
412.74	2293.72
412.93	2225.85
413.12	2139.25
413.31	2417.77
413.50	2267.98
413.69	2328.83
413.88	2431.82
414.07	2328.83
414.26	2450.54
414.45	2406.07
414.64	2476.29
414.83	2509.05
415.02	2541.82
415.22	2534.80
415.41	2605.02
415.60	2590.97
415.79	2583.95
415.98	2607.36
416.17	2703.32
416.36	2689.28
416.55	2635.44
416.74	2724.38
416.93	2682.25
417.12	2675.23
417.31	2689.28
417.50	2878.86
417.69	2808.64
417.88	2794.60
418.07	2787.58
418.26	2780.56
418.45	3030.99
418.64	2972.48
418.83	2860.13
419.02	2944.39
419.21	2998.23
419.39	3026.31
419.58	2764.17
419.77	2902.26
419.96	3075.46
420.15	3009.93
420.34	3019.29
420.53	3070.78
420.72	3087.17
420.91	3164.40
421.10	3272.07
421.29	3183.13
421.48	3169.09
421.67	3124.62
421.86	3185.47
422.05	3162.06
422.24	3178.45
422.43	3276.75
422.61	3183.13
422.80	3295.47
422.99	3318.88
423.18	3325.90
423.37	3342.28
423.56	3281.43
423.75	3192.49
423.94	3304.84
424.13	3124.62
424.32	3206.53
424.50	3330.58
424.69	3452.29
424.88	3363.35
425.07	3349.31
425.26	3396.12
425.45	3302.50
425.64	3318.88
425.83	3428.88
426.01	3337.60
426.20	3337.60
426.39	3384.41
426.58	3393.78
426.77	3473.36
426.96	3506.12
427.15	3445.27
427.33	3501.44
427.52	3489.74
427.71	3527.19
427.90	3562.30
428.09	3623.15
428.28	3456.97
428.46	3496.76
428.65	3585.70
428.84	3674.64
429.03	3733.15
429.22	3592.72
429.40	3604.42
429.59	3744.86
429.78	3496.76
429.97	3471.01
430.16	3833.80
430.34	3815.07
430.53	3754.22
430.72	3808.05
430.91	3698.05
431.10	3744.86
431.28	3747.20
431.47	3803.37
431.66	3852.52
431.85	3772.94
432.03	3845.50
432.22	4014.02
432.41	3974.23
432.60	3922.74
432.79	3873.59
432.97	4009.34
433.16	3948.48
433.35	4011.68
433.54	4159.13
433.72	3957.85
433.91	4060.83
434.10	3936.78
434.28	3971.89
434.47	4191.90
434.66	3922.74
434.85	4135.73
435.03	4039.76
435.22	4154.45
435.41	4329.99
435.59	4287.86
435.78	4322.97
435.97	4182.54
436.16	4229.35
436.34	4273.82
436.53	4327.65
436.72	4376.80
436.90	4290.20
437.09	4395.53
437.28	4248.07
437.46	4435.32
437.65	4308.93
437.84	4526.60
438.02	4236.37
438.21	4421.27
438.40	4449.36
438.58	4528.94
438.77	4554.68
438.96	4664.69
439.14	4737.24
439.33	4667.03
439.52	4718.52
439.70	4678.73
439.89	4844.91
440.08	4882.36
440.26	4877.68
440.45	4854.27
440.63	4770.01
440.82	4917.47
441.01	4973.64
441.19	5062.58
441.38	5107.05
441.57	4945.55
441.75	4929.17
441.94	5057.90
442.12	5219.39
442.31	5217.05
442.50	5195.99
442.68	5142.16
442.87	5284.93
443.05	5228.76
443.24	5455.79
443.43	5336.42
443.61	5303.65
443.80	5462.81
443.98	5305.99
444.17	5088.32
444.35	5385.57
444.54	5507.28
444.73	5380.89
444.91	5401.96
445.10	5572.82
445.28	5273.23
445.47	5348.12
445.65	5336.42
445.84	5390.25
446.02	5460.47
446.21	5762.40
446.39	5448.77
446.58	5448.77
446.77	5509.62
446.95	5259.18
447.14	5446.43
447.32	5788.14
447.51	5455.79
447.69	5507.28
447.88	5598.56
448.06	5621.97
448.25	5607.92
448.43	5621.97
448.62	5572.82
448.80	5535.37
448.99	5645.37
449.17	5689.84
449.36	5640.69
449.54	5832.62
449.73	5755.38
449.91	5820.91
450.10	5856.02
450.28	5951.98
450.46	5872.40
450.65	5926.24
450.83	5895.81
451.02	5849.00
451.20	5944.96
451.39	5891.13
451.57	5860.70
451.76	5813.89
451.94	6031.56
452.13	6132.20
452.31	6017.52
452.49	5928.58
452.68	6085.39
452.86	6092.41
453.05	6218.80
453.23	6118.16
453.42	6141.57
453.60	6083.05
453.78	6195.40
453.97	5940.28
454.15	6139.23
454.34	6188.38
454.52	6382.64
454.70	6331.15
454.89	6286.68
455.07	6551.16
455.26	6492.65
455.44	6457.54
455.62	6518.39
455.81	6478.60
455.99	6621.38
456.17	6459.88
456.36	6516.05
456.54	6511.37
456.73	6558.18
456.91	6946.71
457.09	6759.47
457.28	6841.39
457.46	6705.63
457.64	6848.41
457.83	6796.92
458.01	6764.15
458.19	6956.07
458.38	6789.89
458.56	6899.90
458.74	6874.15
458.93	6904.58
459.11	6874.15
459.29	6979.48
459.48	7002.88
459.66	7075.44
459.84	7112.89
460.03	7096.50
460.21	7145.66
460.39	6970.12
460.57	7047.35
460.76	7232.26
460.94	7241.62
461.12	7276.73
461.31	7157.36
461.49	7276.73
461.67	7267.36
461.85	7414.82
462.04	7269.70
462.22	7861.86
462.40	7480.35
462.59	7470.99
462.77	7396.09
462.95	7325.88
463.13	7503.76
463.32	7370.35
463.50	7466.31
463.68	7489.71
463.86	7524.82
464.05	7442.90
464.23	7365.67
464.41	7719.09
464.59	7555.25
464.78	7761.22
464.96	7667.60
465.14	7623.12
465.32	7840.79
465.50	7864.20
465.69	7798.66
465.87	7740.15
466.05	7875.90
466.23	7768.24
466.41	7826.75
466.60	8126.34
466.78	7798.66
466.96	7829.09
467.14	7906.33
467.32	8168.47
467.51	8006.97
467.69	7857.18
467.87	7899.31
468.05	8011.65
468.23	8006.97
468.41	7946.12
468.60	8091.23
468.78	7955.48
468.96	8187.19
469.14	8346.35
469.32	8241.03
469.50	8217.62
469.69	8390.82
469.87	8372.10
470.05	8329.97
470.23	8667.00
470.41	8355.71
470.59	8592.11
470.77	8521.89
470.95	8538.27
471.14	8507.85
471.32	8507.85
471.50	8561.68
471.68	8854.25
471.86	8678.71
472.04	8638.92
472.22	9184.26
472.40	8851.91
472.58	8865.95
472.77	8959.57
472.95	8901.06
473.13	9238.09
473.31	9036.81
473.49	9350.44
473.67	9020.42
473.85	9029.79
474.03	9247.46
474.21	9291.93
474.39	9397.25
474.57	9390.23
474.75	9516.62
474.93	9643.01
475.12	9614.92
475.30	9750.67
475.48	9717.90
475.66	9881.74
475.84	9717.90
476.02	9926.21
476.20	9724.93
476.38	10083.03
476.56	10258.57
476.74	10017.49
476.92	9907.49
477.10	10078.35
477.28	10157.92
477.46	10242.18
477.64	10150.90
477.82	10382.62
478.00	10815.62
478.18	10693.91
478.36	10754.76
478.54	10864.77
478.72	10974.77
478.90	10972.43
479.08	11164.36
479.26	11110.52
479.44	11232.23
479.62	11276.70
479.80	11602.04
479.98	11569.27
480.16	11751.83
480.34	11527.14
480.52	11927.37
480.70	11690.98
480.88	11580.97
481.06	11920.35
481.24	12006.95
481.41	12262.07
481.59	12439.95
481.77	12381.43
481.95	12287.81
482.13	12580.38
482.31	12418.88
482.49	12950.18
482.67	12622.51
482.85	13015.72
483.03	13085.94
483.21	13095.30
483.39	13235.73
483.57	12973.59
483.74	13226.37
483.92	13610.22
484.10	13635.96
484.28	13738.94
484.46	13963.64
484.64	14307.69
484.82	14036.19
485.00	14033.85
485.18	14263.22
485.35	14455.15
485.53	14317.06
485.71	14527.71
485.89	14951.34
486.07	14656.43
486.25	14839.00
486.43	14951.34
486.61	14988.79
486.78	15173.69
486.96	15332.85
487.14	15520.09
487.32	15403.07
487.50	15800.96
487.68	15843.09
487.85	15723.72
488.03	15894.58
488.21	16079.48
488.39	16563.97
488.57	16482.05
488.75	16404.81
488.92	16659.93
489.10	17006.33
489.28	16613.12
489.46	16999.31
489.64	16971.22
489.81	17404.22
489.99	17678.07
490.17	17326.99
490.35	17404.22
490.53	17755.30
490.70	18045.53
490.88	17535.29
491.06	18141.49
491.24	18050.21
491.41	18534.70
491.59	18527.68
491.77	18452.78
491.95	18611.94
492.13	18956.00
492.30	18845.99
492.48	18677.48
492.66	19337.51
492.84	19129.20
493.01	19496.66
493.19	19248.57
493.37	19286.01
493.54	19985.83
493.72	19756.46
493.90	19601.99
494.08	20049.03
494.25	20297.13
494.43	20318.19
494.61	20294.79
494.79	20585.01
494.96	20491.39
495.14	20657.57
495.32	21135.04
495.49	20676.29
495.67	21064.82
495.85	21067.16
496.02	21184.19
496.20	21521.23
496.38	21570.38
496.55	21687.40
496.73	22029.12
496.91	22008.06
497.09	21654.64
497.26	22005.72
497.44	21954.22
497.62	22415.31
497.79	22448.08
497.97	22408.29
498.14	22338.07
498.32	22778.09
498.50	22897.46
498.67	23030.87
498.85	23012.15
499.03	22892.78
499.20	23033.21
499.38	23269.61
499.56	23206.41
499.73	23515.36
499.91	23283.65
500.08	23412.38
500.26	23578.56
500.44	23473.23
500.61	23927.30
500.79	23611.32
500.97	24065.39
501.14	24098.16
501.32	24367.32
501.49	24233.91
501.67	24037.30
501.84	24409.45
502.02	24404.77
502.20	24318.17
502.37	24680.95
502.55	24828.40
502.72	25130.33
502.90	25179.48
503.07	24816.70
503.25	25001.60
503.43	25202.89
503.60	25490.77
503.78	25462.69
503.95	25135.01
504.13	25465.03
504.30	25582.06
504.48	25294.17
504.65	25816.11
504.83	25867.60
505.01	25986.97
505.18	25905.05
505.36	26174.21
505.53	25898.03
505.71	26181.23
505.88	26307.62
506.06	26003.35
506.23	26525.29
506.41	26595.51
506.58	26199.96
506.76	26668.06
506.93	26370.82
507.11	26757.00
507.28	27054.25
507.46	27173.62
507.63	27234.47
507.81	27515.34
507.98	27213.41
508.16	27358.52
508.33	27611.30
508.50	27737.69
508.68	27562.15
508.85	27833.65
509.03	27590.24
509.20	27594.92
509.38	27931.95
509.55	27899.19
509.73	28140.26
509.90	28109.83
510.08	28107.49
510.25	28133.24
510.42	28519.43
510.60	28528.79
510.77	28732.42
510.95	28804.97
511.12	28582.62
511.30	28753.48
511.47	29010.94
511.64	28898.59
511.82	29401.81
511.99	28940.72
512.17	29233.29
512.34	29092.86
512.51	29776.30
512.69	29717.78
512.86	29476.71
513.04	29890.98
513.21	29425.22
513.38	29727.14
513.56	29692.04
513.73	29677.99
513.90	29640.54
514.08	29816.08
514.25	29935.45
514.43	30300.58
514.60	30302.92
514.77	30553.35
514.95	30169.51
515.12	30436.33
515.29	30368.45
515.47	30831.88
515.64	30988.69
515.81	30270.15
515.99	30721.87
516.16	31236.79
516.33	31030.82
516.51	31314.03
516.68	30841.24
516.85	31346.79
517.03	31372.54
517.20	31325.73
517.37	31548.08
517.54	31229.77
517.72	31531.70
517.89	31487.23
518.06	32018.53
518.24	31660.43
518.41	31754.05
518.58	31908.52
518.75	32046.62
518.93	31997.46
519.10	31990.44
519.27	31845.33
519.45	32257.26
519.62	32247.90
519.79	32238.54
519.96	32343.86
520.14	32521.74
520.31	32589.62
520.48	32870.48
520.65	32826.01
520.83	32786.22
521.00	33022.62
521.17	33123.26
521.34	33092.83
521.52	33074.11
521.69	32624.73
521.86	32933.68
522.03	33310.50
522.20	33244.97
522.38	33542.22
522.55	33724.78
522.72	33347.95
522.89	33642.86
523.07	33841.81
523.24	33677.97
523.41	33596.05
523.58	33692.01
523.75	33989.26
523.92	33961.17
524.10	33757.55
524.27	34511.20
524.44	34307.57
524.61	34593.12
524.78	34272.46
524.96	34691.42
525.13	34349.70
525.30	34408.22
525.47	35136.12
525.64	34384.81
525.81	34934.84
525.98	35007.39
526.16	34761.64
526.33	34614.18
526.50	34951.22
526.67	34735.89
526.84	35056.54
527.01	34955.90
527.18	35138.46
527.36	35180.59
527.53	35026.12
527.70	35491.88
527.87	35562.10
528.04	35786.79
528.21	35817.22
528.38	35304.64
528.55	35686.15
528.72	36030.21
528.89	35637.00
529.07	35793.81
529.24	35648.70
529.41	35950.63
529.58	36025.53
529.75	35576.14
529.92	36180.00
530.09	36172.98
530.26	35997.44
530.43	36168.30
530.60	35908.50
530.77	36126.17
530.94	36058.29
531.11	36261.92
531.28	36538.10
531.46	36364.90
531.63	36708.96
531.80	36327.45
531.97	36629.38
532.14	36725.35
532.31	36488.95
532.48	37055.36
532.65	37123.24
532.82	36432.78
532.99	36744.07
533.16	36603.64
533.33	37139.62
533.50	37258.99
533.67	37392.40
533.84	36861.10
534.01	37572.62
534.18	37303.46
534.35	37523.47
534.52	37773.91
534.69	37717.73
534.86	37979.87
535.03	37530.49
535.20	37701.35
535.37	37993.92
535.54	38157.75
535.71	37722.41
535.88	38532.24
536.05	38103.92
536.22	38129.67
536.38	38321.59
536.55	38251.38
536.72	37986.89
536.89	37993.92
537.06	37717.73
537.23	38473.73
537.40	38384.79
537.57	38127.33
537.74	38490.11
537.91	38731.18
538.08	38494.79
538.25	38583.73
538.42	38333.29
538.59	38553.30
538.75	38735.87
538.92	38801.40
539.09	39292.91
539.26	38717.14
539.43	38902.04
539.60	38986.30
539.77	38801.40
539.94	38925.45
540.11	39072.90
540.28	39103.33
540.44	38944.17
540.61	39047.16
540.78	39093.97
540.95	38939.49
541.12	39309.30
541.29	39164.18
541.46	39735.27
541.62	39475.48
541.79	39847.62
541.96	39332.70
542.13	39159.50
542.30	39796.13
542.47	39393.56
542.63	39503.56
542.80	39931.88
542.97	40161.25
543.14	40107.42
543.31	40294.66
543.48	40371.90
543.64	40432.75
543.81	40278.28
543.98	40292.32
544.15	40149.55
544.32	40294.66
544.48	40711.28
544.65	40341.47
544.82	40840.01
544.99	40046.57
545.16	40559.14
545.32	40187.00
545.49	40779.15
545.66	41092.79
545.83	41081.08
546.00	41471.95
546.16	40940.65
546.33	40940.65
546.50	40912.56
546.67	40882.14
546.83	40414.03
547.00	41249.60
547.17	40722.98
547.34	40914.90
547.50	40952.35
547.67	41635.79
547.84	41151.30
548.00	41481.31
548.17	41558.55
548.34	41553.87
548.51	41745.80
548.67	41282.37
548.84	41755.16
549.01	41191.09
549.18	41577.28
549.34	41935.38
549.51	41783.24
549.68	41874.52
549.84	41904.95
550.01	41544.51
550.18	41425.14
550.34	41820.69
550.51	42110.92
550.68	42127.30
550.84	41837.08
551.01	42188.16
551.18	41867.50
551.34	41607.70
551.51	41874.52
551.68	41975.17
551.84	42031.34
552.01	42000.91
552.18	41769.20
552.34	42106.24
552.51	42307.52
552.68	42344.97
552.84	42244.33
553.01	42719.46
553.18	42419.87
553.34	42316.89
553.51	42139.00
553.67	42635.20
553.84	42895.00
554.01	42822.44
554.17	42546.26
554.34	42773.29
554.51	42663.28
554.67	42845.85
554.84	42796.70
555.00	42667.97
555.17	42965.21
555.33	42993.30
555.50	42838.83
555.67	42948.83
555.83	43323.32
556.00	42843.51
556.16	43306.93
556.33	43398.21
556.50	43145.44
556.66	42899.68
556.83	43208.63
556.99	43536.30
557.16	43466.09
557.32	43576.09
557.49	43365.45
557.65	43030.75
557.82	43320.98
557.98	43658.01
558.15	43604.18
558.32	43196.93
558.48	43288.21
558.65	43468.43
558.81	43599.50
558.98	43889.73
559.14	43061.18
559.31	43924.83
559.47	43480.13
559.64	43885.04
559.80	43351.40
559.97	43981.01
560.13	43243.74
560.30	43473.11
560.46	43571.41
560.63	44046.54
560.79	44027.82
560.96	43625.25
561.12	44191.65
561.29	43592.48
561.45	43686.10
561.61	43917.81
561.78	43665.03
561.94	44215.06
562.11	44336.77
562.27	43988.03
562.44	44144.84
562.60	44030.16
562.77	44250.17
562.93	44135.48
563.10	44617.63
563.26	44086.33
563.42	44568.48
563.59	44414.01
563.75	44320.38
563.92	44311.02
564.08	43973.98
564.24	44011.43
564.41	44250.17
564.57	44683.17
564.74	43901.43
564.90	44215.06
565.07	44203.36
565.23	44362.51
565.39	43966.96
565.56	44493.58
565.72	44325.07
565.88	44411.67
566.05	44863.39
566.21	44311.02
566.38	44280.60
566.54	44563.80
566.70	44914.88
566.87	44526.35
567.03	44266.55
567.19	44797.85
567.36	44486.56
567.52	44250.17
567.68	44772.11
567.85	44542.74
568.01	44538.05
568.17	44418.69
568.34	44935.95
568.50	44802.53
568.66	44458.48
568.83	44495.92
568.99	44816.58
569.15	44889.13
569.32	44886.79
569.48	44479.54
569.64	45123.19
569.81	44879.77
569.97	44917.22
570.13	44804.88
570.30	44701.89
570.46	44868.07
570.62	44505.29
570.78	44957.01
570.95	44877.43
571.11	45174.68
571.27	44891.48
571.43	44306.34
571.60	44835.30
571.76	44919.56
571.92	44872.75
572.09	45081.06
572.25	44886.79
572.41	44612.95
572.57	45230.85
572.74	45130.21
572.90	44755.72
573.06	45200.43
573.22	45731.73
573.38	45069.36
573.55	45249.58
573.71	45270.64
573.87	44928.92
574.03	44992.12
574.20	45411.07
574.36	45214.47
574.52	45181.70
574.68	45469.59
574.84	45205.11
575.01	45151.27
575.17	45457.88
575.33	45160.64
575.49	45174.68
575.65	45382.99
575.82	45109.14
575.98	45081.06
576.14	45212.13
576.30	45504.70
576.46	45434.48
576.62	45179.36
576.79	45574.91
576.95	45158.30
577.11	45474.27
577.27	45216.81
577.43	45188.72
577.59	45418.10
577.75	45343.20
577.92	45160.64
578.08	45418.10
578.24	45572.57
578.40	45886.20
578.56	45209.79
578.72	45303.41
578.88	45457.88
579.04	45305.75
579.21	45188.72
579.37	45727.05
579.53	45481.29
579.69	45549.17
579.85	45277.66
580.01	45427.46
580.17	45350.22
580.33	45483.63
580.49	45352.56
580.65	45254.26
580.82	45455.54
580.98	45104.46
581.14	44999.14
581.30	45425.12
581.46	45347.88
581.62	45200.43
581.78	45251.92
581.94	45401.71
582.10	45408.73
582.26	45532.78
582.42	45633.42
582.58	45635.77
582.74	45797.26
582.90	45153.62
583.06	45684.92
583.22	45532.78
583.38	45944.72
583.54	45684.92
583.70	45649.81
583.86	45394.69
584.02	45471.93
584.18	45837.05
584.34	45670.87
584.50	45860.46
584.66	45556.19
584.82	45881.52
584.98	45958.76
585.14	45792.58
585.30	45811.31
585.46	45514.06
585.62	45546.82
585.78	45668.53
585.94	45397.03
586.10	45390.01
586.26	45675.55
586.42	45280.00
586.58	45787.90
586.74	45633.42
586.90	45364.26
587.06	45930.67
587.22	45553.85
587.38	45675.55
587.54	45570.23
587.70	45635.77
587.86	45361.92
588.02	46021.95
588.18	45556.19
588.34	45647.47
588.49	45684.92
588.65	45390.01
588.81	45724.71
588.97	46239.62
589.13	45640.45
589.29	45574.91
589.45	45839.39
589.61	45610.02
589.77	45825.35
589.93	45977.48
590.08	45916.63
