SpectraSuite Data File
++++++++++++++++++++++++++++++++++++
Date: Fri Oct 25 10:43:19 EDT 2013
User: price-jones
Dark Spectrum Present: No
Reference Spectrum Present: No
Number of Sampled Component Spectra: 1
Spectrometers: USB2+H05261
Integration Time (usec): 100000 (USB2+H05261)
Spectra Averaged: 1 (USB2+H05261)
Boxcar Smoothing: 0 (USB2+H05261)
Correct for Electrical Dark: No (USB2+H05261)
Strobe/Lamp Enabled: No (USB2+H05261)
Correct for Detector Non-linearity: No (USB2+H05261)
Correct for Stray Light: No (USB2+H05261)
Number of Pixels in Processed Spectrum: 2048
>>>>>Begin Processed Spectral Data<<<<<
365.73	152.13
365.92	152.13
366.12	152.13
366.32	7.02
366.52	0.00
366.72	11.70
366.91	9.36
367.11	46.81
367.31	21.06
367.51	21.06
367.70	32.77
367.90	84.26
368.10	11.70
368.30	42.13
368.49	53.83
368.69	25.75
368.89	2.34
369.09	51.49
369.28	37.45
369.48	121.71
369.68	49.15
369.87	77.24
370.07	112.35
370.27	138.09
370.47	266.82
370.66	337.04
370.86	421.30
371.06	528.96
371.25	456.40
371.45	369.80
371.65	482.15
371.84	430.66
372.04	447.04
372.24	451.72
372.44	517.26
372.63	454.06
372.83	564.07
373.03	489.17
373.22	510.24
373.42	554.71
373.62	571.09
373.81	491.51
374.01	580.45
374.21	571.09
374.40	500.87
374.60	596.84
374.79	561.73
374.99	519.60
375.19	517.26
375.38	596.84
375.58	589.82
375.78	587.47
375.97	575.77
376.17	690.46
376.37	568.75
376.56	645.99
376.76	613.22
376.95	552.37
377.15	571.09
377.35	660.03
377.54	662.37
377.74	638.97
377.93	631.94
378.13	662.37
378.33	585.13
378.52	599.18
378.72	657.69
378.91	725.57
379.11	601.52
379.31	660.03
379.50	603.86
379.70	638.97
379.89	685.78
380.09	629.60
380.28	638.97
380.48	650.67
380.68	648.33
380.87	709.18
381.07	758.33
381.26	786.42
381.46	674.07
381.65	748.97
381.85	718.54
382.04	709.18
382.24	746.63
382.43	711.52
382.63	674.07
382.83	685.78
383.02	760.67
383.22	774.72
383.41	760.67
383.61	732.59
383.80	723.23
384.00	791.10
384.19	718.54
384.39	753.65
384.58	784.08
384.78	868.34
384.97	751.31
385.17	837.91
385.36	798.12
385.56	770.04
385.75	812.17
385.95	868.34
386.14	849.61
386.34	751.31
386.53	912.81
386.72	856.64
386.92	873.02
387.11	816.85
387.31	793.44
387.50	823.87
387.70	840.25
387.89	821.53
388.09	868.34
388.28	851.96
388.48	940.90
388.67	985.37
388.86	856.64
389.06	903.45
389.25	1032.18
389.45	922.17
389.64	931.53
389.84	1004.09
390.03	973.66
390.22	985.37
390.42	1015.79
390.61	964.30
390.81	1015.79
391.00	1062.60
391.19	1074.31
391.39	1083.67
391.58	973.66
391.78	950.26
391.97	1057.92
392.16	1029.84
392.36	1053.24
392.55	896.43
392.75	976.00
392.94	968.98
393.13	1064.94
393.33	994.73
393.52	1008.77
393.71	1071.97
393.91	1156.22
394.10	1057.92
394.29	1184.31
394.49	1205.38
394.68	1181.97
394.88	1181.97
395.07	1247.51
395.26	1196.01
395.46	1231.12
395.65	1226.44
395.84	1207.72
396.04	1240.48
396.23	1196.01
396.42	1139.84
396.62	1128.14
396.81	1170.27
397.00	1217.08
397.19	1270.91
397.39	1261.55
397.58	1378.58
397.77	1371.55
397.97	1373.89
398.16	1373.89
398.35	1439.43
398.55	1465.18
398.74	1476.88
398.93	1582.20
399.12	1504.96
399.32	1378.58
399.51	1535.39
399.70	1645.40
399.90	1507.30
400.09	1509.65
400.28	1596.25
400.47	1551.78
400.67	1748.38
400.86	1521.35
401.05	1647.74
401.24	1708.59
401.44	1673.48
401.63	1650.08
401.82	1746.04
402.01	1717.95
402.21	1767.10
402.40	1774.13
402.59	1699.23
402.78	1813.92
402.97	1778.81
403.17	1750.72
403.36	1666.46
403.55	1783.49
403.74	1825.62
403.93	1891.15
404.13	1811.57
404.32	1818.60
404.51	1846.68
404.70	1886.47
404.89	1994.14
405.09	1935.62
405.28	1877.11
405.47	2043.29
405.66	1919.24
405.85	2019.88
406.05	1916.90
406.24	1961.37
406.43	2043.29
406.62	2115.84
406.81	2097.12
407.00	2146.27
407.20	2038.61
407.39	1977.75
407.58	2115.84
407.77	2073.71
407.96	2179.04
408.15	2389.69
408.34	2230.53
408.54	2162.66
408.73	2150.95
408.92	2321.81
409.11	2244.57
409.30	2321.81
409.49	2237.55
409.68	2242.23
409.87	2251.60
410.07	2375.64
410.26	2377.98
410.45	2417.77
410.64	2406.07
410.83	2487.99
411.02	2553.52
411.21	2583.95
411.40	2590.97
411.59	2588.63
411.78	2663.53
411.98	2534.80
412.17	2616.72
412.36	2579.27
412.55	2775.88
412.74	2796.94
412.93	2724.38
413.12	2621.40
413.31	2925.67
413.50	2796.94
413.69	2785.24
413.88	2796.94
414.07	2958.44
414.26	2939.71
414.45	2956.10
414.64	3066.10
414.83	2946.73
415.02	2991.20
415.22	3023.97
415.41	3129.30
415.60	3122.27
415.79	3243.98
415.98	3375.05
416.17	3162.06
416.36	3279.09
416.55	3201.85
416.74	3398.46
416.93	3293.13
417.12	3236.96
417.31	3220.58
417.50	3405.48
417.69	3461.65
417.88	3361.01
418.07	3361.01
418.26	3325.90
418.45	3386.76
418.64	3581.02
418.83	3529.53
419.02	3574.00
419.21	3503.78
419.39	3508.46
419.58	3597.40
419.77	3471.01
419.96	3627.83
420.15	3651.24
420.34	3719.11
420.53	3873.59
420.72	3756.56
420.91	3707.41
421.10	3735.50
421.29	3726.13
421.48	3871.25
421.67	3794.01
421.86	3801.03
422.05	3824.44
422.24	3808.05
422.43	3812.73
422.61	3761.24
422.80	3896.99
422.99	3840.82
423.18	3990.61
423.37	4016.36
423.56	3857.20
423.75	3765.92
423.94	3857.20
424.13	3719.11
424.32	3887.63
424.50	4021.04
424.69	3990.61
424.88	3936.78
425.07	3740.18
425.26	3782.31
425.45	3925.08
425.64	3913.38
425.83	3913.38
426.01	3894.65
426.20	3999.98
426.39	3850.18
426.58	3801.03
426.77	4039.76
426.96	4046.79
427.15	3929.76
427.33	4170.83
427.52	3946.14
427.71	4002.32
427.90	4227.01
428.09	3948.48
428.28	3999.98
428.46	4084.23
428.65	4063.17
428.84	4187.22
429.03	4311.27
429.22	4121.68
429.40	4219.99
429.59	4095.94
429.78	3911.04
429.97	3836.14
430.16	4081.89
430.34	4037.42
430.53	4196.58
430.72	4093.60
430.91	4205.94
431.10	4461.06
431.28	4465.74
431.47	4636.60
431.66	4601.49
431.85	4458.72
432.03	4559.36
432.22	4610.86
432.41	4589.79
432.60	4662.35
432.79	4479.79
432.97	4807.46
433.16	4622.56
433.35	4648.30
433.54	4615.54
433.72	4739.58
433.91	4660.01
434.10	4772.35
434.28	4568.73
434.47	4868.31
434.66	4936.19
434.85	4657.67
435.03	4933.85
435.22	4966.62
435.41	5146.84
435.59	5093.01
435.78	5116.41
435.97	5020.45
436.16	5111.73
436.34	5022.79
436.53	4975.98
436.72	5151.52
436.90	4985.34
437.09	5043.85
437.28	5174.92
437.46	5263.86
437.65	5186.63
437.84	5181.95
438.02	5174.92
438.21	5158.54
438.40	5221.74
438.58	5394.93
438.77	5350.46
438.96	5518.98
439.14	5507.28
439.33	5423.02
439.52	5591.54
439.70	5526.00
439.89	5523.66
440.08	5530.69
440.26	5689.84
440.45	5706.23
440.63	5865.38
440.82	5881.77
441.01	5769.42
441.19	5919.21
441.38	6153.27
441.57	6059.65
441.75	6033.90
441.94	6251.57
442.12	6171.99
442.31	6258.59
442.50	6303.06
442.68	6277.32
442.87	6317.11
443.05	6471.58
443.24	6335.83
443.43	6363.92
443.61	6406.05
443.80	6621.38
443.98	6368.60
444.17	6340.51
444.35	6478.60
444.54	6696.27
444.73	6513.71
444.91	6352.21
445.10	6509.03
445.28	6485.62
445.47	6354.55
445.65	6396.68
445.84	6494.99
446.02	6623.72
446.21	6546.48
446.39	6387.32
446.58	6736.06
446.77	6654.14
446.95	6399.02
447.14	6551.16
447.32	6799.26
447.51	6719.68
447.69	6555.84
447.88	6724.36
448.06	6808.62
448.25	6691.59
448.43	6703.29
448.62	6696.27
448.80	6635.42
448.99	6904.58
449.17	6750.10
449.36	6799.26
449.54	6871.81
449.73	7171.40
449.91	7028.63
450.10	7145.66
450.28	7377.37
450.46	7159.70
450.65	7087.14
450.83	7140.97
451.02	7288.43
451.20	7084.80
451.39	7232.26
451.57	7040.33
451.76	7197.15
451.94	7037.99
452.13	7119.91
452.31	7246.30
452.49	7157.36
452.68	7138.63
452.86	7197.15
453.05	7152.68
453.23	7316.51
453.42	7323.54
453.60	7368.01
453.78	7300.13
453.97	7445.24
454.15	7234.60
454.34	7410.14
454.52	7475.67
454.70	7309.49
454.89	7410.14
455.07	7489.71
455.26	7758.88
455.44	7667.60
455.62	7583.34
455.81	7892.29
455.99	7714.41
456.17	7754.19
456.36	7698.02
456.54	7878.24
456.73	7892.29
456.91	8056.12
457.09	8051.44
457.28	8234.00
457.46	8051.44
457.64	7960.16
457.83	7915.69
458.01	8077.19
458.19	8318.26
458.38	7934.42
458.56	8313.58
458.74	8063.15
458.93	8231.66
459.11	8152.09
459.29	8236.35
459.48	8217.62
459.66	8285.50
459.84	8292.52
460.03	8575.72
460.21	8512.53
460.39	8369.76
460.57	8631.90
460.76	8372.10
460.94	8608.49
461.12	8606.15
461.31	8486.78
461.49	8620.19
461.67	8559.34
461.85	9123.41
462.04	8716.16
462.22	9092.98
462.40	8940.85
462.59	8915.10
462.77	8938.51
462.95	8716.16
463.13	8779.35
463.32	8706.79
463.50	8858.93
463.68	8901.06
463.86	8905.74
464.05	8898.72
464.23	8760.63
464.41	8924.46
464.59	8964.25
464.78	9041.49
464.96	9109.36
465.14	8889.35
465.32	9200.65
465.50	9245.12
465.69	9219.37
465.87	9043.83
466.05	9163.20
466.23	9020.42
466.41	9139.79
466.60	9266.18
466.78	9071.92
466.96	9177.24
467.14	9188.94
467.32	9263.84
467.51	9247.46
467.69	8968.93
467.87	9315.33
468.05	9518.96
468.23	9439.38
468.41	9277.88
468.60	9380.87
468.78	9525.98
468.96	9465.13
469.14	9675.77
469.32	9743.65
469.50	9418.32
469.69	9614.92
469.87	9921.53
470.05	9708.54
470.23	9727.27
470.41	9788.12
470.59	9867.70
470.77	9804.50
470.95	10010.47
471.14	10045.58
471.32	9841.95
471.50	10377.94
471.68	10303.04
471.86	10359.21
472.04	10340.49
472.22	10469.22
472.40	9853.66
472.58	10181.33
472.77	10401.34
472.95	10459.85
473.13	10771.15
473.31	10480.92
473.49	10506.66
473.67	10572.20
473.85	10658.80
474.03	10949.03
474.21	10815.62
474.39	11232.23
474.57	10766.46
474.75	11070.73
474.93	11164.36
475.12	10874.13
475.30	11234.57
475.48	11122.23
475.66	11276.70
475.84	11040.31
476.02	11438.20
476.20	11138.61
476.38	11470.97
476.56	11992.90
476.74	11630.12
476.92	11756.51
477.10	11779.92
477.28	11981.20
477.46	12098.23
477.64	12163.76
477.82	12217.60
478.00	12512.50
478.18	12404.84
478.36	12528.89
478.54	12732.51
478.72	12475.06
478.90	12915.08
479.08	13209.98
479.26	12989.97
479.44	13055.51
479.62	13249.77
479.80	13207.64
479.98	13289.56
480.16	13589.15
480.34	13350.42
480.52	13490.85
480.70	13547.02
480.88	13591.49
481.06	13851.29
481.24	13626.60
481.41	14092.37
481.59	14333.44
481.77	14279.61
481.95	14551.11
482.13	14321.74
482.31	14464.51
482.49	14834.32
482.67	14904.53
482.85	14995.81
483.03	15000.49
483.21	14941.98
483.39	15288.38
483.57	15311.78
483.74	15454.56
483.92	15637.12
484.10	15459.24
484.28	15807.98
484.46	15875.85
484.64	16180.12
484.82	15967.13
485.00	16142.67
485.18	16414.18
485.35	16400.13
485.53	16051.39
485.71	15948.41
485.89	16601.42
486.07	16280.77
486.25	16355.66
486.43	16676.32
486.61	16910.37
486.78	17270.81
486.96	17282.52
487.14	17511.89
487.32	17427.63
487.50	17788.07
487.68	17980.00
487.85	18422.36
488.03	18544.06
488.21	18403.63
488.39	18338.10
488.57	18298.31
488.75	18539.38
488.92	18766.42
489.10	19391.34
489.28	19346.87
489.46	19398.36
489.64	19470.92
489.81	20051.37
489.99	20322.87
490.17	20079.46
490.35	20072.43
490.53	20009.24
490.70	20210.53
490.88	20486.71
491.06	20542.88
491.24	20861.19
491.41	20608.42
491.59	20453.94
491.77	20833.11
491.95	20957.16
492.13	21315.26
492.30	21539.95
492.48	21745.92
492.66	21795.07
492.84	21593.78
493.01	21940.18
493.19	21942.52
493.37	22223.39
493.54	21975.29
493.72	22352.12
493.90	22560.42
494.08	22705.54
494.25	22815.54
494.43	23065.98
494.61	23054.28
494.79	23346.84
494.96	23339.82
495.14	23412.38
495.32	23606.64
495.49	23438.12
495.67	23410.04
495.85	23943.68
496.02	23981.13
496.20	24219.86
496.38	24453.92
496.55	24095.82
496.73	24774.57
496.91	24847.13
497.09	25055.43
497.26	24964.15
497.44	24781.59
497.62	24898.62
497.79	25247.36
497.97	25067.14
498.14	25322.26
498.32	25270.76
498.50	25399.49
498.67	25551.63
498.85	25841.85
499.03	25743.55
499.20	26092.29
499.38	25944.84
499.56	26377.84
499.73	26183.57
499.91	26448.05
500.08	26576.78
500.26	26136.76
500.44	26345.07
500.61	26745.30
500.79	26560.40
500.97	26696.15
501.14	26852.97
501.32	26876.37
501.49	26904.46
501.67	26745.30
501.84	27283.62
502.02	27456.82
502.20	27300.01
502.37	27477.89
502.55	27548.11
502.72	27360.86
502.90	27971.74
503.07	27377.25
503.25	27985.79
503.43	27885.14
503.60	27887.48
503.78	27941.32
503.95	27861.74
504.13	28526.45
504.30	28519.43
504.48	28498.36
504.65	28587.30
504.83	28907.96
505.01	29268.40
505.18	28933.70
505.36	29263.72
505.53	29130.31
505.71	29347.98
505.88	29118.60
506.06	29235.63
506.23	29565.65
506.41	29385.43
506.58	29394.79
506.76	29401.81
506.93	29556.28
507.11	29614.80
507.28	29912.05
507.46	29919.07
507.63	29818.42
507.81	30164.82
507.98	30153.12
508.16	30513.56
508.33	30307.60
508.50	30499.52
508.68	30700.81
508.85	30604.84
509.03	30675.06
509.20	31079.97
509.38	31211.04
509.55	31342.11
509.73	31079.97
509.90	30904.43
510.08	30939.54
510.25	31154.87
510.42	31250.83
510.60	31587.87
510.77	31644.04
510.95	31882.78
511.12	31676.81
511.30	32306.41
511.47	31981.08
511.64	32165.98
511.82	32037.25
511.99	31985.76
512.17	32699.62
512.34	32109.81
512.51	32154.28
512.69	32442.17
512.86	32500.68
513.04	33020.28
513.21	32746.44
513.38	32133.21
513.56	32402.38
513.73	32648.13
513.90	32921.98
514.08	32205.77
514.25	32556.85
514.43	33003.89
514.60	33434.55
514.77	33137.30
514.95	33226.24
515.12	32790.91
515.29	33324.55
515.47	33682.65
515.64	34015.01
515.81	33617.11
515.99	33528.17
516.16	33813.72
516.33	33486.04
516.51	33481.36
516.68	32961.76
516.85	33116.24
517.03	33160.71
517.20	34040.75
517.37	33977.56
517.54	34300.55
517.72	34117.99
517.89	33977.56
518.06	33675.63
518.24	34267.78
518.41	33752.87
518.58	34347.36
518.75	34536.94
518.93	34616.52
519.10	34134.37
519.27	34663.33
519.45	34815.47
519.62	35037.82
519.79	35330.39
519.96	35054.20
520.14	35463.80
520.31	34899.73
520.48	35438.05
520.65	35580.82
520.83	35725.94
521.00	35945.95
521.17	35873.39
521.34	35395.92
521.52	36268.94
521.69	35854.67
521.86	35957.65
522.03	36371.92
522.20	35576.14
522.38	36376.61
522.55	36378.95
522.72	36133.19
522.89	36004.46
523.07	36783.86
523.24	36376.61
523.41	36842.37
523.58	36741.73
523.75	36975.78
523.92	37088.13
524.10	36603.64
524.27	36748.75
524.44	37237.92
524.61	36898.55
524.78	37186.43
524.96	36772.16
525.13	37570.28
525.30	37558.58
525.47	37301.12
525.64	37357.29
525.81	37523.47
525.98	37507.08
526.16	37167.71
526.33	37205.16
526.50	37591.34
526.67	37289.42
526.84	37006.21
527.01	37462.61
527.18	37380.70
527.36	38085.20
527.53	37652.20
527.70	38050.09
527.87	38176.48
528.04	37897.95
528.21	37909.66
528.38	38354.36
528.55	38600.12
528.72	38445.64
528.89	38850.55
529.07	38572.03
529.24	38288.82
529.41	38211.59
529.58	38370.74
529.75	38352.02
529.92	38869.28
530.09	38731.18
530.26	38920.77
530.43	38890.34
530.60	38621.18
530.77	39313.98
530.94	39096.31
531.11	39264.83
531.28	39199.29
531.46	39353.77
531.63	39796.13
531.80	39070.56
531.97	39028.43
532.14	39089.29
532.31	38763.95
532.48	39260.15
532.65	39536.33
532.82	39173.55
532.99	39264.83
533.16	39391.22
533.33	39543.35
533.50	39803.15
533.67	39592.50
533.84	39358.45
534.01	39952.94
534.18	39976.35
534.35	40313.39
534.52	39658.04
534.69	40208.06
534.86	40423.39
535.03	39768.04
535.20	40371.90
535.37	40699.58
535.54	41031.93
535.71	40704.26
535.88	40814.26
536.05	40278.28
536.22	40367.22
536.38	40584.89
536.55	40804.90
536.72	40514.67
536.89	40336.79
537.06	40664.47
537.23	40891.50
537.40	40580.21
537.57	40598.93
537.74	40807.24
537.91	41415.78
538.08	41209.81
538.25	40428.07
538.42	40697.24
538.59	41177.04
538.75	40224.45
538.92	41045.97
539.09	41619.41
539.26	41146.62
539.43	41282.37
539.60	41336.20
539.77	41223.86
539.94	40919.59
540.11	41399.40
540.28	41116.19
540.44	41481.31
540.61	41289.39
540.78	41277.69
540.95	41486.00
541.12	41280.03
541.29	41268.33
541.46	41212.15
541.62	41516.42
541.79	41759.84
541.96	41523.44
542.13	41883.89
542.30	41965.81
542.47	41708.35
542.63	41797.29
542.80	41954.10
542.97	42220.92
543.14	42459.66
543.31	42199.86
543.48	41724.73
543.64	42682.01
543.81	42443.27
543.98	42241.99
544.15	42410.51
544.32	42572.00
544.48	43138.41
544.65	42632.86
544.82	42595.41
544.99	42183.48
545.16	42202.20
545.32	42714.78
545.49	42997.98
545.66	43012.02
545.83	42976.92
546.00	43051.81
546.16	42513.49
546.33	42279.44
546.50	42742.86
546.67	43358.42
546.83	42857.55
547.00	42944.15
547.17	43037.77
547.34	42890.32
547.50	42939.47
547.67	43428.64
547.84	42972.24
548.00	43351.40
548.17	43564.39
548.34	43526.94
548.51	43945.90
548.67	43707.16
548.84	43131.39
549.01	43416.94
549.18	43562.05
549.34	43445.02
549.51	43770.36
549.68	44098.03
549.84	43615.88
550.01	43775.04
550.18	43482.47
550.34	43739.93
550.51	43597.16
550.68	43313.95
550.84	43566.73
551.01	43948.24
551.18	43643.97
551.34	43807.81
551.51	43894.41
551.68	43793.76
551.84	43761.00
552.01	43756.32
552.18	43700.14
552.34	43782.06
552.51	43777.38
552.68	43931.86
552.84	44025.48
553.01	44074.63
553.18	44123.78
553.34	44289.96
553.51	44425.71
553.67	43950.58
553.84	44357.83
554.01	44582.52
554.17	44542.74
554.34	44505.29
554.51	44374.22
554.67	44484.22
554.84	44500.61
555.00	44128.46
555.17	44360.17
555.33	44821.26
555.50	44516.99
555.67	44275.91
555.83	44467.84
556.00	44807.22
556.16	44533.37
556.33	44409.32
556.50	44865.73
556.66	44432.73
556.83	44406.98
556.99	44509.97
557.16	44514.65
557.32	44591.89
557.49	44762.75
557.65	44715.93
557.82	44729.98
557.98	44577.84
558.15	45118.51
558.32	44655.08
558.48	44704.23
558.65	44603.59
558.81	44257.19
558.98	44556.78
559.14	44547.42
559.31	44601.25
559.47	44865.73
559.64	44961.69
559.80	44774.45
559.97	45031.91
560.13	44463.16
560.30	44589.55
560.46	44985.10
560.63	44790.83
560.79	45308.09
560.96	45467.25
561.12	44737.00
561.29	44802.53
561.45	44942.97
561.61	44935.95
561.78	44903.18
561.94	44947.65
562.11	44423.37
562.27	45038.93
562.44	45474.27
562.60	45476.61
562.77	45385.33
562.93	45020.20
563.10	45387.67
563.26	45130.21
563.42	44945.31
563.59	44875.09
563.75	45174.68
563.92	45464.91
564.08	45530.44
564.24	45404.05
564.41	45251.92
564.57	45322.13
564.74	45593.64
564.90	45216.81
565.07	45392.35
565.23	45340.86
565.39	44893.82
565.56	45827.69
565.72	45134.89
565.88	45244.90
566.05	45516.40
566.21	45481.29
566.38	45296.39
566.54	45797.26
566.70	45207.45
566.87	45921.31
567.03	45661.51
567.19	45865.14
567.36	45720.02
567.52	45109.14
567.68	45673.21
567.85	45008.50
568.01	45876.84
568.17	45525.76
568.34	45329.16
568.50	45371.28
568.66	45488.31
568.83	45109.14
568.99	45399.37
569.15	45453.20
569.32	45308.09
569.48	45069.36
569.64	45563.21
569.81	45523.42
569.97	45701.30
570.13	45736.41
570.30	45544.48
570.46	45251.92
570.62	45027.23
570.78	45198.09
570.95	45373.63
571.11	45474.27
571.27	45467.25
571.43	45366.60
571.60	45888.54
571.76	45394.69
571.92	45970.46
572.09	46057.06
572.25	45771.52
572.41	45628.74
572.57	45801.94
572.74	46066.42
572.90	45439.16
573.06	45879.18
573.22	45862.80
573.38	45516.40
573.55	45443.84
573.71	45951.74
573.87	45305.75
574.03	45624.06
574.20	45638.11
574.36	45382.99
574.52	45549.17
574.68	45474.27
574.84	46167.07
575.01	45764.49
575.17	45223.83
575.33	45439.16
575.49	45722.37
575.65	46162.39
575.82	46087.49
575.98	45652.15
576.14	45958.76
576.30	45736.41
576.46	45722.37
576.62	45553.85
576.79	45668.53
576.95	45600.66
577.11	45820.67
577.27	45961.10
577.43	45645.13
577.59	45668.53
577.75	45670.87
577.92	45413.41
578.08	45141.91
578.24	45467.25
578.40	45593.64
578.56	45666.19
578.72	45963.44
578.88	46284.09
579.04	45839.39
579.21	45666.19
579.37	45544.48
579.53	45605.34
579.69	45521.08
579.85	45724.71
580.01	45928.33
580.17	45429.80
580.33	45825.35
580.49	45965.78
580.65	45937.69
580.82	45675.55
580.98	45668.53
581.14	45324.47
581.30	45909.61
581.46	45811.31
581.62	45874.50
581.78	45769.18
581.94	46398.78
582.10	46354.31
582.26	46075.79
582.42	45413.41
582.58	46241.96
582.74	45792.58
582.90	46131.96
583.06	46295.80
583.22	46146.00
583.38	45858.12
583.54	45523.42
583.70	45977.48
583.86	46134.30
584.02	45698.96
584.18	45858.12
584.34	45603.00
584.50	46043.02
584.66	45518.74
584.82	45612.36
584.98	45893.22
585.14	45731.73
585.30	45799.60
585.46	45757.47
585.62	45237.87
585.78	45624.06
585.94	45642.79
586.10	45858.12
586.26	45408.73
586.42	46103.87
586.58	45989.19
586.74	45860.46
586.90	45315.11
587.06	45773.86
587.22	45937.69
587.38	46092.17
587.54	45937.69
587.70	46197.49
587.86	45572.57
588.02	45734.07
588.18	45839.39
588.34	45797.26
588.49	45280.00
588.65	45287.03
588.81	45467.25
588.97	45233.19
589.13	45392.35
589.29	45191.06
589.45	45593.64
589.61	45914.29
589.77	45872.16
589.93	45881.52
590.08	45970.46
