SpectraSuite Data File
++++++++++++++++++++++++++++++++++++
Date: Fri Oct 25 11:25:33 EDT 2013
User: price-jones
Dark Spectrum Present: No
Reference Spectrum Present: No
Number of Sampled Component Spectra: 1
Spectrometers: USB2+H05261
Integration Time (usec): 100000 (USB2+H05261)
Spectra Averaged: 1 (USB2+H05261)
Boxcar Smoothing: 0 (USB2+H05261)
Correct for Electrical Dark: No (USB2+H05261)
Strobe/Lamp Enabled: No (USB2+H05261)
Correct for Detector Non-linearity: No (USB2+H05261)
Correct for Stray Light: No (USB2+H05261)
Number of Pixels in Processed Spectrum: 2048
>>>>>Begin Processed Spectral Data<<<<<
365.73	257.46
365.92	257.46
366.12	257.46
366.32	131.07
366.52	168.52
366.72	212.99
366.91	166.18
367.11	98.30
367.31	53.83
367.51	161.50
367.70	44.47
367.90	138.09
368.10	173.20
368.30	84.26
368.49	175.54
368.69	161.50
368.89	154.48
369.09	152.13
369.28	290.23
369.48	117.03
369.68	163.84
369.87	287.89
370.07	142.77
370.27	194.26
370.47	325.33
370.66	641.31
370.86	641.31
371.06	634.29
371.25	669.39
371.45	660.03
371.65	753.65
371.84	608.54
372.04	613.22
372.24	716.20
372.44	751.31
372.63	720.88
372.83	685.78
373.03	793.44
373.22	763.01
373.42	748.97
373.62	739.61
373.81	816.85
374.01	875.36
374.21	833.23
374.40	807.48
374.60	851.96
374.79	739.61
374.99	774.72
375.19	791.10
375.38	807.48
375.58	826.21
375.78	894.08
375.97	861.32
376.17	873.02
376.37	851.96
376.56	912.81
376.76	882.38
376.95	819.19
377.15	915.15
377.35	844.93
377.54	959.62
377.74	924.51
377.93	847.27
378.13	926.85
378.33	940.90
378.52	877.70
378.72	968.98
378.91	922.17
379.11	978.34
379.31	950.26
379.50	882.38
379.70	887.06
379.89	919.83
380.09	912.81
380.28	917.49
380.48	985.37
380.68	961.96
380.87	1034.52
381.07	1039.20
381.26	1001.75
381.46	1022.81
381.65	924.51
381.85	1062.60
382.04	1039.20
382.24	1118.78
382.43	1055.58
382.63	1039.20
382.83	1074.31
383.02	1018.13
383.22	1067.28
383.41	1034.52
383.61	1132.82
383.80	1123.46
384.00	1032.18
384.19	1174.95
384.39	1186.65
384.58	1090.69
384.78	1151.54
384.97	1125.80
385.17	1158.57
385.36	1179.63
385.56	1142.18
385.75	1174.95
385.95	1158.57
386.14	1172.61
386.34	1174.95
386.53	1132.82
386.72	1165.59
386.92	1266.23
387.11	1238.14
387.31	1221.76
387.50	1254.53
387.70	1275.59
387.89	1291.98
388.09	1287.29
388.28	1256.87
388.48	1270.91
388.67	1420.71
388.86	1303.68
389.06	1270.91
389.25	1289.64
389.45	1418.36
389.64	1411.34
389.84	1385.60
390.03	1308.36
390.22	1359.85
390.42	1331.76
390.61	1334.11
390.81	1397.30
391.00	1327.08
391.19	1413.68
391.39	1455.81
391.58	1387.94
391.78	1430.07
391.97	1371.55
392.16	1460.49
392.36	1472.20
392.55	1514.33
392.75	1458.15
392.94	1458.15
393.13	1500.28
393.33	1453.47
393.52	1519.01
393.71	1586.88
393.91	1483.90
394.10	1537.73
394.29	1612.63
394.49	1621.99
394.68	1671.14
394.88	1621.99
395.07	1643.06
395.26	1645.40
395.46	1701.57
395.65	1760.08
395.84	1708.59
396.04	1722.63
396.23	1746.04
396.42	1696.89
396.62	1781.15
396.81	1769.44
397.00	1832.64
397.19	1846.68
397.39	1832.64
397.58	1813.92
397.77	1727.32
397.97	1774.13
398.16	1830.30
398.35	1949.67
398.55	1839.66
398.74	1893.49
398.93	1940.30
399.12	1905.20
399.32	1921.58
399.51	1816.26
399.70	2003.50
399.90	1942.64
400.09	2062.01
400.28	1959.03
400.47	1923.92
400.67	2078.40
400.86	2064.35
401.05	2033.93
401.24	2076.06
401.44	2214.15
401.63	2160.31
401.82	2127.55
402.01	2146.27
402.21	2172.02
402.40	2118.18
402.59	2176.70
402.78	2230.53
402.97	2303.09
403.17	2174.36
403.36	2225.85
403.55	2260.96
403.74	2321.81
403.93	2284.36
404.13	2394.37
404.32	2331.17
404.51	2370.96
404.70	2310.11
404.89	2415.43
405.09	2546.50
405.28	2422.45
405.47	2312.45
405.66	2492.67
405.85	2495.01
406.05	2431.82
406.24	2586.29
406.43	2600.34
406.62	2640.12
406.81	2438.84
407.00	2562.89
407.20	2773.53
407.39	2691.62
407.58	2679.91
407.77	2801.62
407.96	2803.96
408.15	2836.73
408.34	2724.38
408.54	2836.73
408.73	2689.28
408.92	2813.32
409.11	2890.56
409.30	2881.20
409.49	2885.88
409.68	2874.18
409.87	3035.67
410.07	3021.63
410.26	2911.63
410.45	2881.20
410.64	2988.86
410.83	3108.23
411.02	3119.93
411.21	3164.40
411.40	3166.74
411.59	3192.49
411.78	3304.84
411.98	3302.50
412.17	3309.52
412.36	3384.41
412.55	3265.05
412.74	3332.92
412.93	3421.86
413.12	3393.78
413.31	3527.19
413.50	3478.04
413.69	3421.86
413.88	3559.95
414.07	3599.74
414.26	3515.48
414.45	3658.26
414.64	3655.92
414.83	3751.88
415.02	3779.97
415.22	3791.67
415.41	3831.46
415.60	3873.59
415.79	3829.12
415.98	3889.97
416.17	3946.14
416.36	3925.08
416.55	3946.14
416.74	4009.34
416.93	4030.40
417.12	4238.71
417.31	4173.18
417.50	4198.92
417.69	4168.49
417.88	4229.35
418.07	4241.05
418.26	4133.39
418.45	4304.25
418.64	4449.36
418.83	4390.84
419.02	4435.32
419.21	4521.92
419.39	4587.45
419.58	4500.85
419.77	4538.30
419.96	4559.36
420.15	4592.13
420.34	4519.57
420.53	4559.36
420.72	4624.90
420.91	4699.80
421.10	4727.88
421.29	4603.83
421.48	4793.42
421.67	4870.65
421.86	4760.65
422.05	4861.29
422.24	4851.93
422.43	4844.91
422.61	4826.18
422.80	4793.42
422.99	4990.02
423.18	4814.48
423.37	4947.89
423.56	4711.50
423.75	4847.25
423.94	4919.81
424.13	4676.39
424.32	4770.01
424.50	5015.77
424.69	5067.26
424.88	5008.75
425.07	4823.84
425.26	4861.29
425.45	4910.44
425.64	5022.79
425.83	4844.91
426.01	4975.98
426.20	5142.16
426.39	4910.44
426.58	4968.96
426.77	5018.11
426.96	4978.32
427.15	5193.65
427.33	5170.24
427.52	5132.79
427.71	5282.59
427.90	5125.77
428.09	5373.87
428.28	5392.59
428.46	5275.57
428.65	5345.78
428.84	5549.41
429.03	5420.68
429.22	5282.59
429.40	5446.43
429.59	5479.19
429.78	5474.51
429.97	5282.59
430.16	5572.82
430.34	5537.71
430.53	5598.56
430.72	5551.75
430.91	5600.90
431.10	5582.18
431.28	5652.39
431.47	5636.01
431.66	5806.87
431.85	5694.52
432.03	5820.91
432.22	5989.43
432.41	5856.02
432.60	5987.09
432.79	5898.15
432.97	5907.51
433.16	6033.90
433.35	6108.80
433.54	6092.41
433.72	6059.65
433.91	6022.20
434.10	6104.12
434.28	6038.58
434.47	6228.17
434.66	6162.63
434.85	6193.06
435.03	6188.38
435.22	6195.40
435.41	6459.88
435.59	6471.58
435.78	6487.96
435.97	6361.58
436.16	6399.02
436.34	6342.85
436.53	6392.00
436.72	6686.91
436.90	6487.96
437.09	6569.88
437.28	6392.00
437.46	6588.61
437.65	6553.50
437.84	6656.48
438.02	6850.75
438.21	6806.28
438.40	6700.95
438.58	6857.77
438.77	6942.03
438.96	7019.27
439.14	7101.19
439.33	7360.98
439.52	6991.18
439.70	7157.36
439.89	7386.73
440.08	7311.83
440.26	7353.96
440.45	7412.48
440.63	7339.92
440.82	7515.46
441.01	7524.82
441.19	7674.62
441.38	7660.57
441.57	7662.91
441.75	7836.11
441.94	7761.22
442.12	7803.35
442.31	7810.37
442.50	7997.61
442.68	7943.78
442.87	7922.71
443.05	8152.09
443.24	8201.24
443.43	8341.67
443.61	8238.69
443.80	8353.37
443.98	7957.82
444.17	7882.92
444.35	8259.75
444.54	8430.61
444.73	8280.82
444.91	8168.47
445.10	8168.47
445.28	8411.89
445.47	8196.56
445.65	8189.53
445.84	8393.16
446.02	8285.50
446.21	8299.54
446.39	8393.16
446.58	8552.32
446.77	8407.20
446.95	8231.66
447.14	8430.61
447.32	8601.47
447.51	8381.46
447.69	8325.29
447.88	8524.23
448.06	8346.35
448.25	8454.02
448.43	8454.02
448.62	8589.77
448.80	8512.53
448.99	8734.88
449.17	8706.79
449.36	8493.80
449.54	8699.77
449.73	8896.38
449.91	9013.40
450.10	8868.29
450.28	9018.08
450.46	8915.10
450.65	8999.36
450.83	9095.32
451.02	8990.00
451.20	9114.05
451.39	9142.13
451.57	9184.26
451.76	9188.94
451.94	9008.72
452.13	9263.84
452.31	9046.17
452.49	8973.61
452.68	9327.03
452.86	9329.38
453.05	9437.04
453.23	9254.48
453.42	9434.70
453.60	9184.26
453.78	9563.43
453.97	9383.21
454.15	9387.89
454.34	9657.05
454.52	9610.24
454.70	9423.00
454.89	9678.12
455.07	9764.72
455.26	10015.15
455.44	9994.09
455.62	9891.10
455.81	9839.61
455.99	9947.28
456.17	9977.70
456.36	9973.02
456.54	9977.70
456.73	10258.57
456.91	10244.52
457.09	10359.21
457.28	10623.69
457.46	10146.22
457.64	10324.10
457.83	10480.92
458.01	10312.40
458.19	10656.46
458.38	10349.85
458.56	10558.16
458.74	10848.38
458.93	10464.54
459.11	10616.67
459.29	10672.84
459.48	10693.91
459.66	10544.11
459.84	10567.52
460.03	10986.47
460.21	11016.90
460.39	11145.63
460.57	10960.73
460.76	11035.63
460.94	11068.39
461.12	11290.74
461.31	11162.01
461.49	11049.67
461.67	11377.34
461.85	11372.66
462.04	11246.27
462.22	11763.53
462.40	11571.61
462.59	11396.07
462.77	11473.31
462.95	11522.46
463.13	11620.76
463.32	11719.06
463.50	11824.39
463.68	11730.76
463.86	11719.06
464.05	11442.88
464.23	11555.22
464.41	11761.19
464.59	11492.03
464.78	11997.59
464.96	11702.68
465.14	11686.29
465.32	11716.72
465.50	11962.48
465.69	12107.59
465.87	11974.18
466.05	12063.12
466.23	12395.48
466.41	12173.13
466.60	12397.82
466.78	12212.92
466.96	12233.98
467.14	12388.46
467.32	12430.59
467.51	12706.77
467.69	12065.46
467.87	12306.54
468.05	12556.97
468.23	12147.38
468.41	12325.26
468.60	12608.47
468.78	12564.00
468.96	12449.31
469.14	12461.01
469.32	12901.03
469.50	12365.05
469.69	12896.35
469.87	12961.89
470.05	12996.99
470.23	13298.92
470.41	12894.01
470.59	13322.33
470.77	13193.60
470.95	13348.08
471.14	13645.32
471.32	13027.42
471.50	13846.61
471.68	13647.66
471.86	13493.19
472.04	13563.40
472.22	14017.47
472.40	13465.10
472.58	13879.38
472.77	14040.87
472.95	14017.47
473.13	14609.62
473.31	14139.18
473.49	14111.09
473.67	13987.04
473.85	14134.50
474.03	14469.19
474.21	14576.86
474.39	14569.83
474.57	14714.95
474.75	14656.43
474.93	14918.57
475.12	14665.80
475.30	14988.79
475.48	14796.87
475.66	15248.59
475.84	14946.66
476.02	15396.04
476.20	15246.25
476.38	15552.86
476.56	15679.25
476.74	15522.43
476.92	15611.37
477.10	15962.45
477.28	16016.29
477.46	16161.40
477.64	16294.81
477.82	16460.99
478.00	16783.98
478.18	16606.10
478.36	16886.97
478.54	16936.12
478.72	17266.13
478.90	17348.05
479.08	17570.40
479.26	17717.86
479.44	17713.17
479.62	17628.92
479.80	18122.77
479.98	17951.91
480.16	18391.93
480.34	18111.07
480.52	18661.09
480.70	18541.72
480.88	18263.20
481.06	18888.12
481.24	18750.03
481.41	18813.23
481.59	19063.66
481.77	19494.32
481.95	19321.12
482.13	19744.76
482.31	19651.14
482.49	19915.62
482.67	20042.01
482.85	20201.16
483.03	20734.81
483.21	21055.46
483.39	20961.84
483.57	20683.31
483.74	21476.76
483.92	21455.69
484.10	20957.16
484.28	21331.64
484.46	21741.24
484.64	22223.39
484.82	21951.88
485.00	22249.13
485.18	22511.27
485.35	22768.73
485.53	22874.06
485.71	23180.67
485.89	23400.68
486.07	23290.67
486.25	23309.40
486.43	23571.54
486.61	23906.23
486.78	23992.83
486.96	24458.60
487.14	24854.15
487.32	24435.19
487.50	24383.70
487.68	25053.09
487.85	25200.55
488.03	25418.22
488.21	25701.42
488.39	25577.37
488.57	25685.04
488.75	25783.34
488.92	26295.92
489.10	26199.96
489.28	26441.03
489.46	27194.68
489.64	26906.80
489.81	27370.22
489.99	27529.38
490.17	27861.74
490.35	27805.56
490.53	27917.91
490.70	28390.70
490.88	28334.53
491.06	28643.48
491.24	28685.61
491.41	28882.21
491.59	29095.20
491.77	29151.37
491.95	29642.88
492.13	29495.43
492.30	29902.68
492.48	29851.19
492.66	30103.97
492.84	29949.50
493.01	30370.79
493.19	30764.00
493.37	31297.64
493.54	31150.19
493.72	31489.57
493.90	31356.16
494.08	31442.76
494.25	31337.43
494.43	31737.66
494.61	32046.62
494.79	32435.14
494.96	32203.43
495.14	32177.68
495.32	32781.54
495.49	32854.10
495.67	32996.87
495.85	33373.70
496.02	33703.71
496.20	33699.03
496.38	33696.69
496.55	33944.79
496.73	34464.39
496.91	34396.51
497.09	34705.46
497.26	34763.98
497.44	34684.40
497.62	35007.39
497.79	35679.13
497.97	35131.44
498.14	35629.98
498.32	36119.15
498.50	35938.93
498.67	36304.05
498.85	36247.88
499.03	36697.26
499.20	36517.04
499.38	36472.57
499.56	36563.85
499.73	37034.30
499.91	36732.37
500.08	37518.79
500.26	36954.72
500.44	37523.47
500.61	37596.03
500.79	37752.84
500.97	37998.60
501.14	38630.54
501.32	38057.11
501.49	38478.41
501.67	38239.67
501.84	38408.19
502.02	38391.81
502.20	38904.38
502.37	39229.72
502.55	38939.49
502.72	39400.58
502.90	39402.92
503.07	39697.83
503.25	39789.11
503.43	39297.59
503.60	39737.62
503.78	40505.31
503.95	40048.91
504.13	40542.76
504.30	40364.88
504.48	40128.48
504.65	40449.14
504.83	40790.86
505.01	41137.26
505.18	40807.24
505.36	41544.51
505.53	41287.05
505.71	41549.19
505.88	41439.18
506.06	41404.08
506.23	41851.12
506.41	41677.92
506.58	41944.74
506.76	42124.96
506.93	42213.90
507.11	42043.04
507.28	42370.72
507.46	42635.20
507.63	42749.88
507.81	43143.09
507.98	42899.68
508.16	42934.79
508.33	43276.51
508.50	43620.56
508.68	43288.21
508.85	43604.18
509.03	43683.76
509.20	43969.30
509.38	44011.43
509.55	44154.21
509.73	44079.31
509.90	44479.54
510.08	44296.98
510.25	44194.00
510.42	44360.17
510.60	44617.63
510.77	45134.89
510.95	45275.32
511.12	45223.83
511.30	44788.49
511.47	45600.66
511.64	45207.45
511.82	45687.26
511.99	45549.17
512.17	45329.16
512.34	45462.57
512.51	46284.09
512.69	46073.45
512.86	46110.89
513.04	46658.58
513.21	46237.28
513.38	46508.79
513.56	46370.69
513.73	46768.58
513.90	46880.93
514.08	46663.26
514.25	47278.82
514.43	47426.28
514.60	47140.73
514.77	47089.24
514.95	47573.73
515.12	47599.47
515.29	47700.12
515.47	47517.56
515.64	47622.88
515.81	47529.26
515.99	48325.04
516.16	47934.17
516.33	48301.64
516.51	48149.50
516.68	48086.31
516.85	48451.43
517.03	48774.42
517.20	48708.89
517.37	48505.26
517.54	48458.45
517.72	48713.57
517.89	48561.44
518.06	48980.39
518.24	48603.56
518.41	49127.84
518.58	49120.82
518.75	49284.66
518.93	49294.02
519.10	49200.40
519.27	49673.19
519.45	49399.35
519.62	49680.21
519.79	50141.30
519.96	49593.61
520.14	49935.33
520.31	49762.13
520.48	50141.30
520.65	50272.37
520.83	50127.25
521.00	50267.69
521.17	50508.76
521.34	50305.13
521.52	50536.85
521.69	50520.46
521.86	50637.49
522.03	51136.02
522.20	50969.85
522.38	51587.75
522.55	51105.60
522.72	51339.65
522.89	51201.56
523.07	51632.22
523.24	51297.52
523.41	51552.64
523.58	51246.03
523.75	51641.58
523.92	51363.06
524.10	51622.86
524.27	51664.99
524.44	52097.98
524.61	52109.69
524.78	52044.15
524.96	51934.15
525.13	52088.62
525.30	52196.29
525.47	52481.83
525.64	52308.63
525.81	52507.58
525.98	52577.79
526.16	52547.37
526.33	52327.36
526.50	52734.61
526.67	52643.33
526.84	52846.96
527.01	52839.93
527.18	52760.36
527.36	52584.82
527.53	52762.70
527.70	53286.98
527.87	52961.64
528.04	52685.46
528.21	53279.96
528.38	53214.42
528.55	53411.02
528.72	53111.44
528.89	53361.87
529.07	53366.55
529.24	53305.70
529.41	53640.40
529.58	53474.22
529.75	53574.86
529.92	53294.00
530.09	53506.99
530.26	53801.89
530.43	53827.64
530.60	53556.14
530.77	53752.74
530.94	54122.55
531.11	53820.62
531.28	53993.82
531.46	54052.33
531.63	54185.74
531.80	53944.67
531.97	53897.86
532.14	54284.04
532.31	54415.11
532.48	54078.08
532.65	54417.46
532.82	54286.39
532.99	54396.39
533.16	54574.27
533.33	54506.40
533.50	54848.11
533.67	54885.56
533.84	54349.58
534.01	54630.44
534.18	54731.09
534.35	55213.24
534.52	54981.52
534.69	55107.91
534.86	55178.13
535.03	54855.14
535.20	55042.38
535.37	55164.09
535.54	55231.96
535.71	55042.38
535.88	55351.33
536.05	55086.85
536.22	55683.69
536.38	55662.62
536.55	55356.01
536.72	55241.32
536.89	55341.97
537.06	55257.71
537.23	55789.01
537.40	55304.52
537.57	55697.73
537.74	55547.93
537.91	55821.78
538.08	55688.37
538.25	55473.04
538.42	55917.74
538.59	55884.97
538.75	55576.02
538.92	55943.48
539.09	55959.87
539.26	55903.70
539.43	56114.34
539.60	56020.72
539.77	56144.77
539.94	56074.55
540.11	56317.97
540.28	56226.69
540.44	56364.78
540.61	56236.05
540.78	56086.26
540.95	56224.35
541.12	56287.54
541.29	56264.14
541.46	56519.26
541.62	56282.86
541.79	56629.26
541.96	56259.46
542.13	56243.07
542.30	56619.90
542.47	56690.12
542.63	56750.97
542.80	56821.19
542.97	56982.68
543.14	56978.00
543.31	56973.32
543.48	57125.46
543.64	57291.63
543.81	57106.73
543.98	57048.22
544.15	57195.67
544.32	57413.34
544.48	57303.34
544.65	57162.90
544.82	57303.34
544.99	56900.76
545.16	57495.26
545.32	57090.35
545.49	57425.04
545.66	57631.01
545.83	57598.24
546.00	57593.56
546.16	57778.46
546.33	57319.72
546.50	57443.77
546.67	57677.82
546.83	57474.20
547.00	57483.56
547.17	57785.49
547.34	57703.57
547.50	57652.08
547.67	58054.65
547.84	57869.75
548.00	57881.45
548.17	57961.03
548.34	57944.64
548.51	58028.90
548.67	58033.58
548.84	58049.97
549.01	58092.10
549.18	58012.52
549.34	58251.25
549.51	58080.39
549.68	58073.37
549.84	58183.38
550.01	58312.11
550.18	58003.16
550.34	58190.40
550.51	58302.74
550.68	58232.53
550.84	58143.59
551.01	58419.77
551.18	58169.33
551.34	58419.77
551.51	58408.07
551.68	58426.79
551.84	58532.12
552.01	58204.44
552.18	58489.99
552.34	58403.39
552.51	58539.14
552.68	58426.79
552.84	58651.48
553.01	58988.52
553.18	58642.12
553.34	58920.65
553.51	58482.97
553.67	58700.64
553.84	58616.38
554.01	58941.71
554.17	58887.88
554.34	58922.99
554.51	58981.50
554.67	58852.77
554.84	58820.00
555.00	58810.64
555.17	58688.93
555.33	58850.43
555.50	58974.48
555.67	58925.33
555.83	58983.84
556.00	59051.72
556.16	59470.67
556.33	59187.47
556.50	59096.19
556.66	59217.89
556.83	59002.56
556.99	59168.74
557.16	59194.49
557.32	59346.62
557.49	59597.06
557.65	59147.68
557.82	59054.06
557.98	59119.59
558.15	59348.96
558.32	59318.54
558.48	59182.79
558.65	59210.87
558.81	59313.86
558.98	59337.26
559.14	59419.18
559.31	59561.95
559.47	59732.81
559.64	59533.87
559.80	59566.63
559.97	59578.34
560.13	59505.78
560.30	59636.85
560.46	59924.74
560.63	59561.95
560.79	59540.89
560.96	59632.17
561.12	59767.92
561.29	59725.79
561.45	59751.54
561.61	59737.49
561.78	59648.55
561.94	59489.40
562.11	59800.69
562.27	59681.32
562.44	59964.52
562.60	59817.07
562.77	59779.62
562.93	59650.89
563.10	59906.01
563.26	59828.77
563.42	60051.12
563.59	59643.87
563.75	59735.15
563.92	59964.52
564.08	59810.05
564.24	60168.15
564.41	60097.94
564.57	60004.31
564.74	59908.35
564.90	60102.62
565.07	59994.95
565.23	59999.63
565.39	59931.76
565.56	60055.81
565.72	59908.35
565.88	60107.30
566.05	60027.72
566.21	59859.20
566.38	60172.83
566.54	60055.81
566.70	60191.56
566.87	60343.69
567.03	59969.21
567.19	60444.33
567.36	60334.33
567.52	60093.25
567.68	60303.90
567.85	60411.57
568.01	60303.90
568.17	60123.68
568.34	60362.42
568.50	60133.04
568.66	60154.11
568.83	60226.66
568.99	60046.44
569.15	60140.07
569.32	60306.24
569.48	60186.88
569.64	60320.29
569.81	60219.64
569.97	60198.58
570.13	60102.62
570.30	60214.96
570.46	60310.92
570.62	60402.21
570.78	60264.11
570.95	60423.27
571.11	60360.08
571.27	60420.93
571.43	60317.95
571.60	60308.58
571.76	60278.16
571.92	60477.10
572.09	60420.93
572.25	60493.49
572.41	60481.78
572.57	60456.04
572.74	60736.90
572.90	60540.30
573.06	60479.44
573.22	60360.08
573.38	60666.69
573.55	60594.13
573.71	60732.22
573.87	60594.13
574.03	60554.34
574.20	60692.43
574.36	60383.48
574.52	60474.76
574.68	60561.36
574.84	60734.56
575.01	60711.16
575.17	60652.64
575.33	60523.91
575.49	60685.41
575.65	60587.11
575.82	60741.58
575.98	60549.66
576.14	60942.87
576.30	60603.49
576.46	60690.09
576.62	60596.47
576.79	60622.22
576.95	60449.02
577.11	60612.85
577.27	60779.03
577.43	60664.35
577.59	60601.15
577.75	60542.64
577.92	60477.10
578.08	60736.90
578.24	60652.64
578.40	60767.33
578.56	60924.14
578.72	60739.24
578.88	60739.24
579.04	60903.08
579.21	60647.96
579.37	60877.33
579.53	60816.48
579.69	60612.85
579.85	60631.58
580.01	60760.31
580.17	60729.88
580.33	60825.84
580.49	60907.76
580.65	60783.71
580.82	60772.01
580.98	60669.03
581.14	60692.43
581.30	60823.50
581.46	60638.60
581.62	61043.51
581.78	60828.18
581.94	60844.57
582.10	60605.83
582.26	60865.63
582.42	60736.90
582.58	60814.14
582.74	60741.58
582.90	60718.18
583.06	60708.82
583.22	60584.77
583.38	60844.57
583.54	60692.43
583.70	60828.18
583.86	60891.38
584.02	60767.33
584.18	60910.10
584.34	60846.91
584.50	60933.51
584.66	60757.97
584.82	60694.77
584.98	60982.66
585.14	60786.05
585.30	60818.82
585.46	61036.49
585.62	60956.91
585.78	61003.72
585.94	60779.03
586.10	60889.04
586.26	60884.36
586.42	60961.59
586.58	60977.98
586.74	60947.55
586.90	60992.02
587.06	60900.74
587.22	60853.93
587.38	60718.18
587.54	61066.92
587.70	60921.80
587.86	61111.39
588.02	60917.12
588.18	61083.30
588.34	61062.24
588.49	60985.00
