SpectraSuite Data File
++++++++++++++++++++++++++++++++++++
Date: Fri Oct 25 11:34:44 EDT 2013
User: price-jones
Dark Spectrum Present: No
Reference Spectrum Present: No
Number of Sampled Component Spectra: 1
Spectrometers: USB2+H05261
Integration Time (usec): 100000 (USB2+H05261)
Spectra Averaged: 1 (USB2+H05261)
Boxcar Smoothing: 0 (USB2+H05261)
Correct for Electrical Dark: No (USB2+H05261)
Strobe/Lamp Enabled: No (USB2+H05261)
Correct for Detector Non-linearity: No (USB2+H05261)
Correct for Stray Light: No (USB2+H05261)
Number of Pixels in Processed Spectrum: 2048
>>>>>Begin Processed Spectral Data<<<<<
365.73	297.25
365.92	297.25
366.12	297.25
366.32	220.01
366.52	205.97
366.72	217.67
366.91	177.88
367.11	173.20
367.31	243.42
367.51	208.31
367.70	231.71
367.90	259.80
368.10	177.88
368.30	140.43
368.49	128.73
368.69	220.01
368.89	175.54
369.09	201.29
369.28	208.31
369.48	205.97
369.68	203.63
369.87	245.76
370.07	215.33
370.27	229.37
370.47	322.99
370.66	421.30
370.86	407.25
371.06	498.53
371.25	550.03
371.45	524.28
371.65	547.69
371.84	486.83
372.04	550.03
372.24	573.43
372.44	519.60
372.63	601.52
372.83	615.56
373.03	559.39
373.22	645.99
373.42	629.60
373.62	603.86
373.81	636.63
374.01	674.07
374.21	655.35
374.40	730.25
374.60	688.12
374.79	709.18
374.99	641.31
375.19	664.71
375.38	676.41
375.58	678.76
375.78	739.61
375.97	669.39
376.17	648.33
376.37	699.82
376.56	688.12
376.76	596.84
376.95	610.88
377.15	704.50
377.35	657.69
377.54	755.99
377.74	702.16
377.93	660.03
378.13	690.46
378.33	634.29
378.52	608.54
378.72	711.52
378.91	678.76
379.11	718.54
379.31	697.48
379.50	653.01
379.70	739.61
379.89	692.80
380.09	629.60
380.28	704.50
380.48	746.63
380.68	723.23
380.87	681.10
381.07	765.36
381.26	767.70
381.46	770.04
381.65	660.03
381.85	753.65
382.04	655.35
382.24	779.40
382.43	770.04
382.63	767.70
382.83	854.30
383.02	842.59
383.22	788.76
383.41	763.01
383.61	805.14
383.80	793.44
384.00	844.93
384.19	767.70
384.39	819.19
384.58	758.33
384.78	812.17
384.97	786.42
385.17	744.29
385.36	873.02
385.56	877.70
385.75	800.46
385.95	774.72
386.14	830.89
386.34	877.70
386.53	863.66
386.72	826.21
386.92	905.79
387.11	819.19
387.31	875.36
387.50	835.57
387.70	936.21
387.89	917.49
388.09	903.45
388.28	858.98
388.48	887.06
388.67	931.53
388.86	1008.77
389.06	889.40
389.25	952.60
389.45	880.04
389.64	910.47
389.84	936.21
390.03	966.64
390.22	1004.09
390.42	922.17
390.61	938.55
390.81	1008.77
391.00	931.53
391.19	1004.09
391.39	940.90
391.58	992.39
391.78	1001.75
391.97	973.66
392.16	1046.22
392.36	1041.54
392.55	1039.20
392.75	1006.43
392.94	994.73
393.13	1100.05
393.33	973.66
393.52	961.96
393.71	1046.22
393.91	1050.90
394.10	1050.90
394.29	992.39
394.49	1062.60
394.68	1083.67
394.88	1025.15
395.07	1191.33
395.26	1095.37
395.46	1064.94
395.65	1121.12
395.84	1097.71
396.04	1132.82
396.23	1095.37
396.42	1114.10
396.62	1188.99
396.81	1170.27
397.00	1203.04
397.19	1235.80
397.39	1125.80
397.58	1181.97
397.77	1156.22
397.97	1123.46
398.16	1200.69
398.35	1242.82
398.55	1210.06
398.74	1235.80
398.93	1242.82
399.12	1233.46
399.32	1313.04
399.51	1315.38
399.70	1355.17
399.90	1310.70
400.09	1348.15
400.28	1315.38
400.47	1228.78
400.67	1399.64
400.86	1355.17
401.05	1268.57
401.24	1401.98
401.44	1380.92
401.63	1465.18
401.82	1416.02
402.01	1460.49
402.21	1474.54
402.40	1423.05
402.59	1446.45
402.78	1458.15
402.97	1511.99
403.17	1404.32
403.36	1507.30
403.55	1502.62
403.74	1570.50
403.93	1458.15
404.13	1537.73
404.32	1455.81
404.51	1425.39
404.70	1605.61
404.89	1533.05
405.09	1650.08
405.28	1631.35
405.47	1589.22
405.66	1701.57
405.85	1694.55
406.05	1603.27
406.24	1659.44
406.43	1689.87
406.62	1675.82
406.81	1823.28
407.00	1703.91
407.20	1685.19
407.39	1675.82
407.58	1755.40
407.77	1710.93
407.96	1739.02
408.15	1795.19
408.34	1732.00
408.54	1837.32
408.73	1811.57
408.92	1741.36
409.11	1746.04
409.30	1956.69
409.49	1809.23
409.68	1926.26
409.87	1959.03
410.07	1984.77
410.26	1956.69
410.45	1998.82
410.64	1923.92
410.83	1989.46
411.02	1944.99
411.21	2040.95
411.40	2169.68
411.59	2085.42
411.78	2003.50
411.98	2043.29
412.17	2099.46
412.36	2148.61
412.55	2141.59
412.74	2202.44
412.93	2228.19
413.12	2132.23
413.31	2289.04
413.50	2328.83
413.69	2165.00
413.88	2356.92
414.07	2408.41
414.26	2361.60
414.45	2375.64
414.64	2431.82
414.83	2417.77
415.02	2443.52
415.22	2511.39
415.41	2509.05
415.60	2555.86
415.79	2532.46
415.98	2597.99
416.17	2527.78
416.36	2630.76
416.55	2614.38
416.74	2747.79
416.93	2628.42
417.12	2642.46
417.31	2771.19
417.50	2691.62
417.69	2829.71
417.88	2822.69
418.07	2932.69
418.26	2813.32
418.45	2754.81
418.64	2885.88
418.83	2902.26
419.02	2876.52
419.21	3028.65
419.39	2862.48
419.58	2888.22
419.77	2810.98
419.96	2979.50
420.15	3049.72
420.34	2974.82
420.53	3009.93
420.72	3115.25
420.91	3084.83
421.10	3052.06
421.29	3105.89
421.48	3208.87
421.67	3091.85
421.86	3108.23
422.05	3194.83
422.24	3307.18
422.43	3220.58
422.61	3295.47
422.80	3272.07
422.99	3314.20
423.18	3187.81
423.37	3314.20
423.56	3150.36
423.75	3309.52
423.94	3318.88
424.13	3073.12
424.32	3155.04
424.50	3162.06
424.69	3318.88
424.88	3323.56
425.07	3211.22
425.26	3115.25
425.45	3325.90
425.64	3325.90
425.83	3108.23
426.01	3351.65
426.20	3316.54
426.39	3379.73
426.58	3328.24
426.77	3372.71
426.96	3386.76
427.15	3368.03
427.33	3386.76
427.52	3335.26
427.71	3410.16
427.90	3524.85
428.09	3485.06
428.28	3524.85
428.46	3613.79
428.65	3590.38
428.84	3686.34
429.03	3489.74
429.22	3499.10
429.40	3609.11
429.59	3574.00
429.78	3501.44
429.97	3328.24
430.16	3571.66
430.34	3562.30
430.53	3634.85
430.72	3749.54
430.91	3630.17
431.10	3634.85
431.28	3808.05
431.47	3747.20
431.66	3801.03
431.85	3775.28
432.03	3824.44
432.22	3840.82
432.41	3882.95
432.60	3838.48
432.79	3878.27
432.97	3913.38
433.16	3946.14
433.35	3794.01
433.54	4030.40
433.72	4091.26
433.91	3892.31
434.10	3920.40
434.28	3976.57
434.47	3955.51
434.66	4147.43
434.85	4093.60
435.03	4131.05
435.22	4077.21
435.41	4215.30
435.59	4177.86
435.78	4262.12
435.97	4245.73
436.16	4140.41
436.34	4222.33
436.53	4315.95
436.72	4290.20
436.90	4201.26
437.09	4435.32
437.28	4224.67
437.46	4280.84
437.65	4369.78
437.84	4390.84
438.02	4320.63
438.21	4416.59
438.40	4245.73
438.58	4414.25
438.77	4538.30
438.96	4550.00
439.14	4514.89
439.33	4566.39
439.52	4652.98
439.70	4720.86
439.89	4746.61
440.08	4791.08
440.26	4692.77
440.45	4821.50
440.63	4812.14
440.82	4880.02
441.01	4807.46
441.19	4828.53
441.38	4915.12
441.57	4950.23
441.75	4994.70
441.94	4973.64
442.12	5083.64
442.31	5069.60
442.50	5200.67
442.68	5135.14
442.87	5053.22
443.05	5139.82
443.24	5329.40
443.43	5170.24
443.61	5118.75
443.80	5397.28
443.98	5135.14
444.17	5165.56
444.35	5324.72
444.54	5507.28
444.73	5224.08
444.91	5308.34
445.10	5418.34
445.28	5420.68
445.47	5305.99
445.65	5387.91
445.84	5427.70
446.02	5479.19
446.21	5416.00
446.39	5493.24
446.58	5420.68
446.77	5462.81
446.95	5181.95
447.14	5448.77
447.32	5467.49
447.51	5268.55
447.69	5504.94
447.88	5537.71
448.06	5533.03
448.25	5462.81
448.43	5579.84
448.62	5348.12
448.80	5521.32
448.99	5476.85
449.17	5610.26
449.36	5652.39
449.54	5647.71
449.73	5701.54
449.91	5687.50
450.10	5804.53
450.28	5809.21
450.46	5750.70
450.65	5734.31
450.83	5628.99
451.02	5633.67
451.20	5991.77
451.39	5907.51
451.57	5734.31
451.76	5858.36
451.94	5996.45
452.13	5916.87
452.31	5973.05
452.49	5603.24
452.68	5984.75
452.86	6017.52
453.05	6045.60
453.23	6125.18
453.42	5823.25
453.60	6141.57
453.78	6071.35
453.97	5989.43
454.15	6237.53
454.34	6143.91
454.52	6221.14
454.70	5998.79
454.89	6127.52
455.07	6162.63
455.26	6352.21
455.44	6466.90
455.62	6305.40
455.81	6347.53
455.99	6375.62
456.17	6452.86
456.36	6303.06
456.54	6619.04
456.73	6502.01
456.91	6766.49
457.09	6707.98
457.28	6677.55
457.46	6532.44
457.64	6881.18
457.83	6780.53
458.01	6607.33
458.19	6902.24
458.38	6883.52
458.56	6764.15
458.74	6794.58
458.93	6799.26
459.11	6530.09
459.29	6806.28
459.48	6920.96
459.66	6867.13
459.84	6965.43
460.03	7042.67
460.21	7009.90
460.39	6967.77
460.57	6979.48
460.76	7148.00
460.94	7068.42
461.12	7159.70
461.31	7220.55
461.49	7049.69
461.67	7126.93
461.85	7056.72
462.04	7105.87
462.22	7358.64
462.40	7274.38
462.59	7424.18
462.77	7281.41
462.95	7515.46
463.13	7370.35
463.32	7517.80
463.50	7405.46
463.68	7466.31
463.86	7363.33
464.05	7377.37
464.23	7426.52
464.41	7503.76
464.59	7307.15
464.78	7688.66
464.96	7688.66
465.14	7597.38
465.32	7618.44
465.50	7779.94
465.69	7625.47
465.87	7702.70
466.05	7508.44
466.23	7634.83
466.41	7880.58
466.60	7857.18
466.78	7606.74
466.96	7775.26
467.14	7740.15
467.32	7754.19
467.51	7953.14
467.69	7606.74
467.87	7744.83
468.05	8131.02
468.23	7871.22
468.41	7878.24
468.60	7943.78
468.78	7978.89
468.96	7943.78
469.14	8025.70
469.32	8245.71
469.50	7927.39
469.69	8149.75
469.87	8191.88
470.05	8266.77
470.23	8365.07
470.41	8226.98
470.59	8430.61
470.77	8271.45
470.95	8255.07
471.14	8702.11
471.32	8369.76
471.50	8493.80
471.68	8505.51
471.86	8573.38
472.04	8683.39
472.22	8741.90
472.40	8655.30
472.58	8978.30
472.77	8828.50
472.95	9006.38
473.13	9170.22
473.31	9074.26
473.49	8669.34
473.67	8833.18
473.85	9142.13
474.03	9254.48
474.21	9235.75
474.39	9231.07
474.57	9284.91
474.75	9263.84
474.93	9540.02
475.12	9582.15
475.30	9334.06
475.48	9467.47
475.66	9753.01
475.84	9617.26
476.02	9722.59
476.20	9682.80
476.38	9624.28
476.56	10008.13
476.74	9949.62
476.92	9921.53
477.10	10008.13
477.28	9977.70
477.46	10157.92
477.64	10157.92
477.82	10443.47
478.00	10700.93
478.18	10604.97
478.36	10693.91
478.54	10745.40
478.72	10801.57
478.90	10850.72
479.08	11005.20
479.26	11150.31
479.44	11007.54
479.62	10958.39
479.80	11236.91
479.98	11358.62
480.16	11391.39
480.34	11384.37
480.52	11543.52
480.70	11613.74
480.88	11360.96
481.06	11676.93
481.24	11761.19
481.41	12121.63
481.59	12428.24
481.77	12133.34
481.95	12081.85
482.13	12229.30
482.31	12100.57
482.49	12575.70
482.67	12468.03
482.85	12856.56
483.03	12849.54
483.21	12858.90
483.39	13083.59
483.57	13036.78
483.74	13184.24
483.92	13121.04
484.10	12947.84
484.28	13542.34
484.46	13795.12
484.64	13895.76
484.82	13645.32
485.00	13877.04
485.18	13996.40
485.35	14441.11
485.53	14080.66
485.71	14242.16
485.89	14611.96
486.07	14448.13
486.25	14546.43
486.43	14448.13
486.61	14761.76
486.78	15105.82
486.96	15101.14
487.14	15192.42
487.32	15199.44
487.50	15515.41
487.68	15363.28
487.85	15634.78
488.03	15936.71
488.21	15995.22
488.39	16044.37
488.57	15917.98
488.75	16137.99
488.92	16505.46
489.10	16238.64
489.28	16552.27
489.46	16592.06
489.64	16418.86
489.81	17216.98
489.99	17102.29
490.17	17111.66
490.35	17493.16
490.53	17364.43
490.70	17673.39
490.88	17652.32
491.06	17680.41
491.24	17811.48
491.41	18080.64
491.59	18218.73
491.77	18153.20
491.95	18614.28
492.13	18607.26
492.30	18548.75
492.48	18427.04
492.66	18738.33
492.84	18998.13
493.01	19176.01
493.19	18953.66
493.37	19201.76
493.54	19454.53
493.72	19307.08
493.90	19353.89
494.08	19704.97
494.25	19541.13
494.43	19700.29
494.61	19995.20
494.79	19992.86
494.96	20290.10
495.14	20524.16
495.32	20587.35
495.49	20205.84
495.67	20510.11
495.85	20669.27
496.02	21018.01
496.20	21228.66
496.38	21146.74
496.55	20954.82
496.73	21497.82
496.91	21144.40
497.09	21341.00
497.26	21724.85
497.44	21626.55
497.62	21642.93
497.79	22277.22
497.97	21951.88
498.14	22401.27
498.32	22141.47
498.50	22260.84
498.67	22354.46
498.85	22464.46
499.03	22459.78
499.20	22497.23
499.38	22628.30
499.56	22848.31
499.73	23269.61
499.91	23122.15
500.08	23236.84
500.26	22885.76
500.44	23459.19
500.61	23515.36
500.79	23487.28
500.97	23604.30
501.14	24067.73
501.32	23660.48
501.49	23836.02
501.67	24137.94
501.84	24102.84
502.02	24332.21
502.20	24313.48
502.37	24194.12
502.55	24208.16
502.72	24318.17
502.90	24676.27
503.07	24601.37
503.25	24561.58
503.43	24409.45
503.60	24678.61
503.78	24821.38
503.95	24863.51
504.13	25221.61
504.30	25579.71
504.48	25345.66
504.65	24971.18
504.83	25570.35
505.01	25509.50
505.18	25654.61
505.36	25441.62
505.53	25500.14
505.71	25867.60
505.88	26043.14
506.06	25869.94
506.23	26066.55
506.41	25961.22
506.58	26345.07
506.76	26134.42
506.93	26501.89
507.11	26321.66
507.28	26536.99
507.46	26586.15
507.63	26864.67
507.81	26969.99
507.98	26663.38
508.16	26469.12
508.33	27019.14
508.50	27161.92
508.68	27037.87
508.85	27353.84
509.03	26710.19
509.20	27501.29
509.38	27793.86
509.55	27611.30
509.73	27543.42
509.90	27751.73
510.08	27679.18
510.25	28067.70
510.42	27995.15
510.60	27754.07
510.77	28020.89
510.95	28449.21
511.12	28210.48
511.30	28060.68
511.47	28481.98
511.64	28456.23
511.82	28510.07
511.99	28659.86
512.17	28561.56
512.34	28882.21
512.51	28914.98
512.69	29095.20
512.86	28865.83
513.04	29331.59
513.21	29235.63
513.38	29013.28
513.56	29134.99
513.73	29106.90
513.90	29369.04
514.08	29179.46
514.25	29736.51
514.43	29457.98
514.60	29876.94
514.77	29872.26
514.95	29975.24
515.12	29830.13
515.29	29986.94
515.47	29970.56
515.64	30281.85
515.81	30129.72
515.99	30448.03
516.16	30625.91
516.33	30480.80
516.51	30850.60
516.68	30433.99
516.85	30960.61
517.03	30625.91
517.20	30953.58
517.37	31192.32
517.54	31101.04
517.72	31101.04
517.89	31379.56
518.06	30742.94
518.24	30946.56
518.41	31482.55
518.58	30923.16
518.75	31393.61
518.93	31019.12
519.10	31232.11
519.27	31297.64
519.45	31417.01
519.62	31381.90
519.79	31981.08
519.96	31857.03
520.14	31978.74
520.31	31868.73
520.48	32016.19
520.65	32135.56
520.83	32247.90
521.00	32418.76
521.17	32264.28
521.34	32783.88
521.52	32369.61
521.69	32811.97
521.86	32622.39
522.03	32954.74
522.20	32936.02
522.38	32786.22
522.55	32938.36
522.72	32994.53
522.89	32744.09
523.07	33076.45
523.24	33179.43
523.41	33336.25
523.58	33132.62
523.75	33544.56
523.92	33151.35
524.10	33647.54
524.27	33186.46
524.44	33888.62
524.61	33759.89
524.78	33937.77
524.96	33666.27
525.13	33998.62
525.30	34464.39
525.47	34316.93
525.64	34015.01
525.81	34518.22
525.98	34263.10
526.16	34174.16
526.33	34440.98
526.50	34440.98
526.67	34267.78
526.84	34419.92
527.01	34197.57
527.18	34281.83
527.36	34574.39
527.53	34808.45
527.70	34824.83
527.87	35084.63
528.04	35143.14
528.21	34881.00
528.38	35309.32
528.55	34909.09
528.72	35159.53
528.89	35363.15
529.07	34885.68
529.24	35192.30
529.41	35379.54
529.58	35229.74
529.75	34869.30
529.92	35274.21
530.09	35601.89
530.26	35791.47
530.43	35370.18
530.60	35805.52
530.77	35431.03
530.94	35927.22
531.11	35522.31
531.28	35789.13
531.46	35660.40
531.63	36088.72
531.80	35896.80
531.97	36236.17
532.14	36168.30
532.31	35957.65
532.48	36250.22
532.65	36620.02
532.82	36161.28
532.99	36187.02
533.16	36357.88
533.33	36442.14
533.50	36748.75
533.67	36706.62
533.84	36371.92
534.01	36678.54
534.18	36208.09
534.35	36950.04
534.52	37088.13
534.69	36921.95
534.86	37156.00
535.03	37055.36
535.20	37263.67
535.37	37233.24
535.54	37502.40
535.71	37308.14
535.88	37340.91
536.05	37500.06
536.22	37731.78
536.38	37160.69
536.55	37797.31
536.72	37336.23
536.89	36856.42
537.06	37244.94
537.23	38007.96
537.40	37612.41
537.57	37020.25
537.74	37471.98
537.91	38082.86
538.08	37565.60
538.25	37399.42
538.42	38040.73
538.59	37930.72
538.75	37762.20
538.92	38483.09
539.09	38471.39
539.26	38171.80
539.43	38197.54
539.60	38005.62
539.77	38211.59
539.94	38150.73
540.11	38543.94
540.28	38520.54
540.44	38223.29
540.61	38213.93
540.78	38216.27
540.95	38712.46
541.12	38979.28
541.29	38508.83
541.46	38890.34
541.62	39058.86
541.79	38946.51
541.96	38499.47
542.13	38782.68
542.30	38731.18
542.47	38667.99
542.63	39079.92
542.80	39519.95
542.97	39421.64
543.14	39508.24
543.31	39445.05
543.48	39718.89
543.64	39714.21
543.81	39962.31
543.98	40034.86
544.15	39651.02
544.32	40025.50
544.48	39920.18
544.65	39618.25
544.82	39861.66
544.99	39276.53
545.16	40151.89
545.32	39695.49
545.49	40247.85
545.66	40273.60
545.83	40161.25
546.00	40552.12
546.16	40067.63
546.33	40163.59
546.50	39896.77
546.67	40889.16
546.83	39655.70
547.00	40121.46
547.17	40399.99
547.34	40313.39
547.50	40612.98
547.67	41289.39
547.84	40411.69
548.00	40760.43
548.17	40835.33
548.34	40470.20
548.51	41216.83
548.67	40849.37
548.84	40797.88
549.01	40589.57
549.18	41053.00
549.34	40790.86
549.51	40722.98
549.68	40552.12
549.84	41134.92
550.01	41521.10
550.18	40896.18
550.34	40844.69
550.51	41518.76
550.68	40889.16
550.84	41064.70
551.01	41607.70
551.18	41429.82
551.34	41645.15
551.51	41029.59
551.68	41193.43
551.84	41083.42
552.01	41155.98
552.18	41450.89
552.34	41708.35
552.51	41942.40
552.68	41247.26
552.84	41436.84
553.01	41766.86
553.18	41675.58
553.34	41752.82
553.51	41478.97
553.67	41855.80
553.84	41951.76
554.01	42295.82
554.17	41865.16
554.34	42012.62
554.51	42157.73
554.67	41631.11
554.84	42330.93
555.00	42323.91
555.17	41911.97
555.33	42298.16
555.50	42188.16
555.67	42057.09
555.83	41830.05
556.00	42225.60
556.16	42700.73
556.33	42417.53
556.50	41972.83
556.66	42113.26
556.83	42529.87
556.99	42705.41
557.16	42424.55
557.32	42579.03
557.49	43040.11
557.65	42007.94
557.82	42363.70
557.98	42459.66
558.15	42515.83
558.32	42794.36
558.48	42600.09
558.65	42230.29
558.81	42466.68
558.98	42684.35
559.14	42604.77
559.31	42738.18
559.47	42593.07
559.64	42822.44
559.80	42506.47
559.97	43058.84
560.13	42799.04
560.30	42766.27
560.46	42997.98
560.63	43241.40
560.79	43590.14
560.96	43248.42
561.12	43126.71
561.29	43023.73
561.45	43220.33
561.61	42887.98
561.78	43145.44
561.94	43124.37
562.11	43093.94
562.27	43463.75
562.44	43091.60
562.60	43131.39
562.77	43360.76
562.93	42993.30
563.10	43395.87
563.26	43248.42
563.42	44013.77
563.59	43718.87
563.75	43377.15
563.92	43562.05
564.08	43576.09
564.24	43723.55
564.41	43562.05
564.57	43943.56
564.74	43810.15
564.90	43466.09
565.07	43494.18
565.23	43594.82
565.39	43412.26
565.56	43648.65
565.72	43641.63
565.88	43868.66
566.05	43765.68
566.21	43868.66
566.38	43580.78
566.54	43585.46
566.70	43346.72
566.87	43620.56
567.03	44245.49
567.19	43789.08
567.36	44404.64
567.52	43920.15
567.68	43856.96
567.85	43810.15
568.01	44086.33
568.17	44030.16
568.34	44058.24
568.50	43913.13
568.66	43658.01
568.83	43768.02
568.99	44072.29
569.15	43995.05
569.32	43749.29
569.48	43985.69
569.64	44381.24
569.81	44371.88
569.97	43969.30
570.13	44327.41
570.30	44151.87
570.46	44030.16
570.62	43819.51
570.78	44081.65
570.95	44416.35
571.11	44435.07
571.27	44002.07
571.43	43938.88
571.60	43988.03
571.76	44140.16
571.92	44247.83
572.09	43966.96
572.25	44233.78
572.41	43887.39
572.57	43917.81
572.74	44713.59
572.90	44451.45
573.06	44343.79
573.22	44304.00
573.38	44229.10
573.55	44409.32
573.71	44694.87
573.87	44355.49
574.03	43971.64
574.20	44278.25
574.36	43981.01
574.52	44273.57
574.68	44051.22
574.84	44383.58
575.01	44832.96
575.17	44367.20
575.33	44954.67
575.49	44165.91
575.65	44779.13
575.82	44706.57
575.98	44179.95
576.14	44765.09
576.30	44758.06
576.46	44409.32
576.62	44336.77
576.79	44699.55
576.95	43948.24
577.11	44112.08
577.27	44697.21
577.43	44477.20
577.59	44596.57
577.75	44507.63
577.92	44329.75
578.08	44442.09
578.24	44102.71
578.40	44933.60
578.56	44903.18
578.72	44524.01
578.88	44657.42
579.04	44795.51
579.21	44575.50
579.37	44856.37
579.53	44935.95
579.69	44343.79
579.85	44924.24
580.01	44404.64
580.17	44793.17
580.33	44999.14
580.49	44823.60
580.65	44772.11
580.82	44488.90
580.98	44488.90
581.14	44776.79
581.30	44397.62
581.46	44472.52
581.62	44863.39
581.78	44552.10
581.94	44931.26
582.10	44404.64
582.26	44676.15
582.42	44727.64
582.58	44842.32
582.74	44552.10
582.90	45095.10
583.06	44598.91
583.22	44758.06
583.38	44666.78
583.54	44463.16
583.70	44573.16
583.86	45085.74
584.02	44512.31
584.18	45088.08
584.34	45205.11
584.50	45045.95
584.66	44989.78
584.82	45022.54
584.98	45179.36
585.14	45062.33
585.30	44486.56
585.46	44800.19
585.62	44601.25
585.78	44453.79
585.94	44369.54
586.10	44662.10
586.26	44444.43
586.42	44701.89
586.58	45193.40
586.74	44589.55
586.90	44631.68
587.06	44781.47
587.22	45067.02
587.38	44830.62
587.54	45078.72
587.70	45226.17
587.86	45425.12
588.02	44886.79
588.18	45003.82
588.34	45017.86
588.49	45013.18
588.65	44851.69
588.81	44949.99
588.97	45144.25
589.13	45022.54
589.29	45139.57
589.45	45373.63
589.61	44938.29
589.77	45347.88
589.93	45233.19
590.08	45102.12
