SpectraSuite Data File
++++++++++++++++++++++++++++++++++++
Date: Fri Oct 25 11:25:49 EDT 2013
User: price-jones
Dark Spectrum Present: No
Reference Spectrum Present: No
Number of Sampled Component Spectra: 1
Spectrometers: USB2+H05261
Integration Time (usec): 100000 (USB2+H05261)
Spectra Averaged: 1 (USB2+H05261)
Boxcar Smoothing: 0 (USB2+H05261)
Correct for Electrical Dark: No (USB2+H05261)
Strobe/Lamp Enabled: No (USB2+H05261)
Correct for Detector Non-linearity: No (USB2+H05261)
Correct for Stray Light: No (USB2+H05261)
Number of Pixels in Processed Spectrum: 2048
>>>>>Begin Processed Spectral Data<<<<<
365.73	250.44
365.92	250.44
366.12	250.44
366.32	173.20
366.52	163.84
366.72	145.11
366.91	126.39
367.11	149.79
367.31	168.52
367.51	187.24
367.70	114.69
367.90	205.97
368.10	184.90
368.30	114.69
368.49	147.45
368.69	126.39
368.89	140.43
369.09	142.77
369.28	208.31
369.48	210.65
369.68	266.82
369.87	191.92
370.07	210.65
370.27	210.65
370.47	411.93
370.66	554.71
370.86	613.22
371.06	655.35
371.25	739.61
371.45	650.67
371.65	657.69
371.84	613.22
372.04	648.33
372.24	753.65
372.44	725.57
372.63	713.86
372.83	770.04
373.03	753.65
373.22	753.65
373.42	720.88
373.62	777.06
373.81	819.19
374.01	732.59
374.21	809.83
374.40	786.42
374.60	798.12
374.79	807.48
374.99	819.19
375.19	891.74
375.38	835.57
375.58	802.80
375.78	870.68
375.97	833.23
376.17	901.11
376.37	873.02
376.56	917.49
376.76	889.40
376.95	851.96
377.15	903.45
377.35	870.68
377.54	894.08
377.74	903.45
377.93	947.92
378.13	837.91
378.33	926.85
378.52	966.64
378.72	976.00
378.91	954.94
379.11	940.90
379.31	938.55
379.50	1004.09
379.70	1039.20
379.89	1029.84
380.09	1043.88
380.28	1100.05
380.48	1074.31
380.68	1048.56
380.87	1039.20
381.07	1057.92
381.26	1001.75
381.46	1025.15
381.65	1004.09
381.85	959.62
382.04	1114.10
382.24	1064.94
382.43	1053.24
382.63	1100.05
382.83	1104.73
383.02	1109.41
383.22	1083.67
383.41	1062.60
383.61	1158.57
383.80	1083.67
384.00	1172.61
384.19	1111.75
384.39	1167.93
384.58	1158.57
384.78	1114.10
384.97	1191.33
385.17	1191.33
385.36	1128.14
385.56	1158.57
385.75	1198.35
385.95	1172.61
386.14	1198.35
386.34	1151.54
386.53	1158.57
386.72	1174.95
386.92	1275.59
387.11	1156.22
387.31	1200.69
387.50	1242.82
387.70	1238.14
387.89	1207.72
388.09	1306.02
388.28	1343.47
388.48	1310.70
388.67	1273.25
388.86	1338.79
389.06	1270.91
389.25	1331.76
389.45	1282.61
389.64	1317.72
389.84	1404.32
390.03	1334.11
390.22	1317.72
390.42	1397.30
390.61	1404.32
390.81	1397.30
391.00	1434.75
391.19	1366.87
391.39	1467.52
391.58	1495.60
391.78	1493.26
391.97	1535.39
392.16	1504.96
392.36	1474.54
392.55	1448.79
392.75	1610.29
392.94	1481.56
393.13	1474.54
393.33	1507.30
393.52	1551.78
393.71	1558.80
393.91	1563.48
394.10	1554.12
394.29	1591.56
394.49	1668.80
394.68	1600.93
394.88	1685.19
395.07	1657.10
395.26	1640.72
395.46	1654.76
395.65	1748.38
395.84	1661.78
396.04	1844.34
396.23	1675.82
396.42	1727.32
396.62	1802.21
396.81	1783.49
397.00	1827.96
397.19	1739.02
397.39	1781.15
397.58	1760.08
397.77	1790.51
397.97	1966.05
398.16	1806.89
398.35	1914.56
398.55	1832.64
398.74	1940.30
398.93	2064.35
399.12	1963.71
399.32	1888.81
399.51	1905.20
399.70	2010.52
399.90	1900.52
400.09	1893.49
400.28	2012.86
400.47	2052.65
400.67	2059.67
400.86	2214.15
401.05	2097.12
401.24	2071.37
401.44	2249.25
401.63	2090.10
401.82	2129.89
402.01	2195.42
402.21	2057.33
402.40	2207.13
402.59	2150.95
402.78	2279.68
402.97	2270.32
403.17	2324.15
403.36	2174.36
403.55	2312.45
403.74	2277.34
403.93	2270.32
404.13	2321.81
404.32	2396.71
404.51	2284.36
404.70	2377.98
404.89	2443.52
405.09	2424.80
405.28	2466.92
405.47	2387.35
405.66	2417.77
405.85	2560.55
406.05	2523.10
406.24	2553.52
406.43	2534.80
406.62	2565.23
406.81	2710.34
407.00	2626.08
407.20	2560.55
407.39	2588.63
407.58	2637.78
407.77	2745.45
407.96	2642.46
408.15	2642.46
408.34	2616.72
408.54	2860.13
408.73	2787.58
408.92	2764.17
409.11	2815.66
409.30	2822.69
409.49	2958.44
409.68	2925.67
409.87	3019.29
410.07	3021.63
410.26	2904.60
410.45	3047.38
410.64	3082.49
410.83	3117.59
411.02	3094.19
411.21	3178.45
411.40	3220.58
411.59	3084.83
411.78	3229.94
411.98	3115.25
412.17	3213.56
412.36	3234.62
412.55	3356.33
412.74	3478.04
412.93	3452.29
413.12	3251.00
413.31	3529.53
413.50	3363.35
413.69	3555.27
413.88	3637.19
414.07	3623.15
414.26	3454.63
414.45	3641.87
414.64	3571.66
414.83	3733.15
415.02	3700.39
415.22	3833.80
415.41	3833.80
415.60	3815.07
415.79	3878.27
415.98	3967.21
416.17	3953.16
416.36	4002.32
416.55	4074.87
416.74	4126.36
416.93	3976.57
417.12	3985.93
417.31	4056.15
417.50	4154.45
417.69	4245.73
417.88	4266.80
418.07	4222.33
418.26	4292.54
418.45	4299.56
418.64	4390.84
418.83	4430.63
419.02	4531.28
419.21	4468.08
419.39	4580.43
419.58	4477.44
419.77	4601.49
419.96	4627.24
420.15	4545.32
420.34	4435.32
420.53	4634.26
420.72	4758.31
420.91	4812.14
421.10	4706.82
421.29	4884.70
421.48	4662.35
421.67	4765.33
421.86	4662.35
422.05	4891.72
422.24	4791.08
422.43	4865.97
422.61	4823.84
422.80	4915.12
422.99	4978.32
423.18	4936.19
423.37	4961.94
423.56	5048.54
423.75	4917.47
423.94	4777.03
424.13	4564.04
424.32	4730.22
424.50	4947.89
424.69	4952.57
424.88	5004.07
425.07	4863.63
425.26	4870.65
425.45	4936.19
425.64	4854.27
425.83	4959.60
426.01	4933.85
426.20	5132.79
426.39	5027.47
426.58	5083.64
426.77	5036.83
426.96	5172.58
427.15	5165.56
427.33	5224.08
427.52	5184.29
427.71	5254.50
427.90	5184.29
428.09	5399.62
428.28	5287.27
428.46	5432.38
428.65	5296.63
428.84	5427.70
429.03	5357.49
429.22	5331.74
429.40	5486.22
429.59	5493.24
429.78	5373.87
429.97	5305.99
430.16	5598.56
430.34	5612.60
430.53	5537.71
430.72	5680.48
430.91	5455.79
431.10	5631.33
431.28	5678.14
431.47	5661.76
431.66	5884.11
431.85	5757.72
432.03	5907.51
432.22	5865.38
432.41	5790.49
432.60	5727.29
432.79	5891.13
432.97	6052.63
433.16	5921.56
433.35	5996.45
433.54	5865.38
433.72	6012.84
433.91	6223.48
434.10	6019.86
434.28	5968.37
434.47	6164.97
434.66	6195.40
434.85	6204.76
435.03	6260.93
435.22	6249.23
435.41	6511.37
435.59	6291.36
435.78	6492.65
435.97	6478.60
436.16	6359.24
436.34	6494.99
436.53	6527.75
436.72	6532.44
436.90	6347.53
437.09	6509.03
437.28	6607.33
437.46	6509.03
437.65	6668.19
437.84	6803.94
438.02	6867.13
438.21	6782.87
438.40	6576.91
438.58	6846.07
438.77	7059.06
438.96	6904.58
439.14	7054.37
439.33	7052.03
439.52	7037.99
439.70	7297.79
439.89	7382.05
440.08	7396.09
440.26	7403.11
440.45	7468.65
440.63	7513.12
440.82	7641.85
441.01	7613.76
441.19	7576.31
441.38	7749.51
441.57	7449.93
441.75	7742.49
441.94	7946.12
442.12	8025.70
442.31	8124.00
442.50	7819.73
442.68	7779.94
442.87	7990.59
443.05	8095.91
443.24	8145.06
443.43	8194.22
443.61	8203.58
443.80	8341.67
443.98	8093.57
444.17	7967.18
444.35	8119.32
444.54	8486.78
444.73	8119.32
444.91	8128.68
445.10	8297.20
445.28	8205.92
445.47	8304.22
445.65	8187.19
445.84	8334.65
446.02	8573.38
446.21	8409.54
446.39	8325.29
446.58	8299.54
446.77	8414.23
446.95	8241.03
447.14	8376.78
447.32	8437.63
447.51	8451.67
447.69	8622.53
447.88	8248.05
448.06	8372.10
448.25	8329.97
448.43	8482.10
448.62	8540.61
448.80	8402.52
448.99	8702.11
449.17	8842.54
449.36	8561.68
449.54	8858.93
449.73	8877.65
449.91	8982.98
450.10	8926.80
450.28	9025.11
450.46	8898.72
450.65	9036.81
450.83	9191.28
451.02	9153.84
451.20	9111.71
451.39	9102.34
451.57	9198.31
451.76	9100.00
451.94	9013.40
452.13	9448.74
452.31	9195.96
452.49	9121.07
452.68	9357.46
452.86	9296.61
453.05	9420.66
453.23	9533.00
453.42	9266.18
453.60	9282.56
453.78	9535.34
453.97	9329.38
454.15	9376.19
454.34	9296.61
454.52	9675.77
454.70	9834.93
454.89	9713.22
455.07	9589.17
455.26	9589.17
455.44	9853.66
455.62	10015.15
455.81	9645.35
455.99	9968.34
456.17	10127.50
456.36	10246.87
456.54	10246.87
456.73	10319.42
456.91	10361.55
457.09	10473.90
457.28	10459.85
457.46	10406.02
457.64	10572.20
457.83	10431.77
458.01	10424.75
458.19	10719.65
458.38	10279.63
458.56	10663.48
458.74	10745.40
458.93	10691.57
459.11	10803.91
459.29	10771.15
459.48	10656.46
459.66	10778.17
459.84	10752.42
460.03	10963.07
460.21	11019.24
460.39	10806.25
460.57	10890.51
460.76	11052.01
460.94	11007.54
461.12	10942.00
461.31	11187.76
461.49	11094.14
461.67	11096.48
461.85	11417.13
462.04	11169.04
462.22	11740.13
462.40	11375.00
462.59	11620.76
462.77	11344.58
462.95	11527.14
463.13	11367.98
463.32	11796.30
463.50	11779.92
463.68	11665.23
463.86	11737.79
464.05	11641.82
464.23	11648.85
464.41	11950.78
464.59	11646.51
464.78	12177.81
464.96	11988.22
465.14	11712.04
465.32	12028.01
465.50	11927.37
465.69	12166.10
465.87	12116.95
466.05	11843.11
466.23	12081.85
466.41	12226.96
466.60	12519.53
466.78	12196.53
466.96	12308.88
467.14	12116.95
467.32	12468.03
467.51	12430.59
467.69	12032.69
467.87	12318.24
468.05	12674.00
468.23	12372.07
468.41	12283.13
468.60	12524.21
468.78	12589.74
468.96	12692.73
469.14	12659.96
469.32	13097.64
469.50	12634.21
469.69	12713.79
469.87	13174.88
470.05	12891.67
470.23	13163.17
470.41	13242.75
470.59	13156.15
470.77	12798.05
470.95	13437.02
471.14	13549.36
471.32	13165.51
471.50	13380.84
471.68	13668.73
471.86	13778.73
472.04	13727.24
472.22	14101.73
472.40	13722.56
472.58	13612.56
472.77	13675.75
472.95	13970.66
473.13	14342.80
473.31	13973.00
473.49	14050.24
473.67	13799.80
473.85	14284.29
474.03	14576.86
474.21	14618.99
474.39	14649.41
474.57	14719.63
474.75	14743.03
474.93	14885.81
475.12	15140.93
475.30	14792.19
475.48	15012.20
475.66	14923.26
475.84	15190.08
476.02	15332.85
476.20	15304.76
476.38	15714.36
476.56	15704.99
476.74	15955.43
476.92	15990.54
477.10	15782.23
477.28	15985.86
477.46	16095.86
477.64	16341.62
477.82	16390.77
478.00	16683.34
478.18	16566.31
478.36	16819.09
478.54	16940.80
478.72	17036.76
478.90	17350.39
479.08	17502.53
479.26	17266.13
479.44	17537.63
479.62	17652.32
479.80	18064.25
479.98	18200.01
480.16	18288.95
480.34	18085.32
480.52	18525.34
480.70	18478.53
480.88	18394.27
481.06	18672.79
481.24	18675.13
481.41	19197.07
481.59	19267.29
481.77	19559.86
481.95	19332.82
482.13	19721.35
482.31	19768.16
482.49	20451.60
482.67	20011.58
482.85	20620.12
483.03	20680.97
483.21	20348.62
483.39	20573.31
483.57	20999.29
483.74	21284.83
483.92	21394.84
484.10	21322.28
484.28	21591.44
484.46	21673.36
484.64	22513.61
484.82	21851.24
485.00	22398.93
485.18	22586.17
485.35	22838.95
485.53	22640.00
485.71	22649.36
485.89	23531.75
486.07	23175.98
486.25	23381.95
486.43	23290.67
486.61	23695.58
486.78	24084.11
486.96	24180.07
487.14	24372.00
487.32	24140.29
487.50	24620.10
487.68	24854.15
487.85	25357.36
488.03	25439.28
488.21	25734.19
488.39	25584.40
488.57	26031.44
488.75	26054.84
488.92	26263.15
489.10	26242.09
489.28	26625.93
489.46	27161.92
489.64	27012.12
489.81	27590.24
489.99	27255.54
490.17	27700.24
490.35	27974.08
490.53	27922.59
490.70	28374.31
490.88	28444.53
491.06	28332.18
491.24	28575.60
491.41	29151.37
491.59	28856.46
491.77	29223.93
491.95	29177.12
492.13	29799.70
492.30	29984.60
492.48	29797.36
492.66	30202.27
492.84	30370.79
493.01	30796.77
493.19	30654.00
493.37	30705.49
493.54	30906.77
493.72	31510.63
493.90	31255.51
494.08	31655.75
494.25	31707.24
494.43	31960.02
494.61	31978.74
494.79	32006.83
494.96	32383.65
495.14	32830.69
495.32	33179.43
495.49	33240.29
495.67	32975.81
495.85	33441.57
496.02	33663.93
496.20	33764.57
496.38	33813.72
496.55	33977.56
496.73	34632.91
496.91	34569.71
497.09	34728.87
497.26	35274.21
497.44	34873.98
497.62	34890.37
497.79	35480.18
497.97	35227.40
498.14	35686.15
498.32	35800.83
498.50	36039.57
498.67	36437.46
498.85	36741.73
499.03	36243.20
499.20	36383.63
499.38	36697.26
499.56	37013.23
499.73	37139.62
499.91	37373.67
500.08	37507.08
500.26	37376.01
500.44	37769.22
500.61	37834.76
500.79	37904.98
500.97	38047.75
501.14	38047.75
501.32	38707.78
501.49	38497.13
501.67	38274.78
501.84	38635.22
502.02	38600.12
502.20	38873.96
502.37	39164.18
502.55	39328.02
502.72	39391.22
502.90	39445.05
503.07	39796.13
503.25	39737.62
503.43	39604.20
503.60	40116.78
503.78	40055.93
503.95	40088.70
504.13	40210.40
504.30	40512.33
504.48	40383.60
504.65	40533.40
504.83	41298.75
505.01	41273.01
505.18	40884.48
505.36	41134.92
505.53	40802.56
505.71	41280.03
505.88	41539.83
506.06	41235.56
506.23	41806.65
506.41	41628.77
506.58	41682.60
506.76	42174.11
506.93	42309.86
507.11	42124.96
507.28	42347.31
507.46	42476.04
507.63	42934.79
507.81	43129.05
507.98	42906.70
508.16	42813.08
508.33	43084.58
508.50	43086.92
508.68	43636.95
508.85	43606.52
509.03	43388.85
509.20	43973.98
509.38	43863.98
509.55	44215.06
509.73	44229.10
509.90	44531.03
510.08	44718.28
510.25	44399.96
510.42	44605.93
510.60	44774.45
510.77	45441.50
510.95	45069.36
511.12	44680.83
511.30	45132.55
511.47	45191.06
511.64	45469.59
511.82	45640.45
511.99	45640.45
512.17	45801.94
512.34	45600.66
512.51	46124.94
512.69	46461.97
512.86	45715.34
513.04	46759.22
513.21	46724.11
513.38	46363.67
513.56	46866.89
513.73	46707.73
513.90	46749.86
514.08	46389.42
514.25	47206.26
514.43	47061.15
514.60	47547.98
514.77	47037.75
514.95	47262.44
515.12	47241.37
515.29	47564.37
515.47	47386.49
515.64	48182.27
515.81	47604.16
515.99	48058.22
516.16	48289.93
516.33	48406.96
516.51	48521.65
516.68	48493.56
516.85	48521.65
517.03	48720.59
517.20	48591.86
517.37	48566.12
517.54	48788.47
517.72	48781.45
517.89	48942.94
518.06	48931.24
518.24	48519.31
518.41	48825.92
518.58	49209.76
518.75	49043.59
518.93	49340.83
519.10	49624.04
519.27	49237.85
519.45	49865.11
519.62	49626.38
519.79	49621.70
519.96	49773.83
520.14	50157.68
520.31	50192.79
520.48	50042.99
520.65	50171.72
520.83	50391.73
521.00	50635.15
521.17	50354.29
521.34	50431.52
521.52	50459.61
521.69	50380.03
521.86	50763.88
522.03	50873.88
522.20	51171.13
522.38	51447.32
522.55	51175.81
522.72	50988.57
522.89	51351.35
523.07	51260.07
523.24	51564.34
523.41	51470.72
523.58	51194.54
523.75	51770.31
523.92	51559.66
524.10	51814.78
524.27	51796.06
524.44	52072.24
524.61	51870.95
524.78	51903.72
524.96	51782.01
525.13	51990.32
525.30	52294.59
525.47	52498.22
525.64	52079.26
525.81	52392.89
525.98	52472.47
526.16	52247.78
526.33	52676.10
526.50	52690.14
526.67	52645.67
526.84	52959.30
527.01	52750.99
527.18	52743.97
527.36	52844.62
527.53	52800.15
527.70	53045.90
527.87	53305.70
528.04	53111.44
528.21	53174.63
528.38	53495.28
528.55	53071.65
528.72	53347.83
528.89	53336.13
529.07	53396.98
529.24	53148.88
529.41	53537.41
529.58	53591.25
529.75	53649.76
529.92	53811.26
530.09	53900.20
530.26	53656.78
530.43	53813.60
530.60	53584.22
530.77	53799.55
530.94	53991.48
531.11	53958.71
531.28	54028.93
531.46	53911.90
531.63	54106.16
531.80	54178.72
531.97	54370.64
532.14	54288.73
532.31	54344.90
532.48	54279.36
532.65	54440.86
532.82	54279.36
532.99	54560.23
533.16	54354.26
533.33	54541.50
533.50	54937.05
533.67	54536.82
533.84	54424.48
534.01	54646.83
534.18	54731.09
534.35	54988.55
534.52	54901.95
534.69	54930.03
534.86	55182.81
535.03	55147.70
535.20	54981.52
535.37	55152.38
535.54	55276.43
535.71	55250.69
535.88	55206.22
536.05	55391.12
536.22	55554.96
536.38	55543.25
536.55	55339.63
536.72	55487.08
536.89	55344.31
537.06	55508.14
537.23	55552.62
537.40	55414.52
537.57	55681.34
537.74	55744.54
537.91	55810.07
538.08	55749.22
538.25	55334.95
538.42	55899.01
538.59	55899.01
538.75	55704.75
538.92	56006.68
539.09	55969.23
539.26	55950.51
539.43	56067.53
539.60	56126.05
539.77	56114.34
539.94	56104.98
540.11	56303.93
540.28	56214.99
540.44	56257.12
540.61	56289.88
540.78	56154.13
540.95	56430.32
541.12	56147.11
541.29	56261.80
541.46	56535.64
541.62	56591.81
541.79	56687.78
541.96	56563.73
542.13	56472.45
542.30	56470.11
542.47	56788.42
542.63	56898.42
542.80	56917.15
542.97	56807.14
543.14	56966.30
543.31	56982.68
543.48	57022.47
543.64	57418.02
543.81	57293.97
543.98	57233.12
544.15	57207.37
544.32	57162.90
544.48	57682.50
544.65	57312.70
544.82	57399.30
544.99	57029.49
545.16	57436.75
545.32	57176.95
545.49	57715.27
545.66	57602.92
545.83	57471.85
546.00	57698.89
546.16	57411.00
546.33	57570.16
546.50	57518.67
546.67	57556.11
546.83	57605.26
547.00	57504.62
547.17	57403.98
547.34	57841.66
547.50	57738.68
547.67	57862.72
547.84	57907.19
548.00	57827.62
548.17	58244.23
548.34	57895.49
548.51	58068.69
548.67	58199.76
548.84	57963.37
549.01	57836.98
549.18	58122.52
549.34	58113.16
549.51	58010.18
549.68	58234.87
549.84	58298.06
550.01	58447.86
550.18	58281.68
550.34	58326.15
550.51	58569.57
550.68	58471.26
550.84	58227.85
551.01	58494.67
551.18	58412.75
551.34	58356.58
551.51	58403.39
551.68	58574.25
551.84	58372.96
552.01	58284.02
552.18	58454.88
552.34	58529.78
552.51	58508.71
552.68	58487.65
552.84	58656.17
553.01	58738.08
553.18	58604.67
553.34	58693.61
553.51	58471.26
553.67	58548.50
553.84	58726.38
554.01	58595.31
554.17	58899.58
554.34	58927.67
554.51	58770.85
554.67	58901.92
554.84	58937.03
555.00	59040.01
555.17	58913.62
555.33	58890.22
555.50	58838.73
555.67	58890.22
555.83	58944.05
556.00	59192.15
556.16	59217.89
556.33	59079.80
556.50	59063.42
556.66	59243.64
556.83	58810.64
556.99	59128.95
557.16	59419.18
557.32	59412.16
557.49	59508.12
557.65	59217.89
557.82	59150.02
557.98	59358.33
558.15	59152.36
558.32	59648.55
558.48	59391.09
558.65	59348.96
558.81	59386.41
558.98	59473.01
559.14	59545.57
559.31	59433.22
559.47	59618.13
559.64	59655.57
559.80	59419.18
559.97	59622.81
560.13	59480.03
560.30	59482.37
560.46	59599.40
560.63	59611.10
560.79	59667.28
560.96	59903.67
561.12	59742.17
561.29	59627.49
561.45	59650.89
561.61	59814.73
561.78	59765.58
561.94	59580.68
562.11	59655.57
562.27	59786.64
562.44	59786.64
562.60	59882.61
562.77	59976.23
562.93	59718.77
563.10	60119.00
563.26	59777.28
563.42	60114.32
563.59	59803.03
563.75	59793.67
563.92	59779.62
564.08	59910.69
564.24	60102.62
564.41	60009.00
564.57	60088.57
564.74	60025.38
564.90	60177.51
565.07	59840.48
565.23	59955.16
565.39	59983.25
565.56	60097.94
565.72	60069.85
565.88	60257.09
566.05	59959.84
566.21	59943.46
566.38	60236.03
566.54	60275.82
566.70	60392.84
566.87	60467.74
567.03	60191.56
567.19	60243.05
567.36	60184.54
567.52	60121.34
567.68	60666.69
567.85	60186.88
568.01	60308.58
568.17	60233.69
568.34	60161.13
568.50	60088.57
568.66	60537.96
568.83	60257.09
568.99	60186.88
569.15	60102.62
569.32	60416.25
569.48	60467.74
569.64	60350.71
569.81	60247.73
569.97	60437.31
570.13	60130.70
570.30	60142.41
570.46	60322.63
570.62	60718.18
570.78	60200.92
570.95	60381.14
571.11	60580.09
571.27	60526.25
571.43	60364.76
571.60	60654.98
571.76	60449.02
571.92	60540.30
572.09	60418.59
572.25	60470.08
572.41	60453.70
572.57	60507.53
572.74	60755.63
572.90	60449.02
573.06	60357.74
573.22	60591.79
573.38	60519.23
573.55	60552.00
573.71	60764.99
573.87	60552.00
574.03	60395.18
574.20	60633.92
574.36	60629.24
574.52	60622.22
574.68	60692.43
574.84	60739.24
575.01	60666.69
575.17	60587.11
575.33	60474.76
575.49	60591.79
575.65	60594.13
575.82	60575.40
575.98	60701.79
576.14	60835.20
576.30	60764.99
576.46	60676.05
576.62	60692.43
576.79	60598.81
576.95	60544.98
577.11	60701.79
577.27	60767.33
577.43	60814.14
577.59	60603.49
577.75	60818.82
577.92	60603.49
578.08	60568.38
578.24	60570.72
578.40	60865.63
578.56	60858.61
578.72	60926.49
578.88	60727.54
579.04	60973.30
579.21	60816.48
579.37	60664.35
579.53	60959.25
579.69	60512.21
579.85	60612.85
580.01	60762.65
580.17	60636.26
580.33	60795.42
580.49	60879.67
580.65	60910.10
580.82	60743.92
580.98	60718.18
581.14	60694.77
581.30	60708.82
581.46	60566.04
581.62	60713.50
581.78	60708.82
581.94	60898.40
582.10	60924.14
582.26	60772.01
582.42	60783.71
582.58	61127.77
582.74	60746.26
582.90	60898.40
583.06	61102.03
583.22	60793.07
583.38	60935.85
583.54	60734.56
583.70	60814.14
583.86	61006.06
584.02	60769.67
584.18	61202.67
584.34	60807.12
584.50	61022.45
584.66	60732.22
584.82	60774.35
584.98	61209.69
585.14	60917.12
585.30	60769.67
585.46	61010.74
585.62	60753.29
585.78	60938.19
585.94	60594.13
586.10	60963.93
586.26	61003.72
586.42	60816.48
586.58	60966.27
586.74	60977.98
586.90	60982.66
587.06	60776.69
587.22	60954.57
587.38	60954.57
587.54	61165.22
587.70	60989.68
587.86	60989.68
588.02	61031.81
588.18	61036.49
588.34	60715.84
