SpectraSuite Data File
++++++++++++++++++++++++++++++++++++
Date: Fri Oct 25 10:46:57 EDT 2013
User: price-jones
Dark Spectrum Present: No
Reference Spectrum Present: No
Number of Sampled Component Spectra: 1
Spectrometers: USB2+H05261
Integration Time (usec): 100000 (USB2+H05261)
Spectra Averaged: 1 (USB2+H05261)
Boxcar Smoothing: 0 (USB2+H05261)
Correct for Electrical Dark: No (USB2+H05261)
Strobe/Lamp Enabled: No (USB2+H05261)
Correct for Detector Non-linearity: No (USB2+H05261)
Correct for Stray Light: No (USB2+H05261)
Number of Pixels in Processed Spectrum: 2048
>>>>>Begin Processed Spectral Data<<<<<
365.73	175.54
365.92	175.54
366.12	175.54
366.32	25.75
366.52	51.49
366.72	112.35
366.91	67.88
367.11	11.70
367.31	21.06
367.51	16.38
367.70	53.83
367.90	51.49
368.10	30.43
368.30	16.38
368.49	7.02
368.69	0.00
368.89	35.11
369.09	46.81
369.28	42.13
369.48	70.22
369.68	74.90
369.87	51.49
370.07	131.07
370.27	126.39
370.47	194.26
370.66	386.19
370.86	402.57
371.06	421.30
371.25	535.98
371.45	418.96
371.65	517.26
371.84	521.94
372.04	475.13
372.24	498.53
372.44	477.47
372.63	582.79
372.83	496.19
373.03	507.90
373.22	500.87
373.42	540.66
373.62	507.90
373.81	582.79
374.01	594.50
374.21	592.16
374.40	606.20
374.60	610.88
374.79	517.26
374.99	559.39
375.19	554.71
375.38	575.77
375.58	617.90
375.78	582.79
375.97	638.97
376.17	685.78
376.37	622.58
376.56	622.58
376.76	627.26
376.95	610.88
377.15	674.07
377.35	627.26
377.54	540.66
377.74	601.52
377.93	599.18
378.13	610.88
378.33	566.41
378.52	592.16
378.72	716.20
378.91	678.76
379.11	706.84
379.31	636.63
379.50	648.33
379.70	723.23
379.89	685.78
380.09	711.52
380.28	737.27
380.48	788.76
380.68	730.25
380.87	655.35
381.07	624.92
381.26	660.03
381.46	730.25
381.65	748.97
381.85	753.65
382.04	636.63
382.24	674.07
382.43	730.25
382.63	741.95
382.83	732.59
383.02	734.93
383.22	760.67
383.41	760.67
383.61	734.93
383.80	863.66
384.00	739.61
384.19	727.91
384.39	863.66
384.58	823.87
384.78	875.36
384.97	814.51
385.17	746.63
385.36	809.83
385.56	784.08
385.75	788.76
385.95	823.87
386.14	851.96
386.34	826.21
386.53	830.89
386.72	816.85
386.92	945.58
387.11	945.58
387.31	889.40
387.50	807.48
387.70	870.68
387.89	840.25
388.09	835.57
388.28	915.15
388.48	884.72
388.67	912.81
388.86	943.24
389.06	964.30
389.25	940.90
389.45	922.17
389.64	964.30
389.84	978.34
390.03	933.87
390.22	931.53
390.42	1018.13
390.61	952.60
390.81	994.73
391.00	1018.13
391.19	990.05
391.39	1046.22
391.58	1046.22
391.78	1022.81
391.97	1006.43
392.16	1006.43
392.36	1083.67
392.55	1055.58
392.75	1015.79
392.94	978.34
393.13	985.37
393.33	933.87
393.52	1008.77
393.71	1186.65
393.91	1081.33
394.10	1048.56
394.29	1142.18
394.49	1212.40
394.68	1294.32
394.88	1224.10
395.07	1245.16
395.26	1081.33
395.46	1179.63
395.65	1224.10
395.84	1334.11
396.04	1299.00
396.23	1219.42
396.42	1170.27
396.62	1217.08
396.81	1172.61
397.00	1224.10
397.19	1212.40
397.39	1352.83
397.58	1355.17
397.77	1404.32
397.97	1392.62
398.16	1420.71
398.35	1458.15
398.55	1476.88
398.74	1469.86
398.93	1448.79
399.12	1551.78
399.32	1458.15
399.51	1460.49
399.70	1526.03
399.90	1504.96
400.09	1528.37
400.28	1530.71
400.47	1516.67
400.67	1626.67
400.86	1629.01
401.05	1661.78
401.24	1582.20
401.44	1668.80
401.63	1699.23
401.82	1589.22
402.01	1668.80
402.21	1727.32
402.40	1687.53
402.59	1643.06
402.78	1732.00
402.97	1722.63
403.17	1806.89
403.36	1860.73
403.55	1795.19
403.74	1785.83
403.93	1724.97
404.13	1888.81
404.32	1795.19
404.51	1792.85
404.70	1895.83
404.89	1900.52
405.09	1879.45
405.28	1881.79
405.47	1879.45
405.66	1954.35
405.85	1881.79
406.05	1966.05
406.24	1952.01
406.43	1970.73
406.62	2118.18
406.81	2094.78
407.00	1989.46
407.20	1994.14
407.39	1989.46
407.58	2160.31
407.77	2165.00
407.96	2104.14
408.15	2223.51
408.34	2174.36
408.54	2249.25
408.73	2265.64
408.92	2279.68
409.11	2188.40
409.30	2183.72
409.49	2277.34
409.68	2172.02
409.87	2244.57
410.07	2263.30
410.26	2415.43
410.45	2363.94
410.64	2473.95
410.83	2492.67
411.02	2511.39
411.21	2541.82
411.40	2520.76
411.59	2502.03
411.78	2504.37
411.98	2497.35
412.17	2560.55
412.36	2576.93
412.55	2780.56
412.74	2726.72
412.93	2691.62
413.12	2654.17
413.31	2801.62
413.50	2705.66
413.69	2867.16
413.88	2801.62
414.07	2939.71
414.26	2916.31
414.45	2836.73
414.64	2932.69
414.83	2946.73
415.02	2918.65
415.22	2972.48
415.41	3068.44
415.60	2958.44
415.79	3199.51
415.98	3176.11
416.17	3096.53
416.36	3180.79
416.55	3206.53
416.74	3185.47
416.93	3080.14
417.12	3358.67
417.31	3255.69
417.50	3267.39
417.69	3330.58
417.88	3337.60
418.07	3344.63
418.26	3398.46
418.45	3412.50
418.64	3459.31
418.83	3454.63
419.02	3452.29
419.21	3637.19
419.39	3461.65
419.58	3452.29
419.77	3349.31
419.96	3648.90
420.15	3700.39
420.34	3527.19
420.53	3632.51
420.72	3625.49
420.91	3721.45
421.10	3740.18
421.29	3819.75
421.48	3644.21
421.67	3716.77
421.86	3782.31
422.05	3578.68
422.24	3693.37
422.43	3709.75
422.61	3730.81
422.80	3929.76
422.99	3789.33
423.18	3789.33
423.37	3985.93
423.56	3735.50
423.75	3791.67
423.94	3651.24
424.13	3545.91
424.32	3686.34
424.50	3845.50
424.69	3887.63
424.88	3899.33
425.07	3922.74
425.26	3765.92
425.45	3861.88
425.64	3904.01
425.83	3843.16
426.01	3920.40
426.20	3906.35
426.39	4095.94
426.58	3896.99
426.77	3918.06
426.96	3894.65
427.15	3927.42
427.33	3955.51
427.52	3941.46
427.71	3953.16
427.90	4028.06
428.09	4042.11
428.28	4086.58
428.46	3950.82
428.65	4175.52
428.84	4109.98
429.03	4257.43
429.22	4149.77
429.40	4161.47
429.59	4086.58
429.78	3864.22
429.97	3712.09
430.16	4086.58
430.34	4046.79
430.53	4128.70
430.72	4100.62
430.91	4063.17
431.10	4098.28
431.28	4456.38
431.47	4493.83
431.66	4596.81
431.85	4423.61
432.03	4440.00
432.22	4510.21
432.41	4468.08
432.60	4638.94
432.79	4409.57
432.97	4557.02
433.16	4692.77
433.35	4547.66
433.54	4472.76
433.72	4615.54
433.91	4596.81
434.10	4652.98
434.28	4760.65
434.47	4774.69
434.66	4631.92
434.85	4889.38
435.03	4842.57
435.22	4706.82
435.41	4947.89
435.59	5121.09
435.78	5125.77
435.97	4877.68
436.16	4952.57
436.34	5104.71
436.53	4947.89
436.72	5064.92
436.90	4926.83
437.09	5123.43
437.28	4891.72
437.46	5104.71
437.65	5132.79
437.84	5078.96
438.02	5104.71
438.21	5015.77
438.40	5069.60
438.58	5210.03
438.77	5270.89
438.96	5242.80
439.14	5373.87
439.33	5530.69
439.52	5488.56
439.70	5614.95
439.89	5535.37
440.08	5631.33
440.26	5638.35
440.45	5617.29
440.63	5673.46
440.82	5839.64
441.01	5743.67
441.19	5750.70
441.38	6005.81
441.57	6003.47
441.75	6076.03
441.94	6253.91
442.12	6001.13
442.31	6134.54
442.50	6160.29
442.68	6146.25
442.87	6120.50
443.05	6366.26
443.24	6232.85
443.43	6237.53
443.61	6296.04
443.80	6457.54
443.98	6155.61
444.17	6216.46
444.35	6469.24
444.54	6576.91
444.73	6366.26
444.91	6392.00
445.10	6396.68
445.28	6188.38
445.47	6396.68
445.65	6197.74
445.84	6293.70
446.02	6424.77
446.21	6441.15
446.39	6452.86
446.58	6532.44
446.77	6558.18
446.95	6473.92
447.14	6417.75
447.32	6581.59
447.51	6492.65
447.69	6483.28
447.88	6588.61
448.06	6471.58
448.25	6656.48
448.43	6640.10
448.62	6689.25
448.80	6438.81
448.99	6740.74
449.17	6656.48
449.36	6586.27
449.54	6775.85
449.73	6792.23
449.91	6995.86
450.10	7056.72
450.28	7222.89
450.46	6979.48
450.65	6867.13
450.83	6979.48
451.02	7073.10
451.20	6984.16
451.39	7061.40
451.57	7096.50
451.76	7068.42
451.94	7070.76
452.13	7246.30
452.31	7105.87
452.49	6967.77
452.68	7054.37
452.86	7028.63
453.05	7129.27
453.23	7229.91
453.42	7103.53
453.60	7117.57
453.78	7157.36
453.97	7145.66
454.15	7103.53
454.34	7342.26
454.52	7391.41
454.70	7410.14
454.89	7459.29
455.07	7440.56
455.26	7543.55
455.44	7686.32
455.62	7728.45
455.81	7403.11
455.99	7723.77
456.17	7735.47
456.36	7583.34
456.54	7803.35
456.73	7822.07
456.91	8032.72
457.09	7960.16
457.28	8013.99
457.46	7730.79
457.64	7805.69
457.83	7789.30
458.01	7770.58
458.19	8070.17
458.38	7789.30
458.56	8114.64
458.74	8037.40
458.93	8222.30
459.11	8100.59
459.29	8234.00
459.48	8051.44
459.66	8212.94
459.84	8217.62
460.03	8287.84
460.21	8276.13
460.39	8285.50
460.57	8297.20
460.76	8259.75
460.94	8381.46
461.12	8458.70
461.31	8388.48
461.49	8421.25
461.67	8458.70
461.85	8601.47
462.04	8507.85
462.22	8990.00
462.40	8798.07
462.59	8671.68
462.77	8830.84
462.95	8830.84
463.13	8807.44
463.32	8704.45
463.50	8847.22
463.68	8765.31
463.86	8826.16
464.05	8587.43
464.23	8812.12
464.41	8889.35
464.59	8713.81
464.78	9125.75
464.96	8903.40
465.14	8952.55
465.32	8908.08
465.50	9123.41
465.69	9366.82
465.87	8990.00
466.05	8879.99
466.23	8816.80
466.41	8809.78
466.60	9125.75
466.78	9050.85
466.96	9100.00
467.14	9015.74
467.32	8980.64
467.51	9174.90
467.69	8990.00
467.87	9502.58
468.05	9202.99
468.23	9149.15
468.41	9355.12
468.60	9266.18
468.78	9493.21
468.96	9364.48
469.14	9472.15
469.32	9516.62
469.50	9458.10
469.69	9537.68
469.87	9619.60
470.05	9731.95
470.23	9617.26
470.41	9586.83
470.59	9703.86
470.77	9621.94
470.95	9692.16
471.14	10019.83
471.32	9750.67
471.50	10029.20
471.68	10068.98
471.86	10061.96
472.04	10394.32
472.22	10375.59
472.40	10157.92
472.58	10366.23
472.77	10101.75
472.95	10480.92
473.13	10721.99
473.31	10214.10
473.49	10399.00
473.67	10373.25
473.85	10614.33
474.03	10616.67
474.21	10471.56
474.39	10995.84
474.57	10956.05
474.75	11049.67
474.93	10960.73
475.12	10925.62
475.30	11136.27
475.48	11248.61
475.66	11049.67
475.84	10942.00
476.02	11159.67
476.20	11105.84
476.38	11152.65
476.56	11634.80
476.74	11768.21
476.92	11421.81
477.10	11609.06
477.28	11901.62
477.46	12018.65
477.64	11955.46
477.82	12180.15
478.00	12203.55
478.18	12191.85
478.36	12163.76
478.54	12657.62
478.72	12606.13
478.90	12826.14
479.08	12725.49
479.26	13027.42
479.44	12896.35
479.62	12964.23
479.80	12950.18
479.98	13184.24
480.16	13275.52
480.34	13488.51
480.52	13184.24
480.70	13373.82
480.88	13577.45
481.06	13385.52
481.24	13806.82
481.41	13881.72
481.59	14068.96
481.77	14139.18
481.95	14391.95
482.13	14256.20
482.31	14281.95
482.49	14719.63
482.67	14710.27
482.85	14700.90
483.03	14984.11
483.21	14998.15
483.39	14883.47
483.57	15286.04
483.74	15316.47
483.92	15419.45
484.10	15229.87
484.28	15438.17
484.46	15763.51
484.64	16229.27
484.82	15880.53
485.00	15997.56
485.18	16046.71
485.35	16100.55
485.53	15868.83
485.71	16081.82
485.89	16360.34
486.07	16449.28
486.25	16264.38
486.43	17043.78
486.61	16783.98
486.78	17153.79
486.96	17186.55
487.14	17298.90
487.32	17537.63
487.50	17554.02
487.68	17570.40
487.85	18263.20
488.03	18139.15
488.21	18230.43
488.39	18607.26
488.57	18450.44
488.75	18630.66
488.92	18733.65
489.10	19360.91
489.28	18838.97
489.46	19225.16
489.64	19274.31
489.81	19499.00
489.99	19606.67
490.17	19599.65
490.35	19672.20
490.53	20203.50
490.70	20077.12
490.88	20159.03
491.06	20112.22
491.24	20437.56
491.41	20205.84
491.59	20428.20
491.77	20533.52
491.95	20695.02
492.13	21125.68
492.30	21427.60
492.48	21284.83
492.66	21179.51
492.84	21331.64
493.01	21671.02
493.19	21373.77
493.37	22108.70
493.54	22064.23
493.72	22312.33
493.90	22164.87
494.08	22771.07
494.25	22424.67
494.43	22852.99
494.61	22960.66
494.79	23159.60
494.96	23227.48
495.14	22824.90
495.32	23353.87
495.49	23276.63
495.67	23541.11
495.85	23658.14
496.02	23931.98
496.20	24159.01
496.38	24350.93
496.55	24210.50
496.73	24629.46
496.91	24364.98
497.09	24559.24
497.26	24554.56
497.44	24709.04
497.62	24615.41
497.79	24760.53
497.97	24341.57
498.14	25043.73
498.32	25425.24
498.50	25385.45
498.67	25415.88
498.85	25921.43
499.03	25699.08
499.20	25998.67
499.38	25710.78
499.56	25965.90
499.73	26167.19
499.91	26047.82
500.08	26134.42
500.26	26171.87
500.44	26228.04
500.61	26490.18
500.79	26361.45
500.97	26457.42
501.14	26972.33
501.32	27080.00
501.49	26897.44
501.67	26766.37
501.84	26803.82
502.02	26834.24
502.20	27307.03
502.37	27751.73
502.55	27222.77
502.72	27742.37
502.90	27857.06
503.07	27615.98
503.25	27571.51
503.43	27896.85
503.60	27672.15
503.78	27899.19
503.95	27873.44
504.13	28067.70
504.30	28411.76
504.48	28500.70
504.65	28500.70
504.83	28388.36
505.01	28374.31
505.18	28479.64
505.36	29259.04
505.53	29123.29
505.71	29127.97
505.88	29497.77
506.06	29156.05
506.23	29429.90
506.41	29041.37
506.58	29759.91
506.76	29504.79
506.93	29813.74
507.11	29560.97
507.28	29773.95
507.46	29832.47
507.63	29668.63
507.81	29600.76
507.98	29544.58
508.16	30110.99
508.33	30230.36
508.50	29841.83
508.68	30529.95
508.85	30780.39
509.03	30569.74
509.20	30515.90
509.38	30913.80
509.55	30869.33
509.73	31096.36
509.90	31211.04
510.08	30909.11
510.25	30941.88
510.42	31117.42
510.60	31290.62
510.77	31494.25
510.95	31641.70
511.12	31428.71
511.30	32217.47
511.47	32297.05
511.64	32294.71
511.82	32215.13
511.99	31625.32
512.17	32259.60
512.34	32222.16
512.51	32762.82
512.69	32521.74
512.86	32594.30
513.04	32119.17
513.21	32730.05
513.38	32769.84
513.56	32327.48
513.73	32198.75
513.90	32481.95
514.08	32830.69
514.25	32797.93
514.43	33237.95
514.60	32929.00
514.77	33113.90
514.95	33593.71
515.12	32992.19
515.29	32933.68
515.47	33663.93
515.64	33888.62
515.81	33237.95
515.99	33336.25
516.16	33296.46
516.33	33216.88
516.51	33308.16
516.68	32989.85
516.85	32851.76
517.03	33261.35
517.20	33614.77
517.37	33743.50
517.54	34272.46
517.72	33998.62
517.89	34148.42
518.06	33865.21
518.24	33731.80
518.41	34227.99
518.58	34319.28
518.75	34204.59
518.93	34913.77
519.10	34204.59
519.27	34515.88
519.45	35068.25
519.62	35484.86
519.79	34745.25
519.96	35110.38
520.14	35255.49
520.31	35091.65
520.48	35658.06
520.65	35393.58
520.83	36025.53
521.00	35896.80
521.17	35578.48
521.34	35892.12
521.52	35990.42
521.69	35812.54
521.86	36023.19
522.03	36151.91
522.20	36189.36
522.38	36224.47
522.55	36273.62
522.72	36027.87
522.89	36561.51
523.07	36615.34
523.24	36240.86
523.41	36538.10
523.58	36582.57
523.75	36807.26
523.92	36809.61
524.10	37160.69
524.27	37055.36
524.44	37146.64
524.61	36863.44
524.78	37146.64
524.96	37546.87
525.13	37273.03
525.30	37544.53
525.47	37769.22
525.64	37170.05
525.81	37612.41
525.98	37106.85
526.16	36882.16
526.33	37060.04
526.50	37221.54
526.67	36938.33
526.84	37123.24
527.01	37118.56
527.18	37067.06
527.36	38012.64
527.53	37902.64
527.70	38705.44
527.87	37982.21
528.04	38260.74
528.21	38132.01
528.38	38401.17
528.55	38408.19
528.72	38024.34
528.89	39021.41
529.07	38918.43
529.24	38359.04
529.41	38792.04
529.58	38408.19
529.75	38693.74
529.92	38747.57
530.09	38796.72
530.26	38918.43
530.43	39023.75
530.60	38738.21
530.77	38803.74
530.94	39536.33
531.11	39136.10
531.28	39218.02
531.46	39655.70
531.63	39482.50
531.80	39367.81
531.97	39093.97
532.14	39110.35
532.31	39400.58
532.48	39171.21
532.65	39487.18
532.82	39379.51
532.99	39761.02
533.16	39510.58
533.33	39484.84
533.50	39651.02
533.67	39721.23
533.84	39962.31
534.01	39569.10
534.18	39770.38
534.35	40065.29
534.52	39838.26
534.69	40385.94
534.86	40517.01
535.03	40533.40
535.20	40430.41
535.37	40697.24
535.54	40730.00
535.71	40493.61
535.88	40591.91
536.05	40058.27
536.22	40493.61
536.38	40327.43
536.55	40617.66
536.72	40329.77
536.89	40236.15
537.06	40460.84
537.23	40699.58
537.40	40664.47
537.57	40739.36
537.74	40926.61
537.91	41254.28
538.08	41301.09
538.25	40584.89
538.42	40823.62
538.59	40835.33
538.75	40807.24
538.92	41256.62
539.09	41177.04
539.26	41497.70
539.43	41340.88
539.60	41298.75
539.77	41261.30
539.94	41200.45
540.11	40973.42
540.28	41296.41
540.44	41343.22
540.61	41350.24
540.78	41312.80
540.95	41596.00
541.12	41146.62
541.29	41600.68
541.46	41764.52
541.62	41394.71
541.79	41741.11
541.96	41336.20
542.13	41453.23
542.30	41659.20
542.47	41677.92
542.63	41701.32
542.80	42223.26
542.97	42253.69
543.14	42644.56
543.31	42567.32
543.48	42579.03
543.64	42810.74
543.81	42923.08
543.98	42988.62
544.15	42157.73
544.32	42644.56
544.48	42621.16
544.65	42873.93
544.82	42878.61
544.99	42464.34
545.16	43171.18
545.32	42663.28
545.49	42990.96
545.66	43133.73
545.83	43136.07
546.00	43510.56
546.16	43445.02
546.33	42782.65
546.50	42684.35
546.67	43157.14
546.83	42838.83
547.00	42993.30
547.17	43077.56
547.34	43054.15
547.50	43440.34
547.67	43632.27
547.84	43225.01
548.00	43136.07
548.17	43650.99
548.34	43697.80
548.51	43908.45
548.67	43306.93
548.84	43557.37
549.01	43606.52
549.18	43082.24
549.34	43948.24
549.51	43580.78
549.68	43571.41
549.84	43819.51
550.01	44002.07
550.18	43892.07
550.34	43503.54
550.51	43999.73
550.68	43945.90
550.84	43335.02
551.01	43985.69
551.18	43812.49
551.34	43620.56
551.51	44217.40
551.68	44201.02
551.84	44114.42
552.01	44119.10
552.18	44278.25
552.34	44210.38
552.51	44308.68
552.68	44142.50
552.84	44369.54
553.01	44170.59
553.18	43983.35
553.34	44170.59
553.51	44315.70
553.67	44067.61
553.84	44479.54
554.01	44760.40
554.17	44622.31
554.34	44252.51
554.51	44692.53
554.67	44774.45
554.84	44776.79
555.00	44697.21
555.17	44362.51
555.33	44760.40
555.50	44847.00
555.67	44280.60
555.83	44872.75
556.00	44418.69
556.16	44790.83
556.33	44713.59
556.50	44357.83
556.66	44900.84
556.83	44442.09
556.99	45219.15
557.16	44924.24
557.32	45195.74
557.49	45057.65
557.65	44760.40
557.82	44612.95
557.98	44804.88
558.15	45057.65
558.32	45048.29
558.48	44919.56
558.65	45291.71
558.81	44940.63
558.98	45024.89
559.14	45577.25
559.31	44903.18
559.47	44924.24
559.64	45216.81
559.80	45132.55
559.97	45008.50
560.13	45322.13
560.30	45570.23
560.46	45322.13
560.63	45294.05
560.79	45638.11
560.96	45954.08
561.12	45741.09
561.29	45925.99
561.45	45371.28
561.61	45528.10
561.78	45434.48
561.94	45296.39
562.11	45092.76
562.27	45291.71
562.44	45219.15
562.60	45535.12
562.77	45439.16
562.93	45378.31
563.10	45593.64
563.26	45539.80
563.42	45703.64
563.59	45865.14
563.75	45427.46
563.92	45944.72
564.08	46043.02
564.24	45633.42
564.41	45631.08
564.57	45963.44
564.74	45567.89
564.90	45734.07
565.07	45673.21
565.23	45691.94
565.39	45593.64
565.56	45998.55
565.72	45635.77
565.88	45539.80
566.05	45436.82
566.21	45556.19
566.38	45502.35
566.54	45748.11
566.70	45792.58
566.87	45677.90
567.03	45970.46
567.19	45799.60
567.36	46333.24
567.52	46040.68
567.68	46302.82
567.85	45537.46
568.01	45574.91
568.17	45457.88
568.34	46075.79
568.50	45755.13
568.66	45951.74
568.83	45825.35
568.99	45930.67
569.15	45996.21
569.32	45853.44
569.48	45752.79
569.64	45652.15
569.81	46005.57
569.97	45708.32
570.13	45909.61
570.30	45595.98
570.46	45844.07
570.62	45488.31
570.78	45619.38
570.95	45457.88
571.11	46234.94
571.27	46223.24
571.43	45930.67
571.60	45879.18
571.76	45930.67
571.92	45858.12
572.09	45759.81
572.25	46209.20
572.41	45989.19
572.57	46155.36
572.74	46471.34
572.90	45687.26
573.06	46237.28
573.22	45944.72
573.38	46089.83
573.55	46036.00
573.71	46600.07
573.87	45888.54
574.03	45940.04
574.20	45972.80
574.36	45937.69
574.52	46476.02
574.68	46010.25
574.84	46082.81
575.01	46553.26
575.17	45867.48
575.33	45921.31
575.49	45867.48
575.65	46094.51
575.82	46363.67
575.98	45750.45
576.14	46223.24
576.30	46141.32
576.46	45916.63
576.62	46185.79
576.79	46220.90
576.95	45947.06
577.11	46216.22
577.27	45968.12
577.43	46284.09
577.59	46096.85
577.75	46248.99
577.92	45720.02
578.08	45989.19
578.24	45830.03
578.40	45794.92
578.56	45881.52
578.72	45588.95
578.88	46431.55
579.04	46164.73
579.21	46197.49
579.37	46272.39
579.53	46071.10
579.69	46014.93
579.85	46129.62
580.01	46351.97
580.17	46071.10
580.33	46110.89
580.49	46120.26
580.65	46192.81
580.82	46171.75
580.98	45631.08
581.14	45900.25
581.30	46316.86
581.46	46134.30
581.62	46216.22
581.78	46036.00
581.94	46913.70
582.10	45895.56
582.26	45874.50
582.42	46335.59
582.58	46169.41
582.74	45977.48
582.90	46043.02
583.06	46251.33
583.22	46384.74
583.38	46347.29
583.54	46279.41
583.70	46195.15
583.86	46017.27
584.02	46300.48
584.18	46424.53
584.34	46260.69
584.50	46398.78
584.66	46433.89
584.82	45914.29
584.98	46209.20
585.14	46174.09
585.30	45783.22
585.46	46160.05
585.62	46256.01
585.78	46267.71
585.94	46103.87
586.10	46181.11
586.26	46532.19
586.42	46461.97
586.58	46103.87
586.74	46394.10
586.90	46541.55
587.06	46330.90
587.22	46209.20
587.38	45965.78
587.54	46426.87
587.70	46155.36
587.86	46583.68
588.02	46817.74
588.18	46925.40
588.34	46286.43
588.49	45996.21
588.65	45897.91
588.81	45834.71
588.97	46117.92
589.13	45663.85
589.29	46291.12
589.45	46059.40
589.61	46358.99
589.77	46323.88
589.93	46525.17
