SpectraSuite Data File
++++++++++++++++++++++++++++++++++++
Date: Fri Oct 25 10:47:03 EDT 2013
User: price-jones
Dark Spectrum Present: No
Reference Spectrum Present: No
Number of Sampled Component Spectra: 1
Spectrometers: USB2+H05261
Integration Time (usec): 100000 (USB2+H05261)
Spectra Averaged: 1 (USB2+H05261)
Boxcar Smoothing: 0 (USB2+H05261)
Correct for Electrical Dark: No (USB2+H05261)
Strobe/Lamp Enabled: No (USB2+H05261)
Correct for Detector Non-linearity: No (USB2+H05261)
Correct for Stray Light: No (USB2+H05261)
Number of Pixels in Processed Spectrum: 2048
>>>>>Begin Processed Spectral Data<<<<<
365.73	95.96
365.92	95.96
366.12	95.96
366.32	0.00
366.52	42.13
366.72	49.15
366.91	0.00
367.11	32.77
367.31	105.32
367.51	18.72
367.70	56.17
367.90	4.68
368.10	30.43
368.30	0.00
368.49	72.56
368.69	110.01
368.89	35.11
369.09	46.81
369.28	91.28
369.48	51.49
369.68	191.92
369.87	86.60
370.07	126.39
370.27	72.56
370.47	159.16
370.66	367.46
370.86	402.57
371.06	477.47
371.25	444.70
371.45	437.68
371.65	496.19
371.84	421.30
372.04	477.47
372.24	397.89
372.44	519.60
372.63	547.69
372.83	498.53
373.03	454.06
373.22	482.15
373.42	468.11
373.62	533.64
373.81	486.83
374.01	603.86
374.21	564.07
374.40	510.24
374.60	587.47
374.79	514.92
374.99	531.30
375.19	608.54
375.38	585.13
375.58	587.47
375.78	521.94
375.97	648.33
376.17	603.86
376.37	662.37
376.56	650.67
376.76	606.20
376.95	653.01
377.15	634.29
377.35	606.20
377.54	648.33
377.74	660.03
377.93	561.73
378.13	643.65
378.33	641.31
378.52	624.92
378.72	573.43
378.91	575.77
379.11	606.20
379.31	674.07
379.50	608.54
379.70	629.60
379.89	699.82
380.09	624.92
380.28	641.31
380.48	610.88
380.68	643.65
380.87	685.78
381.07	669.39
381.26	685.78
381.46	669.39
381.65	681.10
381.85	713.86
382.04	702.16
382.24	704.50
382.43	711.52
382.63	594.50
382.83	681.10
383.02	655.35
383.22	737.27
383.41	678.76
383.61	631.94
383.80	779.40
384.00	770.04
384.19	678.76
384.39	720.88
384.58	807.48
384.78	767.70
384.97	772.38
385.17	772.38
385.36	800.46
385.56	748.97
385.75	744.29
385.95	716.20
386.14	767.70
386.34	720.88
386.53	849.61
386.72	760.67
386.92	812.17
387.11	802.80
387.31	814.51
387.50	781.74
387.70	870.68
387.89	889.40
388.09	882.38
388.28	917.49
388.48	898.77
388.67	791.10
388.86	947.92
389.06	849.61
389.25	950.26
389.45	912.81
389.64	908.13
389.84	945.58
390.03	938.55
390.22	912.81
390.42	954.94
390.61	980.68
390.81	1041.54
391.00	910.47
391.19	858.98
391.39	964.30
391.58	1069.62
391.78	1027.50
391.97	1022.81
392.16	943.24
392.36	1008.77
392.55	957.28
392.75	896.43
392.94	938.55
393.13	1027.50
393.33	1041.54
393.52	959.62
393.71	1013.45
393.91	1104.73
394.10	1142.18
394.29	1123.46
394.49	1053.24
394.68	1100.05
394.88	1034.52
395.07	1181.97
395.26	1184.31
395.46	1135.16
395.65	1153.88
395.84	1149.20
396.04	1205.38
396.23	1130.48
396.42	1123.46
396.62	1022.81
396.81	1039.20
397.00	1163.25
397.19	1191.33
397.39	1263.89
397.58	1207.72
397.77	1231.12
397.97	1273.25
398.16	1336.45
398.35	1329.42
398.55	1240.48
398.74	1338.79
398.93	1394.96
399.12	1233.46
399.32	1385.60
399.51	1397.30
399.70	1455.81
399.90	1324.74
400.09	1362.19
400.28	1458.15
400.47	1378.58
400.67	1385.60
400.86	1441.77
401.05	1472.20
401.24	1549.43
401.44	1519.01
401.63	1502.62
401.82	1584.54
402.01	1523.69
402.21	1544.75
402.40	1640.72
402.59	1575.18
402.78	1619.65
402.97	1680.50
403.17	1657.10
403.36	1626.67
403.55	1694.55
403.74	1729.66
403.93	1748.38
404.13	1612.63
404.32	1643.06
404.51	1727.32
404.70	1799.87
404.89	1750.72
405.09	1743.70
405.28	1802.21
405.47	1727.32
405.66	1818.60
405.85	1834.98
406.05	1750.72
406.24	1905.20
406.43	1816.26
406.62	1881.79
406.81	1820.94
407.00	1736.68
407.20	1785.83
407.39	1902.86
407.58	1961.37
407.77	1984.77
407.96	1961.37
408.15	1952.01
408.34	1996.48
408.54	2054.99
408.73	2008.18
408.92	2136.91
409.11	2101.80
409.30	2083.08
409.49	2052.65
409.68	2097.12
409.87	2172.02
410.07	2113.50
410.26	2291.38
410.45	2260.96
410.64	2015.20
410.83	2190.74
411.02	2314.79
411.21	2356.92
411.40	2342.88
411.59	2267.98
411.78	2382.67
411.98	2363.94
412.17	2464.58
412.36	2375.64
412.55	2462.24
412.74	2576.93
412.93	2462.24
413.12	2424.80
413.31	2593.31
413.50	2506.71
413.69	2560.55
413.88	2555.86
414.07	2726.72
414.26	2750.13
414.45	2675.23
414.64	2686.94
414.83	2640.12
415.02	2871.84
415.22	2789.92
415.41	2843.75
415.60	2846.09
415.79	2736.09
415.98	2979.50
416.17	2946.73
416.36	3021.63
416.55	2942.05
416.74	2949.08
416.93	2918.65
417.12	3042.70
417.31	3042.70
417.50	3021.63
417.69	3042.70
417.88	3185.47
418.07	3073.12
418.26	3262.71
418.45	3056.74
418.64	3199.51
418.83	3253.34
419.02	3183.13
419.21	3159.72
419.39	3288.45
419.58	3220.58
419.77	3276.75
419.96	3389.10
420.15	3335.26
420.34	3208.87
420.53	3302.50
420.72	3328.24
420.91	3332.92
421.10	3562.30
421.29	3431.23
421.48	3463.99
421.67	3421.86
421.86	3471.01
422.05	3583.36
422.24	3485.06
422.43	3524.85
422.61	3489.74
422.80	3559.95
422.99	3599.74
423.18	3501.44
423.37	3574.00
423.56	3667.62
423.75	3524.85
423.94	3494.42
424.13	3384.41
424.32	3531.87
424.50	3609.11
424.69	3684.00
424.88	3674.64
425.07	3648.90
425.26	3602.08
425.45	3620.81
425.64	3665.28
425.83	3588.04
426.01	3791.67
426.20	3758.90
426.39	3679.32
426.58	3651.24
426.77	3665.28
426.96	3726.13
427.15	3651.24
427.33	3770.60
427.52	3684.00
427.71	3927.42
427.90	3765.92
428.09	3772.94
428.28	4035.08
428.46	3885.29
428.65	3861.88
428.84	4079.55
429.03	4035.08
429.22	3812.73
429.40	3852.52
429.59	4014.02
429.78	3686.34
429.97	3742.52
430.16	3791.67
430.34	3861.88
430.53	3978.91
430.72	3892.31
430.91	4025.72
431.10	4023.38
431.28	4180.20
431.47	4196.58
431.66	4210.62
431.85	4107.64
432.03	4325.31
432.22	4306.59
432.41	4301.90
432.60	4344.03
432.79	4294.88
432.97	4287.86
433.16	4264.46
433.35	4294.88
433.54	4449.36
433.72	4269.14
433.91	4154.45
434.10	4545.32
434.28	4355.74
434.47	4526.60
434.66	4472.76
434.85	4594.47
435.03	4395.53
435.22	4603.83
435.41	4697.46
435.59	4521.92
435.78	4643.62
435.97	4578.09
436.16	4788.74
436.34	4636.60
436.53	4713.84
436.72	4805.12
436.90	4755.97
437.09	4697.46
437.28	4627.24
437.46	4704.48
437.65	4809.80
437.84	4936.19
438.02	4833.21
438.21	4851.93
438.40	4793.42
438.58	4968.96
438.77	5018.11
438.96	4975.98
439.14	5048.54
439.33	5039.17
439.52	5191.31
439.70	5298.97
439.89	5228.76
440.08	5179.61
440.26	5310.68
440.45	5273.23
440.63	5334.08
440.82	5556.43
441.01	5547.07
441.19	5504.94
441.38	5490.90
441.57	5582.18
441.75	5743.67
441.94	5636.01
442.12	5701.54
442.31	5767.08
442.50	5919.21
442.68	5729.63
442.87	5851.34
443.05	5764.74
443.24	5935.60
443.43	5912.19
443.61	5912.19
443.80	5977.73
443.98	5804.53
444.17	5572.82
444.35	5989.43
444.54	6155.61
444.73	5942.62
444.91	6054.97
445.10	5959.00
445.28	5937.94
445.47	5933.26
445.65	5994.11
445.84	6118.16
446.02	6040.92
446.21	6076.03
446.39	6047.94
446.58	6071.35
446.77	6073.69
446.95	6022.20
447.14	6026.88
447.32	6270.30
447.51	6157.95
447.69	6125.18
447.88	6120.50
448.06	6083.05
448.25	6265.61
448.43	6232.85
448.62	6069.01
448.80	6094.76
448.99	6399.02
449.17	6370.94
449.36	6174.33
449.54	6258.59
449.73	6352.21
449.91	6567.54
450.10	6581.59
450.28	6530.09
450.46	6502.01
450.65	6480.94
450.83	6623.72
451.02	6494.99
451.20	6476.26
451.39	6534.78
451.57	6569.88
451.76	6525.41
451.94	6600.31
452.13	6633.08
452.31	6696.27
452.49	6581.59
452.68	6712.66
452.86	6600.31
453.05	6747.76
453.23	6684.57
453.42	6544.14
453.60	6684.57
453.78	6892.88
453.97	6846.07
454.15	6808.62
454.34	6693.93
454.52	6848.41
454.70	6927.99
454.89	6909.26
455.07	6974.80
455.26	7077.78
455.44	7096.50
455.62	7026.29
455.81	7007.56
455.99	7194.81
456.17	7133.95
456.36	6930.33
456.54	7267.36
456.73	7192.47
456.91	7358.64
457.09	7353.96
457.28	7564.61
457.46	7351.62
457.64	7396.09
457.83	7269.70
458.01	7463.97
458.19	7576.31
458.38	7478.01
458.56	7609.08
458.74	7590.36
458.93	7545.89
459.11	7590.36
459.29	7627.81
459.48	7709.72
459.66	7573.97
459.84	7822.07
460.03	7756.54
460.21	7754.19
460.39	7878.24
460.57	7777.60
460.76	8088.89
460.94	7878.24
461.12	7850.16
461.31	8032.72
461.49	7990.59
461.67	7875.90
461.85	8081.87
462.04	8098.25
462.22	8533.59
462.40	8219.96
462.59	8194.22
462.77	8255.07
462.95	8152.09
463.13	8250.39
463.32	8313.58
463.50	8402.52
463.68	8358.05
463.86	8271.45
464.05	8266.77
464.23	8180.17
464.41	8580.40
464.59	8243.37
464.78	8456.36
464.96	8486.78
465.14	8414.23
465.32	8517.21
465.50	8353.37
465.69	8615.51
465.87	8390.82
466.05	8571.04
466.23	8439.97
466.41	8542.96
466.60	8807.44
466.78	8470.40
466.96	8610.83
467.14	8439.97
467.32	8695.09
467.51	8629.56
467.69	8669.34
467.87	8737.22
468.05	8571.04
468.23	8786.37
468.41	8704.45
468.60	8585.08
468.78	8781.69
468.96	8952.55
469.14	8819.14
469.32	8975.95
469.50	8676.37
469.69	8938.51
469.87	9076.60
470.05	9100.00
470.23	9092.98
470.41	9071.92
470.59	9252.14
470.77	9167.88
470.95	9217.03
471.14	9341.08
471.32	9242.78
471.50	9525.98
471.68	9446.40
471.86	9610.24
472.04	9486.19
472.22	9755.35
472.40	9556.41
472.58	9439.38
472.77	9455.76
472.95	9741.31
473.13	9949.62
473.31	9825.57
473.49	9778.76
473.67	9771.74
473.85	10005.79
474.03	10174.31
474.21	9879.40
474.39	10286.65
474.57	10054.94
474.75	10349.85
474.93	10370.91
475.12	10305.38
475.30	10530.07
475.48	10516.03
475.66	10478.58
475.84	10338.15
476.02	10754.76
476.20	10705.61
476.38	10696.25
476.56	10916.26
476.74	10820.30
476.92	10785.19
477.10	11129.25
477.28	10995.84
477.46	10860.09
477.64	11468.62
477.82	11522.46
478.00	11604.38
478.18	11344.58
478.36	11506.07
478.54	11550.54
478.72	11871.20
478.90	11847.79
479.08	12128.66
479.26	12072.48
479.44	12201.21
479.62	12131.00
479.80	12379.09
479.98	12404.84
480.16	12463.35
480.34	12718.47
480.52	12896.35
480.70	12709.11
480.88	12659.96
481.06	12819.11
481.24	13144.45
481.41	13233.39
481.59	13303.60
481.77	13261.48
481.95	13315.31
482.13	13652.34
482.31	13366.80
482.49	13748.31
482.67	14061.94
482.85	13942.57
483.03	13898.10
483.21	14141.52
483.39	13942.57
483.57	14246.84
483.74	14637.71
483.92	14448.13
484.10	14464.51
484.28	15014.54
484.46	15042.62
484.64	15328.17
484.82	14670.48
485.00	15009.86
485.18	15239.23
485.35	15419.45
485.53	14925.60
485.71	15227.53
485.89	15559.88
486.07	15335.19
486.25	15712.02
486.43	15957.77
486.61	15889.90
486.78	16355.66
486.96	16285.45
487.14	16500.78
487.32	16285.45
487.50	16645.89
487.68	16748.87
487.85	17099.95
488.03	17565.72
488.21	17135.06
488.39	17036.76
488.57	17411.25
488.75	17638.28
488.92	17706.15
489.10	18171.92
489.28	18263.20
489.46	18354.48
489.64	18314.69
489.81	18801.52
489.99	18586.19
490.17	18735.99
490.35	19124.52
490.53	18977.06
490.70	19204.10
490.88	18977.06
491.06	19389.00
491.24	19351.55
491.41	19300.06
491.59	19461.55
491.77	19438.15
491.95	19814.98
492.13	20170.74
492.30	20098.18
492.48	20386.07
492.66	20484.37
492.84	20507.77
493.01	20772.25
493.19	20517.14
493.37	20802.68
493.54	20730.12
493.72	21198.23
493.90	20886.94
494.08	21579.74
494.25	21577.40
494.43	21532.93
494.61	21624.21
494.79	22249.13
494.96	21841.88
495.14	21916.78
495.32	22408.29
495.49	22057.21
495.67	22256.15
495.85	22632.98
496.02	22464.46
496.20	22810.86
496.38	22991.08
496.55	22883.42
496.73	23264.92
496.91	23047.26
497.09	23300.03
497.26	23412.38
497.44	23304.71
497.62	23672.18
497.79	23828.99
497.97	23536.43
498.14	24168.37
498.32	23859.42
498.50	24219.86
498.67	24603.71
498.85	24437.53
499.03	24587.33
499.20	24474.98
499.38	24692.65
499.56	24964.15
499.73	24687.97
499.91	24800.32
500.08	25343.32
500.26	25029.69
500.44	25184.16
500.61	25170.12
500.79	25116.29
500.97	25207.57
501.14	25621.84
501.32	25963.56
501.49	25694.40
501.67	25715.47
501.84	25935.48
502.02	25507.16
502.20	25872.28
502.37	26206.98
502.55	26038.46
502.72	26106.34
502.90	26368.48
503.07	26321.66
503.25	26405.92
503.43	26342.73
503.60	26808.50
503.78	26707.85
503.95	26536.99
504.13	26752.32
504.30	26771.05
504.48	27016.80
504.65	27014.46
504.83	27122.13
505.01	27449.80
505.18	27257.88
505.36	27786.84
505.53	27733.01
505.71	27840.67
505.88	27988.13
506.06	27583.21
506.23	28002.17
506.41	28009.19
506.58	27903.87
506.76	27967.06
506.93	28381.34
507.11	28018.55
507.28	28458.57
507.46	28334.53
507.63	28458.57
507.81	28601.35
507.98	28631.77
508.16	28811.99
508.33	28425.81
508.50	29039.03
508.68	29078.82
508.85	29518.84
509.03	29418.19
509.20	29551.60
509.38	29113.92
509.55	29371.38
509.73	29411.17
509.90	29380.74
510.08	29586.71
510.25	29652.25
510.42	29820.77
510.60	29890.98
510.77	30134.40
510.95	30501.86
511.12	30157.80
511.30	30361.43
511.47	30721.87
511.64	30590.80
511.82	30536.97
511.99	30478.46
512.17	30476.12
512.34	30515.90
512.51	30890.39
512.69	31122.10
512.86	30923.16
513.04	31002.74
513.21	31117.42
513.38	31175.94
513.56	31274.24
513.73	31269.56
513.90	31321.05
514.08	31557.44
514.25	31501.27
514.43	31398.29
514.60	31398.29
514.77	31683.83
514.95	31637.02
515.12	31707.24
515.29	31852.35
515.47	32149.60
515.64	32369.61
515.81	32126.19
515.99	31679.15
516.16	32126.19
516.33	32091.09
516.51	32418.76
516.68	31522.34
516.85	31885.12
517.03	32173.00
517.20	32191.73
517.37	32559.19
517.54	32882.19
517.72	32556.85
517.89	32481.95
518.06	32610.68
518.24	32751.12
518.41	32500.68
518.58	32790.91
518.75	32921.98
518.93	33050.70
519.10	33401.79
519.27	33277.74
519.45	33645.20
519.62	33869.89
519.79	33357.32
519.96	33579.67
520.14	33853.51
520.31	33862.87
520.48	33886.28
520.65	33909.68
520.83	33940.11
521.00	34064.16
521.17	34195.23
521.34	34026.71
521.52	34087.56
521.69	34717.17
521.86	34457.37
522.03	34576.73
522.20	34604.82
522.38	34611.84
522.55	34731.21
522.72	34881.00
522.89	34792.06
523.07	35199.32
523.24	34677.38
523.41	35033.14
523.58	34574.39
523.75	35608.91
523.92	35201.66
524.10	35704.87
524.27	35194.64
524.44	35129.10
524.61	35339.75
524.78	35379.54
524.96	35552.74
525.13	36060.63
525.30	36208.09
525.47	36109.78
525.64	36055.95
525.81	36020.84
525.98	35821.90
526.16	35641.68
526.33	35660.40
526.50	35992.76
526.67	35817.22
526.84	35505.93
527.01	35700.19
527.18	35758.70
527.36	36369.58
527.53	36465.55
527.70	36807.26
527.87	36751.09
528.04	36339.16
528.21	36919.61
528.38	36486.61
528.55	36886.84
528.72	36959.40
528.89	37469.64
529.07	37256.65
529.24	36999.19
529.41	37067.06
529.58	36687.90
529.75	37350.27
529.92	37310.48
530.09	37050.68
530.26	37287.07
530.43	37743.48
530.60	37425.17
530.77	37504.74
530.94	37668.58
531.11	37872.21
531.28	37605.39
531.46	37858.17
531.63	38244.35
531.80	37904.98
531.97	37380.70
532.14	37392.40
532.31	37855.82
532.48	38405.85
532.65	37897.95
532.82	37663.90
532.99	38630.54
533.16	37919.02
533.33	38071.15
533.50	37764.54
533.67	38300.53
533.84	38211.59
534.01	38625.86
534.18	38354.36
534.35	38672.67
534.52	38817.78
534.69	38698.42
534.86	38588.41
535.03	38518.20
535.20	38820.13
535.37	39363.13
535.54	39255.46
535.71	38630.54
535.88	38656.29
536.05	38890.34
536.22	39210.99
536.38	39054.18
536.55	39346.75
536.72	38897.36
536.89	38682.03
537.06	39232.06
537.23	39206.31
537.40	39318.66
537.57	39281.21
537.74	39447.39
537.91	40020.82
538.08	39700.17
538.25	39515.26
538.42	39559.73
538.59	39924.86
538.75	39349.09
538.92	39735.27
539.09	39583.14
539.26	39807.83
539.43	40025.50
539.60	39775.06
539.77	39772.72
539.94	39945.92
540.11	39611.23
540.28	39957.63
540.44	40158.91
540.61	40149.55
540.78	40025.50
540.95	40020.82
541.12	39775.06
541.29	39892.09
541.46	40418.71
541.62	40177.64
541.79	40301.68
541.96	39999.76
542.13	40477.22
542.30	40645.74
542.47	40755.75
542.63	40765.11
542.80	40346.15
542.97	40657.45
543.14	41050.66
543.31	40957.03
543.48	40912.56
543.64	41572.60
543.81	41151.30
543.98	41088.10
544.15	41095.13
544.32	41698.98
544.48	41904.95
544.65	41338.54
544.82	40910.22
544.99	41195.77
545.16	41535.15
545.32	41261.30
545.49	41174.70
545.66	41647.49
545.83	41628.77
546.00	41689.62
546.16	41574.94
546.33	41481.31
546.50	41380.67
546.67	41546.85
546.83	41181.73
547.00	41553.87
547.17	41317.48
547.34	41621.75
547.50	41766.86
547.67	42223.26
547.84	41907.29
548.00	41879.21
548.17	42373.06
548.34	42527.53
548.51	42223.26
548.67	42153.05
548.84	42351.99
549.01	42471.36
549.18	42162.41
549.34	42225.60
549.51	42518.17
549.68	42536.90
549.84	42476.04
550.01	42581.37
550.18	42157.73
550.34	41801.97
550.51	42281.78
550.68	42253.69
550.84	41673.24
551.01	42464.34
551.18	42848.19
551.34	42749.88
551.51	42742.86
551.68	42550.94
551.84	42576.69
552.01	42644.56
552.18	42792.01
552.34	42211.56
552.51	42796.70
552.68	42567.32
552.84	42864.57
553.01	42712.44
553.18	42609.45
553.34	42761.59
553.51	42902.02
553.67	42632.86
553.84	43328.00
554.01	43171.18
554.17	43447.36
554.34	43496.52
554.51	43533.96
554.67	43351.40
554.84	43489.49
555.00	43021.39
555.17	43005.00
555.33	43285.87
555.50	43033.09
555.67	43166.50
555.83	43426.30
556.00	43555.03
556.16	43611.20
556.33	43356.08
556.50	43276.51
556.66	43463.75
556.83	43477.79
556.99	43714.19
557.16	43707.16
557.32	43973.98
557.49	43548.01
557.65	43386.51
557.82	43482.47
557.98	43821.85
558.15	43892.07
558.32	43725.89
558.48	43599.50
558.65	44149.53
558.81	43725.89
558.98	43887.39
559.14	43739.93
559.31	43728.23
559.47	43433.32
559.64	43878.02
559.80	44418.69
559.97	43791.42
560.13	43672.06
560.30	43999.73
560.46	43901.43
560.63	44362.51
560.79	44076.97
560.96	44128.46
561.12	44048.88
561.29	43887.39
561.45	44186.97
561.61	43922.49
561.78	43831.21
561.94	43702.48
562.11	44325.07
562.27	44048.88
562.44	43955.26
562.60	44294.64
562.77	44521.67
562.93	44289.96
563.10	44460.82
563.26	43826.53
563.42	44449.11
563.59	44109.74
563.75	44699.55
563.92	44498.26
564.08	44477.20
564.24	44336.77
564.41	44786.15
564.57	44280.60
564.74	44521.67
564.90	44547.42
565.07	44758.06
565.23	44044.20
565.39	44107.40
565.56	44318.04
565.72	44304.00
565.88	44435.07
566.05	44107.40
566.21	44458.48
566.38	44472.52
566.54	44406.98
566.70	44634.02
566.87	44921.90
567.03	44409.32
567.19	45034.25
567.36	44477.20
567.52	44275.91
567.68	44521.67
567.85	44304.00
568.01	44594.23
568.17	44168.25
568.34	44818.92
568.50	45071.70
568.66	44294.64
568.83	44694.87
568.99	44334.43
569.15	44715.93
569.32	44421.03
569.48	44484.22
569.64	44718.28
569.81	44942.97
569.97	44868.07
570.13	44938.29
570.30	44641.04
570.46	44320.38
570.62	44673.81
570.78	44875.09
570.95	44889.13
571.11	44847.00
571.27	44851.69
571.43	44704.23
571.60	44973.39
571.76	44568.48
571.92	44718.28
572.09	43997.39
572.25	44999.14
572.41	44634.02
572.57	44818.92
572.74	45226.17
572.90	44788.49
573.06	44928.92
573.22	44905.52
573.38	44617.63
573.55	44456.14
573.71	44898.50
573.87	44591.89
574.03	44877.43
574.20	44816.58
574.36	44587.21
574.52	44980.42
574.68	45134.89
574.84	45013.18
575.01	44692.53
575.17	44891.48
575.33	44790.83
575.49	44804.88
575.65	45326.81
575.82	45684.92
575.98	44954.67
576.14	45050.63
576.30	44870.41
576.46	45226.17
576.62	45198.09
576.79	45181.70
576.95	44711.25
577.11	44720.62
577.27	44968.71
577.43	45102.12
577.59	45118.51
577.75	44769.77
577.92	44903.18
578.08	45034.25
578.24	44610.61
578.40	44442.09
578.56	45111.49
578.72	45207.45
578.88	45544.48
579.04	45153.62
579.21	45097.44
579.37	44439.75
579.53	44947.65
579.69	44570.82
579.85	44776.79
580.01	45312.77
580.17	45069.36
580.33	44832.96
580.49	45024.89
580.65	44996.80
580.82	45329.16
580.98	44982.76
581.14	44837.64
581.30	45230.85
581.46	45017.86
581.62	45216.81
581.78	44942.97
581.94	45338.52
582.10	45191.06
582.26	45226.17
582.42	45509.38
582.58	45092.76
582.74	44706.57
582.90	45097.44
583.06	45230.85
583.22	45034.25
583.38	45338.52
583.54	44957.01
583.70	44760.40
583.86	44968.71
584.02	44797.85
584.18	45413.41
584.34	44919.56
584.50	45380.65
584.66	44722.96
584.82	44882.11
584.98	44910.20
585.14	45425.12
585.30	45085.74
585.46	44767.43
585.62	45034.25
585.78	44671.46
585.94	44524.01
586.10	45144.25
586.26	44978.07
586.42	45282.34
586.58	45200.43
586.74	45062.33
586.90	44847.00
587.06	45001.48
587.22	45471.93
587.38	45233.19
587.54	45310.43
587.70	45265.96
587.86	45216.81
588.02	45029.57
588.18	45174.68
588.34	45261.28
588.49	44741.68
588.65	44755.72
588.81	44825.94
588.97	45092.76
589.13	44498.26
589.29	44753.38
589.45	45170.00
589.61	45432.14
589.77	45502.35
589.93	45312.77
590.08	45212.13
590.24	45532.78
