SpectraSuite Data File
++++++++++++++++++++++++++++++++++++
Date: Fri Oct 25 10:43:47 EDT 2013
User: price-jones
Dark Spectrum Present: No
Reference Spectrum Present: No
Number of Sampled Component Spectra: 1
Spectrometers: USB2+H05261
Integration Time (usec): 100000 (USB2+H05261)
Spectra Averaged: 1 (USB2+H05261)
Boxcar Smoothing: 0 (USB2+H05261)
Correct for Electrical Dark: No (USB2+H05261)
Strobe/Lamp Enabled: No (USB2+H05261)
Correct for Detector Non-linearity: No (USB2+H05261)
Correct for Stray Light: No (USB2+H05261)
Number of Pixels in Processed Spectrum: 2048
>>>>>Begin Processed Spectral Data<<<<<
365.73	161.50
365.92	161.50
366.12	161.50
366.32	37.45
366.52	0.00
366.72	23.41
366.91	74.90
367.11	25.75
367.31	93.62
367.51	74.90
367.70	42.13
367.90	98.30
368.10	0.00
368.30	0.00
368.49	25.75
368.69	35.11
368.89	0.00
369.09	16.38
369.28	46.81
369.48	93.62
369.68	124.05
369.87	60.85
370.07	126.39
370.27	161.50
370.47	217.67
370.66	353.42
370.86	372.15
371.06	404.91
371.25	538.32
371.45	456.40
371.65	456.40
371.84	454.06
372.04	383.85
372.24	425.98
372.44	498.53
372.63	531.30
372.83	500.87
373.03	468.11
373.22	479.81
373.42	571.09
373.62	540.66
373.81	456.40
374.01	575.77
374.21	526.62
374.40	601.52
374.60	587.47
374.79	531.30
374.99	503.22
375.19	543.00
375.38	627.26
375.58	585.13
375.78	582.79
375.97	545.34
376.17	645.99
376.37	655.35
376.56	615.56
376.76	608.54
376.95	655.35
377.15	688.12
377.35	636.63
377.54	615.56
377.74	587.47
377.93	631.94
378.13	603.86
378.33	648.33
378.52	704.50
378.72	676.41
378.91	615.56
379.11	655.35
379.31	624.92
379.50	629.60
379.70	755.99
379.89	692.80
380.09	631.94
380.28	627.26
380.48	683.44
380.68	683.44
380.87	732.59
381.07	737.27
381.26	697.48
381.46	706.84
381.65	667.05
381.85	664.71
382.04	702.16
382.24	725.57
382.43	676.41
382.63	774.72
382.83	692.80
383.02	688.12
383.22	828.55
383.41	746.63
383.61	821.53
383.80	746.63
384.00	657.69
384.19	777.06
384.39	793.44
384.58	835.57
384.78	795.78
384.97	800.46
385.17	805.14
385.36	858.98
385.56	777.06
385.75	784.08
385.95	798.12
386.14	833.23
386.34	805.14
386.53	861.32
386.72	781.74
386.92	807.48
387.11	894.08
387.31	795.78
387.50	908.13
387.70	842.59
387.89	894.08
388.09	894.08
388.28	795.78
388.48	880.04
388.67	905.79
388.86	966.64
389.06	931.53
389.25	922.17
389.45	999.41
389.64	964.30
389.84	1041.54
390.03	1086.01
390.22	1013.45
390.42	1041.54
390.61	961.96
390.81	1025.15
391.00	1029.84
391.19	1041.54
391.39	1050.90
391.58	1071.97
391.78	1020.47
391.97	1027.50
392.16	1055.58
392.36	1109.41
392.55	1025.15
392.75	887.06
392.94	1015.79
393.13	952.60
393.33	1022.81
393.52	1011.11
393.71	992.39
393.91	1156.22
394.10	1172.61
394.29	1165.59
394.49	1128.14
394.68	1233.46
394.88	1165.59
395.07	1203.04
395.26	1233.46
395.46	1228.78
395.65	1151.54
395.84	1303.68
396.04	1306.02
396.23	1186.65
396.42	1184.31
396.62	1196.01
396.81	1149.20
397.00	1233.46
397.19	1289.64
397.39	1409.00
397.58	1306.02
397.77	1423.05
397.97	1331.76
398.16	1371.55
398.35	1486.24
398.55	1387.94
398.74	1441.77
398.93	1504.96
399.12	1444.11
399.32	1493.26
399.51	1490.92
399.70	1542.41
399.90	1507.30
400.09	1568.16
400.28	1554.12
400.47	1577.52
400.67	1692.21
400.86	1720.29
401.05	1750.72
401.24	1657.10
401.44	1645.40
401.63	1638.38
401.82	1689.87
402.01	1706.25
402.21	1696.89
402.40	1778.81
402.59	1696.89
402.78	1743.70
402.97	1715.61
403.17	1708.59
403.36	1724.97
403.55	1767.10
403.74	1764.76
403.93	1853.70
404.13	1757.74
404.32	1806.89
404.51	1905.20
404.70	1898.17
404.89	1949.67
405.09	1872.43
405.28	1790.51
405.47	1893.49
405.66	1966.05
405.85	1956.69
406.05	1977.75
406.24	2026.90
406.43	2031.58
406.62	2022.22
406.81	2076.06
407.00	2148.61
407.20	2029.24
407.39	1998.82
407.58	2120.53
407.77	2165.00
407.96	2246.91
408.15	2195.42
408.34	2216.49
408.54	2150.95
408.73	2335.85
408.92	2197.76
409.11	2406.07
409.30	2321.81
409.49	2242.23
409.68	2202.44
409.87	2186.06
410.07	2366.28
410.26	2296.07
410.45	2289.04
410.64	2415.43
410.83	2389.69
411.02	2429.48
411.21	2572.25
411.40	2541.82
411.59	2530.12
411.78	2480.97
411.98	2637.78
412.17	2581.61
412.36	2574.59
412.55	2696.30
412.74	2710.34
412.93	2679.91
413.12	2588.63
413.31	2832.05
413.50	2771.19
413.69	2750.13
413.88	2949.08
414.07	2871.84
414.26	2789.92
414.45	2911.63
414.64	3012.27
414.83	2974.82
415.02	3070.78
415.22	3068.44
415.41	3089.51
415.60	3026.31
415.79	3082.49
415.98	3155.04
416.17	3222.92
416.36	3112.91
416.55	3119.93
416.74	3180.79
416.93	3227.60
417.12	3241.64
417.31	3300.16
417.50	3206.53
417.69	3335.26
417.88	3342.28
418.07	3433.57
418.26	3524.85
418.45	3372.71
418.64	3616.13
418.83	3375.05
419.02	3471.01
419.21	3529.53
419.39	3382.07
419.58	3454.63
419.77	3403.14
419.96	3662.94
420.15	3597.40
420.34	3691.02
420.53	3630.17
420.72	3801.03
420.91	3707.41
421.10	3779.97
421.29	3843.16
421.48	3784.65
421.67	3901.67
421.86	3728.47
422.05	3742.52
422.24	3756.56
422.43	3646.55
422.61	3889.97
422.80	3726.13
422.99	3885.29
423.18	3934.44
423.37	3875.93
423.56	3824.44
423.75	3840.82
423.94	3779.97
424.13	3653.58
424.32	3688.68
424.50	3950.82
424.69	3859.54
424.88	3927.42
425.07	3932.10
425.26	3786.99
425.45	3880.61
425.64	4018.70
425.83	3932.10
426.01	3983.59
426.20	4058.49
426.39	4035.08
426.58	3941.46
426.77	3826.78
426.96	4053.81
427.15	3983.59
427.33	3941.46
427.52	3990.61
427.71	4028.06
427.90	3990.61
428.09	3955.51
428.28	4028.06
428.46	4278.50
428.65	4058.49
428.84	4320.63
429.03	4292.54
429.22	4002.32
429.40	4166.15
429.59	4102.96
429.78	3922.74
429.97	3899.33
430.16	3950.82
430.34	4086.58
430.53	4152.11
430.72	4025.72
430.91	4231.69
431.10	4306.59
431.28	4484.47
431.47	4554.68
431.66	4594.47
431.85	4409.57
432.03	4784.06
432.22	4479.79
432.41	4470.42
432.60	4692.77
432.79	4734.90
432.97	4657.67
433.16	4758.31
433.35	4444.68
433.54	4662.35
433.72	4561.70
433.91	4561.70
434.10	4774.69
434.28	4695.11
434.47	4800.44
434.66	4847.25
434.85	4830.87
435.03	4968.96
435.22	4924.49
435.41	5036.83
435.59	5055.56
435.78	5064.92
435.97	5118.75
436.16	5130.45
436.34	5130.45
436.53	5130.45
436.72	5263.86
436.90	4994.70
437.09	5093.01
437.28	5064.92
437.46	5158.54
437.65	5195.99
437.84	5125.77
438.02	5149.18
438.21	5097.69
438.40	4931.51
438.58	5282.59
438.77	5413.66
438.96	5434.72
439.14	5441.75
439.33	5558.77
439.52	5626.65
439.70	5448.77
439.89	5685.16
440.08	5537.71
440.26	5685.16
440.45	5558.77
440.63	5837.30
440.82	6003.47
441.01	5944.96
441.19	5746.02
441.38	6099.44
441.57	5949.64
441.75	6113.48
441.94	6150.93
442.12	6251.57
442.31	6307.74
442.50	6279.66
442.68	6319.45
442.87	6069.01
443.05	6204.76
443.24	6399.02
443.43	6335.83
443.61	6466.90
443.80	6546.48
443.98	6366.26
444.17	6090.07
444.35	6373.28
444.54	6675.21
444.73	6492.65
444.91	6303.06
445.10	6553.50
445.28	6464.56
445.47	6284.34
445.65	6235.19
445.84	6530.09
446.02	6621.38
446.21	6464.56
446.39	6516.05
446.58	6672.87
446.77	6511.37
446.95	6548.82
447.14	6689.25
447.32	6801.60
447.51	6541.80
447.69	6609.67
447.88	6612.01
448.06	6722.02
448.25	6619.04
448.43	6693.93
448.62	6621.38
448.80	6604.99
448.99	6654.14
449.17	6707.98
449.36	6637.76
449.54	6916.28
449.73	7155.02
449.91	7117.57
450.10	6984.16
450.28	6871.81
450.46	7012.24
450.65	7157.36
450.83	7180.76
451.02	7126.93
451.20	7218.21
451.39	7098.84
451.57	7166.72
451.76	7012.24
451.94	7272.04
452.13	7279.07
452.31	7176.08
452.49	7056.72
452.68	7281.41
452.86	7124.59
453.05	7143.32
453.23	7281.41
453.42	7417.16
453.60	7218.21
453.78	7435.88
453.97	7229.91
454.15	7054.37
454.34	7295.45
454.52	7691.00
454.70	7454.61
454.89	7466.31
455.07	7585.68
455.26	7569.29
455.44	7592.70
455.62	7559.93
455.81	7597.38
455.99	7590.36
456.17	7728.45
456.36	7742.49
456.54	7896.97
456.73	7756.54
456.91	8039.74
457.09	7918.03
457.28	8018.68
457.46	7857.18
457.64	8077.19
457.83	7789.30
458.01	7887.61
458.19	8079.53
458.38	8002.29
458.56	8049.10
458.74	8011.65
458.93	7974.21
459.11	8140.38
459.29	8135.70
459.48	8353.37
459.66	8109.96
459.84	8250.39
460.03	8491.46
460.21	8442.31
460.39	8402.52
460.57	8322.94
460.76	8505.51
460.94	8491.46
461.12	8498.49
461.31	8662.32
461.49	8559.34
461.67	8664.66
461.85	8582.74
462.04	8617.85
462.22	8912.76
462.40	8800.41
462.59	8706.79
462.77	8837.86
462.95	8854.25
463.13	8688.07
463.32	8777.01
463.50	9027.45
463.68	8966.59
463.86	8894.04
464.05	8723.18
464.23	8788.71
464.41	8887.01
464.59	8676.37
464.78	8903.40
464.96	8863.61
465.14	8819.14
465.32	8872.97
465.50	9125.75
465.69	9177.24
465.87	9254.48
466.05	9139.79
466.23	9034.47
466.41	9181.92
466.60	9369.16
466.78	8912.76
466.96	9221.71
467.14	9184.26
467.32	9476.83
467.51	9240.44
467.69	9228.73
467.87	9329.38
468.05	9420.66
468.23	9228.73
468.41	9263.84
468.60	9427.68
468.78	9502.58
468.96	9198.31
469.14	9624.28
469.32	9570.45
469.50	9305.97
469.69	9329.38
469.87	9666.41
470.05	9617.26
470.23	9633.64
470.41	9837.27
470.59	9811.53
470.77	9657.05
470.95	9818.55
471.14	10047.92
471.32	9762.37
471.50	10256.23
471.68	10279.63
471.86	10136.86
472.04	10274.95
472.22	10347.51
472.40	10043.24
472.58	10143.88
472.77	10445.81
472.95	10511.35
473.13	10721.99
473.31	10211.76
473.49	10597.95
473.67	10399.00
473.85	10675.18
474.03	10518.37
474.21	10700.93
474.39	10822.64
474.57	10729.02
474.75	11026.26
474.93	11089.46
475.12	11089.46
475.30	11152.65
475.48	11014.56
475.66	11136.27
475.84	11077.76
476.02	11262.66
476.20	11358.62
476.38	11630.12
476.56	11918.01
476.74	11566.93
476.92	11700.34
477.10	11737.79
477.28	11866.52
477.46	11815.02
477.64	12135.68
477.82	12189.51
478.00	12386.12
478.18	12271.43
478.36	12341.64
478.54	12798.05
478.72	12500.80
478.90	12833.16
479.08	13092.96
479.26	12828.48
479.44	13156.15
479.62	12844.86
479.80	13139.77
479.98	13179.56
480.16	13640.64
480.34	13493.19
480.52	13853.63
480.70	13460.42
480.88	13488.51
481.06	13764.69
481.24	13755.33
481.41	14197.69
481.59	14108.75
481.77	14530.05
481.95	14195.35
482.13	14298.33
482.31	14721.97
482.49	14654.09
482.67	14642.39
482.85	15049.64
483.03	15044.96
483.21	15047.30
483.39	15016.88
483.57	15255.61
483.74	15321.15
483.92	15548.18
484.10	15426.47
484.28	15704.99
484.46	15868.83
484.64	16350.98
484.82	15768.19
485.00	16013.95
485.18	16292.47
485.35	16395.45
485.53	16067.78
485.71	15934.37
485.89	16453.97
486.07	15976.50
486.25	16587.38
486.43	16891.65
486.61	17095.27
486.78	17088.25
486.96	17319.96
487.14	17502.53
487.32	17249.75
487.50	17757.64
487.68	17872.33
487.85	17893.40
488.03	18094.68
488.21	18490.23
488.39	18258.52
488.57	18590.88
488.75	18473.85
488.92	19023.87
489.10	19105.79
489.28	19056.64
489.46	19683.91
489.64	19136.22
489.81	19995.20
489.99	19831.36
490.17	20095.84
490.35	20360.32
490.53	20252.66
490.70	20423.51
490.88	20123.93
491.06	20596.71
491.24	20496.07
491.41	20659.91
491.59	20624.80
491.77	20257.34
491.95	21113.97
492.13	20800.34
492.30	21418.24
492.48	21692.08
492.66	21558.67
492.84	21586.76
493.01	21762.30
493.19	21642.93
493.37	21799.75
493.54	22251.47
493.72	22387.22
493.90	22768.73
494.08	22703.20
494.25	22845.97
494.43	22925.55
494.61	23103.43
494.79	23143.22
494.96	23321.10
495.14	23183.01
495.32	23608.98
495.49	23456.85
495.67	23323.44
495.85	23929.64
496.02	23995.17
496.20	23931.98
496.38	24299.44
496.55	24149.65
496.73	24957.13
496.91	24610.73
497.09	24793.29
497.26	25095.22
497.44	24814.36
497.62	24725.42
497.79	25212.25
497.97	24900.96
498.14	25340.98
498.32	25310.55
498.50	25516.52
498.67	25848.88
498.85	25781.00
499.03	25837.17
499.20	25912.07
499.38	26031.44
499.56	26387.20
499.73	26148.46
499.91	26260.81
500.08	26419.97
500.26	26251.45
500.44	26122.72
500.61	26745.30
500.79	26340.39
500.97	26885.73
501.14	27175.96
501.32	26621.25
501.49	27042.55
501.67	27082.34
501.84	27271.92
502.02	27227.45
502.20	27332.78
502.37	27688.54
502.55	27779.82
502.72	27924.93
502.90	27924.93
503.07	27887.48
503.25	28079.41
503.43	27615.98
503.60	28191.75
503.78	28180.05
503.95	28329.84
504.13	28458.57
504.30	28435.17
504.48	28507.72
504.65	28800.29
504.83	28882.21
505.01	28950.09
505.18	28814.34
505.36	29064.77
505.53	29064.77
505.71	29406.49
505.88	29465.00
506.06	28858.81
506.23	29769.27
506.41	29462.66
506.58	29596.07
506.76	30036.09
506.93	29996.31
507.11	29497.77
507.28	29741.19
507.46	29666.29
507.63	29993.97
507.81	30230.36
507.98	29509.47
508.16	29862.90
508.33	30216.32
508.50	30352.07
508.68	30466.75
508.85	30955.93
509.03	30539.31
509.20	30920.82
509.38	31243.81
509.55	30939.54
509.73	31117.42
509.90	31330.41
510.08	31035.50
510.25	31367.86
510.42	31529.36
510.60	31630.00
510.77	31545.74
510.95	31889.80
511.12	31744.69
511.30	31599.57
511.47	31674.47
511.64	31969.38
511.82	32137.90
511.99	31915.54
512.17	32165.98
512.34	32304.07
512.51	32341.52
512.69	32240.88
512.86	32121.51
513.04	32531.11
513.21	32664.52
513.38	32538.13
513.56	32627.07
513.73	32517.06
513.90	32849.42
514.08	32624.73
514.25	33083.47
514.43	32840.06
514.60	33212.20
514.77	33263.69
514.95	33226.24
515.12	33132.62
515.29	32854.10
515.47	33495.41
515.64	33930.75
515.81	33376.04
515.99	33631.16
516.16	33799.68
516.33	33106.88
516.51	33434.55
516.68	32936.02
516.85	33174.75
517.03	33340.93
517.20	33596.05
517.37	33914.36
517.54	34328.64
517.72	33860.53
517.89	33867.55
518.06	34176.50
518.24	34057.14
518.41	33682.65
518.58	34141.39
518.75	34183.52
518.93	34555.67
519.10	34728.87
519.27	34628.23
519.45	34740.57
519.62	34855.26
519.79	35178.25
519.96	34763.98
520.14	35295.28
520.31	35065.91
520.48	35218.04
520.65	34899.73
520.83	35847.64
521.00	35646.36
521.17	35683.81
521.34	35899.14
521.52	35812.54
521.69	35901.48
521.86	35875.73
522.03	35728.28
522.20	35676.79
522.38	36154.26
522.55	35936.59
522.72	35742.32
522.89	36013.82
523.07	36275.96
523.24	36062.97
523.41	36945.36
523.58	36636.41
523.75	37071.75
523.92	37163.03
524.10	36964.08
524.27	36945.36
524.44	37191.11
524.61	37581.98
524.78	37046.00
524.96	36690.24
525.13	37607.73
525.30	37146.64
525.47	37429.85
525.64	36973.44
525.81	37050.68
525.98	37060.04
526.16	37120.90
526.33	37097.49
526.50	37020.25
526.67	36879.82
526.84	36954.72
527.01	37092.81
527.18	37397.08
527.36	37790.29
527.53	37752.84
527.70	38139.03
527.87	37986.89
528.04	37717.73
528.21	38195.20
528.38	38094.56
528.55	38429.26
528.72	38340.32
528.89	39309.30
529.07	38719.48
529.24	38197.54
529.41	38382.45
529.58	38450.32
529.75	38199.88
529.92	38307.55
530.09	38639.90
530.26	38841.19
530.43	38831.83
530.60	38817.78
530.77	39089.29
530.94	39365.47
531.11	39126.74
531.28	39480.16
531.46	39257.81
531.63	39323.34
531.80	38878.64
531.97	38717.14
532.14	38918.43
532.31	39047.16
532.48	39377.17
532.65	39431.01
532.82	39185.25
532.99	39536.33
533.16	39253.12
533.33	39466.11
533.50	39674.42
533.67	39683.78
533.84	39459.09
534.01	39688.46
534.18	39868.69
534.35	39941.24
534.52	39756.34
534.69	39922.52
534.86	40170.61
535.03	40002.10
535.20	40390.62
535.37	40531.06
535.54	40694.89
535.71	40423.39
535.88	40289.98
536.05	40208.06
536.22	40701.92
536.38	40753.41
536.55	40325.09
536.72	40531.06
536.89	40512.33
537.06	40414.03
537.23	40589.57
537.40	40458.50
537.57	40727.66
537.74	40673.83
537.91	41069.38
538.08	40753.41
538.25	40861.07
538.42	40701.92
538.59	40931.29
538.75	40589.57
538.92	41209.81
539.09	41097.47
539.26	41067.04
539.43	41069.38
539.60	41450.89
539.77	41174.70
539.94	41113.85
540.11	40893.84
540.28	41317.48
540.44	41261.30
540.61	40996.82
540.78	40938.31
540.95	40987.46
541.12	41249.60
541.29	41507.06
541.46	41366.63
541.62	42202.20
541.79	41902.61
541.96	41333.86
542.13	41647.49
542.30	41596.00
542.47	41764.52
542.63	42178.79
542.80	41923.68
542.97	42192.84
543.14	42354.33
543.31	42213.90
543.48	42471.36
543.64	42607.11
543.81	43014.37
543.98	42335.61
544.15	42452.64
544.32	42438.59
544.48	42618.81
544.65	43161.82
544.82	42349.65
544.99	42637.54
545.16	42780.31
545.32	42602.43
545.49	42883.30
545.66	42986.28
545.83	42916.06
546.00	42937.13
546.16	42710.10
546.33	42986.28
546.50	42632.86
546.67	43239.06
546.83	42726.48
547.00	42817.76
547.17	42988.62
547.34	42909.04
547.50	43035.43
547.67	43192.25
547.84	43650.99
548.00	43405.23
548.17	43271.82
548.34	43243.74
548.51	43753.97
548.67	43545.67
548.84	43686.10
549.01	43257.78
549.18	43349.06
549.34	43512.90
549.51	43739.93
549.68	43276.51
549.84	43655.67
550.01	43817.17
550.18	43466.09
550.34	43875.68
550.51	43653.33
550.68	43875.68
550.84	43152.46
551.01	43665.03
551.18	43873.34
551.34	43988.03
551.51	44353.15
551.68	43854.62
551.84	44020.80
552.01	43737.59
552.18	43913.13
552.34	43515.24
552.51	44112.08
552.68	43854.62
552.84	44212.72
553.01	44406.98
553.18	43920.15
553.34	44023.14
553.51	44493.58
553.67	44044.20
553.84	44830.62
554.01	44259.53
554.17	44367.20
554.34	44629.34
554.51	44196.34
554.67	44231.44
554.84	44659.76
555.00	44641.04
555.17	44603.59
555.33	44332.09
555.50	44353.15
555.67	44411.67
555.83	44484.22
556.00	43988.03
556.16	44598.91
556.33	44414.01
556.50	44685.51
556.66	44535.71
556.83	44458.48
556.99	44549.76
557.16	44697.21
557.32	45188.72
557.49	44580.18
557.65	44713.59
557.82	44608.27
557.98	44856.37
558.15	44657.42
558.32	44835.30
558.48	44615.29
558.65	44964.03
558.81	44446.77
558.98	44952.33
559.14	44809.56
559.31	44713.59
559.47	45059.99
559.64	45043.61
559.80	44577.84
559.97	44893.82
560.13	44577.84
560.30	45052.97
560.46	45123.19
560.63	45111.49
560.79	45394.69
560.96	45411.07
561.12	44828.28
561.29	45186.38
561.45	45144.25
561.61	44739.34
561.78	45317.45
561.94	44875.09
562.11	44797.85
562.27	44793.17
562.44	45104.46
562.60	45478.95
562.77	45455.54
562.93	45125.53
563.10	45265.96
563.26	45155.96
563.42	45244.90
563.59	45277.66
563.75	45148.93
563.92	45694.28
564.08	45294.05
564.24	45556.19
564.41	45272.98
564.57	45221.49
564.74	45258.94
564.90	45539.80
565.07	45595.98
565.23	45141.91
565.39	45282.34
565.56	45338.52
565.72	45233.19
565.88	45092.76
566.05	45099.78
566.21	45345.54
566.38	45715.34
566.54	45504.70
566.70	46101.53
566.87	45930.67
567.03	45460.23
567.19	45921.31
567.36	45844.07
567.52	45525.76
567.68	45574.91
567.85	45188.72
568.01	45593.64
568.17	45352.56
568.34	45918.97
568.50	45340.86
568.66	45385.33
568.83	45975.14
568.99	45528.10
569.15	45624.06
569.32	45275.32
569.48	45464.91
569.64	45366.60
569.81	45659.17
569.97	45869.82
570.13	45296.39
570.30	45249.58
570.46	45226.17
570.62	45184.04
570.78	44690.19
570.95	45113.83
571.11	45570.23
571.27	45612.36
571.43	45776.20
571.60	45808.96
571.76	45258.94
571.92	45446.18
572.09	45649.81
572.25	45834.71
572.41	45904.93
572.57	45914.29
572.74	45778.54
572.90	45900.25
573.06	45792.58
573.22	45893.22
573.38	46021.95
573.55	45661.51
573.71	45776.20
573.87	46064.08
574.03	46021.95
574.20	45930.67
574.36	45925.99
574.52	46054.72
574.68	45846.41
574.84	45757.47
575.01	45492.99
575.17	45521.08
575.33	45748.11
575.49	45502.35
575.65	45815.99
575.82	45713.00
575.98	45481.29
576.14	45818.33
576.30	45811.31
576.46	45928.33
576.62	45635.77
576.79	45684.92
576.95	45544.48
577.11	45670.87
577.27	45897.91
577.43	45525.76
577.59	45610.02
577.75	45397.03
577.92	45464.91
578.08	45617.04
578.24	46003.23
578.40	45551.51
578.56	45659.17
578.72	45888.54
578.88	45874.50
579.04	45736.41
579.21	45668.53
579.37	46047.70
579.53	46127.28
579.69	45755.13
579.85	45708.32
580.01	46274.73
580.17	45574.91
580.33	45801.94
580.49	45837.05
580.65	46073.45
580.82	45485.97
580.98	45600.66
581.14	45785.56
581.30	45965.78
581.46	46113.23
581.62	45743.43
581.78	45867.48
581.94	46284.09
582.10	45769.18
582.26	46199.83
582.42	45963.44
582.58	46085.15
582.74	45799.60
582.90	46073.45
583.06	46412.82
583.22	45865.14
583.38	46277.07
583.54	46241.96
583.70	45879.18
583.86	45818.33
584.02	46024.29
584.18	46225.58
584.34	46092.17
584.50	45729.39
584.66	45715.34
584.82	45415.76
584.98	46431.55
585.14	46129.62
585.30	45970.46
585.46	45968.12
585.62	45762.15
585.78	45715.34
585.94	45551.51
586.10	45902.59
586.26	45301.07
586.42	46134.30
586.58	46248.99
586.74	46066.42
586.90	46408.14
587.06	45610.02
587.22	46188.13
587.38	45715.34
587.54	46052.38
587.70	45984.51
587.86	46017.27
588.02	45729.39
588.18	45944.72
588.34	46014.93
588.49	45104.46
588.65	45556.19
588.81	45731.73
588.97	45853.44
589.13	45617.04
589.29	45743.43
589.45	45787.90
589.61	45818.33
589.77	46071.10
589.93	46433.89
