SpectraSuite Data File
++++++++++++++++++++++++++++++++++++
Date: Fri Oct 25 11:25:22 EDT 2013
User: price-jones
Dark Spectrum Present: No
Reference Spectrum Present: No
Number of Sampled Component Spectra: 1
Spectrometers: USB2+H05261
Integration Time (usec): 100000 (USB2+H05261)
Spectra Averaged: 1 (USB2+H05261)
Boxcar Smoothing: 0 (USB2+H05261)
Correct for Electrical Dark: No (USB2+H05261)
Strobe/Lamp Enabled: No (USB2+H05261)
Correct for Detector Non-linearity: No (USB2+H05261)
Correct for Stray Light: No (USB2+H05261)
Number of Pixels in Processed Spectrum: 2048
>>>>>Begin Processed Spectral Data<<<<<
365.73	215.33
365.92	215.33
366.12	215.33
366.32	135.75
366.52	133.41
366.72	135.75
366.91	156.82
367.11	119.37
367.31	63.19
367.51	161.50
367.70	198.95
367.90	147.45
368.10	124.05
368.30	98.30
368.49	77.24
368.69	161.50
368.89	102.98
369.09	138.09
369.28	145.11
369.48	191.92
369.68	163.84
369.87	231.71
370.07	238.73
370.27	224.69
370.47	320.65
370.66	559.39
370.86	603.86
371.06	608.54
371.25	678.76
371.45	568.75
371.65	730.25
371.84	599.18
372.04	704.50
372.24	636.63
372.44	718.54
372.63	664.71
372.83	823.87
373.03	755.99
373.22	720.88
373.42	772.38
373.62	807.48
373.81	767.70
374.01	807.48
374.21	849.61
374.40	866.00
374.60	793.44
374.79	844.93
374.99	844.93
375.19	791.10
375.38	873.02
375.58	765.36
375.78	882.38
375.97	795.78
376.17	933.87
376.37	901.11
376.56	919.83
376.76	854.30
376.95	922.17
377.15	931.53
377.35	896.43
377.54	882.38
377.74	875.36
377.93	910.47
378.13	964.30
378.33	898.77
378.52	915.15
378.72	987.71
378.91	929.19
379.11	968.98
379.31	966.64
379.50	884.72
379.70	910.47
379.89	950.26
380.09	1029.84
380.28	959.62
380.48	1013.45
380.68	943.24
380.87	870.68
381.07	966.64
381.26	1036.86
381.46	971.32
381.65	1048.56
381.85	1048.56
382.04	1093.03
382.24	1034.52
382.43	1036.86
382.63	1053.24
382.83	1078.99
383.02	1011.11
383.22	1123.46
383.41	1053.24
383.61	1006.43
383.80	1118.78
384.00	1156.22
384.19	1114.10
384.39	1142.18
384.58	1071.97
384.78	1137.50
384.97	1156.22
385.17	1048.56
385.36	1142.18
385.56	1121.12
385.75	1207.72
385.95	1167.93
386.14	1196.01
386.34	1165.59
386.53	1097.71
386.72	1196.01
386.92	1226.44
387.11	1240.48
387.31	1280.27
387.50	1270.91
387.70	1256.87
387.89	1341.13
388.09	1322.40
388.28	1210.06
388.48	1270.91
388.67	1348.15
388.86	1240.48
389.06	1306.02
389.25	1310.70
389.45	1394.96
389.64	1401.98
389.84	1348.15
390.03	1420.71
390.22	1390.28
390.42	1350.49
390.61	1355.17
390.81	1350.49
391.00	1270.91
391.19	1376.24
391.39	1411.34
391.58	1467.52
391.78	1446.45
391.97	1474.54
392.16	1444.11
392.36	1530.71
392.55	1481.56
392.75	1593.90
392.94	1530.71
393.13	1467.52
393.33	1460.49
393.52	1514.33
393.71	1558.80
393.91	1493.26
394.10	1577.52
394.29	1502.62
394.49	1490.92
394.68	1591.56
394.88	1563.48
395.07	1547.09
395.26	1584.54
395.46	1607.95
395.65	1638.38
395.84	1673.48
396.04	1708.59
396.23	1722.63
396.42	1685.19
396.62	1755.40
396.81	1760.08
397.00	1678.16
397.19	1783.49
397.39	1813.92
397.58	1713.27
397.77	1774.13
397.97	1823.28
398.16	1888.81
398.35	1909.88
398.55	1865.41
398.74	1991.80
398.93	1937.96
399.12	1930.94
399.32	1982.43
399.51	2017.54
399.70	1994.14
399.90	1902.86
400.09	1935.62
400.28	1966.05
400.47	2015.20
400.67	2062.01
400.86	1947.33
401.05	2033.93
401.24	2087.76
401.44	2143.93
401.63	2153.29
401.82	2118.18
402.01	2071.37
402.21	2087.76
402.40	2186.06
402.59	2202.44
402.78	2246.91
402.97	2157.97
403.17	2190.74
403.36	2279.68
403.55	2251.60
403.74	2328.83
403.93	2370.96
404.13	2354.58
404.32	2342.88
404.51	2385.01
404.70	2321.81
404.89	2305.43
405.09	2516.08
405.28	2417.77
405.47	2480.97
405.66	2363.94
405.85	2495.01
406.05	2448.20
406.24	2672.89
406.43	2605.02
406.62	2572.25
406.81	2654.17
407.00	2630.76
407.20	2670.55
407.39	2605.02
407.58	2630.76
407.77	2665.87
407.96	2663.53
408.15	2780.56
408.34	2670.55
408.54	2710.34
408.73	2686.94
408.92	2733.75
409.11	2928.01
409.30	2874.18
409.49	2923.33
409.68	2874.18
409.87	2904.60
410.07	3033.33
410.26	3119.93
410.45	3049.72
410.64	2949.08
410.83	3012.27
411.02	3101.21
411.21	3169.09
411.40	2974.82
411.59	3225.26
411.78	3260.37
411.98	3129.30
412.17	3239.30
412.36	3325.90
412.55	3361.01
412.74	3344.63
412.93	3368.03
413.12	3199.51
413.31	3578.68
413.50	3433.57
413.69	3466.33
413.88	3632.51
414.07	3578.68
414.26	3611.45
414.45	3672.30
414.64	3688.68
414.83	3882.95
415.02	3681.66
415.22	3889.97
415.41	3761.24
415.60	3779.97
415.79	3833.80
415.98	3943.80
416.17	3861.88
416.36	3925.08
416.55	3920.40
416.74	4002.32
416.93	3962.53
417.12	4018.70
417.31	4107.64
417.50	4093.60
417.69	4201.26
417.88	4285.52
418.07	4248.07
418.26	4177.86
418.45	4404.89
418.64	4355.74
418.83	4365.10
419.02	4290.20
419.21	4557.02
419.39	4456.38
419.58	4442.34
419.77	4461.06
419.96	4571.07
420.15	4524.26
420.34	4608.51
420.53	4573.41
420.72	4737.24
420.91	4713.84
421.10	4578.09
421.29	4777.03
421.48	4695.11
421.67	4903.42
421.86	4648.30
422.05	4723.20
422.24	4765.33
422.43	4880.02
422.61	4889.38
422.80	4830.87
422.99	4821.50
423.18	4908.10
423.37	4931.51
423.56	4809.80
423.75	4772.35
423.94	4847.25
424.13	4606.17
424.32	4863.63
424.50	4952.57
424.69	5121.09
424.88	5144.50
425.07	5039.17
425.26	4830.87
425.45	4891.72
425.64	4777.03
425.83	5076.62
426.01	5036.83
426.20	5210.03
426.39	5088.32
426.58	4999.38
426.77	4870.65
426.96	4980.66
427.15	5153.86
427.33	5165.56
427.52	4936.19
427.71	5109.39
427.90	5118.75
428.09	5284.93
428.28	5366.85
428.46	5235.78
428.65	5259.18
428.84	5469.83
429.03	5511.96
429.22	5336.42
429.40	5554.09
429.59	5483.88
429.78	5217.05
429.97	5317.70
430.16	5427.70
430.34	5423.02
430.53	5678.14
430.72	5680.48
430.91	5554.09
431.10	5488.56
431.28	5692.18
431.47	5870.06
431.66	5872.40
431.85	5710.91
432.03	5776.44
432.22	5846.66
432.41	5809.21
432.60	5734.31
432.79	5781.12
432.97	5937.94
433.16	6061.99
433.35	5926.24
433.54	6090.07
433.72	6066.67
433.91	6150.93
434.10	6083.05
434.28	6164.97
434.47	6101.78
434.66	6251.57
434.85	6335.83
435.03	6279.66
435.22	6328.81
435.41	6413.07
435.59	6300.72
435.78	6448.18
435.97	6399.02
436.16	6300.72
436.34	6548.82
436.53	6588.61
436.72	6651.80
436.90	6282.00
437.09	6497.33
437.28	6471.58
437.46	6429.45
437.65	6492.65
437.84	6773.51
438.02	6628.40
438.21	6775.85
438.40	6757.13
438.58	6981.82
438.77	6951.39
438.96	6813.30
439.14	7047.35
439.33	7030.97
439.52	7119.91
439.70	7250.98
439.89	7176.08
440.08	7250.98
440.26	7384.39
440.45	7260.34
440.63	7269.70
440.82	7534.18
441.01	7496.74
441.19	7485.03
441.38	7815.05
441.57	7693.34
441.75	7618.44
441.94	8021.02
442.12	7918.03
442.31	8039.74
442.50	7896.97
442.68	7892.29
442.87	7981.23
443.05	7922.71
443.24	8016.33
443.43	7861.86
443.61	8182.51
443.80	8285.50
443.98	7819.73
444.17	7981.23
444.35	8161.45
444.54	8290.18
444.73	8187.19
444.91	8322.94
445.10	8226.98
445.28	8184.85
445.47	8131.02
445.65	8142.72
445.84	8269.11
446.02	8521.89
446.21	8320.60
446.39	8346.35
446.58	8435.29
446.77	8374.44
446.95	8278.47
447.14	8503.17
447.32	8671.68
447.51	8365.07
447.69	8451.67
447.88	8318.26
448.06	8477.42
448.25	8500.83
448.43	8629.56
448.62	8505.51
448.80	8400.18
448.99	8454.02
449.17	8610.83
449.36	8428.27
449.54	8716.16
449.73	8774.67
449.91	8952.55
450.10	8891.70
450.28	8908.08
450.46	9025.11
450.65	8856.59
450.83	8966.59
451.02	9083.62
451.20	9097.66
451.39	9174.90
451.57	9151.49
451.76	9055.53
451.94	9078.94
452.13	9369.16
452.31	9282.56
452.49	9193.62
452.68	9151.49
452.86	9284.91
453.05	9249.80
453.23	9530.66
453.42	9348.10
453.60	9320.01
453.78	9191.28
453.97	9439.38
454.15	9446.40
454.34	9312.99
454.52	9708.54
454.70	9558.75
454.89	9638.33
455.07	9556.41
455.26	10031.54
455.44	9816.21
455.62	9799.82
455.81	9774.08
455.99	10125.16
456.17	10090.05
456.36	9919.19
456.54	9937.91
456.73	10263.25
456.91	10141.54
457.09	10118.14
457.28	10560.50
457.46	10303.04
457.64	10401.34
457.83	10382.62
458.01	10244.52
458.19	10810.93
458.38	10504.32
458.56	10548.79
458.74	10593.26
458.93	10553.48
459.11	10597.95
459.29	10686.89
459.48	10399.00
459.66	10583.90
459.84	10925.62
460.03	10771.15
460.21	10860.09
460.39	10754.76
460.57	10801.57
460.76	10925.62
460.94	11049.67
461.12	11197.12
461.31	11091.80
461.49	10944.34
461.67	11030.94
461.85	11269.68
462.04	11070.73
462.22	11812.68
462.40	11513.10
462.59	11573.95
462.77	11550.54
462.95	11632.46
463.13	11485.01
463.32	11522.46
463.50	11836.09
463.68	11784.60
463.86	11894.60
464.05	11421.81
464.23	11585.65
464.41	11941.41
464.59	11580.97
464.78	12058.44
464.96	11843.11
465.14	11662.89
465.32	11936.73
465.50	11915.67
465.69	12116.95
465.87	12009.29
466.05	11871.20
466.23	12189.51
466.41	12156.74
466.60	12437.61
466.78	11910.99
466.96	12156.74
467.14	12215.26
467.32	12306.54
467.51	12395.48
467.69	11901.62
467.87	12437.61
468.05	12444.63
468.23	12248.02
468.41	12397.82
468.60	12461.01
468.78	12648.26
468.96	12524.21
469.14	12620.17
469.32	12732.51
469.50	12552.29
469.69	12807.41
469.87	12882.31
470.05	13151.47
470.23	12961.89
470.41	13266.16
470.59	13107.00
470.77	13139.77
470.95	13270.84
471.14	13458.08
471.32	12910.40
471.50	13509.57
471.68	13357.44
471.86	13518.93
472.04	13612.56
472.22	13511.91
472.40	13544.68
472.58	13895.76
472.77	13626.60
472.95	14326.42
473.13	14459.83
473.31	14207.05
473.49	14174.28
473.67	14106.41
473.85	14326.42
474.03	14565.15
474.21	14473.87
474.39	14560.47
474.57	14537.07
474.75	14794.53
474.93	14810.91
475.12	14881.13
475.30	15262.63
475.48	14705.59
475.66	15204.12
475.84	15178.37
476.02	14944.32
476.20	15267.31
476.38	15616.05
476.56	15765.85
476.74	15749.46
476.92	15777.55
477.10	15726.06
477.28	16210.55
477.46	16217.57
477.64	15999.90
477.82	16573.33
478.00	16877.60
478.18	16828.45
478.36	16800.37
478.54	17097.61
478.72	16802.71
478.90	17102.29
479.08	17434.65
479.26	17427.63
479.44	17628.92
479.62	17661.68
479.80	17820.84
479.98	17818.50
480.16	18462.15
480.34	18129.79
480.52	18487.89
480.70	18625.98
480.88	18183.62
481.06	18853.02
481.24	18813.23
481.41	19180.69
481.59	19197.07
481.77	19311.76
481.95	19283.67
482.13	19606.67
482.31	19398.36
482.49	20273.72
482.67	19807.95
482.85	20306.49
483.03	20411.81
483.21	20673.95
483.39	20641.18
483.57	20638.84
483.74	20908.01
483.92	21036.74
484.10	21006.31
484.28	21535.27
484.46	21757.62
484.64	22146.15
484.82	21750.60
485.00	22141.47
485.18	22389.56
485.35	22586.17
485.53	22677.45
485.71	22735.96
485.89	23138.54
486.07	23054.28
486.25	22927.89
486.43	23400.68
486.61	23697.92
486.78	23868.78
486.96	23934.32
487.14	24257.31
487.32	24484.34
487.50	24718.40
487.68	24823.72
487.85	25263.74
488.03	25170.12
488.21	25277.79
488.39	25621.84
488.57	25893.35
488.75	26129.74
488.92	26176.55
489.10	26689.13
489.28	26817.86
489.46	27138.51
489.64	26813.18
489.81	27714.28
489.99	27185.32
490.17	27779.82
490.35	28212.82
490.53	28034.94
490.70	27871.10
490.88	28393.04
491.06	28779.23
491.24	28472.62
491.41	28503.04
491.59	29067.11
491.77	29198.18
491.95	29514.16
492.13	29340.96
492.30	29930.77
492.48	29647.57
492.66	29736.51
492.84	29890.98
493.01	30270.15
493.19	30441.01
493.37	30874.01
493.54	30618.89
493.72	30719.53
493.90	31028.48
494.08	31564.46
494.25	31775.11
494.43	31718.94
494.61	32261.94
494.79	32229.18
494.96	32355.57
495.14	32910.27
495.32	33029.64
495.49	32893.89
495.67	33055.39
495.85	33408.81
496.02	33654.56
496.20	33809.04
496.38	33743.50
496.55	33745.84
496.73	34457.37
496.91	34462.05
497.09	34370.77
497.26	34841.21
497.44	35206.34
497.62	34852.92
497.79	35117.40
497.97	35381.88
498.14	35454.44
498.32	35732.96
498.50	36034.89
498.67	36334.48
498.85	36491.29
499.03	36652.79
499.20	36261.92
499.38	36488.95
499.56	36943.02
499.73	36903.23
499.91	37060.04
500.08	37258.99
500.26	37067.06
500.44	36996.85
500.61	37493.04
500.79	36917.27
500.97	37783.27
501.14	38415.21
501.32	38604.80
501.49	38019.66
501.67	38501.81
501.84	38707.78
502.02	38497.13
502.20	38920.77
502.37	38899.70
502.55	39164.18
502.72	39108.01
502.90	39161.84
503.07	39255.46
503.25	39627.61
503.43	39222.70
503.60	39552.71
503.78	40091.04
503.95	39978.69
504.13	39833.58
504.30	40069.97
504.48	40084.01
504.65	40383.60
504.83	40966.40
505.01	41249.60
505.18	41179.39
505.36	41219.17
505.53	41062.36
505.71	41535.15
505.88	41528.13
506.06	40760.43
506.23	41312.80
506.41	41645.15
506.58	41687.28
506.76	41954.10
506.93	42251.35
507.11	42134.32
507.28	42366.04
507.46	42576.69
507.63	42513.49
507.81	42794.36
507.98	42806.06
508.16	42902.02
508.33	43091.60
508.50	43367.79
508.68	42923.08
508.85	43262.46
509.03	43639.29
509.20	43620.56
509.38	43765.68
509.55	44009.09
509.73	43971.64
509.90	44327.41
510.08	44252.51
510.25	44236.12
510.42	44617.63
510.60	44563.80
510.77	44961.69
510.95	45387.67
511.12	45029.57
511.30	44863.39
511.47	44947.65
511.64	45420.44
511.82	45305.75
511.99	45478.95
512.17	45546.82
512.34	45558.53
512.51	46129.62
512.69	46658.58
512.86	45846.41
513.04	46735.82
513.21	46415.16
513.38	46349.63
513.56	46485.38
513.73	46384.74
513.90	46595.38
514.08	46206.86
514.25	47105.62
514.43	46902.00
514.60	46925.40
514.77	46770.93
514.95	47152.43
515.12	47437.98
515.29	47442.66
515.47	47718.84
515.64	47955.24
515.81	47482.45
515.99	47952.90
516.16	47980.98
516.33	48172.91
516.51	48135.46
516.68	47885.02
516.85	48495.90
517.03	48470.15
517.20	48528.67
517.37	48308.66
517.54	48809.53
517.72	48531.01
517.89	49066.99
518.06	48612.93
518.24	49125.50
518.41	48809.53
518.58	49188.70
518.75	48807.19
518.93	49003.80
519.10	49357.22
519.27	49485.95
519.45	49228.49
519.62	49661.49
519.79	49464.88
519.96	49610.00
520.14	49834.69
520.31	49488.29
520.48	50281.73
520.65	49893.20
520.83	50405.78
521.00	50487.70
521.17	50515.78
521.34	49947.03
521.52	50667.92
521.69	50703.03
521.86	50436.20
522.03	50822.39
522.20	51000.27
522.38	51009.64
522.55	51267.09
522.72	51285.82
522.89	51004.95
523.07	51217.94
523.24	51192.20
523.41	51381.78
523.58	51482.42
523.75	51821.80
523.92	51349.01
524.10	51388.80
524.27	51838.18
524.44	51554.98
524.61	52067.56
524.78	51777.33
524.96	52027.77
525.13	51880.31
525.30	52442.04
525.47	52355.44
525.64	52472.47
525.81	52559.07
525.98	52516.94
526.16	52147.14
526.33	52640.99
526.50	52921.85
526.67	52622.26
526.84	52905.47
527.01	52470.13
527.18	52582.48
527.36	52533.32
527.53	52818.87
527.70	53130.16
527.87	52973.34
528.04	52781.42
528.21	53095.05
528.38	53043.56
528.55	53581.88
528.72	53113.78
528.89	53148.88
529.07	53010.79
529.24	53165.27
529.41	53841.68
529.58	53595.93
529.75	53460.18
529.92	53815.94
530.09	53523.37
530.26	53855.73
530.43	53741.04
530.60	53462.52
530.77	53567.84
530.94	53790.19
531.11	53581.88
531.28	53764.45
531.46	54080.42
531.63	53904.88
531.80	54078.08
531.97	54438.52
532.14	54368.30
532.31	54021.90
532.48	54323.83
532.65	54120.21
532.82	54405.75
532.99	54710.02
533.16	54541.50
533.33	54358.94
533.50	54597.68
533.67	54798.96
533.84	54433.84
534.01	54600.02
534.18	54693.64
534.35	55028.34
534.52	54759.17
534.69	55018.97
534.86	54934.71
535.03	54995.57
535.20	55051.74
535.37	55241.32
535.54	55161.75
535.71	55126.64
535.88	55468.36
536.05	55154.72
536.22	55154.72
536.38	55346.65
536.55	55395.80
536.72	55405.16
536.89	55213.24
537.06	55458.99
537.23	55681.34
537.40	55433.25
537.57	55210.90
537.74	55618.15
537.91	55419.20
538.08	55491.76
538.25	55604.11
538.42	55704.75
538.59	55697.73
538.75	55777.31
538.92	55884.97
539.09	55913.06
539.26	55723.47
539.43	55910.72
539.60	55990.30
539.77	56062.85
539.94	56193.92
540.11	56060.51
540.28	56177.54
540.44	55997.32
540.61	56027.74
540.78	56163.50
540.95	56273.50
541.12	56123.71
541.29	56243.07
541.46	56200.94
541.62	56423.29
541.79	56465.42
541.96	56392.87
542.13	56273.50
542.30	56526.28
542.47	56575.43
542.63	56910.13
542.80	56722.88
542.97	56821.19
543.14	57095.03
543.31	56811.82
543.48	57069.28
543.64	57361.85
543.81	57052.90
543.98	57045.88
544.15	57139.50
544.32	57350.15
544.48	57237.80
544.65	57104.39
544.82	57261.21
544.99	57158.22
545.16	57153.54
545.32	57254.18
545.49	57535.05
545.66	57654.42
545.83	57354.83
546.00	57485.90
546.16	57523.35
546.33	57261.21
546.50	57214.40
546.67	57537.39
546.83	57251.84
547.00	57748.04
547.17	57535.05
547.34	57324.40
547.50	57724.63
547.67	57921.24
547.84	57949.32
548.00	57984.43
548.17	57977.41
548.34	57574.84
548.51	58052.31
548.67	58054.65
548.84	57832.30
549.01	57984.43
549.18	57921.24
549.34	57876.77
549.51	58174.02
549.68	58092.10
549.84	58166.99
550.01	58316.79
550.18	58251.25
550.34	58188.06
550.51	58356.58
550.68	58358.92
550.84	58225.51
551.01	58183.38
551.18	58159.97
551.34	58422.11
551.51	58281.68
551.68	58358.92
551.84	58518.07
552.01	58232.53
552.18	58342.53
552.34	58045.29
552.51	58567.23
552.68	58227.85
552.84	58475.94
553.01	58679.57
553.18	58728.72
553.34	58681.91
553.51	58468.92
553.67	58754.47
553.84	58623.40
554.01	58810.64
554.17	58944.05
554.34	58925.33
554.51	58726.38
554.67	58897.24
554.84	58906.60
555.00	59014.27
555.17	58857.45
555.33	58859.79
555.50	58621.06
555.67	58827.02
555.83	58787.24
556.00	59072.78
556.16	59330.24
556.33	59018.95
556.50	59042.35
556.66	59309.18
556.83	58892.56
556.99	59245.98
557.16	59229.60
557.32	59330.24
557.49	59381.73
557.65	59131.29
557.82	59117.25
557.98	59000.22
558.15	59208.53
558.32	59274.07
558.48	59138.32
558.65	59093.85
558.81	59391.09
558.98	59274.07
559.14	59358.33
559.31	59372.37
559.47	59489.40
559.64	59430.88
559.80	59601.74
559.97	59653.23
560.13	59557.27
560.30	59646.21
560.46	59655.57
560.63	59664.94
560.79	59688.34
560.96	59803.03
561.12	59550.25
561.29	59697.70
561.45	59739.83
561.61	59709.41
561.78	59524.50
561.94	59601.74
562.11	59695.36
562.27	59566.63
562.44	59842.82
562.60	59891.97
562.77	59852.18
562.93	59707.07
563.10	59898.99
563.26	59676.64
563.42	59863.88
563.59	59875.58
563.75	59826.43
563.92	59877.93
564.08	59653.23
564.24	60165.81
564.41	59971.55
564.57	59969.21
564.74	60006.65
564.90	59966.87
565.07	59992.61
565.23	59805.37
565.39	60001.97
565.56	59966.87
565.72	59997.29
565.88	59882.61
566.05	59957.50
566.21	60062.83
566.38	60097.94
566.54	60083.89
566.70	60107.30
566.87	60200.92
567.03	59976.23
567.19	60231.35
567.36	60109.64
567.52	60142.41
567.68	60243.05
567.85	60100.28
568.01	60282.84
568.17	59983.25
568.34	60273.48
568.50	60226.66
568.66	60090.91
568.83	60219.64
568.99	60294.54
569.15	60221.98
569.32	60427.95
569.48	60324.97
569.64	60275.82
569.81	60250.07
569.97	60144.75
570.13	60233.69
570.30	60074.53
570.46	60341.35
570.62	60371.78
570.78	60133.04
570.95	60154.11
571.11	60505.19
571.27	60210.28
571.43	60184.54
571.60	60362.42
571.76	60425.61
571.92	60409.23
572.09	60495.83
572.25	60444.33
572.41	60418.59
572.57	60446.68
572.74	60479.44
572.90	60575.40
573.06	60544.98
573.22	60509.87
573.38	60320.29
573.55	60413.91
573.71	60479.44
573.87	60657.32
574.03	60392.84
574.20	60479.44
574.36	60617.53
574.52	60800.10
574.68	60521.57
574.84	60664.35
575.01	60640.94
575.17	60542.64
575.33	60530.93
575.49	60582.43
575.65	60631.58
575.82	60549.66
575.98	60645.62
576.14	60708.82
576.30	60463.06
576.46	60364.76
576.62	60636.26
576.79	60552.00
576.95	60395.18
577.11	60516.89
577.27	60662.00
577.43	60589.45
577.59	60566.04
577.75	60540.30
577.92	60570.72
578.08	60610.51
578.24	60596.47
578.40	60837.54
578.56	60760.31
578.72	60743.92
578.88	60659.66
579.04	60900.74
579.21	60647.96
579.37	60891.38
579.53	60879.67
579.69	60299.22
579.85	60491.15
580.01	60638.60
580.17	60437.31
580.33	60643.28
580.49	60900.74
580.65	60666.69
580.82	60626.90
580.98	60505.19
581.14	60678.39
581.30	60849.25
581.46	60807.12
581.62	60828.18
581.78	60762.65
581.94	60790.73
582.10	60741.58
582.26	60774.35
582.42	60603.49
582.58	60748.60
582.74	60575.40
582.90	60605.83
583.06	60882.02
583.22	60811.80
583.38	60807.12
583.54	60811.80
583.70	60729.88
583.86	60935.85
584.02	60720.52
584.18	60921.80
584.34	60846.91
584.50	60914.78
584.66	60760.31
584.82	60535.62
584.98	60959.25
585.14	61020.11
585.30	60790.73
585.46	61076.28
585.62	60619.88
585.78	60949.89
585.94	60521.57
586.10	60956.91
586.26	60945.21
586.42	60884.36
586.58	60985.00
586.74	60879.67
586.90	60807.12
587.06	60802.44
587.22	60867.97
587.38	60767.33
587.54	60779.03
587.70	61062.24
587.86	60924.14
588.02	60856.27
588.18	60968.61
588.34	60706.47
588.49	60767.33
