SpectraSuite Data File
++++++++++++++++++++++++++++++++++++
Date: Fri Oct 25 10:43:36 EDT 2013
User: price-jones
Dark Spectrum Present: No
Reference Spectrum Present: No
Number of Sampled Component Spectra: 1
Spectrometers: USB2+H05261
Integration Time (usec): 100000 (USB2+H05261)
Spectra Averaged: 1 (USB2+H05261)
Boxcar Smoothing: 0 (USB2+H05261)
Correct for Electrical Dark: No (USB2+H05261)
Strobe/Lamp Enabled: No (USB2+H05261)
Correct for Detector Non-linearity: No (USB2+H05261)
Correct for Stray Light: No (USB2+H05261)
Number of Pixels in Processed Spectrum: 2048
>>>>>Begin Processed Spectral Data<<<<<
365.73	124.05
365.92	124.05
366.12	124.05
366.32	114.69
366.52	4.68
366.72	60.85
366.91	46.81
367.11	0.00
367.31	0.00
367.51	46.81
367.70	39.79
367.90	9.36
368.10	0.00
368.30	25.75
368.49	0.00
368.69	0.00
368.89	21.06
369.09	0.00
369.28	0.00
369.48	51.49
369.68	7.02
369.87	58.51
370.07	21.06
370.27	147.45
370.47	205.97
370.66	482.15
370.86	423.64
371.06	397.89
371.25	486.83
371.45	414.27
371.65	470.45
371.84	510.24
372.04	409.59
372.24	437.68
372.44	517.26
372.63	505.56
372.83	486.83
373.03	423.64
373.22	528.96
373.42	491.51
373.62	444.70
373.81	571.09
374.01	606.20
374.21	592.16
374.40	514.92
374.60	580.45
374.79	662.37
374.99	571.09
375.19	638.97
375.38	645.99
375.58	587.47
375.78	596.84
375.97	559.39
376.17	643.65
376.37	655.35
376.56	617.90
376.76	571.09
376.95	578.11
377.15	627.26
377.35	627.26
377.54	585.13
377.74	751.31
377.93	657.69
378.13	622.58
378.33	674.07
378.52	550.03
378.72	709.18
378.91	627.26
379.11	713.86
379.31	620.24
379.50	671.73
379.70	709.18
379.89	678.76
380.09	669.39
380.28	720.88
380.48	709.18
380.68	793.44
380.87	727.91
381.07	695.14
381.26	690.46
381.46	685.78
381.65	711.52
381.85	620.24
382.04	681.10
382.24	674.07
382.43	718.54
382.63	681.10
382.83	718.54
383.02	690.46
383.22	770.04
383.41	767.70
383.61	791.10
383.80	732.59
384.00	779.40
384.19	755.99
384.39	798.12
384.58	732.59
384.78	758.33
384.97	732.59
385.17	863.66
385.36	833.23
385.56	821.53
385.75	842.59
385.95	807.48
386.14	891.74
386.34	758.33
386.53	896.43
386.72	936.21
386.92	854.30
387.11	868.34
387.31	833.23
387.50	828.55
387.70	987.71
387.89	917.49
388.09	908.13
388.28	959.62
388.48	903.45
388.67	985.37
388.86	971.32
389.06	966.64
389.25	976.00
389.45	1011.11
389.64	1013.45
389.84	1015.79
390.03	987.71
390.22	983.02
390.42	1076.65
390.61	1015.79
390.81	1071.97
391.00	1004.09
391.19	1130.48
391.39	1118.78
391.58	1050.90
391.78	1034.52
391.97	994.73
392.16	1036.86
392.36	1149.20
392.55	1027.50
392.75	1027.50
392.94	957.28
393.13	1036.86
393.33	1114.10
393.52	976.00
393.71	1036.86
393.91	1163.25
394.10	1203.04
394.29	1153.88
394.49	1181.97
394.68	1174.95
394.88	1139.84
395.07	1228.78
395.26	1270.91
395.46	1277.93
395.65	1280.27
395.84	1207.72
396.04	1287.29
396.23	1193.67
396.42	1146.86
396.62	1181.97
396.81	1212.40
397.00	1240.48
397.19	1334.11
397.39	1320.06
397.58	1406.66
397.77	1366.87
397.97	1425.39
398.16	1490.92
398.35	1488.58
398.55	1371.55
398.74	1535.39
398.93	1572.84
399.12	1451.13
399.32	1476.88
399.51	1537.73
399.70	1629.01
399.90	1589.22
400.09	1605.61
400.28	1638.38
400.47	1671.14
400.67	1694.55
400.86	1652.42
401.05	1633.69
401.24	1753.06
401.44	1755.40
401.63	1750.72
401.82	1750.72
402.01	1736.68
402.21	1818.60
402.40	1792.85
402.59	1757.74
402.78	1860.73
402.97	1823.28
403.17	1790.51
403.36	1851.36
403.55	1842.00
403.74	1860.73
403.93	1952.01
404.13	1966.05
404.32	1778.81
404.51	1816.26
404.70	2003.50
404.89	2036.27
405.09	2036.27
405.28	1991.80
405.47	2005.84
405.66	2059.67
405.85	1952.01
406.05	2059.67
406.24	2120.53
406.43	2118.18
406.62	2071.37
406.81	2153.29
407.00	2033.93
407.20	2122.87
407.39	2190.74
407.58	2118.18
407.77	2162.66
407.96	2275.00
408.15	2291.38
408.34	2293.72
408.54	2293.72
408.73	2401.39
408.92	2331.17
409.11	2251.60
409.30	2300.75
409.49	2389.69
409.68	2307.77
409.87	2246.91
410.07	2347.56
410.26	2445.86
410.45	2450.54
410.64	2450.54
410.83	2569.91
411.02	2626.08
411.21	2670.55
411.40	2679.91
411.59	2658.85
411.78	2621.40
411.98	2677.57
412.17	2715.02
412.36	2729.06
412.55	2789.92
412.74	2827.37
412.93	2703.32
413.12	2658.85
413.31	3009.93
413.50	2860.13
413.69	2862.48
413.88	3021.63
414.07	2970.14
414.26	2979.50
414.45	3089.51
414.64	3054.40
414.83	3098.87
415.02	3082.49
415.22	3054.40
415.41	3049.72
415.60	3152.70
415.79	3293.13
415.98	3241.64
416.17	3314.20
416.36	3164.40
416.55	3204.19
416.74	3253.34
416.93	3276.75
417.12	3295.47
417.31	3494.42
417.50	3405.48
417.69	3454.63
417.88	3410.16
418.07	3428.88
418.26	3548.25
418.45	3564.64
418.64	3672.30
418.83	3482.72
419.02	3665.28
419.21	3545.91
419.39	3564.64
419.58	3618.47
419.77	3583.36
419.96	3702.73
420.15	3705.07
420.34	3831.46
420.53	3892.31
420.72	3784.65
420.91	3831.46
421.10	3852.52
421.29	3943.80
421.48	3831.46
421.67	3922.74
421.86	3878.27
422.05	3801.03
422.24	3684.00
422.43	3887.63
422.61	3878.27
422.80	3981.25
422.99	4032.74
423.18	3950.82
423.37	3908.69
423.56	4060.83
423.75	4077.21
423.94	3955.51
424.13	3669.96
424.32	3850.18
424.50	3932.10
424.69	4002.32
424.88	4109.98
425.07	3922.74
425.26	3943.80
425.45	4025.72
425.64	3988.27
425.83	3887.63
426.01	4177.86
426.20	4091.26
426.39	3990.61
426.58	3929.76
426.77	3918.06
426.96	4042.11
427.15	3953.16
427.33	4145.09
427.52	4128.70
427.71	4063.17
427.90	4198.92
428.09	4208.28
428.28	4126.36
428.46	4191.90
428.65	4182.54
428.84	4477.44
429.03	4196.58
429.22	4215.30
429.40	4184.88
429.59	4201.26
429.78	4004.66
429.97	3925.08
430.16	3992.95
430.34	4187.22
430.53	4278.50
430.72	4276.16
430.91	4191.90
431.10	4418.93
431.28	4535.96
431.47	4685.75
431.66	4800.44
431.85	4580.43
432.03	4676.39
432.22	4800.44
432.41	4664.69
432.60	4643.62
432.79	4706.82
432.97	4896.40
433.16	4777.03
433.35	4713.84
433.54	4648.30
433.72	4711.50
433.91	4582.77
434.10	4887.04
434.28	4882.36
434.47	4964.28
434.66	5078.96
434.85	5029.81
435.03	5172.58
435.22	4849.59
435.41	5263.86
435.59	5149.18
435.78	5235.78
435.97	5249.82
436.16	5085.98
436.34	5214.71
436.53	5224.08
436.72	5205.35
436.90	5067.26
437.09	5205.35
437.28	5132.79
437.46	5172.58
437.65	5238.12
437.84	5151.52
438.02	5266.21
438.21	5301.31
438.40	5219.39
438.58	5345.78
438.77	5380.89
438.96	5507.28
439.14	5673.46
439.33	5687.50
439.52	5753.04
439.70	5790.49
439.89	5818.57
440.08	5832.62
440.26	5607.92
440.45	5631.33
440.63	5998.79
440.82	6064.33
441.01	6038.58
441.19	6239.87
441.38	6094.76
441.57	6164.97
441.75	6190.72
441.94	6300.72
442.12	6429.45
442.31	6392.00
442.50	6478.60
442.68	6415.41
442.87	6310.08
443.05	6326.47
443.24	6513.71
443.43	6483.28
443.61	6480.94
443.80	6874.15
443.98	6595.63
444.17	6399.02
444.35	6616.69
444.54	6724.36
444.73	6576.91
444.91	6623.72
445.10	6431.79
445.28	6527.75
445.47	6602.65
445.65	6558.18
445.84	6604.99
446.02	6745.42
446.21	6689.25
446.39	6733.72
446.58	6736.06
446.77	6719.68
446.95	6494.99
447.14	6743.08
447.32	7019.27
447.51	6647.12
447.69	6670.53
447.88	6827.34
448.06	6787.55
448.25	6707.98
448.43	6757.13
448.62	6644.78
448.80	6911.60
448.99	6792.23
449.17	7026.29
449.36	6974.80
449.54	7059.06
449.73	7169.06
449.91	7286.09
450.10	7267.36
450.28	7499.08
450.46	7304.81
450.65	7426.52
450.83	7236.94
451.02	7162.04
451.20	7531.84
451.39	7342.26
451.57	7234.60
451.76	7302.47
451.94	7213.53
452.13	7405.46
452.31	7267.36
452.49	7124.59
452.68	7236.94
452.86	7197.15
453.05	7496.74
453.23	7375.03
453.42	7447.58
453.60	7344.60
453.78	7611.42
453.97	7463.97
454.15	7503.76
454.34	7370.35
454.52	7691.00
454.70	7552.91
454.89	7756.54
455.07	7667.60
455.26	7719.09
455.44	8112.30
455.62	7845.48
455.81	7911.01
455.99	7866.54
456.17	7915.69
456.36	8009.31
456.54	8021.02
456.73	8252.73
456.91	8329.97
457.09	8297.20
457.28	8414.23
457.46	8114.64
457.64	8180.17
457.83	8461.04
458.01	7948.46
458.19	8416.57
458.38	8311.24
458.56	8372.10
458.74	8334.65
458.93	8294.86
459.11	8425.93
459.29	8425.93
459.48	8437.63
459.66	8437.63
459.84	8229.32
460.03	8547.64
460.21	8624.87
460.39	8627.21
460.57	8734.88
460.76	8798.07
460.94	8720.84
461.12	8760.63
461.31	8788.71
461.49	8945.53
461.67	8699.77
461.85	8851.91
462.04	8919.78
462.22	9460.45
462.40	9071.92
462.59	9224.05
462.77	8950.21
462.95	9177.24
463.13	9029.79
463.32	8905.74
463.50	9111.71
463.68	8966.59
463.86	9132.77
464.05	9008.72
464.23	9067.24
464.41	9097.66
464.59	9125.75
464.78	9301.29
464.96	9291.93
465.14	9235.75
465.32	9390.23
465.50	9378.53
465.69	9535.34
465.87	9320.01
466.05	9362.14
466.23	9259.16
466.41	9287.25
466.60	9645.35
466.78	9399.59
466.96	9364.48
467.14	9549.39
467.32	9509.60
467.51	9596.20
467.69	9184.26
467.87	9500.23
468.05	9671.09
468.23	9547.05
468.41	9427.68
468.60	9565.77
468.78	9790.46
468.96	9783.44
469.14	9816.21
469.32	9966.00
469.50	9799.82
469.69	9823.23
469.87	9935.57
470.05	10010.47
470.23	10080.69
470.41	9839.61
470.59	10291.34
470.77	10118.14
470.95	10005.79
471.14	10399.00
471.32	10237.50
471.50	10291.34
471.68	10225.80
471.86	10420.06
472.04	10527.73
472.22	10583.90
472.40	10366.23
472.58	10541.77
472.77	10633.05
472.95	10633.05
473.13	11054.35
473.31	10619.01
473.49	10672.84
473.67	10759.44
473.85	10927.96
474.03	11012.22
474.21	11145.63
474.39	11129.25
474.57	11295.43
474.75	11468.62
474.93	11262.66
475.12	11265.00
475.30	11449.90
475.48	11351.60
475.66	11576.29
475.84	11332.87
476.02	11683.95
476.20	11716.72
476.38	11815.02
476.56	11810.34
476.74	11927.37
476.92	11744.81
477.10	12114.61
477.28	12224.62
477.46	11962.48
477.64	12503.14
477.82	12666.98
478.00	12531.23
478.18	12774.64
478.36	12704.43
478.54	12723.15
478.72	12971.25
478.90	13195.94
479.08	13235.73
479.26	13298.92
479.44	13345.73
479.62	13322.33
479.80	13174.88
479.98	13593.83
480.16	13853.63
480.34	13734.26
480.52	14024.49
480.70	13848.95
480.88	13907.46
481.06	14092.37
481.24	14286.63
481.41	14544.09
481.59	14644.73
481.77	14651.75
481.95	14710.27
482.13	14850.70
482.31	14663.46
482.49	15044.96
482.67	15302.42
482.85	15304.76
483.03	15527.11
483.21	15480.30
483.39	15681.59
483.57	15602.01
483.74	15592.65
483.92	15704.99
484.10	15751.81
484.28	15920.32
484.46	16390.77
484.64	16711.42
484.82	16098.20
485.00	16465.67
485.18	16697.38
485.35	16669.30
485.53	16135.65
485.71	16624.83
485.89	16549.93
486.07	16585.04
486.25	16690.36
486.43	17195.92
486.61	17090.59
486.78	17591.47
486.96	17259.11
487.14	17820.84
487.32	17949.57
487.50	18082.98
487.68	18373.21
487.85	18373.21
488.03	18785.14
488.21	18810.89
488.39	18862.38
488.57	18829.61
488.75	19201.76
488.92	19084.73
489.10	19632.41
489.28	19435.81
489.46	19910.94
489.64	19761.14
489.81	20133.29
489.99	20437.56
490.17	20449.26
490.35	20779.28
490.53	20577.99
490.70	20514.80
490.88	20755.87
491.06	21050.78
491.24	21167.80
491.41	20716.08
491.59	21116.31
491.77	21181.85
491.95	21214.62
492.13	21530.59
492.30	21788.05
492.48	22104.02
492.66	21671.02
492.84	22019.76
493.01	22429.35
493.19	21937.84
493.37	22106.36
493.54	22314.67
493.72	22574.47
493.90	22654.05
494.08	23087.04
494.25	23414.72
494.43	23726.01
494.61	23814.95
494.79	23730.69
494.96	23880.49
495.14	23592.60
495.32	23821.97
495.49	24023.26
495.67	24002.19
495.85	24051.34
496.02	24580.31
496.20	24903.30
496.38	24664.57
496.55	24685.63
496.73	25252.04
496.91	25209.91
497.09	25102.25
497.26	25359.70
497.44	25509.50
497.62	25586.74
497.79	25954.20
497.97	25151.40
498.14	25865.26
498.32	26139.10
498.50	25727.17
498.67	26396.56
498.85	26050.16
499.03	26429.33
499.20	26518.27
499.38	26686.79
499.56	26838.92
499.73	26672.74
499.91	26726.58
500.08	26710.19
500.26	26441.03
500.44	26859.99
500.61	27051.91
500.79	26487.84
500.97	27234.47
501.14	27648.75
501.32	27330.44
501.49	27044.89
501.67	27620.66
501.84	27707.26
502.02	27974.08
502.20	27885.14
502.37	27892.16
502.55	28114.52
502.72	28273.67
502.90	28348.57
503.07	28175.37
503.25	28538.15
503.43	28285.37
503.60	28379.00
503.78	28596.67
503.95	28336.87
504.13	28727.74
504.30	28910.30
504.48	28978.17
504.65	29008.60
504.83	29268.40
505.01	29521.18
505.18	29242.65
505.36	29546.92
505.53	29486.07
505.71	30059.50
505.88	30059.50
506.06	29748.21
506.23	30103.97
506.41	29589.05
506.58	30314.62
506.76	30008.01
506.93	30466.75
507.11	30089.93
507.28	30239.72
507.46	30169.51
507.63	30239.72
507.81	30642.29
507.98	30108.65
508.16	30157.80
508.33	30536.97
508.50	30967.63
508.68	31178.28
508.85	31417.01
509.03	31089.34
509.20	31714.26
509.38	31424.03
509.55	31084.65
509.73	31590.21
509.90	31590.21
510.08	31882.78
510.25	31901.50
510.42	31864.05
510.60	31878.10
510.77	31861.71
510.95	32318.12
511.12	32367.27
511.30	32283.01
511.47	32217.47
511.64	32570.90
511.82	32573.24
511.99	32575.58
512.17	32751.12
512.34	32407.06
512.51	32769.84
512.69	33043.68
512.86	32947.72
513.04	33207.52
513.21	33053.05
513.38	33076.45
513.56	33050.70
513.73	32861.12
513.90	33127.94
514.08	33298.80
514.25	33514.13
514.43	33652.22
514.60	33809.04
514.77	33539.88
514.95	33752.87
515.12	33656.90
515.29	33684.99
515.47	34087.56
515.64	34581.42
515.81	33919.04
515.99	34323.96
516.16	34096.92
516.33	33773.93
516.51	33858.19
516.68	33291.78
516.85	33567.96
517.03	33394.76
517.20	34007.98
517.37	34684.40
517.54	34749.93
517.72	34410.56
517.89	34120.33
518.06	33993.94
518.24	34541.63
518.41	34583.76
518.58	34813.13
518.75	34838.87
518.93	35082.29
519.10	35047.18
519.27	35377.20
519.45	35281.24
519.62	35564.44
519.79	35819.56
519.96	35639.34
520.14	35723.60
520.31	35524.65
520.48	35969.35
520.65	35658.06
520.83	36219.79
521.00	36318.09
521.17	35992.76
521.34	36374.27
521.52	36343.84
521.69	36498.31
521.86	36833.01
522.03	36573.21
522.20	36259.58
522.38	36938.33
522.55	36727.69
522.72	36400.01
522.89	36561.51
523.07	37029.62
523.24	36765.14
523.41	37017.91
523.58	37226.22
523.75	37380.70
523.92	37567.94
524.10	37469.64
524.27	37586.66
524.44	37450.91
524.61	37656.88
524.78	37677.94
524.96	37715.39
525.13	37940.08
525.30	38075.84
525.47	38227.97
525.64	38251.38
525.81	38033.71
525.98	37792.63
526.16	37766.88
526.33	37656.88
526.50	37668.58
526.67	37415.80
526.84	37612.41
527.01	37560.92
527.18	38005.62
527.36	38251.38
527.53	38646.93
527.70	38663.31
527.87	38761.61
528.04	38733.53
528.21	38810.76
528.38	38969.92
528.55	38637.56
528.72	38859.91
528.89	39363.13
529.07	39110.35
529.24	38848.21
529.41	39000.35
529.58	38864.60
529.75	38892.68
529.92	39133.76
530.09	39295.25
530.26	39702.51
530.43	39697.83
530.60	39381.85
530.77	39349.09
530.94	39770.38
531.11	39634.63
531.28	39737.62
531.46	39969.33
531.63	39789.11
531.80	39758.68
531.97	39878.05
532.14	39924.86
532.31	39498.88
532.48	39426.32
532.65	40034.86
532.82	39784.43
532.99	40086.36
533.16	39924.86
533.33	40357.86
533.50	40416.37
533.67	39992.73
533.84	40170.61
534.01	39842.94
534.18	40147.21
534.35	40697.24
534.52	40381.26
534.69	40935.97
534.86	40903.20
535.03	40830.65
535.20	40924.27
535.37	41003.85
535.54	41375.99
535.71	40854.05
535.88	41265.99
536.05	41139.60
536.22	41378.33
536.38	41153.64
536.55	40952.35
536.72	40978.10
536.89	41008.53
537.06	40737.02
537.23	41467.27
537.40	41212.15
537.57	41528.13
537.74	41497.70
537.91	41579.62
538.08	41298.75
538.25	41214.49
538.42	41640.47
538.59	41179.39
538.75	41457.91
538.92	41497.70
539.09	41780.90
539.26	42021.98
539.43	41464.93
539.60	41647.49
539.77	41439.18
539.94	41432.16
540.11	41191.09
540.28	41958.78
540.44	42139.00
540.61	41977.51
540.78	41553.87
540.95	41986.87
541.12	41965.81
541.29	41804.31
541.46	42143.69
541.62	42295.82
541.79	42309.86
541.96	41818.35
542.13	42368.38
542.30	42244.33
542.47	42326.25
542.63	42211.56
542.80	42497.11
542.97	43019.05
543.14	42829.46
543.31	42543.92
543.48	42958.19
543.64	43313.95
543.81	43470.77
543.98	43107.99
544.15	43119.69
544.32	43234.38
544.48	43454.39
544.65	43524.60
544.82	43463.75
544.99	42864.57
545.16	43227.35
545.32	42845.85
545.49	43835.89
545.66	43875.68
545.83	43505.88
546.00	43866.32
546.16	43358.42
546.33	43473.11
546.50	43019.05
546.67	43201.61
546.83	42937.13
547.00	43168.84
547.17	43482.47
547.34	43215.65
547.50	43922.49
547.67	44079.31
547.84	43892.07
548.00	44268.89
548.17	43906.11
548.34	44074.63
548.51	44095.69
548.67	44566.14
548.84	43768.02
549.01	43826.53
549.18	43381.83
549.34	43852.28
549.51	44369.54
549.68	44233.78
549.84	44589.55
550.01	44294.64
550.18	44048.88
550.34	43831.21
550.51	44238.47
550.68	44381.24
550.84	43433.32
551.01	44137.82
551.18	44257.19
551.34	44212.72
551.51	44701.89
551.68	44739.34
551.84	44830.62
552.01	44404.64
552.18	44493.58
552.34	44163.57
552.51	44861.05
552.68	44509.97
552.84	44254.85
553.01	44708.91
553.18	44495.92
553.34	44479.54
553.51	44699.55
553.67	44662.10
553.84	45265.96
554.01	45305.75
554.17	45141.91
554.34	45359.58
554.51	44509.97
554.67	45184.04
554.84	45153.62
555.00	44875.09
555.17	44954.67
555.33	44676.15
555.50	44868.07
555.67	45104.46
555.83	44767.43
556.00	44868.07
556.16	45368.94
556.33	45085.74
556.50	45085.74
556.66	45188.72
556.83	44973.39
556.99	45305.75
557.16	45024.89
557.32	45167.66
557.49	45354.90
557.65	44863.39
557.82	45422.78
557.98	45322.13
558.15	45441.50
558.32	45235.53
558.48	44781.47
558.65	44863.39
558.81	45345.54
558.98	44912.54
559.14	45123.19
559.31	45158.30
559.47	45460.23
559.64	45500.01
559.80	45270.64
559.97	45359.58
560.13	44825.94
560.30	45212.13
560.46	45797.26
560.63	45317.45
560.79	46096.85
560.96	45972.80
561.12	45607.68
561.29	45425.12
561.45	45511.72
561.61	45661.51
561.78	45471.93
561.94	45418.10
562.11	45209.79
562.27	45532.78
562.44	45904.93
562.60	45453.20
562.77	45495.33
562.93	45815.99
563.10	45982.16
563.26	45390.01
563.42	45876.84
563.59	45823.01
563.75	45982.16
563.92	45888.54
564.08	45457.88
564.24	45757.47
564.41	45603.00
564.57	45226.17
564.74	45467.25
564.90	45839.39
565.07	45902.59
565.23	45876.84
565.39	45804.28
565.56	45565.55
565.72	45492.99
565.88	45532.78
566.05	45502.35
566.21	45844.07
566.38	45717.68
566.54	45640.45
566.70	46220.90
566.87	46241.96
567.03	45759.81
567.19	46513.47
567.36	46335.59
567.52	46101.53
567.68	45677.90
567.85	45975.14
568.01	45897.91
568.17	46068.76
568.34	45935.35
568.50	45883.86
568.66	45986.85
568.83	45834.71
568.99	45911.95
569.15	45558.53
569.32	45935.35
569.48	46045.36
569.64	45881.52
569.81	45902.59
569.97	45986.85
570.13	46230.26
570.30	45633.42
570.46	45289.37
570.62	45457.88
570.78	45626.40
570.95	45750.45
571.11	46131.96
571.27	46101.53
571.43	46220.90
571.60	45834.71
571.76	46199.83
571.92	46202.18
572.09	46061.74
572.25	46216.22
572.41	45844.07
572.57	46536.87
572.74	46838.80
572.90	46373.03
573.06	46389.42
573.22	46387.08
573.38	45825.35
573.55	45766.84
573.71	46571.98
573.87	46401.12
574.03	46115.58
574.20	46195.15
574.36	46410.48
574.52	46401.12
574.68	45984.51
574.84	46354.31
575.01	45785.56
575.17	45869.82
575.33	46167.07
575.49	45804.28
575.65	46504.10
575.82	46291.12
575.98	46061.74
576.14	46342.61
576.30	45869.82
576.46	46450.27
576.62	45865.14
576.79	45867.48
576.95	46206.86
577.11	46698.37
577.27	46286.43
577.43	45975.14
577.59	45773.86
577.75	46260.69
577.92	46021.95
578.08	45893.22
578.24	45776.20
578.40	45769.18
578.56	46286.43
578.72	46223.24
578.88	46426.87
579.04	46726.46
579.21	46103.87
579.37	46164.73
579.53	46129.62
579.69	46227.92
579.85	46040.68
580.01	46321.54
580.17	46057.06
580.33	46461.97
580.49	46204.52
580.65	46012.59
580.82	46691.35
580.98	46274.73
581.14	45914.29
581.30	46284.09
581.46	46131.96
581.62	46504.10
581.78	46064.08
581.94	46469.00
582.10	46745.18
582.26	46274.73
582.42	46445.59
582.58	46588.36
582.74	46260.69
582.90	46103.87
583.06	46426.87
583.22	46438.57
583.38	46553.26
583.54	46611.77
583.70	46232.60
583.86	46623.47
584.02	46061.74
584.18	46328.56
584.34	46403.46
584.50	46021.95
584.66	46342.61
584.82	46014.93
584.98	46307.50
585.14	46405.80
585.30	46136.64
585.46	46061.74
585.62	46078.13
585.78	46003.23
585.94	46328.56
586.10	46335.59
586.26	46138.98
586.42	46836.46
586.58	46946.47
586.74	46384.74
586.90	46113.23
587.06	46677.30
587.22	46454.95
587.38	46492.40
587.54	46801.35
587.70	46808.37
587.86	46457.29
588.02	46293.46
588.18	46181.11
588.34	45947.06
588.49	45521.08
588.65	45649.81
588.81	45516.40
588.97	45961.10
589.13	45848.75
589.29	45759.81
589.45	45949.40
589.61	46061.74
589.77	46693.69
589.93	46445.59
