SpectraSuite Data File
++++++++++++++++++++++++++++++++++++
Date: Fri Oct 25 11:23:54 EDT 2013
User: price-jones
Dark Spectrum Present: No
Reference Spectrum Present: No
Number of Sampled Component Spectra: 1
Spectrometers: USB2+H05261
Integration Time (usec): 100000 (USB2+H05261)
Spectra Averaged: 1 (USB2+H05261)
Boxcar Smoothing: 0 (USB2+H05261)
Correct for Electrical Dark: No (USB2+H05261)
Strobe/Lamp Enabled: No (USB2+H05261)
Correct for Detector Non-linearity: No (USB2+H05261)
Correct for Stray Light: No (USB2+H05261)
Number of Pixels in Processed Spectrum: 2048
>>>>>Begin Processed Spectral Data<<<<<
365.73	280.86
365.92	280.86
366.12	280.86
366.32	114.69
366.52	131.07
366.72	147.45
366.91	117.03
367.11	112.35
367.31	58.51
367.51	149.79
367.70	142.77
367.90	161.50
368.10	63.19
368.30	145.11
368.49	105.32
368.69	152.13
368.89	124.05
369.09	152.13
369.28	154.48
369.48	191.92
369.68	203.63
369.87	163.84
370.07	147.45
370.27	191.92
370.47	304.27
370.66	638.97
370.86	688.12
371.06	636.63
371.25	657.69
371.45	657.69
371.65	648.33
371.84	711.52
372.04	660.03
372.24	734.93
372.44	706.84
372.63	791.10
372.83	741.95
373.03	709.18
373.22	723.23
373.42	758.33
373.62	847.27
373.81	706.84
374.01	765.36
374.21	828.55
374.40	830.89
374.60	821.53
374.79	772.38
374.99	833.23
375.19	861.32
375.38	856.64
375.58	807.48
375.78	891.74
375.97	905.79
376.17	835.57
376.37	875.36
376.56	847.27
376.76	826.21
376.95	826.21
377.15	866.00
377.35	908.13
377.54	917.49
377.74	891.74
377.93	1020.47
378.13	875.36
378.33	957.28
378.52	926.85
378.72	915.15
378.91	954.94
379.11	980.68
379.31	976.00
379.50	926.85
379.70	999.41
379.89	1022.81
380.09	1020.47
380.28	968.98
380.48	964.30
380.68	999.41
380.87	964.30
381.07	997.07
381.26	964.30
381.46	1050.90
381.65	1055.58
381.85	1097.71
382.04	1032.18
382.24	1057.92
382.43	1069.62
382.63	1062.60
382.83	1097.71
383.02	1107.07
383.22	1118.78
383.41	1135.16
383.61	1086.01
383.80	1086.01
384.00	1142.18
384.19	1128.14
384.39	1142.18
384.58	1174.95
384.78	1172.61
384.97	1139.84
385.17	1214.74
385.36	1104.73
385.56	1090.69
385.75	1193.67
385.95	1165.59
386.14	1174.95
386.34	1242.82
386.53	1184.31
386.72	1128.14
386.92	1282.61
387.11	1228.78
387.31	1273.25
387.50	1235.80
387.70	1207.72
387.89	1221.76
388.09	1231.12
388.28	1181.97
388.48	1404.32
388.67	1275.59
388.86	1282.61
389.06	1320.06
389.25	1210.06
389.45	1359.85
389.64	1420.71
389.84	1320.06
390.03	1392.62
390.22	1427.73
390.42	1413.68
390.61	1385.60
390.81	1390.28
391.00	1423.05
391.19	1479.22
391.39	1409.00
391.58	1502.62
391.78	1406.66
391.97	1554.12
392.16	1401.98
392.36	1516.67
392.55	1523.69
392.75	1621.99
392.94	1493.26
393.13	1535.39
393.33	1521.35
393.52	1502.62
393.71	1579.86
393.91	1558.80
394.10	1577.52
394.29	1565.82
394.49	1591.56
394.68	1647.74
394.88	1661.78
395.07	1720.29
395.26	1607.95
395.46	1666.46
395.65	1675.82
395.84	1626.67
396.04	1820.94
396.23	1771.79
396.42	1774.13
396.62	1783.49
396.81	1785.83
397.00	1739.02
397.19	1825.62
397.39	1879.45
397.58	1799.87
397.77	1790.51
397.97	1809.23
398.16	1790.51
398.35	1933.28
398.55	1895.83
398.74	1902.86
398.93	1954.35
399.12	2024.56
399.32	1895.83
399.51	2010.52
399.70	2054.99
399.90	1973.07
400.09	2017.54
400.28	2076.06
400.47	2026.90
400.67	2080.74
400.86	2083.08
401.05	2050.31
401.24	2050.31
401.44	2003.50
401.63	2118.18
401.82	2143.93
402.01	2066.69
402.21	2169.68
402.40	2263.30
402.59	2080.74
402.78	2242.23
402.97	2207.13
403.17	2190.74
403.36	2157.97
403.55	2314.79
403.74	2331.17
403.93	2373.30
404.13	2335.85
404.32	2377.98
404.51	2413.09
404.70	2410.75
404.89	2420.11
405.09	2581.61
405.28	2401.39
405.47	2448.20
405.66	2485.65
405.85	2572.25
406.05	2541.82
406.24	2560.55
406.43	2637.78
406.62	2621.40
406.81	2691.62
407.00	2600.34
407.20	2619.06
407.39	2827.37
407.58	2684.59
407.77	2722.04
407.96	2644.81
408.15	2682.25
408.34	2785.24
408.54	2771.19
408.73	2754.81
408.92	2733.75
409.11	2794.60
409.30	2899.92
409.49	3016.95
409.68	2993.55
409.87	2911.63
410.07	3023.97
410.26	3033.33
410.45	3075.46
410.64	3028.65
410.83	3129.30
411.02	3157.38
411.21	3229.94
411.40	3201.85
411.59	3201.85
411.78	3208.87
411.98	3229.94
412.17	3309.52
412.36	3356.33
412.55	3307.18
412.74	3332.92
412.93	3459.31
413.12	3290.79
413.31	3501.44
413.50	3459.31
413.69	3435.91
413.88	3592.72
414.07	3653.58
414.26	3578.68
414.45	3480.38
414.64	3588.04
414.83	3815.07
415.02	3667.62
415.22	3829.12
415.41	3840.82
415.60	3864.22
415.79	3889.97
415.98	3978.91
416.17	3950.82
416.36	3957.85
416.55	4016.36
416.74	4044.45
416.93	3946.14
417.12	4250.41
417.31	4131.05
417.50	4168.49
417.69	4264.46
417.88	4262.12
418.07	4301.90
418.26	4236.37
418.45	4245.73
418.64	4437.66
418.83	4456.38
419.02	4390.84
419.21	4463.40
419.39	4547.66
419.58	4550.00
419.77	4386.16
419.96	4636.60
420.15	4631.92
420.34	4528.94
420.53	4514.89
420.72	4676.39
420.91	4786.40
421.10	4648.30
421.29	4887.04
421.48	4739.58
421.67	4793.42
421.86	4760.65
422.05	4837.89
422.24	4793.42
422.43	5008.75
422.61	4765.33
422.80	5006.41
422.99	4917.47
423.18	4929.17
423.37	5088.32
423.56	4957.25
423.75	4983.00
423.94	4826.18
424.13	4627.24
424.32	4751.29
424.50	5069.60
424.69	5107.05
424.88	5088.32
425.07	4898.74
425.26	5043.85
425.45	4858.95
425.64	5142.16
425.83	5069.60
426.01	5064.92
426.20	5041.51
426.39	5027.47
426.58	5107.05
426.77	4990.02
426.96	5039.17
427.15	5090.67
427.33	5160.88
427.52	5252.16
427.71	5125.77
427.90	5273.23
428.09	5275.57
428.28	5430.04
428.46	5511.96
428.65	5453.45
428.84	5572.82
429.03	5446.43
429.22	5308.34
429.40	5481.53
429.59	5547.07
429.78	5268.55
429.97	5357.49
430.16	5439.40
430.34	5619.63
430.53	5650.05
430.72	5675.80
430.91	5710.91
431.10	5568.13
431.28	5771.76
431.47	5783.46
431.66	5874.74
431.85	5551.75
432.03	5895.81
432.22	6031.56
432.41	6024.54
432.60	6043.26
432.79	5949.64
432.97	5923.90
433.16	6003.47
433.35	5933.26
433.54	6054.97
433.72	6356.90
433.91	6033.90
434.10	6216.46
434.28	6106.46
434.47	6214.12
434.66	6363.92
434.85	6443.49
435.03	6436.47
435.22	6232.85
435.41	6387.32
435.59	6296.04
435.78	6483.28
435.97	6436.47
436.16	6462.22
436.34	6333.49
436.53	6399.02
436.72	6738.40
436.90	6530.09
437.09	6750.10
437.28	6619.04
437.46	6548.82
437.65	6717.34
437.84	6794.58
438.02	6644.78
438.21	6897.56
438.40	6621.38
438.58	7101.19
438.77	7052.03
438.96	6965.43
439.14	7248.64
439.33	7143.32
439.52	7197.15
439.70	7173.74
439.89	7375.03
440.08	7295.45
440.26	7389.07
440.45	7449.93
440.63	7382.05
440.82	7562.27
441.01	7407.80
441.19	7719.09
441.38	7686.32
441.57	7735.47
441.75	7726.11
441.94	7812.71
442.12	7878.24
442.31	7866.54
442.50	8067.83
442.68	8060.80
442.87	8283.16
443.05	8189.53
443.24	8109.96
443.43	8280.82
443.61	8468.06
443.80	8631.90
443.98	7915.69
444.17	7894.63
444.35	8313.58
444.54	8264.43
444.73	8336.99
444.91	8180.17
445.10	8332.31
445.28	8369.76
445.47	8273.79
445.65	8390.82
445.84	8388.48
446.02	8444.65
446.21	8360.39
446.39	8301.88
446.58	8608.49
446.77	8554.66
446.95	8442.31
447.14	8311.24
447.32	8620.19
447.51	8552.32
447.69	8461.04
447.88	8744.24
448.06	8393.16
448.25	8566.36
448.43	8503.17
448.62	8535.93
448.80	8552.32
448.99	8727.86
449.17	8741.90
449.36	8758.28
449.54	8978.30
449.73	8997.02
449.91	9050.85
450.10	9034.47
450.28	9177.24
450.46	9104.68
450.65	9020.42
450.83	9242.78
451.02	8910.42
451.20	9011.06
451.39	9146.81
451.57	9011.06
451.76	9081.28
451.94	9081.28
452.13	9247.46
452.31	9472.15
452.49	9282.56
452.68	9458.10
452.86	9336.40
453.05	9439.38
453.23	9486.19
453.42	9312.99
453.60	9371.50
453.78	9589.17
453.97	9343.42
454.15	9589.17
454.34	9579.81
454.52	9659.39
454.70	9671.09
454.89	9762.37
455.07	9902.81
455.26	9628.96
455.44	10061.96
455.62	9895.78
455.81	9858.34
455.99	10003.45
456.17	9891.10
456.36	10019.83
456.54	10354.53
456.73	10083.03
456.91	10452.83
457.09	10642.42
457.28	10534.75
457.46	10183.67
457.64	10401.34
457.83	10504.32
458.01	10293.68
458.19	10665.82
458.38	10431.77
458.56	10623.69
458.74	10764.12
458.93	10672.84
459.11	10771.15
459.29	10897.53
459.48	10902.22
459.66	10789.87
459.84	11014.56
460.03	11077.76
460.21	10892.85
460.39	11019.24
460.57	10927.96
460.76	11101.16
460.94	11143.29
461.12	11122.23
461.31	11220.53
461.49	11234.57
461.67	11239.25
461.85	11527.14
462.04	11213.51
462.22	11353.94
462.40	11683.95
462.59	11375.00
462.77	11576.29
462.95	11763.53
463.13	11609.06
463.32	11693.32
463.50	11913.33
463.68	11709.70
463.86	11948.43
464.05	11681.61
464.23	11641.82
464.41	12063.12
464.59	11892.26
464.78	12306.54
464.96	12013.97
465.14	11805.66
465.32	12065.46
465.50	12042.06
465.69	12259.73
465.87	12278.45
466.05	12037.38
466.23	12194.19
466.41	12285.47
466.60	12524.21
466.78	12222.28
466.96	12114.61
467.14	12208.23
467.32	12599.10
467.51	12692.73
467.69	12311.22
467.87	12528.89
468.05	12437.61
468.23	12365.05
468.41	12674.00
468.60	12547.61
468.78	12844.86
468.96	12446.97
469.14	12807.41
469.32	13099.98
469.50	12950.18
469.69	12917.42
469.87	13139.77
470.05	13186.58
470.23	13205.30
470.41	13331.69
470.59	13088.28
470.77	13123.38
470.95	13198.28
471.14	13420.63
471.32	13057.85
471.50	13776.39
471.68	13579.79
471.86	13657.03
472.04	13586.81
472.22	14019.81
472.40	13865.33
472.58	13949.59
472.77	14122.79
472.95	14171.94
473.13	14483.24
473.31	13912.14
473.49	14396.64
473.67	13989.38
473.85	14623.67
474.03	14441.11
474.21	14668.14
474.39	14757.08
474.57	14831.97
474.75	15016.88
474.93	14953.68
475.12	15257.95
475.30	15309.44
475.48	14970.07
475.66	15370.30
475.84	14934.96
476.02	15290.72
476.20	15316.47
476.38	15672.23
476.56	16088.84
476.74	16119.27
476.92	15688.61
477.10	15665.21
477.28	16095.86
477.46	16365.03
477.64	16311.19
477.82	16631.85
478.00	16915.05
478.18	16727.81
478.36	17018.04
478.54	17216.98
478.72	17043.78
478.90	17406.56
479.08	17678.07
479.26	17685.09
479.44	17916.80
479.62	18094.68
479.80	18200.01
479.98	18090.00
480.16	18532.36
480.34	18391.93
480.52	18616.62
480.70	18672.79
480.88	18431.72
481.06	18778.12
481.24	18885.78
481.41	19274.31
481.59	19578.58
481.77	19623.05
481.95	19606.67
482.13	19723.69
482.31	19791.57
482.49	20285.42
482.67	20217.55
482.85	20500.75
483.03	20865.88
483.21	20725.44
483.39	21212.28
483.57	21015.67
483.74	21345.69
483.92	21483.78
484.10	21420.58
484.28	21593.78
484.46	21727.19
484.64	22466.80
484.82	21916.78
485.00	22553.40
485.18	22663.41
485.35	22967.68
485.53	22764.05
485.71	23021.51
485.89	23672.18
486.07	23358.55
486.25	23604.30
486.43	23887.51
486.61	23817.29
486.78	24261.99
486.96	24189.44
487.14	24470.30
487.32	24467.96
487.50	24915.00
487.68	24563.92
487.85	25429.92
488.03	25153.74
488.21	26155.49
488.39	25600.78
488.57	26022.08
488.75	26153.15
488.92	26490.18
489.10	26742.96
489.28	26665.72
489.46	27131.49
489.64	26986.38
489.81	27866.42
489.99	27721.30
490.17	27466.19
490.35	28095.79
490.53	27920.25
490.70	28151.96
490.88	28416.44
491.06	28975.83
491.24	28907.96
491.41	28973.49
491.59	29134.99
491.77	29170.10
491.95	29804.38
492.13	29631.18
492.30	30293.55
492.48	30052.48
492.66	30579.10
492.84	30162.48
493.01	30946.56
493.19	30890.39
493.37	31433.39
493.54	31028.48
493.72	31442.76
493.90	31803.20
494.08	31342.11
494.25	32383.65
494.43	32002.14
494.61	32549.83
494.79	32278.33
494.96	32627.07
495.14	33031.98
495.32	33474.34
495.49	33137.30
495.67	33237.95
495.85	33720.10
496.02	33755.21
496.20	33919.04
496.38	33968.19
496.55	34443.32
496.73	35054.20
496.91	34574.39
497.09	34761.64
497.26	34686.74
497.44	34918.45
497.62	35356.13
497.79	36062.97
497.97	35765.73
498.14	36446.82
498.32	36397.67
498.50	36488.95
498.67	36701.94
498.85	36662.15
499.03	36992.17
499.20	36790.88
499.38	37036.64
499.56	37378.36
499.73	37010.89
499.91	37289.42
500.08	37846.46
500.26	37507.08
500.44	37928.38
500.61	38192.86
500.79	37907.32
500.97	38230.31
501.14	38651.61
501.32	38642.24
501.49	38223.29
501.67	39077.58
501.84	39353.77
502.02	38918.43
502.20	39484.84
502.37	39225.04
502.55	39541.01
502.72	39751.66
502.90	39512.92
503.07	39477.82
503.25	40034.86
503.43	39639.31
503.60	39718.89
503.78	40172.96
503.95	40439.78
504.13	40479.57
504.30	40854.05
504.48	40704.26
504.65	40830.65
504.83	41043.63
505.01	41446.21
505.18	41404.08
505.36	41586.64
505.53	41579.62
505.71	42045.38
505.88	41689.62
506.06	41972.83
506.23	41818.35
506.41	41801.97
506.58	42169.43
506.76	42204.54
506.93	42667.97
507.11	42462.00
507.28	42845.85
507.46	42679.67
507.63	43339.70
507.81	43459.07
507.98	42934.79
508.16	43463.75
508.33	43318.64
508.50	43466.09
508.68	43665.03
508.85	44264.21
509.03	43681.42
509.20	44011.43
509.38	44409.32
509.55	44428.05
509.73	44463.16
509.90	44994.46
510.08	44390.60
510.25	44851.69
510.42	44776.79
510.60	45177.02
510.77	45682.58
510.95	45722.37
511.12	45598.32
511.30	45340.86
511.47	45605.34
511.64	45272.98
511.82	46012.59
511.99	45963.44
512.17	45918.97
512.34	45773.86
512.51	46129.62
512.69	46356.65
512.86	46445.59
513.04	46499.42
513.21	46696.03
513.38	46979.23
513.56	46937.10
513.73	47161.79
513.90	47304.57
514.08	47026.04
514.25	47442.66
514.43	47445.00
514.60	47629.90
514.77	47276.48
514.95	47976.30
515.12	47709.48
515.29	47728.20
515.47	47894.38
515.64	48348.45
515.81	47896.72
515.99	48390.58
516.16	48369.51
516.33	48594.20
516.51	48732.29
516.68	48463.13
516.85	48296.95
517.03	48971.03
517.20	49027.20
517.37	49132.53
517.54	49144.23
517.72	49240.19
517.89	49420.41
518.06	49301.04
518.24	49083.37
518.41	49132.53
518.58	49523.40
518.75	49598.29
518.93	49621.70
519.10	49708.30
519.27	49846.39
519.45	49588.93
519.62	50054.70
519.79	50122.57
519.96	50101.51
520.14	50396.42
520.31	50096.83
520.48	50628.13
520.65	50445.57
520.83	50539.19
521.00	50770.90
521.17	50749.84
521.34	50918.35
521.52	51290.50
521.69	50674.94
521.86	50829.41
522.03	51157.09
522.20	51210.92
522.38	51569.02
522.55	51489.45
522.72	51435.61
522.89	51459.02
523.07	51873.29
523.24	51430.93
523.41	52121.39
523.58	51831.16
523.75	52128.41
523.92	51987.98
524.10	51948.19
524.27	51924.78
524.44	51966.91
524.61	52163.52
524.78	52306.29
524.96	52172.88
525.13	52322.68
525.30	52582.48
525.47	52622.26
525.64	52554.39
525.81	52762.70
525.98	52655.03
526.16	52673.76
526.33	52893.77
526.50	53174.63
526.67	52975.69
526.84	52907.81
527.01	52746.31
527.18	53057.60
527.36	53003.77
527.53	53059.94
527.70	53539.75
527.87	53422.73
528.04	53141.86
528.21	53792.53
528.38	53439.11
528.55	53315.06
528.72	53586.57
528.89	53324.43
529.07	53499.97
529.24	53647.42
529.41	53806.58
529.58	53925.94
529.75	53834.66
529.92	53930.62
530.09	54279.36
530.26	54232.55
530.43	54176.38
530.60	54082.76
530.77	54031.27
530.94	54365.96
531.11	54291.07
531.28	54035.95
531.46	54391.71
531.63	54218.51
531.80	54471.29
531.97	54623.42
532.14	54314.47
532.31	54422.14
532.48	54532.14
532.65	54473.63
532.82	54775.56
532.99	54700.66
533.16	54735.77
533.33	54831.73
533.50	55009.61
533.67	54894.92
533.84	54688.96
534.01	55002.59
534.18	55138.34
534.35	55468.36
534.52	55194.51
534.69	55152.38
534.86	55374.73
535.03	55311.54
535.20	55292.82
535.37	55180.47
535.54	55285.79
535.71	55341.97
535.88	55688.37
536.05	55765.60
536.22	55697.73
536.38	55702.41
536.55	55725.81
536.72	55854.54
536.89	55561.98
537.06	55774.97
537.23	55744.54
537.40	55550.27
537.57	55810.07
537.74	55985.61
537.91	56037.11
538.08	56069.87
538.25	56030.08
538.42	56135.41
538.59	56142.43
538.75	56004.34
538.92	56097.96
539.09	56200.94
539.26	56004.34
539.43	56257.12
539.60	56236.05
539.77	56252.44
539.94	56619.90
540.11	56484.15
540.28	56573.09
540.44	56605.86
540.61	56451.38
540.78	56690.12
540.95	56493.51
541.12	56313.29
541.29	56514.58
541.46	56535.64
541.62	56835.23
541.79	56687.78
541.96	56481.81
542.13	56673.73
542.30	56755.65
542.47	56940.55
542.63	56994.39
542.80	57158.22
542.97	56961.62
543.14	57181.63
543.31	57303.34
543.48	57474.20
543.64	57448.45
543.81	57722.29
543.98	57612.29
544.15	57375.89
544.32	57572.50
544.48	57715.27
544.65	57537.39
544.82	57565.48
544.99	57289.29
545.16	57584.20
545.32	57499.94
545.49	57717.61
545.66	57673.14
545.83	57579.52
546.00	57673.14
546.16	57822.93
546.33	57738.68
546.50	57565.48
546.67	57818.25
546.83	57549.09
547.00	57907.19
547.17	57853.36
547.34	57832.30
547.50	57867.40
547.67	58164.65
547.84	58012.52
548.00	58277.00
548.17	58291.04
548.34	58054.65
548.51	58178.70
548.67	58321.47
548.84	58061.67
549.01	58061.67
549.18	58258.27
549.34	58368.28
549.51	58506.37
549.68	58452.54
549.84	58284.02
550.01	58504.03
550.18	58239.55
550.34	58475.94
550.51	58361.26
550.68	58672.55
550.84	58337.85
551.01	58719.36
551.18	58440.84
551.34	58595.31
551.51	58719.36
551.68	58677.23
551.84	58754.47
552.01	58576.59
552.18	58866.81
552.34	58342.53
552.51	58831.71
552.68	58794.26
552.84	58623.40
553.01	59192.15
553.18	58951.07
553.34	59103.21
553.51	58745.11
553.67	58976.82
553.84	59037.67
554.01	58983.84
554.17	59126.61
554.34	59196.83
554.51	59025.97
554.67	59201.51
554.84	59131.29
555.00	59143.00
555.17	59238.96
555.33	59264.70
555.50	59051.72
555.67	58981.50
555.83	59171.08
556.00	59037.67
556.16	59517.48
556.33	59477.69
556.50	59306.83
556.66	59512.80
556.83	59395.77
556.99	59519.82
557.16	59515.14
557.32	59430.88
557.49	59606.42
557.65	59484.72
557.82	59351.30
557.98	59480.03
558.15	59578.34
558.32	59367.69
558.48	59164.06
558.65	59505.78
558.81	59625.15
558.98	59512.80
559.14	59709.41
559.31	59760.90
559.47	59629.83
559.64	59807.71
559.80	59863.88
559.97	59866.22
560.13	59515.14
560.30	59620.47
560.46	59854.52
560.63	59669.62
560.79	59835.80
560.96	59915.37
561.12	59936.44
561.29	59980.91
561.45	59980.91
561.61	60076.87
561.78	59980.91
561.94	60058.15
562.11	60093.25
562.27	59964.52
562.44	60107.30
562.60	60083.89
562.77	60053.47
562.93	59751.54
563.10	60034.74
563.26	59987.93
563.42	60292.20
563.59	60023.04
563.75	59964.52
563.92	60090.91
564.08	59863.88
564.24	60142.41
564.41	60142.41
564.57	60266.45
564.74	60018.36
564.90	60308.58
565.07	60200.92
565.23	60140.07
565.39	60079.21
565.56	60367.10
565.72	60212.62
565.88	60507.53
566.05	60140.07
566.21	60177.51
566.38	60355.39
566.54	60537.96
566.70	60479.44
566.87	60451.36
567.03	60186.88
567.19	60472.42
567.36	60519.23
567.52	60521.57
567.68	60505.19
567.85	60575.40
568.01	60647.96
568.17	60486.46
568.34	60413.91
568.50	60390.50
568.66	60465.40
568.83	60638.60
568.99	60341.35
569.15	60425.61
569.32	60306.24
569.48	60542.64
569.64	60566.04
569.81	60516.89
569.97	60420.93
570.13	60596.47
570.30	60432.63
570.46	60622.22
570.62	60437.31
570.78	60577.75
570.95	60598.81
571.11	60460.72
571.27	60594.13
571.43	60544.98
571.60	60779.03
571.76	60662.00
571.92	60678.39
572.09	60722.86
572.25	60748.60
572.41	60708.82
572.57	60605.83
572.74	60816.48
572.90	60837.54
573.06	60547.32
573.22	60481.78
573.38	60687.75
573.55	60671.37
573.71	61050.53
573.87	60507.53
574.03	60711.16
574.20	60774.35
574.36	60776.69
574.52	60776.69
574.68	60790.73
574.84	60966.27
575.01	60870.31
575.17	60980.32
575.33	60587.11
575.49	60739.24
575.65	60863.29
575.82	60835.20
575.98	60760.31
576.14	61085.64
576.30	60870.31
576.46	60788.39
576.62	60736.90
576.79	60842.23
576.95	60903.08
577.11	61099.68
577.27	60870.31
577.43	60982.66
577.59	60860.95
577.75	60795.42
577.92	60851.59
578.08	60584.77
578.24	61059.90
578.40	60835.20
578.56	60891.38
578.72	60842.23
578.88	60992.02
579.04	61268.20
579.21	60980.32
579.37	61151.18
579.53	61066.92
579.69	60800.10
579.85	60980.32
580.01	60989.68
580.17	60788.39
580.33	61048.19
580.49	60856.27
580.65	61237.78
580.82	60860.95
580.98	60706.47
581.14	60818.82
581.30	61080.96
581.46	60933.51
581.62	60975.64
581.78	60933.51
581.94	61059.90
582.10	61073.94
582.26	60811.80
582.42	61006.06
582.58	60781.37
582.74	60877.33
582.90	61130.11
583.06	60907.76
583.22	60867.97
583.38	61024.79
583.54	61059.90
583.70	60900.74
583.86	61125.43
584.02	60865.63
584.18	61293.95
584.34	61193.31
584.50	61181.60
584.66	61069.26
584.82	60867.97
584.98	61034.15
585.14	61111.39
585.30	61064.58
585.46	60999.04
585.62	61263.52
585.78	61251.82
585.94	61036.49
586.10	61099.68
586.26	60823.50
586.42	61071.60
586.58	61132.45
586.74	60942.87
586.90	60921.80
587.06	61099.68
587.22	61139.47
587.38	61083.30
587.54	61209.69
587.70	61226.07
587.86	61249.48
588.02	60994.36
588.18	61354.80
588.34	61275.22
588.49	61137.13
