SpectraSuite Data File
++++++++++++++++++++++++++++++++++++
Date: Fri Oct 25 11:25:03 EDT 2013
User: price-jones
Dark Spectrum Present: No
Reference Spectrum Present: No
Number of Sampled Component Spectra: 1
Spectrometers: USB2+H05261
Integration Time (usec): 100000 (USB2+H05261)
Spectra Averaged: 1 (USB2+H05261)
Boxcar Smoothing: 0 (USB2+H05261)
Correct for Electrical Dark: No (USB2+H05261)
Strobe/Lamp Enabled: No (USB2+H05261)
Correct for Detector Non-linearity: No (USB2+H05261)
Correct for Stray Light: No (USB2+H05261)
Number of Pixels in Processed Spectrum: 2048
>>>>>Begin Processed Spectral Data<<<<<
365.73	278.52
365.92	278.52
366.12	278.52
366.32	156.82
366.52	53.83
366.72	145.11
366.91	161.50
367.11	77.24
367.31	110.01
367.51	126.39
367.70	147.45
367.90	156.82
368.10	166.18
368.30	177.88
368.49	100.64
368.69	98.30
368.89	117.03
369.09	131.07
369.28	166.18
369.48	133.41
369.68	184.90
369.87	154.48
370.07	231.71
370.27	255.12
370.47	315.97
370.66	594.50
370.86	624.92
371.06	578.11
371.25	667.05
371.45	634.29
371.65	641.31
371.84	683.44
372.04	699.82
372.24	767.70
372.44	699.82
372.63	732.59
372.83	770.04
373.03	732.59
373.22	765.36
373.42	753.65
373.62	748.97
373.81	842.59
374.01	779.40
374.21	805.14
374.40	844.93
374.60	835.57
374.79	854.30
374.99	791.10
375.19	791.10
375.38	770.04
375.58	861.32
375.78	887.06
375.97	805.14
376.17	926.85
376.37	826.21
376.56	858.98
376.76	805.14
376.95	870.68
377.15	884.72
377.35	957.28
377.54	898.77
377.74	837.91
377.93	873.02
378.13	905.79
378.33	938.55
378.52	844.93
378.72	868.34
378.91	959.62
379.11	961.96
379.31	1004.09
379.50	931.53
379.70	940.90
379.89	880.04
380.09	933.87
380.28	891.74
380.48	938.55
380.68	919.83
380.87	950.26
381.07	1093.03
381.26	1001.75
381.46	1004.09
381.65	976.00
381.85	1062.60
382.04	1064.94
382.24	1039.20
382.43	1081.33
382.63	1081.33
382.83	1090.69
383.02	1149.20
383.22	994.73
383.41	1029.84
383.61	1139.84
383.80	1078.99
384.00	1076.65
384.19	1149.20
384.39	1107.07
384.58	1144.52
384.78	1090.69
384.97	1198.35
385.17	1116.44
385.36	1191.33
385.56	1121.12
385.75	1107.07
385.95	1249.85
386.14	1207.72
386.34	1254.53
386.53	1212.40
386.72	1226.44
386.92	1226.44
387.11	1289.64
387.31	1259.21
387.50	1306.02
387.70	1203.04
387.89	1245.16
388.09	1296.66
388.28	1301.34
388.48	1338.79
388.67	1327.08
388.86	1231.12
389.06	1315.38
389.25	1310.70
389.45	1383.26
389.64	1334.11
389.84	1413.68
390.03	1348.15
390.22	1303.68
390.42	1369.21
390.61	1423.05
390.81	1348.15
391.00	1341.13
391.19	1383.26
391.39	1385.60
391.58	1434.75
391.78	1413.68
391.97	1469.86
392.16	1502.62
392.36	1488.58
392.55	1652.42
392.75	1544.75
392.94	1598.59
393.13	1603.27
393.33	1519.01
393.52	1657.10
393.71	1650.08
393.91	1671.14
394.10	1500.28
394.29	1572.84
394.49	1519.01
394.68	1577.52
394.88	1673.48
395.07	1727.32
395.26	1640.72
395.46	1650.08
395.65	1689.87
395.84	1657.10
396.04	1802.21
396.23	1729.66
396.42	1657.10
396.62	1792.85
396.81	1830.30
397.00	1682.85
397.19	1867.75
397.39	1820.94
397.58	1902.86
397.77	1802.21
397.97	1818.60
398.16	1895.83
398.35	1898.17
398.55	1799.87
398.74	1949.67
398.93	1928.60
399.12	1795.19
399.32	1895.83
399.51	1858.39
399.70	1928.60
399.90	2047.97
400.09	1891.15
400.28	2097.12
400.47	1984.77
400.67	1961.37
400.86	2083.08
401.05	2062.01
401.24	2120.53
401.44	2125.21
401.63	2197.76
401.82	2207.13
402.01	2092.44
402.21	2230.53
402.40	2235.21
402.59	2176.70
402.78	2207.13
402.97	2134.57
403.17	2249.25
403.36	2382.67
403.55	2317.13
403.74	2345.22
403.93	2307.77
404.13	2321.81
404.32	2408.41
404.51	2441.18
404.70	2476.29
404.89	2368.62
405.09	2459.90
405.28	2478.63
405.47	2331.17
405.66	2464.58
405.85	2518.42
406.05	2537.14
406.24	2558.21
406.43	2548.84
406.62	2551.18
406.81	2654.17
407.00	2523.10
407.20	2544.16
407.39	2630.76
407.58	2740.77
407.77	2722.04
407.96	2640.12
408.15	2745.45
408.34	2780.56
408.54	2752.47
408.73	2675.23
408.92	2665.87
409.11	2897.58
409.30	2850.77
409.49	2871.84
409.68	2913.97
409.87	2911.63
410.07	3012.27
410.26	2977.16
410.45	3007.59
410.64	3000.57
410.83	3136.32
411.02	3054.40
411.21	3176.11
411.40	3124.62
411.59	3133.98
411.78	3307.18
411.98	3290.79
412.17	3155.04
412.36	3180.79
412.55	3421.86
412.74	3253.34
412.93	3438.25
413.12	3384.41
413.31	3463.99
413.50	3384.41
413.69	3555.27
413.88	3578.68
414.07	3597.40
414.26	3641.87
414.45	3688.68
414.64	3789.33
414.83	3772.94
415.02	3756.56
415.22	3742.52
415.41	3875.93
415.60	3754.22
415.79	3852.52
415.98	3812.73
416.17	3885.29
416.36	3878.27
416.55	3896.99
416.74	4084.23
416.93	4044.45
417.12	4028.06
417.31	4184.88
417.50	4124.02
417.69	4257.43
417.88	4133.39
418.07	4301.90
418.26	4161.47
418.45	4266.80
418.64	4533.62
418.83	4362.76
419.02	4332.33
419.21	4557.02
419.39	4346.37
419.58	4397.87
419.77	4554.68
419.96	4657.67
420.15	4641.28
420.34	4655.33
420.53	4587.45
420.72	4615.54
420.91	4711.50
421.10	4720.86
421.29	4718.52
421.48	4648.30
421.67	4777.03
421.86	4964.28
422.05	4798.10
422.24	4901.08
422.43	4868.31
422.61	5053.22
422.80	5032.15
422.99	4854.27
423.18	5018.11
423.37	5013.43
423.56	4856.61
423.75	4983.00
423.94	4858.95
424.13	4552.34
424.32	4655.33
424.50	4926.83
424.69	5156.20
424.88	5172.58
425.07	4929.17
425.26	4933.85
425.45	4873.00
425.64	4856.61
425.83	4929.17
426.01	5069.60
426.20	5083.64
426.39	5163.22
426.58	5034.49
426.77	5270.89
426.96	5109.39
427.15	5032.15
427.33	5245.14
427.52	5205.35
427.71	5193.65
427.90	5181.95
428.09	5158.54
428.28	5231.10
428.46	5226.42
428.65	5305.99
428.84	5392.59
429.03	5523.66
429.22	5418.34
429.40	5320.04
429.59	5376.21
429.78	5207.69
429.97	5186.63
430.16	5572.82
430.34	5535.37
430.53	5575.16
430.72	5776.44
430.91	5607.92
431.10	5631.33
431.28	5673.46
431.47	5865.38
431.66	5633.67
431.85	5687.50
432.03	5980.07
432.22	6083.05
432.41	5820.91
432.60	5902.83
432.79	5891.13
432.97	6026.88
433.16	5930.92
433.35	5989.43
433.54	6066.67
433.72	6106.46
433.91	6087.73
434.10	6211.78
434.28	6061.99
434.47	6153.27
434.66	6197.74
434.85	6230.51
435.03	6370.94
435.22	6340.51
435.41	6438.81
435.59	6349.87
435.78	6359.24
435.97	6361.58
436.16	6537.12
436.34	6366.26
436.53	6492.65
436.72	6410.73
436.90	6291.36
437.09	6548.82
437.28	6478.60
437.46	6630.74
437.65	6740.74
437.84	6862.45
438.02	6740.74
438.21	6862.45
438.40	6637.76
438.58	6967.77
438.77	7162.04
438.96	7016.93
439.14	6918.62
439.33	6984.16
439.52	7094.16
439.70	7213.53
439.89	7356.30
440.08	7545.89
440.26	7351.62
440.45	7335.24
440.63	7384.39
440.82	7473.33
441.01	7536.52
441.19	7576.31
441.38	7583.34
441.57	7737.81
441.75	7672.28
441.94	7920.37
442.12	7728.45
442.31	8070.17
442.50	8030.38
442.68	8016.33
442.87	7866.54
443.05	7908.67
443.24	8196.56
443.43	8119.32
443.61	8273.79
443.80	8397.84
443.98	7999.95
444.17	7826.75
444.35	8173.15
444.54	8388.48
444.73	8234.00
444.91	8177.83
445.10	8276.13
445.28	8446.99
445.47	8191.88
445.65	8262.09
445.84	8496.14
446.02	8482.10
446.21	8475.08
446.39	8348.69
446.58	8318.26
446.77	8592.11
446.95	8245.71
447.14	8423.59
447.32	8458.70
447.51	8479.76
447.69	8482.10
447.88	8369.76
448.06	8430.61
448.25	8580.40
448.43	8594.45
448.62	8505.51
448.80	8451.67
448.99	8566.36
449.17	8601.47
449.36	8526.57
449.54	8723.18
449.73	9043.83
449.91	8854.25
450.10	8765.31
450.28	9039.15
450.46	8950.21
450.65	9139.79
450.83	8854.25
451.02	9034.47
451.20	9109.36
451.39	9034.47
451.57	9224.05
451.76	9046.17
451.94	9217.03
452.13	9284.91
452.31	9245.12
452.49	9069.58
452.68	9308.31
452.86	9263.84
453.05	9198.31
453.23	9408.95
453.42	9420.66
453.60	9317.67
453.78	9563.43
453.97	9364.48
454.15	9415.98
454.34	9434.70
454.52	9495.55
454.70	9675.77
454.89	9572.79
455.07	9661.73
455.26	9753.01
455.44	9760.03
455.62	9762.37
455.81	9928.55
455.99	10087.71
456.17	9940.26
456.36	10083.03
456.54	10162.61
456.73	10377.94
456.91	10431.77
457.09	10509.01
457.28	10420.06
457.46	10326.44
457.64	10441.13
457.83	10548.79
458.01	10354.53
458.19	10595.61
458.38	10516.03
458.56	10736.04
458.74	10897.53
458.93	10532.41
459.11	10572.20
459.29	10663.48
459.48	10630.71
459.66	10750.08
459.84	11040.31
460.03	10850.72
460.21	10911.58
460.39	10846.04
460.57	10934.98
460.76	11133.93
460.94	11185.42
461.12	11066.05
461.31	10984.13
461.49	11194.78
461.67	11208.83
461.85	11396.07
462.04	11304.79
462.22	11737.79
462.40	11662.89
462.59	11573.95
462.77	11325.85
462.95	11606.72
463.13	11499.05
463.32	11487.35
463.50	11454.58
463.68	11723.74
463.86	11829.07
464.05	11651.19
464.23	11728.42
464.41	11983.54
464.59	11690.98
464.78	12374.41
464.96	12184.83
465.14	11800.98
465.32	12020.99
465.50	12079.50
465.69	12081.85
465.87	12175.47
466.05	12030.35
466.23	12250.36
466.41	12175.47
466.60	12278.45
466.78	11871.20
466.96	12271.43
467.14	12212.92
467.32	12194.19
467.51	12587.40
467.69	12217.60
467.87	12482.08
468.05	12587.40
468.23	12472.71
468.41	12505.48
468.60	12348.67
468.78	12849.54
468.96	12566.34
469.14	12812.09
469.32	13165.51
469.50	12727.83
469.69	12868.27
469.87	13083.59
470.05	13104.66
470.23	13373.82
470.41	13130.41
470.59	13202.96
470.77	12985.29
470.95	13282.54
471.14	13666.39
471.32	12992.31
471.50	13549.36
471.68	13261.48
471.86	13727.24
472.04	13848.95
472.22	13884.06
472.40	13692.13
472.58	13785.76
472.77	13956.61
472.95	14136.84
473.13	14338.12
473.31	13914.48
473.49	13937.89
473.67	14127.47
473.85	14242.16
474.03	14328.76
474.21	14583.88
474.39	14785.16
474.57	14651.75
474.75	14693.88
474.93	14916.23
475.12	14876.44
475.30	14848.36
475.48	14958.36
475.66	15126.88
475.84	15138.58
476.02	15332.85
476.20	15477.96
476.38	15562.22
476.56	15770.53
476.74	16123.95
476.92	15796.28
477.10	15672.23
477.28	16030.33
477.46	16187.14
477.64	16313.53
477.82	16283.11
478.00	16943.14
478.18	16641.21
478.36	16791.00
478.54	16943.14
478.72	17111.66
478.90	17003.99
479.08	17240.39
479.26	17298.90
479.44	17649.98
479.62	17963.61
479.80	18139.15
479.98	18122.77
480.16	18618.96
480.34	18328.74
480.52	18492.57
480.70	18771.10
480.88	18260.86
481.06	18574.49
481.24	18717.26
481.41	19047.28
481.59	19295.38
481.77	19449.85
481.95	19473.26
482.13	19398.36
482.31	19475.60
482.49	20093.50
482.67	19957.75
482.85	20161.37
483.03	20397.77
483.21	20713.74
483.39	20905.66
483.57	20772.25
483.74	21137.38
483.92	21390.16
484.10	21331.64
484.28	21333.98
484.46	21731.87
484.64	22506.59
484.82	21848.90
485.00	22073.59
485.18	22237.43
485.35	22759.37
485.53	22537.02
485.71	22913.84
485.89	23571.54
486.07	23424.08
486.25	23506.00
486.43	23623.03
486.61	23599.62
486.78	23733.03
486.96	24257.31
487.14	24657.54
487.32	24702.01
487.50	24833.08
487.68	24767.55
487.85	25174.80
488.03	25654.61
488.21	25865.26
488.39	25647.59
488.57	25862.92
488.75	25895.69
488.92	26267.83
489.10	26848.29
489.28	26410.60
489.46	26906.80
489.64	26829.56
489.81	27332.78
489.99	27358.52
490.17	27531.72
490.35	28016.21
490.53	28208.14
490.70	28346.23
490.88	28238.56
491.06	28624.75
491.24	28905.62
491.41	29099.88
491.59	28959.45
491.77	29284.78
491.95	29673.31
492.13	29514.16
492.30	30199.93
492.48	29928.43
492.66	29888.64
492.84	30096.95
493.01	31007.42
493.19	30345.05
493.37	30838.90
493.54	31225.09
493.72	31019.12
493.90	31201.68
494.08	31297.64
494.25	31861.71
494.43	31786.82
494.61	32659.84
494.79	32411.74
494.96	32533.45
495.14	32535.79
495.32	33104.54
495.49	33106.88
495.67	33509.45
495.85	33537.54
496.02	33163.05
496.20	33841.81
496.38	33905.00
496.55	33827.76
496.73	34962.92
496.91	34499.50
497.09	34838.87
497.26	34937.18
497.44	34485.45
497.62	35166.55
497.79	35688.49
497.97	35241.45
498.14	35924.88
498.32	35967.01
498.50	35861.69
498.67	36404.69
498.85	36828.33
499.03	36561.51
499.20	36545.12
499.38	36727.69
499.56	37165.37
499.73	37109.19
499.91	37380.70
500.08	37464.96
500.26	37090.47
500.44	37406.44
500.61	37394.74
500.79	37689.65
500.97	38061.79
501.14	38181.16
501.32	38649.27
501.49	38277.12
501.67	38494.79
501.84	38672.67
502.02	38667.99
502.20	38728.84
502.37	39166.52
502.55	39189.93
502.72	39358.45
502.90	39501.22
503.07	39257.81
503.25	39627.61
503.43	39838.26
503.60	39751.66
503.78	40332.11
503.95	40201.04
504.13	40629.36
504.30	40414.03
504.48	40189.34
504.65	40472.54
504.83	40769.79
505.01	41216.83
505.18	41120.87
505.36	41008.53
505.53	41202.79
505.71	41296.41
505.88	41436.84
506.06	41521.10
506.23	41909.63
506.41	41940.06
506.58	41918.99
506.76	41703.67
506.93	41926.02
507.11	42447.96
507.28	42368.38
507.46	42866.91
507.63	42801.38
507.81	42618.81
507.98	42471.36
508.16	43105.65
508.33	43381.83
508.50	43278.85
508.68	43405.23
508.85	44023.14
509.03	43749.29
509.20	44224.42
509.38	44280.60
509.55	44175.27
509.73	44058.24
509.90	44493.58
510.08	44816.58
510.25	44397.62
510.42	44533.37
510.60	44940.63
510.77	44839.98
510.95	45270.64
511.12	44804.88
511.30	45132.55
511.47	45460.23
511.64	45652.15
511.82	45645.13
511.99	45694.28
512.17	46101.53
512.34	45385.33
512.51	45799.60
512.69	46588.36
512.86	46429.21
513.04	46543.89
513.21	46483.04
513.38	46333.24
513.56	46600.07
513.73	46665.60
513.90	46979.23
514.08	46543.89
514.25	47049.45
514.43	47346.70
514.60	47264.78
514.77	47222.65
514.95	47739.91
515.12	47260.10
515.29	47828.85
515.47	47810.12
515.64	47950.56
515.81	47672.03
515.99	48011.41
516.16	48065.24
516.33	48156.52
516.51	48451.43
516.68	48451.43
516.85	48083.97
517.03	48437.39
517.20	48596.54
517.37	48809.53
517.54	48601.22
517.72	49003.80
517.89	48622.29
518.06	49205.08
518.24	49102.10
518.41	48926.56
518.58	49104.44
518.75	48935.92
518.93	49729.36
519.10	49265.94
519.27	49443.82
519.45	50014.91
519.62	49284.66
519.79	49963.42
519.96	49818.30
520.14	50143.64
520.31	50010.23
520.48	50141.30
520.65	49918.95
520.83	50520.46
521.00	50747.50
521.17	50429.18
521.34	50351.94
521.52	50864.52
521.69	50658.56
521.86	50871.54
522.03	50894.95
522.20	51035.38
522.38	51098.58
522.55	51126.66
522.72	50763.88
522.89	51194.54
523.07	51414.55
523.24	51377.10
523.41	51695.41
523.58	50995.59
523.75	51714.14
523.92	51714.14
524.10	51814.78
524.27	51793.71
524.44	52020.75
524.61	51889.68
524.78	52165.86
524.96	52191.61
525.13	52261.82
525.30	52355.44
525.47	52402.25
525.64	52409.28
525.81	52519.28
525.98	52685.46
526.16	52287.57
526.33	52671.42
526.50	52758.02
526.67	52453.75
526.84	52640.99
527.01	52530.98
527.18	52947.60
527.36	52568.43
527.53	52734.61
527.70	53081.01
527.87	53375.92
528.04	52996.75
528.21	53298.68
528.38	53111.44
528.55	53258.89
528.72	53375.92
528.89	53181.65
529.07	53169.95
529.24	53090.37
529.41	53471.88
529.58	53773.81
529.75	53209.74
529.92	53600.61
530.09	53820.62
530.26	53792.53
530.43	54073.40
530.60	53663.80
530.77	53773.81
530.94	53595.93
531.11	53633.38
531.28	54073.40
531.46	54049.99
531.63	54302.77
531.80	54230.21
531.97	54302.77
532.14	54188.08
532.31	54288.73
532.48	54377.67
532.65	54555.55
532.82	54513.42
532.99	54454.90
533.16	54387.03
533.33	54883.22
533.50	54798.96
533.67	54733.43
533.84	54504.06
534.01	54703.00
534.18	54892.58
534.35	55025.99
534.52	54976.84
534.69	55173.45
534.86	55126.64
535.03	55084.51
535.20	55168.77
535.37	55044.72
535.54	55171.11
535.71	55248.35
535.88	55302.18
536.05	55311.54
536.22	55295.16
536.38	55496.44
536.55	55650.92
536.72	55473.04
536.89	55365.37
537.06	55676.66
537.23	55770.28
537.40	55398.14
537.57	55611.13
537.74	55707.09
537.91	55931.78
538.08	56004.34
538.25	55561.98
538.42	55842.84
538.59	56182.22
538.75	55833.48
538.92	56002.00
539.09	56025.40
539.26	55819.44
539.43	56062.85
539.60	56039.45
539.77	55948.17
539.94	56451.38
540.11	56301.59
540.28	56203.28
540.44	56474.79
540.61	56273.50
540.78	56285.20
540.95	56390.53
541.12	56212.65
541.29	56472.45
541.46	56238.39
541.62	56458.40
541.79	56479.47
541.96	56369.46
542.13	56575.43
542.30	56343.72
542.47	56732.25
542.63	56713.52
542.80	56722.88
542.97	56893.74
543.14	57020.13
543.31	57141.84
543.48	57118.43
543.64	57427.38
543.81	57118.43
543.98	57066.94
544.15	56919.49
544.32	57242.48
544.48	57593.56
544.65	57389.94
544.82	57303.34
544.99	57179.29
545.16	57254.18
545.32	57125.46
545.49	57703.57
545.66	57691.86
545.83	57539.73
546.00	57591.22
546.16	57523.35
546.33	57382.91
546.50	57237.80
546.67	57572.50
546.83	57193.33
547.00	57467.17
547.17	57560.79
547.34	57902.51
547.50	57722.29
547.67	57895.49
547.84	57991.45
548.00	58162.31
548.17	58312.11
548.34	58064.01
548.51	58188.06
548.67	58272.32
548.84	57993.79
549.01	58136.57
549.18	58028.90
549.34	58099.12
549.51	58253.59
549.68	58244.23
549.84	58333.17
550.01	58181.04
550.18	58197.42
550.34	58305.09
550.51	58417.43
550.68	58302.74
550.84	58230.19
551.01	58628.08
551.18	58578.93
551.34	58384.66
551.51	58387.00
551.68	58436.16
551.84	58520.41
552.01	58464.24
552.18	58438.50
552.34	58372.96
552.51	58714.68
552.68	58508.71
552.84	58585.95
553.01	58625.74
553.18	58784.90
553.34	58941.71
553.51	58674.89
553.67	58609.35
553.84	58834.05
554.01	58852.77
554.17	58794.26
554.34	58922.99
554.51	58967.46
554.67	58857.45
554.84	58976.82
555.00	58876.18
555.17	59119.59
555.33	58960.44
555.50	58962.78
555.67	58960.44
555.83	58920.65
556.00	59030.65
556.16	59185.13
556.33	59042.35
556.50	59058.74
556.66	59302.15
556.83	59154.70
556.99	59236.62
557.16	59435.56
557.32	59306.83
557.49	59622.81
557.65	59110.23
557.82	59164.06
557.98	59245.98
558.15	59456.63
558.32	59285.77
558.48	59412.16
558.65	59437.90
558.81	59402.80
558.98	59473.01
559.14	59398.12
559.31	59533.87
559.47	59536.21
559.64	59587.70
559.80	59693.02
559.97	59683.66
560.13	59627.49
560.30	59601.74
560.46	59690.68
560.63	59915.37
560.79	59627.49
560.96	59756.22
561.12	59824.09
561.29	59728.13
561.45	59580.68
561.61	59812.39
561.78	59580.68
561.94	59613.44
562.11	59863.88
562.27	59697.70
562.44	59803.03
562.60	59992.61
562.77	59980.91
562.93	59772.60
563.10	59936.44
563.26	59622.81
563.42	59964.52
563.59	59821.75
563.75	59657.91
563.92	59812.39
564.08	59971.55
564.24	60147.09
564.41	60023.04
564.57	60170.49
564.74	59950.48
564.90	60067.51
565.07	60144.75
565.23	59964.52
565.39	59922.40
565.56	60093.25
565.72	60032.40
565.88	60219.64
566.05	59852.18
566.21	59957.50
566.38	60308.58
566.54	60299.22
566.70	60074.53
566.87	60177.51
567.03	60324.97
567.19	60095.60
567.36	60261.77
567.52	60170.49
567.68	60437.31
567.85	60376.46
568.01	60308.58
568.17	60357.74
568.34	60170.49
568.50	60306.24
568.66	60161.13
568.83	60322.63
568.99	60254.75
569.15	60383.48
569.32	60360.08
569.48	60416.25
569.64	60399.86
569.81	60261.77
569.97	60207.94
570.13	60390.50
570.30	60224.32
570.46	60395.18
570.62	60221.98
570.78	60416.25
570.95	60280.50
571.11	60378.80
571.27	60191.56
571.43	60362.42
571.60	60507.53
571.76	60451.36
571.92	60470.08
572.09	60367.10
572.25	60491.15
572.41	60287.52
572.57	60474.76
572.74	60753.29
572.90	60437.31
573.06	60537.96
573.22	60465.40
573.38	60521.57
573.55	60418.59
573.71	60477.10
573.87	60589.45
574.03	60493.49
574.20	60697.11
574.36	60643.28
574.52	60374.12
574.68	60687.75
574.84	60760.31
575.01	60690.09
575.17	60573.06
575.33	60568.38
575.49	60612.85
575.65	60748.60
575.82	60666.69
575.98	60678.39
576.14	60715.84
576.30	60666.69
576.46	60596.47
576.62	60678.39
576.79	60671.37
576.95	60598.81
577.11	60654.98
577.27	60750.94
577.43	60584.77
577.59	60863.29
577.75	60477.10
577.92	60629.24
578.08	60767.33
578.24	60757.97
578.40	60750.94
578.56	60804.78
578.72	60626.90
578.88	60912.44
579.04	60802.44
579.21	60683.07
579.37	60877.33
579.53	60877.33
579.69	60458.38
579.85	60509.87
580.01	60865.63
580.17	60486.46
580.33	60970.96
580.49	60945.21
580.65	60800.10
580.82	60828.18
580.98	60949.89
581.14	60645.62
581.30	60788.39
581.46	60809.46
581.62	60804.78
581.78	60755.63
581.94	61034.15
582.10	60935.85
582.26	60704.13
582.42	60776.69
582.58	60802.44
582.74	60739.24
582.90	60977.98
583.06	60814.14
583.22	60598.81
583.38	60867.97
583.54	60872.65
583.70	60851.59
583.86	60896.06
584.02	60788.39
584.18	60903.08
584.34	60821.16
584.50	60982.66
584.66	60732.22
584.82	60493.49
584.98	60851.59
585.14	60961.59
585.30	60945.21
585.46	61095.00
585.62	60900.74
585.78	61120.75
585.94	60788.39
586.10	61038.83
586.26	61090.32
586.42	60917.12
586.58	61057.56
586.74	60795.42
586.90	60856.27
587.06	60931.17
587.22	61087.98
587.38	60961.59
587.54	61214.37
587.70	61062.24
587.86	60874.99
588.02	60982.66
588.18	61106.71
588.34	60736.90
588.49	60863.29
