SpectraSuite Data File
++++++++++++++++++++++++++++++++++++
Date: Fri Oct 25 10:47:02 EDT 2013
User: price-jones
Dark Spectrum Present: No
Reference Spectrum Present: No
Number of Sampled Component Spectra: 1
Spectrometers: USB2+H05261
Integration Time (usec): 100000 (USB2+H05261)
Spectra Averaged: 1 (USB2+H05261)
Boxcar Smoothing: 0 (USB2+H05261)
Correct for Electrical Dark: No (USB2+H05261)
Strobe/Lamp Enabled: No (USB2+H05261)
Correct for Detector Non-linearity: No (USB2+H05261)
Correct for Stray Light: No (USB2+H05261)
Number of Pixels in Processed Spectrum: 2048
>>>>>Begin Processed Spectral Data<<<<<
365.73	147.45
365.92	147.45
366.12	147.45
366.32	84.26
366.52	4.68
366.72	77.24
366.91	56.17
367.11	42.13
367.31	53.83
367.51	100.64
367.70	9.36
367.90	63.19
368.10	67.88
368.30	0.00
368.49	9.36
368.69	37.45
368.89	60.85
369.09	44.47
369.28	51.49
369.48	65.54
369.68	49.15
369.87	77.24
370.07	156.82
370.27	182.56
370.47	203.63
370.66	388.53
370.86	386.19
371.06	444.70
371.25	433.00
371.45	496.19
371.65	430.66
371.84	489.17
372.04	484.49
372.24	594.50
372.44	545.34
372.63	484.49
372.83	533.64
373.03	510.24
373.22	468.11
373.42	540.66
373.62	519.60
373.81	519.60
374.01	582.79
374.21	505.56
374.40	528.96
374.60	589.82
374.79	543.00
374.99	543.00
375.19	575.77
375.38	559.39
375.58	587.47
375.78	641.31
375.97	566.41
376.17	685.78
376.37	585.13
376.56	620.24
376.76	587.47
376.95	582.79
377.15	711.52
377.35	617.90
377.54	634.29
377.74	566.41
377.93	552.37
378.13	622.58
378.33	641.31
378.52	594.50
378.72	631.94
378.91	638.97
379.11	547.69
379.31	669.39
379.50	657.69
379.70	711.52
379.89	746.63
380.09	585.13
380.28	594.50
380.48	678.76
380.68	720.88
380.87	634.29
381.07	699.82
381.26	720.88
381.46	622.58
381.65	718.54
381.85	627.26
382.04	704.50
382.24	699.82
382.43	653.01
382.63	711.52
382.83	683.44
383.02	702.16
383.22	809.83
383.41	746.63
383.61	676.41
383.80	720.88
384.00	734.93
384.19	683.44
384.39	767.70
384.58	688.12
384.78	809.83
384.97	823.87
385.17	725.57
385.36	849.61
385.56	800.46
385.75	723.23
385.95	821.53
386.14	835.57
386.34	772.38
386.53	842.59
386.72	802.80
386.92	821.53
387.11	856.64
387.31	844.93
387.50	798.12
387.70	833.23
387.89	856.64
388.09	856.64
388.28	873.02
388.48	863.66
388.67	943.24
388.86	947.92
389.06	866.00
389.25	968.98
389.45	898.77
389.64	961.96
389.84	966.64
390.03	940.90
390.22	1025.15
390.42	910.47
390.61	929.19
390.81	889.40
391.00	983.02
391.19	1081.33
391.39	933.87
391.58	983.02
391.78	1020.47
391.97	1018.13
392.16	987.71
392.36	990.05
392.55	999.41
392.75	1025.15
392.94	931.53
393.13	1048.56
393.33	999.41
393.52	1015.79
393.71	1123.46
393.91	1032.18
394.10	1034.52
394.29	1163.25
394.49	1093.03
394.68	1121.12
394.88	1125.80
395.07	1170.27
395.26	1200.69
395.46	1071.97
395.65	1144.52
395.84	1100.05
396.04	1268.57
396.23	1111.75
396.42	1107.07
396.62	1177.29
396.81	1263.89
397.00	1090.69
397.19	1123.46
397.39	1228.78
397.58	1235.80
397.77	1296.66
397.97	1177.29
398.16	1203.04
398.35	1411.34
398.55	1308.36
398.74	1383.26
398.93	1432.41
399.12	1355.17
399.32	1371.55
399.51	1404.32
399.70	1413.68
399.90	1409.00
400.09	1420.71
400.28	1465.18
400.47	1465.18
400.67	1530.71
400.86	1474.54
401.05	1376.24
401.24	1434.75
401.44	1572.84
401.63	1479.22
401.82	1603.27
402.01	1490.92
402.21	1591.56
402.40	1619.65
402.59	1724.97
402.78	1636.03
402.97	1565.82
403.17	1729.66
403.36	1598.59
403.55	1650.08
403.74	1678.16
403.93	1774.13
404.13	1682.85
404.32	1724.97
404.51	1783.49
404.70	1834.98
404.89	1788.17
405.09	1827.96
405.28	1785.83
405.47	1830.30
405.66	1785.83
405.85	1884.13
406.05	1863.07
406.24	1921.58
406.43	1895.83
406.62	1884.13
406.81	2008.18
407.00	1872.43
407.20	1891.15
407.39	1912.22
407.58	1900.52
407.77	2008.18
407.96	1860.73
408.15	2111.16
408.34	1975.41
408.54	2078.40
408.73	2069.03
408.92	2099.46
409.11	2122.87
409.30	2125.21
409.49	2113.50
409.68	2118.18
409.87	1977.75
410.07	2076.06
410.26	2101.80
410.45	2317.13
410.64	2303.09
410.83	2249.25
411.02	2286.70
411.21	2345.22
411.40	2389.69
411.59	2396.71
411.78	2422.45
411.98	2471.61
412.17	2406.07
412.36	2427.14
412.55	2448.20
412.74	2539.48
412.93	2628.42
413.12	2497.35
413.31	2539.48
413.50	2661.19
413.69	2647.15
413.88	2658.85
414.07	2708.00
414.26	2708.00
414.45	2686.94
414.64	2700.98
414.83	2782.90
415.02	2780.56
415.22	2871.84
415.41	2822.69
415.60	2796.94
415.79	2897.58
415.98	3094.19
416.17	2897.58
416.36	2986.52
416.55	2967.80
416.74	3002.91
416.93	2984.18
417.12	3213.56
417.31	3007.59
417.50	3145.68
417.69	3094.19
417.88	3192.49
418.07	3243.98
418.26	3162.06
418.45	3281.43
418.64	3187.81
418.83	3316.54
419.02	3393.78
419.21	3239.30
419.39	3241.64
419.58	3323.56
419.77	3251.00
419.96	3620.81
420.15	3473.36
420.34	3426.54
420.53	3487.40
420.72	3499.10
420.91	3440.59
421.10	3679.32
421.29	3646.55
421.48	3499.10
421.67	3630.17
421.86	3384.41
422.05	3370.37
422.24	3428.88
422.43	3513.14
422.61	3655.92
422.80	3562.30
422.99	3578.68
423.18	3618.47
423.37	3761.24
423.56	3665.28
423.75	3655.92
423.94	3639.53
424.13	3393.78
424.32	3468.67
424.50	3723.79
424.69	3702.73
424.88	3796.35
425.07	3651.24
425.26	3637.19
425.45	3648.90
425.64	3634.85
425.83	3648.90
426.01	3758.90
426.20	3744.86
426.39	3674.64
426.58	3845.50
426.77	3520.17
426.96	3742.52
427.15	3754.22
427.33	3777.62
427.52	3831.46
427.71	3742.52
427.90	3840.82
428.09	3840.82
428.28	3777.62
428.46	3829.12
428.65	3976.57
428.84	4023.38
429.03	4166.15
429.22	3817.41
429.40	3927.42
429.59	3957.85
429.78	3754.22
429.97	3707.41
430.16	3786.99
430.34	3868.91
430.53	3967.21
430.72	4037.42
430.91	4011.68
431.10	4117.00
431.28	4152.11
431.47	4210.62
431.66	4332.33
431.85	4184.88
432.03	4329.99
432.22	4372.12
432.41	4304.25
432.60	4327.65
432.79	4196.58
432.97	4393.19
433.16	4568.73
433.35	4299.56
433.54	4353.40
433.72	4545.32
433.91	4432.97
434.10	4482.13
434.28	4337.01
434.47	4493.83
434.66	4622.56
434.85	4580.43
435.03	4599.15
435.22	4622.56
435.41	4716.18
435.59	4732.56
435.78	4720.86
435.97	4634.26
436.16	4758.31
436.34	4767.67
436.53	4753.63
436.72	4816.82
436.90	4760.65
437.09	4798.10
437.28	4851.93
437.46	4863.63
437.65	4816.82
437.84	5020.45
438.02	4774.69
438.21	4917.47
438.40	4739.58
438.58	5069.60
438.77	5137.48
438.96	5078.96
439.14	5006.41
439.33	5088.32
439.52	5153.86
439.70	5256.84
439.89	5181.95
440.08	5298.97
440.26	5364.51
440.45	5233.44
440.63	5528.35
440.82	5511.96
441.01	5462.81
441.19	5537.71
441.38	5750.70
441.57	5647.71
441.75	5767.08
441.94	5841.98
442.12	5928.58
442.31	5849.00
442.50	5788.14
442.68	5696.86
442.87	5767.08
443.05	5907.51
443.24	6001.13
443.43	5827.93
443.61	5937.94
443.80	6118.16
443.98	5935.60
444.17	5902.83
444.35	6108.80
444.54	6101.78
444.73	6134.54
444.91	6129.86
445.10	5944.96
445.28	5987.09
445.47	5827.93
445.65	6090.07
445.84	5951.98
446.02	6291.36
446.21	5959.00
446.39	6101.78
446.58	6204.76
446.77	5959.00
446.95	5994.11
447.14	6258.59
447.32	6218.80
447.51	6331.15
447.69	6216.46
447.88	6228.17
448.06	6382.64
448.25	6134.54
448.43	6286.68
448.62	6064.33
448.80	6209.44
448.99	6328.81
449.17	6366.26
449.36	6368.60
449.54	6525.41
449.73	6445.84
449.91	6513.71
450.10	6537.12
450.28	6644.78
450.46	6579.25
450.65	6656.48
450.83	6850.75
451.02	6609.67
451.20	6738.40
451.39	6757.13
451.57	6672.87
451.76	6576.91
451.94	6637.76
452.13	6544.14
452.31	6747.76
452.49	6537.12
452.68	6841.39
452.86	6726.70
453.05	6981.82
453.23	7059.06
453.42	6569.88
453.60	6832.02
453.78	6738.40
453.97	6796.92
454.15	6799.26
454.34	6946.71
454.52	7030.97
454.70	7070.76
454.89	7234.60
455.07	7162.04
455.26	7204.17
455.44	7166.72
455.62	7283.75
455.81	7176.08
455.99	7150.34
456.17	7323.54
456.36	7272.04
456.54	7447.58
456.73	7501.42
456.91	7541.21
457.09	7377.37
457.28	7756.54
457.46	7379.71
457.64	7494.40
457.83	7627.81
458.01	7459.29
458.19	7747.17
458.38	7602.06
458.56	7716.75
458.74	7611.42
458.93	7822.07
459.11	7604.40
459.29	7714.41
459.48	7845.48
459.66	7786.96
459.84	7985.91
460.03	7974.21
460.21	7946.12
460.39	7831.43
460.57	7831.43
460.76	7983.57
460.94	7866.54
461.12	7995.27
461.31	8081.87
461.49	8084.21
461.67	8205.92
461.85	8009.31
462.04	8084.21
462.22	8636.58
462.40	8430.61
462.59	8287.84
462.77	8219.96
462.95	8273.79
463.13	8297.20
463.32	8376.78
463.50	8463.38
463.68	8528.91
463.86	8432.95
464.05	8271.45
464.23	8280.82
464.41	8599.13
464.59	8304.22
464.78	8648.28
464.96	8547.64
465.14	8411.89
465.32	8617.85
465.50	8868.29
465.69	8760.63
465.87	8671.68
466.05	8542.96
466.23	8620.19
466.41	8734.88
466.60	8833.18
466.78	8449.33
466.96	8564.02
467.14	8765.31
467.32	8931.48
467.51	8795.73
467.69	8659.98
467.87	8894.04
468.05	8868.29
468.23	8788.71
468.41	8840.20
468.60	8936.17
468.78	8884.67
468.96	8980.64
469.14	9221.71
469.32	8992.34
469.50	8945.53
469.69	8912.76
469.87	9254.48
470.05	9369.16
470.23	9210.01
470.41	9167.88
470.59	9221.71
470.77	9181.92
470.95	9514.28
471.14	9453.42
471.32	9394.91
471.50	9544.70
471.68	9717.90
471.86	9549.39
472.04	9558.75
472.22	10073.67
472.40	9652.37
472.58	9591.52
472.77	9755.35
472.95	9846.63
473.13	10230.48
473.31	9996.43
473.49	9919.19
473.67	9921.53
473.85	9984.73
474.03	10225.80
474.21	10153.24
474.39	10286.65
474.57	10256.23
474.75	10537.09
474.93	10499.64
475.12	10356.87
475.30	10548.79
475.48	10497.30
475.66	10712.63
475.84	10644.76
476.02	10761.78
476.20	10932.64
476.38	10803.91
476.56	11147.97
476.74	11143.29
476.92	10913.92
477.10	10963.07
477.28	11499.05
477.46	11194.78
477.64	11433.52
477.82	11630.12
478.00	11597.35
478.18	11850.13
478.36	11737.79
478.54	12072.48
478.72	12030.35
478.90	12042.06
479.08	12343.99
479.26	12297.17
479.44	12222.28
479.62	12273.77
479.80	12472.71
479.98	12716.13
480.16	12996.99
480.34	12683.36
480.52	12849.54
480.70	12910.40
480.88	12924.44
481.06	12938.48
481.24	13130.41
481.41	13348.08
481.59	13418.29
481.77	13528.30
481.95	13626.60
482.13	13621.92
482.31	13556.38
482.49	14181.31
482.67	14057.26
482.85	14078.32
483.03	14251.52
483.21	14391.95
483.39	14532.39
483.57	14366.21
483.74	14642.39
483.92	14691.54
484.10	14745.38
484.28	15009.86
484.46	15161.99
484.64	15442.85
484.82	15445.20
485.00	15382.00
485.18	15613.71
485.35	15466.26
485.53	15414.77
485.71	15358.60
485.89	15676.91
486.07	15634.78
486.25	15917.98
486.43	16060.76
486.61	16049.05
486.78	16187.14
486.96	16175.44
487.14	16816.75
487.32	16861.22
487.50	17062.51
487.68	17153.79
487.85	17399.54
488.03	17518.91
488.21	17436.99
488.39	17750.62
488.57	17694.45
488.75	17811.48
488.92	17987.02
489.10	18473.85
489.28	18506.62
489.46	18778.12
489.64	18593.22
489.81	18817.91
489.99	19131.54
490.17	19012.17
490.35	19442.83
490.53	19339.85
490.70	19454.53
490.88	19424.11
491.06	19660.50
491.24	19426.45
491.41	19510.71
491.59	19882.85
491.77	19517.73
491.95	19960.09
492.13	20247.97
492.30	20526.50
492.48	20393.09
492.66	20383.73
492.84	20456.28
493.01	21242.70
493.19	21118.65
493.37	20807.36
493.54	21053.12
493.72	21418.24
493.90	21418.24
494.08	21507.18
494.25	21832.52
494.43	21958.91
494.61	21792.73
494.79	22003.38
494.96	22249.13
495.14	21979.97
495.32	22487.87
495.49	22555.74
495.67	22555.74
495.85	22778.09
496.02	23108.11
496.20	22991.08
496.38	23342.16
496.55	23459.19
496.73	24041.98
496.91	23384.29
497.09	23590.26
497.26	23936.66
497.44	23667.50
497.62	24018.58
497.79	24133.26
497.97	23847.72
498.14	24119.22
498.32	24044.32
498.50	24053.69
498.67	24594.35
498.85	24570.94
499.03	24929.05
499.20	24872.87
499.38	24950.11
499.56	24971.18
499.73	25135.01
499.91	25139.69
500.08	25294.17
500.26	25294.17
500.44	25535.24
500.61	25186.50
500.79	25238.00
500.97	25329.28
501.14	25832.49
501.32	26162.51
501.49	25979.95
501.67	25867.60
501.84	26017.40
502.02	26281.88
502.20	26394.22
502.37	26281.88
502.55	26223.36
502.72	26518.27
502.90	26745.30
503.07	26705.51
503.25	26932.54
503.43	26363.79
503.60	26948.93
503.78	27194.68
503.95	27335.12
504.13	27070.64
504.30	27363.20
504.48	27325.75
504.65	27342.14
504.83	27566.83
505.01	27608.96
505.18	27637.05
505.36	27894.50
505.53	27807.90
505.71	28020.89
505.88	28212.82
506.06	27826.63
506.23	28318.14
506.41	28184.73
506.58	28449.21
506.76	28360.27
506.93	28882.21
507.11	28329.84
507.28	28435.17
507.46	28673.90
507.63	28664.54
507.81	28931.36
507.98	28610.71
508.16	28900.94
508.33	29195.84
508.50	29462.66
508.68	29488.41
508.85	29467.34
509.03	29895.66
509.20	29584.37
509.38	29797.36
509.55	30012.69
509.73	30150.78
509.90	30022.05
510.08	29937.79
510.25	29975.24
510.42	30148.44
510.60	30405.90
510.77	30565.06
510.95	30543.99
511.12	30515.90
511.30	30160.14
511.47	31257.85
511.64	31194.66
511.82	31131.47
511.99	30740.60
512.17	30864.64
512.34	31054.23
512.51	31285.94
512.69	31498.93
512.86	31276.58
513.04	31515.31
513.21	31271.90
513.38	31447.44
513.56	31819.58
513.73	31461.48
513.90	31676.81
514.08	31805.54
514.25	32123.85
514.43	32025.55
514.60	31934.27
514.77	31435.74
514.95	32189.39
515.12	32060.66
515.29	32168.32
515.47	32254.92
515.64	32790.91
515.81	32287.69
515.99	32402.38
516.16	32423.44
516.33	32762.82
516.51	32444.51
516.68	32114.49
516.85	31908.52
517.03	32870.48
517.20	32577.92
517.37	32493.66
517.54	33039.00
517.72	32821.33
517.89	32723.03
518.06	32818.99
518.24	32851.76
518.41	32910.27
518.58	33062.41
518.75	33116.24
518.93	33502.43
519.10	34015.01
519.27	33766.91
519.45	33706.05
519.62	33968.19
519.79	34227.99
519.96	34181.18
520.14	34462.05
520.31	34033.73
520.48	34415.24
520.65	34115.65
520.83	34595.46
521.00	34583.76
521.17	34401.19
521.34	34443.32
521.52	34600.14
521.69	34579.07
521.86	34871.64
522.03	34913.77
522.20	34820.15
522.38	34820.15
522.55	35456.78
522.72	35234.42
522.89	35040.16
523.07	35332.73
523.24	34761.64
523.41	35644.02
523.58	35119.74
523.75	36030.21
523.92	35587.85
524.10	35424.01
524.27	35873.39
524.44	36271.28
524.61	35662.74
524.78	36217.45
524.96	36198.73
525.13	36425.76
525.30	36301.71
525.47	35903.82
525.64	36484.27
525.81	36034.89
525.98	35964.67
526.16	35723.60
526.33	36133.19
526.50	36268.94
526.67	36285.33
526.84	36332.14
527.01	35927.22
527.18	36025.53
527.36	36334.48
527.53	36931.31
527.70	37303.46
527.87	37123.24
528.04	37174.73
528.21	36996.85
528.38	37209.84
528.55	37876.89
528.72	37216.86
528.89	37792.63
529.07	37364.31
529.24	37453.25
529.41	37364.31
529.58	37425.17
529.75	37390.06
529.92	37420.48
530.09	37610.07
530.26	37551.56
530.43	37546.87
530.60	37560.92
530.77	37844.12
530.94	37975.19
531.11	38382.45
531.28	38132.01
531.46	37855.82
531.63	38562.67
531.80	38153.07
531.97	38274.78
532.14	37806.67
532.31	37972.85
532.48	38146.05
532.65	38646.93
532.82	38328.61
532.99	38419.89
533.16	38398.83
533.33	38600.12
533.50	39187.59
533.67	38817.78
533.84	38625.86
534.01	38906.73
534.18	38852.89
534.35	38873.96
534.52	38663.31
534.69	38588.41
534.86	39545.69
535.03	38995.67
535.20	39290.57
535.37	39461.43
535.54	39323.34
535.71	39227.38
535.88	39161.84
536.05	39313.98
536.22	39496.54
536.38	39484.84
536.55	39321.00
536.72	39103.33
536.89	39283.55
537.06	39356.11
537.23	39805.49
537.40	39709.53
537.57	39632.29
537.74	40074.65
537.91	40060.61
538.08	39821.87
538.25	39866.34
538.42	39995.07
538.59	40025.50
538.75	39297.59
538.92	40301.68
539.09	40098.06
539.26	40320.41
539.43	40140.19
539.60	39969.33
539.77	39971.67
539.94	40060.61
540.11	39999.76
540.28	39927.20
540.44	39957.63
540.61	40535.74
540.78	40081.67
540.95	40264.24
541.12	40226.79
541.29	40568.51
541.46	40781.49
541.62	40994.48
541.79	40760.43
541.96	40538.08
542.13	40577.87
542.30	40568.51
542.47	40652.76
542.63	41001.50
542.80	40748.73
542.97	41249.60
543.14	41598.34
543.31	41411.10
543.48	41364.29
543.64	41694.30
543.81	41844.10
543.98	41752.82
544.15	41214.49
544.32	41748.14
544.48	41794.95
544.65	41577.28
544.82	41862.82
544.99	41549.19
545.16	41787.92
545.32	41703.67
545.49	41626.43
545.66	42244.33
545.83	42078.15
546.00	41956.44
546.16	41881.55
546.33	41706.01
546.50	41942.40
546.67	42071.13
546.83	41942.40
547.00	41956.44
547.17	41844.10
547.34	42073.47
547.50	42251.35
547.67	42761.59
547.84	42017.30
548.00	42387.10
548.17	42480.72
548.34	42298.16
548.51	42557.96
548.67	42375.40
548.84	42508.81
549.01	42838.83
549.18	42108.58
549.34	42763.93
549.51	43213.31
549.68	43044.79
549.84	42724.14
550.01	43016.71
550.18	42454.98
550.34	42841.17
550.51	42866.91
550.68	42913.72
550.84	42602.43
551.01	42927.77
551.18	43005.00
551.34	43213.31
551.51	43370.13
551.68	42593.07
551.84	43086.92
552.01	42876.27
552.18	43243.74
552.34	42497.11
552.51	43115.01
552.68	42920.74
552.84	43510.56
553.01	43320.98
553.18	43360.76
553.34	43484.81
553.51	43166.50
553.67	43318.64
553.84	43655.67
554.01	43674.40
554.17	43597.16
554.34	43997.39
554.51	43203.95
554.67	43707.16
554.84	43681.42
555.00	43445.02
555.17	43192.25
555.33	43620.56
555.50	43756.32
555.67	43653.33
555.83	43559.71
556.00	44058.24
556.16	44126.12
556.33	43646.31
556.50	43983.35
556.66	44210.38
556.83	43810.15
556.99	44177.61
557.16	44357.83
557.32	44004.41
557.49	43861.64
557.65	43306.93
557.82	44004.41
557.98	43875.68
558.15	43833.55
558.32	44102.71
558.48	43688.44
558.65	44060.58
558.81	43889.73
558.98	44196.34
559.14	44062.93
559.31	44175.27
559.47	44325.07
559.64	44287.62
559.80	44233.78
559.97	44584.86
560.13	44402.30
560.30	43988.03
560.46	44046.54
560.63	43936.54
560.79	44814.24
560.96	44409.32
561.12	44215.06
561.29	44289.96
561.45	44463.16
561.61	44151.87
561.78	44446.77
561.94	44343.79
562.11	44631.68
562.27	44325.07
562.44	44329.75
562.60	44870.41
562.77	44996.80
562.93	44423.37
563.10	45130.21
563.26	44215.06
563.42	44339.11
563.59	44428.05
563.75	44573.16
563.92	44479.54
564.08	44612.95
564.24	44610.61
564.41	44793.17
564.57	44949.99
564.74	45031.91
564.90	44687.85
565.07	45116.17
565.23	44781.47
565.39	44561.46
565.56	45113.83
565.72	44545.08
565.88	44884.45
566.05	44531.03
566.21	44603.59
566.38	44708.91
566.54	44823.60
566.70	44917.22
566.87	45368.94
567.03	44594.23
567.19	45095.10
567.36	45020.20
567.52	44748.70
567.68	44961.69
567.85	44912.54
568.01	45249.58
568.17	44741.68
568.34	44715.93
568.50	44945.31
568.66	44734.66
568.83	45223.83
568.99	44734.66
569.15	45043.61
569.32	45310.43
569.48	44645.72
569.64	44669.12
569.81	44947.65
569.97	44519.33
570.13	44992.12
570.30	44788.49
570.46	44692.53
570.62	44549.76
570.78	44816.58
570.95	44891.48
571.11	45125.53
571.27	45064.67
571.43	44996.80
571.60	44982.76
571.76	45130.21
571.92	45177.02
572.09	45195.74
572.25	44973.39
572.41	44690.19
572.57	45191.06
572.74	45387.67
572.90	45237.87
573.06	45298.73
573.22	45345.54
573.38	45076.38
573.55	44348.47
573.71	45160.64
573.87	45050.63
574.03	44971.05
574.20	45097.44
574.36	45111.49
574.52	45656.83
574.68	45450.86
574.84	45418.10
575.01	45034.25
575.17	45509.38
575.33	45076.38
575.49	45654.49
575.65	45780.88
575.82	45593.64
575.98	45425.12
576.14	45652.15
576.30	45549.17
576.46	45289.37
576.62	45055.31
576.79	45050.63
576.95	44732.32
577.11	45188.72
577.27	45029.57
577.43	45347.88
577.59	45422.78
577.75	44954.67
577.92	45162.98
578.08	45476.61
578.24	45188.72
578.40	45254.26
578.56	45265.96
578.72	45074.04
578.88	45338.52
579.04	45338.52
579.21	45034.25
579.37	45549.17
579.53	44645.72
579.69	44903.18
579.85	45450.86
580.01	45635.77
580.17	45333.84
580.33	45556.19
580.49	45385.33
580.65	45401.71
580.82	45338.52
580.98	44891.48
581.14	45205.11
581.30	45687.26
581.46	45586.61
581.62	45359.58
581.78	45181.70
581.94	45642.79
582.10	45441.50
582.26	45382.99
582.42	45727.05
582.58	45088.08
582.74	45167.66
582.90	45687.26
583.06	45425.12
583.22	45406.39
583.38	45635.77
583.54	45652.15
583.70	45181.70
583.86	45081.06
584.02	45450.86
584.18	45521.08
584.34	45453.20
584.50	45535.12
584.66	45460.23
584.82	45378.31
584.98	45736.41
585.14	45691.94
585.30	44971.05
585.46	45600.66
585.62	45256.60
585.78	45291.71
585.94	45170.00
586.10	45165.32
586.26	45462.57
586.42	45497.67
586.58	45282.34
586.74	45392.35
586.90	45481.29
587.06	45167.66
587.22	45139.57
587.38	45535.12
587.54	45654.49
587.70	45514.06
587.86	45380.65
588.02	45556.19
588.18	45298.73
588.34	45404.05
588.49	44893.82
588.65	45099.78
588.81	45207.45
588.97	45179.36
589.13	44889.13
589.29	45200.43
589.45	45207.45
589.61	45308.09
589.77	45469.59
589.93	45366.60
590.08	45525.76
590.24	46052.38
