SpectraSuite Data File
++++++++++++++++++++++++++++++++++++
Date: Fri Oct 25 11:23:46 EDT 2013
User: price-jones
Dark Spectrum Present: No
Reference Spectrum Present: No
Number of Sampled Component Spectra: 1
Spectrometers: USB2+H05261
Integration Time (usec): 100000 (USB2+H05261)
Spectra Averaged: 1 (USB2+H05261)
Boxcar Smoothing: 0 (USB2+H05261)
Correct for Electrical Dark: No (USB2+H05261)
Strobe/Lamp Enabled: No (USB2+H05261)
Correct for Detector Non-linearity: No (USB2+H05261)
Correct for Stray Light: No (USB2+H05261)
Number of Pixels in Processed Spectrum: 2048
>>>>>Begin Processed Spectral Data<<<<<
365.73	220.01
365.92	220.01
366.12	220.01
366.32	166.18
366.52	147.45
366.72	84.26
366.91	161.50
367.11	135.75
367.31	112.35
367.51	60.85
367.70	88.94
367.90	152.13
368.10	133.41
368.30	100.64
368.49	117.03
368.69	145.11
368.89	205.97
369.09	119.37
369.28	121.71
369.48	175.54
369.68	189.58
369.87	189.58
370.07	140.43
370.27	227.03
370.47	348.74
370.66	641.31
370.86	594.50
371.06	683.44
371.25	608.54
371.45	690.46
371.65	683.44
371.84	662.37
372.04	734.93
372.24	650.67
372.44	671.73
372.63	800.46
372.83	711.52
373.03	753.65
373.22	779.40
373.42	870.68
373.62	812.17
373.81	812.17
374.01	840.25
374.21	884.72
374.40	795.78
374.60	866.00
374.79	795.78
374.99	835.57
375.19	898.77
375.38	816.85
375.58	880.04
375.78	861.32
375.97	877.70
376.17	973.66
376.37	835.57
376.56	915.15
376.76	891.74
376.95	898.77
377.15	866.00
377.35	800.46
377.54	821.53
377.74	849.61
377.93	816.85
378.13	917.49
378.33	954.94
378.52	926.85
378.72	908.13
378.91	1025.15
379.11	931.53
379.31	936.21
379.50	936.21
379.70	1029.84
379.89	1018.13
380.09	1036.86
380.28	985.37
380.48	994.73
380.68	968.98
380.87	980.68
381.07	1022.81
381.26	1027.50
381.46	966.64
381.65	1039.20
381.85	992.39
382.04	1076.65
382.24	1022.81
382.43	990.05
382.63	1093.03
382.83	1104.73
383.02	1123.46
383.22	1076.65
383.41	1046.22
383.61	1041.54
383.80	1139.84
384.00	1102.39
384.19	1078.99
384.39	1149.20
384.58	1191.33
384.78	1111.75
384.97	1167.93
385.17	1149.20
385.36	1137.50
385.56	1158.57
385.75	1158.57
385.95	1165.59
386.14	1228.78
386.34	1219.42
386.53	1242.82
386.72	1217.08
386.92	1181.97
387.11	1228.78
387.31	1200.69
387.50	1203.04
387.70	1268.57
387.89	1235.80
388.09	1240.48
388.28	1203.04
388.48	1287.29
388.67	1275.59
388.86	1294.32
389.06	1273.25
389.25	1376.24
389.45	1404.32
389.64	1261.55
389.84	1350.49
390.03	1362.19
390.22	1369.21
390.42	1366.87
390.61	1394.96
390.81	1387.94
391.00	1465.18
391.19	1441.77
391.39	1404.32
391.58	1460.49
391.78	1420.71
391.97	1455.81
392.16	1364.53
392.36	1493.26
392.55	1472.20
392.75	1451.13
392.94	1561.14
393.13	1535.39
393.33	1530.71
393.52	1469.86
393.71	1495.60
393.91	1547.09
394.10	1584.54
394.29	1558.80
394.49	1565.82
394.68	1586.88
394.88	1687.53
395.07	1685.19
395.26	1720.29
395.46	1696.89
395.65	1769.44
395.84	1619.65
396.04	1830.30
396.23	1706.25
396.42	1701.57
396.62	1767.10
396.81	1795.19
397.00	1846.68
397.19	1781.15
397.39	1755.40
397.58	1816.26
397.77	1867.75
397.97	1886.47
398.16	1928.60
398.35	1947.33
398.55	1813.92
398.74	1879.45
398.93	2069.03
399.12	1849.02
399.32	1870.09
399.51	1940.30
399.70	2038.61
399.90	1944.99
400.09	2097.12
400.28	2064.35
400.47	2092.44
400.67	2127.55
400.86	1991.80
401.05	2015.20
401.24	2230.53
401.44	2083.08
401.63	2045.63
401.82	2120.53
402.01	2129.89
402.21	2228.19
402.40	2218.83
402.59	2305.43
402.78	2317.13
402.97	2221.17
403.17	2251.60
403.36	2260.96
403.55	2279.68
403.74	2382.67
403.93	2347.56
404.13	2345.22
404.32	2415.43
404.51	2370.96
404.70	2359.26
404.89	2312.45
405.09	2534.80
405.28	2569.91
405.47	2518.42
405.66	2490.33
405.85	2455.22
406.05	2579.27
406.24	2516.08
406.43	2534.80
406.62	2675.23
406.81	2665.87
407.00	2605.02
407.20	2733.75
407.39	2560.55
407.58	2672.89
407.77	2736.09
407.96	2785.24
408.15	2771.19
408.34	2696.30
408.54	2803.96
408.73	2745.45
408.92	2841.41
409.11	2869.50
409.30	2965.46
409.49	2881.20
409.68	2949.08
409.87	2930.35
410.07	2874.18
410.26	3084.83
410.45	3005.25
410.64	3054.40
410.83	3117.59
411.02	3117.59
411.21	3197.17
411.40	3246.32
411.59	3309.52
411.78	3328.24
411.98	3236.96
412.17	3194.83
412.36	3323.56
412.55	3377.39
412.74	3485.06
412.93	3524.85
413.12	3318.88
413.31	3492.08
413.50	3489.74
413.69	3578.68
413.88	3637.19
414.07	3541.23
414.26	3693.37
414.45	3574.00
414.64	3660.60
414.83	3655.92
415.02	3728.47
415.22	3967.21
415.41	3770.60
415.60	3929.76
415.79	3885.29
415.98	3786.99
416.17	4093.60
416.36	4067.85
416.55	4025.72
416.74	4119.34
416.93	4074.87
417.12	4039.76
417.31	4257.43
417.50	4210.62
417.69	4269.14
417.88	4264.46
418.07	4255.09
418.26	4348.72
418.45	4308.93
418.64	4528.94
418.83	4484.47
419.02	4461.06
419.21	4435.32
419.39	4528.94
419.58	4479.79
419.77	4479.79
419.96	4559.36
420.15	4615.54
420.34	4664.69
420.53	4603.83
420.72	4622.56
420.91	4524.26
421.10	4727.88
421.29	4917.47
421.48	4610.86
421.67	4835.55
421.86	4748.95
422.05	4842.57
422.24	4798.10
422.43	4894.06
422.61	4823.84
422.80	4936.19
422.99	5011.09
423.18	5130.45
423.37	5093.01
423.56	4973.64
423.75	5041.51
423.94	4922.15
424.13	4528.94
424.32	4711.50
424.50	5102.37
424.69	5123.43
424.88	5074.28
425.07	4910.44
425.26	4905.76
425.45	5060.24
425.64	5048.54
425.83	4999.38
426.01	5111.73
426.20	5055.56
426.39	4957.25
426.58	5064.92
426.77	5036.83
426.96	5083.64
427.15	5043.85
427.33	5163.22
427.52	5242.80
427.71	5135.14
427.90	5235.78
428.09	5408.98
428.28	5338.76
428.46	5298.97
428.65	5462.81
428.84	5666.44
429.03	5495.58
429.22	5497.92
429.40	5488.56
429.59	5612.60
429.78	5291.95
429.97	5364.51
430.16	5565.79
430.34	5584.52
430.53	5657.07
430.72	5600.90
430.91	5638.35
431.10	5621.97
431.28	5771.76
431.47	5846.66
431.66	5729.63
431.85	5982.41
432.03	5956.66
432.22	5963.68
432.41	5895.81
432.60	5966.03
432.79	6059.65
432.97	6057.31
433.16	6017.52
433.35	6097.10
433.54	6249.23
433.72	6176.67
433.91	6155.61
434.10	6265.61
434.28	6127.52
434.47	6380.30
434.66	6253.91
434.85	6291.36
435.03	6296.04
435.22	6324.13
435.41	6504.35
435.59	6532.44
435.78	6576.91
435.97	6487.96
436.16	6612.01
436.34	6471.58
436.53	6590.95
436.72	6906.92
436.90	6452.86
437.09	6604.99
437.28	6403.71
437.46	6530.09
437.65	6609.67
437.84	6808.62
438.02	6684.57
438.21	6836.70
438.40	6691.59
438.58	6836.70
438.77	7007.56
438.96	7063.74
439.14	7119.91
439.33	7150.34
439.52	7274.38
439.70	7316.51
439.89	7377.37
440.08	7323.54
440.26	7475.67
440.45	7456.95
440.63	7447.58
440.82	7817.39
441.01	7552.91
441.19	7468.65
441.38	7819.73
441.57	7655.89
441.75	7878.24
441.94	7812.71
442.12	7922.71
442.31	8009.31
442.50	7868.88
442.68	8060.80
442.87	8042.08
443.05	8142.72
443.24	8386.14
443.43	8063.15
443.61	8109.96
443.80	8425.93
443.98	8042.08
444.17	7894.63
444.35	8311.24
444.54	8390.82
444.73	8325.29
444.91	8479.76
445.10	8376.78
445.28	8255.07
445.47	8142.72
445.65	8505.51
445.84	8549.98
446.02	8507.85
446.21	8526.57
446.39	8624.87
446.58	8620.19
446.77	8500.83
446.95	8444.65
447.14	8475.08
447.32	8505.51
447.51	8524.23
447.69	8725.52
447.88	8531.25
448.06	8622.53
448.25	8678.71
448.43	8489.12
448.62	8671.68
448.80	8580.40
448.99	8704.45
449.17	8758.28
449.36	8713.81
449.54	8905.74
449.73	8924.46
449.91	9153.84
450.10	9081.28
450.28	8980.64
450.46	9336.40
450.65	8971.27
450.83	9261.50
451.02	9128.09
451.20	9233.41
451.39	9249.80
451.57	9280.22
451.76	9212.35
451.94	9165.54
452.13	9366.82
452.31	9415.98
452.49	9235.75
452.68	9394.91
452.86	9235.75
453.05	9465.13
453.23	9626.62
453.42	9380.87
453.60	9453.42
453.78	9930.89
453.97	9568.11
454.15	9563.43
454.34	9462.79
454.52	9750.67
454.70	9682.80
454.89	9764.72
455.07	9912.17
455.26	9905.15
455.44	9994.09
455.62	9816.21
455.81	10033.88
455.99	10157.92
456.17	10164.95
456.36	10078.35
456.54	10225.80
456.73	10223.46
456.91	10448.15
457.09	10281.97
457.28	10441.13
457.46	10293.68
457.64	10553.48
457.83	10527.73
458.01	10406.02
458.19	10827.32
458.38	10523.05
458.56	10661.14
458.74	10602.63
458.93	10689.23
459.11	10824.98
459.29	10647.10
459.48	10960.73
459.66	10792.21
459.84	10984.13
460.03	11030.94
460.21	11049.67
460.39	10862.43
460.57	10932.64
460.76	11162.01
460.94	11510.75
461.12	11159.67
461.31	11377.34
461.49	11119.89
461.67	11192.44
461.85	11634.80
462.04	11325.85
462.22	11613.74
462.40	11878.22
462.59	11557.57
462.77	11513.10
462.95	11672.25
463.13	11634.80
463.32	11592.67
463.50	11772.89
463.68	12020.99
463.86	11772.89
464.05	11721.40
464.23	11894.60
464.41	12032.69
464.59	11712.04
464.78	12290.15
464.96	12030.35
465.14	12035.03
465.32	12175.47
465.50	12133.34
465.69	12116.95
465.87	12205.89
466.05	12135.68
466.23	12400.16
466.41	12290.15
466.60	12381.43
466.78	12079.50
466.96	12320.58
467.14	12358.03
467.32	12685.70
467.51	12594.42
467.69	12095.89
467.87	12456.33
468.05	12739.54
468.23	12610.81
468.41	12568.68
468.60	12776.98
468.78	12868.27
468.96	12578.04
469.14	12695.07
469.32	13172.54
469.50	12858.90
469.69	13085.94
469.87	12980.61
470.05	13092.96
470.23	13224.03
470.41	13118.70
470.59	13324.67
470.77	13104.66
470.95	13256.79
471.14	13769.37
471.32	13142.11
471.50	13699.16
471.68	13839.59
471.86	13757.67
472.04	13804.48
472.22	14246.84
472.40	13867.67
472.58	13914.48
472.77	14148.54
472.95	14080.66
473.13	14487.92
473.31	14090.02
473.49	14417.70
473.67	14214.07
473.85	14270.25
474.03	14775.80
474.21	14651.75
474.39	14626.01
474.57	14885.81
474.75	14647.07
474.93	15014.54
475.12	15021.56
475.30	15328.17
475.48	15257.95
475.66	15243.91
475.84	15286.04
476.02	15662.86
476.20	15513.07
476.38	15871.17
476.56	16170.76
476.74	16030.33
476.92	16004.58
477.10	15712.02
477.28	16318.22
477.46	16358.00
477.64	16390.77
477.82	16603.76
478.00	17263.79
478.18	16966.54
478.36	17261.45
478.54	17252.09
478.72	17549.34
478.90	17465.08
479.08	17750.62
479.26	17497.84
479.44	17881.69
479.62	18010.42
479.80	18061.91
479.98	18185.96
480.16	18675.13
480.34	18494.91
480.52	18682.16
480.70	18597.90
480.88	18431.72
481.06	18642.37
481.24	18810.89
481.41	19391.34
481.59	19295.38
481.77	19709.65
481.95	19545.81
482.13	19866.47
482.31	20025.62
482.49	20449.26
482.67	20266.70
482.85	20573.31
483.03	20486.71
483.21	20769.91
483.39	21050.78
483.57	20908.01
483.74	21331.64
483.92	21556.33
484.10	21493.14
484.28	21895.71
484.46	22155.51
484.64	22157.85
484.82	22623.62
485.00	22546.38
485.18	22874.06
485.35	23061.30
485.53	23009.81
485.71	22883.42
485.89	24077.09
486.07	23496.64
486.25	23463.87
486.43	23913.25
486.61	24065.39
486.78	24261.99
486.96	24327.53
487.14	24617.75
487.32	24783.93
487.50	25116.29
487.68	24982.88
487.85	25207.57
488.03	25605.46
488.21	26115.70
488.39	26024.42
488.57	26059.52
488.75	26314.64
488.92	26647.00
489.10	27159.58
489.28	26967.65
489.46	27281.28
489.64	27037.87
489.81	27690.88
489.99	27892.16
490.17	27803.22
490.35	28421.13
490.53	28552.20
490.70	28629.43
490.88	28596.67
491.06	29010.94
491.24	29205.20
491.41	29142.01
491.59	29565.65
491.77	29642.88
491.95	29663.95
492.13	30174.19
492.30	29846.51
492.48	30277.17
492.66	30029.07
492.84	30515.90
493.01	30754.64
493.19	30728.89
493.37	31246.15
493.54	31498.93
493.72	31772.77
493.90	31498.93
494.08	31683.83
494.25	32121.51
494.43	32357.91
494.61	32594.30
494.79	32725.37
494.96	32765.16
495.14	33022.62
495.32	33532.86
495.49	33654.56
495.67	33301.14
495.85	33832.44
496.02	33792.65
496.20	34387.15
496.38	34052.45
496.55	34110.97
496.73	35147.82
496.91	34700.78
497.09	35012.07
497.26	34911.43
497.44	35002.71
497.62	35433.37
497.79	35964.67
497.97	35718.92
498.14	35903.82
498.32	36339.16
498.50	35995.10
498.67	36542.78
498.85	36643.43
499.03	37273.03
499.20	37216.86
499.38	36865.78
499.56	37366.65
499.73	37455.59
499.91	37144.30
500.08	37839.44
500.26	37429.85
500.44	38033.71
500.61	37919.02
500.79	37991.58
500.97	38600.12
501.14	38728.84
501.32	38557.99
501.49	38714.80
501.67	38717.14
501.84	38998.01
502.02	38897.36
502.20	39445.05
502.37	39482.50
502.55	39662.72
502.72	39775.06
502.90	39805.49
503.07	39742.30
503.25	40341.47
503.43	39482.50
503.60	40484.25
503.78	40215.08
503.95	40327.43
504.13	40549.78
504.30	40868.09
504.48	40692.55
504.65	41109.17
504.83	41060.02
505.01	41869.84
505.18	41357.27
505.36	41556.21
505.53	41453.23
505.71	41933.04
505.88	42024.32
506.06	41240.24
506.23	42239.65
506.41	41972.83
506.58	41813.67
506.76	42859.89
506.93	42616.47
507.11	42288.80
507.28	43021.39
507.46	42902.02
507.63	43491.83
507.81	43730.57
507.98	43115.01
508.16	43416.94
508.33	43665.03
508.50	43779.72
508.68	43711.84
508.85	44062.93
509.03	44236.12
509.20	44339.11
509.38	44376.56
509.55	44659.76
509.73	44776.79
509.90	44945.31
510.08	44727.64
510.25	45013.18
510.42	45425.12
510.60	45139.57
510.77	45083.40
510.95	45317.45
511.12	45240.21
511.30	45495.33
511.47	45476.61
511.64	45516.40
511.82	46501.76
511.99	45621.72
512.17	46080.47
512.34	46260.69
512.51	46574.32
512.69	46443.25
512.86	46349.63
513.04	46887.95
513.21	46883.27
513.38	47077.54
513.56	47058.81
513.73	46696.03
513.90	47302.23
514.08	47388.83
514.25	47501.17
514.43	48006.73
514.60	48048.86
514.77	47334.99
514.95	48020.77
515.12	47622.88
515.29	47866.30
515.47	48287.59
515.64	48463.13
515.81	48200.99
515.99	47988.00
516.16	48531.01
516.33	48685.48
516.51	49043.59
516.68	48779.10
516.85	48512.28
517.03	48776.76
517.20	49001.46
517.37	49226.15
517.54	49291.68
517.72	48952.30
517.89	49558.50
518.06	49385.30
518.24	49209.76
518.41	49221.47
518.58	49734.04
518.75	49565.52
518.93	49827.66
519.10	49659.15
519.27	49771.49
519.45	50377.69
519.62	50195.13
519.79	50291.09
519.96	50387.05
520.14	50494.72
520.31	50155.34
520.48	50398.76
520.65	50394.07
520.83	50883.25
521.00	50897.29
521.17	50878.57
521.34	50876.22
521.52	50843.46
521.69	50738.13
521.86	51164.11
522.03	51180.49
522.20	51683.71
522.38	51735.20
522.55	51384.12
522.72	51428.59
522.89	51309.22
523.07	51983.30
523.24	51880.31
523.41	51992.66
523.58	51873.29
523.75	52168.20
523.92	52383.53
524.10	52266.50
524.27	51896.70
524.44	52266.50
524.61	52030.11
524.78	52371.83
524.96	52451.41
525.13	52371.83
525.30	52615.24
525.47	52701.84
525.64	52811.85
525.81	53071.65
525.98	52912.49
526.16	52617.58
526.33	52598.86
526.50	53116.12
526.67	52999.09
526.84	53031.86
527.01	52954.62
527.18	53235.48
527.36	52926.53
527.53	53095.05
527.70	53687.21
527.87	53462.52
528.04	53312.72
528.21	53464.86
528.38	53340.81
528.55	53565.50
528.72	53525.71
528.89	53668.48
529.07	53490.60
529.24	53389.96
529.41	54019.56
529.58	53743.38
529.75	53958.71
529.92	54080.42
530.09	54152.97
530.26	54005.52
530.43	54178.72
530.60	53907.22
530.77	53963.39
530.94	54424.48
531.11	54035.95
531.28	54609.38
531.46	54569.59
531.63	54485.33
531.80	54223.19
531.97	54621.08
532.14	54796.62
532.31	54656.19
532.48	54756.83
532.65	54869.18
532.82	54595.34
532.99	54717.04
533.16	54820.03
533.33	55107.91
533.50	55171.11
533.67	54967.48
533.84	54890.24
534.01	55112.59
534.18	55255.37
534.35	55407.50
534.52	55409.84
534.69	55477.72
534.86	55154.72
535.03	55075.15
535.20	55398.14
535.37	55517.51
535.54	55421.55
535.71	55597.09
535.88	55461.33
536.05	55377.08
536.22	55674.32
536.38	55999.66
536.55	55842.84
536.72	55861.57
536.89	55931.78
537.06	55646.24
537.23	56034.77
537.40	55917.74
537.57	55941.14
537.74	55964.55
537.91	56189.24
538.08	56053.49
538.25	55899.01
538.42	56133.07
538.59	56339.04
538.75	55901.36
538.92	56402.23
539.09	56346.06
539.26	56332.01
539.43	56371.80
539.60	56264.14
539.77	56268.82
539.94	56568.41
540.11	56521.60
540.28	56680.75
540.44	56526.28
540.61	56645.65
540.78	56605.86
540.95	56629.26
541.12	56470.11
541.29	56537.98
541.46	56633.94
541.62	56669.05
541.79	56774.37
541.96	56451.38
542.13	56729.90
542.30	56903.10
542.47	56816.50
542.63	57008.43
542.80	57017.79
542.97	57153.54
543.14	57235.46
543.31	57279.93
543.48	57455.47
543.64	57513.98
543.81	57558.45
543.98	57385.25
544.15	57436.75
544.32	57626.33
544.48	57764.42
544.65	57652.08
544.82	57497.60
544.99	57478.88
545.16	57518.67
545.32	57677.82
545.49	57890.81
545.66	57792.51
545.83	57794.85
546.00	58103.80
546.16	58012.52
546.33	57904.85
546.50	57799.53
546.67	57659.10
546.83	57584.20
547.00	58061.67
547.17	57733.99
547.34	57799.53
547.50	58031.24
547.67	58356.58
547.84	58223.17
548.00	58216.14
548.17	58504.03
548.34	58277.00
548.51	58113.16
548.67	58354.24
548.84	58253.59
549.01	58192.74
549.18	58248.91
549.34	58300.40
549.51	58555.52
549.68	58534.46
549.84	58293.38
550.01	58625.74
550.18	58459.56
550.34	58466.58
550.51	58602.33
550.68	58791.92
550.84	58394.03
551.01	58693.61
551.18	58702.98
551.34	58735.74
551.51	58798.94
551.68	58646.80
551.84	58464.24
552.01	58646.80
552.18	58951.07
552.34	58857.45
552.51	58838.73
552.68	58695.95
552.84	58932.35
553.01	59051.72
553.18	58890.22
553.34	58993.20
553.51	58798.94
553.67	59341.94
553.84	58962.78
554.01	59152.36
554.17	59203.85
554.34	59025.97
554.51	59133.63
554.67	59234.28
554.84	59217.89
555.00	59353.65
555.17	59054.06
555.33	59168.74
555.50	58930.01
555.67	59089.16
555.83	59213.21
556.00	59407.48
556.16	59405.14
556.33	59531.53
556.50	59388.75
556.66	59480.03
556.83	59241.30
556.99	59618.13
557.16	59639.19
557.32	59657.91
557.49	59650.89
557.65	59435.56
557.82	59606.42
557.98	59517.48
558.15	59437.90
558.32	59678.98
558.48	59629.83
558.65	59746.86
558.81	59583.02
558.98	59723.45
559.14	59683.66
559.31	59971.55
559.47	59702.38
559.64	59870.90
559.80	59936.44
559.97	59828.77
560.13	59746.86
560.30	59807.71
560.46	60062.83
560.63	59934.10
560.79	59796.01
560.96	60030.06
561.12	60065.17
561.29	59973.89
561.45	59980.91
561.61	59898.99
561.78	59882.61
561.94	59896.65
562.11	59957.50
562.27	59994.95
562.44	59994.95
562.60	60107.30
562.77	60231.35
562.93	59728.13
563.10	60191.56
563.26	60191.56
563.42	60310.92
563.59	60100.28
563.75	60207.94
563.92	60226.66
564.08	60151.77
564.24	60331.99
564.41	60329.65
564.57	60346.03
564.74	60348.37
564.90	60140.07
565.07	60299.22
565.23	60067.51
565.39	60399.86
565.56	60357.74
565.72	60486.46
565.88	60261.77
566.05	60292.20
566.21	60334.33
566.38	60397.52
566.54	60507.53
566.70	60584.77
566.87	60542.64
567.03	60250.07
567.19	60449.02
567.36	60652.64
567.52	60320.29
567.68	60598.81
567.85	60762.65
568.01	60568.38
568.17	60566.04
568.34	60608.17
568.50	60755.63
568.66	60339.01
568.83	60554.34
568.99	60594.13
569.15	60662.00
569.32	60561.36
569.48	60378.80
569.64	60573.06
569.81	60713.50
569.97	60294.54
570.13	60605.83
570.30	60575.40
570.46	60582.43
570.62	60650.30
570.78	60631.58
570.95	60713.50
571.11	60821.16
571.27	60835.20
571.43	60652.64
571.60	60809.46
571.76	60842.23
571.92	60631.58
572.09	60636.26
572.25	60650.30
572.41	60669.03
572.57	60697.11
572.74	60860.95
572.90	60781.37
573.06	60715.84
573.22	60767.33
573.38	60652.64
573.55	60664.35
573.71	60910.10
573.87	60734.56
574.03	60533.28
574.20	60781.37
574.36	60664.35
574.52	60790.73
574.68	60851.59
574.84	60727.54
575.01	60865.63
575.17	60952.23
575.33	60795.42
575.49	60788.39
575.65	60870.31
575.82	60832.86
575.98	61052.87
576.14	61111.39
576.30	60917.12
576.46	60863.29
576.62	60870.31
576.79	61097.34
576.95	60790.73
577.11	60975.64
577.27	61151.18
577.43	61001.38
577.59	60954.57
577.75	60755.63
577.92	60748.60
578.08	60853.93
578.24	60926.49
578.40	61188.63
578.56	61087.98
578.72	61048.19
578.88	61146.50
579.04	61113.73
579.21	61087.98
579.37	61055.21
579.53	61174.58
579.69	60816.48
579.85	61020.11
580.01	60992.02
580.17	60860.95
580.33	61069.26
580.49	61181.60
580.65	61113.73
580.82	60872.65
580.98	60928.83
581.14	60921.80
581.30	61087.98
581.46	60938.19
581.62	60999.04
581.78	61062.24
581.94	61123.09
582.10	61127.77
582.26	60917.12
582.42	61113.73
582.58	60982.66
582.74	60837.54
582.90	61017.77
583.06	60935.85
583.22	60945.21
583.38	60970.96
583.54	61237.78
583.70	60935.85
583.86	61109.05
584.02	61104.37
584.18	61106.71
584.34	61015.43
584.50	61319.70
584.66	60893.72
584.82	60851.59
584.98	61425.02
585.14	60947.55
585.30	61137.13
585.46	61345.44
585.62	61265.86
585.78	61200.33
585.94	61183.94
586.10	60989.68
586.26	61083.30
586.42	61385.23
586.58	61148.84
586.74	61240.12
586.90	60917.12
587.06	60992.02
587.22	61249.48
587.38	61174.58
587.54	61251.82
587.70	61296.29
587.86	61111.39
588.02	61111.39
588.18	61474.17
588.34	61137.13
588.49	61193.31
