SpectraSuite Data File
++++++++++++++++++++++++++++++++++++
Date: Fri Oct 25 11:23:35 EDT 2013
User: price-jones
Dark Spectrum Present: No
Reference Spectrum Present: No
Number of Sampled Component Spectra: 1
Spectrometers: USB2+H05261
Integration Time (usec): 100000 (USB2+H05261)
Spectra Averaged: 1 (USB2+H05261)
Boxcar Smoothing: 0 (USB2+H05261)
Correct for Electrical Dark: No (USB2+H05261)
Strobe/Lamp Enabled: No (USB2+H05261)
Correct for Detector Non-linearity: No (USB2+H05261)
Correct for Stray Light: No (USB2+H05261)
Number of Pixels in Processed Spectrum: 2048
>>>>>Begin Processed Spectral Data<<<<<
365.73	238.73
365.92	238.73
366.12	238.73
366.32	168.52
366.52	70.22
366.72	126.39
366.91	131.07
367.11	65.54
367.31	72.56
367.51	177.88
367.70	135.75
367.90	95.96
368.10	93.62
368.30	72.56
368.49	126.39
368.69	166.18
368.89	196.60
369.09	189.58
369.28	102.98
369.48	77.24
369.68	149.79
369.87	196.60
370.07	196.60
370.27	182.56
370.47	327.68
370.66	636.63
370.86	634.29
371.06	674.07
371.25	739.61
371.45	739.61
371.65	723.23
371.84	636.63
372.04	692.80
372.24	648.33
372.44	709.18
372.63	760.67
372.83	751.31
373.03	683.44
373.22	699.82
373.42	770.04
373.62	753.65
373.81	788.76
374.01	795.78
374.21	812.17
374.40	870.68
374.60	819.19
374.79	758.33
374.99	816.85
375.19	844.93
375.38	826.21
375.58	786.42
375.78	807.48
375.97	854.30
376.17	922.17
376.37	894.08
376.56	805.14
376.76	861.32
376.95	847.27
377.15	957.28
377.35	847.27
377.54	926.85
377.74	870.68
377.93	915.15
378.13	861.32
378.33	877.70
378.52	940.90
378.72	966.64
378.91	959.62
379.11	1020.47
379.31	1004.09
379.50	1008.77
379.70	983.02
379.89	1018.13
380.09	926.85
380.28	1015.79
380.48	1032.18
380.68	973.66
380.87	936.21
381.07	1018.13
381.26	1025.15
381.46	978.34
381.65	1020.47
381.85	978.34
382.04	1027.50
382.24	957.28
382.43	961.96
382.63	1083.67
382.83	1081.33
383.02	1128.14
383.22	1093.03
383.41	1053.24
383.61	1102.39
383.80	1067.28
384.00	1029.84
384.19	1114.10
384.39	1109.41
384.58	1163.25
384.78	1221.76
384.97	1111.75
385.17	1121.12
385.36	1158.57
385.56	1228.78
385.75	1210.06
385.95	1210.06
386.14	1200.69
386.34	1172.61
386.53	1249.85
386.72	1179.63
386.92	1086.01
387.11	1392.62
387.31	1184.31
387.50	1205.38
387.70	1294.32
387.89	1299.00
388.09	1217.08
388.28	1315.38
388.48	1287.29
388.67	1322.40
388.86	1313.04
389.06	1268.57
389.25	1380.92
389.45	1404.32
389.64	1380.92
389.84	1383.26
390.03	1401.98
390.22	1306.02
390.42	1420.71
390.61	1273.25
390.81	1306.02
391.00	1418.36
391.19	1411.34
391.39	1437.09
391.58	1430.07
391.78	1378.58
391.97	1458.15
392.16	1420.71
392.36	1446.45
392.55	1432.41
392.75	1617.31
392.94	1516.67
393.13	1542.41
393.33	1563.48
393.52	1558.80
393.71	1558.80
393.91	1556.46
394.10	1631.35
394.29	1640.72
394.49	1497.94
394.68	1537.73
394.88	1650.08
395.07	1682.85
395.26	1652.42
395.46	1589.22
395.65	1650.08
395.84	1701.57
396.04	1755.40
396.23	1811.57
396.42	1762.42
396.62	1762.42
396.81	1680.50
397.00	1689.87
397.19	1830.30
397.39	1811.57
397.58	1799.87
397.77	1741.36
397.97	1888.81
398.16	1874.77
398.35	1909.88
398.55	1893.49
398.74	1851.36
398.93	1935.62
399.12	1874.77
399.32	1968.39
399.51	1874.77
399.70	1984.77
399.90	1966.05
400.09	1954.35
400.28	2097.12
400.47	2080.74
400.67	2099.46
400.86	2005.84
401.05	2083.08
401.24	2139.25
401.44	2054.99
401.63	2059.67
401.82	2118.18
402.01	2113.50
402.21	2097.12
402.40	2106.48
402.59	2218.83
402.78	2197.76
402.97	2202.44
403.17	2155.63
403.36	2256.28
403.55	2368.62
403.74	2413.09
403.93	2434.16
404.13	2221.17
404.32	2321.81
404.51	2326.49
404.70	2473.95
404.89	2335.85
405.09	2466.92
405.28	2396.71
405.47	2392.03
405.66	2628.42
405.85	2483.31
406.05	2513.74
406.24	2600.34
406.43	2525.44
406.62	2595.65
406.81	2605.02
407.00	2518.42
407.20	2658.85
407.39	2579.27
407.58	2677.57
407.77	2738.43
407.96	2726.72
408.15	2649.49
408.34	2803.96
408.54	2745.45
408.73	2857.79
408.92	2846.09
409.11	2808.64
409.30	2949.08
409.49	2946.73
409.68	2897.58
409.87	2942.05
410.07	2981.84
410.26	2981.84
410.45	3162.06
410.64	3068.44
410.83	3098.87
411.02	3199.51
411.21	3197.17
411.40	3119.93
411.59	3208.87
411.78	3180.79
411.98	3166.74
412.17	3332.92
412.36	3377.39
412.55	3342.28
412.74	3452.29
412.93	3368.03
413.12	3384.41
413.31	3618.47
413.50	3550.59
413.69	3520.17
413.88	3562.30
414.07	3597.40
414.26	3672.30
414.45	3693.37
414.64	3564.64
414.83	3763.58
415.02	3936.78
415.22	3784.65
415.41	3880.61
415.60	3854.86
415.79	3908.69
415.98	4124.02
416.17	4037.42
416.36	3946.14
416.55	4095.94
416.74	4081.89
416.93	4114.66
417.12	4077.21
417.31	4177.86
417.50	4133.39
417.69	4189.56
417.88	4217.65
418.07	4283.18
418.26	4329.99
418.45	4346.37
418.64	4470.42
418.83	4444.68
419.02	4454.04
419.21	4505.53
419.39	4554.68
419.58	4554.68
419.77	4444.68
419.96	4533.62
420.15	4648.30
420.34	4683.41
420.53	4660.01
420.72	4816.82
420.91	4699.80
421.10	4774.69
421.29	4760.65
421.48	4767.67
421.67	4737.24
421.86	4758.31
422.05	4926.83
422.24	4802.78
422.43	4919.81
422.61	4896.40
422.80	5048.54
422.99	5020.45
423.18	4938.53
423.37	4875.34
423.56	4954.91
423.75	4975.98
423.94	4784.06
424.13	4638.94
424.32	4903.42
424.50	5018.11
424.69	5097.69
424.88	5231.10
425.07	4922.15
425.26	4915.12
425.45	4931.51
425.64	5008.75
425.83	4952.57
426.01	5135.14
426.20	5041.51
426.39	5041.51
426.58	4964.28
426.77	4964.28
426.96	5146.84
427.15	5217.05
427.33	5212.37
427.52	5125.77
427.71	5280.25
427.90	5071.94
428.09	5331.74
428.28	5425.36
428.46	5380.89
428.65	5392.59
428.84	5511.96
429.03	5696.86
429.22	5341.10
429.40	5619.63
429.59	5401.96
429.78	5359.83
429.97	5408.98
430.16	5614.95
430.34	5727.29
430.53	5633.67
430.72	5729.63
430.91	5643.03
431.10	5561.11
431.28	5760.06
431.47	5849.00
431.66	5755.38
431.85	5741.33
432.03	5731.97
432.22	5879.43
432.41	5919.21
432.60	5870.06
432.79	6017.52
432.97	5905.17
433.16	6019.86
433.35	6136.88
433.54	5989.43
433.72	6019.86
433.91	6176.67
434.10	6139.23
434.28	5984.75
434.47	6263.27
434.66	6244.55
434.85	6195.40
435.03	6363.92
435.22	6445.84
435.41	6410.73
435.59	6403.71
435.78	6513.71
435.97	6389.66
436.16	6429.45
436.34	6349.87
436.53	6518.39
436.72	6649.46
436.90	6553.50
437.09	6574.56
437.28	6609.67
437.46	6532.44
437.65	6736.06
437.84	6890.54
438.02	6740.74
438.21	6696.27
438.40	6607.33
438.58	6946.71
438.77	7054.37
438.96	7007.56
439.14	7190.13
439.33	7157.36
439.52	7194.81
439.70	7164.38
439.89	7412.48
440.08	7314.17
440.26	7351.62
440.45	7407.80
440.63	7356.30
440.82	7669.94
441.01	7564.61
441.19	7627.81
441.38	7648.87
441.57	7683.98
441.75	7775.26
441.94	7868.88
442.12	8168.47
442.31	8140.38
442.50	7971.86
442.68	7939.10
442.87	8077.19
443.05	7999.95
443.24	8037.40
443.43	8145.06
443.61	8116.98
443.80	8395.50
443.98	8072.51
444.17	8042.08
444.35	8147.40
444.54	8336.99
444.73	8229.32
444.91	8203.58
445.10	8458.70
445.28	8262.09
445.47	8283.16
445.65	8461.04
445.84	8514.87
446.02	8449.33
446.21	8540.61
446.39	8365.07
446.58	8482.10
446.77	8297.20
446.95	8369.76
447.14	8369.76
447.32	8418.91
447.51	8351.03
447.69	8514.87
447.88	8402.52
448.06	8411.89
448.25	8395.50
448.43	8746.58
448.62	8585.08
448.80	8531.25
448.99	8681.05
449.17	8795.73
449.36	8688.07
449.54	8898.72
449.73	8812.12
449.91	8985.32
450.10	9046.17
450.28	9092.98
450.46	9193.62
450.65	9179.58
450.83	8805.10
451.02	8894.04
451.20	9357.46
451.39	9221.71
451.57	9146.81
451.76	9233.41
451.94	9310.65
452.13	9441.72
452.31	9198.31
452.49	9289.59
452.68	9383.21
452.86	9291.93
453.05	9324.69
453.23	9324.69
453.42	9561.09
453.60	9434.70
453.78	9617.26
453.97	9308.31
454.15	9645.35
454.34	9448.74
454.52	9680.46
454.70	9731.95
454.89	9741.31
455.07	9872.38
455.26	9767.06
455.44	9881.74
455.62	9975.36
455.81	9804.50
455.99	9973.02
456.17	10061.96
456.36	10017.49
456.54	10125.16
456.73	10218.78
456.91	10520.71
457.09	10401.34
457.28	10633.05
457.46	10417.72
457.64	10420.06
457.83	10611.99
458.01	10389.64
458.19	10668.16
458.38	10679.86
458.56	10719.65
458.74	10934.98
458.93	10951.37
459.11	10649.44
459.29	10892.85
459.48	10958.39
459.66	10733.70
459.84	11068.39
460.03	11042.65
460.21	11094.14
460.39	10995.84
460.57	11122.23
460.76	11070.73
460.94	11229.89
461.12	11208.83
461.31	11094.14
461.49	10998.18
461.67	11077.76
461.85	11367.98
462.04	11300.11
462.22	11583.31
462.40	11548.20
462.59	11440.54
462.77	11513.10
462.95	11810.34
463.13	11564.59
463.32	11782.26
463.50	11726.08
463.68	11651.19
463.86	11819.71
464.05	11740.13
464.23	11857.15
464.41	11777.58
464.59	11538.84
464.78	12372.07
464.96	11875.88
465.14	12077.16
465.32	11805.66
465.50	12189.51
465.69	12381.43
465.87	12379.09
466.05	12081.85
466.23	12149.72
466.41	12355.69
466.60	12365.05
466.78	12203.55
466.96	12131.00
467.14	12332.28
467.32	12301.86
467.51	12533.57
467.69	12133.34
467.87	12468.03
468.05	12578.04
468.23	12365.05
468.41	12648.26
468.60	12531.23
468.78	12886.99
468.96	12666.98
469.14	12854.22
469.32	12985.29
469.50	12776.98
469.69	12964.23
469.87	13116.36
470.05	13310.63
470.23	13448.72
470.41	13109.34
470.59	13418.29
470.77	13369.14
470.95	13444.04
471.14	13448.72
471.32	13352.76
471.50	13748.31
471.68	13558.72
471.86	13797.46
472.04	13631.28
472.22	14185.99
472.40	13760.01
472.58	13640.64
472.77	13848.95
472.95	14279.61
473.13	14672.82
473.31	14111.09
473.49	14097.05
473.67	14054.92
473.85	14256.20
474.03	14747.72
474.21	14380.25
474.39	14965.39
474.57	14677.50
474.75	14689.20
474.93	15131.56
475.12	14984.11
475.30	15239.23
475.48	15204.12
475.66	15309.44
475.84	15185.40
476.02	15613.71
476.20	15522.43
476.38	15477.96
476.56	15978.84
476.74	16203.53
476.92	15932.03
477.10	16035.01
477.28	16161.40
477.46	16142.67
477.64	16173.10
477.82	16695.04
478.00	16992.29
478.18	16610.78
478.36	17092.93
478.54	17303.58
478.72	17214.64
478.90	17568.06
479.08	17378.48
479.26	17963.61
479.44	17750.62
479.62	17912.12
479.80	17851.27
479.98	18132.13
480.16	18944.30
480.34	18183.62
480.52	18899.83
480.70	18593.22
480.88	18565.13
481.06	18932.59
481.24	18827.27
481.41	19143.24
481.59	19204.10
481.77	19580.92
481.95	19793.91
482.13	19803.27
482.31	19910.94
482.49	20482.03
482.67	20201.16
482.85	20826.09
483.03	20798.00
483.21	20734.81
483.39	21099.93
483.57	20954.82
483.74	21062.48
483.92	21579.74
484.10	21163.12
484.28	21818.47
484.46	21752.94
484.64	22293.60
484.82	21919.12
485.00	22459.78
485.18	22780.43
485.35	22937.25
485.53	23037.89
485.71	23293.01
485.89	23531.75
486.07	23604.30
486.25	23688.56
486.43	24144.97
486.61	23913.25
486.78	24290.08
486.96	24343.91
487.14	24580.31
487.32	24837.76
487.50	24603.71
487.68	24989.90
487.85	25418.22
488.03	25781.00
488.21	26038.46
488.39	25851.22
488.57	26043.14
488.75	26483.16
488.92	26871.69
489.10	26867.01
489.28	27051.91
489.46	26848.29
489.64	26962.97
489.81	27779.82
489.99	27700.24
490.17	27835.99
490.35	28311.12
490.53	28266.65
490.70	28552.20
490.88	28676.24
491.06	29104.56
491.24	28992.22
491.41	29364.36
491.59	29380.74
491.77	29373.72
491.95	29614.80
492.13	29827.79
492.30	29900.34
492.48	30216.32
492.66	29928.43
492.84	30284.19
493.01	30815.49
493.19	30429.30
493.37	31253.17
493.54	31227.43
493.72	31775.11
493.90	32002.14
494.08	31627.66
494.25	32037.25
494.43	32395.35
494.61	32636.43
494.79	32481.95
494.96	33031.98
495.14	32570.90
495.32	33240.29
495.49	33490.73
495.67	33259.01
495.85	33680.31
496.02	33750.52
496.20	34132.03
496.38	34092.24
496.55	34703.12
496.73	35098.67
496.91	34785.04
497.09	34796.74
497.26	34923.13
497.44	35049.52
497.62	34974.63
497.79	35871.05
497.97	35398.26
498.14	36350.86
498.32	36343.84
498.50	36067.66
498.67	36624.70
498.85	36510.02
499.03	36704.28
499.20	36458.52
499.38	36758.11
499.56	36893.86
499.73	37764.54
499.91	37109.19
500.08	37830.08
500.26	37254.31
500.44	37696.67
500.61	37947.11
500.79	37591.34
500.97	37783.27
501.14	38632.88
501.32	38632.88
501.49	38625.86
501.67	39131.42
501.84	39009.71
502.02	38892.68
502.20	39253.12
502.37	39447.39
502.55	39290.57
502.72	39875.71
502.90	39695.49
503.07	39751.66
503.25	39936.56
503.43	40123.80
503.60	40004.44
503.78	40442.12
503.95	40470.20
504.13	40713.62
504.30	40425.73
504.48	40685.53
504.65	40919.59
504.83	40999.16
505.01	41680.26
505.18	40893.84
505.36	41614.72
505.53	41471.95
505.71	41542.17
505.88	41986.87
506.06	41710.69
506.23	42183.48
506.41	41979.85
506.58	42286.46
506.76	42089.85
506.93	42712.44
507.11	42539.24
507.28	42611.79
507.46	42969.90
507.63	43145.44
507.81	43386.51
507.98	43105.65
508.16	43194.59
508.33	43430.98
508.50	43721.21
508.68	43751.63
508.85	43990.37
509.03	43753.97
509.20	44107.40
509.38	44093.35
509.55	44563.80
509.73	44673.81
509.90	44472.52
510.08	44898.50
510.25	44406.98
510.42	44865.73
510.60	45242.56
510.77	45303.41
510.95	45202.77
511.12	45209.79
511.30	45010.84
511.47	45509.38
511.64	45603.00
511.82	46443.25
511.99	45703.64
512.17	46307.50
512.34	45883.86
512.51	46216.22
512.69	46328.56
512.86	47012.00
513.04	46461.97
513.21	46719.43
513.38	46705.39
513.56	46822.42
513.73	46791.99
513.90	46944.12
514.08	46422.19
514.25	47550.32
514.43	47468.40
514.60	47463.72
514.77	47456.70
514.95	48041.84
515.12	47475.43
515.29	47601.82
515.47	47686.07
515.64	47618.20
515.81	47737.57
515.99	48514.62
516.16	48664.42
516.33	48575.48
516.51	48793.15
516.68	48208.01
516.85	48629.31
517.03	48772.08
517.20	49013.16
517.37	48800.17
517.54	48891.45
517.72	48919.54
517.89	49055.29
518.06	49221.47
518.24	49172.31
518.41	49357.22
518.58	49710.64
518.75	49469.56
518.93	49499.99
519.10	49682.55
519.27	49937.67
519.45	49815.96
519.62	50335.56
519.79	50050.02
519.96	50408.12
520.14	50010.23
520.31	50298.11
520.48	50588.34
520.65	50291.09
520.83	50953.46
521.00	50794.31
521.17	50677.28
521.34	50864.52
521.52	50707.71
521.69	50953.46
521.86	51037.72
522.03	51363.06
522.20	51175.81
522.38	51519.87
522.55	51615.83
522.72	51356.03
522.89	51636.90
523.07	51711.80
523.24	51920.10
523.41	51849.89
523.58	51583.07
523.75	52083.94
523.92	51856.91
524.10	51973.94
524.27	52088.62
524.44	52013.73
524.61	52172.88
524.78	52336.72
524.96	52332.04
525.13	52505.24
525.30	52591.84
525.47	52545.03
525.64	52395.23
525.81	52650.35
525.98	52870.36
526.16	52575.45
526.33	52788.44
526.50	53221.44
526.67	52758.02
526.84	53221.44
527.01	53050.58
527.18	53186.33
527.36	53200.38
527.53	53230.80
527.70	53574.86
527.87	53563.16
528.04	53209.74
528.21	53200.38
528.38	53378.26
528.55	53455.50
528.72	53638.06
528.89	53698.91
529.07	53563.16
529.24	53602.95
529.41	53890.83
529.58	53811.26
529.75	53806.58
529.92	53900.20
530.09	53970.41
530.26	54106.16
530.43	54232.55
530.60	53752.74
530.77	54347.24
530.94	54232.55
531.11	53909.56
531.28	54288.73
531.46	54174.04
531.63	54377.67
531.80	54398.73
531.97	54501.71
532.14	54597.68
532.31	54719.38
532.48	54497.03
532.65	54672.57
532.82	54384.69
532.99	55014.29
533.16	54548.53
533.33	54906.63
533.50	54887.90
533.67	54976.84
533.84	54714.70
534.01	54951.10
534.18	54901.95
534.35	55276.43
534.52	55196.85
534.69	55213.24
534.86	55430.91
535.03	55105.57
535.20	55367.71
535.37	55309.20
535.54	55650.92
535.71	55386.44
535.88	55475.38
536.05	55536.23
536.22	55650.92
536.38	55810.07
536.55	55784.33
536.72	55608.79
536.89	55671.98
537.06	55826.46
537.23	55920.08
537.40	55524.53
537.57	55774.97
537.74	55880.29
537.91	56308.61
538.08	55767.94
538.25	55831.14
538.42	55969.23
538.59	56381.16
538.75	56100.30
538.92	55819.44
539.09	56219.67
539.26	56107.32
539.43	56198.60
539.60	56177.54
539.77	56334.35
539.94	56535.64
540.11	56605.86
540.28	56313.29
540.44	56299.25
540.61	56435.00
540.78	56617.56
540.95	56432.66
541.12	56577.77
541.29	56278.18
541.46	56694.80
541.62	56437.34
541.79	56741.61
541.96	56420.95
542.13	56516.92
542.30	56647.99
542.47	56928.85
542.63	57102.05
542.80	56952.26
542.97	57109.07
543.14	57219.08
543.31	57223.76
543.48	57357.17
543.64	57495.26
543.81	57340.78
543.98	57169.93
544.15	57317.38
544.32	57588.88
544.48	57696.55
544.65	57448.45
544.82	57563.14
544.99	57361.85
545.16	57530.37
545.32	57701.23
545.49	57724.63
545.66	57689.52
545.83	57687.18
546.00	57579.52
546.16	57659.10
546.33	57605.26
546.50	57663.78
546.67	57914.22
546.83	57663.78
547.00	57958.69
547.17	57797.19
547.34	57897.83
547.50	58066.35
547.67	58155.29
547.84	57996.13
548.00	58162.31
548.17	58328.49
548.34	58066.35
548.51	58159.97
548.67	58218.49
548.84	58316.79
549.01	58330.83
549.18	58176.36
549.34	58178.70
549.51	58405.73
549.68	58309.77
549.84	58305.09
550.01	58511.05
550.18	58333.17
550.34	58787.24
550.51	58480.63
550.68	58599.99
550.84	58293.38
551.01	58667.87
551.18	58653.82
551.34	58752.13
551.51	58719.36
551.68	58777.87
551.84	58560.20
552.01	58700.64
552.18	58810.64
552.34	58646.80
552.51	58836.39
552.68	58698.30
552.84	58705.32
553.01	59025.97
553.18	58782.55
553.34	58962.78
553.51	58812.98
553.67	59075.12
553.84	58953.41
554.01	59196.83
554.17	59164.06
554.34	59051.72
554.51	59007.25
554.67	59257.68
554.84	59086.82
555.00	59051.72
555.17	59056.40
555.33	59096.19
555.50	58993.20
555.67	59056.40
555.83	59133.63
556.00	59304.49
556.16	59470.67
556.33	59365.35
556.50	59278.75
556.66	59498.76
556.83	59297.47
556.99	59440.24
557.16	59538.55
557.32	59615.79
557.49	59721.11
557.65	59379.39
557.82	59482.37
557.98	59281.09
558.15	59337.26
558.32	59482.37
558.48	59367.69
558.65	59550.25
558.81	59662.60
558.98	59608.76
559.14	59777.28
559.31	59784.30
559.47	59765.58
559.64	59920.05
559.80	59695.36
559.97	59774.94
560.13	59576.00
560.30	59707.07
560.46	59744.51
560.63	59810.05
560.79	59758.56
560.96	59807.71
561.12	59877.93
561.29	60032.40
561.45	59805.37
561.61	59891.97
561.78	59849.84
561.94	59889.63
562.11	59781.96
562.27	59927.08
562.44	60072.19
562.60	60025.38
562.77	60151.77
562.93	59908.35
563.10	60116.66
563.26	59725.79
563.42	60257.09
563.59	60079.21
563.75	60044.10
563.92	60161.13
564.08	59997.29
564.24	60205.60
564.41	60423.27
564.57	60102.62
564.74	60053.47
564.90	60264.11
565.07	60100.28
565.23	60163.47
565.39	60133.04
565.56	60245.39
565.72	60233.69
565.88	60163.47
566.05	60161.13
566.21	60233.69
566.38	60275.82
566.54	60200.92
566.70	60362.42
566.87	60430.29
567.03	60427.95
567.19	60528.59
567.36	60451.36
567.52	60252.41
567.68	60626.90
567.85	60479.44
568.01	60474.76
568.17	60395.18
568.34	60526.25
568.50	60512.21
568.66	60186.88
568.83	60594.13
568.99	60584.77
569.15	60327.31
569.32	60346.03
569.48	60580.09
569.64	60533.28
569.81	60594.13
569.97	60264.11
570.13	60629.24
570.30	60582.43
570.46	60444.33
570.62	60708.82
570.78	60577.75
570.95	60542.64
571.11	60711.16
571.27	60706.47
571.43	60886.70
571.60	60760.31
571.76	60596.47
571.92	60790.73
572.09	60720.52
572.25	60537.96
572.41	60671.37
572.57	60755.63
572.74	61062.24
572.90	60650.30
573.06	60926.49
573.22	60774.35
573.38	60512.21
573.55	60732.22
573.71	60940.53
573.87	60872.65
574.03	60540.30
574.20	60825.84
574.36	60750.94
574.52	60807.12
574.68	60973.30
574.84	60823.50
575.01	60746.26
575.17	60809.46
575.33	60865.63
575.49	60725.20
575.65	60846.91
575.82	61038.83
575.98	60816.48
576.14	61059.90
576.30	60690.09
576.46	60743.92
576.62	61078.62
576.79	60893.72
576.95	60746.26
577.11	60760.31
577.27	60992.02
577.43	60893.72
577.59	60587.11
577.75	60811.80
577.92	60757.97
578.08	60884.36
578.24	60942.87
578.40	61069.26
578.56	60952.23
578.72	61078.62
578.88	60874.99
579.04	60919.46
579.21	60954.57
579.37	61237.78
579.53	61153.52
579.69	60830.52
579.85	60760.31
580.01	60867.97
580.17	61034.15
580.33	61048.19
580.49	61153.52
580.65	61057.56
580.82	60924.14
580.98	60921.80
581.14	60851.59
581.30	61062.24
581.46	60935.85
581.62	61029.47
581.78	60779.03
581.94	61038.83
582.10	61062.24
582.26	61123.09
582.42	60985.00
582.58	60947.55
582.74	61085.64
582.90	60867.97
583.06	60985.00
583.22	60816.48
583.38	60940.53
583.54	61064.58
583.70	60762.65
583.86	61099.68
584.02	60973.30
584.18	61254.16
584.34	61038.83
584.50	60800.10
584.66	60935.85
584.82	60877.33
584.98	61258.84
585.14	61181.60
585.30	60900.74
585.46	61190.97
585.62	61102.03
585.78	61197.99
585.94	60945.21
586.10	61176.92
586.26	60893.72
586.42	61190.97
586.58	61181.60
586.74	61095.00
586.90	60985.00
587.06	60942.87
587.22	61193.31
587.38	61240.12
587.54	61242.46
587.70	61354.80
587.86	61022.45
588.02	61144.16
588.18	61221.39
588.34	61230.75
588.49	61219.05
