SpectraSuite Data File
++++++++++++++++++++++++++++++++++++
Date: Fri Oct 25 10:43:43 EDT 2013
User: price-jones
Dark Spectrum Present: No
Reference Spectrum Present: No
Number of Sampled Component Spectra: 1
Spectrometers: USB2+H05261
Integration Time (usec): 100000 (USB2+H05261)
Spectra Averaged: 1 (USB2+H05261)
Boxcar Smoothing: 0 (USB2+H05261)
Correct for Electrical Dark: No (USB2+H05261)
Strobe/Lamp Enabled: No (USB2+H05261)
Correct for Detector Non-linearity: No (USB2+H05261)
Correct for Stray Light: No (USB2+H05261)
Number of Pixels in Processed Spectrum: 2048
>>>>>Begin Processed Spectral Data<<<<<
365.73	147.45
365.92	147.45
366.12	147.45
366.32	42.13
366.52	51.49
366.72	0.00
366.91	9.36
367.11	0.00
367.31	0.00
367.51	39.79
367.70	51.49
367.90	86.60
368.10	30.43
368.30	110.01
368.49	74.90
368.69	32.77
368.89	84.26
369.09	79.58
369.28	67.88
369.48	84.26
369.68	65.54
369.87	126.39
370.07	124.05
370.27	163.84
370.47	212.99
370.66	330.02
370.86	404.91
371.06	486.83
371.25	451.72
371.45	486.83
371.65	533.64
371.84	461.09
372.04	458.74
372.24	535.98
372.44	454.06
372.63	496.19
372.83	482.15
373.03	498.53
373.22	524.28
373.42	589.82
373.62	533.64
373.81	566.41
374.01	550.03
374.21	531.30
374.40	594.50
374.60	622.58
374.79	533.64
374.99	587.47
375.19	540.66
375.38	582.79
375.58	575.77
375.78	620.24
375.97	587.47
376.17	685.78
376.37	622.58
376.56	690.46
376.76	578.11
376.95	606.20
377.15	678.76
377.35	643.65
377.54	678.76
377.74	622.58
377.93	641.31
378.13	648.33
378.33	648.33
378.52	655.35
378.72	631.94
378.91	613.22
379.11	624.92
379.31	596.84
379.50	624.92
379.70	753.65
379.89	699.82
380.09	634.29
380.28	713.86
380.48	725.57
380.68	596.84
380.87	697.48
381.07	662.37
381.26	650.67
381.46	674.07
381.65	664.71
381.85	664.71
382.04	669.39
382.24	655.35
382.43	763.01
382.63	676.41
382.83	755.99
383.02	734.93
383.22	795.78
383.41	624.92
383.61	699.82
383.80	763.01
384.00	748.97
384.19	744.29
384.39	741.95
384.58	800.46
384.78	746.63
384.97	861.32
385.17	814.51
385.36	882.38
385.56	753.65
385.75	718.54
385.95	732.59
386.14	908.13
386.34	746.63
386.53	847.27
386.72	826.21
386.92	812.17
387.11	851.96
387.31	844.93
387.50	856.64
387.70	823.87
387.89	858.98
388.09	807.48
388.28	840.25
388.48	945.58
388.67	957.28
388.86	903.45
389.06	966.64
389.25	980.68
389.45	943.24
389.64	1020.47
389.84	1034.52
390.03	990.05
390.22	1050.90
390.42	1011.11
390.61	945.58
390.81	997.07
391.00	1053.24
391.19	1123.46
391.39	1102.39
391.58	1027.50
391.78	1043.88
391.97	1025.15
392.16	987.71
392.36	1027.50
392.55	1146.86
392.75	1041.54
392.94	1001.75
393.13	964.30
393.33	1032.18
393.52	1090.69
393.71	1064.94
393.91	1062.60
394.10	1174.95
394.29	1153.88
394.49	1078.99
394.68	1170.27
394.88	1184.31
395.07	1240.48
395.26	1263.89
395.46	1277.93
395.65	1226.44
395.84	1160.91
396.04	1277.93
396.23	1149.20
396.42	1212.40
396.62	1188.99
396.81	1137.50
397.00	1158.57
397.19	1228.78
397.39	1266.23
397.58	1352.83
397.77	1291.98
397.97	1378.58
398.16	1380.92
398.35	1523.69
398.55	1437.09
398.74	1614.97
398.93	1514.33
399.12	1556.46
399.32	1451.13
399.51	1568.16
399.70	1533.05
399.90	1575.18
400.09	1586.88
400.28	1603.27
400.47	1596.25
400.67	1621.99
400.86	1650.08
401.05	1713.27
401.24	1708.59
401.44	1638.38
401.63	1703.91
401.82	1661.78
402.01	1696.89
402.21	1736.68
402.40	1732.00
402.59	1650.08
402.78	1706.25
402.97	1818.60
403.17	1797.53
403.36	1743.70
403.55	1837.32
403.74	1905.20
403.93	1879.45
404.13	1884.13
404.32	1762.42
404.51	1820.94
404.70	2064.35
404.89	1923.92
405.09	1959.03
405.28	1944.99
405.47	2001.16
405.66	1909.88
405.85	1989.46
406.05	1947.33
406.24	1942.64
406.43	1961.37
406.62	2097.12
406.81	2054.99
407.00	1977.75
407.20	1970.73
407.39	1982.43
407.58	2029.24
407.77	2143.93
407.96	2169.68
408.15	2275.00
408.34	2122.87
408.54	2169.68
408.73	2314.79
408.92	2239.89
409.11	2296.07
409.30	2197.76
409.49	2230.53
409.68	2204.78
409.87	2265.64
410.07	2228.19
410.26	2279.68
410.45	2354.58
410.64	2368.62
410.83	2471.61
411.02	2473.95
411.21	2583.95
411.40	2502.03
411.59	2597.99
411.78	2593.31
411.98	2513.74
412.17	2729.06
412.36	2546.50
412.55	2562.89
412.74	2752.47
412.93	2623.74
413.12	2738.43
413.31	2895.24
413.50	2869.50
413.69	2780.56
413.88	2834.39
414.07	2839.07
414.26	2902.26
414.45	2885.88
414.64	2993.55
414.83	3073.12
415.02	3084.83
415.22	3087.17
415.41	2960.78
415.60	3148.02
415.79	3187.81
415.98	3262.71
416.17	3232.28
416.36	3201.85
416.55	3274.41
416.74	3199.51
416.93	3318.88
417.12	3293.13
417.31	3370.37
417.50	3269.73
417.69	3459.31
417.88	3368.03
418.07	3496.76
418.26	3393.78
418.45	3492.08
418.64	3637.19
418.83	3503.78
419.02	3571.66
419.21	3583.36
419.39	3641.87
419.58	3487.40
419.77	3517.83
419.96	3574.00
420.15	3492.08
420.34	3627.83
420.53	3637.19
420.72	3868.91
420.91	3688.68
421.10	3805.71
421.29	3885.29
421.48	3693.37
421.67	3927.42
421.86	3742.52
422.05	3861.88
422.24	3765.92
422.43	3904.01
422.61	3829.12
422.80	3850.18
422.99	3843.16
423.18	3885.29
423.37	3946.14
423.56	3981.25
423.75	3932.10
423.94	3913.38
424.13	3658.26
424.32	3630.17
424.50	3964.87
424.69	4025.72
424.88	3925.08
425.07	3899.33
425.26	3850.18
425.45	3789.33
425.64	3906.35
425.83	3997.64
426.01	3992.95
426.20	3918.06
426.39	4042.11
426.58	3920.40
426.77	3871.25
426.96	4058.49
427.15	4102.96
427.33	4035.08
427.52	4049.13
427.71	4126.36
427.90	4030.40
428.09	4184.88
428.28	4182.54
428.46	4215.30
428.65	4243.39
428.84	4236.37
429.03	4264.46
429.22	4063.17
429.40	4147.43
429.59	4152.11
429.78	3955.51
429.97	3866.56
430.16	4051.47
430.34	4180.20
430.53	4074.87
430.72	4227.01
430.91	4140.41
431.10	4273.82
431.28	4442.34
431.47	4425.95
431.66	4512.55
431.85	4484.47
432.03	4507.87
432.22	4676.39
432.41	4613.20
432.60	4702.14
432.79	4629.58
432.97	4887.04
433.16	4660.01
433.35	4629.58
433.54	4589.79
433.72	4631.92
433.91	4564.04
434.10	4781.71
434.28	4779.37
434.47	4873.00
434.66	4847.25
434.85	4936.19
435.03	4983.00
435.22	4964.28
435.41	5074.28
435.59	5043.85
435.78	4954.91
435.97	5158.54
436.16	5034.49
436.34	5179.61
436.53	4973.64
436.72	5207.69
436.90	5018.11
437.09	5184.29
437.28	4919.81
437.46	5214.71
437.65	5203.01
437.84	5179.61
438.02	5055.56
438.21	5071.94
438.40	5135.14
438.58	5385.57
438.77	5551.75
438.96	5481.53
439.14	5460.47
439.33	5528.35
439.52	5678.14
439.70	5561.11
439.89	5640.69
440.08	5774.10
440.26	5652.39
440.45	5605.58
440.63	5764.74
440.82	6038.58
441.01	5785.80
441.19	5930.92
441.38	6190.72
441.57	6059.65
441.75	6209.44
441.94	6209.44
442.12	6366.26
442.31	6392.00
442.50	6326.47
442.68	6155.61
442.87	6312.42
443.05	6237.53
443.24	6349.87
443.43	6359.24
443.61	6427.11
443.80	6628.40
443.98	6223.48
444.17	6244.55
444.35	6600.31
444.54	6282.00
444.73	6422.43
444.91	6331.15
445.10	6462.22
445.28	6401.37
445.47	6225.82
445.65	6520.73
445.84	6464.56
446.02	6590.95
446.21	6394.34
446.39	6551.16
446.58	6579.25
446.77	6675.21
446.95	6424.77
447.14	6621.38
447.32	6759.47
447.51	6546.48
447.69	6747.76
447.88	6715.00
448.06	6726.70
448.25	6663.51
448.43	6703.29
448.62	6661.16
448.80	6719.68
448.99	6633.08
449.17	6668.19
449.36	6677.55
449.54	6878.83
449.73	6911.60
449.91	7014.59
450.10	7012.24
450.28	7126.93
450.46	7077.78
450.65	7133.95
450.83	7178.42
451.02	7176.08
451.20	7014.59
451.39	7311.83
451.57	7176.08
451.76	7162.04
451.94	7377.37
452.13	7211.19
452.31	7213.53
452.49	7052.03
452.68	7140.97
452.86	7152.68
453.05	7213.53
453.23	7222.89
453.42	7265.02
453.60	7400.77
453.78	7492.05
453.97	7258.00
454.15	7295.45
454.34	7295.45
454.52	7372.69
454.70	7564.61
454.89	7545.89
455.07	7648.87
455.26	7698.02
455.44	7618.44
455.62	7581.00
455.81	7590.36
455.99	7639.51
456.17	7801.01
456.36	7791.64
456.54	7852.50
456.73	7908.67
456.91	8163.79
457.09	8161.45
457.28	8369.76
457.46	7906.33
457.64	7957.82
457.83	8070.17
458.01	7906.33
458.19	8116.98
458.38	8035.06
458.56	8325.29
458.74	8114.64
458.93	8182.51
459.11	8435.29
459.29	8388.48
459.48	8341.67
459.66	8145.06
459.84	8360.39
460.03	8580.40
460.21	8421.25
460.39	8517.21
460.57	8376.78
460.76	8320.60
460.94	8578.06
461.12	8692.75
461.31	8627.21
461.49	8624.87
461.67	8540.61
461.85	8800.41
462.04	8929.14
462.22	9437.04
462.40	8865.95
462.59	8718.50
462.77	8887.01
462.95	8971.27
463.13	8990.00
463.32	8800.41
463.50	8777.01
463.68	8844.88
463.86	8992.34
464.05	8917.44
464.23	8718.50
464.41	9006.38
464.59	8821.48
464.78	9387.89
464.96	9081.28
465.14	8891.70
465.32	9331.72
465.50	9399.59
465.69	9240.44
465.87	9121.07
466.05	9226.39
466.23	9018.08
466.41	9078.94
466.60	9298.95
466.78	9174.90
466.96	9025.11
467.14	9322.35
467.32	9446.40
467.51	9507.26
467.69	9125.75
467.87	9479.17
468.05	9406.61
468.23	9439.38
468.41	9291.93
468.60	9722.59
468.78	9664.07
468.96	9404.27
469.14	9570.45
469.32	9657.05
469.50	9345.76
469.69	9694.50
469.87	9846.63
470.05	9753.01
470.23	9650.03
470.41	9654.71
470.59	10120.48
470.77	9856.00
470.95	9914.51
471.14	10207.08
471.32	9722.59
471.50	10097.07
471.68	10115.80
471.86	10504.32
472.04	10413.04
472.22	10590.92
472.40	10153.24
472.58	10153.24
472.77	10480.92
472.95	10408.36
473.13	10693.91
473.31	10366.23
473.49	10597.95
473.67	10644.76
473.85	10651.78
474.03	10890.51
474.21	10904.56
474.39	10913.92
474.57	10995.84
474.75	10986.47
474.93	11019.24
475.12	10906.90
475.30	11243.93
475.48	11131.59
475.66	11199.46
475.84	11133.93
476.02	11459.26
476.20	11295.43
476.38	11676.93
476.56	11775.24
476.74	11796.30
476.92	11686.29
477.10	11634.80
477.28	11974.18
477.46	12168.45
477.64	12119.29
477.82	12290.15
478.00	12542.93
478.18	12299.52
478.36	12507.82
478.54	12769.96
478.72	12629.53
478.90	12961.89
479.08	13013.38
479.26	13221.69
479.44	13158.49
479.62	13008.70
479.80	13350.42
479.98	13441.70
480.16	13699.16
480.34	13500.21
480.52	13448.72
480.70	13736.60
480.88	13685.11
481.06	13862.99
481.24	13851.29
481.41	14326.42
481.59	14373.23
481.77	14413.02
481.95	14277.27
482.13	14511.32
482.31	14537.07
482.49	14532.39
482.67	14789.85
482.85	14691.54
483.03	15005.17
483.21	15260.29
483.39	15190.08
483.57	15145.61
483.74	15499.03
483.92	15344.55
484.10	15499.03
484.28	15941.39
484.46	15796.28
484.64	16226.93
484.82	15967.13
485.00	16198.85
485.18	16304.17
485.35	16484.39
485.53	16020.97
485.71	16248.00
485.89	16407.16
486.07	16320.56
486.25	16681.00
486.43	16933.78
486.61	16917.39
486.78	17301.24
486.96	17242.73
487.14	17324.65
487.32	17734.24
487.50	17996.38
487.68	18029.15
487.85	18012.76
488.03	18611.94
488.21	18546.40
488.39	18464.49
488.57	18471.51
488.75	18743.01
488.92	19058.98
489.10	19281.33
489.28	19594.96
489.46	19459.21
489.64	19573.90
489.81	20098.18
489.99	20084.14
490.17	20240.95
490.35	20301.81
490.53	20135.63
490.70	20484.37
490.88	20432.88
491.06	20592.03
491.24	20767.57
491.41	20872.90
491.59	20467.98
491.77	20484.37
491.95	20814.38
492.13	20957.16
492.30	21495.48
492.48	21755.28
492.66	21582.08
492.84	21722.51
493.01	21933.16
493.19	21841.88
493.37	22087.64
493.54	22302.96
493.72	22356.80
493.90	22632.98
494.08	22668.09
494.25	22581.49
494.43	23138.54
494.61	23140.88
494.79	23470.89
494.96	23674.52
495.14	23159.60
495.32	23491.96
495.49	23667.50
495.67	23744.73
495.85	24114.54
496.02	24126.24
496.20	24219.86
496.38	24364.98
496.55	24638.82
496.73	24980.54
496.91	24910.32
497.09	24821.38
497.26	24861.17
497.44	25048.41
497.62	25179.48
497.79	25287.15
497.97	24961.81
498.14	25315.23
498.32	25261.40
498.50	25596.10
498.67	26279.54
498.85	25642.91
499.03	26085.27
499.20	26272.51
499.38	26033.78
499.56	26038.46
499.73	26391.88
499.91	26267.83
500.08	26188.25
500.26	26415.29
500.44	26448.05
500.61	26434.01
500.79	26679.77
500.97	26476.14
501.14	27009.78
501.32	27023.83
501.49	26881.05
501.67	27304.69
501.84	27117.45
502.02	27431.08
502.20	27271.92
502.37	27819.61
502.55	27562.15
502.72	27901.53
502.90	27807.90
503.07	27775.14
503.25	28524.11
503.43	27386.61
503.60	27789.18
503.78	27934.29
503.95	28187.07
504.13	28194.09
504.30	28329.84
504.48	28556.88
504.65	28861.15
504.83	28819.02
505.01	28891.57
505.18	28685.61
505.36	29495.43
505.53	29074.13
505.71	29305.85
505.88	29685.01
506.06	29221.59
506.23	29598.41
506.41	29310.53
506.58	29619.48
506.76	29762.25
506.93	29972.90
507.11	29722.46
507.28	30096.95
507.46	29867.58
507.63	29542.24
507.81	29996.31
507.98	30153.12
508.16	30534.63
508.33	30223.34
508.50	30551.01
508.68	30614.21
508.85	31009.76
509.03	30792.09
509.20	30876.35
509.38	31548.08
509.55	31075.29
509.73	31241.47
509.90	31005.08
510.08	31016.78
510.25	31079.97
510.42	31618.30
510.60	31620.64
510.77	31955.33
510.95	31716.60
511.12	31857.03
511.30	32123.85
511.47	32219.81
511.64	32292.37
511.82	32645.79
511.99	31957.67
512.17	32245.56
512.34	32161.30
512.51	32598.98
512.69	32650.47
512.86	32280.67
513.04	32844.74
513.21	32601.32
513.38	32561.53
513.56	32849.42
513.73	32772.18
513.90	32837.72
514.08	33139.65
514.25	32833.04
514.43	33069.43
514.60	32528.77
514.77	33177.09
514.95	33031.98
515.12	32943.04
515.29	33221.56
515.47	33940.11
515.64	33993.94
515.81	33937.77
515.99	33895.64
516.16	33649.88
516.33	33596.05
516.51	33806.70
516.68	33198.16
516.85	33235.61
517.03	33172.41
517.20	33846.49
517.37	34178.84
517.54	34520.56
517.72	33928.41
517.89	33928.41
518.06	33677.97
518.24	33977.56
518.41	33991.60
518.58	34429.28
518.75	34536.94
518.93	34841.21
519.10	35199.32
519.27	34815.47
519.45	35040.16
519.62	34925.47
519.79	35199.32
519.96	35063.57
520.14	35278.89
520.31	35665.08
520.48	35356.13
520.65	35679.13
520.83	35772.75
521.00	35637.00
521.17	35625.29
521.34	35611.25
521.52	36070.00
521.69	35948.29
521.86	36261.92
522.03	36353.20
522.20	35693.17
522.38	36151.91
522.55	36538.10
522.72	36348.52
522.89	36304.05
523.07	36430.44
523.24	36437.46
523.41	36905.57
523.58	36683.22
523.75	36837.69
523.92	36683.22
524.10	36809.61
524.27	37186.43
524.44	37219.20
524.61	37163.03
524.78	37378.36
524.96	37062.38
525.13	37233.24
525.30	37841.78
525.47	37867.53
525.64	37708.37
525.81	37523.47
525.98	37486.02
526.16	37074.09
526.33	36561.51
526.50	37359.63
526.67	36833.01
526.84	37156.00
527.01	37266.01
527.18	37661.56
527.36	37839.44
527.53	38277.12
527.70	38312.23
527.87	38019.66
528.04	38309.89
528.21	38305.21
528.38	38405.85
528.55	38649.27
528.72	38380.10
528.89	38562.67
529.07	38368.40
529.24	38337.98
529.41	38508.83
529.58	38756.93
529.75	38377.76
529.92	38976.94
530.09	38873.96
530.26	39232.06
530.43	39159.50
530.60	38845.87
530.77	38988.64
530.94	39529.31
531.11	39225.04
531.28	39243.76
531.46	39166.52
531.63	39431.01
531.80	39328.02
531.97	39222.70
532.14	39110.35
532.31	39311.64
532.48	39892.09
532.65	39782.09
532.82	39651.02
532.99	39470.79
533.16	39952.94
533.33	39821.87
533.50	39861.66
533.67	40449.14
533.84	39618.25
534.01	39950.60
534.18	39653.36
534.35	40364.88
534.52	39810.17
534.69	40552.12
534.86	40074.65
535.03	40142.53
535.20	40662.13
535.37	40921.93
535.54	40769.79
535.71	40280.62
535.88	40610.64
536.05	40573.19
536.22	40657.45
536.38	40694.89
536.55	40451.48
536.72	40456.16
536.89	40512.33
537.06	40687.87
537.23	40823.62
537.40	40788.52
537.57	41045.97
537.74	40959.38
537.91	41855.80
538.08	41095.13
538.25	40559.14
538.42	41195.77
538.59	41031.93
538.75	40517.01
538.92	41207.47
539.09	41095.13
539.26	41493.02
539.43	41247.26
539.60	41488.34
539.77	41081.08
539.94	41610.04
540.11	41546.85
540.28	41106.83
540.44	41146.62
540.61	41514.08
540.78	41291.73
540.95	41118.53
541.12	41401.74
541.29	41113.85
541.46	41715.37
541.62	41633.45
541.79	42230.29
541.96	41315.14
542.13	41591.32
542.30	41680.26
542.47	42169.43
542.63	41331.52
542.80	41682.60
542.97	42094.53
543.14	42473.70
543.31	42295.82
543.48	42342.63
543.64	42728.82
543.81	42972.24
543.98	42569.66
544.15	42359.02
544.32	42672.65
544.48	43091.60
544.65	42653.92
544.82	42890.32
544.99	42707.76
545.16	42939.47
545.32	42637.54
545.49	43000.32
545.66	43208.63
545.83	43480.13
546.00	43115.01
546.16	43262.46
546.33	42988.62
546.50	42656.26
546.67	43150.12
546.83	43091.60
547.00	43070.54
547.17	43173.52
547.34	43061.18
547.50	43445.02
547.67	43285.87
547.84	43536.30
548.00	43620.56
548.17	43768.02
548.34	43484.81
548.51	43847.60
548.67	43859.30
548.84	43540.99
549.01	43501.20
549.18	43285.87
549.34	43550.35
549.51	43784.40
549.68	43744.61
549.84	44018.46
550.01	44177.61
550.18	43480.13
550.34	44055.90
550.51	43784.40
550.68	43693.12
550.84	43325.66
551.01	43442.68
551.18	43686.10
551.34	43999.73
551.51	44083.99
551.68	43838.23
551.84	44208.04
552.01	44081.65
552.18	44198.68
552.34	43789.08
552.51	44147.18
552.68	43950.58
552.84	44247.83
553.01	44170.59
553.18	44292.30
553.34	44559.12
553.51	44421.03
553.67	44505.29
553.84	44816.58
554.01	44465.50
554.17	44467.84
554.34	44325.07
554.51	44210.38
554.67	45013.18
554.84	44781.47
555.00	44425.71
555.17	44205.70
555.33	44865.73
555.50	44584.86
555.67	44652.74
555.83	44425.71
556.00	44514.65
556.16	44861.05
556.33	44861.05
556.50	44706.57
556.66	44851.69
556.83	44788.49
556.99	44472.52
557.16	44711.25
557.32	44793.17
557.49	45277.66
557.65	44505.29
557.82	44641.04
557.98	44964.03
558.15	45010.84
558.32	44751.04
558.48	44505.29
558.65	44844.66
558.81	44582.52
558.98	44954.67
559.14	45069.36
559.31	45134.89
559.47	44994.46
559.64	45483.63
559.80	45048.29
559.97	44945.31
560.13	45158.30
560.30	44931.26
560.46	45228.51
560.63	45275.32
560.79	45687.26
560.96	45462.57
561.12	45057.65
561.29	45055.31
561.45	45174.68
561.61	44844.66
561.78	45148.93
561.94	44816.58
562.11	45174.68
562.27	45160.64
562.44	45462.57
562.60	45485.97
562.77	45677.90
562.93	45661.51
563.10	45755.13
563.26	45528.10
563.42	45572.57
563.59	44982.76
563.75	45603.00
563.92	45968.12
564.08	45727.05
564.24	45729.39
564.41	45741.09
564.57	45343.20
564.74	45319.79
564.90	45310.43
565.07	45628.74
565.23	45801.94
565.39	45542.14
565.56	45635.77
565.72	45139.57
565.88	45371.28
566.05	45366.60
566.21	45275.32
566.38	45502.35
566.54	45603.00
566.70	46003.23
566.87	45474.27
567.03	45771.52
567.19	46298.14
567.36	45497.67
567.52	45418.10
567.68	45544.48
567.85	45563.21
568.01	45911.95
568.17	45792.58
568.34	45869.82
568.50	45689.60
568.66	45464.91
568.83	45469.59
568.99	45743.43
569.15	45610.02
569.32	45731.73
569.48	45523.42
569.64	46038.34
569.81	45422.78
569.97	46075.79
570.13	46153.02
570.30	45780.88
570.46	45380.65
570.62	45570.23
570.78	45326.81
570.95	45635.77
571.11	45415.76
571.27	45923.65
571.43	45918.97
571.60	46204.52
571.76	45794.92
571.92	45886.20
572.09	45488.31
572.25	45942.38
572.41	45804.28
572.57	46155.36
572.74	46330.90
572.90	45841.73
573.06	45977.48
573.22	45940.04
573.38	46033.66
573.55	45720.02
573.71	45930.67
573.87	45947.06
574.03	45668.53
574.20	45701.30
574.36	45708.32
574.52	45460.23
574.68	46267.71
574.84	46080.47
575.01	45633.42
575.17	45837.05
575.33	45415.76
575.49	45640.45
575.65	45989.19
575.82	45855.78
575.98	45895.56
576.14	46160.05
576.30	45949.40
576.46	46190.47
576.62	45846.41
576.79	45738.75
576.95	45860.46
577.11	46347.29
577.27	45792.58
577.43	45731.73
577.59	45902.59
577.75	45635.77
577.92	45830.03
578.08	45399.37
578.24	45879.18
578.40	45551.51
578.56	46017.27
578.72	45986.85
578.88	46167.07
579.04	45874.50
579.21	45514.06
579.37	45544.48
579.53	45895.56
579.69	45614.70
579.85	45792.58
580.01	45867.48
580.17	45867.48
580.33	45755.13
580.49	46183.45
580.65	45989.19
580.82	45729.39
580.98	46401.12
581.14	45996.21
581.30	45923.65
581.46	46047.70
581.62	45970.46
581.78	45691.94
581.94	46752.20
582.10	46176.43
582.26	46183.45
582.42	46141.32
582.58	46085.15
582.74	45968.12
582.90	46024.29
583.06	46209.20
583.22	45942.38
583.38	46092.17
583.54	46260.69
583.70	46094.51
583.86	45909.61
584.02	45698.96
584.18	46337.93
584.34	45918.97
584.50	46153.02
584.66	45825.35
584.82	45776.20
584.98	46068.76
585.14	45874.50
585.30	46195.15
585.46	46188.13
585.62	45626.40
585.78	45956.42
585.94	45834.71
586.10	45750.45
586.26	45518.74
586.42	46248.99
586.58	46038.34
586.74	46101.53
586.90	45958.76
587.06	45715.34
587.22	46148.34
587.38	45745.77
587.54	45925.99
587.70	46075.79
587.86	46178.77
588.02	46335.59
588.18	46211.54
588.34	45736.41
588.49	45165.32
588.65	45593.64
588.81	45628.74
588.97	45549.17
589.13	45696.62
589.29	46064.08
589.45	45720.02
589.61	46279.41
589.77	46089.83
589.93	46511.13
