SpectraSuite Data File
++++++++++++++++++++++++++++++++++++
Date: Fri Oct 25 10:47:31 EDT 2013
User: price-jones
Dark Spectrum Present: No
Reference Spectrum Present: No
Number of Sampled Component Spectra: 1
Spectrometers: USB2+H05261
Integration Time (usec): 100000 (USB2+H05261)
Spectra Averaged: 1 (USB2+H05261)
Boxcar Smoothing: 0 (USB2+H05261)
Correct for Electrical Dark: No (USB2+H05261)
Strobe/Lamp Enabled: No (USB2+H05261)
Correct for Detector Non-linearity: No (USB2+H05261)
Correct for Stray Light: No (USB2+H05261)
Number of Pixels in Processed Spectrum: 2048
>>>>>Begin Processed Spectral Data<<<<<
365.73	74.90
365.92	74.90
366.12	74.90
366.32	91.28
366.52	0.00
366.72	77.24
366.91	0.00
367.11	51.49
367.31	0.00
367.51	70.22
367.70	56.17
367.90	60.85
368.10	46.81
368.30	63.19
368.49	2.34
368.69	37.45
368.89	56.17
369.09	23.41
369.28	51.49
369.48	65.54
369.68	95.96
369.87	133.41
370.07	112.35
370.27	220.01
370.47	276.18
370.66	388.53
370.86	489.17
371.06	500.87
371.25	489.17
371.45	365.12
371.65	468.11
371.84	458.74
372.04	416.62
372.24	447.04
372.44	468.11
372.63	512.58
372.83	507.90
373.03	475.13
373.22	486.83
373.42	451.72
373.62	489.17
373.81	582.79
374.01	582.79
374.21	524.28
374.40	543.00
374.60	524.28
374.79	543.00
374.99	524.28
375.19	589.82
375.38	524.28
375.58	543.00
375.78	608.54
375.97	599.18
376.17	585.13
376.37	566.41
376.56	580.45
376.76	559.39
376.95	589.82
377.15	578.11
377.35	573.43
377.54	538.32
377.74	540.66
377.93	554.71
378.13	538.32
378.33	660.03
378.52	578.11
378.72	550.03
378.91	601.52
379.11	610.88
379.31	634.29
379.50	664.71
379.70	669.39
379.89	587.47
380.09	573.43
380.28	613.22
380.48	664.71
380.68	655.35
380.87	627.26
381.07	688.12
381.26	667.05
381.46	645.99
381.65	645.99
381.85	653.01
382.04	688.12
382.24	727.91
382.43	765.36
382.63	753.65
382.83	772.38
383.02	697.48
383.22	816.85
383.41	660.03
383.61	620.24
383.80	671.73
384.00	763.01
384.19	758.33
384.39	697.48
384.58	744.29
384.78	671.73
384.97	702.16
385.17	685.78
385.36	763.01
385.56	706.84
385.75	674.07
385.95	732.59
386.14	727.91
386.34	734.93
386.53	734.93
386.72	739.61
386.92	805.14
387.11	795.78
387.31	812.17
387.50	814.51
387.70	800.46
387.89	795.78
388.09	861.32
388.28	807.48
388.48	844.93
388.67	763.01
388.86	720.88
389.06	884.72
389.25	889.40
389.45	861.32
389.64	924.51
389.84	887.06
390.03	961.96
390.22	950.26
390.42	847.27
390.61	873.02
390.81	910.47
391.00	882.38
391.19	915.15
391.39	926.85
391.58	1034.52
391.78	894.08
391.97	997.07
392.16	1020.47
392.36	999.41
392.55	926.85
392.75	919.83
392.94	990.05
393.13	952.60
393.33	990.05
393.52	973.66
393.71	1050.90
393.91	1071.97
394.10	954.94
394.29	1020.47
394.49	938.55
394.68	1029.84
394.88	1062.60
395.07	1142.18
395.26	1153.88
395.46	1076.65
395.65	1097.71
395.84	1114.10
396.04	1104.73
396.23	1137.50
396.42	1060.26
396.62	1217.08
396.81	1174.95
397.00	1142.18
397.19	1172.61
397.39	1205.38
397.58	1165.59
397.77	1181.97
397.97	1268.57
398.16	1238.14
398.35	1221.76
398.55	1306.02
398.74	1210.06
398.93	1284.95
399.12	1254.53
399.32	1256.87
399.51	1371.55
399.70	1343.47
399.90	1306.02
400.09	1362.19
400.28	1301.34
400.47	1387.94
400.67	1350.49
400.86	1376.24
401.05	1458.15
401.24	1423.05
401.44	1310.70
401.63	1437.09
401.82	1418.36
402.01	1516.67
402.21	1460.49
402.40	1467.52
402.59	1476.88
402.78	1465.18
402.97	1563.48
403.17	1446.45
403.36	1462.83
403.55	1521.35
403.74	1612.63
403.93	1577.52
404.13	1570.50
404.32	1533.05
404.51	1647.74
404.70	1647.74
404.89	1589.22
405.09	1760.08
405.28	1734.34
405.47	1626.67
405.66	1659.44
405.85	1846.68
406.05	1788.17
406.24	1839.66
406.43	1708.59
406.62	1802.21
406.81	1895.83
407.00	1795.19
407.20	1755.40
407.39	1813.92
407.58	1837.32
407.77	2005.84
407.96	1905.20
408.15	1839.66
408.34	1956.69
408.54	1968.39
408.73	2029.24
408.92	2005.84
409.11	1982.43
409.30	1991.80
409.49	1935.62
409.68	1947.33
409.87	1954.35
410.07	2040.95
410.26	2045.63
410.45	2160.31
410.64	2043.29
410.83	2162.66
411.02	2134.57
411.21	2270.32
411.40	2239.89
411.59	2143.93
411.78	2174.36
411.98	2214.15
412.17	2193.08
412.36	2183.72
412.55	2284.36
412.74	2310.11
412.93	2490.33
413.12	2359.26
413.31	2495.01
413.50	2389.69
413.69	2410.75
413.88	2562.89
414.07	2541.82
414.26	2626.08
414.45	2616.72
414.64	2445.86
414.83	2670.55
415.02	2621.40
415.22	2602.68
415.41	2672.89
415.60	2670.55
415.79	2654.17
415.98	2752.47
416.17	2834.39
416.36	2782.90
416.55	2743.11
416.74	2724.38
416.93	2743.11
417.12	2839.07
417.31	2829.71
417.50	2949.08
417.69	2902.26
417.88	2991.20
418.07	2972.48
418.26	3014.61
418.45	2988.86
418.64	3145.68
418.83	3208.87
419.02	3012.27
419.21	3115.25
419.39	3028.65
419.58	3091.85
419.77	3117.59
419.96	3148.02
420.15	3288.45
420.34	3187.81
420.53	3307.18
420.72	3260.37
420.91	3295.47
421.10	3229.94
421.29	3361.01
421.48	3386.76
421.67	3335.26
421.86	3183.13
422.05	3445.27
422.24	3447.61
422.43	3361.01
422.61	3332.92
422.80	3377.39
422.99	3403.14
423.18	3398.46
423.37	3482.72
423.56	3384.41
423.75	3513.14
423.94	3382.07
424.13	3225.26
424.32	3440.59
424.50	3478.04
424.69	3578.68
424.88	3492.08
425.07	3454.63
425.26	3433.57
425.45	3604.42
425.64	3538.89
425.83	3513.14
426.01	3562.30
426.20	3489.74
426.39	3541.23
426.58	3323.56
426.77	3459.31
426.96	3583.36
427.15	3674.64
427.33	3691.02
427.52	3585.70
427.71	3676.98
427.90	3489.74
428.09	3597.40
428.28	3698.05
428.46	3695.71
428.65	3747.20
428.84	3733.15
429.03	3859.54
429.22	3606.77
429.40	3634.85
429.59	3651.24
429.78	3611.45
429.97	3517.83
430.16	3691.02
430.34	3684.00
430.53	3812.73
430.72	3709.75
430.91	3583.36
431.10	3808.05
431.28	4011.68
431.47	4065.51
431.66	4067.85
431.85	3955.51
432.03	3995.29
432.22	4119.34
432.41	4056.15
432.60	4063.17
432.79	4002.32
432.97	4128.70
433.16	4149.77
433.35	3922.74
433.54	4105.30
433.72	4131.05
433.91	4100.62
434.10	4376.80
434.28	4072.53
434.47	4100.62
434.66	4297.22
434.85	4191.90
435.03	4308.93
435.22	4477.44
435.41	4362.76
435.59	4397.87
435.78	4318.29
435.97	4432.97
436.16	4374.46
436.34	4404.89
436.53	4521.92
436.72	4610.86
436.90	4514.89
437.09	4517.23
437.28	4423.61
437.46	4578.09
437.65	4507.87
437.84	4627.24
438.02	4587.45
438.21	4741.93
438.40	4594.47
438.58	4681.07
438.77	4828.53
438.96	4849.59
439.14	4926.83
439.33	4903.42
439.52	4915.12
439.70	5018.11
439.89	4983.00
440.08	4889.38
440.26	4957.25
440.45	5095.35
440.63	5064.92
440.82	5107.05
441.01	5240.46
441.19	5193.65
441.38	5261.52
441.57	5348.12
441.75	5371.53
441.94	5455.79
442.12	5502.60
442.31	5563.45
442.50	5357.49
442.68	5497.92
442.87	5462.81
443.05	5504.94
443.24	5692.18
443.43	5535.37
443.61	5633.67
443.80	5673.46
443.98	5479.19
444.17	5383.23
444.35	5537.71
444.54	5638.35
444.73	5741.33
444.91	5661.76
445.10	5757.72
445.28	5628.99
445.47	5490.90
445.65	5694.52
445.84	5596.22
446.02	5827.93
446.21	5865.38
446.39	5863.04
446.58	5898.15
446.77	5657.07
446.95	5720.27
447.14	5891.13
447.32	5930.92
447.51	5797.51
447.69	5643.03
447.88	5760.06
448.06	5790.49
448.25	5909.85
448.43	6015.18
448.62	5706.23
448.80	5621.97
448.99	5980.07
449.17	5909.85
449.36	5951.98
449.54	5984.75
449.73	5961.34
449.91	6120.50
450.10	6057.31
450.28	6080.71
450.46	6286.68
450.65	6146.25
450.83	6202.42
451.02	6258.59
451.20	6307.74
451.39	6263.27
451.57	6225.82
451.76	6244.55
451.94	6317.11
452.13	6434.13
452.31	6506.69
452.49	6300.72
452.68	6490.31
452.86	6228.17
453.05	6242.21
453.23	6382.64
453.42	6396.68
453.60	6363.92
453.78	6490.31
453.97	6520.73
454.15	6408.39
454.34	6317.11
454.52	6637.76
454.70	6576.91
454.89	6614.35
455.07	6743.08
455.26	6686.91
455.44	6677.55
455.62	6785.21
455.81	6726.70
455.99	6815.64
456.17	6806.28
456.36	6944.37
456.54	6925.65
456.73	6970.12
456.91	6998.20
457.09	7295.45
457.28	7159.70
457.46	6998.20
457.64	7178.42
457.83	7066.08
458.01	6832.02
458.19	7162.04
458.38	7094.16
458.56	7225.23
458.74	7250.98
458.93	7332.90
459.11	7382.05
459.29	7300.13
459.48	7433.54
459.66	7297.79
459.84	7351.62
460.03	7435.88
460.21	7314.17
460.39	7391.41
460.57	7461.63
460.76	7520.14
460.94	7571.63
461.12	7527.16
461.31	7548.23
461.49	7513.12
461.67	7550.57
461.85	7770.58
462.04	7831.43
462.22	8028.04
462.40	7885.26
462.59	7826.75
462.77	7885.26
462.95	7887.61
463.13	7885.26
463.32	7770.58
463.50	7822.07
463.68	7789.30
463.86	7918.03
464.05	7997.61
464.23	7817.39
464.41	7934.42
464.59	7915.69
464.78	8226.98
464.96	7995.27
465.14	7896.97
465.32	8114.64
465.50	8072.51
465.69	8243.37
465.87	8063.15
466.05	8147.40
466.23	8184.85
466.41	8348.69
466.60	8182.51
466.78	8098.25
466.96	8201.24
467.14	8187.19
467.32	8264.43
467.51	8367.42
467.69	8102.93
467.87	8255.07
468.05	8360.39
468.23	8236.35
468.41	8393.16
468.60	8463.38
468.78	8430.61
468.96	8528.91
469.14	8444.65
469.32	8587.43
469.50	8456.36
469.69	8594.45
469.87	8540.61
470.05	8809.78
470.23	8844.88
470.41	8772.33
470.59	8779.35
470.77	8720.84
470.95	8917.44
471.14	9090.64
471.32	8870.63
471.50	9102.34
471.68	9221.71
471.86	9055.53
472.04	9179.58
472.22	9357.46
472.40	9132.77
472.58	9095.32
472.77	9238.09
472.95	9298.95
473.13	9448.74
473.31	9224.05
473.49	9420.66
473.67	9245.12
473.85	9556.41
474.03	9998.77
474.21	9703.86
474.39	9767.06
474.57	9841.95
474.75	9940.26
474.93	9827.91
475.12	9928.55
475.30	9930.89
475.48	9998.77
475.66	9987.07
475.84	9930.89
476.02	10059.62
476.20	10331.12
476.38	10258.57
476.56	10649.44
476.74	10480.92
476.92	10272.61
477.10	10532.41
477.28	10824.98
477.46	10700.93
477.64	10778.17
477.82	11049.67
478.00	11255.64
478.18	10979.45
478.36	11054.35
478.54	11171.38
478.72	11367.98
478.90	11590.33
479.08	11447.56
479.26	11747.15
479.44	11590.33
479.62	11520.12
479.80	11868.86
479.98	11957.80
480.16	12039.72
480.34	12091.21
480.52	12248.02
480.70	11981.20
480.88	12135.68
481.06	12201.21
481.24	12205.89
481.41	12468.03
481.59	12657.62
481.77	12842.52
481.95	12699.75
482.13	12940.82
482.31	12865.92
482.49	13364.46
482.67	13099.98
482.85	13219.35
483.03	13364.46
483.21	13652.34
483.39	13577.45
483.57	13603.19
483.74	13792.78
483.92	13914.48
484.10	14136.84
484.28	14059.60
484.46	14272.59
484.64	14609.62
484.82	14174.28
485.00	14059.60
485.18	14778.14
485.35	15033.26
485.53	14607.28
485.71	14899.85
485.89	15293.06
486.07	14920.92
486.25	15016.88
486.43	15187.74
486.61	15545.84
486.78	15988.20
486.96	15822.02
487.14	15683.93
487.32	15871.17
487.50	16189.49
487.68	16203.53
487.85	16596.74
488.03	16542.91
488.21	16936.12
488.39	16709.08
488.57	16891.65
488.75	17109.32
488.92	17245.07
489.10	17170.17
489.28	17561.04
489.46	17532.95
489.64	17319.96
489.81	17930.84
489.99	18080.64
490.17	18045.53
490.35	18162.56
490.53	17940.21
490.70	18705.56
490.88	18609.60
491.06	19014.51
491.24	18623.64
491.41	18792.16
491.59	18857.70
491.77	19150.26
491.95	19396.02
492.13	19454.53
492.30	19278.99
492.48	19407.72
492.66	19454.53
492.84	19370.27
493.01	19756.46
493.19	19803.27
493.37	20098.18
493.54	20133.29
493.72	20336.91
493.90	20304.15
494.08	20760.55
494.25	20875.24
494.43	20893.96
494.61	20968.86
494.79	21102.27
494.96	21036.74
495.14	21357.39
495.32	21312.92
495.49	21511.86
495.67	21465.05
495.85	21460.37
496.02	22038.48
496.20	21809.11
496.38	21933.16
496.55	22001.04
496.73	22637.66
496.91	22462.12
497.09	22321.69
497.26	22808.52
497.44	22700.86
497.62	22721.92
497.79	22635.32
497.97	23061.30
498.14	23073.00
498.32	23185.35
498.50	23445.15
498.67	23386.63
498.85	23173.64
499.03	23616.01
499.20	23447.49
499.38	23847.72
499.56	23775.16
499.73	24006.87
499.91	24049.00
500.08	24379.02
500.26	23871.12
500.44	24292.42
500.61	24439.87
500.79	24116.88
500.97	24751.17
501.14	24924.36
501.32	24807.34
501.49	25158.42
501.67	24737.12
501.84	24863.51
502.02	25032.03
502.20	25223.95
502.37	25181.82
502.55	25013.31
502.72	25109.27
502.90	25170.12
503.07	25720.15
503.25	25476.73
503.43	25921.43
503.60	25687.38
503.78	25598.44
503.95	25708.44
504.13	26155.49
504.30	25879.30
504.48	25935.48
504.65	26225.70
504.83	26534.65
505.01	26546.36
505.18	26270.17
505.36	26902.12
505.53	26497.20
505.71	26974.67
505.88	27260.22
506.06	26724.24
506.23	26536.99
506.41	26850.63
506.58	26859.99
506.76	27077.66
506.93	27187.66
507.11	27302.35
507.28	27468.53
507.46	27583.21
507.63	27393.63
507.81	28135.58
507.98	27421.72
508.16	27695.56
508.33	27770.46
508.50	27885.14
508.68	28095.79
508.85	28194.09
509.03	28046.64
509.20	28290.06
509.38	28540.49
509.55	28781.57
509.73	28718.37
509.90	28514.75
510.08	28404.74
510.25	28697.31
510.42	28683.27
510.60	28638.80
510.77	28973.49
510.95	29078.82
511.12	28610.71
511.30	29198.18
511.47	29460.32
511.64	29312.87
511.82	29645.23
511.99	29535.22
512.17	29680.33
512.34	29193.50
512.51	29589.05
512.69	29961.20
512.86	29816.08
513.04	30061.84
513.21	30422.28
513.38	30307.60
513.56	30211.64
513.73	29944.81
513.90	30953.58
514.08	30565.06
514.25	30457.39
514.43	31058.91
514.60	30293.55
514.77	30459.73
514.95	30864.64
515.12	30827.20
515.29	30710.17
515.47	31281.26
515.64	31316.37
515.81	30866.98
515.99	30944.22
516.16	31360.84
516.33	31365.52
516.51	31365.52
516.68	31051.89
516.85	30866.98
517.03	31208.70
517.20	31412.33
517.37	31454.46
517.54	31496.59
517.72	31519.99
517.89	31725.96
518.06	31363.18
518.24	31721.28
518.41	31377.22
518.58	31730.64
518.75	31992.78
518.93	32254.92
519.10	31960.02
519.27	32018.53
519.45	32252.58
519.62	32545.15
519.79	32797.93
519.96	32716.01
520.14	32751.12
520.31	32538.13
520.48	33163.05
520.65	32833.04
520.83	33141.99
521.00	33427.53
521.17	32739.41
521.34	33390.08
521.52	33296.46
521.69	33450.94
521.86	33560.94
522.03	33909.68
522.20	33612.43
522.38	33703.71
522.55	33741.16
522.72	34108.63
522.89	33345.61
523.07	33993.94
523.24	33645.20
523.41	33638.18
523.58	34022.03
523.75	34590.78
523.92	34223.31
524.10	34497.16
524.27	34103.95
524.44	34731.21
524.61	34174.16
524.78	34735.89
524.96	34543.97
525.13	34831.85
525.30	35023.78
525.47	35105.70
525.64	34951.22
525.81	35005.05
525.98	35086.97
526.16	34871.64
526.33	34689.08
526.50	35077.61
526.67	35211.02
526.84	35271.87
527.01	34972.28
527.18	35077.61
527.36	35211.02
527.53	35505.93
527.70	35845.30
527.87	36044.25
528.04	35360.81
528.21	35718.92
528.38	35314.00
528.55	36191.70
528.72	35938.93
528.89	35934.24
529.07	36079.36
529.24	35943.61
529.41	36023.19
529.58	35967.01
529.75	35639.34
529.92	36135.53
530.09	36484.27
530.26	36018.50
530.43	36357.88
530.60	36215.11
530.77	36755.77
530.94	36896.20
531.11	36531.08
531.28	36837.69
531.46	36725.35
531.63	36762.79
531.80	37046.00
531.97	36723.01
532.14	37200.47
532.31	36458.52
532.48	36917.27
532.65	37308.14
532.82	36634.06
532.99	37041.32
533.16	36884.50
533.33	37024.93
533.50	37099.83
533.67	37717.73
533.84	37036.64
534.01	36856.42
534.18	37305.80
534.35	37968.17
534.52	37544.53
534.69	37207.50
534.86	37354.95
535.03	37399.42
535.20	37811.35
535.37	38033.71
535.54	37787.95
535.71	38000.94
535.88	37944.76
536.05	37954.13
536.22	37996.26
536.38	38237.33
536.55	38272.44
536.72	37949.45
536.89	37944.76
537.06	38022.00
537.23	37993.92
537.40	38466.70
537.57	37975.19
537.74	38389.47
537.91	38595.43
538.08	38782.68
538.25	38014.98
538.42	38567.35
538.59	38478.41
538.75	38328.61
538.92	38384.79
539.09	39009.71
539.26	38677.35
539.43	38990.98
539.60	38806.08
539.77	38895.02
539.94	38464.36
540.11	38927.79
540.28	39189.93
540.44	38738.21
540.61	38522.88
540.78	39189.93
540.95	38817.78
541.12	38822.47
541.29	39215.68
541.46	39192.27
541.62	38967.58
541.79	39651.02
541.96	39051.84
542.13	39110.35
542.30	39356.11
542.47	39791.45
542.63	39379.51
542.80	40210.40
542.97	40020.82
543.14	40486.59
543.31	40144.87
543.48	40226.79
543.64	40512.33
543.81	40039.54
543.98	40037.20
544.15	39845.28
544.32	40130.83
544.48	40322.75
544.65	40048.91
544.82	40105.08
544.99	39889.75
545.16	40203.38
545.32	40493.61
545.49	40545.10
545.66	40655.11
545.83	40533.40
546.00	40680.85
546.16	40947.67
546.33	40491.27
546.50	40137.85
546.67	40781.49
546.83	40519.35
547.00	40512.33
547.17	40968.74
547.34	40697.24
547.50	40753.41
547.67	40968.74
547.84	41205.13
548.00	41097.47
548.17	40989.80
548.34	40802.56
548.51	41221.52
548.67	41319.82
548.84	41413.44
549.01	41235.56
549.18	41631.11
549.34	41624.09
549.51	41282.37
549.68	41275.35
549.84	41549.19
550.01	41846.44
550.18	41572.60
550.34	41607.70
550.51	41336.20
550.68	41263.64
550.84	41057.68
551.01	41247.26
551.18	41549.19
551.34	41626.43
551.51	41511.74
551.68	41577.28
551.84	41422.80
552.01	41738.77
552.18	42127.30
552.34	41631.11
552.51	41729.41
552.68	41766.86
552.84	41865.16
553.01	41904.95
553.18	42183.48
553.34	42094.53
553.51	41783.24
553.67	41647.49
553.84	42260.71
554.01	41834.74
554.17	42492.43
554.34	42389.44
554.51	42143.69
554.67	42541.58
554.84	42541.58
555.00	42429.23
555.17	42412.85
555.33	42625.84
555.50	42529.87
555.67	42550.94
555.83	42506.47
556.00	42595.41
556.16	42511.15
556.33	42686.69
556.50	42717.12
556.66	42611.79
556.83	42483.06
556.99	42906.70
557.16	42756.91
557.32	42780.31
557.49	42754.57
557.65	42792.01
557.82	42497.11
557.98	42300.50
558.15	42885.64
558.32	43353.74
558.48	42974.58
558.65	42665.63
558.81	42845.85
558.98	42871.59
559.14	42733.50
559.31	43133.73
559.47	42979.26
559.64	43234.38
559.80	43196.93
559.97	43180.54
560.13	42803.72
560.30	42572.00
560.46	42892.66
560.63	43030.75
560.79	43082.24
560.96	43026.07
561.12	43105.65
561.29	43012.02
561.45	43246.08
561.61	43175.86
561.78	43573.75
561.94	43100.97
562.11	43021.39
562.27	42625.84
562.44	43269.48
562.60	43384.17
562.77	43543.33
562.93	43517.58
563.10	43608.86
563.26	42761.59
563.42	43290.55
563.59	43236.72
563.75	43498.86
563.92	43955.26
564.08	43491.83
564.24	43606.52
564.41	43714.19
564.57	43103.31
564.74	43040.11
564.90	43690.78
565.07	43674.40
565.23	43325.66
565.39	43639.29
565.56	43882.70
565.72	43775.04
565.88	43370.13
566.05	43723.55
566.21	43363.11
566.38	43571.41
566.54	43540.99
566.70	43798.44
566.87	43969.30
567.03	43831.21
567.19	43854.62
567.36	43433.32
567.52	43533.96
567.68	43725.89
567.85	44009.09
568.01	43929.51
568.17	43557.37
568.34	43892.07
568.50	43627.59
568.66	43882.70
568.83	43468.43
568.99	43379.49
569.15	43594.82
569.32	43749.29
569.48	43489.49
569.64	43672.06
569.81	43981.01
569.97	43807.81
570.13	43915.47
570.30	43650.99
570.46	43360.76
570.62	43473.11
570.78	43835.89
570.95	43374.81
571.11	44086.33
571.27	44030.16
571.43	43594.82
571.60	44369.54
571.76	43744.61
571.92	43840.57
572.09	43990.37
572.25	43498.86
572.41	43849.94
572.57	43873.34
572.74	44516.99
572.90	43662.69
573.06	44404.64
573.22	43438.00
573.38	43999.73
573.55	43913.13
573.71	44395.28
573.87	44093.35
574.03	44041.86
574.20	43889.73
574.36	43952.92
574.52	44219.74
574.68	44170.59
574.84	44240.81
575.01	44079.31
575.17	44025.48
575.33	44133.14
575.49	43969.30
575.65	44177.61
575.82	44399.96
575.98	44053.56
576.14	44322.72
576.30	43971.64
576.46	44219.74
576.62	43931.86
576.79	43899.09
576.95	43725.89
577.11	44226.76
577.27	43995.05
577.43	43695.46
577.59	44406.98
577.75	44135.48
577.92	43920.15
578.08	43873.34
578.24	43866.32
578.40	44098.03
578.56	44458.48
578.72	44435.07
578.88	44105.06
579.04	44376.56
579.21	43913.13
579.37	44282.94
579.53	43889.73
579.69	43936.54
579.85	44259.53
580.01	44648.06
580.17	44144.84
580.33	44664.44
580.49	44502.95
580.65	43990.37
580.82	44336.77
580.98	44479.54
581.14	43887.39
581.30	44189.31
581.46	44065.27
581.62	44236.12
581.78	44184.63
581.94	44128.46
582.10	44107.40
582.26	44315.70
582.42	44540.39
582.58	44409.32
582.74	43871.00
582.90	44453.79
583.06	44772.11
583.22	44538.05
583.38	44547.42
583.54	44198.68
583.70	44053.56
583.86	44388.26
584.02	44072.29
584.18	44252.51
584.34	44308.68
584.50	44531.03
584.66	44336.77
584.82	44280.60
584.98	44343.79
585.14	44643.38
585.30	44116.76
585.46	44446.77
585.62	43594.82
585.78	44559.12
585.94	43665.03
586.10	44404.64
586.26	44037.18
586.42	44062.93
586.58	44559.12
586.74	44208.04
586.90	44184.63
587.06	44161.23
587.22	44547.42
587.38	43971.64
587.54	44694.87
587.70	44463.16
587.86	44292.30
588.02	44458.48
588.18	44868.07
588.34	44018.46
588.49	43819.51
588.65	44053.56
588.81	43721.21
588.97	44289.96
589.13	44215.06
589.29	43866.32
589.45	44514.65
589.61	44566.14
589.77	44383.58
589.93	44655.08
590.08	44561.46
590.24	44708.91
590.40	44474.86
