SpectraSuite Data File
++++++++++++++++++++++++++++++++++++
Date: Fri Oct 25 11:25:38 EDT 2013
User: price-jones
Dark Spectrum Present: No
Reference Spectrum Present: No
Number of Sampled Component Spectra: 1
Spectrometers: USB2+H05261
Integration Time (usec): 100000 (USB2+H05261)
Spectra Averaged: 1 (USB2+H05261)
Boxcar Smoothing: 0 (USB2+H05261)
Correct for Electrical Dark: No (USB2+H05261)
Strobe/Lamp Enabled: No (USB2+H05261)
Correct for Detector Non-linearity: No (USB2+H05261)
Correct for Stray Light: No (USB2+H05261)
Number of Pixels in Processed Spectrum: 2048
>>>>>Begin Processed Spectral Data<<<<<
365.73	177.88
365.92	177.88
366.12	177.88
366.32	184.90
366.52	124.05
366.72	234.05
366.91	149.79
367.11	163.84
367.31	110.01
367.51	173.20
367.70	79.58
367.90	196.60
368.10	152.13
368.30	142.77
368.49	133.41
368.69	95.96
368.89	135.75
369.09	163.84
369.28	208.31
369.48	145.11
369.68	170.86
369.87	187.24
370.07	163.84
370.27	255.12
370.47	337.04
370.66	606.20
370.86	662.37
371.06	624.92
371.25	767.70
371.45	660.03
371.65	739.61
371.84	699.82
372.04	716.20
372.24	744.29
372.44	734.93
372.63	746.63
372.83	683.44
373.03	784.08
373.22	697.48
373.42	685.78
373.62	730.25
373.81	809.83
374.01	751.31
374.21	741.95
374.40	823.87
374.60	819.19
374.79	910.47
374.99	765.36
375.19	823.87
375.38	819.19
375.58	816.85
375.78	830.89
375.97	908.13
376.17	950.26
376.37	821.53
376.56	929.19
376.76	863.66
376.95	891.74
377.15	896.43
377.35	887.06
377.54	1029.84
377.74	854.30
377.93	884.72
378.13	973.66
378.33	896.43
378.52	957.28
378.72	1006.43
378.91	971.32
379.11	959.62
379.31	990.05
379.50	931.53
379.70	910.47
379.89	976.00
380.09	978.34
380.28	976.00
380.48	1057.92
380.68	910.47
380.87	1015.79
381.07	945.58
381.26	992.39
381.46	961.96
381.65	1102.39
381.85	1142.18
382.04	1029.84
382.24	1090.69
382.43	1067.28
382.63	1034.52
382.83	1062.60
383.02	1071.97
383.22	1184.31
383.41	1078.99
383.61	1128.14
383.80	1064.94
384.00	1107.07
384.19	1196.01
384.39	1067.28
384.58	1135.16
384.78	1153.88
384.97	1156.22
385.17	1107.07
385.36	1200.69
385.56	1135.16
385.75	1128.14
385.95	1109.41
386.14	1345.81
386.34	1163.25
386.53	1299.00
386.72	1224.10
386.92	1196.01
387.11	1287.29
387.31	1320.06
387.50	1198.35
387.70	1266.23
387.89	1294.32
388.09	1221.76
388.28	1228.78
388.48	1249.85
388.67	1266.23
388.86	1399.64
389.06	1320.06
389.25	1390.28
389.45	1291.98
389.64	1364.53
389.84	1327.08
390.03	1338.79
390.22	1397.30
390.42	1406.66
390.61	1331.76
390.81	1406.66
391.00	1413.68
391.19	1376.24
391.39	1486.24
391.58	1423.05
391.78	1486.24
391.97	1462.83
392.16	1458.15
392.36	1549.43
392.55	1554.12
392.75	1544.75
392.94	1460.49
393.13	1507.30
393.33	1568.16
393.52	1453.47
393.71	1591.56
393.91	1533.05
394.10	1523.69
394.29	1561.14
394.49	1631.35
394.68	1600.93
394.88	1607.95
395.07	1621.99
395.26	1703.91
395.46	1659.44
395.65	1710.93
395.84	1614.97
396.04	1846.68
396.23	1790.51
396.42	1652.42
396.62	1715.61
396.81	1863.07
397.00	1710.93
397.19	1834.98
397.39	1816.26
397.58	1820.94
397.77	1874.77
397.97	1774.13
398.16	1872.43
398.35	1923.92
398.55	1809.23
398.74	1870.09
398.93	1959.03
399.12	1846.68
399.32	1860.73
399.51	1872.43
399.70	1949.67
399.90	1916.90
400.09	2031.58
400.28	2113.50
400.47	2045.63
400.67	2050.31
400.86	2050.31
401.05	2047.97
401.24	2094.78
401.44	1994.14
401.63	2090.10
401.82	2237.55
402.01	2022.22
402.21	2183.72
402.40	2148.61
402.59	2202.44
402.78	2207.13
402.97	2265.64
403.17	2214.15
403.36	2228.19
403.55	2249.25
403.74	2349.90
403.93	2380.32
404.13	2349.90
404.32	2345.22
404.51	2317.13
404.70	2356.92
404.89	2377.98
405.09	2459.90
405.28	2506.71
405.47	2504.37
405.66	2445.86
405.85	2401.39
406.05	2555.86
406.24	2513.74
406.43	2586.29
406.62	2726.72
406.81	2635.44
407.00	2565.23
407.20	2656.51
407.39	2551.18
407.58	2710.34
407.77	2682.25
407.96	2670.55
408.15	2764.17
408.34	2708.00
408.54	2874.18
408.73	2754.81
408.92	2764.17
409.11	2911.63
409.30	2946.73
409.49	2841.41
409.68	2925.67
409.87	2864.82
410.07	2993.55
410.26	2930.35
410.45	2977.16
410.64	2967.80
410.83	3094.19
411.02	3098.87
411.21	3103.55
411.40	3117.59
411.59	3190.15
411.78	3110.57
411.98	3136.32
412.17	3258.03
412.36	3218.24
412.55	3314.20
412.74	3349.31
412.93	3487.40
413.12	3440.59
413.31	3559.95
413.50	3386.76
413.69	3459.31
413.88	3510.80
414.07	3588.04
414.26	3578.68
414.45	3707.41
414.64	3625.49
414.83	3829.12
415.02	3674.64
415.22	3754.22
415.41	3772.94
415.60	3859.54
415.79	3817.41
415.98	3927.42
416.17	4053.81
416.36	4032.74
416.55	3868.91
416.74	3985.93
416.93	4088.92
417.12	3960.19
417.31	4173.18
417.50	4238.71
417.69	4290.20
417.88	4252.75
418.07	4219.99
418.26	4327.65
418.45	4339.35
418.64	4444.68
418.83	4362.76
419.02	4432.97
419.21	4430.63
419.39	4411.91
419.58	4369.78
419.77	4456.38
419.96	4690.43
420.15	4470.42
420.34	4491.49
420.53	4552.34
420.72	4587.45
420.91	4671.71
421.10	4608.51
421.29	4781.71
421.48	4781.71
421.67	4748.95
421.86	4683.41
422.05	4798.10
422.24	4833.21
422.43	4709.16
422.61	4873.00
422.80	4997.04
422.99	4851.93
423.18	4835.55
423.37	4926.83
423.56	4887.04
423.75	4905.76
423.94	4854.27
424.13	4627.24
424.32	4924.49
424.50	4954.91
424.69	5011.09
424.88	4957.25
425.07	4990.02
425.26	4805.12
425.45	4985.34
425.64	5008.75
425.83	5034.49
426.01	4947.89
426.20	4854.27
426.39	4968.96
426.58	4964.28
426.77	4947.89
426.96	5069.60
427.15	5053.22
427.33	5303.65
427.52	5210.03
427.71	5088.32
427.90	5139.82
428.09	5298.97
428.28	5277.91
428.46	5341.10
428.65	5224.08
428.84	5476.85
429.03	5488.56
429.22	5387.91
429.40	5563.45
429.59	5390.25
429.78	5320.04
429.97	5231.10
430.16	5376.21
430.34	5584.52
430.53	5633.67
430.72	5682.82
430.91	5715.59
431.10	5540.05
431.28	5605.58
431.47	5902.83
431.66	5764.74
431.85	5809.21
432.03	5907.51
432.22	5907.51
432.41	5893.47
432.60	5844.32
432.79	5907.51
432.97	6043.26
433.16	6108.80
433.35	6059.65
433.54	6054.97
433.72	6050.28
433.91	6162.63
434.10	6029.22
434.28	6094.76
434.47	6216.46
434.66	6176.67
434.85	6420.09
435.03	6452.86
435.22	6057.31
435.41	6370.94
435.59	6382.64
435.78	6436.47
435.97	6361.58
436.16	6448.18
436.34	6455.20
436.53	6635.42
436.72	6527.75
436.90	6363.92
437.09	6483.28
437.28	6359.24
437.46	6532.44
437.65	6677.55
437.84	6661.16
438.02	6600.31
438.21	6560.52
438.40	6836.70
438.58	7119.91
438.77	6981.82
438.96	6789.89
439.14	6981.82
439.33	7201.83
439.52	7112.89
439.70	7119.91
439.89	7321.20
440.08	7501.42
440.26	7426.52
440.45	7157.36
440.63	7258.00
440.82	7543.55
441.01	7496.74
441.19	7478.01
441.38	7592.70
441.57	7808.03
441.75	7613.76
441.94	7871.22
442.12	7927.39
442.31	8030.38
442.50	7995.27
442.68	7974.21
442.87	7829.09
443.05	8079.53
443.24	8212.94
443.43	8053.78
443.61	8081.87
443.80	8348.69
443.98	7990.59
444.17	7836.11
444.35	8131.02
444.54	8355.71
444.73	8360.39
444.91	8168.47
445.10	8201.24
445.28	8285.50
445.47	8161.45
445.65	8332.31
445.84	8446.99
446.02	8376.78
446.21	8454.02
446.39	8292.52
446.58	8486.78
446.77	8379.12
446.95	8243.37
447.14	8388.48
447.32	8531.25
447.51	8393.16
447.69	8578.06
447.88	8479.76
448.06	8678.71
448.25	8468.06
448.43	8491.46
448.62	8505.51
448.80	8383.80
448.99	8505.51
449.17	8631.90
449.36	8772.33
449.54	8737.22
449.73	8912.76
449.91	9123.41
450.10	8992.34
450.28	9090.64
450.46	9067.24
450.65	8856.59
450.83	8924.46
451.02	8861.27
451.20	9039.15
451.39	8966.59
451.57	9015.74
451.76	9074.26
451.94	8971.27
452.13	9341.08
452.31	9415.98
452.49	9142.13
452.68	9214.69
452.86	9315.33
453.05	9362.14
453.23	9387.89
453.42	9399.59
453.60	9355.12
453.78	9444.06
453.97	9392.57
454.15	9406.61
454.34	9390.23
454.52	9584.49
454.70	9652.37
454.89	9811.53
455.07	9633.64
455.26	9764.72
455.44	9820.89
455.62	9856.00
455.81	9879.40
455.99	9872.38
456.17	10038.56
456.36	9832.59
456.54	10169.63
456.73	10160.27
456.91	10469.22
457.09	10331.12
457.28	10600.29
457.46	9970.68
457.64	10483.26
457.83	10225.80
458.01	10431.77
458.19	10569.86
458.38	10569.86
458.56	10459.85
458.74	10663.48
458.93	10494.96
459.11	10792.21
459.29	10626.03
459.48	10757.10
459.66	10796.89
459.84	10855.40
460.03	10937.32
460.21	10822.64
460.39	11005.20
460.57	11061.37
460.76	11066.05
460.94	11152.65
461.12	11082.44
461.31	10916.26
461.49	11087.12
461.67	11234.57
461.85	11405.43
462.04	11192.44
462.22	11707.36
462.40	11358.62
462.59	11267.34
462.77	11281.38
462.95	11578.63
463.13	11665.23
463.32	11637.14
463.50	11688.64
463.68	11819.71
463.86	11445.22
464.05	11880.56
464.23	11721.40
464.41	11866.52
464.59	11461.60
464.78	12088.87
464.96	11712.04
465.14	11709.70
465.32	11915.67
465.50	11990.56
465.69	12056.10
465.87	12257.39
466.05	12168.45
466.23	12187.17
466.41	12327.60
466.60	12168.45
466.78	12212.92
466.96	12196.53
467.14	12184.83
467.32	12278.45
467.51	12582.72
467.69	12238.66
467.87	12180.15
468.05	12334.62
468.23	12587.40
468.41	12250.36
468.60	12449.31
468.78	12781.67
468.96	12671.66
469.14	12479.74
469.32	12776.98
469.50	12674.00
469.69	12779.32
469.87	12819.11
470.05	12886.99
470.23	13069.55
470.41	13006.36
470.59	13111.68
470.77	13001.68
470.95	13174.88
471.14	13511.91
471.32	13195.94
471.50	13514.25
471.68	13399.57
471.86	13743.63
472.04	13820.86
472.22	14111.09
472.40	13743.63
472.58	13870.01
472.77	13921.51
472.95	14066.62
473.13	14586.22
473.31	13977.68
473.49	13982.36
473.67	14022.15
473.85	14075.98
474.03	14516.00
474.21	14370.89
474.39	14700.90
474.57	14663.46
474.75	14808.57
474.93	14986.45
475.12	14656.43
475.30	15009.86
475.48	14965.39
475.66	15154.97
475.84	14956.02
476.02	15389.02
476.20	15154.97
476.38	15847.77
476.56	16023.31
476.74	15646.48
476.92	15594.99
477.10	15920.32
477.28	16006.92
477.46	16226.93
477.64	16294.81
477.82	16671.64
478.00	17128.04
478.18	16669.30
478.36	16809.73
478.54	17039.10
478.72	17310.60
478.90	17317.62
479.08	17570.40
479.26	17348.05
479.44	17467.42
479.62	17942.55
479.80	18015.10
479.98	18003.40
480.16	18532.36
480.34	17921.48
480.52	18752.37
480.70	18239.79
480.88	18324.05
481.06	18661.09
481.24	18970.04
481.41	18998.13
481.59	19234.52
481.77	19178.35
481.95	19660.50
482.13	19630.07
482.31	19545.81
482.49	20233.93
482.67	20098.18
482.85	20266.70
483.03	20568.63
483.21	20664.59
483.39	20840.13
483.57	20697.36
483.74	21202.91
483.92	21572.72
484.10	21083.55
484.28	21326.96
484.46	21874.65
484.64	22263.18
484.82	21795.07
485.00	22232.75
485.18	23012.15
485.35	22871.72
485.53	22787.46
485.71	23019.17
485.89	23241.52
486.07	23168.96
486.25	23065.98
486.43	23644.09
486.61	23555.15
486.78	23913.25
486.96	23939.00
487.14	24528.81
487.32	24477.32
487.50	24608.39
487.68	24648.18
487.85	25310.55
488.03	25462.69
488.21	25841.85
488.39	25490.77
488.57	25371.41
488.75	25923.77
488.92	26511.25
489.10	26415.29
489.28	26668.06
489.46	26703.17
489.64	26527.63
489.81	27683.86
489.99	27690.88
490.17	27852.38
490.35	27955.36
490.53	28119.20
490.70	28294.74
490.88	28100.47
491.06	28884.55
491.24	28828.38
491.41	28767.52
491.59	29123.29
491.77	29134.99
491.95	29362.02
492.13	29762.25
492.30	29462.66
492.48	29659.27
492.66	30209.29
492.84	30185.89
493.01	30665.70
493.19	30335.68
493.37	30888.05
493.54	30834.22
493.72	31365.52
493.90	31147.85
494.08	31576.17
494.25	32095.77
494.43	31854.69
494.61	32297.05
494.79	32584.94
494.96	32474.93
495.14	32484.30
495.32	32659.84
495.49	32868.14
495.67	33130.28
495.85	33230.93
496.02	33511.79
496.20	33586.69
496.38	33574.98
496.55	34169.48
496.73	34555.67
496.91	34452.69
497.09	34752.27
497.26	34944.20
497.44	34920.79
497.62	35297.62
497.79	35730.62
497.97	35206.34
498.14	35470.82
498.32	35999.78
498.50	36275.96
498.67	36369.58
498.85	36081.70
499.03	36641.09
499.20	36772.16
499.38	36652.79
499.56	36699.60
499.73	36692.58
499.91	37090.47
500.08	37443.89
500.26	37298.78
500.44	37516.45
500.61	37368.99
500.79	37846.46
500.97	38206.90
501.14	38064.13
501.32	38494.79
501.49	38440.96
501.67	38150.73
501.84	38490.11
502.02	38415.21
502.20	39225.04
502.37	38911.41
502.55	39208.65
502.72	39323.34
502.90	39103.33
503.07	39335.04
503.25	39398.24
503.43	39480.16
503.60	40039.54
503.78	40243.17
503.95	40006.78
504.13	40397.65
504.30	40095.72
504.48	40678.51
504.65	40980.44
504.83	40484.25
505.01	40907.88
505.18	40737.02
505.36	41331.52
505.53	41467.27
505.71	41469.61
505.88	41579.62
506.06	41223.86
506.23	41387.69
506.41	41247.26
506.58	41951.76
506.76	41907.29
506.93	42473.70
507.11	42160.07
507.28	42536.90
507.46	42766.27
507.63	42866.91
507.81	43096.28
507.98	42787.33
508.16	43173.52
508.33	43330.34
508.50	43393.53
508.68	43597.16
508.85	43414.60
509.03	43906.11
509.20	43643.97
509.38	44065.27
509.55	44289.96
509.73	44168.25
509.90	44196.34
510.08	44378.90
510.25	44610.61
510.42	44664.44
510.60	45146.59
510.77	45076.38
510.95	45179.36
511.12	45277.66
511.30	45165.32
511.47	45036.59
511.64	45411.07
511.82	45820.67
511.99	45202.77
512.17	45755.13
512.34	45720.02
512.51	46237.28
512.69	45965.78
512.86	46075.79
513.04	46490.06
513.21	46174.09
513.38	46450.27
513.56	46677.30
513.73	46834.12
513.90	46951.15
514.08	47033.07
514.25	47175.84
514.43	46969.87
514.60	46892.63
514.77	47091.58
514.95	47255.42
515.12	47105.62
515.29	47384.15
515.47	47739.91
515.64	47510.53
515.81	47555.00
515.99	48259.51
516.16	48170.57
516.33	47917.79
516.51	48502.92
516.68	48435.05
516.85	48231.42
517.03	48605.91
517.20	48561.44
517.37	48629.31
517.54	48648.03
517.72	48868.05
517.89	48896.13
518.06	48783.79
518.24	48882.09
518.41	48996.77
518.58	49020.18
518.75	49066.99
518.93	49537.44
519.10	49184.02
519.27	49853.41
519.45	49893.20
519.62	49633.40
519.79	49998.52
519.96	49804.26
520.14	50017.25
520.31	50007.89
520.48	50155.34
520.65	49785.54
520.83	50424.50
521.00	50597.70
521.17	50562.59
521.34	50721.75
521.52	50651.53
521.69	50817.71
521.86	50813.03
522.03	51049.42
522.20	51213.26
522.38	51367.74
522.55	51409.87
522.72	50520.46
522.89	51213.26
523.07	51606.47
523.24	51503.49
523.41	51526.89
523.58	51150.07
523.75	52018.41
523.92	51648.60
524.10	51260.07
524.27	51611.15
524.44	51917.76
524.61	51987.98
524.78	52317.99
524.96	52147.14
525.13	52177.56
525.30	52411.62
525.47	52390.55
525.64	52207.99
525.81	52385.87
525.98	52622.26
526.16	52317.99
526.33	52542.69
526.50	52928.87
526.67	52495.88
526.84	52875.04
527.01	52956.96
527.18	52919.51
527.36	52582.48
527.53	52825.89
527.70	52956.96
527.87	53078.67
528.04	52987.39
528.21	53352.51
528.38	53181.65
528.55	53464.86
528.72	53169.95
528.89	53265.91
529.07	53109.10
529.24	53352.51
529.41	53656.78
529.58	53315.06
529.75	53258.89
529.92	53495.28
530.09	53649.76
530.26	53984.46
530.43	53923.60
530.60	53567.84
530.77	53694.23
530.94	54073.40
531.11	53890.83
531.28	54033.61
531.46	54094.46
531.63	54054.67
531.80	54014.88
531.97	54349.58
532.14	54199.79
532.31	54160.00
532.48	54232.55
532.65	54543.84
532.82	54281.70
532.99	54646.83
533.16	54663.21
533.33	54497.03
533.50	54782.58
533.67	54527.46
533.84	54454.90
534.01	54784.92
534.18	54962.80
534.35	55140.68
534.52	54930.03
534.69	55084.51
534.86	55070.46
535.03	54873.86
535.20	55238.98
535.37	55114.94
535.54	55168.77
535.71	55121.96
535.88	55531.55
536.05	55250.69
536.22	55442.61
536.38	55728.16
536.55	55454.31
536.72	55337.29
536.89	55365.37
537.06	55531.55
537.23	55524.53
537.40	55269.41
537.57	55777.31
537.74	55739.86
537.91	55847.52
538.08	55936.46
538.25	55524.53
538.42	55735.18
538.59	55964.55
538.75	55856.88
538.92	56002.00
539.09	56016.04
539.26	56086.26
539.43	55987.95
539.60	56212.65
539.77	56097.96
539.94	56306.27
540.11	56158.81
540.28	56357.76
540.44	56245.41
540.61	56357.76
540.78	56343.72
540.95	56329.67
541.12	56299.25
541.29	56233.71
541.46	56362.44
541.62	56493.51
541.79	56449.04
541.96	56203.28
542.13	56254.78
542.30	56348.40
542.47	56662.03
542.63	56498.19
542.80	56552.02
542.97	56853.95
543.14	57034.17
543.31	57008.43
543.48	57088.01
543.64	57373.55
543.81	57317.38
543.98	57113.75
544.15	57207.37
544.32	57345.47
544.48	57233.12
544.65	57579.52
544.82	57109.07
544.99	57228.44
545.16	57324.40
545.32	57076.30
545.49	57518.67
545.66	57574.84
545.83	57645.05
546.00	57680.16
546.16	57591.22
546.33	57308.02
546.50	57394.62
546.67	57518.67
546.83	57305.68
547.00	57626.33
547.17	57698.89
547.34	57771.44
547.50	57499.94
547.67	57949.32
547.84	57822.93
548.00	57996.13
548.17	57916.56
548.34	58010.18
548.51	58101.46
548.67	58110.82
548.84	58031.24
549.01	57923.58
549.18	57900.17
549.34	58209.12
549.51	58075.71
549.68	58197.42
549.84	58164.65
550.01	58468.92
550.18	58183.38
550.34	58328.49
550.51	58225.51
550.68	58232.53
550.84	58103.80
551.01	58459.56
551.18	58347.21
551.34	58286.36
551.51	58578.93
551.68	58508.71
551.84	58494.67
552.01	58340.19
552.18	58504.03
552.34	58340.19
552.51	58475.94
552.68	58326.15
552.84	58677.23
553.01	59037.67
553.18	58576.59
553.34	58880.86
553.51	58562.54
553.67	58733.40
553.84	59054.06
554.01	58906.60
554.17	58915.96
554.34	59004.91
554.51	58824.68
554.67	58927.67
554.84	58836.39
555.00	58920.65
555.17	58894.90
555.33	58958.09
555.50	58887.88
555.67	59037.67
555.83	58864.47
556.00	59157.04
556.16	59236.62
556.33	59159.38
556.50	58857.45
556.66	59243.64
556.83	59047.04
556.99	59313.86
557.16	59360.67
557.32	59554.93
557.49	59489.40
557.65	59220.23
557.82	59370.03
557.98	59224.92
558.15	59234.28
558.32	59419.18
558.48	59316.20
558.65	59564.29
558.81	59157.04
558.98	59295.13
559.14	59276.41
559.31	59365.35
559.47	59325.56
559.64	59585.36
559.80	59489.40
559.97	59636.85
560.13	59433.22
560.30	59683.66
560.46	59590.04
560.63	59714.09
560.79	59529.19
560.96	59971.55
561.12	59723.45
561.29	59601.74
561.45	59725.79
561.61	59859.20
561.78	59723.45
561.94	59632.17
562.11	59774.94
562.27	59625.15
562.44	59709.41
562.60	59840.48
562.77	59903.67
562.93	59693.02
563.10	60011.34
563.26	59938.78
563.42	60048.78
563.59	60072.19
563.75	59765.58
563.92	59922.40
564.08	59976.23
564.24	60025.38
564.41	60271.14
564.57	59985.59
564.74	60093.25
564.90	60011.34
565.07	59788.98
565.23	60020.70
565.39	59861.54
565.56	60203.26
565.72	60037.08
565.88	60140.07
566.05	59859.20
566.21	60018.36
566.38	60158.79
566.54	60163.47
566.70	60203.26
566.87	60310.92
567.03	60184.54
567.19	60135.38
567.36	60357.74
567.52	60219.64
567.68	60355.39
567.85	60271.14
568.01	60339.01
568.17	60296.88
568.34	60308.58
568.50	60308.58
568.66	60341.35
568.83	60317.95
568.99	60135.38
569.15	60369.44
569.32	60446.68
569.48	60479.44
569.64	60500.51
569.81	60362.42
569.97	60430.29
570.13	60378.80
570.30	60395.18
570.46	60310.92
570.62	60423.27
570.78	60458.38
570.95	60273.48
571.11	60420.93
571.27	60278.16
571.43	60282.84
571.60	60500.51
571.76	60177.51
571.92	60505.19
572.09	60413.91
572.25	60449.02
572.41	60470.08
572.57	60402.21
572.74	60477.10
572.90	60458.38
573.06	60643.28
573.22	60388.16
573.38	60566.04
573.55	60474.76
573.71	60783.71
573.87	60772.01
574.03	60500.51
574.20	60582.43
574.36	60289.86
574.52	60542.64
574.68	60535.62
574.84	60582.43
575.01	60617.53
575.17	60544.98
575.33	60591.79
575.49	60544.98
575.65	60734.56
575.82	60767.33
575.98	60678.39
576.14	60769.67
576.30	60720.52
576.46	60793.07
576.62	60619.88
576.79	60800.10
576.95	60418.59
577.11	60537.96
577.27	60708.82
577.43	60821.16
577.59	60486.46
577.75	60743.92
577.92	60441.99
578.08	60704.13
578.24	60706.47
578.40	60985.00
578.56	60825.84
578.72	60807.12
578.88	60879.67
579.04	60797.76
579.21	60821.16
579.37	60849.25
579.53	60980.32
579.69	60598.81
579.85	60640.94
580.01	60622.22
580.17	60650.30
580.33	60690.09
580.49	60753.29
580.65	60734.56
580.82	60556.68
580.98	60853.93
581.14	60748.60
581.30	60814.14
581.46	60814.14
581.62	60846.91
581.78	60846.91
581.94	60762.65
582.10	60961.59
582.26	60779.03
582.42	60839.89
582.58	60807.12
582.74	60786.05
582.90	60835.20
583.06	60788.39
583.22	60870.31
583.38	60917.12
583.54	60945.21
583.70	60797.76
583.86	60905.42
584.02	60591.79
584.18	61137.13
584.34	60673.71
584.50	60853.93
584.66	60734.56
584.82	60814.14
584.98	61111.39
585.14	60912.44
585.30	60757.97
585.46	61022.45
585.62	60774.35
585.78	60970.96
585.94	60816.48
586.10	60940.53
586.26	60729.88
586.42	61027.13
586.58	61064.58
586.74	60945.21
586.90	60917.12
587.06	60926.49
587.22	60933.51
587.38	60959.25
587.54	61006.06
587.70	61099.68
587.86	60790.73
588.02	60893.72
588.18	61118.41
588.34	61034.15
588.49	60921.80
