SpectraSuite Data File
++++++++++++++++++++++++++++++++++++
Date: Fri Oct 25 11:34:42 EDT 2013
User: price-jones
Dark Spectrum Present: No
Reference Spectrum Present: No
Number of Sampled Component Spectra: 1
Spectrometers: USB2+H05261
Integration Time (usec): 100000 (USB2+H05261)
Spectra Averaged: 1 (USB2+H05261)
Boxcar Smoothing: 0 (USB2+H05261)
Correct for Electrical Dark: No (USB2+H05261)
Strobe/Lamp Enabled: No (USB2+H05261)
Correct for Detector Non-linearity: No (USB2+H05261)
Correct for Stray Light: No (USB2+H05261)
Number of Pixels in Processed Spectrum: 2048
>>>>>Begin Processed Spectral Data<<<<<
365.73	283.20
365.92	283.20
366.12	283.20
366.32	173.20
366.52	182.56
366.72	166.18
366.91	156.82
367.11	180.22
367.31	124.05
367.51	217.67
367.70	175.54
367.90	250.44
368.10	184.90
368.30	173.20
368.49	250.44
368.69	243.42
368.89	224.69
369.09	194.26
369.28	175.54
369.48	205.97
369.68	245.76
369.87	259.80
370.07	292.57
370.27	252.78
370.47	355.76
370.66	484.49
370.86	521.94
371.06	531.30
371.25	500.87
371.45	528.96
371.65	587.47
371.84	528.96
372.04	592.16
372.24	514.92
372.44	514.92
372.63	559.39
372.83	615.56
373.03	638.97
373.22	599.18
373.42	606.20
373.62	524.28
373.81	622.58
374.01	660.03
374.21	699.82
374.40	695.14
374.60	596.84
374.79	543.00
374.99	603.86
375.19	631.94
375.38	648.33
375.58	692.80
375.78	730.25
375.97	596.84
376.17	631.94
376.37	699.82
376.56	669.39
376.76	629.60
376.95	695.14
377.15	751.31
377.35	772.38
377.54	622.58
377.74	662.37
377.93	702.16
378.13	739.61
378.33	767.70
378.52	690.46
378.72	692.80
378.91	765.36
379.11	674.07
379.31	779.40
379.50	664.71
379.70	772.38
379.89	746.63
380.09	685.78
380.28	573.43
380.48	755.99
380.68	727.91
380.87	720.88
381.07	692.80
381.26	699.82
381.46	821.53
381.65	793.44
381.85	753.65
382.04	725.57
382.24	828.55
382.43	699.82
382.63	641.31
382.83	791.10
383.02	758.33
383.22	809.83
383.41	755.99
383.61	791.10
383.80	798.12
384.00	772.38
384.19	840.25
384.39	739.61
384.58	816.85
384.78	840.25
384.97	730.25
385.17	760.67
385.36	784.08
385.56	830.89
385.75	816.85
385.95	828.55
386.14	772.38
386.34	819.19
386.53	882.38
386.72	835.57
386.92	753.65
387.11	835.57
387.31	821.53
387.50	882.38
387.70	901.11
387.89	837.91
388.09	816.85
388.28	908.13
388.48	851.96
388.67	985.37
388.86	1013.45
389.06	901.11
389.25	950.26
389.45	856.64
389.64	912.81
389.84	952.60
390.03	910.47
390.22	954.94
390.42	959.62
390.61	910.47
390.81	924.51
391.00	884.72
391.19	964.30
391.39	999.41
391.58	1057.92
391.78	973.66
391.97	1001.75
392.16	947.92
392.36	1102.39
392.55	1022.81
392.75	1039.20
392.94	1086.01
393.13	1015.79
393.33	1078.99
393.52	985.37
393.71	1109.41
393.91	1020.47
394.10	1008.77
394.29	1074.31
394.49	1048.56
394.68	1114.10
394.88	1041.54
395.07	1135.16
395.26	1036.86
395.46	1034.52
395.65	1233.46
395.84	1179.63
396.04	1217.08
396.23	1135.16
396.42	1095.37
396.62	1128.14
396.81	1188.99
397.00	1144.52
397.19	1163.25
397.39	1146.86
397.58	1268.57
397.77	1163.25
397.97	1249.85
398.16	1242.82
398.35	1235.80
398.55	1167.93
398.74	1228.78
398.93	1329.42
399.12	1266.23
399.32	1252.19
399.51	1306.02
399.70	1338.79
399.90	1266.23
400.09	1310.70
400.28	1348.15
400.47	1324.74
400.67	1296.66
400.86	1324.74
401.05	1355.17
401.24	1301.34
401.44	1352.83
401.63	1387.94
401.82	1458.15
402.01	1315.38
402.21	1362.19
402.40	1427.73
402.59	1469.86
402.78	1549.43
402.97	1509.65
403.17	1535.39
403.36	1439.43
403.55	1446.45
403.74	1591.56
403.93	1523.69
404.13	1605.61
404.32	1547.09
404.51	1556.46
404.70	1561.14
404.89	1603.27
405.09	1638.38
405.28	1610.29
405.47	1621.99
405.66	1593.90
405.85	1664.12
406.05	1645.40
406.24	1696.89
406.43	1593.90
406.62	1722.63
406.81	1708.59
407.00	1750.72
407.20	1610.29
407.39	1654.76
407.58	1748.38
407.77	1856.04
407.96	1743.70
408.15	1858.39
408.34	1781.15
408.54	1858.39
408.73	1806.89
408.92	1853.70
409.11	1872.43
409.30	1898.17
409.49	1921.58
409.68	1933.28
409.87	1933.28
410.07	1912.22
410.26	1853.70
410.45	1961.37
410.64	1994.14
410.83	2066.69
411.02	2015.20
411.21	2057.33
411.40	2097.12
411.59	1959.03
411.78	2076.06
411.98	2026.90
412.17	2165.00
412.36	2174.36
412.55	2118.18
412.74	2328.83
412.93	2305.43
413.12	2094.78
413.31	2403.73
413.50	2249.25
413.69	2214.15
413.88	2363.94
414.07	2300.75
414.26	2366.28
414.45	2431.82
414.64	2434.16
414.83	2366.28
415.02	2516.08
415.22	2394.37
415.41	2614.38
415.60	2623.74
415.79	2576.93
415.98	2640.12
416.17	2525.44
416.36	2502.03
416.55	2654.17
416.74	2668.21
416.93	2663.53
417.12	2766.51
417.31	2621.40
417.50	2850.77
417.69	2775.88
417.88	2775.88
418.07	2656.51
418.26	2855.45
418.45	2855.45
418.64	2935.03
418.83	2850.77
419.02	2888.22
419.21	3000.57
419.39	2867.16
419.58	2925.67
419.77	2878.86
419.96	2909.29
420.15	3136.32
420.34	2984.18
420.53	2918.65
420.72	3136.32
420.91	3096.53
421.10	3077.80
421.29	3126.96
421.48	2981.84
421.67	3098.87
421.86	3110.57
422.05	3133.98
422.24	3063.76
422.43	3103.55
422.61	3166.74
422.80	3255.69
422.99	3171.43
423.18	3234.62
423.37	3325.90
423.56	3187.81
423.75	3166.74
423.94	3148.02
424.13	2981.84
424.32	3262.71
424.50	3246.32
424.69	3342.28
424.88	3302.50
425.07	3185.47
425.26	3183.13
425.45	3288.45
425.64	3311.86
425.83	3281.43
426.01	3405.48
426.20	3349.31
426.39	3295.47
426.58	3384.41
426.77	3370.37
426.96	3290.79
427.15	3346.97
427.33	3361.01
427.52	3370.37
427.71	3375.05
427.90	3459.31
428.09	3323.56
428.28	3672.30
428.46	3445.27
428.65	3442.93
428.84	3653.58
429.03	3559.95
429.22	3494.42
429.40	3566.98
429.59	3616.13
429.78	3527.19
429.97	3463.99
430.16	3634.85
430.34	3588.04
430.53	3728.47
430.72	3672.30
430.91	3674.64
431.10	3789.33
431.28	3744.86
431.47	3904.01
431.66	3868.91
431.85	3676.98
432.03	3819.75
432.22	3843.16
432.41	3981.25
432.60	3967.21
432.79	3805.71
432.97	3981.25
433.16	3962.53
433.35	3967.21
433.54	3836.14
433.72	3899.33
433.91	4032.74
434.10	4039.76
434.28	3950.82
434.47	3950.82
434.66	4194.24
434.85	4074.87
435.03	4121.68
435.22	4044.45
435.41	4318.29
435.59	4180.20
435.78	4194.24
435.97	4194.24
436.16	4194.24
436.34	4109.98
436.53	4030.40
436.72	4259.78
436.90	4201.26
437.09	4124.02
437.28	4210.62
437.46	4168.49
437.65	4180.20
437.84	4393.19
438.02	4418.93
438.21	4510.21
438.40	4351.06
438.58	4533.62
438.77	4493.83
438.96	4636.60
439.14	4575.75
439.33	4711.50
439.52	4587.45
439.70	4582.77
439.89	4648.30
440.08	4681.07
440.26	4650.64
440.45	4875.34
440.63	4753.63
440.82	4950.23
441.01	4835.55
441.19	4781.71
441.38	4999.38
441.57	4877.68
441.75	4994.70
441.94	5004.07
442.12	5081.30
442.31	5083.64
442.50	5214.71
442.68	5107.05
442.87	5116.41
443.05	5210.03
443.24	5212.37
443.43	5273.23
443.61	5303.65
443.80	5284.93
443.98	5179.61
444.17	4994.70
444.35	5144.50
444.54	5511.96
444.73	5465.15
444.91	5397.28
445.10	5446.43
445.28	5252.16
445.47	5273.23
445.65	5476.85
445.84	5418.34
446.02	5341.10
446.21	5495.58
446.39	5359.83
446.58	5495.58
446.77	5446.43
446.95	5355.15
447.14	5420.68
447.32	5476.85
447.51	5444.09
447.69	5331.74
447.88	5448.77
448.06	5394.93
448.25	5483.88
448.43	5533.03
448.62	5455.79
448.80	5490.90
448.99	5502.60
449.17	5699.20
449.36	5593.88
449.54	5647.71
449.73	5708.57
449.91	5811.55
450.10	5645.37
450.28	5926.24
450.46	5898.15
450.65	5816.23
450.83	5715.59
451.02	5785.80
451.20	5792.83
451.39	5799.85
451.57	5935.60
451.76	5783.46
451.94	5865.38
452.13	5977.73
452.31	5760.06
452.49	5909.85
452.68	6024.54
452.86	5937.94
453.05	5933.26
453.23	5942.62
453.42	5947.30
453.60	5968.37
453.78	6050.28
453.97	6090.07
454.15	5959.00
454.34	6162.63
454.52	6012.84
454.70	6244.55
454.89	6153.27
455.07	6223.48
455.26	6303.06
455.44	6188.38
455.62	6239.87
455.81	6459.88
455.99	6523.07
456.17	6511.37
456.36	6347.53
456.54	6438.81
456.73	6565.20
456.91	6523.07
457.09	6558.18
457.28	6661.16
457.46	6607.33
457.64	6572.22
457.83	6506.69
458.01	6630.74
458.19	6848.41
458.38	6736.06
458.56	6729.04
458.74	6712.66
458.93	6700.95
459.11	6789.89
459.29	6822.66
459.48	6918.62
459.66	6888.20
459.84	6885.86
460.03	7112.89
460.21	6956.07
460.39	6953.73
460.57	7037.99
460.76	7042.67
460.94	7084.80
461.12	7035.65
461.31	6935.01
461.49	7138.63
461.67	6892.88
461.85	7302.47
462.04	7248.64
462.22	7419.50
462.40	7239.28
462.59	7250.98
462.77	7370.35
462.95	7236.94
463.13	7468.65
463.32	7368.01
463.50	7363.33
463.68	7368.01
463.86	7585.68
464.05	7431.20
464.23	7391.41
464.41	7588.02
464.59	7452.27
464.78	7648.87
464.96	7599.72
465.14	7585.68
465.32	7529.50
465.50	7756.54
465.69	7564.61
465.87	7672.28
466.05	7700.36
466.23	7793.98
466.41	7831.43
466.60	7756.54
466.78	7779.94
466.96	7950.80
467.14	7602.06
467.32	7761.22
467.51	7911.01
467.69	7588.02
467.87	7948.46
468.05	8030.38
468.23	7899.31
468.41	7868.88
468.60	7995.27
468.78	7941.44
468.96	8021.02
469.14	7955.48
469.32	8067.83
469.50	8095.91
469.69	8142.72
469.87	8219.96
470.05	8304.22
470.23	8407.20
470.41	8393.16
470.59	8299.54
470.77	8252.73
470.95	8358.05
471.14	8685.73
471.32	8301.88
471.50	8535.93
471.68	8531.25
471.86	8594.45
472.04	8753.60
472.22	8912.76
472.40	8645.94
472.58	8720.84
472.77	8816.80
472.95	8835.52
473.13	8945.53
473.31	8950.21
473.49	8992.34
473.67	9013.40
473.85	9034.47
474.03	9179.58
474.21	8985.32
474.39	9193.62
474.57	9057.87
474.75	9357.46
474.93	9394.91
475.12	9481.51
475.30	9748.33
475.48	9383.21
475.66	9865.36
475.84	9324.69
476.02	9708.54
476.20	9558.75
476.38	9958.98
476.56	10033.88
476.74	9851.31
476.92	9898.13
477.10	9958.98
477.28	10038.56
477.46	10043.24
477.64	10228.14
477.82	10270.27
478.00	10513.69
478.18	10438.79
478.36	10707.95
478.54	10647.10
478.72	10637.73
478.90	10885.83
479.08	10815.62
479.26	11016.90
479.44	10979.45
479.62	10972.43
479.80	11194.78
479.98	11398.41
480.16	11454.58
480.34	11272.02
480.52	11545.86
480.70	11566.93
480.88	11515.44
481.06	11676.93
481.24	11695.66
481.41	11822.05
481.59	11843.11
481.77	12196.53
481.95	12360.37
482.13	12219.94
482.31	12329.94
482.49	12547.61
482.67	12505.48
482.85	12758.26
483.03	12732.51
483.21	12840.18
483.39	12758.26
483.57	12999.34
483.74	13022.74
483.92	13149.13
484.10	13158.49
484.28	13565.74
484.46	13701.50
484.64	13820.86
484.82	13490.85
485.00	13806.82
485.18	14097.05
485.35	14394.29
485.53	14448.13
485.71	14462.17
485.89	14326.42
486.07	14398.98
486.25	14520.68
486.43	14583.88
486.61	14988.79
486.78	14649.41
486.96	14839.00
487.14	15147.95
487.32	15204.12
487.50	15447.54
487.68	15321.15
487.85	15690.95
488.03	15742.44
488.21	15960.11
488.39	15777.55
488.57	16044.37
488.75	16018.63
488.92	16430.56
489.10	16702.06
489.28	16383.75
489.46	16650.57
489.64	16755.90
489.81	17209.96
489.99	17219.32
490.17	17018.04
490.35	17317.62
490.53	17418.27
490.70	17425.29
490.88	17380.82
491.06	17795.09
491.24	17722.54
491.41	17844.24
491.59	18204.69
491.77	18207.03
491.95	17991.70
492.13	18434.06
492.30	18497.25
492.48	18434.06
492.66	18841.31
492.84	18693.86
493.01	19049.62
493.19	19080.05
493.37	18988.77
493.54	19318.78
493.72	19545.81
493.90	19274.31
494.08	19559.86
494.25	19761.14
494.43	19742.42
494.61	20074.77
494.79	19683.91
494.96	20025.62
495.14	20327.55
495.32	20620.12
495.49	20430.54
495.67	20465.64
495.85	20676.29
496.02	20819.07
496.20	21336.32
496.38	20856.51
496.55	21088.23
496.73	21544.63
496.91	21315.26
497.09	21633.57
497.26	21460.37
497.44	21406.54
497.62	21511.86
497.79	21944.86
497.97	21963.59
498.14	21792.73
498.32	22368.50
498.50	22396.59
498.67	22654.05
498.85	22466.80
499.03	22544.04
499.20	22455.10
499.38	22389.56
499.56	22993.42
499.73	23133.86
499.91	23190.03
500.08	23187.69
500.26	23058.96
500.44	23332.80
500.61	23564.51
500.79	23096.41
500.97	23370.25
501.14	23878.15
501.32	23784.52
501.49	23697.92
501.67	23686.22
501.84	24072.41
502.02	23814.95
502.20	23875.80
502.37	24400.08
502.55	24339.23
502.72	24800.32
502.90	24584.99
503.07	24444.56
503.25	24280.72
503.43	24559.24
503.60	24809.68
503.78	24608.39
503.95	24673.93
504.13	24631.80
504.30	25151.40
504.48	25219.27
504.65	25078.84
504.83	25235.66
505.01	25722.49
505.18	25390.13
505.36	25935.48
505.53	25689.72
505.71	25795.04
505.88	25656.95
506.06	25743.55
506.23	25830.15
506.41	25502.48
506.58	25593.76
506.76	26178.89
506.93	26356.77
507.11	26295.92
507.28	26668.06
507.46	26574.44
507.63	26398.90
507.81	26867.01
507.98	26595.51
508.16	26639.98
508.33	26721.90
508.50	27098.72
508.68	27110.43
508.85	27379.59
509.03	27243.84
509.20	27311.71
509.38	27924.93
509.55	27417.04
509.73	27517.68
509.90	27395.97
510.08	27534.06
510.25	27655.77
510.42	27655.77
510.60	28180.05
510.77	28261.97
510.95	28439.85
511.12	28212.82
511.30	28311.12
511.47	28210.48
511.64	28521.77
511.82	28421.13
511.99	28404.74
512.17	28776.89
512.34	28933.70
512.51	28914.98
512.69	29132.65
512.86	28584.96
513.04	29160.73
513.21	28966.47
513.38	29202.86
513.56	29273.08
513.73	29010.94
513.90	29369.04
514.08	29322.23
514.25	29830.13
514.43	29567.99
514.60	29900.34
514.77	29764.59
514.95	30174.19
515.12	29736.51
515.29	29853.53
515.47	30054.82
515.64	30426.96
515.81	29788.00
515.99	30323.98
516.16	30522.93
516.33	30192.91
516.51	30363.77
516.68	30462.07
516.85	30632.93
517.03	30679.74
517.20	30810.81
517.37	30693.79
517.54	31161.89
517.72	31030.82
517.89	30492.50
518.06	30850.60
518.24	31395.95
518.41	31381.90
518.58	31082.31
518.75	31143.17
518.93	31641.70
519.10	31461.48
519.27	31630.00
519.45	31707.24
519.62	31653.40
519.79	31700.22
519.96	31365.52
520.14	31938.95
520.31	31648.72
520.48	31997.46
520.65	31974.06
520.83	32624.73
521.00	32500.68
521.17	32308.76
521.34	32385.99
521.52	32545.15
521.69	32231.52
521.86	32610.68
522.03	32774.52
522.20	32421.10
522.38	32879.85
522.55	32877.51
522.72	32706.65
522.89	33083.47
523.07	33259.01
523.24	33118.58
523.41	33261.35
523.58	33233.27
523.75	33177.09
523.92	33170.07
524.10	33455.62
524.27	33441.57
524.44	33949.47
524.61	33841.81
524.78	33757.55
524.96	33858.19
525.13	33963.51
525.30	34429.28
525.47	34108.63
525.64	34012.66
525.81	34246.72
525.98	33867.55
526.16	33778.61
526.33	34129.69
526.50	34429.28
526.67	34270.12
526.84	34513.54
527.01	34649.29
527.18	34412.90
527.36	34618.86
527.53	34321.62
527.70	35051.86
527.87	34888.03
528.04	34747.59
528.21	34792.06
528.38	35215.70
528.55	34969.94
528.72	35166.55
528.89	34789.72
529.07	35026.12
529.24	34878.66
529.41	35325.71
529.58	35805.52
529.75	35405.28
529.92	35838.28
530.09	35447.41
530.26	35295.28
530.43	35693.17
530.60	35379.54
530.77	35550.40
530.94	35339.75
531.11	35833.60
531.28	35653.38
531.46	35800.83
531.63	36161.28
531.80	35875.73
531.97	36163.62
532.14	35983.40
532.31	35370.18
532.48	36409.37
532.65	36404.69
532.82	36280.64
532.99	36655.13
533.16	36219.79
533.33	36559.17
533.50	36524.06
533.67	36423.42
533.84	36194.04
534.01	36755.77
534.18	36201.07
534.35	36973.44
534.52	36643.43
534.69	37228.56
534.86	36900.89
535.03	36811.95
535.20	36933.65
535.37	36692.58
535.54	37179.41
535.71	36943.02
535.88	37310.48
536.05	37109.19
536.22	37537.51
536.38	37177.07
536.55	37275.37
536.72	37673.26
536.89	36952.38
537.06	37684.97
537.23	37567.94
537.40	37308.14
537.57	37596.03
537.74	37289.42
537.91	37715.39
538.08	37923.70
538.25	37446.23
538.42	37944.76
538.59	38183.50
538.75	38122.65
538.92	38197.54
539.09	38026.68
539.26	38565.01
539.43	38204.56
539.60	38033.71
539.77	38464.36
539.94	38546.28
540.11	38340.32
540.28	38513.52
540.44	38625.86
540.61	38380.10
540.78	38312.23
540.95	38719.48
541.12	38185.84
541.29	38045.41
541.46	38899.70
541.62	38440.96
541.79	38443.30
541.96	38600.12
542.13	38740.55
542.30	38630.54
542.47	38785.02
542.63	39040.14
542.80	39140.78
542.97	39297.59
543.14	39473.13
543.31	39154.82
543.48	39297.59
543.64	39597.18
543.81	39749.32
543.98	39541.01
544.15	39175.89
544.32	39700.17
544.48	40137.85
544.65	39716.55
544.82	39791.45
544.99	39440.37
545.16	40226.79
545.32	39512.92
545.49	40268.92
545.66	40238.49
545.83	39950.60
546.00	40037.20
546.16	40018.48
546.33	40158.91
546.50	40002.10
546.67	40381.26
546.83	40030.18
547.00	40027.84
547.17	40182.32
547.34	39796.13
547.50	40889.16
547.67	41008.53
547.84	40662.13
548.00	40652.76
548.17	41057.68
548.34	40722.98
548.51	41020.23
548.67	40816.60
548.84	40435.10
549.01	40446.80
549.18	40832.99
549.34	41001.50
549.51	41092.79
549.68	41074.06
549.84	40935.97
550.01	41340.88
550.18	40711.28
550.34	41106.83
550.51	41099.81
550.68	41249.60
550.84	41006.19
551.01	41626.43
551.18	41160.66
551.34	41322.16
551.51	41420.46
551.68	41677.92
551.84	41095.13
552.01	41060.02
552.18	41354.93
552.34	41469.61
552.51	41549.19
552.68	41240.24
552.84	41432.16
553.01	41518.76
553.18	41301.09
553.34	41525.78
553.51	41560.89
553.67	41911.97
553.84	42036.02
554.01	41710.69
554.17	41565.57
554.34	42122.62
554.51	41776.22
554.67	42209.22
554.84	41804.31
555.00	41876.86
555.17	42164.75
555.33	42344.97
555.50	41914.31
555.67	42010.28
555.83	41860.48
556.00	42256.03
556.16	42712.44
556.33	42508.81
556.50	42073.47
556.66	42291.14
556.83	42316.89
556.99	42721.80
557.16	42398.80
557.32	42342.63
557.49	42731.16
557.65	41963.46
557.82	42527.53
557.98	42693.71
558.15	42604.77
558.32	42403.49
558.48	42604.77
558.65	42742.86
558.81	42857.55
558.98	42625.84
559.14	42707.76
559.31	42459.66
559.47	42445.62
559.64	43012.02
559.80	42939.47
559.97	42820.10
560.13	42684.35
560.30	42724.14
560.46	43220.33
560.63	43246.08
560.79	43325.66
560.96	43084.58
561.12	43138.41
561.29	43585.46
561.45	43126.71
561.61	43232.04
561.78	43117.35
561.94	43208.63
562.11	43005.00
562.27	43306.93
562.44	43093.94
562.60	43643.97
562.77	43250.76
562.93	43140.75
563.10	43412.26
563.26	43267.14
563.42	43838.23
563.59	43058.84
563.75	43166.50
563.92	43718.87
564.08	43051.81
564.24	43540.99
564.41	43669.72
564.57	43175.86
564.74	43655.67
564.90	43423.96
565.07	43306.93
565.23	43629.93
565.39	43407.58
565.56	43723.55
565.72	43370.13
565.88	43445.02
566.05	43370.13
566.21	44037.18
566.38	43737.59
566.54	43669.72
566.70	43669.72
566.87	43665.03
567.03	43679.08
567.19	43674.40
567.36	43578.43
567.52	43587.80
567.68	44006.75
567.85	43899.09
568.01	44151.87
568.17	43562.05
568.34	44163.57
568.50	43999.73
568.66	43618.22
568.83	43658.01
568.99	44261.87
569.15	43655.67
569.32	43686.10
569.48	43658.01
569.64	44325.07
569.81	44194.00
569.97	43941.22
570.13	44105.06
570.30	43892.07
570.46	44112.08
570.62	44254.85
570.78	44212.72
570.95	44105.06
571.11	44222.08
571.27	44154.21
571.43	43761.00
571.60	44114.42
571.76	44060.58
571.92	44116.76
572.09	43943.56
572.25	44222.08
572.41	43653.33
572.57	44388.26
572.74	45062.33
572.90	44257.19
573.06	44390.60
573.22	43943.56
573.38	44596.57
573.55	44605.93
573.71	45081.06
573.87	44245.49
574.03	44224.42
574.20	44486.56
574.36	44088.67
574.52	44624.65
574.68	44275.91
574.84	44690.19
575.01	44664.44
575.17	44184.63
575.33	44538.05
575.49	44210.38
575.65	44385.92
575.82	44266.55
575.98	44430.39
576.14	44669.12
576.30	44844.66
576.46	44521.67
576.62	44030.16
576.79	44442.09
576.95	44182.29
577.11	44505.29
577.27	44664.44
577.43	44708.91
577.59	44507.63
577.75	44325.07
577.92	44364.85
578.08	44626.99
578.24	44048.88
578.40	44463.16
578.56	44591.89
578.72	44304.00
578.88	44856.37
579.04	44568.48
579.21	43885.04
579.37	44573.16
579.53	44299.32
579.69	44552.10
579.85	44797.85
580.01	44563.80
580.17	44626.99
580.33	44634.02
580.49	44196.34
580.65	44526.35
580.82	44418.69
580.98	44488.90
581.14	44631.68
581.30	44451.45
581.46	44598.91
581.62	44467.84
581.78	44491.24
581.94	44608.27
582.10	44713.59
582.26	44552.10
582.42	44751.04
582.58	44245.49
582.74	44973.39
582.90	44828.28
583.06	44931.26
583.22	44105.06
583.38	44729.98
583.54	44793.17
583.70	44729.98
583.86	44861.05
584.02	44863.39
584.18	44659.76
584.34	44589.55
584.50	45329.16
584.66	44739.34
584.82	44968.71
584.98	44886.79
585.14	44584.86
585.30	44587.21
585.46	44556.78
585.62	44797.85
585.78	44875.09
585.94	44762.75
586.10	44772.11
586.26	44549.76
586.42	44765.09
586.58	45071.70
586.74	44732.32
586.90	44472.52
587.06	44877.43
587.22	44699.55
587.38	45006.16
587.54	44755.72
587.70	45155.96
587.86	45076.38
588.02	44414.01
588.18	45139.57
588.34	44467.84
588.49	44694.87
588.65	44800.19
588.81	44975.73
588.97	44732.32
589.13	45155.96
589.29	44758.06
589.45	45272.98
589.61	44765.09
589.77	45059.99
589.93	45219.15
590.08	44907.86
