SpectraSuite Data File
++++++++++++++++++++++++++++++++++++
Date: Fri Oct 25 11:25:25 EDT 2013
User: price-jones
Dark Spectrum Present: No
Reference Spectrum Present: No
Number of Sampled Component Spectra: 1
Spectrometers: USB2+H05261
Integration Time (usec): 100000 (USB2+H05261)
Spectra Averaged: 1 (USB2+H05261)
Boxcar Smoothing: 0 (USB2+H05261)
Correct for Electrical Dark: No (USB2+H05261)
Strobe/Lamp Enabled: No (USB2+H05261)
Correct for Detector Non-linearity: No (USB2+H05261)
Correct for Stray Light: No (USB2+H05261)
Number of Pixels in Processed Spectrum: 2048
>>>>>Begin Processed Spectral Data<<<<<
365.73	259.80
365.92	259.80
366.12	259.80
366.32	138.09
366.52	156.82
366.72	95.96
366.91	138.09
367.11	117.03
367.31	93.62
367.51	196.60
367.70	81.92
367.90	131.07
368.10	159.16
368.30	114.69
368.49	112.35
368.69	133.41
368.89	212.99
369.09	215.33
369.28	131.07
369.48	175.54
369.68	245.76
369.87	220.01
370.07	189.58
370.27	166.18
370.47	320.65
370.66	559.39
370.86	599.18
371.06	676.41
371.25	645.99
371.45	596.84
371.65	678.76
371.84	704.50
372.04	725.57
372.24	671.73
372.44	734.93
372.63	755.99
372.83	765.36
373.03	763.01
373.22	650.67
373.42	741.95
373.62	791.10
373.81	730.25
374.01	791.10
374.21	849.61
374.40	807.48
374.60	758.33
374.79	755.99
374.99	812.17
375.19	770.04
375.38	870.68
375.58	873.02
375.78	884.72
375.97	856.64
376.17	854.30
376.37	842.59
376.56	912.81
376.76	791.10
376.95	805.14
377.15	896.43
377.35	870.68
377.54	844.93
377.74	870.68
377.93	964.30
378.13	875.36
378.33	971.32
378.52	922.17
378.72	889.40
378.91	973.66
379.11	877.70
379.31	994.73
379.50	940.90
379.70	999.41
379.89	947.92
380.09	940.90
380.28	964.30
380.48	992.39
380.68	1015.79
380.87	1022.81
381.07	1034.52
381.26	1088.35
381.46	1048.56
381.65	994.73
381.85	1034.52
382.04	1050.90
382.24	1128.14
382.43	1034.52
382.63	1050.90
382.83	1067.28
383.02	1015.79
383.22	1219.42
383.41	1057.92
383.61	1156.22
383.80	1107.07
384.00	1128.14
384.19	1090.69
384.39	1170.27
384.58	1174.95
384.78	1160.91
384.97	1090.69
385.17	1163.25
385.36	1132.82
385.56	1207.72
385.75	1247.51
385.95	1116.44
386.14	1181.97
386.34	1177.29
386.53	1214.74
386.72	1177.29
386.92	1329.42
387.11	1188.99
387.31	1184.31
387.50	1217.08
387.70	1172.61
387.89	1142.18
388.09	1282.61
388.28	1245.16
388.48	1245.16
388.67	1369.21
388.86	1324.74
389.06	1301.34
389.25	1373.89
389.45	1406.66
389.64	1383.26
389.84	1280.27
390.03	1416.02
390.22	1401.98
390.42	1334.11
390.61	1362.19
390.81	1409.00
391.00	1383.26
391.19	1397.30
391.39	1411.34
391.58	1350.49
391.78	1420.71
391.97	1446.45
392.16	1376.24
392.36	1530.71
392.55	1451.13
392.75	1542.41
392.94	1507.30
393.13	1469.86
393.33	1444.11
393.52	1528.37
393.71	1603.27
393.91	1547.09
394.10	1507.30
394.29	1507.30
394.49	1523.69
394.68	1633.69
394.88	1619.65
395.07	1629.01
395.26	1736.68
395.46	1629.01
395.65	1652.42
395.84	1645.40
396.04	1750.72
396.23	1729.66
396.42	1675.82
396.62	1703.91
396.81	1823.28
397.00	1785.83
397.19	1720.29
397.39	1851.36
397.58	1818.60
397.77	1811.57
397.97	1783.49
398.16	1755.40
398.35	1881.79
398.55	1762.42
398.74	1895.83
398.93	1898.17
399.12	1886.47
399.32	1886.47
399.51	1963.71
399.70	2118.18
399.90	1895.83
400.09	1877.11
400.28	2024.56
400.47	2010.52
400.67	1923.92
400.86	2040.95
401.05	2045.63
401.24	2050.31
401.44	2143.93
401.63	2146.27
401.82	2125.21
402.01	2036.27
402.21	2040.95
402.40	2202.44
402.59	2216.49
402.78	2062.01
402.97	2172.02
403.17	2223.51
403.36	2172.02
403.55	2335.85
403.74	2314.79
403.93	2399.05
404.13	2282.02
404.32	2340.54
404.51	2408.41
404.70	2359.26
404.89	2356.92
405.09	2490.33
405.28	2352.24
405.47	2401.39
405.66	2401.39
405.85	2530.12
406.05	2593.31
406.24	2499.69
406.43	2576.93
406.62	2569.91
406.81	2649.49
407.00	2553.52
407.20	2401.39
407.39	2588.63
407.58	2590.97
407.77	2789.92
407.96	2733.75
408.15	2689.28
408.34	2724.38
408.54	2813.32
408.73	2612.04
408.92	2745.45
409.11	2876.52
409.30	2836.73
409.49	2932.69
409.68	2930.35
409.87	2897.58
410.07	3094.19
410.26	3007.59
410.45	3070.78
410.64	2960.78
410.83	3122.27
411.02	2988.86
411.21	3162.06
411.40	3063.76
411.59	3192.49
411.78	3042.70
411.98	3180.79
412.17	3255.69
412.36	3199.51
412.55	3281.43
412.74	3372.71
412.93	3276.75
413.12	3274.41
413.31	3534.21
413.50	3440.59
413.69	3559.95
413.88	3576.34
414.07	3576.34
414.26	3730.81
414.45	3665.28
414.64	3775.28
414.83	3688.68
415.02	3602.08
415.22	3815.07
415.41	3873.59
415.60	3857.20
415.79	3868.91
415.98	3896.99
416.17	3950.82
416.36	4014.02
416.55	3971.89
416.74	3957.85
416.93	3985.93
417.12	3927.42
417.31	4154.45
417.50	4007.00
417.69	4322.97
417.88	4374.46
418.07	4215.30
418.26	4119.34
418.45	4236.37
418.64	4479.79
418.83	4315.95
419.02	4365.10
419.21	4454.04
419.39	4386.16
419.58	4468.08
419.77	4507.87
419.96	4402.55
420.15	4421.27
420.34	4540.64
420.53	4585.11
420.72	4678.73
420.91	4484.47
421.10	4751.29
421.29	4557.02
421.48	4610.86
421.67	4720.86
421.86	4755.97
422.05	4671.71
422.24	4812.14
422.43	4821.50
422.61	4919.81
422.80	4894.06
422.99	4645.96
423.18	4755.97
423.37	5020.45
423.56	4882.36
423.75	4896.40
423.94	4741.93
424.13	4552.34
424.32	4737.24
424.50	4959.60
424.69	5142.16
424.88	4961.94
425.07	4795.76
425.26	5022.79
425.45	4924.49
425.64	4861.29
425.83	4887.04
426.01	5093.01
426.20	5177.26
426.39	4992.36
426.58	4985.34
426.77	4873.00
426.96	4971.30
427.15	5067.26
427.33	5343.44
427.52	4957.25
427.71	5167.90
427.90	5179.61
428.09	5135.14
428.28	5364.51
428.46	5291.95
428.65	5305.99
428.84	5434.72
429.03	5544.73
429.22	5341.10
429.40	5439.40
429.59	5341.10
429.78	5217.05
429.97	5376.21
430.16	5460.47
430.34	5577.50
430.53	5533.03
430.72	5502.60
430.91	5671.12
431.10	5460.47
431.28	5818.57
431.47	5708.57
431.66	5696.86
431.85	5764.74
432.03	5951.98
432.22	5977.73
432.41	5844.32
432.60	5933.26
432.79	5877.09
432.97	5767.08
433.16	5881.77
433.35	5907.51
433.54	6029.22
433.72	6197.74
433.91	5975.39
434.10	6071.35
434.28	6188.38
434.47	6118.16
434.66	6179.01
434.85	6333.49
435.03	6312.42
435.22	6361.58
435.41	6485.62
435.59	6413.07
435.78	6349.87
435.97	6408.39
436.16	6347.53
436.34	6469.24
436.53	6403.71
436.72	6612.01
436.90	6422.43
437.09	6761.81
437.28	6361.58
437.46	6504.35
437.65	6537.12
437.84	6607.33
438.02	6612.01
438.21	6726.70
438.40	6583.93
438.58	6951.39
438.77	6911.60
438.96	6984.16
439.14	6988.84
439.33	7140.97
439.52	7140.97
439.70	7157.36
439.89	7346.94
440.08	7180.76
440.26	7243.96
440.45	7328.22
440.63	7368.01
440.82	7630.15
441.01	7368.01
441.19	7606.74
441.38	7761.22
441.57	7632.49
441.75	7648.87
441.94	7789.30
442.12	7903.99
442.31	7866.54
442.50	7908.67
442.68	7932.08
442.87	7843.14
443.05	7908.67
443.24	8046.76
443.43	8074.85
443.61	8177.83
443.80	8236.35
443.98	8013.99
444.17	7674.62
444.35	8095.91
444.54	8070.17
444.73	8248.05
444.91	8269.11
445.10	8290.18
445.28	8205.92
445.47	8163.79
445.65	8416.57
445.84	8353.37
446.02	8271.45
446.21	8243.37
446.39	8212.94
446.58	8573.38
446.77	8418.91
446.95	8205.92
447.14	8362.73
447.32	8430.61
447.51	8351.03
447.69	8299.54
447.88	8322.94
448.06	8243.37
448.25	8390.82
448.43	8503.17
448.62	8421.25
448.80	8374.44
448.99	8636.58
449.17	8524.23
449.36	8594.45
449.54	8526.57
449.73	8882.33
449.91	8938.51
450.10	8961.91
450.28	9029.79
450.46	9006.38
450.65	8746.58
450.83	8968.93
451.02	8997.02
451.20	9151.49
451.39	9062.55
451.57	8879.99
451.76	9076.60
451.94	9048.51
452.13	9317.67
452.31	9268.52
452.49	8968.93
452.68	9254.48
452.86	9334.06
453.05	9128.09
453.23	9327.03
453.42	9401.93
453.60	9404.27
453.78	9612.58
453.97	9327.03
454.15	9448.74
454.34	9369.16
454.52	9694.50
454.70	9563.43
454.89	9628.96
455.07	9638.33
455.26	9680.46
455.44	9771.74
455.62	9830.25
455.81	9741.31
455.99	9841.95
456.17	9951.96
456.36	10113.45
456.54	10132.18
456.73	10078.35
456.91	10345.17
457.09	10314.74
457.28	10382.62
457.46	10204.74
457.64	10422.41
457.83	10532.41
458.01	10157.92
458.19	10471.56
458.38	10459.85
458.56	10878.81
458.74	10743.06
458.93	10544.11
459.11	10588.58
459.29	10764.12
459.48	10785.19
459.66	10834.34
459.84	10974.77
460.03	10944.34
460.21	10876.47
460.39	10869.45
460.57	10782.85
460.76	11166.70
460.94	11208.83
461.12	11033.29
461.31	10888.17
461.49	11049.67
461.67	10932.64
461.85	11344.58
462.04	11281.38
462.22	11658.21
462.40	11421.81
462.59	11489.69
462.77	11403.09
462.95	11477.99
463.13	11587.99
463.32	11606.72
463.50	11702.68
463.68	11522.46
463.86	11700.34
464.05	11651.19
464.23	11791.62
464.41	11660.55
464.59	11630.12
464.78	12025.67
464.96	11950.78
465.14	11583.31
465.32	11941.41
465.50	12063.12
465.69	11939.07
465.87	11981.20
466.05	11964.82
466.23	11967.16
466.41	12044.40
466.60	12400.16
466.78	12166.10
466.96	11971.84
467.14	12222.28
467.32	12273.77
467.51	12374.41
467.69	12339.30
467.87	12318.24
468.05	12257.39
468.23	12044.40
468.41	12362.71
468.60	12362.71
468.78	12725.49
468.96	12554.63
469.14	12552.29
469.32	12865.92
469.50	12461.01
469.69	12903.37
469.87	13011.04
470.05	12973.59
470.23	13013.38
470.41	13109.34
470.59	13167.85
470.77	13034.44
470.95	12982.95
471.14	13394.89
471.32	12896.35
471.50	13411.27
471.68	13563.40
471.86	13532.98
472.04	13650.00
472.22	13921.51
472.40	13748.31
472.58	13692.13
472.77	13867.67
472.95	13837.25
473.13	14501.96
473.31	13994.06
473.49	14019.81
473.67	14146.20
473.85	14052.58
474.03	14459.83
474.21	14434.08
474.39	14609.62
474.57	14422.38
474.75	14803.89
474.93	15126.88
475.12	14867.08
475.30	14953.68
475.48	14890.49
475.66	15143.27
475.84	14857.72
476.02	15169.01
476.20	15433.49
476.38	15470.94
476.56	15763.51
476.74	15468.60
476.92	15679.25
477.10	15789.25
477.28	15892.24
477.46	15723.72
477.64	16271.40
477.82	16369.71
478.00	16547.59
478.18	16617.80
478.36	16662.27
478.54	17202.94
478.72	17118.68
478.90	17329.33
479.08	17261.45
479.26	17420.61
479.44	17591.47
479.62	17916.80
479.80	17839.56
479.98	18127.45
480.16	18466.83
480.34	18459.81
480.52	18377.89
480.70	18649.39
480.88	18258.52
481.06	18513.64
481.24	18803.86
481.41	18780.46
481.59	19250.91
481.77	19337.51
481.95	19278.99
482.13	19578.58
482.31	19389.00
482.49	20215.21
482.67	19953.07
482.85	19976.47
483.03	20386.07
483.21	20573.31
483.39	20547.56
483.57	20664.59
483.74	20987.58
483.92	21090.57
484.10	20802.68
484.28	21469.73
484.46	21752.94
484.64	22324.03
484.82	21797.41
485.00	21893.37
485.18	22452.76
485.35	22614.26
485.53	22635.32
485.71	22597.87
485.89	23183.01
486.07	22918.53
486.25	23194.71
486.43	23384.29
486.61	23583.24
486.78	23695.58
486.96	23946.02
487.14	24376.68
487.32	24554.56
487.50	24510.09
487.68	24765.21
487.85	25242.68
488.03	25245.02
488.21	25383.11
488.39	25383.11
488.57	25926.11
488.75	25909.73
488.92	26600.19
489.10	26405.92
489.28	26541.68
489.46	26979.36
489.64	26932.54
489.81	27475.55
489.99	27264.90
490.17	27564.49
490.35	27807.90
490.53	27943.66
490.70	28149.62
490.88	28088.77
491.06	28184.73
491.24	28697.31
491.41	28725.39
491.59	28947.75
491.77	28912.64
491.95	29633.52
492.13	29685.01
492.30	29521.18
492.48	29495.43
492.66	29710.76
492.84	30284.19
493.01	30604.84
493.19	30309.94
493.37	30712.51
493.54	31002.74
493.72	31328.07
493.90	31215.72
494.08	31211.04
494.25	31679.15
494.43	31817.24
494.61	31910.86
494.79	32285.35
494.96	32517.06
495.14	32395.35
495.32	32828.35
495.49	32903.25
495.67	32959.42
495.85	33256.67
496.02	33582.01
496.20	33331.57
496.38	33860.53
496.55	33802.02
496.73	34960.58
496.91	33848.83
497.09	34244.38
497.26	34611.84
497.44	34761.64
497.62	35119.74
497.79	35456.78
497.97	34841.21
498.14	35351.45
498.32	35536.35
498.50	35721.26
498.67	36259.58
498.85	35892.12
499.03	35711.89
499.20	35901.48
499.38	36346.18
499.56	36594.28
499.73	36830.67
499.91	36795.56
500.08	37511.77
500.26	36861.10
500.44	37546.87
500.61	37427.51
500.79	37399.42
500.97	38190.52
501.14	38433.94
501.32	38260.74
501.49	38178.82
501.67	37834.76
501.84	38150.73
502.02	38813.10
502.20	38499.47
502.37	38710.12
502.55	38843.53
502.72	39213.34
502.90	39061.20
503.07	38916.09
503.25	39419.30
503.43	39215.68
503.60	39723.57
503.78	40018.48
503.95	39852.30
504.13	40126.14
504.30	40037.20
504.48	40336.79
504.65	40346.15
504.83	40533.40
505.01	40741.71
505.18	40650.42
505.36	40966.40
505.53	40945.33
505.71	41317.48
505.88	41401.74
506.06	41064.70
506.23	41848.78
506.41	41572.60
506.58	41710.69
506.76	41565.57
506.93	41792.61
507.11	41930.70
507.28	42557.96
507.46	42012.62
507.63	42043.04
507.81	43159.48
507.98	42831.80
508.16	42880.95
508.33	42951.17
508.50	43428.64
508.68	43484.81
508.85	43700.14
509.03	43611.20
509.20	44060.58
509.38	43690.78
509.55	43777.38
509.73	44109.74
509.90	43964.62
510.08	44076.97
510.25	44247.83
510.42	44322.72
510.60	44591.89
510.77	44676.15
510.95	44715.93
511.12	44919.56
511.30	44884.45
511.47	45074.04
511.64	44961.69
511.82	45476.61
511.99	45368.94
512.17	45654.49
512.34	45406.39
512.51	46394.10
512.69	45996.21
512.86	46274.73
513.04	46471.34
513.21	46314.52
513.38	46368.35
513.56	46403.46
513.73	46581.34
513.90	46681.98
514.08	46440.91
514.25	46911.36
514.43	46899.65
514.60	46906.68
514.77	47339.68
514.95	47716.50
515.12	47075.19
515.29	47185.20
515.47	47395.85
515.64	47662.67
515.81	47501.17
515.99	48133.12
516.16	48142.48
516.33	47955.24
516.51	48397.60
516.68	48303.98
516.85	48130.78
517.03	48608.25
517.20	48467.81
517.37	48739.32
517.54	48018.43
517.72	48222.06
517.89	48568.46
518.06	48582.50
518.24	49141.89
518.41	48570.80
518.58	48973.37
518.75	48942.94
518.93	49345.51
519.10	48872.73
519.27	49392.33
519.45	49111.46
519.62	49605.31
519.79	49720.00
519.96	49389.98
520.14	50113.21
520.31	49874.48
520.48	50106.19
520.65	49848.73
520.83	50410.46
521.00	50230.24
521.17	49993.84
521.34	50295.77
521.52	50347.26
521.69	50494.72
521.86	50571.96
522.03	50583.66
522.20	51234.33
522.38	51002.61
522.55	50927.72
522.72	50869.20
522.89	50789.62
523.07	51224.96
523.24	51166.45
523.41	51515.19
523.58	51089.21
523.75	51564.34
523.92	51377.10
524.10	51564.34
524.27	51863.93
524.44	51725.84
524.61	51578.39
524.78	51686.05
524.96	52083.94
525.13	51957.55
525.30	52006.70
525.47	52278.21
525.64	52186.92
525.81	52310.97
525.98	52559.07
526.16	52231.40
526.33	52126.07
526.50	52788.44
526.67	52310.97
526.84	52296.93
527.01	52626.95
527.18	52795.46
527.36	52722.91
527.53	53010.79
527.70	52999.09
527.87	53045.90
528.04	52830.57
528.21	53315.06
528.38	52903.13
528.55	53158.25
528.72	53071.65
528.89	53123.14
529.07	53324.43
529.24	52776.74
529.41	53261.23
529.58	53289.32
529.75	53448.47
529.92	53275.27
530.09	53205.06
530.26	53750.40
530.43	53764.45
530.60	53422.73
530.77	53469.54
530.94	53998.50
531.11	54092.12
531.28	53722.32
531.46	54167.02
531.63	53982.12
531.80	53996.16
531.97	54211.49
532.14	54202.13
532.31	54061.69
532.48	54494.69
532.65	54298.09
532.82	54246.60
532.99	54277.02
533.16	54262.98
533.33	54550.87
533.50	54443.20
533.67	54539.16
533.84	54326.17
534.01	54770.88
534.18	54695.98
534.35	55084.51
534.52	54805.98
534.69	54843.43
534.86	55093.87
535.03	54618.74
535.20	55185.15
535.37	55168.77
535.54	55255.37
535.71	54976.84
535.88	55049.40
536.05	55196.85
536.22	55416.86
536.38	55297.50
536.55	55325.58
536.72	55229.62
536.89	55292.82
537.06	55491.76
537.23	55384.10
537.40	55229.62
537.57	55257.71
537.74	55683.69
537.91	55671.98
538.08	55583.04
538.25	55491.76
538.42	55707.09
538.59	56074.55
538.75	55547.93
538.92	55941.14
539.09	55693.05
539.26	55697.73
539.43	55908.38
539.60	56025.40
539.77	55756.24
539.94	56416.27
540.11	55941.14
540.28	56083.92
540.44	56217.33
540.61	56147.11
540.78	56348.40
540.95	56413.93
541.12	56023.06
541.29	56219.67
541.46	56362.44
541.62	56214.99
541.79	56456.06
541.96	56037.11
542.13	56439.68
542.30	56521.60
542.47	56591.81
542.63	56537.98
542.80	56530.96
542.97	56690.12
543.14	56975.66
543.31	56849.27
543.48	56903.10
543.64	57205.03
543.81	57092.69
543.98	57027.15
544.15	57022.47
544.32	57057.58
544.48	57219.08
544.65	57137.16
544.82	56968.64
544.99	57038.86
545.16	57113.75
545.32	57200.35
545.49	57434.41
545.66	57401.64
545.83	57525.69
546.00	57506.96
546.16	57333.76
546.33	57226.10
546.50	57085.67
546.67	57574.84
546.83	57242.48
547.00	57394.62
547.17	57607.61
547.34	57553.77
547.50	57539.73
547.67	57942.30
547.84	57621.65
548.00	57656.76
548.17	58033.58
548.34	57851.02
548.51	57958.69
548.67	57961.03
548.84	57862.72
549.01	57773.78
549.18	57883.79
549.34	58073.37
549.51	58101.46
549.68	58026.56
549.84	58202.10
550.01	58269.98
550.18	58129.54
550.34	57998.48
550.51	58150.61
550.68	58255.93
550.84	57958.69
551.01	58309.77
551.18	58181.04
551.34	58183.38
551.51	58300.40
551.68	58419.77
551.84	58401.05
552.01	58291.04
552.18	58255.93
552.34	58120.18
552.51	58415.09
552.68	58375.30
552.84	58436.16
553.01	58555.52
553.18	58714.68
553.34	58602.33
553.51	58349.56
553.67	58618.72
553.84	58719.36
554.01	58656.17
554.17	58789.58
554.34	58845.75
554.51	58747.45
554.67	58763.83
554.84	58784.90
555.00	58775.53
555.17	58721.70
555.33	58930.01
555.50	58784.90
555.67	58773.19
555.83	58864.47
556.00	58953.41
556.16	59131.29
556.33	59084.48
556.50	58904.26
556.66	58988.52
556.83	58770.85
556.99	59182.79
557.16	59267.05
557.32	59124.27
557.49	59323.22
557.65	59105.55
557.82	59133.63
557.98	59082.14
558.15	59110.23
558.32	59253.00
558.48	59096.19
558.65	59124.27
558.81	59377.05
558.98	59388.75
559.14	59426.20
559.31	59159.38
559.47	59435.56
559.64	59632.17
559.80	59473.01
559.97	59407.48
560.13	59360.67
560.30	59468.33
560.46	59613.44
560.63	59618.13
560.79	59522.16
560.96	59536.21
561.12	59608.76
561.29	59578.34
561.45	59821.75
561.61	59676.64
561.78	59531.53
561.94	59395.77
562.11	59522.16
562.27	59648.55
562.44	59791.33
562.60	59606.42
562.77	59723.45
562.93	59660.26
563.10	59821.75
563.26	59599.40
563.42	59833.46
563.59	59718.77
563.75	59856.86
563.92	59852.18
564.08	59728.13
564.24	60170.49
564.41	60128.36
564.57	59971.55
564.74	59887.29
564.90	59959.84
565.07	59835.80
565.23	59835.80
565.39	59746.86
565.56	60018.36
565.72	59950.48
565.88	59938.78
566.05	59908.35
566.21	59936.44
566.38	59884.95
566.54	60076.87
566.70	60142.41
566.87	60177.51
567.03	59863.88
567.19	59941.12
567.36	59882.61
567.52	60245.39
567.68	60427.95
567.85	60037.08
568.01	59962.18
568.17	60165.81
568.34	60147.09
568.50	60067.51
568.66	59966.87
568.83	60088.57
568.99	60123.68
569.15	60275.82
569.32	60156.45
569.48	60205.60
569.64	60303.90
569.81	60044.10
569.97	60252.41
570.13	60177.51
570.30	60074.53
570.46	60236.03
570.62	60128.36
570.78	60196.24
570.95	60151.77
571.11	60177.51
571.27	60360.08
571.43	60271.14
571.60	60060.49
571.76	60273.48
571.92	60425.61
572.09	60500.51
572.25	60392.84
572.41	60444.33
572.57	60245.39
572.74	60605.83
572.90	60275.82
573.06	60521.57
573.22	60399.86
573.38	60523.91
573.55	60301.56
573.71	60662.00
573.87	60495.83
574.03	60240.71
574.20	60423.27
574.36	60388.16
574.52	60573.06
574.68	60633.92
574.84	60547.32
575.01	60526.25
575.17	60580.09
575.33	60477.10
575.49	60477.10
575.65	60612.85
575.82	60594.13
575.98	60638.60
576.14	60631.58
576.30	60692.43
576.46	60306.24
576.62	60652.64
576.79	60554.34
576.95	60544.98
577.11	60601.15
577.27	60645.62
577.43	60434.97
577.59	60399.86
577.75	60420.93
577.92	60324.97
578.08	60406.89
578.24	60633.92
578.40	60732.22
578.56	60757.97
578.72	60537.96
578.88	60699.45
579.04	60739.24
579.21	60488.80
579.37	60647.96
579.53	60757.97
579.69	60505.19
579.85	60444.33
580.01	60418.59
580.17	60355.39
580.33	60685.41
580.49	60762.65
580.65	60694.77
580.82	60582.43
580.98	60626.90
581.14	60697.11
581.30	60608.17
581.46	60734.56
581.62	60839.89
581.78	60432.63
581.94	60753.29
582.10	60636.26
582.26	60645.62
582.42	60605.83
582.58	60746.26
582.74	60498.17
582.90	60743.92
583.06	60552.00
583.22	60683.07
583.38	60594.13
583.54	60556.68
583.70	60631.58
583.86	60645.62
584.02	60591.79
584.18	60914.78
584.34	60610.51
584.50	60720.52
584.66	60727.54
584.82	60643.28
584.98	60889.04
585.14	60874.99
585.30	60800.10
585.46	60832.86
585.62	60762.65
585.78	60996.70
585.94	60697.11
586.10	60800.10
586.26	60891.38
586.42	60933.51
586.58	60786.05
586.74	60891.38
586.90	60739.24
587.06	60846.91
587.22	60940.53
587.38	60966.27
587.54	61048.19
587.70	60994.36
587.86	60818.82
588.02	60828.18
588.18	60935.85
588.34	60718.18
588.49	61106.71
