SpectraSuite Data File
++++++++++++++++++++++++++++++++++++
Date: Fri Oct 25 10:44:12 EDT 2013
User: price-jones
Dark Spectrum Present: No
Reference Spectrum Present: No
Number of Sampled Component Spectra: 1
Spectrometers: USB2+H05261
Integration Time (usec): 100000 (USB2+H05261)
Spectra Averaged: 1 (USB2+H05261)
Boxcar Smoothing: 0 (USB2+H05261)
Correct for Electrical Dark: No (USB2+H05261)
Strobe/Lamp Enabled: No (USB2+H05261)
Correct for Detector Non-linearity: No (USB2+H05261)
Correct for Stray Light: No (USB2+H05261)
Number of Pixels in Processed Spectrum: 2048
>>>>>Begin Processed Spectral Data<<<<<
365.73	173.20
365.92	173.20
366.12	173.20
366.32	39.79
366.52	0.00
366.72	95.96
366.91	46.81
367.11	35.11
367.31	0.00
367.51	0.00
367.70	0.00
367.90	11.70
368.10	84.26
368.30	21.06
368.49	53.83
368.69	0.00
368.89	42.13
369.09	18.72
369.28	7.02
369.48	60.85
369.68	102.98
369.87	107.66
370.07	119.37
370.27	128.73
370.47	159.16
370.66	379.17
370.86	409.59
371.06	517.26
371.25	498.53
371.45	440.02
371.65	503.22
371.84	528.96
372.04	533.64
372.24	409.59
372.44	477.47
372.63	517.26
372.83	449.38
373.03	456.40
373.22	484.49
373.42	554.71
373.62	437.68
373.81	507.90
374.01	599.18
374.21	585.13
374.40	603.86
374.60	617.90
374.79	617.90
374.99	589.82
375.19	657.69
375.38	664.71
375.58	610.88
375.78	648.33
375.97	615.56
376.17	610.88
376.37	592.16
376.56	620.24
376.76	643.65
376.95	594.50
377.15	657.69
377.35	650.67
377.54	622.58
377.74	603.86
377.93	610.88
378.13	573.43
378.33	674.07
378.52	739.61
378.72	725.57
378.91	739.61
379.11	732.59
379.31	592.16
379.50	613.22
379.70	734.93
379.89	734.93
380.09	692.80
380.28	667.05
380.48	676.41
380.68	655.35
380.87	648.33
381.07	692.80
381.26	706.84
381.46	725.57
381.65	692.80
381.85	739.61
382.04	685.78
382.24	720.88
382.43	667.05
382.63	685.78
382.83	727.91
383.02	737.27
383.22	805.14
383.41	791.10
383.61	653.01
383.80	844.93
384.00	784.08
384.19	802.80
384.39	748.97
384.58	880.04
384.78	823.87
384.97	814.51
385.17	821.53
385.36	884.72
385.56	814.51
385.75	760.67
385.95	751.31
386.14	798.12
386.34	725.57
386.53	882.38
386.72	854.30
386.92	976.00
387.11	816.85
387.31	922.17
387.50	898.77
387.70	882.38
387.89	854.30
388.09	891.74
388.28	957.28
388.48	880.04
388.67	915.15
388.86	929.19
389.06	844.93
389.25	1013.45
389.45	924.51
389.64	947.92
389.84	990.05
390.03	1086.01
390.22	1001.75
390.42	1020.47
390.61	917.49
390.81	1048.56
391.00	985.37
391.19	1116.44
391.39	1048.56
391.58	1107.07
391.78	1053.24
391.97	1043.88
392.16	940.90
392.36	1086.01
392.55	1013.45
392.75	1020.47
392.94	997.07
393.13	973.66
393.33	1013.45
393.52	1050.90
393.71	1139.84
393.91	1132.82
394.10	1137.50
394.29	1128.14
394.49	1104.73
394.68	1184.31
394.88	1205.38
395.07	1284.95
395.26	1156.22
395.46	1160.91
395.65	1254.53
395.84	1252.19
396.04	1270.91
396.23	1200.69
396.42	1118.78
396.62	1210.06
396.81	1231.12
397.00	1170.27
397.19	1153.88
397.39	1273.25
397.58	1406.66
397.77	1359.85
397.97	1392.62
398.16	1401.98
398.35	1514.33
398.55	1476.88
398.74	1519.01
398.93	1530.71
399.12	1542.41
399.32	1411.34
399.51	1469.86
399.70	1530.71
399.90	1589.22
400.09	1591.56
400.28	1607.95
400.47	1561.14
400.67	1612.63
400.86	1666.46
401.05	1654.76
401.24	1685.19
401.44	1640.72
401.63	1743.70
401.82	1685.19
402.01	1720.29
402.21	1652.42
402.40	1687.53
402.59	1774.13
402.78	1764.76
402.97	1664.12
403.17	1767.10
403.36	1830.30
403.55	1842.00
403.74	1902.86
403.93	1811.57
404.13	1837.32
404.32	1844.34
404.51	1844.34
404.70	1961.37
404.89	1860.73
405.09	1867.75
405.28	1909.88
405.47	1846.68
405.66	1987.11
405.85	2045.63
406.05	1975.41
406.24	1961.37
406.43	2118.18
406.62	2001.16
406.81	2172.02
407.00	2066.69
407.20	2071.37
407.39	2015.20
407.58	2146.27
407.77	2176.70
407.96	2272.66
408.15	2228.19
408.34	2237.55
408.54	2230.53
408.73	2225.85
408.92	2279.68
409.11	2345.22
409.30	2312.45
409.49	2317.13
409.68	2221.17
409.87	2209.47
410.07	2305.43
410.26	2368.62
410.45	2394.37
410.64	2408.41
410.83	2509.05
411.02	2452.88
411.21	2572.25
411.40	2511.39
411.59	2555.86
411.78	2431.82
411.98	2513.74
412.17	2616.72
412.36	2597.99
412.55	2696.30
412.74	2834.39
412.93	2771.19
413.12	2649.49
413.31	2754.81
413.50	2871.84
413.69	2913.97
413.88	2862.48
414.07	2736.09
414.26	2939.71
414.45	2925.67
414.64	2895.24
414.83	2986.52
415.02	2967.80
415.22	3063.76
415.41	3108.23
415.60	3143.34
415.79	3126.96
415.98	3253.34
416.17	3251.00
416.36	3133.98
416.55	3150.36
416.74	3281.43
416.93	3342.28
417.12	3276.75
417.31	3241.64
417.50	3318.88
417.69	3370.37
417.88	3438.25
418.07	3372.71
418.26	3431.23
418.45	3442.93
418.64	3574.00
418.83	3550.59
419.02	3585.70
419.21	3435.91
419.39	3576.34
419.58	3494.42
419.77	3522.51
419.96	3733.15
420.15	3665.28
420.34	3644.21
420.53	3810.39
420.72	3843.16
420.91	3719.11
421.10	3857.20
421.29	3882.95
421.48	3684.00
421.67	3887.63
421.86	3740.18
422.05	3758.90
422.24	3850.18
422.43	3735.50
422.61	3772.94
422.80	3943.80
422.99	3899.33
423.18	3906.35
423.37	3896.99
423.56	3915.72
423.75	3875.93
423.94	3892.31
424.13	3716.77
424.32	3784.65
424.50	3878.27
424.69	4009.34
424.88	4011.68
425.07	3880.61
425.26	3779.97
425.45	3887.63
425.64	3796.35
425.83	3978.91
426.01	4086.58
426.20	4030.40
426.39	4014.02
426.58	3967.21
426.77	3971.89
426.96	3899.33
427.15	3988.27
427.33	4175.52
427.52	4007.00
427.71	4180.20
427.90	4203.60
428.09	4355.74
428.28	4290.20
428.46	4109.98
428.65	4163.81
428.84	4278.50
429.03	4255.09
429.22	4184.88
429.40	4039.76
429.59	4011.68
429.78	3969.55
429.97	3946.14
430.16	3896.99
430.34	4098.28
430.53	4156.79
430.72	4219.99
430.91	4114.66
431.10	4187.22
431.28	4594.47
431.47	4524.26
431.66	4573.41
431.85	4470.42
432.03	4437.66
432.22	4758.31
432.41	4514.89
432.60	4720.86
432.79	4690.43
432.97	4662.35
433.16	4748.95
433.35	4636.60
433.54	4594.47
433.72	4662.35
433.91	4786.40
434.10	4718.52
434.28	4702.14
434.47	4737.24
434.66	5008.75
434.85	4816.82
435.03	4943.21
435.22	4987.68
435.41	5137.48
435.59	4957.25
435.78	4950.23
435.97	5039.17
436.16	4910.44
436.34	5252.16
436.53	5121.09
436.72	5228.76
436.90	5177.26
437.09	5205.35
437.28	4971.30
437.46	5074.28
437.65	5256.84
437.84	5156.20
438.02	4999.38
438.21	5135.14
438.40	5100.03
438.58	5376.21
438.77	5413.66
438.96	5338.76
439.14	5490.90
439.33	5526.00
439.52	5699.20
439.70	5563.45
439.89	5753.04
440.08	5753.04
440.26	5671.12
440.45	5628.99
440.63	5839.64
440.82	5886.45
441.01	5909.85
441.19	5856.02
441.38	5966.03
441.57	6127.52
441.75	6019.86
441.94	6190.72
442.12	6186.04
442.31	6162.63
442.50	6389.66
442.68	6223.48
442.87	6473.92
443.05	6384.98
443.24	6616.69
443.43	6359.24
443.61	6499.67
443.80	6567.54
443.98	6483.28
444.17	6136.88
444.35	6560.52
444.54	6637.76
444.73	6516.05
444.91	6373.28
445.10	6513.71
445.28	6441.15
445.47	6265.61
445.65	6525.41
445.84	6480.94
446.02	6487.96
446.21	6516.05
446.39	6403.71
446.58	6518.39
446.77	6445.84
446.95	6415.41
447.14	6703.29
447.32	6752.45
447.51	6499.67
447.69	6600.31
447.88	6595.63
448.06	6759.47
448.25	6668.19
448.43	6665.85
448.62	6761.81
448.80	6747.76
448.99	6703.29
449.17	6700.95
449.36	6848.41
449.54	6876.49
449.73	7012.24
449.91	7194.81
450.10	7112.89
450.28	7232.26
450.46	7288.43
450.65	7211.19
450.83	7176.08
451.02	7145.66
451.20	7140.97
451.39	7269.70
451.57	7045.01
451.76	7140.97
451.94	7302.47
452.13	7190.13
452.31	7227.57
452.49	7159.70
452.68	7293.11
452.86	7169.06
453.05	7346.94
453.23	7248.64
453.42	7138.63
453.60	7269.70
453.78	7449.93
453.97	7393.75
454.15	7330.56
454.34	7510.78
454.52	7431.20
454.70	7538.87
454.89	7391.41
455.07	7726.11
455.26	7688.66
455.44	7552.91
455.62	7850.16
455.81	7536.52
455.99	7581.00
456.17	7705.04
456.36	7819.73
456.54	7791.64
456.73	7962.50
456.91	8077.19
457.09	8013.99
457.28	8360.39
457.46	7948.46
457.64	8093.57
457.83	7906.33
458.01	7920.37
458.19	8119.32
458.38	8107.62
458.56	8208.26
458.74	8187.19
458.93	8102.93
459.11	8397.84
459.29	8116.98
459.48	8297.20
459.66	8259.75
459.84	8372.10
460.03	8336.99
460.21	8341.67
460.39	8318.26
460.57	8519.55
460.76	8435.29
460.94	8662.32
461.12	8542.96
461.31	8442.31
461.49	8547.64
461.67	8671.68
461.85	8652.96
462.04	8858.93
462.22	8987.66
462.40	8919.78
462.59	8957.23
462.77	8887.01
462.95	8891.70
463.13	8748.92
463.32	8971.27
463.50	8868.29
463.68	8945.53
463.86	8959.57
464.05	8730.20
464.23	8968.93
464.41	9064.89
464.59	8849.57
464.78	9013.40
464.96	9001.70
465.14	8872.97
465.32	9132.77
465.50	9181.92
465.69	9191.28
465.87	9167.88
466.05	9128.09
466.23	9289.59
466.41	9114.05
466.60	9240.44
466.78	9210.01
466.96	9125.75
467.14	9268.52
467.32	9291.93
467.51	9493.21
467.69	9050.85
467.87	9270.86
468.05	9397.25
468.23	9493.21
468.41	9357.46
468.60	9511.94
468.78	9621.94
468.96	9465.13
469.14	9760.03
469.32	9891.10
469.50	9397.25
469.69	9673.43
469.87	9764.72
470.05	9598.54
470.23	9776.42
470.41	9848.97
470.59	9673.43
470.77	9722.59
470.95	9734.29
471.14	10022.17
471.32	9958.98
471.50	10391.98
471.68	10242.18
471.86	10314.74
472.04	10368.57
472.22	10698.59
472.40	10094.73
472.58	10462.19
472.77	10569.86
472.95	10384.96
473.13	10780.51
473.31	10391.98
473.49	10581.56
473.67	10513.69
473.85	10824.98
474.03	10829.66
474.21	10820.30
474.39	10864.77
474.57	11082.44
474.75	11044.99
474.93	11124.57
475.12	11136.27
475.30	11169.04
475.48	11115.20
475.66	11089.46
475.84	11276.70
476.02	11442.88
476.20	11442.88
476.38	11482.67
476.56	11819.71
476.74	11819.71
476.92	11969.50
477.10	11784.60
477.28	12182.49
477.46	11843.11
477.64	12215.26
477.82	12348.67
478.00	12652.94
478.18	12409.52
478.36	12414.20
478.54	12559.31
478.72	12538.25
478.90	12713.79
479.08	12805.07
479.26	12922.10
479.44	13109.34
479.62	13170.19
479.80	13048.49
479.98	13327.01
480.16	13685.11
480.34	13429.99
480.52	13635.96
480.70	13689.79
480.88	13380.84
481.06	13722.56
481.24	13853.63
481.41	14239.82
481.59	14471.53
481.77	14211.73
481.95	14595.58
482.13	14473.87
482.31	14485.58
482.49	14820.27
482.67	14892.83
482.85	14864.74
483.03	14974.75
483.21	15178.37
483.39	15253.27
483.57	15288.38
483.74	15459.24
483.92	15396.04
484.10	15342.21
484.28	15557.54
484.46	16159.06
484.64	15967.13
484.82	16203.53
485.00	16070.12
485.18	16395.45
485.35	16517.16
485.53	16252.68
485.71	16093.52
485.89	16212.89
486.07	16400.13
486.25	16580.36
486.43	16751.21
486.61	16931.44
486.78	17245.07
486.96	17394.86
487.14	17474.44
487.32	17528.27
487.50	17928.50
487.68	17792.75
487.85	18527.68
488.03	18504.28
488.21	18810.89
488.39	18359.16
488.57	18611.94
488.75	19040.26
488.92	18937.27
489.10	18934.93
489.28	19288.35
489.46	19461.55
489.64	19503.68
489.81	20058.39
489.99	19983.49
490.17	20425.86
490.35	20222.23
490.53	19859.45
490.70	20189.46
490.88	20121.59
491.06	20924.39
491.24	20783.96
491.41	20704.38
491.59	20772.25
491.77	20723.10
491.95	20807.36
492.13	21195.89
492.30	21678.04
492.48	21472.07
492.66	21572.72
492.84	21872.31
493.01	21818.47
493.19	21888.69
493.37	21853.58
493.54	22359.14
493.72	22239.77
493.90	22394.25
494.08	22696.17
494.25	22986.40
494.43	22796.82
494.61	23377.27
494.79	23377.27
494.96	23459.19
495.14	23164.28
495.32	23761.12
495.49	23658.14
495.67	23833.68
495.85	23756.44
496.02	24411.79
496.20	24395.40
496.38	24067.73
496.55	24788.61
496.73	24943.09
496.91	24575.62
497.09	24844.79
497.26	25092.88
497.44	24959.47
497.62	25032.03
497.79	25287.15
497.97	25076.50
498.14	25401.83
498.32	25500.14
498.50	25579.71
498.67	25448.64
498.85	25895.69
499.03	25940.16
499.20	26382.52
499.38	26309.96
499.56	26611.89
499.73	26419.97
499.91	26436.35
500.08	26515.93
500.26	26178.89
500.44	26405.92
500.61	26801.47
500.79	26529.97
500.97	26614.23
501.14	26977.01
501.32	26988.72
501.49	27182.98
501.67	27190.00
501.84	27463.85
502.02	27517.68
502.20	27278.94
502.37	28065.36
502.55	27885.14
502.72	27969.40
502.90	28053.66
503.07	27758.75
503.25	28189.41
503.43	28032.60
503.60	28273.67
503.78	27878.12
503.95	28098.13
504.13	28460.91
504.30	28180.05
504.48	28542.83
504.65	28694.97
504.83	29088.18
505.01	29439.26
505.18	29099.88
505.36	29490.75
505.53	29195.84
505.71	29443.94
505.88	29762.25
506.06	29521.18
506.23	29537.56
506.41	29153.71
506.58	29930.77
506.76	29724.80
506.93	30188.23
507.11	29951.84
507.28	30003.33
507.46	29902.68
507.63	29869.92
507.81	30188.23
507.98	30118.01
508.16	30539.31
508.33	30654.00
508.50	30925.50
508.68	31101.04
508.85	31047.21
509.03	30579.10
509.20	31103.38
509.38	31077.63
509.55	31079.97
509.73	30920.82
509.90	31463.82
510.08	31187.64
510.25	31253.17
510.42	31302.32
510.60	31871.07
510.77	31604.25
510.95	31824.26
511.12	32077.04
511.30	32114.49
511.47	32245.56
511.64	32641.11
511.82	32535.79
511.99	32088.74
512.17	31952.99
512.34	32121.51
512.51	32694.94
512.69	32706.65
512.86	32484.30
513.04	33113.90
513.21	32720.69
513.38	32786.22
513.56	32830.69
513.73	32510.04
513.90	32704.31
514.08	32992.19
514.25	32980.49
514.43	33022.62
514.60	33560.94
514.77	33464.98
514.95	33720.10
515.12	33387.74
515.29	33537.54
515.47	33989.26
515.64	33628.82
515.81	33661.58
515.99	33865.21
516.16	33762.23
516.33	33266.03
516.51	33682.65
516.68	33476.68
516.85	33268.37
517.03	33645.20
517.20	33970.54
517.37	34206.93
517.54	34632.91
517.72	34405.88
517.89	34022.03
518.06	33947.13
518.24	34230.33
518.41	33958.83
518.58	34230.33
518.75	34536.94
518.93	34843.56
519.10	34396.51
519.27	34995.69
519.45	35292.94
519.62	35079.95
519.79	34726.53
519.96	35405.28
520.14	35662.74
520.31	35133.78
520.48	34920.79
520.65	35608.91
520.83	35688.49
521.00	35868.71
521.17	35889.77
521.34	36142.55
521.52	35864.03
521.69	36334.48
521.86	36140.21
522.03	36154.26
522.20	36208.09
522.38	36336.82
522.55	36465.55
522.72	36034.89
522.89	36781.52
523.07	36596.62
523.24	36236.17
523.41	37081.11
523.58	36828.33
523.75	37392.40
523.92	37111.53
524.10	37462.61
524.27	37081.11
524.44	37132.60
524.61	37479.00
524.78	37455.59
524.96	37848.80
525.13	37092.81
525.30	37710.71
525.47	37811.35
525.64	37823.06
525.81	37556.24
525.98	37539.85
526.16	37504.74
526.33	36947.70
526.50	37574.96
526.67	37195.79
526.84	37345.59
527.01	37411.12
527.18	37689.65
527.36	38234.99
527.53	38237.33
527.70	38192.86
527.87	38396.49
528.04	38459.68
528.21	38459.68
528.38	38438.62
528.55	38494.79
528.72	38667.99
528.89	39019.07
529.07	38792.04
529.24	38583.73
529.41	38927.79
529.58	38476.07
529.75	38770.97
529.92	38946.51
530.09	38501.81
530.26	39084.61
530.43	39316.32
530.60	39089.29
530.77	39086.95
530.94	39409.94
531.11	39096.31
531.28	39332.70
531.46	39533.99
531.63	39681.44
531.80	39330.36
531.97	39262.49
532.14	39566.76
532.31	38904.38
532.48	39529.31
532.65	39737.62
532.82	39381.85
532.99	39601.86
533.16	39765.70
533.33	40018.48
533.50	39938.90
533.67	40041.88
533.84	39526.97
534.01	40243.17
534.18	40079.33
534.35	40229.13
534.52	40069.97
534.69	39856.98
534.86	40957.03
535.03	40318.07
535.20	40924.27
535.37	41015.55
535.54	41029.59
535.71	40844.69
535.88	40718.30
536.05	40797.88
536.22	40868.09
536.38	40629.36
536.55	40732.34
536.72	40568.51
536.89	40648.08
537.06	40512.33
537.23	40889.16
537.40	40987.46
537.57	40905.54
537.74	40975.76
537.91	41364.29
538.08	40971.08
538.25	41127.89
538.42	41212.15
538.59	41914.31
538.75	40849.37
538.92	41017.89
539.09	41038.95
539.26	41340.88
539.43	40968.74
539.60	41165.34
539.77	41048.32
539.94	41359.61
540.11	41158.32
540.28	41640.47
540.44	41504.72
540.61	41682.60
540.78	41324.50
540.95	41422.80
541.12	41443.87
541.29	41539.83
541.46	42239.65
541.62	42050.06
541.79	42014.96
541.96	41593.66
542.13	42085.17
542.30	41923.68
542.47	42134.32
542.63	42218.58
542.80	42082.83
542.97	42316.89
543.14	42707.76
543.31	42775.63
543.48	42604.77
543.64	43194.59
543.81	42927.77
543.98	43019.05
544.15	42330.93
544.32	42953.51
544.48	43232.04
544.65	42911.38
544.82	43414.60
544.99	42789.67
545.16	42689.03
545.32	42745.20
545.49	43519.92
545.66	43679.08
545.83	43246.08
546.00	43178.20
546.16	43157.14
546.33	43194.59
546.50	42761.59
546.67	43360.76
546.83	42923.08
547.00	42993.30
547.17	43166.50
547.34	42735.84
547.50	43438.00
547.67	43632.27
547.84	43562.05
548.00	43739.93
548.17	44034.84
548.34	43772.70
548.51	43578.43
548.67	43849.94
548.84	43990.37
549.01	43899.09
549.18	43782.06
549.34	43887.39
549.51	43718.87
549.68	44032.50
549.84	43952.92
550.01	44163.57
550.18	43952.92
550.34	43988.03
550.51	44044.20
550.68	44114.42
550.84	43618.22
551.01	44524.01
551.18	44247.83
551.34	44231.44
551.51	44545.08
551.68	44481.88
551.84	44339.11
552.01	44247.83
552.18	44289.96
552.34	44189.31
552.51	43852.28
552.68	43950.58
552.84	44474.86
553.01	44802.53
553.18	44252.51
553.34	44367.20
553.51	44474.86
553.67	44212.72
553.84	44687.85
554.01	44289.96
554.17	44898.50
554.34	44411.67
554.51	44458.48
554.67	45155.96
554.84	44942.97
555.00	44774.45
555.17	44652.74
555.33	44507.63
555.50	44823.60
555.67	44935.95
555.83	44793.17
556.00	44619.97
556.16	45244.90
556.33	44664.44
556.50	44697.21
556.66	44973.39
556.83	44542.74
556.99	44961.69
557.16	45558.53
557.32	45010.84
557.49	45008.50
557.65	45043.61
557.82	45244.90
557.98	44711.25
558.15	44811.90
558.32	44966.37
558.48	44912.54
558.65	44788.49
558.81	44910.20
558.98	45179.36
559.14	45235.53
559.31	44952.33
559.47	45008.50
559.64	45392.35
559.80	45120.85
559.97	45256.60
560.13	45287.03
560.30	45085.74
560.46	45059.99
560.63	45916.63
560.79	45640.45
560.96	45684.92
561.12	45516.40
561.29	45263.62
561.45	45027.23
561.61	45481.29
561.78	45687.26
561.94	45162.98
562.11	45640.45
562.27	45511.72
562.44	45638.11
562.60	45916.63
562.77	45677.90
562.93	45745.77
563.10	45755.13
563.26	45385.33
563.42	45675.55
563.59	45420.44
563.75	45415.76
563.92	45713.00
564.08	45858.12
564.24	46068.76
564.41	45757.47
564.57	45408.73
564.74	45607.68
564.90	45631.08
565.07	45853.44
565.23	45652.15
565.39	45918.97
565.56	45668.53
565.72	45614.70
565.88	45977.48
566.05	45715.34
566.21	45544.48
566.38	45783.22
566.54	45867.48
566.70	46061.74
566.87	46169.41
567.03	45663.85
567.19	46277.07
567.36	46054.72
567.52	45500.01
567.68	46110.89
567.85	46059.40
568.01	46021.95
568.17	46110.89
568.34	45841.73
568.50	45708.32
568.66	45848.75
568.83	45741.09
568.99	45769.18
569.15	45769.18
569.32	46141.32
569.48	45780.88
569.64	45785.56
569.81	45881.52
569.97	45858.12
570.13	45523.42
570.30	45593.64
570.46	45610.02
570.62	45467.25
570.78	45883.86
570.95	46024.29
571.11	46176.43
571.27	45450.86
571.43	46089.83
571.60	45886.20
571.76	46213.88
571.92	45787.90
572.09	46183.45
572.25	46183.45
572.41	46007.91
572.57	46225.58
572.74	46396.44
572.90	45935.35
573.06	45986.85
573.22	46174.09
573.38	46370.69
573.55	46108.55
573.71	46319.20
573.87	46295.80
574.03	46202.18
574.20	45684.92
574.36	46321.54
574.52	46213.88
574.68	46064.08
574.84	46014.93
575.01	46003.23
575.17	45862.80
575.33	45780.88
575.49	45595.98
575.65	46384.74
575.82	46424.53
575.98	46183.45
576.14	46525.17
576.30	46429.21
576.46	46206.86
576.62	45940.04
576.79	46342.61
576.95	45425.12
577.11	46305.16
577.27	45951.74
577.43	46328.56
577.59	46377.72
577.75	45804.28
577.92	45893.22
578.08	46061.74
578.24	45977.48
578.40	45783.22
578.56	46024.29
578.72	46068.76
578.88	46403.46
579.04	45893.22
579.21	46113.23
579.37	45954.08
579.53	46354.31
579.69	46333.24
579.85	46057.06
580.01	46192.81
580.17	46127.28
580.33	46485.38
580.49	46040.68
580.65	45991.53
580.82	46108.55
580.98	46169.41
581.14	45996.21
581.30	46043.02
581.46	45998.55
581.62	46017.27
581.78	46380.06
581.94	46529.85
582.10	45993.87
582.26	46197.49
582.42	45935.35
582.58	46220.90
582.74	46171.75
582.90	46174.09
583.06	46754.54
583.22	46099.19
583.38	46361.33
583.54	46316.86
583.70	46295.80
583.86	46298.14
584.02	46213.88
584.18	46143.66
584.34	46471.34
584.50	46277.07
584.66	46375.37
584.82	46080.47
584.98	46466.66
585.14	46436.23
585.30	46279.41
585.46	46302.82
585.62	46265.37
585.78	46445.59
585.94	45441.50
586.10	45937.69
586.26	46033.66
586.42	46508.79
586.58	46583.68
586.74	46127.28
586.90	45935.35
587.06	46316.86
587.22	46497.08
587.38	46036.00
587.54	46408.14
587.70	46433.89
587.86	46274.73
588.02	46234.94
588.18	46567.30
588.34	45771.52
588.49	45947.06
588.65	44701.89
588.81	45752.79
588.97	45720.02
589.13	45565.55
589.29	46085.15
589.45	46220.90
589.61	46206.86
589.77	46426.87
589.93	46036.00
