SpectraSuite Data File
++++++++++++++++++++++++++++++++++++
Date: Fri Oct 25 10:48:17 EDT 2013
User: price-jones
Dark Spectrum Present: No
Reference Spectrum Present: No
Number of Sampled Component Spectra: 1
Spectrometers: USB2+H05261
Integration Time (usec): 100000 (USB2+H05261)
Spectra Averaged: 1 (USB2+H05261)
Boxcar Smoothing: 0 (USB2+H05261)
Correct for Electrical Dark: No (USB2+H05261)
Strobe/Lamp Enabled: No (USB2+H05261)
Correct for Detector Non-linearity: No (USB2+H05261)
Correct for Stray Light: No (USB2+H05261)
Number of Pixels in Processed Spectrum: 2048
>>>>>Begin Processed Spectral Data<<<<<
365.73	145.11
365.92	145.11
366.12	145.11
366.32	7.02
366.52	0.00
366.72	51.49
366.91	0.00
367.11	51.49
367.31	39.79
367.51	28.09
367.70	0.00
367.90	67.88
368.10	18.72
368.30	0.00
368.49	44.47
368.69	110.01
368.89	56.17
369.09	28.09
369.28	86.60
369.48	32.77
369.68	63.19
369.87	107.66
370.07	84.26
370.27	124.05
370.47	196.60
370.66	325.33
370.86	505.56
371.06	498.53
371.25	512.58
371.45	430.66
371.65	442.36
371.84	472.79
372.04	472.79
372.24	561.73
372.44	437.68
372.63	547.69
372.83	526.62
373.03	571.09
373.22	540.66
373.42	526.62
373.62	519.60
373.81	550.03
374.01	606.20
374.21	594.50
374.40	580.45
374.60	559.39
374.79	550.03
374.99	615.56
375.19	585.13
375.38	624.92
375.58	589.82
375.78	690.46
375.97	636.63
376.17	690.46
376.37	599.18
376.56	631.94
376.76	585.13
376.95	617.90
377.15	699.82
377.35	608.54
377.54	662.37
377.74	624.92
377.93	643.65
378.13	685.78
378.33	676.41
378.52	594.50
378.72	688.12
378.91	772.38
379.11	641.31
379.31	627.26
379.50	683.44
379.70	699.82
379.89	709.18
380.09	660.03
380.28	730.25
380.48	798.12
380.68	746.63
380.87	774.72
381.07	774.72
381.26	809.83
381.46	709.18
381.65	674.07
381.85	755.99
382.04	758.33
382.24	753.65
382.43	667.05
382.63	751.31
382.83	706.84
383.02	777.06
383.22	873.02
383.41	772.38
383.61	751.31
383.80	791.10
384.00	854.30
384.19	746.63
384.39	816.85
384.58	805.14
384.78	812.17
384.97	868.34
385.17	870.68
385.36	819.19
385.56	816.85
385.75	758.33
385.95	830.89
386.14	851.96
386.34	842.59
386.53	889.40
386.72	877.70
386.92	945.58
387.11	952.60
387.31	877.70
387.50	870.68
387.70	882.38
387.89	898.77
388.09	901.11
388.28	870.68
388.48	992.39
388.67	945.58
388.86	1025.15
389.06	917.49
389.25	1036.86
389.45	1004.09
389.64	1041.54
389.84	973.66
390.03	1006.43
390.22	1050.90
390.42	1078.99
390.61	1050.90
390.81	1020.47
391.00	1001.75
391.19	1041.54
391.39	964.30
391.58	1156.22
391.78	1057.92
391.97	1081.33
392.16	1107.07
392.36	1053.24
392.55	1020.47
392.75	1128.14
392.94	1004.09
393.13	959.62
393.33	1022.81
393.52	1179.63
393.71	1097.71
393.91	1196.01
394.10	1078.99
394.29	1184.31
394.49	1196.01
394.68	1252.19
394.88	1174.95
395.07	1338.79
395.26	1238.14
395.46	1329.42
395.65	1210.06
395.84	1242.82
396.04	1282.61
396.23	1100.05
396.42	1170.27
396.62	1235.80
396.81	1177.29
397.00	1371.55
397.19	1380.92
397.39	1350.49
397.58	1334.11
397.77	1455.81
397.97	1439.43
398.16	1500.28
398.35	1390.28
398.55	1460.49
398.74	1549.43
398.93	1516.67
399.12	1497.94
399.32	1626.67
399.51	1495.60
399.70	1636.03
399.90	1607.95
400.09	1591.56
400.28	1678.16
400.47	1638.38
400.67	1736.68
400.86	1694.55
401.05	1643.06
401.24	1750.72
401.44	1720.29
401.63	1781.15
401.82	1755.40
402.01	1722.63
402.21	1806.89
402.40	1788.17
402.59	1743.70
402.78	1736.68
402.97	1809.23
403.17	1760.08
403.36	1827.96
403.55	1834.98
403.74	1930.94
403.93	2001.16
404.13	1851.36
404.32	1842.00
404.51	1830.30
404.70	1919.24
404.89	1942.64
405.09	1975.41
405.28	2010.52
405.47	2001.16
405.66	2001.16
405.85	1980.09
406.05	1977.75
406.24	1973.07
406.43	2054.99
406.62	2132.23
406.81	2160.31
407.00	2139.25
407.20	2026.90
407.39	2172.02
407.58	2125.21
407.77	2277.34
407.96	2237.55
408.15	2303.09
408.34	2289.04
408.54	2394.37
408.73	2310.11
408.92	2246.91
409.11	2401.39
409.30	2326.49
409.49	2253.94
409.68	2298.41
409.87	2349.90
410.07	2413.09
410.26	2361.60
410.45	2476.29
410.64	2502.03
410.83	2668.21
411.02	2546.50
411.21	2555.86
411.40	2572.25
411.59	2682.25
411.78	2579.27
411.98	2635.44
412.17	2558.21
412.36	2602.68
412.55	2766.51
412.74	2818.00
412.93	2813.32
413.12	2789.92
413.31	2895.24
413.50	2820.35
413.69	2864.82
413.88	2818.00
414.07	2850.77
414.26	2911.63
414.45	2977.16
414.64	3042.70
414.83	2937.37
415.02	3110.57
415.22	3101.21
415.41	3105.89
415.60	3016.95
415.79	3131.64
415.98	3290.79
416.17	3321.22
416.36	3361.01
416.55	3199.51
416.74	3375.05
416.93	3314.20
417.12	3314.20
417.31	3290.79
417.50	3372.71
417.69	3412.50
417.88	3566.98
418.07	3454.63
418.26	3463.99
418.45	3557.61
418.64	3688.68
418.83	3702.73
419.02	3646.55
419.21	3524.85
419.39	3618.47
419.58	3559.95
419.77	3531.87
419.96	3754.22
420.15	3660.60
420.34	3721.45
420.53	3695.71
420.72	3864.22
420.91	3822.09
421.10	3786.99
421.29	3950.82
421.48	3868.91
421.67	3861.88
421.86	3808.05
422.05	3815.07
422.24	3733.15
422.43	3815.07
422.61	3805.71
422.80	3896.99
422.99	3943.80
423.18	4121.68
423.37	4028.06
423.56	3957.85
423.75	4023.38
423.94	3957.85
424.13	3808.05
424.32	3789.33
424.50	4014.02
424.69	4067.85
424.88	4140.41
425.07	4093.60
425.26	3892.31
425.45	3838.48
425.64	3840.82
425.83	4004.66
426.01	4098.28
426.20	4081.89
426.39	4063.17
426.58	3999.98
426.77	3988.27
426.96	4016.36
427.15	4039.76
427.33	4091.26
427.52	4131.05
427.71	4189.56
427.90	4187.22
428.09	4119.34
428.28	4109.98
428.46	4297.22
428.65	4098.28
428.84	4428.29
429.03	4287.86
429.22	4117.00
429.40	4208.28
429.59	4138.07
429.78	3985.93
429.97	3836.14
430.16	4067.85
430.34	4133.39
430.53	4327.65
430.72	4182.54
430.91	4290.20
431.10	4393.19
431.28	4589.79
431.47	4655.33
431.66	4690.43
431.85	4578.09
432.03	4667.03
432.22	4699.80
432.41	4599.15
432.60	4512.55
432.79	4676.39
432.97	4709.16
433.16	4784.06
433.35	4655.33
433.54	4734.90
433.72	4685.75
433.91	4643.62
434.10	4737.24
434.28	4837.89
434.47	4798.10
434.66	5022.79
434.85	4933.85
435.03	5006.41
435.22	4912.78
435.41	5095.35
435.59	5097.69
435.78	5184.29
435.97	5242.80
436.16	4968.96
436.34	5191.31
436.53	5116.41
436.72	5289.61
436.90	5191.31
437.09	5179.61
437.28	5121.09
437.46	5348.12
437.65	5181.95
437.84	5210.03
438.02	5181.95
438.21	5195.99
438.40	5235.78
438.58	5364.51
438.77	5371.53
438.96	5500.26
439.14	5544.73
439.33	5582.18
439.52	5621.97
439.70	5631.33
439.89	5668.78
440.08	5783.46
440.26	5762.40
440.45	5750.70
440.63	5975.39
440.82	5921.56
441.01	5912.19
441.19	5982.41
441.38	6064.33
441.57	6106.46
441.75	6211.78
441.94	6401.37
442.12	6258.59
442.31	6494.99
442.50	6298.38
442.68	6235.19
442.87	6375.62
443.05	6403.71
443.24	6511.37
443.43	6558.18
443.61	6478.60
443.80	6576.91
443.98	6359.24
444.17	6263.27
444.35	6434.13
444.54	6562.86
444.73	6597.97
444.91	6471.58
445.10	6443.49
445.28	6679.89
445.47	6420.09
445.65	6485.62
445.84	6497.33
446.02	6574.56
446.21	6555.84
446.39	6576.91
446.58	6626.06
446.77	6494.99
446.95	6586.27
447.14	6799.26
447.32	6946.71
447.51	6553.50
447.69	6780.53
447.88	6745.42
448.06	6841.39
448.25	6782.87
448.43	6820.32
448.62	6738.40
448.80	6764.15
448.99	6916.28
449.17	6895.22
449.36	6853.09
449.54	7045.01
449.73	7047.35
449.91	7318.86
450.10	7105.87
450.28	7337.58
450.46	7255.66
450.65	7428.86
450.83	7440.56
451.02	7328.22
451.20	7339.92
451.39	7250.98
451.57	7152.68
451.76	7054.37
451.94	7260.34
452.13	7337.58
452.31	7276.73
452.49	7173.74
452.68	7445.24
452.86	7293.11
453.05	7337.58
453.23	7559.93
453.42	7414.82
453.60	7400.77
453.78	7456.95
453.97	7377.37
454.15	7555.25
454.34	7318.86
454.52	7562.27
454.70	7538.87
454.89	7618.44
455.07	7487.37
455.26	7676.96
455.44	7772.92
455.62	7873.56
455.81	7822.07
455.99	7854.84
456.17	7906.33
456.36	7957.82
456.54	8070.17
456.73	7882.92
456.91	8191.88
457.09	8128.68
457.28	8283.16
457.46	8046.76
457.64	8336.99
457.83	8145.06
458.01	8077.19
458.19	8355.71
458.38	8243.37
458.56	8276.13
458.74	8226.98
458.93	8109.96
459.11	8479.76
459.29	8292.52
459.48	8510.19
459.66	8475.08
459.84	8402.52
460.03	8425.93
460.21	8493.80
460.39	8652.96
460.57	8613.17
460.76	8699.77
460.94	8601.47
461.12	8781.69
461.31	8692.75
461.49	8865.95
461.67	8667.00
461.85	8814.46
462.04	8655.30
462.22	9373.85
462.40	9074.26
462.59	9085.96
462.77	8985.32
462.95	9036.81
463.13	9048.51
463.32	9102.34
463.50	8997.02
463.68	9200.65
463.86	9018.08
464.05	8938.51
464.23	9123.41
464.41	9198.31
464.59	9048.51
464.78	9191.28
464.96	9195.96
465.14	9097.66
465.32	9294.27
465.50	9540.02
465.69	9394.91
465.87	9287.25
466.05	9320.01
466.23	9198.31
466.41	9210.01
466.60	9451.08
466.78	9231.07
466.96	9322.35
467.14	9362.14
467.32	9280.22
467.51	9490.87
467.69	9296.61
467.87	9408.95
468.05	9565.77
468.23	9394.91
468.41	9535.34
468.60	9769.40
468.78	9696.84
468.96	9575.13
469.14	9806.84
469.32	9495.55
469.50	9486.19
469.69	9837.27
469.87	9816.21
470.05	9804.50
470.23	9951.96
470.41	9799.82
470.59	10216.44
470.77	10171.97
470.95	9958.98
471.14	10293.68
471.32	10099.41
471.50	10312.40
471.68	10139.20
471.86	10296.02
472.04	10487.94
472.22	10628.37
472.40	10223.46
472.58	10530.07
472.77	10548.79
472.95	10778.17
473.13	10801.57
473.31	10621.35
473.49	10888.17
473.67	10679.86
473.85	10761.78
474.03	10958.39
474.21	10925.62
474.39	11143.29
474.57	11234.57
474.75	11487.35
474.93	11087.12
475.12	11211.17
475.30	11248.61
475.48	11119.89
475.66	11405.43
475.84	11391.39
476.02	11456.92
476.20	11545.86
476.38	11908.65
476.56	12093.55
476.74	11749.49
476.92	11852.47
477.10	12079.50
477.28	12163.76
477.46	12374.41
477.64	12187.17
477.82	12655.28
478.00	12503.14
478.18	12863.58
478.36	12575.70
478.54	12989.97
478.72	12833.16
478.90	13064.87
479.08	13242.75
479.26	13277.86
479.44	13268.50
479.62	13179.56
479.80	13083.59
479.98	13415.95
480.16	13935.55
480.34	13823.20
480.52	14005.77
480.70	13902.78
480.88	13811.50
481.06	14155.56
481.24	13923.85
481.41	14380.25
481.59	14579.20
481.77	14752.40
481.95	14721.97
482.13	14738.35
482.31	14808.57
482.49	15129.22
482.67	15136.24
482.85	15335.19
483.03	15042.62
483.21	15316.47
483.39	15374.98
483.57	15655.84
483.74	15681.59
483.92	16011.60
484.10	15618.39
484.28	16032.67
484.46	16360.34
484.64	16512.48
484.82	16245.66
485.00	16266.72
485.18	16463.33
485.35	16828.45
485.53	16402.47
485.71	16472.69
485.89	16666.95
486.07	16812.07
486.25	16793.34
486.43	17041.44
486.61	17142.08
486.78	17523.59
486.96	17497.84
487.14	17954.25
487.32	17783.39
487.50	18328.74
487.68	18368.52
487.85	18511.30
488.03	18532.36
488.21	18974.72
488.39	18672.79
488.57	18682.16
488.75	19185.37
488.92	19171.33
489.10	19536.45
489.28	19587.94
489.46	19765.82
489.64	19924.98
489.81	20285.42
489.99	20137.97
490.17	20224.57
490.35	20699.70
490.53	20470.33
490.70	20479.69
490.88	20528.84
491.06	21394.84
491.24	21270.79
491.41	20795.66
491.59	21235.68
491.77	20924.39
491.95	21193.55
492.13	21696.77
492.30	22029.12
492.48	21930.82
492.66	22052.53
492.84	21886.35
493.01	22218.71
493.19	22429.35
493.37	22436.38
493.54	22883.42
493.72	22822.56
493.90	22860.01
494.08	23295.35
494.25	23271.95
494.43	23473.23
494.61	23747.08
494.79	23468.55
494.96	23845.38
495.14	23428.76
495.32	23864.10
495.49	23800.91
495.67	24491.37
495.85	24376.68
496.02	24346.25
496.20	24680.95
496.38	24797.98
496.55	24526.47
496.73	25142.03
496.91	25193.53
497.09	24922.02
497.26	25310.55
497.44	25135.01
497.62	25685.04
497.79	25532.90
497.97	25216.93
498.14	25252.04
498.32	25933.14
498.50	25586.74
498.67	26141.44
498.85	26333.37
499.03	26614.23
499.20	26199.96
499.38	26515.93
499.56	26747.64
499.73	27051.91
499.91	26717.22
500.08	27070.64
500.26	26700.83
500.44	26740.62
500.61	26918.50
500.79	26845.94
500.97	26773.39
501.14	27325.75
501.32	27395.97
501.49	27632.36
501.67	27410.01
501.84	27388.95
502.02	27850.03
502.20	27978.76
502.37	28208.14
502.55	28116.86
502.72	28189.41
502.90	28308.78
503.07	28091.11
503.25	28414.10
503.43	28158.99
503.60	28292.40
503.78	28416.44
503.95	28830.72
504.13	28542.83
504.30	28826.04
504.48	28765.18
504.65	28781.57
504.83	29240.31
505.01	29345.64
505.18	29308.19
505.36	29944.81
505.53	29614.80
505.71	30080.56
505.88	29972.90
506.06	29696.72
506.23	29984.60
506.41	30022.05
506.58	29806.72
506.76	30237.38
506.93	30438.67
507.11	30661.02
507.28	30218.66
507.46	30520.59
507.63	30452.71
507.81	30740.60
507.98	30459.73
508.16	30958.27
508.33	30838.90
508.50	30927.84
508.68	31122.10
508.85	31241.47
509.03	31309.35
509.20	31232.11
509.38	31431.05
509.55	31323.39
509.73	31660.43
509.90	31697.88
510.08	31754.05
510.25	31864.05
510.42	31709.58
510.60	32367.27
510.77	32315.78
510.95	32318.12
511.12	32631.75
511.30	32364.93
511.47	32655.15
511.64	32776.86
511.82	32835.38
511.99	32411.74
512.17	32790.91
512.34	31960.02
512.51	33294.12
512.69	32767.50
512.86	32966.45
513.04	33359.66
513.21	33310.50
513.38	32818.99
513.56	33003.89
513.73	33172.41
513.90	33778.61
514.08	33322.21
514.25	33340.93
514.43	33591.37
514.60	33902.66
514.77	33448.60
514.95	34092.24
515.12	34029.05
515.29	34188.21
515.47	34309.91
515.64	34366.09
515.81	33956.49
515.99	34160.12
516.16	34178.84
516.33	33935.43
516.51	34066.50
516.68	33518.81
516.85	33221.56
517.03	33940.11
517.20	34256.08
517.37	34431.62
517.54	35110.38
517.72	34768.66
517.89	34773.34
518.06	34536.94
518.24	34590.78
518.41	34712.49
518.58	35002.71
518.75	34721.85
518.93	35529.33
519.10	35276.55
519.27	35339.75
519.45	35468.48
519.62	35791.47
519.79	35487.20
519.96	35711.89
520.14	36229.15
520.31	35716.58
520.48	35945.95
520.65	36006.80
520.83	36554.49
521.00	36624.70
521.17	36156.60
521.34	35723.60
521.52	36584.91
521.69	36858.76
521.86	37003.87
522.03	37064.72
522.20	37074.09
522.38	36587.25
522.55	36725.35
522.72	36650.45
522.89	36573.21
523.07	36950.04
523.24	36519.38
523.41	37188.77
523.58	37104.51
523.75	37532.83
523.92	37404.10
524.10	37757.52
524.27	37198.13
524.44	37909.66
524.61	37710.71
524.78	37883.91
524.96	37858.17
525.13	38265.42
525.30	38352.02
525.47	38347.34
525.64	37897.95
525.81	38281.80
525.98	38213.93
526.16	37530.49
526.33	37888.59
526.50	37923.70
526.67	37759.86
526.84	37942.42
527.01	37776.25
527.18	38298.19
527.36	38660.97
527.53	38852.89
527.70	39047.16
527.87	39159.50
528.04	38480.75
528.21	38953.54
528.38	38995.67
528.55	39105.67
528.72	38808.42
528.89	39222.70
529.07	39292.91
529.24	38857.57
529.41	38754.59
529.58	39077.58
529.75	39433.35
529.92	39611.23
530.09	39711.87
530.26	39583.14
530.43	39667.40
530.60	39363.13
530.77	39840.60
530.94	40140.19
531.11	39559.73
531.28	40048.91
531.46	40060.61
531.63	40245.51
531.80	39775.06
531.97	39683.78
532.14	40030.18
532.31	39353.77
532.48	39782.09
532.65	39847.62
532.82	40161.25
532.99	40348.50
533.16	40119.12
533.33	40217.43
533.50	40566.16
533.67	40519.35
533.84	40439.78
534.01	40315.73
534.18	40212.74
534.35	40713.62
534.52	40266.58
534.69	40308.71
534.86	40964.06
535.03	40722.98
535.20	40940.65
535.37	41045.97
535.54	41340.88
535.71	40786.18
535.88	41057.68
536.05	40823.62
536.22	41275.35
536.38	41593.66
536.55	41155.98
536.72	41209.81
536.89	41137.26
537.06	41233.22
537.23	41226.20
537.40	41621.75
537.57	41677.92
537.74	41551.53
537.91	41888.57
538.08	42148.37
538.25	41392.37
538.42	41773.88
538.59	41986.87
538.75	41223.86
538.92	41926.02
539.09	42146.03
539.26	41989.21
539.43	42050.06
539.60	41563.23
539.77	41518.76
539.94	42309.86
540.11	41825.37
540.28	42005.59
540.44	42073.47
540.61	42206.88
540.78	41907.29
540.95	42305.18
541.12	41860.48
541.29	42052.41
541.46	41687.28
541.62	42550.94
541.79	42480.72
541.96	42300.50
542.13	42508.81
542.30	42389.44
542.47	42543.92
542.63	43026.07
542.80	42974.58
542.97	43278.85
543.14	43161.82
543.31	42906.70
543.48	43353.74
543.64	43831.21
543.81	43777.38
543.98	43622.90
544.15	43220.33
544.32	43548.01
544.48	43473.11
544.65	43171.18
544.82	43672.06
544.99	43147.78
545.16	43241.40
545.32	43129.05
545.49	43372.47
545.66	43725.89
545.83	43800.79
546.00	43917.81
546.16	43540.99
546.33	43732.91
546.50	43136.07
546.67	43964.62
546.83	43416.94
547.00	43650.99
547.17	43988.03
547.34	43704.82
547.50	43889.73
547.67	44170.59
547.84	44495.92
548.00	44488.90
548.17	44210.38
548.34	43915.47
548.51	44343.79
548.67	44563.80
548.84	44437.41
549.01	44086.33
549.18	44231.44
549.34	44683.17
549.51	44580.18
549.68	44360.17
549.84	44598.91
550.01	44629.34
550.18	44182.29
550.34	44250.17
550.51	44706.57
550.68	44329.75
550.84	43679.08
551.01	44697.21
551.18	44526.35
551.34	44451.45
551.51	44645.72
551.68	44818.92
551.84	45104.46
552.01	44718.28
552.18	44411.67
552.34	44725.30
552.51	44964.03
552.68	44790.83
552.84	44978.07
553.01	45401.71
553.18	45162.98
553.34	45099.78
553.51	44582.52
553.67	45214.47
553.84	45268.30
554.01	45184.04
554.17	45607.68
554.34	45404.05
554.51	45186.38
554.67	45514.06
554.84	45577.25
555.00	45195.74
555.17	45181.70
555.33	45343.20
555.50	45338.52
555.67	45694.28
555.83	45724.71
556.00	45476.61
556.16	45694.28
556.33	45518.74
556.50	45961.10
556.66	45605.34
556.83	45216.81
556.99	45720.02
557.16	45394.69
557.32	45607.68
557.49	45617.04
557.65	45179.36
557.82	45411.07
557.98	45755.13
558.15	45071.70
558.32	45883.86
558.48	45820.67
558.65	45701.30
558.81	45537.46
558.98	45778.54
559.14	45783.22
559.31	45785.56
559.47	46171.75
559.64	46115.58
559.80	46169.41
559.97	45853.44
560.13	45832.37
560.30	45654.49
560.46	46033.66
560.63	45965.78
560.79	46045.36
560.96	46204.52
561.12	46447.93
561.29	45841.73
561.45	46064.08
561.61	45907.27
561.78	45998.55
561.94	45549.17
562.11	45879.18
562.27	46106.21
562.44	45593.64
562.60	46710.07
562.77	46583.68
562.93	46036.00
563.10	46256.01
563.26	46321.54
563.42	46426.87
563.59	45977.48
563.75	46286.43
563.92	46164.73
564.08	46513.47
564.24	46595.38
564.41	46087.49
564.57	46150.68
564.74	45993.87
564.90	46497.08
565.07	46274.73
565.23	45975.14
565.39	46321.54
565.56	46293.46
565.72	46136.64
565.88	46679.64
566.05	46157.70
566.21	46323.88
566.38	46230.26
566.54	46349.63
566.70	46134.30
566.87	47084.56
567.03	46761.56
567.19	46866.89
567.36	46724.11
567.52	46429.21
567.68	46979.23
567.85	46190.47
568.01	46665.60
568.17	46335.59
568.34	46490.06
568.50	46717.09
568.66	46457.29
568.83	46391.76
568.99	46354.31
569.15	46071.10
569.32	46429.21
569.48	46370.69
569.64	46817.74
569.81	46799.01
569.97	46358.99
570.13	46473.68
570.30	46595.38
570.46	46248.99
570.62	45963.44
570.78	46244.30
570.95	46190.47
571.11	46457.29
571.27	46291.12
571.43	46237.28
571.60	46426.87
571.76	46541.55
571.92	46986.25
572.09	46492.40
572.25	47009.66
572.41	46515.81
572.57	46375.37
572.74	47110.30
572.90	46478.36
573.06	46974.55
573.22	46962.85
573.38	46452.61
573.55	46595.38
573.71	46674.96
573.87	46639.86
574.03	46497.08
574.20	46642.20
574.36	46424.53
574.52	46841.14
574.68	46742.84
574.84	47175.84
575.01	46335.59
575.17	46859.87
575.33	46719.43
575.49	46997.96
575.65	47124.35
575.82	46927.74
575.98	46670.28
576.14	46799.01
576.30	47051.79
576.46	46579.00
576.62	46595.38
576.79	46848.16
576.95	46485.38
577.11	46576.66
577.27	46637.51
577.43	47332.65
577.59	46614.11
577.75	46745.18
577.92	46478.36
578.08	45895.56
578.24	46295.80
578.40	46382.40
578.56	46878.59
578.72	46237.28
578.88	47105.62
579.04	46485.38
579.21	46513.47
579.37	46513.47
579.53	46894.97
579.69	46745.18
579.85	46574.32
580.01	46815.40
580.17	46745.18
580.33	46904.34
580.49	46981.57
580.65	46958.17
580.82	47103.28
580.98	46892.63
581.14	46480.70
581.30	46679.64
581.46	46321.54
581.62	46777.95
581.78	46850.50
581.94	47136.05
582.10	46461.97
582.26	47000.30
582.42	46913.70
582.58	46728.80
582.74	46770.93
582.90	46904.34
583.06	47058.81
583.22	47276.48
583.38	46791.99
583.54	46920.72
583.70	46866.89
583.86	46780.29
584.02	46958.17
584.18	46796.67
584.34	47119.66
584.50	46850.50
584.66	46880.93
584.82	46653.90
584.98	47239.03
585.14	46850.50
585.30	47063.49
585.46	46714.75
585.62	46845.82
585.78	46546.23
585.94	46815.40
586.10	46951.15
586.26	46571.98
586.42	47009.66
586.58	46845.82
586.74	46841.14
586.90	46902.00
587.06	46630.49
587.22	46864.55
587.38	46452.61
587.54	47660.33
587.70	46665.60
587.86	47164.14
588.02	47091.58
588.18	46749.86
588.34	46513.47
588.49	46071.10
588.65	46373.03
588.81	46241.96
588.97	46604.75
589.13	46232.60
589.29	46677.30
589.45	47117.32
589.61	46960.51
589.77	47236.69
589.93	46677.30
