SpectraSuite Data File
++++++++++++++++++++++++++++++++++++
Date: Fri Oct 25 11:33:57 EDT 2013
User: price-jones
Dark Spectrum Present: No
Reference Spectrum Present: No
Number of Sampled Component Spectra: 1
Spectrometers: USB2+H05261
Integration Time (usec): 100000 (USB2+H05261)
Spectra Averaged: 1 (USB2+H05261)
Boxcar Smoothing: 0 (USB2+H05261)
Correct for Electrical Dark: No (USB2+H05261)
Strobe/Lamp Enabled: No (USB2+H05261)
Correct for Detector Non-linearity: No (USB2+H05261)
Correct for Stray Light: No (USB2+H05261)
Number of Pixels in Processed Spectrum: 2048
>>>>>Begin Processed Spectral Data<<<<<
365.73	313.63
365.92	313.63
366.12	313.63
366.32	189.58
366.52	180.22
366.72	238.73
366.91	135.75
367.11	175.54
367.31	98.30
367.51	182.56
367.70	229.37
367.90	168.52
368.10	196.60
368.30	191.92
368.49	194.26
368.69	163.84
368.89	126.39
369.09	117.03
369.28	271.50
369.48	220.01
369.68	262.14
369.87	224.69
370.07	266.82
370.27	285.55
370.47	353.42
370.66	477.47
370.86	543.00
371.06	538.32
371.25	615.56
371.45	617.90
371.65	528.96
371.84	505.56
372.04	559.39
372.24	641.31
372.44	601.52
372.63	610.88
372.83	662.37
373.03	645.99
373.22	613.22
373.42	608.54
373.62	603.86
373.81	599.18
374.01	674.07
374.21	552.37
374.40	601.52
374.60	660.03
374.79	645.99
374.99	620.24
375.19	578.11
375.38	594.50
375.58	727.91
375.78	657.69
375.97	730.25
376.17	706.84
376.37	697.48
376.56	660.03
376.76	697.48
376.95	737.27
377.15	669.39
377.35	718.54
377.54	674.07
377.74	681.10
377.93	650.67
378.13	690.46
378.33	798.12
378.52	660.03
378.72	706.84
378.91	664.71
379.11	697.48
379.31	601.52
379.50	744.29
379.70	730.25
379.89	741.95
380.09	777.06
380.28	730.25
380.48	751.31
380.68	737.27
380.87	660.03
381.07	744.29
381.26	758.33
381.46	791.10
381.65	727.91
381.85	734.93
382.04	812.17
382.24	800.46
382.43	772.38
382.63	791.10
382.83	816.85
383.02	840.25
383.22	861.32
383.41	802.80
383.61	814.51
383.80	716.20
384.00	828.55
384.19	847.27
384.39	847.27
384.58	840.25
384.78	828.55
384.97	828.55
385.17	833.23
385.36	772.38
385.56	833.23
385.75	826.21
385.95	802.80
386.14	837.91
386.34	915.15
386.53	870.68
386.72	830.89
386.92	947.92
387.11	954.94
387.31	856.64
387.50	877.70
387.70	847.27
387.89	816.85
388.09	884.72
388.28	877.70
388.48	805.14
388.67	887.06
388.86	966.64
389.06	873.02
389.25	947.92
389.45	931.53
389.64	990.05
389.84	1015.79
390.03	919.83
390.22	980.68
390.42	931.53
390.61	1081.33
390.81	940.90
391.00	1060.26
391.19	1006.43
391.39	999.41
391.58	1034.52
391.78	1156.22
391.97	1078.99
392.16	1034.52
392.36	1029.84
392.55	1107.07
392.75	957.28
392.94	1057.92
393.13	1125.80
393.33	1064.94
393.52	1132.82
393.71	1057.92
393.91	1144.52
394.10	1109.41
394.29	1177.29
394.49	1090.69
394.68	1090.69
394.88	1193.67
395.07	1083.67
395.26	1203.04
395.46	1008.77
395.65	1177.29
395.84	1139.84
396.04	1160.91
396.23	1174.95
396.42	1212.40
396.62	1207.72
396.81	1196.01
397.00	1186.65
397.19	1228.78
397.39	1268.57
397.58	1254.53
397.77	1336.45
397.97	1284.95
398.16	1228.78
398.35	1371.55
398.55	1287.29
398.74	1238.14
398.93	1362.19
399.12	1280.27
399.32	1268.57
399.51	1313.04
399.70	1289.64
399.90	1401.98
400.09	1432.41
400.28	1336.45
400.47	1327.08
400.67	1291.98
400.86	1430.07
401.05	1378.58
401.24	1458.15
401.44	1350.49
401.63	1500.28
401.82	1427.73
402.01	1511.99
402.21	1497.94
402.40	1413.68
402.59	1472.20
402.78	1451.13
402.97	1479.22
403.17	1570.50
403.36	1504.96
403.55	1563.48
403.74	1572.84
403.93	1521.35
404.13	1638.38
404.32	1526.03
404.51	1617.31
404.70	1692.21
404.89	1582.20
405.09	1685.19
405.28	1652.42
405.47	1715.61
405.66	1767.10
405.85	1675.82
406.05	1743.70
406.24	1724.97
406.43	1659.44
406.62	1907.54
406.81	1792.85
407.00	1750.72
407.20	1739.02
407.39	1849.02
407.58	1886.47
407.77	1877.11
407.96	1926.26
408.15	1937.96
408.34	1762.42
408.54	1926.26
408.73	1905.20
408.92	1923.92
409.11	1937.96
409.30	1991.80
409.49	1919.24
409.68	1907.54
409.87	1851.36
410.07	2108.82
410.26	1984.77
410.45	1977.75
410.64	2047.97
410.83	2176.70
411.02	2076.06
411.21	2071.37
411.40	2153.29
411.59	2209.47
411.78	2120.53
411.98	2092.44
412.17	2249.25
412.36	2289.04
412.55	2422.45
412.74	2256.28
412.93	2356.92
413.12	2284.36
413.31	2434.16
413.50	2303.09
413.69	2296.07
413.88	2525.44
414.07	2422.45
414.26	2443.52
414.45	2455.22
414.64	2471.61
414.83	2518.42
415.02	2523.10
415.22	2668.21
415.41	2675.23
415.60	2787.58
415.79	2649.49
415.98	2670.55
416.17	2738.43
416.36	2747.79
416.55	2761.83
416.74	2745.45
416.93	2862.48
417.12	2827.37
417.31	2724.38
417.50	2775.88
417.69	2909.29
417.88	2916.31
418.07	2944.39
418.26	3026.31
418.45	3012.27
418.64	3012.27
418.83	3023.97
419.02	3007.59
419.21	3094.19
419.39	3040.36
419.58	3042.70
419.77	3054.40
419.96	3038.02
420.15	3082.49
420.34	3279.09
420.53	3199.51
420.72	3293.13
420.91	3166.74
421.10	3325.90
421.29	3229.94
421.48	3178.45
421.67	3255.69
421.86	3281.43
422.05	3262.71
422.24	3267.39
422.43	3316.54
422.61	3442.93
422.80	3318.88
422.99	3325.90
423.18	3297.81
423.37	3403.14
423.56	3318.88
423.75	3213.56
423.94	3339.94
424.13	3033.33
424.32	3169.09
424.50	3431.23
424.69	3433.57
424.88	3440.59
425.07	3307.18
425.26	3463.99
425.45	3321.22
425.64	3377.39
425.83	3410.16
426.01	3421.86
426.20	3475.70
426.39	3445.27
426.58	3440.59
426.77	3478.04
426.96	3566.98
427.15	3496.76
427.33	3566.98
427.52	3456.97
427.71	3550.59
427.90	3599.74
428.09	3644.21
428.28	3756.56
428.46	3641.87
428.65	3646.55
428.84	3700.39
429.03	3906.35
429.22	3662.94
429.40	3730.81
429.59	3702.73
429.78	3634.85
429.97	3599.74
430.16	3744.86
430.34	3866.56
430.53	3936.78
430.72	3866.56
430.91	3889.97
431.10	3859.54
431.28	3955.51
431.47	3854.86
431.66	4037.42
431.85	3896.99
432.03	4093.60
432.22	4014.02
432.41	4049.13
432.60	4035.08
432.79	4021.04
432.97	4105.30
433.16	3948.48
433.35	4007.00
433.54	4016.36
433.72	4217.65
433.91	4304.25
434.10	4161.47
434.28	4081.89
434.47	4205.94
434.66	4355.74
434.85	4360.42
435.03	4346.37
435.22	4276.16
435.41	4531.28
435.59	4390.84
435.78	4449.36
435.97	4470.42
436.16	4304.25
436.34	4428.29
436.53	4514.89
436.72	4608.51
436.90	4521.92
437.09	4491.49
437.28	4444.68
437.46	4505.53
437.65	4421.27
437.84	4636.60
438.02	4587.45
438.21	4690.43
438.40	4512.55
438.58	4652.98
438.77	4781.71
438.96	4699.80
439.14	4683.41
439.33	4938.53
439.52	4919.81
439.70	4812.14
439.89	4931.51
440.08	4809.80
440.26	5043.85
440.45	4826.18
440.63	5146.84
440.82	5186.63
441.01	5100.03
441.19	5219.39
441.38	5315.36
441.57	5259.18
441.75	5247.48
441.94	5425.36
442.12	5425.36
442.31	5383.23
442.50	5469.83
442.68	5488.56
442.87	5413.66
443.05	5458.13
443.24	5544.73
443.43	5575.16
443.61	5406.64
443.80	5755.38
443.98	5479.19
444.17	5172.58
444.35	5671.12
444.54	5650.05
444.73	5598.56
444.91	5537.71
445.10	5617.29
445.28	5685.16
445.47	5486.22
445.65	5575.16
445.84	5668.78
446.02	5806.87
446.21	5720.27
446.39	5820.91
446.58	5678.14
446.77	5713.25
446.95	5572.82
447.14	5600.90
447.32	5661.76
447.51	5708.57
447.69	5666.44
447.88	5664.10
448.06	5636.01
448.25	5638.35
448.43	5827.93
448.62	5785.80
448.80	5816.23
448.99	5710.91
449.17	5879.43
449.36	5795.17
449.54	5975.39
449.73	6071.35
449.91	6127.52
450.10	5973.05
450.28	6150.93
450.46	6120.50
450.65	6169.65
450.83	6181.35
451.02	6043.26
451.20	6267.95
451.39	6380.30
451.57	6242.21
451.76	6221.14
451.94	6160.29
452.13	6235.19
452.31	6296.04
452.49	6164.97
452.68	6232.85
452.86	6279.66
453.05	6422.43
453.23	6335.83
453.42	6415.41
453.60	6342.85
453.78	6352.21
453.97	6487.96
454.15	6413.07
454.34	6305.40
454.52	6438.81
454.70	6548.82
454.89	6595.63
455.07	6394.34
455.26	6567.54
455.44	6794.58
455.62	6693.93
455.81	6530.09
455.99	6654.14
456.17	6717.34
456.36	6827.34
456.54	6703.29
456.73	6855.43
456.91	6920.96
457.09	6995.86
457.28	6855.43
457.46	6958.41
457.64	7105.87
457.83	7045.01
458.01	6944.37
458.19	7122.25
458.38	7197.15
458.56	7206.51
458.74	7148.00
458.93	7133.95
459.11	7236.94
459.29	7108.21
459.48	7225.23
459.66	7180.76
459.84	7241.62
460.03	7529.50
460.21	7332.90
460.39	7190.13
460.57	7290.77
460.76	7501.42
460.94	7482.69
461.12	7485.03
461.31	7260.34
461.49	7286.09
461.67	7517.80
461.85	7541.21
462.04	7566.95
462.22	7824.41
462.40	7712.07
462.59	7763.56
462.77	7637.17
462.95	7873.56
463.13	7590.36
463.32	7726.11
463.50	7819.73
463.68	7918.03
463.86	7903.99
464.05	7742.49
464.23	7826.75
464.41	7990.59
464.59	7775.26
464.78	8056.12
464.96	7801.01
465.14	7925.05
465.32	8109.96
465.50	8102.93
465.69	8056.12
465.87	8035.06
466.05	7957.82
466.23	7918.03
466.41	7948.46
466.60	8259.75
466.78	8086.55
466.96	8154.43
467.14	8210.60
467.32	8198.90
467.51	8336.99
467.69	7964.84
467.87	8449.33
468.05	8386.14
468.23	8262.09
468.41	8407.20
468.60	8400.18
468.78	8379.12
468.96	8430.61
469.14	8367.42
469.32	8648.28
469.50	8322.94
469.69	8463.38
469.87	8631.90
470.05	8491.46
470.23	8685.73
470.41	8711.47
470.59	8760.63
470.77	8720.84
470.95	8706.79
471.14	9212.35
471.32	8840.20
471.50	8854.25
471.68	8973.61
471.86	9027.45
472.04	9053.19
472.22	9116.39
472.40	9022.77
472.58	9125.75
472.77	9280.22
472.95	9338.74
473.13	9596.20
473.31	9446.40
473.49	9504.92
473.67	9406.61
473.85	9270.86
474.03	9837.27
474.21	9729.61
474.39	9664.07
474.57	9769.40
474.75	9518.96
474.93	9797.48
475.12	9933.23
475.30	9893.44
475.48	9961.32
475.66	10050.26
475.84	10155.58
476.02	10097.07
476.20	10169.63
476.38	10291.34
476.56	10525.39
476.74	10682.20
476.92	10590.92
477.10	10415.38
477.28	10682.20
477.46	10506.66
477.64	10726.68
477.82	10750.08
478.00	11105.84
478.18	10981.79
478.36	11185.42
478.54	11384.37
478.72	11339.90
478.90	11417.13
479.08	11660.55
479.26	11480.33
479.44	11726.08
479.62	11679.27
479.80	11971.84
479.98	12039.72
480.16	12140.36
480.34	11925.03
480.52	12182.49
480.70	12259.73
480.88	12072.48
481.06	12470.37
481.24	12343.99
481.41	12482.08
481.59	12512.50
481.77	12774.64
481.95	12854.22
482.13	12945.50
482.31	12879.97
482.49	13198.28
482.67	13256.79
482.85	13331.69
483.03	13605.53
483.21	13591.49
483.39	13708.52
483.57	13764.69
483.74	13874.70
483.92	13949.59
484.10	13963.64
484.28	14148.54
484.46	14403.66
484.64	14745.38
484.82	14340.46
485.00	14675.16
485.18	14707.93
485.35	14895.17
485.53	14932.62
485.71	15056.67
485.89	15208.80
486.07	15412.43
486.25	15066.03
486.43	15749.46
486.61	15810.32
486.78	15700.31
486.96	15786.91
487.14	15829.04
487.32	16116.93
487.50	16414.18
487.68	16407.16
487.85	16673.98
488.03	16645.89
488.21	16767.60
488.39	16688.02
488.57	17228.68
488.75	17064.85
488.92	17289.54
489.10	17348.05
489.28	17355.07
489.46	17617.21
489.64	17469.76
489.81	17919.14
489.99	18038.51
490.17	17968.29
490.35	17923.82
490.53	18462.15
490.70	18251.50
490.88	18387.25
491.06	18738.33
491.24	18750.03
491.41	19094.09
491.59	18963.02
491.77	19215.80
491.95	19264.95
492.13	19192.39
492.30	19496.66
492.48	19520.07
492.66	19702.63
492.84	19871.15
493.01	19857.10
493.19	19969.45
493.37	19981.15
493.54	20320.53
493.72	20489.05
493.90	20680.97
494.08	20517.14
494.25	20730.12
494.43	20786.30
494.61	20835.45
494.79	21598.46
494.96	21252.06
495.14	21226.32
495.32	21333.98
495.49	21668.68
495.67	21701.45
495.85	21678.04
496.02	21979.97
496.20	21986.99
496.38	22092.32
496.55	22164.87
496.73	22867.03
496.91	22345.09
497.09	22565.10
497.26	22801.50
497.44	22857.67
497.62	22864.69
497.79	23365.57
497.97	23187.69
498.14	23428.76
498.32	23674.52
498.50	23494.30
498.67	23754.10
498.85	23857.08
499.03	23976.45
499.20	23831.33
499.38	24404.77
499.56	24395.40
499.73	24332.21
499.91	24049.00
500.08	24535.84
500.26	24645.84
500.44	24561.58
500.61	24505.41
500.79	24741.80
500.97	24910.32
501.14	24896.28
501.32	25158.42
501.49	25017.99
501.67	24945.43
501.84	25530.56
502.02	25198.21
502.20	25645.25
502.37	25303.53
502.55	25476.73
502.72	25757.60
502.90	25883.98
503.07	25853.56
503.25	25898.03
503.43	25811.43
503.60	25886.32
503.78	26309.96
503.95	26216.34
504.13	26270.17
504.30	26522.95
504.48	26555.72
504.65	27129.15
504.83	27091.70
505.01	26909.14
505.18	26991.06
505.36	27262.56
505.53	27065.96
505.71	27143.19
505.88	27201.71
506.06	27108.08
506.23	27527.04
506.41	27365.54
506.58	27718.96
506.76	27278.94
506.93	27658.11
507.11	27924.93
507.28	27955.36
507.46	28018.55
507.63	28095.79
507.81	28322.82
507.98	28077.07
508.16	28362.61
508.33	28348.57
508.50	28393.04
508.68	28587.30
508.85	29034.35
509.03	28723.05
509.20	28861.15
509.38	29092.86
509.55	29457.98
509.73	29195.84
509.90	29486.07
510.08	29226.27
510.25	29188.82
510.42	29635.86
510.60	29598.41
510.77	29481.39
510.95	29862.90
511.12	29713.10
511.30	29567.99
511.47	29998.65
511.64	29811.40
511.82	30438.67
511.99	30239.72
512.17	30298.23
512.34	29944.81
512.51	30462.07
512.69	30452.71
512.86	30649.32
513.04	31051.89
513.21	30742.94
513.38	30534.63
513.56	30775.70
513.73	30785.07
513.90	30817.83
514.08	31140.83
514.25	31105.72
514.43	31325.73
514.60	31426.37
514.77	31644.04
514.95	31171.25
515.12	31543.40
515.29	31828.95
515.47	31637.02
515.64	31728.30
515.81	31800.86
515.99	31812.56
516.16	32109.81
516.33	32126.19
516.51	32496.00
516.68	32236.20
516.85	32563.87
517.03	32264.28
517.20	32524.08
517.37	32575.58
517.54	32587.28
517.72	32872.82
517.89	32608.34
518.06	33111.56
518.24	32985.17
518.41	33127.94
518.58	32914.95
518.75	33022.62
518.93	32886.87
519.10	32978.15
519.27	33116.24
519.45	33500.09
519.62	33778.61
519.79	33883.94
519.96	33556.26
520.14	33345.61
520.31	33303.48
520.48	33865.21
520.65	33773.93
520.83	34178.84
521.00	34319.28
521.17	33823.08
521.34	33972.88
521.52	34326.30
521.69	34637.59
521.86	34216.29
522.03	34459.71
522.20	34651.63
522.38	34492.47
522.55	35196.98
522.72	34941.86
522.89	34876.32
523.07	34899.73
523.24	34895.05
523.41	34850.58
523.58	35014.41
523.75	35143.14
523.92	34923.13
524.10	35075.27
524.27	35711.89
524.44	35234.42
524.61	35337.41
524.78	35739.98
524.96	36067.66
525.13	35674.45
525.30	35749.34
525.47	35772.75
525.64	35782.11
525.81	36240.86
525.98	36306.39
526.16	36020.84
526.33	35784.45
526.50	36292.35
526.67	36315.75
526.84	36247.88
527.01	36346.18
527.18	36814.29
527.36	36615.34
527.53	36847.05
527.70	37095.15
527.87	36769.82
528.04	36598.96
528.21	36758.11
528.38	37113.87
528.55	37130.26
528.72	36561.51
528.89	36947.70
529.07	36575.55
529.24	36657.47
529.41	37139.62
529.58	37160.69
529.75	37261.33
529.92	37418.14
530.09	37432.19
530.26	37291.76
530.43	37757.52
530.60	37266.01
530.77	37574.96
530.94	37460.27
531.11	37460.27
531.28	37715.39
531.46	37853.48
531.63	37766.88
531.80	38150.73
531.97	37998.60
532.14	37839.44
532.31	38026.68
532.48	38185.84
532.65	38115.62
532.82	37907.32
532.99	38176.48
533.16	38232.65
533.33	38382.45
533.50	38808.42
533.67	38478.41
533.84	38440.96
534.01	38550.96
534.18	38911.41
534.35	38981.62
534.52	39005.03
534.69	38618.84
534.86	39126.74
535.03	38705.44
535.20	38724.16
535.37	38995.67
535.54	39297.59
535.71	39185.25
535.88	39400.58
536.05	38972.26
536.22	39569.10
536.38	38728.84
536.55	39192.27
536.72	39484.84
536.89	38946.51
537.06	39826.56
537.23	39784.43
537.40	39604.20
537.57	38883.32
537.74	39625.27
537.91	40390.62
538.08	40062.95
538.25	40158.91
538.42	39882.73
538.59	40421.05
538.75	39798.47
538.92	39948.26
539.09	40463.18
539.26	40477.22
539.43	40133.17
539.60	39924.86
539.77	40472.54
539.94	40430.41
540.11	40470.20
540.28	40378.92
540.44	40409.35
540.61	40535.74
540.78	40179.98
540.95	40680.85
541.12	40451.48
541.29	40966.40
541.46	40678.51
541.62	40676.17
541.79	41359.61
541.96	40629.36
542.13	40620.00
542.30	40854.05
542.47	40875.12
542.63	41109.17
542.80	41273.01
542.97	41546.85
543.14	41783.24
543.31	41539.83
543.48	41460.25
543.64	41649.83
543.81	41684.94
543.98	41523.44
544.15	41600.68
544.32	42031.34
544.48	42415.19
544.65	41965.81
544.82	42003.25
544.99	41813.67
545.16	42143.69
545.32	42054.75
545.49	42335.61
545.66	42700.73
545.83	42302.84
546.00	42454.98
546.16	42579.03
546.33	41975.17
546.50	42199.86
546.67	42443.27
546.83	42043.04
547.00	42092.19
547.17	42120.28
547.34	42101.56
547.50	42937.13
547.67	43030.75
547.84	43016.71
548.00	42799.04
548.17	42897.34
548.34	42944.15
548.51	42890.32
548.67	43002.66
548.84	42953.51
549.01	42761.59
549.18	42990.96
549.34	43454.39
549.51	43381.83
549.68	43248.42
549.84	43033.09
550.01	43728.23
550.18	43089.26
550.34	43613.54
550.51	43442.68
550.68	43360.76
550.84	42927.77
551.01	43761.00
551.18	43318.64
551.34	43274.16
551.51	43470.77
551.68	43257.78
551.84	43510.56
552.01	43592.48
552.18	44041.86
552.34	43143.09
552.51	43723.55
552.68	43828.87
552.84	43772.70
553.01	43672.06
553.18	43880.36
553.34	43770.36
553.51	43957.60
553.67	44013.77
553.84	44247.83
554.01	43992.71
554.17	43688.44
554.34	44388.26
554.51	44402.30
554.67	44500.61
554.84	44624.65
555.00	44177.61
555.17	43934.20
555.33	44783.81
555.50	44467.84
555.67	44322.72
555.83	44367.20
556.00	44399.96
556.16	45160.64
556.33	44713.59
556.50	44296.98
556.66	44587.21
556.83	44076.97
556.99	44734.66
557.16	44844.66
557.32	44975.73
557.49	44800.19
557.65	44772.11
557.82	44566.14
557.98	44687.85
558.15	44807.22
558.32	44715.93
558.48	44648.06
558.65	45024.89
558.81	44912.54
558.98	45174.68
559.14	44432.73
559.31	45111.49
559.47	45074.04
559.64	45258.94
559.80	44781.47
559.97	44884.45
560.13	45301.07
560.30	45200.43
560.46	45570.23
560.63	45130.21
560.79	45345.54
560.96	45528.10
561.12	45354.90
561.29	45146.59
561.45	45446.18
561.61	44999.14
561.78	45102.12
561.94	45375.97
562.11	45298.73
562.27	45750.45
562.44	45130.21
562.60	45701.30
562.77	45815.99
562.93	45354.90
563.10	45853.44
563.26	45429.80
563.42	45762.15
563.59	45457.88
563.75	45612.36
563.92	45546.82
564.08	45420.44
564.24	45560.87
564.41	45844.07
564.57	45930.67
564.74	45624.06
564.90	45645.13
565.07	45958.76
565.23	45368.94
565.39	45996.21
565.56	46211.54
565.72	45490.65
565.88	45591.30
566.05	45729.39
566.21	45811.31
566.38	45628.74
566.54	46340.27
566.70	46043.02
566.87	46234.94
567.03	45792.58
567.19	46054.72
567.36	45897.91
567.52	45961.10
567.68	46052.38
567.85	46054.72
568.01	46593.04
568.17	46110.89
568.34	46124.94
568.50	46167.07
568.66	45954.08
568.83	45881.52
568.99	45769.18
569.15	45947.06
569.32	46248.99
569.48	46511.13
569.64	46234.94
569.81	46370.69
569.97	46738.16
570.13	46515.81
570.30	46010.25
570.46	46806.03
570.62	46010.25
570.78	46515.81
570.95	46532.19
571.11	46726.46
571.27	46094.51
571.43	46309.84
571.60	46307.50
571.76	45813.65
571.92	46300.48
572.09	46220.90
572.25	46464.32
572.41	46080.47
572.57	46618.79
572.74	46639.86
572.90	46188.13
573.06	46457.29
573.22	46761.56
573.38	46829.44
573.55	46679.64
573.71	46696.03
573.87	46368.35
574.03	46527.51
574.20	46691.35
574.36	46635.17
574.52	46974.55
574.68	46412.82
574.84	46518.15
575.01	46520.49
575.17	46454.95
575.33	46667.94
575.49	46616.45
575.65	46810.71
575.82	46747.52
575.98	46019.61
576.14	46902.00
576.30	46717.09
576.46	46672.62
576.62	46403.46
576.79	46246.65
576.95	46316.86
577.11	46302.82
577.27	46829.44
577.43	46609.43
577.59	46557.94
577.75	46894.97
577.92	46403.46
578.08	46834.12
578.24	46925.40
578.40	47171.16
578.56	47016.68
578.72	46967.53
578.88	46859.87
579.04	47154.77
579.21	46452.61
579.37	46796.67
579.53	46885.61
579.69	46756.88
579.85	46749.86
580.01	46677.30
580.17	46747.52
580.33	47325.63
580.49	47072.85
580.65	46913.70
580.82	46806.03
580.98	46483.04
581.14	46550.91
581.30	47302.23
581.46	46560.28
581.62	46770.93
581.78	46920.72
581.94	47264.78
582.10	46838.80
582.26	46972.21
582.42	47098.60
582.58	47189.88
582.74	46887.95
582.90	46773.27
583.06	46674.96
583.22	46813.05
583.38	47023.70
583.54	47182.86
583.70	46691.35
583.86	47274.14
584.02	46880.93
584.18	47285.84
584.34	47487.13
584.50	47442.66
584.66	46909.02
584.82	47676.71
584.98	46920.72
585.14	47072.85
585.30	47285.84
585.46	47175.84
585.62	46845.82
585.78	47047.11
585.94	46461.97
586.10	47056.47
586.26	47342.02
586.42	46644.54
586.58	46913.70
586.74	46806.03
586.90	47129.03
587.06	47316.27
587.22	47126.69
587.38	47077.54
587.54	47402.87
587.70	47318.61
587.86	47154.77
588.02	47192.22
588.18	46787.31
588.34	47260.10
588.49	47063.49
588.65	46885.61
588.81	47157.11
588.97	47084.56
589.13	47000.30
589.29	47435.64
589.45	47040.09
589.61	47288.18
589.77	46979.23
589.93	47145.41
590.08	47290.52
