SpectraSuite Data File
++++++++++++++++++++++++++++++++++++
Date: Fri Oct 25 10:43:19 EDT 2013
User: price-jones
Dark Spectrum Present: No
Reference Spectrum Present: No
Number of Sampled Component Spectra: 1
Spectrometers: USB2+H05261
Integration Time (usec): 100000 (USB2+H05261)
Spectra Averaged: 1 (USB2+H05261)
Boxcar Smoothing: 0 (USB2+H05261)
Correct for Electrical Dark: No (USB2+H05261)
Strobe/Lamp Enabled: No (USB2+H05261)
Correct for Detector Non-linearity: No (USB2+H05261)
Correct for Stray Light: No (USB2+H05261)
Number of Pixels in Processed Spectrum: 2048
>>>>>Begin Processed Spectral Data<<<<<
365.73	100.64
365.92	100.64
366.12	100.64
366.32	14.04
366.52	65.54
366.72	0.00
366.91	0.00
367.11	0.00
367.31	0.00
367.51	46.81
367.70	58.51
367.90	51.49
368.10	0.00
368.30	11.70
368.49	60.85
368.69	100.64
368.89	23.41
369.09	91.28
369.28	39.79
369.48	14.04
369.68	9.36
369.87	135.75
370.07	11.70
370.27	135.75
370.47	163.84
370.66	395.55
370.86	341.72
371.06	528.96
371.25	475.13
371.45	416.62
371.65	482.15
371.84	503.22
372.04	491.51
372.24	531.30
372.44	496.19
372.63	461.09
372.83	561.73
373.03	526.62
373.22	543.00
373.42	449.38
373.62	493.85
373.81	592.16
374.01	571.09
374.21	615.56
374.40	531.30
374.60	631.94
374.79	617.90
374.99	561.73
375.19	573.43
375.38	524.28
375.58	645.99
375.78	608.54
375.97	557.05
376.17	622.58
376.37	601.52
376.56	622.58
376.76	587.47
376.95	601.52
377.15	610.88
377.35	695.14
377.54	657.69
377.74	606.20
377.93	587.47
378.13	608.54
378.33	664.71
378.52	620.24
378.72	678.76
378.91	660.03
379.11	655.35
379.31	601.52
379.50	641.31
379.70	730.25
379.89	669.39
380.09	676.41
380.28	692.80
380.48	681.10
380.68	683.44
380.87	678.76
381.07	697.48
381.26	748.97
381.46	620.24
381.65	664.71
381.85	643.65
382.04	716.20
382.24	657.69
382.43	734.93
382.63	748.97
382.83	650.67
383.02	685.78
383.22	814.51
383.41	667.05
383.61	828.55
383.80	779.40
384.00	828.55
384.19	837.91
384.39	777.06
384.58	842.59
384.78	737.27
384.97	821.53
385.17	748.97
385.36	894.08
385.56	774.72
385.75	772.38
385.95	800.46
386.14	809.83
386.34	830.89
386.53	870.68
386.72	837.91
386.92	821.53
387.11	833.23
387.31	842.59
387.50	819.19
387.70	917.49
387.89	849.61
388.09	805.14
388.28	912.81
388.48	828.55
388.67	922.17
388.86	884.72
389.06	891.74
389.25	943.24
389.45	905.79
389.64	915.15
389.84	976.00
390.03	943.24
390.22	1064.94
390.42	999.41
390.61	910.47
390.81	971.32
391.00	1137.50
391.19	1064.94
391.39	1057.92
391.58	999.41
391.78	1006.43
391.97	1139.84
392.16	1076.65
392.36	1102.39
392.55	971.32
392.75	901.11
392.94	1018.13
393.13	1069.62
393.33	1018.13
393.52	1093.03
393.71	1081.33
393.91	1004.09
394.10	1102.39
394.29	1086.01
394.49	1135.16
394.68	1242.82
394.88	1172.61
395.07	1252.19
395.26	1198.35
395.46	1207.72
395.65	1198.35
395.84	1181.97
396.04	1167.93
396.23	1214.74
396.42	1247.51
396.62	1196.01
396.81	1242.82
397.00	1249.85
397.19	1233.46
397.39	1291.98
397.58	1303.68
397.77	1252.19
397.97	1458.15
398.16	1533.05
398.35	1364.53
398.55	1380.92
398.74	1434.75
398.93	1516.67
399.12	1460.49
399.32	1526.03
399.51	1486.24
399.70	1490.92
399.90	1549.43
400.09	1556.46
400.28	1626.67
400.47	1540.07
400.67	1629.01
400.86	1600.93
401.05	1652.42
401.24	1624.33
401.44	1750.72
401.63	1767.10
401.82	1769.44
402.01	1710.93
402.21	1706.25
402.40	1598.59
402.59	1668.80
402.78	1732.00
402.97	1741.36
403.17	1795.19
403.36	1778.81
403.55	1802.21
403.74	1949.67
403.93	1919.24
404.13	1839.66
404.32	1781.15
404.51	1921.58
404.70	2010.52
404.89	1884.13
405.09	1998.82
405.28	1923.92
405.47	1944.99
405.66	1891.15
405.85	1966.05
406.05	1984.77
406.24	1966.05
406.43	1975.41
406.62	1984.77
406.81	2097.12
407.00	1923.92
407.20	2031.58
407.39	2120.53
407.58	2179.04
407.77	2073.71
407.96	2176.70
408.15	2228.19
408.34	2132.23
408.54	2331.17
408.73	2246.91
408.92	2321.81
409.11	2354.58
409.30	2356.92
409.49	2246.91
409.68	2352.24
409.87	2211.81
410.07	2382.67
410.26	2317.13
410.45	2406.07
410.64	2310.11
410.83	2321.81
411.02	2530.12
411.21	2546.50
411.40	2457.56
411.59	2502.03
411.78	2473.95
411.98	2597.99
412.17	2635.44
412.36	2740.77
412.55	2717.36
412.74	2752.47
412.93	2822.69
413.12	2719.70
413.31	2902.26
413.50	2764.17
413.69	2834.39
413.88	2810.98
414.07	2862.48
414.26	2932.69
414.45	2883.54
414.64	2930.35
414.83	3012.27
415.02	2965.46
415.22	2956.10
415.41	3171.43
415.60	3105.89
415.79	3103.55
415.98	3129.30
416.17	3307.18
416.36	3061.42
416.55	3129.30
416.74	3157.38
416.93	3194.83
417.12	3098.87
417.31	3300.16
417.50	3351.65
417.69	3365.69
417.88	3314.20
418.07	3442.93
418.26	3356.33
418.45	3396.12
418.64	3520.17
418.83	3569.32
419.02	3651.24
419.21	3566.98
419.39	3538.89
419.58	3482.72
419.77	3566.98
419.96	3508.46
420.15	3744.86
420.34	3667.62
420.53	3819.75
420.72	3854.86
420.91	3655.92
421.10	3805.71
421.29	3786.99
421.48	3733.15
421.67	3758.90
421.86	3740.18
422.05	3775.28
422.24	3604.42
422.43	3679.32
422.61	3674.64
422.80	4011.68
422.99	3871.25
423.18	3946.14
423.37	4046.79
423.56	3904.01
423.75	3819.75
423.94	3948.48
424.13	3681.66
424.32	3765.92
424.50	3824.44
424.69	3971.89
424.88	3927.42
425.07	3978.91
425.26	3824.44
425.45	3822.09
425.64	3887.63
425.83	3908.69
426.01	4009.34
426.20	3955.51
426.39	3953.16
426.58	3904.01
426.77	3920.40
426.96	3948.48
427.15	3983.59
427.33	4072.53
427.52	3918.06
427.71	4126.36
427.90	4079.55
428.09	4170.83
428.28	4163.81
428.46	4044.45
428.65	4128.70
428.84	4294.88
429.03	4257.43
429.22	4145.09
429.40	4119.34
429.59	4032.74
429.78	3992.95
429.97	3845.50
430.16	3899.33
430.34	4037.42
430.53	4063.17
430.72	4152.11
430.91	4180.20
431.10	4327.65
431.28	4498.51
431.47	4542.98
431.66	4624.90
431.85	4505.53
432.03	4533.62
432.22	4636.60
432.41	4641.28
432.60	4608.51
432.79	4655.33
432.97	4760.65
433.16	4704.48
433.35	4498.51
433.54	4615.54
433.72	4550.00
433.91	4620.22
434.10	4793.42
434.28	4664.69
434.47	4880.02
434.66	4912.78
434.85	4957.25
435.03	4908.10
435.22	4931.51
435.41	5149.18
435.59	4905.76
435.78	5057.90
435.97	5060.24
436.16	5095.35
436.34	5036.83
436.53	4980.66
436.72	5224.08
436.90	4997.04
437.09	5146.84
437.28	5071.94
437.46	4908.10
437.65	5114.07
437.84	5139.82
438.02	5071.94
438.21	5184.29
438.40	5130.45
438.58	5188.97
438.77	5298.97
438.96	5472.17
439.14	5320.04
439.33	5406.64
439.52	5481.53
439.70	5617.29
439.89	5633.67
440.08	5675.80
440.26	5605.58
440.45	5760.06
440.63	5760.06
440.82	5909.85
441.01	5790.49
441.19	5809.21
441.38	5949.64
441.57	6083.05
441.75	6181.35
441.94	6202.42
442.12	6167.31
442.31	6319.45
442.50	6239.87
442.68	6345.19
442.87	6286.68
443.05	6406.05
443.24	6321.79
443.43	6314.77
443.61	6361.58
443.80	6473.92
443.98	6356.90
444.17	6265.61
444.35	6462.22
444.54	6448.18
444.73	6651.80
444.91	6335.83
445.10	6516.05
445.28	6363.92
445.47	6228.17
445.65	6223.48
445.84	6368.60
446.02	6464.56
446.21	6548.82
446.39	6499.67
446.58	6651.80
446.77	6640.10
446.95	6527.75
447.14	6511.37
447.32	6796.92
447.51	6642.44
447.69	6642.44
447.88	6569.88
448.06	6509.03
448.25	6628.40
448.43	6541.80
448.62	6431.79
448.80	6754.79
448.99	6817.98
449.17	6757.13
449.36	6705.63
449.54	6930.33
449.73	7028.63
449.91	7005.22
450.10	7040.33
450.28	7087.14
450.46	7035.65
450.65	7187.79
450.83	7026.29
451.02	7136.29
451.20	7227.57
451.39	7218.21
451.57	6998.20
451.76	7037.99
451.94	7176.08
452.13	7213.53
452.31	7265.02
452.49	7215.87
452.68	7042.67
452.86	7103.53
453.05	7105.87
453.23	7248.64
453.42	7138.63
453.60	7236.94
453.78	7520.14
453.97	7382.05
454.15	7248.64
454.34	7293.11
454.52	7552.91
454.70	7337.58
454.89	7482.69
455.07	7440.56
455.26	7581.00
455.44	7714.41
455.62	7634.83
455.81	7611.42
455.99	7648.87
456.17	7747.17
456.36	7723.77
456.54	7786.96
456.73	7866.54
456.91	8093.57
457.09	8035.06
457.28	8098.25
457.46	8049.10
457.64	8046.76
457.83	8011.65
458.01	7779.94
458.19	8189.53
458.38	8107.62
458.56	8142.72
458.74	8013.99
458.93	8088.89
459.11	8222.30
459.29	8217.62
459.48	8404.86
459.66	8283.16
459.84	8259.75
460.03	8545.30
460.21	8489.12
460.39	8409.54
460.57	8498.49
460.76	8540.61
460.94	8610.83
461.12	8526.57
461.31	8496.14
461.49	8622.53
461.67	8610.83
461.85	8861.27
462.04	8690.41
462.22	9252.14
462.40	8842.54
462.59	8844.88
462.77	8737.22
462.95	8842.54
463.13	8973.61
463.32	9095.32
463.50	8924.46
463.68	8786.37
463.86	8819.14
464.05	8809.78
464.23	8861.27
464.41	8830.84
464.59	8645.94
464.78	8980.64
464.96	9032.13
465.14	8936.17
465.32	9018.08
465.50	9165.54
465.69	9083.62
465.87	9102.34
466.05	9287.25
466.23	9172.56
466.41	9214.69
466.60	9303.63
466.78	9004.04
466.96	9100.00
467.14	9334.06
467.32	9275.54
467.51	9404.27
467.69	8933.82
467.87	9415.98
468.05	9282.56
468.23	9357.46
468.41	9385.55
468.60	9537.68
468.78	9514.28
468.96	9451.08
469.14	9884.08
469.32	9797.48
469.50	9448.74
469.69	9619.60
469.87	9769.40
470.05	9734.29
470.23	9600.88
470.41	9748.33
470.59	9961.32
470.77	9977.70
470.95	9987.07
471.14	9916.85
471.32	9760.03
471.50	10256.23
471.68	10178.99
471.86	10178.99
472.04	10253.89
472.22	10530.07
472.40	10118.14
472.58	10221.12
472.77	10303.04
472.95	10548.79
473.13	10771.15
473.31	10333.47
473.49	10471.56
473.67	10377.94
473.85	10541.77
474.03	10832.00
474.21	10768.80
474.39	10717.31
474.57	11023.92
474.75	11178.40
474.93	11222.87
475.12	10892.85
475.30	11197.12
475.48	11185.42
475.66	11133.93
475.84	11180.74
476.02	11311.81
476.20	11445.22
476.38	11470.97
476.56	11908.65
476.74	11672.25
476.92	11705.02
477.10	11611.40
477.28	12123.98
477.46	11971.84
477.64	12292.49
477.82	12248.02
478.00	12353.35
478.18	12264.41
478.36	12409.52
478.54	12594.42
478.72	12369.73
478.90	12681.02
479.08	12814.43
479.26	13116.36
479.44	13006.36
479.62	13062.53
479.80	13198.28
479.98	13238.07
480.16	13373.82
480.34	13392.55
480.52	13373.82
480.70	13633.62
480.88	13514.25
481.06	13921.51
481.24	13975.34
481.41	14078.32
481.59	14305.35
481.77	14429.40
481.95	14092.37
482.13	14403.66
482.31	14335.78
482.49	14815.59
482.67	14635.37
482.85	14916.23
483.03	15075.39
483.21	15147.95
483.39	15236.89
483.57	15145.61
483.74	15379.66
483.92	15398.38
484.10	15187.74
484.28	15695.63
484.46	15812.66
484.64	16133.31
484.82	15995.22
485.00	15946.07
485.18	16416.52
485.35	16358.00
485.53	15941.39
485.71	16011.60
485.89	16255.02
486.07	16198.85
486.25	16428.22
486.43	16966.54
486.61	16755.90
486.78	17123.36
486.96	17057.82
487.14	17455.72
487.32	17518.91
487.50	17816.16
487.68	17816.16
487.85	18232.77
488.03	18134.47
488.21	18462.15
488.39	18160.22
488.57	18448.10
488.75	18551.09
488.92	18740.67
489.10	19019.19
489.28	19194.73
489.46	19648.80
489.64	19559.86
489.81	19761.14
489.99	19868.81
490.17	20219.89
490.35	20262.02
490.53	19978.81
490.70	20016.26
490.88	20219.89
491.06	20570.97
491.24	20437.56
491.41	20484.37
491.59	20620.12
491.77	20402.45
491.95	20659.91
492.13	21142.06
492.30	21198.23
492.48	21352.71
492.66	21392.50
492.84	21678.04
493.01	21975.29
493.19	21483.78
493.37	21830.18
493.54	22122.74
493.72	22347.44
493.90	22455.10
494.08	22658.73
494.25	22614.26
494.43	22972.36
494.61	23405.36
494.79	23232.16
494.96	23243.86
495.14	23330.46
495.32	23716.65
495.49	23356.21
495.67	23632.39
495.85	23885.17
496.02	23922.62
496.20	24063.05
496.38	24163.69
496.55	24060.71
496.73	24329.87
496.91	24407.11
497.09	24589.67
497.26	24844.79
497.44	24940.75
497.62	25240.34
497.79	25226.29
497.97	25191.19
498.14	25001.60
498.32	25240.34
498.50	25268.42
498.67	25855.90
498.85	25706.10
499.03	25792.70
499.20	26115.70
499.38	26031.44
499.56	25818.45
499.73	26089.95
499.91	26471.46
500.08	26377.84
500.26	25965.90
500.44	26429.33
500.61	26497.20
500.79	26103.99
500.97	26792.11
501.14	26501.89
501.32	27138.51
501.49	27063.61
501.67	26668.06
501.84	26918.50
502.02	27290.65
502.20	27634.71
502.37	27459.16
502.55	27641.73
502.72	27819.61
502.90	27716.62
503.07	27665.13
503.25	28266.65
503.43	27791.52
503.60	28002.17
503.78	27604.28
503.95	27805.56
504.13	27981.10
504.30	28294.74
504.48	28547.51
504.65	28514.75
504.83	28219.84
505.01	28772.21
505.18	28694.97
505.36	29106.90
505.53	29184.14
505.71	29752.89
505.88	29748.21
506.06	28849.44
506.23	29376.06
506.41	29457.98
506.58	29703.74
506.76	29415.85
506.93	29762.25
507.11	29589.05
507.28	29811.40
507.46	29692.04
507.63	29745.87
507.81	30305.26
507.98	29926.09
508.16	29933.11
508.33	30242.06
508.50	30309.94
508.68	30338.02
508.85	30787.41
509.03	30864.64
509.20	30618.89
509.38	31201.68
509.55	31051.89
509.73	31103.38
509.90	31243.81
510.08	30850.60
510.25	31220.41
510.42	31292.96
510.60	31608.93
510.77	31658.09
510.95	31412.33
511.12	31737.66
511.30	31639.36
511.47	31517.65
511.64	31842.99
511.82	32217.47
511.99	31828.95
512.17	31943.63
512.34	32261.94
512.51	32297.05
512.69	32301.73
512.86	32453.87
513.04	32245.56
513.21	32622.39
513.38	32774.52
513.56	32800.27
513.73	32416.42
513.90	32893.89
514.08	32685.58
514.25	33383.06
514.43	32723.03
514.60	33263.69
514.77	32936.02
514.95	33392.42
515.12	33095.18
515.29	33708.40
515.47	33539.88
515.64	33654.56
515.81	33443.91
515.99	33876.91
516.16	33427.53
516.33	33474.34
516.51	33315.19
516.68	33111.56
516.85	33338.59
517.03	32943.04
517.20	33787.97
517.37	33799.68
517.54	34000.96
517.72	33837.12
517.89	33748.18
518.06	34000.96
518.24	33546.90
518.41	34022.03
518.58	34117.99
518.75	34597.80
518.93	34527.58
519.10	34813.13
519.27	35178.25
519.45	34815.47
519.62	34663.33
519.79	35267.19
519.96	35082.29
520.14	34988.67
520.31	34691.42
520.48	35103.35
520.65	34899.73
520.83	35442.73
521.00	35461.46
521.17	35576.14
521.34	35948.29
521.52	35878.07
521.69	35777.43
521.86	36177.66
522.03	36182.34
522.20	35524.65
522.38	36107.44
522.55	36168.30
522.72	35728.28
522.89	35985.74
523.07	36493.63
523.24	36545.12
523.41	36940.68
523.58	36165.96
523.75	37095.15
523.92	36982.80
524.10	36715.98
524.27	36741.73
524.44	37141.96
524.61	36825.99
524.78	36840.03
524.96	37090.47
525.13	36823.65
525.30	37399.42
525.47	37116.22
525.64	37614.75
525.81	37113.87
525.98	37415.80
526.16	37029.62
526.33	37038.98
526.50	36926.63
526.67	36989.83
526.84	36788.54
527.01	36975.78
527.18	37235.58
527.36	37689.65
527.53	38132.01
527.70	37806.67
527.87	37923.70
528.04	37865.19
528.21	38333.29
528.38	38237.33
528.55	38099.24
528.72	38326.27
528.89	38656.29
529.07	38188.18
529.24	38567.35
529.41	37989.24
529.58	38541.60
529.75	38195.20
529.92	38852.89
530.09	38995.67
530.26	38845.87
530.43	38684.37
530.60	38801.40
530.77	38792.04
530.94	39016.73
531.11	38862.26
531.28	39306.96
531.46	38862.26
531.63	39393.56
531.80	38993.32
531.97	39189.93
532.14	39133.76
532.31	38604.80
532.48	39295.25
532.65	39002.69
532.82	39309.30
532.99	39047.16
533.16	39182.91
533.33	39295.25
533.50	39854.64
533.67	39566.76
533.84	39676.76
534.01	39651.02
534.18	39859.32
534.35	39842.94
534.52	39494.20
534.69	40081.67
534.86	40126.14
535.03	40051.25
535.20	40179.98
535.37	40690.21
535.54	40748.73
535.71	39859.32
535.88	40399.99
536.05	40435.10
536.22	40437.44
536.38	40133.17
536.55	40343.81
536.72	40538.08
536.89	40093.38
537.06	40390.62
537.23	40535.74
537.40	40678.51
537.57	40645.74
537.74	40563.82
537.91	40741.71
538.08	40680.85
538.25	41020.23
538.42	40493.61
538.59	41083.42
538.75	40645.74
538.92	40451.48
539.09	41045.97
539.26	41034.27
539.43	41071.72
539.60	41174.70
539.77	41081.08
539.94	40912.56
540.11	40694.89
540.28	40999.16
540.44	40886.82
540.61	41392.37
540.78	41015.55
540.95	41514.08
541.12	40971.08
541.29	41177.04
541.46	41462.59
541.62	41818.35
541.79	41860.48
541.96	41324.50
542.13	41228.54
542.30	41092.79
542.47	41766.86
542.63	42047.72
542.80	41830.05
542.97	41563.23
543.14	42131.98
543.31	41818.35
543.48	42234.97
543.64	42291.14
543.81	42429.23
543.98	42403.49
544.15	42246.67
544.32	42731.16
544.48	42602.43
544.65	42492.43
544.82	42625.84
544.99	41820.69
545.16	42384.76
545.32	42157.73
545.49	43005.00
545.66	43131.39
545.83	42672.65
546.00	42515.83
546.16	42845.85
546.33	42305.18
546.50	42478.38
546.67	42810.74
546.83	42632.86
547.00	42712.44
547.17	42873.93
547.34	43126.71
547.50	42869.25
547.67	43262.46
547.84	43276.51
548.00	43234.38
548.17	43718.87
548.34	43005.00
548.51	43686.10
548.67	43423.96
548.84	43384.17
549.01	43332.68
549.18	43320.98
549.34	43351.40
549.51	43337.36
549.68	43164.16
549.84	43482.47
550.01	43536.30
550.18	43391.19
550.34	43412.26
550.51	43456.73
550.68	43449.70
550.84	43098.62
551.01	43232.04
551.18	43728.23
551.34	43597.16
551.51	43765.68
551.68	43894.41
551.84	43966.96
552.01	43377.15
552.18	44065.27
552.34	43217.99
552.51	44161.23
552.68	44065.27
552.84	44128.46
553.01	44383.58
553.18	44053.56
553.34	44341.45
553.51	43665.03
553.67	44041.86
553.84	44428.05
554.01	44645.72
554.17	44451.45
554.34	44196.34
554.51	44343.79
554.67	44556.78
554.84	44168.25
555.00	44107.40
555.17	44397.62
555.33	44505.29
555.50	44355.49
555.67	44549.76
555.83	44729.98
556.00	44514.65
556.16	44896.16
556.33	44392.94
556.50	44144.84
556.66	44484.22
556.83	44165.91
556.99	44758.06
557.16	44385.92
557.32	44364.85
557.49	44554.44
557.65	44570.82
557.82	44765.09
557.98	44769.77
558.15	44912.54
558.32	44882.11
558.48	44114.42
558.65	45045.95
558.81	44313.36
558.98	44626.99
559.14	44552.10
559.31	44451.45
559.47	44535.71
559.64	44713.59
559.80	44837.64
559.97	44624.65
560.13	44123.78
560.30	44816.58
560.46	44807.22
560.63	45106.80
560.79	45287.03
560.96	45340.86
561.12	44884.45
561.29	44849.35
561.45	45212.13
561.61	44629.34
561.78	44980.42
561.94	44580.18
562.11	44835.30
562.27	44898.50
562.44	44725.30
562.60	45343.20
562.77	45282.34
562.93	44910.20
563.10	45055.31
563.26	45151.27
563.42	45537.46
563.59	44687.85
563.75	45193.40
563.92	45319.79
564.08	44947.65
564.24	45457.88
564.41	45436.82
564.57	45270.64
564.74	44804.88
564.90	45195.74
565.07	45488.31
565.23	45357.24
565.39	45062.33
565.56	45415.76
565.72	44863.39
565.88	45375.97
566.05	45036.59
566.21	44519.33
566.38	45277.66
566.54	45272.98
566.70	45633.42
566.87	45808.96
567.03	45525.76
567.19	45673.21
567.36	45797.26
567.52	45202.77
567.68	45141.91
567.85	45497.67
568.01	45305.75
568.17	45537.46
568.34	45579.59
568.50	45420.44
568.66	45525.76
568.83	45654.49
568.99	45116.17
569.15	45134.89
569.32	45401.71
569.48	45436.82
569.64	45675.55
569.81	45235.53
569.97	45525.76
570.13	45469.59
570.30	44903.18
570.46	45181.70
570.62	45294.05
570.78	45130.21
570.95	44985.10
571.11	45579.59
571.27	45439.16
571.43	45488.31
571.60	45539.80
571.76	45408.73
571.92	45553.85
572.09	46014.93
572.25	45647.47
572.41	45881.52
572.57	45771.52
572.74	46028.98
572.90	45684.92
573.06	46050.04
573.22	45258.94
573.38	45771.52
573.55	45282.34
573.71	45265.96
573.87	45867.48
574.03	45413.41
574.20	45579.59
574.36	45743.43
574.52	45736.41
574.68	45500.01
574.84	45471.93
575.01	45797.26
575.17	45743.43
575.33	45645.13
575.49	45619.38
575.65	45893.22
575.82	45977.48
575.98	45565.55
576.14	45656.83
576.30	45724.71
576.46	45717.68
576.62	45530.44
576.79	45893.22
576.95	45443.84
577.11	45930.67
577.27	45752.79
577.43	45818.33
577.59	45340.86
577.75	45518.74
577.92	45282.34
578.08	45202.77
578.24	45160.64
578.40	45696.62
578.56	45551.51
578.72	45411.07
578.88	46078.13
579.04	45713.00
579.21	45359.58
579.37	45734.07
579.53	45394.69
579.69	45603.00
579.85	45439.16
580.01	45731.73
580.17	45207.45
580.33	45411.07
580.49	45839.39
580.65	45514.06
580.82	45830.03
580.98	45338.52
581.14	45212.13
581.30	45752.79
581.46	45303.41
581.62	45879.18
581.78	45705.98
581.94	45490.65
582.10	45907.27
582.26	45574.91
582.42	45968.12
582.58	45797.26
582.74	45790.24
582.90	45668.53
583.06	45815.99
583.22	46071.10
583.38	46382.40
583.54	46225.58
583.70	45591.30
583.86	45544.48
584.02	45860.46
584.18	45780.88
584.34	45996.21
584.50	45581.93
584.66	46239.62
584.82	45600.66
584.98	46169.41
585.14	45876.84
585.30	45380.65
585.46	45839.39
585.62	45354.90
585.78	45797.26
585.94	45254.26
586.10	45783.22
586.26	45331.50
586.42	45876.84
586.58	45813.65
586.74	45811.31
586.90	45703.64
587.06	45539.80
587.22	46176.43
587.38	45942.38
587.54	45743.43
587.70	46160.05
587.86	45827.69
588.02	45851.09
588.18	45783.22
588.34	45537.46
588.49	45397.03
588.65	45563.21
588.81	45188.72
588.97	45385.33
589.13	45666.19
589.29	45113.83
589.45	44774.45
589.61	45436.82
589.77	45778.54
589.93	45542.14
590.08	46019.61
