SpectraSuite Data File
++++++++++++++++++++++++++++++++++++
Date: Fri Oct 25 11:22:41 EDT 2013
User: price-jones
Dark Spectrum Present: No
Reference Spectrum Present: No
Number of Sampled Component Spectra: 1
Spectrometers: USB2+H05261
Integration Time (usec): 100000 (USB2+H05261)
Spectra Averaged: 1 (USB2+H05261)
Boxcar Smoothing: 0 (USB2+H05261)
Correct for Electrical Dark: No (USB2+H05261)
Strobe/Lamp Enabled: No (USB2+H05261)
Correct for Detector Non-linearity: No (USB2+H05261)
Correct for Stray Light: No (USB2+H05261)
Number of Pixels in Processed Spectrum: 2048
>>>>>Begin Processed Spectral Data<<<<<
365.73	276.18
365.92	276.18
366.12	276.18
366.32	142.77
366.52	95.96
366.72	168.52
366.91	107.66
367.11	126.39
367.31	98.30
367.51	138.09
367.70	175.54
367.90	163.84
368.10	84.26
368.30	124.05
368.49	128.73
368.69	149.79
368.89	138.09
369.09	145.11
369.28	98.30
369.48	126.39
369.68	187.24
369.87	194.26
370.07	215.33
370.27	163.84
370.47	339.38
370.66	645.99
370.86	662.37
371.06	676.41
371.25	645.99
371.45	648.33
371.65	629.60
371.84	746.63
372.04	648.33
372.24	662.37
372.44	678.76
372.63	774.72
372.83	720.88
373.03	767.70
373.22	791.10
373.42	777.06
373.62	760.67
373.81	732.59
374.01	770.04
374.21	704.50
374.40	774.72
374.60	800.46
374.79	812.17
374.99	870.68
375.19	866.00
375.38	940.90
375.58	819.19
375.78	875.36
375.97	851.96
376.17	844.93
376.37	938.55
376.56	896.43
376.76	903.45
376.95	856.64
377.15	894.08
377.35	896.43
377.54	873.02
377.74	891.74
377.93	884.72
378.13	887.06
378.33	777.06
378.52	851.96
378.72	1013.45
378.91	945.58
379.11	922.17
379.31	947.92
379.50	1020.47
379.70	1004.09
379.89	999.41
380.09	929.19
380.28	908.13
380.48	978.34
380.68	917.49
380.87	978.34
381.07	978.34
381.26	987.71
381.46	997.07
381.65	1053.24
381.85	973.66
382.04	1020.47
382.24	1008.77
382.43	978.34
382.63	1020.47
382.83	1046.22
383.02	1060.26
383.22	1076.65
383.41	1102.39
383.61	1048.56
383.80	1090.69
384.00	1088.35
384.19	1107.07
384.39	1071.97
384.58	1149.20
384.78	1153.88
384.97	1165.59
385.17	1078.99
385.36	1153.88
385.56	1153.88
385.75	1130.48
385.95	1179.63
386.14	1228.78
386.34	1179.63
386.53	1214.74
386.72	1181.97
386.92	1273.25
387.11	1261.55
387.31	1259.21
387.50	1200.69
387.70	1200.69
387.89	1301.34
388.09	1231.12
388.28	1252.19
388.48	1291.98
388.67	1306.02
388.86	1373.89
389.06	1320.06
389.25	1416.02
389.45	1355.17
389.64	1315.38
389.84	1441.77
390.03	1460.49
390.22	1364.53
390.42	1357.51
390.61	1394.96
390.81	1404.32
391.00	1439.43
391.19	1479.22
391.39	1362.19
391.58	1394.96
391.78	1444.11
391.97	1423.05
392.16	1476.88
392.36	1547.09
392.55	1488.58
392.75	1568.16
392.94	1430.07
393.13	1598.59
393.33	1507.30
393.52	1633.69
393.71	1596.25
393.91	1598.59
394.10	1582.20
394.29	1537.73
394.49	1542.41
394.68	1645.40
394.88	1600.93
395.07	1687.53
395.26	1629.01
395.46	1750.72
395.65	1727.32
395.84	1701.57
396.04	1837.32
396.23	1710.93
396.42	1790.51
396.62	1795.19
396.81	1834.98
397.00	1755.40
397.19	1724.97
397.39	1823.28
397.58	1811.57
397.77	1771.79
397.97	1813.92
398.16	2033.93
398.35	1870.09
398.55	1888.81
398.74	1968.39
398.93	2031.58
399.12	2012.86
399.32	1916.90
399.51	1928.60
399.70	2066.69
399.90	1909.88
400.09	2003.50
400.28	2113.50
400.47	2078.40
400.67	2181.38
400.86	2026.90
401.05	1952.01
401.24	2200.10
401.44	2038.61
401.63	2218.83
401.82	2249.25
402.01	2132.23
402.21	2197.76
402.40	2146.27
402.59	2176.70
402.78	2221.17
402.97	2228.19
403.17	2298.41
403.36	2235.21
403.55	2200.10
403.74	2410.75
403.93	2267.98
404.13	2363.94
404.32	2305.43
404.51	2464.58
404.70	2370.96
404.89	2319.47
405.09	2497.35
405.28	2553.52
405.47	2504.37
405.66	2448.20
405.85	2506.71
406.05	2567.57
406.24	2567.57
406.43	2576.93
406.62	2553.52
406.81	2754.81
407.00	2518.42
407.20	2520.76
407.39	2698.64
407.58	2787.58
407.77	2595.65
407.96	2750.13
408.15	2698.64
408.34	2581.61
408.54	2794.60
408.73	2841.41
408.92	2902.26
409.11	2918.65
409.30	2911.63
409.49	2862.48
409.68	2979.50
409.87	3052.06
410.07	2993.55
410.26	3103.55
410.45	2981.84
410.64	3082.49
410.83	3070.78
411.02	3131.64
411.21	3143.34
411.40	3115.25
411.59	3344.63
411.78	3225.26
411.98	3183.13
412.17	3253.34
412.36	3225.26
412.55	3421.86
412.74	3503.78
412.93	3391.44
413.12	3403.14
413.31	3527.19
413.50	3583.36
413.69	3585.70
413.88	3655.92
414.07	3595.06
414.26	3695.71
414.45	3733.15
414.64	3618.47
414.83	3730.81
415.02	3840.82
415.22	3978.91
415.41	3805.71
415.60	3826.78
415.79	3918.06
415.98	3969.55
416.17	4053.81
416.36	4032.74
416.55	4142.75
416.74	4044.45
416.93	4084.23
417.12	4077.21
417.31	4175.52
417.50	4210.62
417.69	4255.09
417.88	4222.33
418.07	4325.31
418.26	4248.07
418.45	4365.10
418.64	4538.30
418.83	4468.08
419.02	4678.73
419.21	4463.40
419.39	4662.35
419.58	4437.66
419.77	4444.68
419.96	4587.45
420.15	4528.94
420.34	4660.01
420.53	4645.96
420.72	4781.71
420.91	4812.14
421.10	4699.80
421.29	4835.55
421.48	4777.03
421.67	4720.86
421.86	4784.06
422.05	4741.93
422.24	4697.46
422.43	4952.57
422.61	4882.36
422.80	5102.37
422.99	5011.09
423.18	4959.60
423.37	5027.47
423.56	4926.83
423.75	5013.43
423.94	4954.91
424.13	4540.64
424.32	4781.71
424.50	4952.57
424.69	5036.83
424.88	5090.67
425.07	5074.28
425.26	5111.73
425.45	5081.30
425.64	4762.99
425.83	5008.75
426.01	5006.41
426.20	5004.07
426.39	5163.22
426.58	5006.41
426.77	5153.86
426.96	5195.99
427.15	5195.99
427.33	5181.95
427.52	5050.88
427.71	5303.65
427.90	5357.49
428.09	5420.68
428.28	5420.68
428.46	5352.81
428.65	5458.13
428.84	5547.07
429.03	5458.13
429.22	5362.17
429.40	5451.11
429.59	5579.84
429.78	5336.42
429.97	5273.23
430.16	5526.00
430.34	5591.54
430.53	5774.10
430.72	5785.80
430.91	5605.58
431.10	5614.95
431.28	5661.76
431.47	5717.93
431.66	5928.58
431.85	5776.44
432.03	5968.37
432.22	6066.67
432.41	5919.21
432.60	5980.07
432.79	5849.00
432.97	6230.51
433.16	6209.44
433.35	5966.03
433.54	6076.03
433.72	6113.48
433.91	6113.48
434.10	6296.04
434.28	5956.66
434.47	6253.91
434.66	6291.36
434.85	6422.43
435.03	6345.19
435.22	6434.13
435.41	6565.20
435.59	6291.36
435.78	6462.22
435.97	6663.51
436.16	6504.35
436.34	6431.79
436.53	6424.77
436.72	6752.45
436.90	6661.16
437.09	6633.08
437.28	6551.16
437.46	6640.10
437.65	6747.76
437.84	6740.74
438.02	6597.97
438.21	6668.19
438.40	6736.06
438.58	7016.93
438.77	6984.16
438.96	6930.33
439.14	7045.01
439.33	7227.57
439.52	7391.41
439.70	7344.60
439.89	7452.27
440.08	7363.33
440.26	7332.90
440.45	7248.64
440.63	7527.16
440.82	7705.04
441.01	7597.38
441.19	7681.64
441.38	7662.91
441.57	7763.56
441.75	7763.56
441.94	8025.70
442.12	7873.56
442.31	8215.28
442.50	7985.91
442.68	8252.73
442.87	7981.23
443.05	8196.56
443.24	8299.54
443.43	8152.09
443.61	8140.38
443.80	8404.86
443.98	8013.99
444.17	7838.45
444.35	8327.63
444.54	8519.55
444.73	8278.47
444.91	8421.25
445.10	8521.89
445.28	8231.66
445.47	8290.18
445.65	8292.52
445.84	8491.46
446.02	8531.25
446.21	8465.72
446.39	8376.78
446.58	8540.61
446.77	8627.21
446.95	8320.60
447.14	8592.11
447.32	8648.28
447.51	8365.07
447.69	8458.70
447.88	8409.54
448.06	8456.36
448.25	8692.75
448.43	8585.08
448.62	8538.27
448.80	8627.21
448.99	8753.60
449.17	9011.06
449.36	8748.92
449.54	8975.95
449.73	9011.06
449.91	9100.00
450.10	9100.00
450.28	8978.30
450.46	9062.55
450.65	9041.49
450.83	9167.88
451.02	9137.45
451.20	9214.69
451.39	9177.24
451.57	9324.69
451.76	9102.34
451.94	9212.35
452.13	9495.55
452.31	9348.10
452.49	9104.68
452.68	9210.01
452.86	9362.14
453.05	9413.63
453.23	9593.86
453.42	9366.82
453.60	9357.46
453.78	9572.79
453.97	9383.21
454.15	9563.43
454.34	9446.40
454.52	9713.22
454.70	9666.41
454.89	9872.38
455.07	9806.84
455.26	9731.95
455.44	10113.45
455.62	10022.17
455.81	9977.70
455.99	10047.92
456.17	10010.47
456.36	10312.40
456.54	10335.81
456.73	10148.56
456.91	10525.39
457.09	10590.92
457.28	10523.05
457.46	10359.21
457.64	10590.92
457.83	10544.11
458.01	10551.14
458.19	10953.71
458.38	10478.58
458.56	10719.65
458.74	10651.78
458.93	10834.34
459.11	10988.82
459.29	10775.83
459.48	10878.81
459.66	10724.33
459.84	10986.47
460.03	11138.61
460.21	10986.47
460.39	11265.00
460.57	11063.71
460.76	11110.52
460.94	11393.73
461.12	11351.60
461.31	11243.93
461.49	11307.13
461.67	11426.50
461.85	11548.20
462.04	11318.83
462.22	11613.74
462.40	11723.74
462.59	11571.61
462.77	11793.96
462.95	11843.11
463.13	11690.98
463.32	11660.55
463.50	11768.21
463.68	12028.01
463.86	11819.71
464.05	11934.39
464.23	11871.20
464.41	12006.95
464.59	11777.58
464.78	12100.57
464.96	12135.68
465.14	11782.26
465.32	12191.85
465.50	12461.01
465.69	12601.44
465.87	12205.89
466.05	12081.85
466.23	12329.94
466.41	12248.02
466.60	12531.23
466.78	12453.99
466.96	12365.05
467.14	12517.18
467.32	12458.67
467.51	12865.92
467.69	12299.52
467.87	12477.40
468.05	12645.91
468.23	12484.42
468.41	12711.45
468.60	12535.91
468.78	12781.67
468.96	12711.45
469.14	12940.82
469.32	13118.70
469.50	12765.28
469.69	13139.77
469.87	13181.90
470.05	13015.72
470.23	13312.97
470.41	13308.29
470.59	13294.24
470.77	13327.01
470.95	13247.43
471.14	13738.94
471.32	13280.20
471.50	13867.67
471.68	13769.37
471.86	13884.06
472.04	13874.70
472.22	14221.10
472.40	13575.11
472.58	13813.84
472.77	14150.88
472.95	14228.12
473.13	14626.01
473.31	14204.71
473.49	14204.71
473.67	14225.78
473.85	14272.59
474.03	14672.82
474.21	14724.31
474.39	14988.79
474.57	14651.75
474.75	14913.89
474.93	15049.64
475.12	14932.62
475.30	15272.00
475.48	15157.31
475.66	15419.45
475.84	15147.95
476.02	15377.32
476.20	15632.44
476.38	15786.91
476.56	16173.10
476.74	16081.82
476.92	15850.11
477.10	16049.05
477.28	16137.99
477.46	16329.92
477.64	16386.09
477.82	16727.81
478.00	16950.16
478.18	16514.82
478.36	17109.32
478.54	17406.56
478.72	17083.57
478.90	17734.24
479.08	17706.15
479.26	18029.15
479.44	17865.31
479.62	18015.10
479.80	18139.15
479.98	18408.31
480.16	18534.70
480.34	18597.90
480.52	18771.10
480.70	18782.80
480.88	18539.38
481.06	18635.35
481.24	18981.74
481.41	19428.79
481.59	19573.90
481.77	19749.44
481.95	19723.69
482.13	19927.32
482.31	20030.30
482.49	20650.55
482.67	20437.56
482.85	20353.30
483.03	20987.58
483.21	20533.52
483.39	20922.05
483.57	21453.35
483.74	21104.61
483.92	21233.34
484.10	21701.45
484.28	21986.99
484.46	21940.18
484.64	22092.32
484.82	22171.89
485.00	22326.37
485.18	22508.93
485.35	23140.88
485.53	23023.85
485.71	23190.03
485.89	23480.25
486.07	23548.13
486.25	23473.23
486.43	23475.57
486.61	24177.73
486.78	24084.11
486.96	24432.85
487.14	24596.69
487.32	24772.23
487.50	24776.91
487.68	25226.29
487.85	25568.01
488.03	25858.24
488.21	26504.23
488.39	26075.91
488.57	26106.34
488.75	26586.15
488.92	26726.58
489.10	26661.04
489.28	26972.33
489.46	27466.19
489.64	26766.37
489.81	27969.40
489.99	27810.25
490.17	27927.27
490.35	28175.37
490.53	28489.00
490.70	28701.99
490.88	28554.54
491.06	28950.09
491.24	29165.42
491.41	29434.58
491.59	29397.13
491.77	29670.97
491.95	30038.44
492.13	30134.40
492.30	30209.29
492.48	30281.85
492.66	30237.38
492.84	30466.75
493.01	30778.04
493.19	30478.46
493.37	31152.53
493.54	31349.14
493.72	31534.04
493.90	31646.38
494.08	32203.43
494.25	32208.11
494.43	32687.92
494.61	32692.60
494.79	32758.14
494.96	32409.40
495.14	33200.50
495.32	33195.82
495.49	33579.67
495.67	33462.64
495.85	33706.05
496.02	33809.04
496.20	34307.57
496.38	34272.46
496.55	34213.95
496.73	34930.16
496.91	34644.61
497.09	35281.24
497.26	35213.36
497.44	35079.95
497.62	35730.62
497.79	35835.94
497.97	35758.70
498.14	36282.98
498.32	36215.11
498.50	36343.84
498.67	36849.39
498.85	36727.69
499.03	37008.55
499.20	36804.92
499.38	37029.62
499.56	37198.13
499.73	37467.30
499.91	37736.46
500.08	37790.29
500.26	37794.97
500.44	38036.05
500.61	38293.50
500.79	37970.51
500.97	38686.71
501.14	38948.85
501.32	38747.57
501.49	39098.65
501.67	38733.53
501.84	38955.88
502.02	39096.31
502.20	39562.08
502.37	39522.29
502.55	39597.18
502.72	39749.32
502.90	39697.83
503.07	39997.41
503.25	40093.38
503.43	40034.86
503.60	40079.33
503.78	40547.44
503.95	40732.34
504.13	40891.50
504.30	40931.29
504.48	40711.28
504.65	41062.36
504.83	41057.68
505.01	41610.04
505.18	40973.42
505.36	41883.89
505.53	41853.46
505.71	42183.48
505.88	41853.46
506.06	41830.05
506.23	42232.63
506.41	42251.35
506.58	42227.95
506.76	42326.25
506.93	42429.23
507.11	42986.28
507.28	42710.10
507.46	42909.04
507.63	43192.25
507.81	43559.71
507.98	43196.93
508.16	43597.16
508.33	43241.40
508.50	43770.36
508.68	43868.66
508.85	44184.63
509.03	44158.89
509.20	44027.82
509.38	44458.48
509.55	44603.59
509.73	44636.36
509.90	44987.44
510.08	44994.46
510.25	44861.05
510.42	44699.55
510.60	45280.00
510.77	45013.18
510.95	45823.01
511.12	45275.32
511.30	45677.90
511.47	45750.45
511.64	45530.44
511.82	46398.78
511.99	45954.08
512.17	46607.09
512.34	46073.45
512.51	46644.54
512.69	46813.05
512.86	46686.67
513.04	46873.91
513.21	46934.76
513.38	47049.45
513.56	47203.92
513.73	46958.17
513.90	47325.63
514.08	47250.74
514.25	47611.18
514.43	47515.22
514.60	47817.14
514.77	47798.42
514.95	47999.71
515.12	47978.64
515.29	47915.45
515.47	48313.34
515.64	48278.23
515.81	48727.61
515.99	48786.13
516.16	48886.77
516.33	48751.02
516.51	49202.74
516.68	48823.58
516.85	48795.49
517.03	49219.13
517.20	49184.02
517.37	49420.41
517.54	49162.95
517.72	49577.23
517.89	49310.41
518.06	49450.84
518.24	49755.11
518.41	49607.65
518.58	49535.10
518.75	49509.35
518.93	49811.28
519.10	50075.76
519.27	49759.79
519.45	50080.44
519.62	50321.52
519.79	50234.92
519.96	50197.47
520.14	50754.52
520.31	50628.13
520.48	50728.77
520.65	50595.36
520.83	50784.94
521.00	50742.81
521.17	51051.76
521.34	50789.62
521.52	51047.08
521.69	51466.04
521.86	51213.26
522.03	51334.97
522.20	51866.27
522.38	51746.90
522.55	51870.95
522.72	51599.45
522.89	51784.35
523.07	51725.84
523.24	51510.51
523.41	51765.63
523.58	51845.21
523.75	52278.21
523.92	51838.18
524.10	51978.62
524.27	52222.03
524.44	52161.18
524.61	52044.15
524.78	52449.06
524.96	52500.56
525.13	52479.49
525.30	52643.33
525.47	52795.46
525.64	52835.25
525.81	52931.22
525.98	53069.31
526.16	52940.58
526.33	53153.57
526.50	53265.91
526.67	53132.50
526.84	53291.66
527.01	52884.40
527.18	53228.46
527.36	53151.23
527.53	53179.31
527.70	53586.57
527.87	53450.81
528.04	53308.04
528.21	53427.41
528.38	53544.44
528.55	53719.98
528.72	53549.12
528.89	53593.59
529.07	53691.89
529.24	53504.65
529.41	53780.83
529.58	53986.80
529.75	53827.64
529.92	53972.75
530.09	54073.40
530.26	54162.34
530.43	54291.07
530.60	53909.56
530.77	54174.04
530.94	54340.22
531.11	54358.94
531.28	54134.25
531.46	54417.46
531.63	54494.69
531.80	54515.76
531.97	54578.95
532.14	54843.43
532.31	54621.08
532.48	54805.98
532.65	54595.34
532.82	54721.72
532.99	54803.64
533.16	54794.28
533.33	54913.65
533.50	55360.69
533.67	54944.08
533.84	54892.58
534.01	55143.02
534.18	55192.17
534.35	55337.29
534.52	55330.26
534.69	55529.21
534.86	55547.93
535.03	55264.73
535.20	55370.05
535.37	55604.11
535.54	55526.87
535.71	55620.49
535.88	55753.90
536.05	55796.03
536.22	55634.53
536.38	55882.63
536.55	55983.27
536.72	55831.14
536.89	55978.59
537.06	55915.40
537.23	56140.09
537.40	55585.38
537.57	55915.40
537.74	56116.68
537.91	56371.80
538.08	56032.42
538.25	55763.26
538.42	56233.71
538.59	56294.56
538.75	56175.20
538.92	56165.84
539.09	56371.80
539.26	56423.29
539.43	56226.69
539.60	56170.52
539.77	56495.85
539.94	56690.12
540.11	56734.59
540.28	56612.88
540.44	56750.97
540.61	56519.26
540.78	56673.73
540.95	56734.59
541.12	56746.29
541.29	56556.70
541.46	56683.09
541.62	56793.10
541.79	56804.80
541.96	56589.47
542.13	56947.57
542.30	56900.76
542.47	57155.88
542.63	57006.09
542.80	57125.46
542.97	57296.31
543.14	57422.70
543.31	57403.98
543.48	57436.75
543.64	57537.39
543.81	57504.62
543.98	57668.46
544.15	57439.09
544.32	57645.05
544.48	58035.92
544.65	57551.43
544.82	57530.37
544.99	57537.39
545.16	57579.52
545.32	57633.35
545.49	57996.13
545.66	57874.43
545.83	57914.22
546.00	58014.86
546.16	58007.84
546.33	57399.30
546.50	57902.51
546.67	57780.81
546.83	57490.58
547.00	57780.81
547.17	57876.77
547.34	57951.66
547.50	58092.10
547.67	58129.54
547.84	57982.09
548.00	58279.34
548.17	58321.47
548.34	58246.57
548.51	58543.82
548.67	58398.71
548.84	58288.70
549.01	58419.77
549.18	58415.09
549.34	58401.05
549.51	58464.24
549.68	58532.12
549.84	58525.10
550.01	58482.97
550.18	58489.99
550.34	58714.68
550.51	58644.46
550.68	58602.33
550.84	58372.96
551.01	59018.95
551.18	58478.28
551.34	58876.18
551.51	58939.37
551.68	58660.85
551.84	58656.17
552.01	58635.10
552.18	59035.33
552.34	58548.50
552.51	59011.93
552.68	58796.60
552.84	59025.97
553.01	59098.53
553.18	59040.01
553.34	59042.35
553.51	58969.80
553.67	58958.09
553.84	59084.48
554.01	59049.38
554.17	59107.89
554.34	59131.29
554.51	59047.04
554.67	59126.61
554.84	59241.30
555.00	59175.76
555.17	59063.42
555.33	59185.13
555.50	59189.81
555.67	59236.62
555.83	59306.83
556.00	59264.70
556.16	59547.91
556.33	59519.82
556.50	59341.94
556.66	59648.55
556.83	59339.60
556.99	59512.80
557.16	59636.85
557.32	59580.68
557.49	59859.20
557.65	59597.06
557.82	59304.49
557.98	59693.02
558.15	59393.43
558.32	59622.81
558.48	59367.69
558.65	59756.22
558.81	59662.60
558.98	59880.27
559.14	59882.61
559.31	59756.22
559.47	59718.77
559.64	60025.38
559.80	60107.30
559.97	59934.10
560.13	59910.69
560.30	60048.78
560.46	59929.42
560.63	59994.95
560.79	59629.83
560.96	60210.28
561.12	60149.43
561.29	59959.84
561.45	60111.98
561.61	60130.70
561.78	59985.59
561.94	60046.44
562.11	60030.06
562.27	60259.43
562.44	60048.78
562.60	60135.38
562.77	59920.05
562.93	59910.69
563.10	60409.23
563.26	60182.19
563.42	60207.94
563.59	60360.08
563.75	60196.24
563.92	60203.26
564.08	60030.06
564.24	60491.15
564.41	60416.25
564.57	60353.05
564.74	60381.14
564.90	60198.58
565.07	60308.58
565.23	60339.01
565.39	60282.84
565.56	60315.61
565.72	60353.05
565.88	60177.51
566.05	60346.03
566.21	60594.13
566.38	60439.65
566.54	60507.53
566.70	60552.00
566.87	60484.12
567.03	60439.65
567.19	60580.09
567.36	60491.15
567.52	60437.31
567.68	60591.79
567.85	60327.31
568.01	60633.92
568.17	60402.21
568.34	60664.35
568.50	60357.74
568.66	60563.70
568.83	60594.13
568.99	60346.03
569.15	60481.78
569.32	60566.04
569.48	60491.15
569.64	60652.64
569.81	60734.56
569.97	60554.34
570.13	60626.90
570.30	60420.93
570.46	60816.48
570.62	60865.63
570.78	60495.83
570.95	60568.38
571.11	60767.33
571.27	60633.92
571.43	60626.90
571.60	60844.57
571.76	60612.85
571.92	60807.12
572.09	60762.65
572.25	60842.23
572.41	60706.47
572.57	60741.58
572.74	61050.53
572.90	60755.63
573.06	60669.03
573.22	60830.52
573.38	61008.40
573.55	60736.90
573.71	60940.53
573.87	60860.95
574.03	60732.22
574.20	60996.70
574.36	60636.26
574.52	60907.76
574.68	60879.67
574.84	60823.50
575.01	60921.80
575.17	60882.02
575.33	61022.45
575.49	60823.50
575.65	61024.79
575.82	60830.52
575.98	60919.46
576.14	61193.31
576.30	61132.45
576.46	60753.29
576.62	60992.02
576.79	61090.32
576.95	60769.67
577.11	60786.05
577.27	61057.56
577.43	60933.51
577.59	60886.70
577.75	60797.76
577.92	60966.27
578.08	60903.08
578.24	61230.75
578.40	61038.83
578.56	60947.55
578.72	60893.72
578.88	61240.12
579.04	61109.05
579.21	61020.11
579.37	61268.20
579.53	61233.10
579.69	60802.44
579.85	61062.24
580.01	60999.04
580.17	60664.35
580.33	61092.66
580.49	61165.22
580.65	61062.24
580.82	60987.34
580.98	60968.61
581.14	61109.05
581.30	61062.24
581.46	61134.79
581.62	61059.90
581.78	61006.06
581.94	61160.54
582.10	61027.13
582.26	60889.04
582.42	61197.99
582.58	61123.09
582.74	61130.11
582.90	60982.66
583.06	61078.62
583.22	61118.41
583.38	61162.88
583.54	61064.58
583.70	61214.37
583.86	61153.52
584.02	61083.30
584.18	61310.33
584.34	61209.69
584.50	61277.57
584.66	61118.41
584.82	60940.53
584.98	61329.06
585.14	61226.07
585.30	61183.94
585.46	61087.98
585.62	61113.73
585.78	61289.27
585.94	60783.71
586.10	61165.22
586.26	61162.88
586.42	61331.40
586.58	61258.84
586.74	61244.80
586.90	61144.16
587.06	61085.64
587.22	61303.31
587.38	61207.35
587.54	61387.57
587.70	61392.25
587.86	61144.16
588.02	61319.70
588.18	61340.76
588.34	61127.77
588.49	61146.50
