SpectraSuite Data File
++++++++++++++++++++++++++++++++++++
Date: Fri Oct 25 11:22:43 EDT 2013
User: price-jones
Dark Spectrum Present: No
Reference Spectrum Present: No
Number of Sampled Component Spectra: 1
Spectrometers: USB2+H05261
Integration Time (usec): 100000 (USB2+H05261)
Spectra Averaged: 1 (USB2+H05261)
Boxcar Smoothing: 0 (USB2+H05261)
Correct for Electrical Dark: No (USB2+H05261)
Strobe/Lamp Enabled: No (USB2+H05261)
Correct for Detector Non-linearity: No (USB2+H05261)
Correct for Stray Light: No (USB2+H05261)
Number of Pixels in Processed Spectrum: 2048
>>>>>Begin Processed Spectral Data<<<<<
365.73	220.01
365.92	220.01
366.12	220.01
366.32	128.73
366.52	86.60
366.72	205.97
366.91	117.03
367.11	105.32
367.31	133.41
367.51	173.20
367.70	102.98
367.90	131.07
368.10	154.48
368.30	119.37
368.49	166.18
368.69	168.52
368.89	135.75
369.09	93.62
369.28	138.09
369.48	149.79
369.68	189.58
369.87	135.75
370.07	131.07
370.27	266.82
370.47	294.91
370.66	634.29
370.86	606.20
371.06	592.16
371.25	711.52
371.45	676.41
371.65	690.46
371.84	634.29
372.04	660.03
372.24	664.71
372.44	655.35
372.63	739.61
372.83	744.29
373.03	753.65
373.22	777.06
373.42	770.04
373.62	795.78
373.81	816.85
374.01	809.83
374.21	833.23
374.40	826.21
374.60	816.85
374.79	837.91
374.99	786.42
375.19	765.36
375.38	840.25
375.58	877.70
375.78	868.34
375.97	861.32
376.17	882.38
376.37	966.64
376.56	837.91
376.76	870.68
376.95	910.47
377.15	912.81
377.35	854.30
377.54	959.62
377.74	884.72
377.93	807.48
378.13	842.59
378.33	945.58
378.52	858.98
378.72	964.30
378.91	926.85
379.11	891.74
379.31	1006.43
379.50	903.45
379.70	999.41
379.89	990.05
380.09	950.26
380.28	961.96
380.48	1057.92
380.68	1020.47
380.87	994.73
381.07	985.37
381.26	1076.65
381.46	1004.09
381.65	1034.52
381.85	1022.81
382.04	978.34
382.24	1050.90
382.43	1100.05
382.63	1048.56
382.83	1083.67
383.02	1144.52
383.22	1041.54
383.41	1060.26
383.61	1083.67
383.80	1165.59
384.00	1060.26
384.19	1130.48
384.39	1088.35
384.58	1104.73
384.78	1114.10
384.97	1165.59
385.17	1146.86
385.36	1146.86
385.56	1165.59
385.75	1217.08
385.95	1217.08
386.14	1086.01
386.34	1121.12
386.53	1219.42
386.72	1125.80
386.92	1181.97
387.11	1273.25
387.31	1247.51
387.50	1214.74
387.70	1224.10
387.89	1179.63
388.09	1240.48
388.28	1277.93
388.48	1308.36
388.67	1306.02
388.86	1327.08
389.06	1254.53
389.25	1184.31
389.45	1355.17
389.64	1364.53
389.84	1481.56
390.03	1385.60
390.22	1385.60
390.42	1462.83
390.61	1373.89
390.81	1413.68
391.00	1394.96
391.19	1401.98
391.39	1390.28
391.58	1448.79
391.78	1514.33
391.97	1500.28
392.16	1497.94
392.36	1533.05
392.55	1547.09
392.75	1554.12
392.94	1465.18
393.13	1493.26
393.33	1514.33
393.52	1565.82
393.71	1530.71
393.91	1549.43
394.10	1535.39
394.29	1645.40
394.49	1626.67
394.68	1647.74
394.88	1640.72
395.07	1657.10
395.26	1685.19
395.46	1746.04
395.65	1664.12
395.84	1617.31
396.04	1703.91
396.23	1788.17
396.42	1647.74
396.62	1701.57
396.81	1823.28
397.00	1722.63
397.19	1764.76
397.39	1757.74
397.58	1813.92
397.77	1722.63
397.97	1863.07
398.16	1900.52
398.35	1954.35
398.55	1898.17
398.74	1853.70
398.93	1947.33
399.12	1937.96
399.32	1856.04
399.51	2031.58
399.70	1998.82
399.90	1935.62
400.09	2026.90
400.28	2108.82
400.47	2029.24
400.67	2092.44
400.86	2111.16
401.05	2015.20
401.24	2097.12
401.44	2157.97
401.63	2186.06
401.82	2062.01
402.01	2104.14
402.21	2270.32
402.40	2282.02
402.59	2291.38
402.78	2160.31
402.97	2204.78
403.17	2230.53
403.36	2207.13
403.55	2204.78
403.74	2256.28
403.93	2363.94
404.13	2370.96
404.32	2410.75
404.51	2354.58
404.70	2434.16
404.89	2480.97
405.09	2555.86
405.28	2452.88
405.47	2424.80
405.66	2443.52
405.85	2429.48
406.05	2487.99
406.24	2511.39
406.43	2583.95
406.62	2635.44
406.81	2672.89
407.00	2630.76
407.20	2520.76
407.39	2424.80
407.58	2658.85
407.77	2747.79
407.96	2768.85
408.15	2736.09
408.34	2801.62
408.54	2892.90
408.73	2691.62
408.92	2834.39
409.11	2867.16
409.30	2801.62
409.49	2906.95
409.68	2956.10
409.87	2967.80
410.07	3141.00
410.26	2963.12
410.45	2986.52
410.64	3185.47
410.83	3133.98
411.02	3159.72
411.21	3199.51
411.40	3040.36
411.59	3211.22
411.78	3211.22
411.98	3173.77
412.17	3293.13
412.36	3351.65
412.55	3314.20
412.74	3372.71
412.93	3286.11
413.12	3396.12
413.31	3545.91
413.50	3454.63
413.69	3545.91
413.88	3569.32
414.07	3485.06
414.26	3571.66
414.45	3681.66
414.64	3634.85
414.83	3667.62
415.02	3796.35
415.22	3798.69
415.41	3861.88
415.60	3688.68
415.79	3911.04
415.98	3995.29
416.17	4084.23
416.36	4100.62
416.55	4051.47
416.74	4032.74
416.93	4095.94
417.12	3999.98
417.31	4074.87
417.50	4208.28
417.69	4355.74
417.88	4257.43
418.07	4287.86
418.26	4390.84
418.45	4390.84
418.64	4454.04
418.83	4285.52
419.02	4358.08
419.21	4535.96
419.39	4620.22
419.58	4531.28
419.77	4521.92
419.96	4599.15
420.15	4706.82
420.34	4557.02
420.53	4645.96
420.72	4683.41
420.91	4622.56
421.10	4791.08
421.29	4990.02
421.48	4599.15
421.67	4709.16
421.86	4873.00
422.05	4706.82
422.24	4751.29
422.43	4837.89
422.61	4819.16
422.80	4910.44
422.99	5004.07
423.18	5008.75
423.37	4917.47
423.56	4968.96
423.75	4912.78
423.94	4940.87
424.13	4610.86
424.32	4753.63
424.50	4987.68
424.69	5114.07
424.88	5102.37
425.07	4985.34
425.26	4863.63
425.45	4968.96
425.64	5050.88
425.83	4980.66
426.01	5025.13
426.20	5085.98
426.39	5102.37
426.58	5118.75
426.77	5163.22
426.96	5039.17
427.15	5144.50
427.33	5298.97
427.52	5078.96
427.71	5259.18
427.90	5245.14
428.09	5327.06
428.28	5266.21
428.46	5462.81
428.65	5350.46
428.84	5563.45
429.03	5533.03
429.22	5392.59
429.40	5439.40
429.59	5490.90
429.78	5331.74
429.97	5139.82
430.16	5399.62
430.34	5420.68
430.53	5687.50
430.72	5689.84
430.91	5621.97
431.10	5614.95
431.28	5830.27
431.47	5813.89
431.66	5909.85
431.85	5706.23
432.03	5951.98
432.22	5928.58
432.41	5884.11
432.60	6057.31
432.79	5900.49
432.97	6080.71
433.16	5982.41
433.35	5928.58
433.54	6094.76
433.72	6033.90
433.91	6036.24
434.10	6171.99
434.28	6078.37
434.47	6038.58
434.66	6195.40
434.85	6296.04
435.03	6342.85
435.22	6312.42
435.41	6696.27
435.59	6296.04
435.78	6462.22
435.97	6434.13
436.16	6506.69
436.34	6619.04
436.53	6609.67
436.72	6717.34
436.90	6434.13
437.09	6424.77
437.28	6457.54
437.46	6740.74
437.65	6506.69
437.84	6782.87
438.02	6829.68
438.21	6902.24
438.40	6752.45
438.58	6958.41
438.77	7091.82
438.96	6986.50
439.14	7042.67
439.33	7178.42
439.52	7140.97
439.70	7145.66
439.89	7297.79
440.08	7375.03
440.26	7323.54
440.45	7297.79
440.63	7524.82
440.82	7592.70
441.01	7620.78
441.19	7679.30
441.38	7808.03
441.57	7805.69
441.75	7763.56
441.94	7896.97
442.12	7990.59
442.31	7995.27
442.50	8124.00
442.68	8032.72
442.87	8072.51
443.05	8049.10
443.24	7990.59
443.43	8145.06
443.61	8124.00
443.80	8266.77
443.98	8065.49
444.17	7754.19
444.35	8140.38
444.54	8208.26
444.73	8367.42
444.91	8454.02
445.10	8395.50
445.28	8315.92
445.47	8425.93
445.65	8219.96
445.84	8512.53
446.02	8374.44
446.21	8432.95
446.39	8458.70
446.58	8493.80
446.77	8435.29
446.95	8060.80
447.14	8681.05
447.32	8578.06
447.51	8594.45
447.69	8510.19
447.88	8601.47
448.06	8613.17
448.25	8526.57
448.43	8437.63
448.62	8542.96
448.80	8725.52
448.99	8819.14
449.17	8739.56
449.36	8695.09
449.54	8830.84
449.73	8870.63
449.91	8994.68
450.10	8809.78
450.28	9078.94
450.46	8833.18
450.65	8982.98
450.83	9078.94
451.02	9174.90
451.20	9263.84
451.39	9092.98
451.57	9095.32
451.76	9184.26
451.94	9036.81
452.13	9282.56
452.31	9511.94
452.49	9151.49
452.68	9397.25
452.86	9383.21
453.05	9399.59
453.23	9252.14
453.42	9465.13
453.60	9327.03
453.78	9554.07
453.97	9474.49
454.15	9584.49
454.34	9481.51
454.52	9692.16
454.70	9715.56
454.89	9652.37
455.07	9874.72
455.26	9933.23
455.44	9958.98
455.62	9914.51
455.81	9996.43
455.99	10019.83
456.17	10136.86
456.36	10251.55
456.54	10373.25
456.73	10204.74
456.91	10682.20
457.09	10410.70
457.28	10661.14
457.46	10410.70
457.64	10586.24
457.83	10504.32
458.01	10471.56
458.19	10729.02
458.38	10445.81
458.56	10698.59
458.74	10815.62
458.93	10696.25
459.11	10640.08
459.29	10649.44
459.48	10626.03
459.66	10890.51
459.84	10878.81
460.03	11199.46
460.21	11040.31
460.39	10956.05
460.57	10874.13
460.76	11248.61
460.94	11140.95
461.12	11136.27
461.31	11288.40
461.49	11225.21
461.67	11208.83
461.85	11332.87
462.04	11335.21
462.22	11819.71
462.40	11735.45
462.59	11564.59
462.77	11583.31
462.95	11487.35
463.13	11515.44
463.32	11501.39
463.50	11782.26
463.68	11932.05
463.86	12053.76
464.05	11583.31
464.23	11665.23
464.41	11983.54
464.59	11618.42
464.78	12105.25
464.96	12032.69
465.14	11915.67
465.32	12201.21
465.50	12119.29
465.69	12283.13
465.87	12304.20
466.05	11997.59
466.23	12184.83
466.41	12152.06
466.60	12882.31
466.78	12210.57
466.96	11943.75
467.14	12203.55
467.32	12571.02
467.51	12498.46
467.69	12278.45
467.87	12463.35
468.05	12688.04
468.23	12479.74
468.41	12561.66
468.60	12540.59
468.78	12765.28
468.96	12610.81
469.14	13006.36
469.32	13018.06
469.50	12678.68
469.69	13174.88
469.87	13296.58
470.05	12968.91
470.23	13205.30
470.41	13041.46
470.59	13128.06
470.77	13348.08
470.95	13315.31
471.14	13500.21
471.32	13088.28
471.50	13715.54
471.68	13741.29
471.86	13645.32
472.04	14003.43
472.22	14288.97
472.40	13696.82
472.58	13874.70
472.77	13982.36
472.95	14183.65
473.13	14539.41
473.31	14026.83
473.49	14181.31
473.67	14047.90
473.85	14260.88
474.03	14398.98
474.21	14721.97
474.39	14546.43
474.57	14642.39
474.75	14927.94
474.93	15192.42
475.12	14794.53
475.30	15091.77
475.48	15012.20
475.66	15363.28
475.84	15255.61
476.02	15382.00
476.20	15733.08
476.38	15719.04
476.56	15967.13
476.74	16240.98
476.92	15707.34
477.10	15768.19
477.28	16388.43
477.46	16140.33
477.64	16475.03
477.82	16744.19
478.00	17118.68
478.18	16886.97
478.36	16823.77
478.54	17163.15
478.72	17317.62
478.90	17378.48
479.08	17675.73
479.26	17619.55
479.44	17621.89
479.62	17809.14
479.80	17996.38
479.98	18181.28
480.16	18436.40
480.34	17914.46
480.52	18831.95
480.70	18857.70
480.88	18733.65
481.06	18754.71
481.24	18864.72
481.41	18822.59
481.59	19372.61
481.77	19609.01
481.95	19489.64
482.13	19894.55
482.31	19686.25
482.49	20187.12
482.67	20388.41
482.85	20233.93
483.03	20372.02
483.21	20769.91
483.39	21113.97
483.57	20889.28
483.74	21160.78
483.92	21645.27
484.10	21263.77
484.28	21626.55
484.46	21947.20
484.64	22707.88
484.82	22059.55
485.00	22347.44
485.18	22698.52
485.35	23056.62
485.53	22757.03
485.71	22981.72
485.89	23264.92
486.07	23508.34
486.25	23536.43
486.43	23585.58
486.61	23807.93
486.78	23978.79
486.96	24421.15
487.14	24486.68
487.32	24800.32
487.50	24996.92
487.68	25219.27
487.85	25359.70
488.03	25687.38
488.21	25869.94
488.39	26003.35
488.57	25802.07
488.75	26305.28
488.92	26574.44
489.10	26742.96
489.28	26892.76
489.46	27075.32
489.64	27440.44
489.81	27620.66
489.99	27562.15
490.17	28074.73
490.35	28009.19
490.53	28233.88
490.70	28322.82
490.88	28215.16
491.06	29165.42
491.24	28877.53
491.41	28947.75
491.59	29436.92
491.77	28844.76
491.95	29762.25
492.13	29963.54
492.30	30122.69
492.48	29991.62
492.66	30305.26
492.84	30405.90
493.01	31157.21
493.19	30433.99
493.37	30813.15
493.54	30993.37
493.72	31541.06
493.90	31498.93
494.08	31608.93
494.25	31952.99
494.43	31852.35
494.61	33053.05
494.79	32884.53
494.96	32589.62
495.14	33020.28
495.32	33336.25
495.49	33673.29
495.67	33493.07
495.85	33530.51
496.02	33682.65
496.20	34110.97
496.38	34127.35
496.55	34007.98
496.73	34534.60
496.91	34415.24
497.09	35014.41
497.26	35000.37
497.44	34986.33
497.62	34974.63
497.79	36135.53
497.97	35700.19
498.14	36271.28
498.32	36336.82
498.50	36144.89
498.67	36353.20
498.85	36411.71
499.03	36765.14
499.20	36334.48
499.38	36935.99
499.56	37296.44
499.73	36903.23
499.91	37322.18
500.08	37823.06
500.26	37589.00
500.44	37897.95
500.61	38337.98
500.79	37682.62
500.97	38122.65
501.14	38815.44
501.32	38581.39
501.49	38476.07
501.67	39168.87
501.84	39119.71
502.02	38852.89
502.20	39208.65
502.37	39571.44
502.55	38909.07
502.72	39374.83
502.90	39311.64
503.07	39739.96
503.25	39838.26
503.43	40163.59
503.60	39938.90
503.78	40058.27
503.95	40212.74
504.13	40432.75
504.30	40697.24
504.48	40575.53
504.65	40694.89
504.83	41069.38
505.01	41525.78
505.18	41123.21
505.36	41490.68
505.53	41724.73
505.71	41846.44
505.88	41469.61
506.06	41399.40
506.23	41790.27
506.41	41516.42
506.58	42094.53
506.76	42096.88
506.93	42777.97
507.11	42089.85
507.28	42855.21
507.46	42459.66
507.63	43250.76
507.81	42969.90
507.98	43126.71
508.16	43503.54
508.33	43342.04
508.50	43274.16
508.68	43966.96
508.85	44147.18
509.03	44161.23
509.20	44072.29
509.38	44381.24
509.55	44584.86
509.73	44816.58
509.90	44952.33
510.08	44259.53
510.25	45184.04
510.42	44844.66
510.60	45038.93
510.77	45474.27
510.95	45214.47
511.12	45303.41
511.30	45191.06
511.47	45638.11
511.64	45680.24
511.82	45734.07
511.99	45961.10
512.17	45881.52
512.34	45914.29
512.51	46160.05
512.69	46508.79
512.86	46316.86
513.04	46401.12
513.21	46717.09
513.38	47049.45
513.56	46974.55
513.73	46852.84
513.90	46876.25
514.08	46997.96
514.25	47407.55
514.43	47393.51
514.60	47381.80
514.77	47426.28
514.95	47695.44
515.12	47782.04
515.29	47557.35
515.47	48280.57
515.64	48268.87
515.81	48154.18
515.99	48311.00
516.16	48652.72
516.33	48172.91
516.51	48947.62
516.68	48666.76
516.85	48521.65
517.03	49165.29
517.20	49141.89
517.37	48694.85
517.54	49130.19
517.72	48729.95
517.89	49404.03
518.06	49602.97
518.24	49162.95
518.41	49296.36
518.58	49785.54
518.75	49415.73
518.93	49731.70
519.10	49469.56
519.27	49694.25
519.45	50085.12
519.62	50042.99
519.79	50092.15
519.96	49886.18
520.14	50270.03
520.31	50096.83
520.48	50365.99
520.65	50120.23
520.83	50466.63
521.00	50988.57
521.17	50663.24
521.34	50621.11
521.52	50707.71
521.69	50967.51
521.86	51084.53
522.03	51070.49
522.20	51461.36
522.38	51337.31
522.55	51709.46
522.72	51374.76
522.89	51454.34
523.07	51587.75
523.24	51681.37
523.41	51597.11
523.58	51721.16
523.75	52177.56
523.92	51725.84
524.10	52149.48
524.27	52207.99
524.44	52165.86
524.61	52196.29
524.78	52484.17
524.96	52207.99
525.13	52617.58
525.30	52505.24
525.47	52446.72
525.64	52666.73
525.81	52708.86
525.98	52924.19
526.16	52701.84
526.33	52968.66
526.50	53214.42
526.67	52980.37
526.84	52877.38
527.01	52538.01
527.18	52959.30
527.36	53364.21
527.53	53055.26
527.70	53240.17
527.87	53343.15
528.04	53139.52
528.21	53441.45
528.38	53497.62
528.55	53647.42
528.72	53301.02
528.89	53336.13
529.07	53640.40
529.24	53469.54
529.41	53715.29
529.58	53670.82
529.75	53911.90
529.92	54017.22
530.09	53944.67
530.26	54096.80
530.43	54152.97
530.60	54054.67
530.77	54021.90
530.94	54089.78
531.11	54361.28
531.28	54302.77
531.46	54490.01
531.63	54213.83
531.80	54223.19
531.97	54688.96
532.14	54490.01
532.31	54492.35
532.48	54541.50
532.65	54710.02
532.82	54436.18
532.99	54777.90
533.16	54614.06
533.33	54700.66
533.50	55175.79
533.67	54969.82
533.84	54981.52
534.01	55068.12
534.18	55297.50
534.35	55147.70
534.52	55311.54
534.69	55388.78
534.86	55365.37
535.03	55213.24
535.20	55140.68
535.37	55484.74
535.54	55215.58
535.71	55524.53
535.88	55627.51
536.05	55550.27
536.22	55826.46
536.38	55763.26
536.55	55538.57
536.72	55840.50
536.89	55592.40
537.06	55875.61
537.23	55845.18
537.40	55723.47
537.57	55962.21
537.74	55784.33
537.91	56119.02
538.08	55934.12
538.25	55807.73
538.42	55969.23
538.59	56186.90
538.75	55927.10
538.92	56266.48
539.09	56233.71
539.26	56147.11
539.43	56058.17
539.60	56385.85
539.77	56207.97
539.94	56357.76
540.11	56465.42
540.28	56650.33
540.44	56442.02
540.61	56591.81
540.78	56549.68
540.95	56425.64
541.12	56435.00
541.29	56495.85
541.46	56573.09
541.62	56659.69
541.79	56671.39
541.96	56465.42
542.13	56636.28
542.30	56622.24
542.47	56952.26
542.63	57059.92
542.80	56736.93
542.97	57083.33
543.14	57279.93
543.31	57272.91
543.48	57345.47
543.64	57513.98
543.81	57427.38
543.98	57286.95
544.15	57385.25
544.32	57396.96
544.48	57387.60
544.65	57380.57
544.82	57542.07
544.99	57324.40
545.16	57694.21
545.32	57516.32
545.49	57762.08
545.66	57724.63
545.83	57741.02
546.00	57836.98
546.16	57865.06
546.33	57755.06
546.50	57591.22
546.67	57804.21
546.83	57420.36
547.00	57691.86
547.17	57956.35
547.34	57808.89
547.50	58049.97
547.67	58052.31
547.84	58068.69
548.00	58117.84
548.17	58141.25
548.34	58354.24
548.51	58267.64
548.67	58356.58
548.84	58445.52
549.01	58251.25
549.18	58157.63
549.34	58466.58
549.51	58501.69
549.68	58262.96
549.84	58293.38
550.01	58511.05
550.18	58408.07
550.34	58618.72
550.51	58763.83
550.68	58375.30
550.84	58389.34
551.01	58539.14
551.18	58450.20
551.34	58794.26
551.51	58717.02
551.68	58494.67
551.84	58674.89
552.01	58534.46
552.18	58831.71
552.34	58653.82
552.51	58878.52
552.68	58576.59
552.84	58534.46
553.01	59063.42
553.18	58817.66
553.34	59058.74
553.51	58864.47
553.67	58848.09
553.84	58925.33
554.01	59110.23
554.17	59180.45
554.34	59082.14
554.51	59171.08
554.67	59135.98
554.84	59164.06
555.00	58974.48
555.17	58850.43
555.33	59079.80
555.50	59063.42
555.67	59002.56
555.83	59119.59
556.00	59262.36
556.16	59334.92
556.33	59327.90
556.50	59487.06
556.66	59299.81
556.83	59238.96
556.99	59681.32
557.16	59391.09
557.32	59578.34
557.49	59671.96
557.65	59304.49
557.82	59554.93
557.98	59480.03
558.15	59421.52
558.32	59678.98
558.48	59377.05
558.65	59393.43
558.81	59444.93
558.98	59760.90
559.14	59749.20
559.31	59765.58
559.47	59711.75
559.64	59807.71
559.80	59821.75
559.97	59674.30
560.13	59695.36
560.30	59859.20
560.46	59894.31
560.63	59718.77
560.79	59840.48
560.96	59894.31
561.12	59915.37
561.29	59849.84
561.45	59891.97
561.61	59931.76
561.78	60006.65
561.94	59945.80
562.11	59980.91
562.27	59955.16
562.44	60123.68
562.60	60130.70
562.77	60046.44
562.93	59845.16
563.10	59980.91
563.26	59868.56
563.42	60371.78
563.59	60083.89
563.75	59938.78
563.92	60069.85
564.08	60097.94
564.24	60308.58
564.41	60214.96
564.57	60200.92
564.74	60083.89
564.90	60301.56
565.07	60285.18
565.23	60214.96
565.39	60018.36
565.56	60420.93
565.72	60154.11
565.88	60350.71
566.05	60090.91
566.21	60292.20
566.38	60343.69
566.54	60530.93
566.70	60434.97
566.87	60392.84
567.03	60168.15
567.19	60465.40
567.36	60451.36
567.52	60266.45
567.68	60561.36
567.85	60402.21
568.01	60626.90
568.17	60404.55
568.34	60622.22
568.50	60533.28
568.66	60282.84
568.83	60573.06
568.99	60329.65
569.15	60456.04
569.32	60474.76
569.48	60685.41
569.64	60701.79
569.81	60456.04
569.97	60533.28
570.13	60601.15
570.30	60392.84
570.46	60488.80
570.62	60797.76
570.78	60507.53
570.95	60427.95
571.11	60734.56
571.27	60535.62
571.43	60694.77
571.60	60556.68
571.76	60694.77
571.92	60676.05
572.09	60486.46
572.25	60640.94
572.41	60673.71
572.57	60879.67
572.74	60896.06
572.90	60715.84
573.06	60999.04
573.22	60610.51
573.38	60559.02
573.55	60594.13
573.71	60832.86
573.87	60594.13
574.03	60697.11
574.20	60757.97
574.36	60825.84
574.52	60767.33
574.68	60711.16
574.84	60980.32
575.01	60760.31
575.17	60582.43
575.33	60741.58
575.49	60654.98
575.65	60977.98
575.82	61029.47
575.98	61027.13
576.14	61095.00
576.30	60846.91
576.46	60727.54
576.62	60823.50
576.79	60774.35
576.95	60748.60
577.11	60818.82
577.27	60928.83
577.43	60954.57
577.59	60779.03
577.75	60942.87
577.92	60736.90
578.08	60797.76
578.24	60842.23
578.40	60882.02
578.56	61125.43
578.72	60849.25
578.88	61104.37
579.04	61022.45
579.21	60905.42
579.37	61034.15
579.53	61099.68
579.69	60851.59
579.85	61024.79
580.01	60846.91
580.17	60938.19
580.33	61123.09
580.49	61116.07
580.65	61001.38
580.82	60800.10
580.98	60860.95
581.14	61017.77
581.30	60928.83
581.46	60914.78
581.62	61069.26
581.78	61038.83
581.94	61116.07
582.10	60903.08
582.26	60959.25
582.42	61052.87
582.58	61071.60
582.74	60858.61
582.90	60846.91
583.06	61240.12
583.22	60996.70
583.38	61127.77
583.54	61059.90
583.70	60985.00
583.86	61048.19
584.02	60800.10
584.18	61083.30
584.34	61015.43
584.50	61134.79
584.66	60889.04
584.82	60797.76
584.98	61183.94
585.14	61123.09
585.30	60874.99
585.46	60977.98
585.62	61212.03
585.78	61284.59
585.94	60933.51
586.10	60994.36
586.26	61106.71
586.42	61247.14
586.58	61336.08
586.74	60900.74
586.90	60921.80
587.06	61052.87
587.22	61212.03
587.38	61036.49
587.54	61338.42
587.70	61373.53
587.86	61059.90
588.02	61319.70
588.18	61160.54
588.34	61137.13
588.49	61153.52
