SpectraSuite Data File
++++++++++++++++++++++++++++++++++++
Date: Fri Oct 25 11:33:25 EDT 2013
User: price-jones
Dark Spectrum Present: No
Reference Spectrum Present: No
Number of Sampled Component Spectra: 1
Spectrometers: USB2+H05261
Integration Time (usec): 100000 (USB2+H05261)
Spectra Averaged: 1 (USB2+H05261)
Boxcar Smoothing: 0 (USB2+H05261)
Correct for Electrical Dark: No (USB2+H05261)
Strobe/Lamp Enabled: No (USB2+H05261)
Correct for Detector Non-linearity: No (USB2+H05261)
Correct for Stray Light: No (USB2+H05261)
Number of Pixels in Processed Spectrum: 2048
>>>>>Begin Processed Spectral Data<<<<<
365.73	280.86
365.92	280.86
366.12	280.86
366.32	194.26
366.52	149.79
366.72	147.45
366.91	117.03
367.11	168.52
367.31	112.35
367.51	135.75
367.70	189.58
367.90	173.20
368.10	210.65
368.30	259.80
368.49	173.20
368.69	229.37
368.89	266.82
369.09	189.58
369.28	189.58
369.48	210.65
369.68	264.48
369.87	273.84
370.07	285.55
370.27	280.86
370.47	294.91
370.66	468.11
370.86	521.94
371.06	550.03
371.25	528.96
371.45	489.17
371.65	531.30
371.84	561.73
372.04	543.00
372.24	580.45
372.44	538.32
372.63	617.90
372.83	582.79
373.03	601.52
373.22	507.90
373.42	592.16
373.62	575.77
373.81	709.18
374.01	697.48
374.21	741.95
374.40	552.37
374.60	645.99
374.79	660.03
374.99	575.77
375.19	667.05
375.38	657.69
375.58	676.41
375.78	699.82
375.97	636.63
376.17	688.12
376.37	648.33
376.56	638.97
376.76	585.13
376.95	669.39
377.15	655.35
377.35	699.82
377.54	674.07
377.74	730.25
377.93	744.29
378.13	755.99
378.33	760.67
378.52	695.14
378.72	692.80
378.91	697.48
379.11	711.52
379.31	636.63
379.50	739.61
379.70	723.23
379.89	772.38
380.09	690.46
380.28	751.31
380.48	734.93
380.68	744.29
380.87	702.16
381.07	770.04
381.26	741.95
381.46	823.87
381.65	772.38
381.85	760.67
382.04	770.04
382.24	828.55
382.43	837.91
382.63	788.76
382.83	720.88
383.02	809.83
383.22	798.12
383.41	765.36
383.61	727.91
383.80	734.93
384.00	821.53
384.19	786.42
384.39	823.87
384.58	830.89
384.78	826.21
384.97	802.80
385.17	819.19
385.36	828.55
385.56	741.95
385.75	870.68
385.95	805.14
386.14	868.34
386.34	828.55
386.53	816.85
386.72	765.36
386.92	950.26
387.11	894.08
387.31	917.49
387.50	882.38
387.70	854.30
387.89	924.51
388.09	837.91
388.28	936.21
388.48	908.13
388.67	903.45
388.86	854.30
389.06	987.71
389.25	908.13
389.45	833.23
389.64	929.19
389.84	959.62
390.03	1004.09
390.22	1057.92
390.42	954.94
390.61	933.87
390.81	985.37
391.00	940.90
391.19	1011.11
391.39	933.87
391.58	1083.67
391.78	992.39
391.97	957.28
392.16	938.55
392.36	1034.52
392.55	1006.43
392.75	990.05
392.94	1025.15
393.13	1128.14
393.33	1069.62
393.52	1078.99
393.71	1093.03
393.91	1151.54
394.10	1093.03
394.29	1069.62
394.49	1219.42
394.68	1158.57
394.88	1144.52
395.07	1177.29
395.26	1121.12
395.46	1156.22
395.65	1242.82
395.84	1242.82
396.04	1163.25
396.23	1174.95
396.42	1254.53
396.62	1252.19
396.81	1320.06
397.00	1165.59
397.19	1144.52
397.39	1212.40
397.58	1254.53
397.77	1294.32
397.97	1364.53
398.16	1177.29
398.35	1303.68
398.55	1240.48
398.74	1289.64
398.93	1404.32
399.12	1268.57
399.32	1270.91
399.51	1245.16
399.70	1345.81
399.90	1306.02
400.09	1376.24
400.28	1427.73
400.47	1404.32
400.67	1418.36
400.86	1460.49
401.05	1411.34
401.24	1430.07
401.44	1409.00
401.63	1558.80
401.82	1540.07
402.01	1331.76
402.21	1479.22
402.40	1488.58
402.59	1551.78
402.78	1565.82
402.97	1614.97
403.17	1528.37
403.36	1533.05
403.55	1570.50
403.74	1558.80
403.93	1598.59
404.13	1561.14
404.32	1575.18
404.51	1659.44
404.70	1600.93
404.89	1535.39
405.09	1781.15
405.28	1631.35
405.47	1645.40
405.66	1647.74
405.85	1755.40
406.05	1816.26
406.24	1729.66
406.43	1795.19
406.62	1867.75
406.81	1865.41
407.00	1825.62
407.20	1748.38
407.39	1851.36
407.58	1834.98
407.77	1909.88
407.96	1818.60
408.15	1865.41
408.34	1928.60
408.54	1879.45
408.73	1846.68
408.92	1837.32
409.11	1856.04
409.30	1994.14
409.49	1961.37
409.68	1991.80
409.87	2059.67
410.07	2092.44
410.26	2136.91
410.45	2045.63
410.64	2022.22
410.83	2225.85
411.02	2062.01
411.21	2263.30
411.40	2085.42
411.59	2312.45
411.78	2186.06
411.98	2179.04
412.17	2324.15
412.36	2188.40
412.55	2377.98
412.74	2459.90
412.93	2347.56
413.12	2298.41
413.31	2513.74
413.50	2441.18
413.69	2410.75
413.88	2495.01
414.07	2415.43
414.26	2487.99
414.45	2495.01
414.64	2581.61
414.83	2654.17
415.02	2644.81
415.22	2544.16
415.41	2745.45
415.60	2682.25
415.79	2698.64
415.98	2731.41
416.17	2888.22
416.36	2761.83
416.55	2703.32
416.74	2796.94
416.93	2813.32
417.12	2871.84
417.31	2911.63
417.50	2895.24
417.69	2984.18
417.88	3007.59
418.07	2956.10
418.26	3019.29
418.45	3054.40
418.64	3089.51
418.83	3096.53
419.02	3033.33
419.21	3101.21
419.39	3045.04
419.58	2988.86
419.77	3070.78
419.96	3225.26
420.15	3248.66
420.34	3222.92
420.53	3166.74
420.72	3234.62
420.91	3222.92
421.10	3218.24
421.29	3311.86
421.48	3330.58
421.67	3361.01
421.86	3276.75
422.05	3358.67
422.24	3358.67
422.43	3351.65
422.61	3368.03
422.80	3398.46
422.99	3515.48
423.18	3424.20
423.37	3389.10
423.56	3489.74
423.75	3531.87
423.94	3449.95
424.13	3192.49
424.32	3318.88
424.50	3566.98
424.69	3674.64
424.88	3543.57
425.07	3510.80
425.26	3468.67
425.45	3433.57
425.64	3353.99
425.83	3466.33
426.01	3442.93
426.20	3534.21
426.39	3630.17
426.58	3653.58
426.77	3634.85
426.96	3445.27
427.15	3463.99
427.33	3618.47
427.52	3468.67
427.71	3552.93
427.90	3684.00
428.09	3639.53
428.28	3676.98
428.46	3688.68
428.65	3726.13
428.84	3934.44
429.03	3763.58
429.22	3779.97
429.40	3779.97
429.59	3904.01
429.78	3641.87
429.97	3566.98
430.16	3782.31
430.34	3880.61
430.53	3850.18
430.72	3871.25
430.91	3894.65
431.10	3798.69
431.28	4009.34
431.47	3992.95
431.66	4114.66
431.85	4081.89
432.03	4077.21
432.22	4046.79
432.41	4007.00
432.60	4021.04
432.79	4032.74
432.97	4156.79
433.16	4189.56
433.35	4224.67
433.54	4138.07
433.72	4283.18
433.91	4180.20
434.10	4362.76
434.28	4147.43
434.47	4402.55
434.66	4372.12
434.85	4360.42
435.03	4259.78
435.22	4205.94
435.41	4486.81
435.59	4339.35
435.78	4376.80
435.97	4374.46
436.16	4367.44
436.34	4393.19
436.53	4447.02
436.72	4671.71
436.90	4437.66
437.09	4442.34
437.28	4507.87
437.46	4447.02
437.65	4538.30
437.84	4695.11
438.02	4624.90
438.21	4648.30
438.40	4568.73
438.58	4753.63
438.77	4863.63
438.96	4777.03
439.14	4882.36
439.33	5104.71
439.52	4957.25
439.70	4978.32
439.89	5142.16
440.08	5046.20
440.26	5078.96
440.45	4964.28
440.63	5128.11
440.82	5207.69
441.01	5060.24
441.19	5366.85
441.38	5207.69
441.57	5364.51
441.75	5357.49
441.94	5533.03
442.12	5336.42
442.31	5387.91
442.50	5556.43
442.68	5298.97
442.87	5420.68
443.05	5481.53
443.24	5561.11
443.43	5640.69
443.61	5628.99
443.80	5849.00
443.98	5509.62
444.17	5266.21
444.35	5696.86
444.54	5640.69
444.73	5572.82
444.91	5846.66
445.10	5664.10
445.28	5664.10
445.47	5701.54
445.65	5717.93
445.84	5895.81
446.02	5980.07
446.21	5844.32
446.39	5703.89
446.58	5722.61
446.77	5853.68
446.95	5741.33
447.14	5778.78
447.32	5926.24
447.51	5806.87
447.69	5830.27
447.88	5715.59
448.06	5717.93
448.25	5799.85
448.43	5944.96
448.62	5921.56
448.80	5841.98
448.99	5846.66
449.17	5802.19
449.36	5905.17
449.54	6083.05
449.73	6115.82
449.91	6331.15
450.10	6090.07
450.28	6050.28
450.46	6076.03
450.65	6181.35
450.83	6258.59
451.02	6296.04
451.20	6303.06
451.39	6214.12
451.57	6209.44
451.76	6209.44
451.94	6277.32
452.13	6270.30
452.31	6389.66
452.49	6274.98
452.68	6380.30
452.86	6317.11
453.05	6305.40
453.23	6359.24
453.42	6427.11
453.60	6211.78
453.78	6485.62
453.97	6410.73
454.15	6473.92
454.34	6590.95
454.52	6588.61
454.70	6635.42
454.89	6558.18
455.07	6651.80
455.26	6707.98
455.44	6885.86
455.62	6663.51
455.81	6750.10
455.99	6806.28
456.17	6810.96
456.36	6789.89
456.54	6822.66
456.73	6885.86
456.91	7098.84
457.09	7082.46
457.28	7178.42
457.46	7030.97
457.64	7180.76
457.83	7049.69
458.01	7162.04
458.19	7201.83
458.38	7096.50
458.56	7288.43
458.74	7248.64
458.93	7274.38
459.11	7300.13
459.29	7290.77
459.48	7187.79
459.66	7428.86
459.84	7227.57
460.03	7485.03
460.21	7480.35
460.39	7410.14
460.57	7492.05
460.76	7468.65
460.94	7548.23
461.12	7597.38
461.31	7527.16
461.49	7473.33
461.67	7538.87
461.85	7667.60
462.04	7625.47
462.22	8154.43
462.40	7861.86
462.59	7831.43
462.77	7918.03
462.95	7826.75
463.13	7920.37
463.32	7796.32
463.50	7943.78
463.68	8013.99
463.86	8077.19
464.05	7948.46
464.23	7985.91
464.41	8028.04
464.59	7889.95
464.78	8198.90
464.96	7974.21
465.14	7960.16
465.32	8196.56
465.50	8196.56
465.69	8168.47
465.87	8180.17
466.05	8215.28
466.23	8231.66
466.41	8229.32
466.60	8482.10
466.78	8210.60
466.96	8173.15
467.14	8016.33
467.32	8287.84
467.51	8290.18
467.69	8367.42
467.87	8308.90
468.05	8425.93
468.23	8458.70
468.41	8301.88
468.60	8414.23
468.78	8594.45
468.96	8341.67
469.14	8669.34
469.32	8821.48
469.50	8535.93
469.69	8727.86
469.87	8870.63
470.05	8744.24
470.23	8737.22
470.41	8725.52
470.59	9111.71
470.77	8861.27
470.95	9011.06
471.14	9060.21
471.32	8884.67
471.50	9111.71
471.68	9144.47
471.86	9092.98
472.04	9270.86
472.22	9266.18
472.40	9284.91
472.58	9504.92
472.77	9415.98
472.95	9502.58
473.13	9788.12
473.31	9530.66
473.49	9427.68
473.67	9490.87
473.85	9575.13
474.03	9760.03
474.21	9738.97
474.39	9977.70
474.57	10036.22
474.75	9942.60
474.93	9818.55
475.12	10129.84
475.30	10001.11
475.48	10143.88
475.66	10216.44
475.84	10169.63
476.02	10345.17
476.20	10209.42
476.38	10684.55
476.56	10565.18
476.74	10370.91
476.92	10581.56
477.10	10410.70
477.28	10698.59
477.46	10611.99
477.64	10888.17
477.82	11084.78
478.00	11293.08
478.18	11112.86
478.36	11218.19
478.54	11419.47
478.72	11246.27
478.90	11506.07
479.08	11735.45
479.26	11625.44
479.44	11679.27
479.62	11887.58
479.80	11908.65
479.98	11950.78
480.16	12451.65
480.34	12255.04
480.52	12250.36
480.70	12400.16
480.88	12271.43
481.06	12297.17
481.24	12351.01
481.41	12720.81
481.59	12849.54
481.77	12676.34
481.95	12924.44
482.13	13125.72
482.31	13137.43
482.49	13488.51
482.67	13275.52
482.85	13338.71
483.03	13841.93
483.21	13563.40
483.39	13982.36
483.57	13769.37
483.74	14146.20
483.92	14122.79
484.10	14015.13
484.28	14314.72
484.46	14555.79
484.64	15049.64
484.82	14342.80
485.00	14558.13
485.18	15147.95
485.35	14979.43
485.53	15040.28
485.71	15363.28
485.89	15520.09
486.07	15405.41
486.25	15527.11
486.43	15768.19
486.61	15564.56
486.78	16006.92
486.96	15744.78
487.14	16140.33
487.32	16208.21
487.50	16711.42
487.68	16475.03
487.85	16575.67
488.03	16898.67
488.21	16964.20
488.39	17216.98
488.57	17013.35
488.75	17451.03
488.92	17472.10
489.10	17675.73
489.28	17610.19
489.46	17846.58
489.64	17928.50
489.81	18497.25
489.99	18162.56
490.17	18450.44
490.35	18609.60
490.53	18958.34
490.70	18878.76
490.88	18689.18
491.06	19063.66
491.24	18895.14
491.41	18904.51
491.59	19349.21
491.77	19152.60
491.95	19576.24
492.13	19433.47
492.30	19857.10
492.48	19943.70
492.66	19924.98
492.84	19983.49
493.01	20414.15
493.19	20144.99
493.37	20414.15
493.54	20463.30
493.72	20727.78
493.90	20753.53
494.08	21090.57
494.25	21116.31
494.43	20919.71
494.61	21249.72
494.79	21446.33
494.96	21317.60
495.14	21766.98
495.32	21923.80
495.49	22022.10
495.67	21825.50
495.85	22244.45
496.02	22462.12
496.20	22761.71
496.38	22611.92
496.55	22637.66
496.73	23140.88
496.91	22937.25
497.09	23166.62
497.26	23042.57
497.44	23028.53
497.62	23094.07
497.79	23740.05
497.97	23667.50
498.14	23616.01
498.32	23939.00
498.50	23878.15
498.67	24006.87
498.85	23915.59
499.03	24116.88
499.20	24496.05
499.38	24577.97
499.56	24486.68
499.73	24374.34
499.91	24603.71
500.08	25174.80
500.26	24994.58
500.44	24828.40
500.61	24980.54
500.79	24833.08
500.97	25331.62
501.14	25647.59
501.32	25467.37
501.49	25177.14
501.67	25888.67
501.84	25748.23
502.02	25532.90
502.20	25860.58
502.37	25682.70
502.55	25900.37
502.72	25944.84
502.90	26529.97
503.07	26101.65
503.25	26309.96
503.43	26295.92
503.60	26625.93
503.78	27054.25
503.95	26553.38
504.13	26604.87
504.30	26820.20
504.48	27225.11
504.65	27042.55
504.83	26841.26
505.01	27344.48
505.18	27318.73
505.36	27454.48
505.53	27262.56
505.71	27143.19
505.88	27810.25
506.06	27747.05
506.23	27878.12
506.41	27768.12
506.58	28219.84
506.76	28006.85
506.93	27978.76
507.11	28051.32
507.28	28453.89
507.46	28219.84
507.63	28528.79
507.81	28645.82
507.98	28542.83
508.16	28779.23
508.33	28819.02
508.50	28884.55
508.68	28765.18
508.85	29055.41
509.03	29167.76
509.20	29193.50
509.38	29340.96
509.55	29722.46
509.73	29383.09
509.90	29413.51
510.08	29481.39
510.25	29305.85
510.42	29783.32
510.60	29883.96
510.77	30008.01
510.95	30726.55
511.12	30305.26
511.30	30263.13
511.47	30441.01
511.64	30389.52
511.82	30541.65
511.99	30019.71
512.17	31297.64
512.34	30438.67
512.51	31218.07
512.69	30946.56
512.86	31278.92
513.04	31288.28
513.21	31215.72
513.38	31510.63
513.56	31328.07
513.73	31103.38
513.90	31318.71
514.08	31379.56
514.25	31658.09
514.43	31967.04
514.60	32119.17
514.77	31711.92
514.95	32107.47
515.12	31938.95
515.29	31828.95
515.47	32292.37
515.64	32137.90
515.81	32259.60
515.99	32072.36
516.16	32870.48
516.33	32591.96
516.51	33020.28
516.68	32760.48
516.85	32699.62
517.03	32882.19
517.20	33191.14
517.37	32980.49
517.54	33352.63
517.72	33048.36
517.89	33350.29
518.06	33357.32
518.24	33130.28
518.41	33394.76
518.58	33247.31
518.75	33067.09
518.93	33940.11
519.10	33394.76
519.27	33500.09
519.45	33567.96
519.62	34054.79
519.79	33979.90
519.96	34043.09
520.14	33780.95
520.31	33692.01
520.48	33923.72
520.65	33968.19
520.83	34382.47
521.00	34771.00
521.17	34539.29
521.34	34529.92
521.52	34382.47
521.69	34705.46
521.86	35124.42
522.03	35005.05
522.20	34951.22
522.38	35491.88
522.55	35171.23
522.72	35615.93
522.89	35192.30
523.07	35873.39
523.24	35452.09
523.41	35159.53
523.58	35227.40
523.75	35847.64
523.92	35597.21
524.10	35835.94
524.27	35814.88
524.44	35910.84
524.61	35803.17
524.78	35995.10
524.96	36481.93
525.13	36280.64
525.30	36294.69
525.47	36533.42
525.64	36177.66
525.81	36552.15
525.98	36690.24
526.16	36584.91
526.33	36903.23
526.50	36669.17
526.67	36706.62
526.84	36898.55
527.01	36704.28
527.18	36882.16
527.36	36952.38
527.53	37256.65
527.70	37376.01
527.87	37425.17
528.04	37544.53
528.21	37490.70
528.38	37060.04
528.55	37507.08
528.72	37556.24
528.89	37193.45
529.07	37633.47
529.24	37333.89
529.41	38029.02
529.58	37951.79
529.75	37308.14
529.92	37752.84
530.09	37675.60
530.26	37872.21
530.43	38080.52
530.60	37830.08
530.77	37947.11
530.94	37963.49
531.11	38218.61
531.28	38192.86
531.46	38337.98
531.63	38522.88
531.80	38656.29
531.97	38642.24
532.14	38520.54
532.31	38333.29
532.48	38785.02
532.65	39005.03
532.82	39028.43
532.99	39037.80
533.16	38686.71
533.33	39063.54
533.50	39196.95
533.67	39012.05
533.84	38948.85
534.01	39700.17
534.18	38646.93
534.35	39487.18
534.52	39969.33
534.69	39243.76
534.86	39725.91
535.03	39503.56
535.20	39496.54
535.37	39824.22
535.54	40116.78
535.71	39576.12
535.88	39742.30
536.05	40069.97
536.22	39651.02
536.38	39704.85
536.55	40137.85
536.72	40074.65
536.89	39700.17
537.06	39920.18
537.23	40989.80
537.40	39697.83
537.57	40259.55
537.74	40243.17
537.91	40921.93
538.08	40163.59
538.25	40194.02
538.42	40690.21
538.59	40905.54
538.75	40095.72
538.92	40720.64
539.09	40835.33
539.26	41008.53
539.43	40456.16
539.60	40910.22
539.77	41045.97
539.94	41085.76
540.11	41401.74
540.28	41123.21
540.44	41186.41
540.61	40725.32
540.78	40947.67
540.95	40992.14
541.12	40961.72
541.29	41373.65
541.46	41354.93
541.62	41207.47
541.79	41549.19
541.96	40900.86
542.13	40964.06
542.30	41090.44
542.47	41846.44
542.63	41429.82
542.80	42263.05
542.97	42227.95
543.14	42370.72
543.31	42078.15
543.48	42094.53
543.64	42492.43
543.81	42389.44
543.98	42146.03
544.15	42319.23
544.32	42368.38
544.48	42485.40
544.65	42749.88
544.82	42588.39
544.99	42501.79
545.16	42670.31
545.32	42621.16
545.49	42993.30
545.66	42773.29
545.83	42899.68
546.00	43501.20
546.16	42674.99
546.33	42405.83
546.50	42490.09
546.67	42857.55
546.83	42557.96
547.00	43093.94
547.17	42796.70
547.34	43107.99
547.50	43091.60
547.67	43526.94
547.84	43339.70
548.00	43201.61
548.17	43676.74
548.34	43264.80
548.51	43871.00
548.67	43374.81
548.84	43908.45
549.01	43136.07
549.18	43285.87
549.34	43665.03
549.51	43538.65
549.68	43929.51
549.84	43929.51
550.01	43847.60
550.18	43796.10
550.34	43810.15
550.51	43955.26
550.68	44121.44
550.84	43697.80
551.01	44023.14
551.18	43969.30
551.34	44062.93
551.51	44172.93
551.68	44299.32
551.84	44875.09
552.01	44203.36
552.18	44552.10
552.34	43985.69
552.51	44252.51
552.68	44027.82
552.84	44280.60
553.01	44458.48
553.18	44179.95
553.34	44662.10
553.51	44395.28
553.67	44624.65
553.84	44685.51
554.01	44914.88
554.17	44650.40
554.34	44341.45
554.51	44727.64
554.67	45165.32
554.84	44790.83
555.00	44793.17
555.17	44584.86
555.33	44657.42
555.50	44849.35
555.67	44952.33
555.83	45184.04
556.00	45099.78
556.16	45291.71
556.33	44959.35
556.50	44968.71
556.66	45500.01
556.83	45045.95
556.99	45549.17
557.16	45453.20
557.32	45366.60
557.49	45385.33
557.65	45408.73
557.82	45298.73
557.98	45801.94
558.15	45453.20
558.32	45586.61
558.48	45322.13
558.65	45710.66
558.81	45478.95
558.98	45507.04
559.14	45535.12
559.31	45375.97
559.47	45570.23
559.64	45792.58
559.80	45883.86
559.97	45820.67
560.13	45687.26
560.30	46031.32
560.46	45734.07
560.63	45808.96
560.79	45883.86
560.96	45640.45
561.12	45949.40
561.29	46099.19
561.45	46209.20
561.61	46012.59
561.78	45867.48
561.94	46387.08
562.11	45631.08
562.27	45928.33
562.44	46073.45
562.60	45886.20
562.77	46211.54
562.93	45940.04
563.10	46459.63
563.26	46026.63
563.42	46511.13
563.59	46480.70
563.75	46054.72
563.92	46560.28
564.08	46464.32
564.24	46134.30
564.41	46265.37
564.57	46597.73
564.74	46358.99
564.90	46263.03
565.07	46380.06
565.23	46419.84
565.39	46328.56
565.56	46223.24
565.72	46382.40
565.88	46536.87
566.05	46546.23
566.21	46483.04
566.38	46417.50
566.54	46665.60
566.70	46536.87
566.87	46663.26
567.03	46256.01
567.19	46902.00
567.36	46457.29
567.52	46389.42
567.68	47269.46
567.85	46607.09
568.01	46925.40
568.17	46698.37
568.34	46897.31
568.50	47112.64
568.66	46969.87
568.83	46539.21
568.99	46754.54
569.15	46658.58
569.32	46766.24
569.48	46593.04
569.64	46869.23
569.81	46885.61
569.97	46981.57
570.13	47428.62
570.30	46862.21
570.46	47267.12
570.62	47409.89
570.78	47068.17
570.95	46969.87
571.11	47419.25
571.27	47007.32
571.43	46777.95
571.60	47026.04
571.76	47124.35
571.92	47082.22
572.09	47098.60
572.25	47112.64
572.41	46595.38
572.57	47014.34
572.74	47573.73
572.90	46822.42
573.06	47393.51
573.22	47430.96
573.38	47175.84
573.55	47030.72
573.71	47709.48
573.87	47377.12
574.03	47004.98
574.20	47613.52
574.36	47157.11
574.52	47419.25
574.68	47086.90
574.84	47288.18
575.01	47112.64
575.17	47515.22
575.33	47042.43
575.49	47206.26
575.65	47117.32
575.82	47342.02
575.98	46969.87
576.14	47091.58
576.30	47515.22
576.46	47192.22
576.62	47564.37
576.79	47339.68
576.95	46920.72
577.11	47398.19
577.27	46843.48
577.43	47466.06
577.59	47250.74
577.75	47220.31
577.92	47384.15
578.08	47470.75
578.24	47388.83
578.40	47693.10
578.56	47555.00
578.72	48032.47
578.88	47388.83
579.04	47648.63
579.21	47105.62
579.37	47547.98
579.53	47522.24
579.69	47384.15
579.85	47445.00
580.01	47290.52
580.17	47316.27
580.33	47585.43
580.49	47405.21
580.65	47629.90
580.82	47709.48
580.98	47662.67
581.14	47426.28
581.30	47597.13
581.46	47194.56
581.62	47393.51
581.78	47124.35
581.94	47470.75
582.10	47285.84
582.26	47746.93
582.42	47356.06
582.58	47744.59
582.74	47655.65
582.90	47667.35
583.06	47480.11
583.22	47765.65
583.38	47475.43
583.54	47786.72
583.70	47690.76
583.86	47765.65
584.02	47452.02
584.18	48044.18
584.34	47489.47
584.50	47899.06
584.66	47508.19
584.82	47842.89
584.98	48133.12
585.14	48116.73
585.30	47290.52
585.46	47723.52
585.62	47693.10
585.78	47999.71
585.94	47615.86
586.10	47606.50
586.26	47622.88
586.42	47501.17
586.58	47725.86
586.74	47550.32
586.90	47826.51
587.06	47971.62
587.22	47870.98
587.38	47615.86
587.54	48048.86
587.70	47842.89
587.86	48158.86
588.02	47367.76
588.18	47805.44
588.34	47746.93
588.49	48055.88
588.65	47777.36
588.81	47859.27
588.97	47901.40
589.13	47646.29
589.29	47681.39
589.45	48233.76
589.61	47826.51
589.77	47742.25
589.93	47831.19
590.08	48273.55
