SpectraSuite Data File
++++++++++++++++++++++++++++++++++++
Date: Fri Oct 25 11:22:43 EDT 2013
User: price-jones
Dark Spectrum Present: No
Reference Spectrum Present: No
Number of Sampled Component Spectra: 1
Spectrometers: USB2+H05261
Integration Time (usec): 100000 (USB2+H05261)
Spectra Averaged: 1 (USB2+H05261)
Boxcar Smoothing: 0 (USB2+H05261)
Correct for Electrical Dark: No (USB2+H05261)
Strobe/Lamp Enabled: No (USB2+H05261)
Correct for Detector Non-linearity: No (USB2+H05261)
Correct for Stray Light: No (USB2+H05261)
Number of Pixels in Processed Spectrum: 2048
>>>>>Begin Processed Spectral Data<<<<<
365.73	248.10
365.92	248.10
366.12	248.10
366.32	86.60
366.52	93.62
366.72	177.88
366.91	102.98
367.11	203.63
367.31	79.58
367.51	53.83
367.70	112.35
367.90	98.30
368.10	168.52
368.30	142.77
368.49	95.96
368.69	166.18
368.89	65.54
369.09	93.62
369.28	175.54
369.48	159.16
369.68	135.75
369.87	262.14
370.07	110.01
370.27	184.90
370.47	346.40
370.66	599.18
370.86	596.84
371.06	624.92
371.25	641.31
371.45	681.10
371.65	610.88
371.84	669.39
372.04	678.76
372.24	676.41
372.44	620.24
372.63	774.72
372.83	681.10
373.03	760.67
373.22	678.76
373.42	809.83
373.62	720.88
373.81	727.91
374.01	711.52
374.21	793.44
374.40	814.51
374.60	784.08
374.79	753.65
374.99	861.32
375.19	795.78
375.38	805.14
375.58	844.93
375.78	823.87
375.97	805.14
376.17	805.14
376.37	821.53
376.56	851.96
376.76	833.23
376.95	802.80
377.15	887.06
377.35	849.61
377.54	926.85
377.74	894.08
377.93	894.08
378.13	924.51
378.33	931.53
378.52	943.24
378.72	908.13
378.91	938.55
379.11	929.19
379.31	968.98
379.50	1020.47
379.70	976.00
379.89	1004.09
380.09	966.64
380.28	924.51
380.48	957.28
380.68	980.68
380.87	964.30
381.07	1022.81
381.26	1100.05
381.46	1001.75
381.65	1078.99
381.85	1039.20
382.04	957.28
382.24	1027.50
382.43	1088.35
382.63	1088.35
382.83	1100.05
383.02	1146.86
383.22	1196.01
383.41	1086.01
383.61	1071.97
383.80	1139.84
384.00	1109.41
384.19	1121.12
384.39	1191.33
384.58	1212.40
384.78	1139.84
384.97	1217.08
385.17	1242.82
385.36	1093.03
385.56	1144.52
385.75	1219.42
385.95	1149.20
386.14	1196.01
386.34	1083.67
386.53	1249.85
386.72	1259.21
386.92	1313.04
387.11	1259.21
387.31	1198.35
387.50	1266.23
387.70	1212.40
387.89	1275.59
388.09	1219.42
388.28	1303.68
388.48	1280.27
388.67	1394.96
388.86	1238.14
389.06	1245.16
389.25	1294.32
389.45	1336.45
389.64	1352.83
389.84	1387.94
390.03	1348.15
390.22	1378.58
390.42	1376.24
390.61	1352.83
390.81	1411.34
391.00	1397.30
391.19	1416.02
391.39	1486.24
391.58	1432.41
391.78	1481.56
391.97	1472.20
392.16	1441.77
392.36	1493.26
392.55	1493.26
392.75	1598.59
392.94	1558.80
393.13	1469.86
393.33	1451.13
393.52	1561.14
393.71	1598.59
393.91	1542.41
394.10	1586.88
394.29	1720.29
394.49	1668.80
394.68	1675.82
394.88	1554.12
395.07	1654.76
395.26	1710.93
395.46	1678.16
395.65	1666.46
395.84	1678.16
396.04	1746.04
396.23	1792.85
396.42	1795.19
396.62	1792.85
396.81	1764.76
397.00	1696.89
397.19	1760.08
397.39	1783.49
397.58	1788.17
397.77	1860.73
397.97	1823.28
398.16	1895.83
398.35	1923.92
398.55	1832.64
398.74	1872.43
398.93	1982.43
399.12	1834.98
399.32	1912.22
399.51	1998.82
399.70	1944.99
399.90	1865.41
400.09	1956.69
400.28	2071.37
400.47	1970.73
400.67	2090.10
400.86	2078.40
401.05	2001.16
401.24	2129.89
401.44	2069.03
401.63	2125.21
401.82	2150.95
402.01	2202.44
402.21	2087.76
402.40	2106.48
402.59	2195.42
402.78	2331.17
402.97	2293.72
403.17	2321.81
403.36	2396.71
403.55	2289.04
403.74	2298.41
403.93	2385.01
404.13	2249.25
404.32	2349.90
404.51	2469.27
404.70	2506.71
404.89	2410.75
405.09	2415.43
405.28	2417.77
405.47	2406.07
405.66	2499.69
405.85	2590.97
406.05	2530.12
406.24	2509.05
406.43	2530.12
406.62	2569.91
406.81	2654.17
407.00	2602.68
407.20	2597.99
407.39	2649.49
407.58	2759.49
407.77	2705.66
407.96	2789.92
408.15	2839.07
408.34	2771.19
408.54	2775.88
408.73	2808.64
408.92	2871.84
409.11	2883.54
409.30	2937.37
409.49	2909.29
409.68	2913.97
409.87	2916.31
410.07	2944.39
410.26	3061.42
410.45	2944.39
410.64	2965.46
410.83	3066.10
411.02	3145.68
411.21	3190.15
411.40	3164.40
411.59	3211.22
411.78	3173.77
411.98	3159.72
412.17	3342.28
412.36	3323.56
412.55	3382.07
412.74	3454.63
412.93	3431.23
413.12	3339.94
413.31	3503.78
413.50	3480.38
413.69	3433.57
413.88	3620.81
414.07	3583.36
414.26	3616.13
414.45	3611.45
414.64	3803.37
414.83	3784.65
415.02	3784.65
415.22	3955.51
415.41	3850.18
415.60	3866.56
415.79	3992.95
415.98	3868.91
416.17	3960.19
416.36	3929.76
416.55	4079.55
416.74	4100.62
416.93	4021.04
417.12	4133.39
417.31	4168.49
417.50	4142.75
417.69	4250.41
417.88	4133.39
418.07	4250.41
418.26	4318.29
418.45	4304.25
418.64	4386.16
418.83	4379.14
419.02	4472.76
419.21	4575.75
419.39	4547.66
419.58	4594.47
419.77	4493.83
419.96	4486.81
420.15	4641.28
420.34	4631.92
420.53	4720.86
420.72	4709.16
420.91	4805.12
421.10	4779.37
421.29	4725.54
421.48	4491.49
421.67	4727.88
421.86	4685.75
422.05	4875.34
422.24	4823.84
422.43	4786.40
422.61	4835.55
422.80	4896.40
422.99	4849.59
423.18	4945.55
423.37	5069.60
423.56	5076.62
423.75	4856.61
423.94	4809.80
424.13	4589.79
424.32	4760.65
424.50	4873.00
424.69	5083.64
424.88	5029.81
425.07	4880.02
425.26	4931.51
425.45	4940.87
425.64	4828.53
425.83	5085.98
426.01	5137.48
426.20	5041.51
426.39	5071.94
426.58	5219.39
426.77	4978.32
426.96	5214.71
427.15	5184.29
427.33	5289.61
427.52	5172.58
427.71	5376.21
427.90	5357.49
428.09	5439.40
428.28	5486.22
428.46	5390.25
428.65	5430.04
428.84	5495.58
429.03	5640.69
429.22	5317.70
429.40	5584.52
429.59	5556.43
429.78	5401.96
429.97	5282.59
430.16	5563.45
430.34	5570.48
430.53	5490.90
430.72	5582.18
430.91	5603.24
431.10	5778.78
431.28	5867.72
431.47	5820.91
431.66	5923.90
431.85	5888.79
432.03	5858.36
432.22	5996.45
432.41	5987.09
432.60	5874.74
432.79	6076.03
432.97	5933.26
433.16	5998.79
433.35	5954.32
433.54	6094.76
433.72	6118.16
433.91	6153.27
434.10	6012.84
434.28	6113.48
434.47	6127.52
434.66	6115.82
434.85	6459.88
435.03	6230.51
435.22	6317.11
435.41	6609.67
435.59	6333.49
435.78	6450.52
435.97	6483.28
436.16	6450.52
436.34	6614.35
436.53	6455.20
436.72	6665.85
436.90	6597.97
437.09	6593.29
437.28	6583.93
437.46	6686.91
437.65	6682.23
437.84	6935.01
438.02	6782.87
438.21	6817.98
438.40	6597.97
438.58	7117.57
438.77	7077.78
438.96	6836.70
439.14	7131.61
439.33	7002.88
439.52	7391.41
439.70	7206.51
439.89	7269.70
440.08	7342.26
440.26	7304.81
440.45	7307.15
440.63	7384.39
440.82	7667.60
441.01	7597.38
441.19	7676.96
441.38	7749.51
441.57	7562.27
441.75	7838.45
441.94	8077.19
442.12	8046.76
442.31	7974.21
442.50	7960.16
442.68	8058.46
442.87	7868.88
443.05	8046.76
443.24	8180.17
443.43	8245.71
443.61	8152.09
443.80	8549.98
443.98	8269.11
444.17	7889.95
444.35	8194.22
444.54	8402.52
444.73	8365.07
444.91	8081.87
445.10	8299.54
445.28	8418.91
445.47	8318.26
445.65	8360.39
445.84	8667.00
446.02	8472.74
446.21	8451.67
446.39	8414.23
446.58	8505.51
446.77	8587.43
446.95	8287.84
447.14	8315.92
447.32	8711.47
447.51	8344.01
447.69	8463.38
447.88	8538.27
448.06	8676.37
448.25	8482.10
448.43	8542.96
448.62	8631.90
448.80	8559.34
448.99	8769.99
449.17	8695.09
449.36	8802.75
449.54	8830.84
449.73	9004.04
449.91	8975.95
450.10	9006.38
450.28	9041.49
450.46	9226.39
450.65	9085.96
450.83	9163.20
451.02	9135.11
451.20	9266.18
451.39	9177.24
451.57	9221.71
451.76	9095.32
451.94	9224.05
452.13	9537.68
452.31	9350.44
452.49	9130.43
452.68	9270.86
452.86	9430.02
453.05	9551.73
453.23	9540.02
453.42	9324.69
453.60	9563.43
453.78	9591.52
453.97	9570.45
454.15	9731.95
454.34	9563.43
454.52	9671.09
454.70	9638.33
454.89	9675.77
455.07	9638.33
455.26	9813.87
455.44	10033.88
455.62	9998.77
455.81	10066.64
455.99	10122.82
456.17	10209.42
456.36	10193.03
456.54	10183.67
456.73	10293.68
456.91	10438.79
457.09	10354.53
457.28	10719.65
457.46	10457.51
457.64	10511.35
457.83	10558.16
458.01	10441.13
458.19	10670.50
458.38	10527.73
458.56	10787.53
458.74	10642.42
458.93	10670.50
459.11	10583.90
459.29	10909.24
459.48	10853.06
459.66	11023.92
459.84	10815.62
460.03	11136.27
460.21	11293.08
460.39	11009.88
460.57	10930.30
460.76	11143.29
460.94	11260.32
461.12	11353.94
461.31	11154.99
461.49	11253.30
461.67	11243.93
461.85	11379.68
462.04	11288.40
462.22	11880.56
462.40	11651.19
462.59	11452.24
462.77	11424.15
462.95	11543.52
463.13	11609.06
463.32	11829.07
463.50	11681.61
463.68	12004.61
463.86	11941.41
464.05	11922.69
464.23	11910.99
464.41	11903.96
464.59	11747.15
464.78	12156.74
464.96	12044.40
465.14	11721.40
465.32	11964.82
465.50	11969.50
465.69	12212.92
465.87	12191.85
466.05	12002.27
466.23	12170.79
466.41	12362.71
466.60	12524.21
466.78	12081.85
466.96	12343.99
467.14	12250.36
467.32	12617.83
467.51	12552.29
467.69	12231.64
467.87	12582.72
468.05	12622.51
468.23	12528.89
468.41	12276.11
468.60	12664.64
468.78	12580.38
468.96	12755.92
469.14	12830.82
469.32	12882.31
469.50	12629.53
469.69	13029.76
469.87	13149.13
470.05	13193.60
470.23	13053.17
470.41	13233.39
470.59	13231.05
470.77	13221.69
470.95	13582.13
471.14	13366.80
471.32	13195.94
471.50	13401.91
471.68	13528.30
471.86	13745.97
472.04	13907.46
472.22	14185.99
472.40	13886.40
472.58	13689.79
472.77	13991.72
472.95	14391.95
473.13	14679.84
473.31	14080.66
473.49	14113.43
473.67	14375.57
473.85	14565.15
474.03	14576.86
474.21	14864.74
474.39	14757.08
474.57	14604.94
474.75	14871.76
474.93	15117.52
475.12	14967.73
475.30	15044.96
475.48	15059.01
475.66	15276.68
475.84	15075.39
476.02	15316.47
476.20	15510.73
476.38	15896.92
476.56	16016.29
476.74	16004.58
476.92	15978.84
477.10	15875.85
477.28	16318.22
477.46	16566.31
477.64	16411.84
477.82	16482.05
478.00	17209.96
478.18	16898.67
478.36	17224.00
478.54	16959.52
478.72	17013.35
478.90	17516.57
479.08	17661.68
479.26	17750.62
479.44	17802.11
479.62	17771.69
479.80	18085.32
479.98	18368.52
480.16	18705.56
480.34	18270.22
480.52	18558.11
480.70	18609.60
480.88	18490.23
481.06	18817.91
481.24	18787.48
481.41	19269.63
481.59	19349.21
481.77	19531.77
481.95	19714.33
482.13	19648.80
482.31	20037.33
482.49	20465.64
482.67	20109.88
482.85	20493.73
483.03	21025.03
483.21	20896.30
483.39	21453.35
483.57	21158.44
483.74	20856.51
483.92	21565.70
484.10	21392.50
484.28	21738.90
484.46	22101.68
484.64	22576.81
484.82	22239.77
485.00	22483.19
485.18	22857.67
485.35	23381.95
485.53	22948.95
485.71	23014.49
485.89	23660.48
486.07	23714.31
486.25	23496.64
486.43	23749.42
486.61	24187.10
486.78	24257.31
486.96	24414.13
487.14	24716.06
487.32	24680.95
487.50	24847.13
487.68	24966.49
487.85	25701.42
488.03	25785.68
488.21	26127.40
488.39	25872.28
488.57	26176.55
488.75	26328.69
488.92	26714.87
489.10	27021.48
489.28	26967.65
489.46	27440.44
489.64	27087.02
489.81	28100.47
489.99	27866.42
490.17	27641.73
490.35	28486.66
490.53	28446.87
490.70	28910.30
490.88	28435.17
491.06	28989.88
491.24	29034.35
491.41	29256.70
491.59	29537.56
491.77	29301.17
491.95	29385.43
492.13	30075.88
492.30	30139.08
492.48	30263.13
492.66	30022.05
492.84	30843.58
493.01	30703.15
493.19	30974.65
493.37	30799.11
493.54	31318.71
493.72	31875.76
493.90	31576.17
494.08	32259.60
494.25	32367.27
494.43	32283.01
494.61	32596.64
494.79	32814.31
494.96	32589.62
495.14	33144.33
495.32	33336.25
495.49	33376.04
495.67	33284.76
495.85	33645.20
496.02	33846.49
496.20	33954.15
496.38	34314.59
496.55	34359.06
496.73	34752.27
496.91	34639.93
497.09	35248.47
497.26	34815.47
497.44	35337.41
497.62	35321.02
497.79	35782.11
497.97	35515.29
498.14	36367.24
498.32	36161.28
498.50	36327.45
498.67	36825.99
498.85	36521.72
499.03	36559.17
499.20	36378.95
499.38	37038.98
499.56	37483.68
499.73	37399.42
499.91	37612.41
500.08	37766.88
500.26	38007.96
500.44	37457.93
500.61	38323.93
500.79	38307.55
500.97	38417.55
501.14	39047.16
501.32	38649.27
501.49	38513.52
501.67	38965.24
501.84	39201.63
502.02	39257.81
502.20	39225.04
502.37	39679.10
502.55	39510.58
502.72	39723.57
502.90	39948.26
503.07	39580.80
503.25	40662.13
503.43	39859.32
503.60	40247.85
503.78	40669.15
503.95	40505.31
504.13	41053.00
504.30	40465.52
504.48	40533.40
504.65	41240.24
504.83	41146.62
505.01	41837.08
505.18	41324.50
505.36	42501.79
505.53	41603.02
505.71	41951.76
505.88	42153.05
506.06	41574.94
506.23	41701.32
506.41	41895.59
506.58	42557.96
506.76	42202.20
506.93	42726.48
507.11	43185.22
507.28	42831.80
507.46	42691.37
507.63	43145.44
507.81	43814.83
507.98	43115.01
508.16	43494.18
508.33	43854.62
508.50	43388.85
508.68	43683.76
508.85	43929.51
509.03	44240.81
509.20	44538.05
509.38	44495.92
509.55	44638.70
509.73	44690.19
509.90	44875.09
510.08	44715.93
510.25	44877.43
510.42	45104.46
510.60	45001.48
510.77	45453.20
510.95	46057.06
511.12	45420.44
511.30	45804.28
511.47	45455.54
511.64	45975.14
511.82	46017.27
511.99	45862.80
512.17	46227.92
512.34	46096.85
512.51	46649.22
512.69	46876.25
512.86	46670.28
513.04	46674.96
513.21	46791.99
513.38	46740.50
513.56	47547.98
513.73	47281.16
513.90	47445.00
514.08	47210.95
514.25	47686.07
514.43	47812.46
514.60	47622.88
514.77	47407.55
514.95	47749.27
515.12	47491.81
515.29	47910.77
515.47	48083.97
515.64	48472.49
515.81	48147.16
515.99	48327.38
516.16	48858.68
516.33	48563.78
516.51	48996.77
516.68	48285.25
516.85	48418.66
517.03	48940.60
517.20	49382.96
517.37	48893.79
517.54	48715.91
517.72	49209.76
517.89	49389.98
518.06	49563.18
518.24	49443.82
518.41	49499.99
518.58	49408.71
518.75	49588.93
518.93	49808.94
519.10	49841.71
519.27	50227.90
519.45	49841.71
519.62	50237.26
519.79	50211.51
519.96	50323.86
520.14	50628.13
520.31	50548.55
520.48	50288.75
520.65	50452.59
520.83	50808.35
521.00	50801.33
521.17	50866.86
521.34	50871.54
521.52	50918.35
521.69	50813.03
521.86	51320.93
522.03	51372.42
522.20	51690.73
522.38	51880.31
522.55	51449.66
522.72	51461.36
522.89	51267.09
523.07	51632.22
523.24	51634.56
523.41	51852.23
523.58	51681.37
523.75	52172.88
523.92	52032.45
524.10	52191.61
524.27	52107.35
524.44	52552.05
524.61	52210.33
524.78	52484.17
524.96	52266.50
525.13	52739.29
525.30	52552.05
525.47	52797.80
525.64	52610.56
525.81	52769.72
525.98	52828.23
526.16	52762.70
526.33	52755.68
526.50	53160.59
526.67	53064.63
526.84	53212.08
527.01	53214.42
527.18	53109.10
527.36	53165.27
527.53	53066.97
527.70	53366.55
527.87	53579.54
528.04	53434.43
528.21	53389.96
528.38	53371.24
528.55	53869.77
528.72	53645.08
528.89	53432.09
529.07	53579.54
529.24	53565.50
529.41	53970.41
529.58	53846.36
529.75	53928.28
529.92	54164.68
530.09	53965.73
530.26	54188.08
530.43	54298.09
530.60	54241.92
530.77	54054.67
530.94	54340.22
531.11	54089.78
531.28	54408.09
531.46	54581.29
531.63	54518.10
531.80	54614.06
531.97	54703.00
532.14	54344.90
532.31	54525.12
532.48	54642.15
532.65	54805.98
532.82	54674.91
532.99	54908.97
533.16	54794.28
533.33	54784.92
533.50	55173.45
533.67	55047.06
533.84	55016.63
534.01	55210.90
534.18	55065.78
534.35	55664.96
534.52	55217.92
534.69	55442.61
534.86	55339.63
535.03	55166.43
535.20	55388.78
535.37	55585.38
535.54	55426.23
535.71	55632.19
535.88	55512.83
536.05	55767.94
536.22	55660.28
536.38	55714.11
536.55	55765.60
536.72	55746.88
536.89	55749.22
537.06	55791.35
537.23	55957.53
537.40	55913.06
537.57	55723.47
537.74	55985.61
537.91	56037.11
538.08	55891.99
538.25	55955.19
538.42	56294.56
538.59	56442.02
538.75	56009.02
538.92	56147.11
539.09	56259.46
539.26	56437.34
539.43	56282.86
539.60	56376.48
539.77	56498.19
539.94	56596.49
540.11	56163.50
540.28	56528.62
540.44	56549.68
540.61	56659.69
540.78	56310.95
540.95	56879.70
541.12	56636.28
541.29	56477.13
541.46	56404.57
541.62	56725.22
541.79	56594.15
541.96	56582.45
542.13	56781.40
542.30	57027.15
542.47	56882.04
542.63	57022.47
542.80	56797.78
542.97	57153.54
543.14	57202.69
543.31	57064.60
543.48	57420.36
543.64	57595.90
543.81	57499.94
543.98	57338.44
544.15	57483.56
544.32	57626.33
544.48	57656.76
544.65	57368.87
544.82	57593.56
544.99	57425.04
545.16	57733.99
545.32	57542.07
545.49	57619.31
545.66	57897.83
545.83	57855.70
546.00	57895.49
546.16	57970.39
546.33	57614.63
546.50	57726.97
546.67	57888.47
546.83	57645.05
547.00	57783.15
547.17	57975.07
547.34	57954.00
547.50	58230.19
547.67	58330.83
547.84	57989.11
548.00	58291.04
548.17	58506.37
548.34	58225.51
548.51	58237.21
548.67	58475.94
548.84	58389.34
549.01	58225.51
549.18	58272.32
549.34	58323.81
549.51	58354.24
549.68	58337.85
549.84	58529.78
550.01	58663.19
550.18	58384.66
550.34	58492.33
550.51	58677.23
550.68	58695.95
550.84	58445.52
551.01	58635.10
551.18	58646.80
551.34	58541.48
551.51	58635.10
551.68	58773.19
551.84	58901.92
552.01	58707.66
552.18	58913.62
552.34	58440.84
552.51	58986.18
552.68	58578.93
552.84	58796.60
553.01	59079.80
553.18	58880.86
553.34	58990.86
553.51	58871.49
553.67	59000.22
553.84	59159.38
554.01	59180.45
554.17	59011.93
554.34	59288.11
554.51	59208.53
554.67	59344.28
554.84	59309.18
555.00	58885.54
555.17	59175.76
555.33	59374.71
555.50	59283.43
555.67	59267.05
555.83	59114.91
556.00	59346.62
556.16	59653.23
556.33	59592.38
556.50	59358.33
556.66	59571.32
556.83	59292.79
556.99	59379.39
557.16	59449.61
557.32	59744.51
557.49	59660.26
557.65	59473.01
557.82	59632.17
557.98	59566.63
558.15	59601.74
558.32	59636.85
558.48	59571.32
558.65	59667.28
558.81	59711.75
558.98	59636.85
559.14	59737.49
559.31	59908.35
559.47	59760.90
559.64	60027.72
559.80	59964.52
559.97	59896.65
560.13	59604.08
560.30	59807.71
560.46	59758.56
560.63	59854.52
560.79	59931.76
560.96	59882.61
561.12	59962.18
561.29	60048.78
561.45	60048.78
561.61	60001.97
561.78	60013.68
561.94	59884.95
562.11	59938.78
562.27	60175.17
562.44	60041.76
562.60	60151.77
562.77	60186.88
562.93	59852.18
563.10	60212.62
563.26	59999.63
563.42	60306.24
563.59	60385.82
563.75	60060.49
563.92	60121.34
564.08	59934.10
564.24	60310.92
564.41	60207.94
564.57	60355.39
564.74	60322.63
564.90	60111.98
565.07	60182.19
565.23	60280.50
565.39	60135.38
565.56	60254.75
565.72	60418.59
565.88	60369.44
566.05	60233.69
566.21	60289.86
566.38	60287.52
566.54	60301.56
566.70	60594.13
566.87	60575.40
567.03	60168.15
567.19	60580.09
567.36	60542.64
567.52	60463.06
567.68	60802.44
567.85	60509.87
568.01	60587.11
568.17	60397.52
568.34	60367.10
568.50	60580.09
568.66	60460.72
568.83	60575.40
568.99	60425.61
569.15	60505.19
569.32	60690.09
569.48	60662.00
569.64	60540.30
569.81	60594.13
569.97	60423.27
570.13	60666.69
570.30	60477.10
570.46	60718.18
570.62	60603.49
570.78	60580.09
570.95	60669.03
571.11	60755.63
571.27	60559.02
571.43	60750.94
571.60	60774.35
571.76	60790.73
571.92	60800.10
572.09	60608.17
572.25	60669.03
572.41	60608.17
572.57	60699.45
572.74	60921.80
572.90	60811.80
573.06	60874.99
573.22	60804.78
573.38	60774.35
573.55	60772.01
573.71	60793.07
573.87	60713.50
574.03	60685.41
574.20	60755.63
574.36	60879.67
574.52	61167.56
574.68	60757.97
574.84	61013.08
575.01	60818.82
575.17	60870.31
575.33	60802.44
575.49	60741.58
575.65	60830.52
575.82	60891.38
575.98	60839.89
576.14	61090.32
576.30	60872.65
576.46	60858.61
576.62	60743.92
576.79	60882.02
576.95	60647.96
577.11	61038.83
577.27	60982.66
577.43	60959.25
577.59	60802.44
577.75	60647.96
577.92	60849.25
578.08	60940.53
578.24	61083.30
578.40	61022.45
578.56	60945.21
578.72	61003.72
578.88	61155.86
579.04	61090.32
579.21	61001.38
579.37	61197.99
579.53	61139.47
579.69	60837.54
579.85	61205.01
580.01	61052.87
580.17	60882.02
580.33	60980.32
580.49	61078.62
580.65	61123.09
580.82	60945.21
580.98	60949.89
581.14	60940.53
581.30	61111.39
581.46	61031.81
581.62	61013.08
581.78	61038.83
581.94	61034.15
582.10	60973.30
582.26	61071.60
582.42	61020.11
582.58	60903.08
582.74	61109.05
582.90	60907.76
583.06	61029.47
583.22	60870.31
583.38	61087.98
583.54	61195.65
583.70	61293.95
583.86	61254.16
584.02	60940.53
584.18	61080.96
584.34	61151.18
584.50	61092.66
584.66	60865.63
584.82	60945.21
584.98	61137.13
585.14	61263.52
585.30	61181.60
585.46	61272.88
585.62	61106.71
585.78	61298.63
585.94	60966.27
586.10	61080.96
586.26	61001.38
586.42	61181.60
586.58	61296.29
586.74	61202.67
586.90	61008.40
587.06	61083.30
587.22	61214.37
587.38	61113.73
587.54	61305.65
587.70	61410.98
587.86	61293.95
588.02	61270.54
588.18	61228.41
588.34	61254.16
588.49	61022.45
