SpectraSuite Data File
++++++++++++++++++++++++++++++++++++
Date: Fri Oct 25 10:48:09 EDT 2013
User: price-jones
Dark Spectrum Present: No
Reference Spectrum Present: No
Number of Sampled Component Spectra: 1
Spectrometers: USB2+H05261
Integration Time (usec): 100000 (USB2+H05261)
Spectra Averaged: 1 (USB2+H05261)
Boxcar Smoothing: 0 (USB2+H05261)
Correct for Electrical Dark: No (USB2+H05261)
Strobe/Lamp Enabled: No (USB2+H05261)
Correct for Detector Non-linearity: No (USB2+H05261)
Correct for Stray Light: No (USB2+H05261)
Number of Pixels in Processed Spectrum: 2048
>>>>>Begin Processed Spectral Data<<<<<
365.73	170.86
365.92	170.86
366.12	170.86
366.32	23.41
366.52	49.15
366.72	56.17
366.91	56.17
367.11	100.64
367.31	65.54
367.51	39.79
367.70	147.45
367.90	30.43
368.10	35.11
368.30	39.79
368.49	23.41
368.69	114.69
368.89	77.24
369.09	81.92
369.28	81.92
369.48	65.54
369.68	145.11
369.87	67.88
370.07	114.69
370.27	126.39
370.47	145.11
370.66	407.25
370.86	353.42
371.06	402.57
371.25	418.96
371.45	498.53
371.65	423.64
371.84	372.15
372.04	435.34
372.24	503.22
372.44	435.34
372.63	472.79
372.83	463.43
373.03	442.36
373.22	503.22
373.42	554.71
373.62	463.43
373.81	496.19
374.01	484.49
374.21	557.05
374.40	561.73
374.60	575.77
374.79	571.09
374.99	505.56
375.19	526.62
375.38	524.28
375.58	592.16
375.78	552.37
375.97	674.07
376.17	638.97
376.37	538.32
376.56	564.07
376.76	585.13
376.95	594.50
377.15	575.77
377.35	660.03
377.54	622.58
377.74	557.05
377.93	667.05
378.13	603.86
378.33	521.94
378.52	559.39
378.72	681.10
378.91	575.77
379.11	645.99
379.31	638.97
379.50	603.86
379.70	674.07
379.89	690.46
380.09	594.50
380.28	624.92
380.48	645.99
380.68	669.39
380.87	650.67
381.07	718.54
381.26	718.54
381.46	606.20
381.65	704.50
381.85	662.37
382.04	725.57
382.24	772.38
382.43	655.35
382.63	758.33
382.83	671.73
383.02	716.20
383.22	688.12
383.41	699.82
383.61	784.08
383.80	713.86
384.00	713.86
384.19	720.88
384.39	767.70
384.58	695.14
384.78	678.76
384.97	739.61
385.17	730.25
385.36	732.59
385.56	835.57
385.75	732.59
385.95	720.88
386.14	781.74
386.34	819.19
386.53	793.44
386.72	746.63
386.92	891.74
387.11	784.08
387.31	802.80
387.50	770.04
387.70	765.36
387.89	870.68
388.09	830.89
388.28	741.95
388.48	823.87
388.67	891.74
388.86	877.70
389.06	894.08
389.25	877.70
389.45	938.55
389.64	903.45
389.84	905.79
390.03	943.24
390.22	917.49
390.42	870.68
390.61	826.21
390.81	933.87
391.00	842.59
391.19	966.64
391.39	880.04
391.58	940.90
391.78	1006.43
391.97	929.19
392.16	971.32
392.36	1095.37
392.55	952.60
392.75	887.06
392.94	917.49
393.13	912.81
393.33	1004.09
393.52	924.51
393.71	1032.18
393.91	1090.69
394.10	971.32
394.29	1053.24
394.49	1025.15
394.68	1060.26
394.88	1071.97
395.07	1095.37
395.26	1170.27
395.46	1076.65
395.65	1116.44
395.84	1100.05
396.04	1280.27
396.23	1174.95
396.42	1123.46
396.62	1118.78
396.81	1167.93
397.00	1102.39
397.19	1144.52
397.39	1170.27
397.58	1191.33
397.77	1238.14
397.97	1170.27
398.16	1228.78
398.35	1252.19
398.55	1254.53
398.74	1289.64
398.93	1357.51
399.12	1280.27
399.32	1336.45
399.51	1256.87
399.70	1383.26
399.90	1355.17
400.09	1366.87
400.28	1404.32
400.47	1380.92
400.67	1486.24
400.86	1369.21
401.05	1493.26
401.24	1535.39
401.44	1530.71
401.63	1481.56
401.82	1481.56
402.01	1406.66
402.21	1420.71
402.40	1446.45
402.59	1500.28
402.78	1530.71
402.97	1502.62
403.17	1624.33
403.36	1483.90
403.55	1526.03
403.74	1626.67
403.93	1729.66
404.13	1713.27
404.32	1586.88
404.51	1603.27
404.70	1734.34
404.89	1750.72
405.09	1748.38
405.28	1708.59
405.47	1687.53
405.66	1811.57
405.85	1741.36
406.05	1689.87
406.24	1675.82
406.43	1790.51
406.62	1774.13
406.81	1982.43
407.00	1802.21
407.20	1851.36
407.39	1870.09
407.58	1842.00
407.77	1846.68
407.96	2038.61
408.15	1891.15
408.34	1907.54
408.54	1989.46
408.73	1928.60
408.92	1926.26
409.11	2008.18
409.30	2073.71
409.49	1977.75
409.68	1930.94
409.87	2165.00
410.07	2085.42
410.26	2162.66
410.45	2054.99
410.64	2066.69
410.83	2188.40
411.02	2176.70
411.21	2120.53
411.40	2242.23
411.59	2263.30
411.78	2314.79
411.98	2242.23
412.17	2207.13
412.36	2275.00
412.55	2380.32
412.74	2502.03
412.93	2495.01
413.12	2406.07
413.31	2485.65
413.50	2452.88
413.69	2452.88
413.88	2656.51
414.07	2518.42
414.26	2595.65
414.45	2562.89
414.64	2630.76
414.83	2628.42
415.02	2658.85
415.22	2752.47
415.41	2752.47
415.60	2679.91
415.79	2731.41
415.98	2825.03
416.17	2825.03
416.36	2885.88
416.55	2722.04
416.74	2773.53
416.93	2719.70
417.12	2871.84
417.31	2963.12
417.50	2923.33
417.69	3038.02
417.88	2939.71
418.07	2974.82
418.26	3150.36
418.45	3133.98
418.64	3164.40
418.83	3030.99
419.02	3042.70
419.21	3239.30
419.39	3148.02
419.58	3066.10
419.77	3169.09
419.96	3190.15
420.15	3293.13
420.34	3148.02
420.53	3253.34
420.72	3393.78
420.91	3243.98
421.10	3208.87
421.29	3365.69
421.48	3417.18
421.67	3393.78
421.86	3318.88
422.05	3410.16
422.24	3410.16
422.43	3442.93
422.61	3424.20
422.80	3485.06
422.99	3307.18
423.18	3421.86
423.37	3522.51
423.56	3529.53
423.75	3393.78
423.94	3405.48
424.13	3272.07
424.32	3365.69
424.50	3531.87
424.69	3515.48
424.88	3550.59
425.07	3440.59
425.26	3372.71
425.45	3590.38
425.64	3559.95
425.83	3424.20
426.01	3513.14
426.20	3538.89
426.39	3513.14
426.58	3529.53
426.77	3499.10
426.96	3576.34
427.15	3599.74
427.33	3527.19
427.52	3653.58
427.71	3730.81
427.90	3658.26
428.09	3719.11
428.28	3709.75
428.46	3712.09
428.65	3789.33
428.84	3805.71
429.03	3836.14
429.22	3779.97
429.40	3707.41
429.59	3747.20
429.78	3658.26
429.97	3632.51
430.16	3702.73
430.34	3786.99
430.53	3915.72
430.72	3763.58
430.91	3758.90
431.10	3864.22
431.28	4021.04
431.47	3985.93
431.66	4098.28
431.85	4056.15
432.03	4189.56
432.22	4053.81
432.41	3985.93
432.60	4152.11
432.79	4135.73
432.97	4201.26
433.16	4269.14
433.35	4187.22
433.54	4187.22
433.72	4273.82
433.91	4156.79
434.10	4191.90
434.28	4138.07
434.47	4278.50
434.66	4362.76
434.85	4283.18
435.03	4430.63
435.22	4421.27
435.41	4472.76
435.59	4461.06
435.78	4367.44
435.97	4664.69
436.16	4510.21
436.34	4475.10
436.53	4674.05
436.72	4589.79
436.90	4489.15
437.09	4643.62
437.28	4430.63
437.46	4664.69
437.65	4582.77
437.84	4676.39
438.02	4606.17
438.21	4601.49
438.40	4575.75
438.58	4753.63
438.77	4784.06
438.96	4662.35
439.14	4917.47
439.33	5055.56
439.52	4980.66
439.70	5062.58
439.89	5076.62
440.08	5055.56
440.26	5048.54
440.45	5107.05
440.63	5041.51
440.82	5298.97
441.01	5322.38
441.19	5334.08
441.38	5228.76
441.57	5366.85
441.75	5469.83
441.94	5444.09
442.12	5544.73
442.31	5659.42
442.50	5621.97
442.68	5584.52
442.87	5369.19
443.05	5584.52
443.24	5699.20
443.43	5746.02
443.61	5657.07
443.80	5879.43
443.98	5521.32
444.17	5481.53
444.35	5731.97
444.54	5729.63
444.73	5643.03
444.91	5781.12
445.10	5736.65
445.28	5724.95
445.47	5551.75
445.65	5746.02
445.84	5795.17
446.02	5893.47
446.21	5755.38
446.39	5694.52
446.58	5879.43
446.77	6076.03
446.95	5703.89
447.14	5811.55
447.32	5860.70
447.51	5804.53
447.69	5806.87
447.88	5966.03
448.06	5898.15
448.25	5914.53
448.43	6008.16
448.62	5802.19
448.80	6033.90
448.99	5926.24
449.17	6108.80
449.36	6026.88
449.54	6029.22
449.73	6085.39
449.91	6263.27
450.10	6200.08
450.28	6349.87
450.46	6267.95
450.65	6392.00
450.83	6328.81
451.02	6211.78
451.20	6260.93
451.39	6167.31
451.57	6356.90
451.76	6399.02
451.94	6635.42
452.13	6534.78
452.31	6389.66
452.49	6326.47
452.68	6406.05
452.86	6518.39
453.05	6539.46
453.23	6600.31
453.42	6487.96
453.60	6335.83
453.78	6532.44
453.97	6623.72
454.15	6415.41
454.34	6534.78
454.52	6672.87
454.70	6752.45
454.89	6609.67
455.07	6733.72
455.26	6656.48
455.44	6806.28
455.62	6806.28
455.81	6913.94
455.99	6899.90
456.17	6850.75
456.36	6913.94
456.54	6913.94
456.73	7066.08
456.91	7183.10
457.09	7103.53
457.28	7487.37
457.46	7059.06
457.64	7094.16
457.83	7073.10
458.01	7136.29
458.19	7332.90
458.38	7255.66
458.56	7258.00
458.74	7393.75
458.93	7346.94
459.11	7435.88
459.29	7180.76
459.48	7428.86
459.66	7433.54
459.84	7541.21
460.03	7662.91
460.21	7407.80
460.39	7559.93
460.57	7566.95
460.76	7485.03
460.94	7669.94
461.12	7644.19
461.31	7679.30
461.49	7700.36
461.67	7646.53
461.85	7868.88
462.04	7470.99
462.22	8145.06
462.40	7922.71
462.59	7805.69
462.77	7964.84
462.95	7999.95
463.13	7875.90
463.32	7875.90
463.50	8056.12
463.68	8114.64
463.86	8025.70
464.05	7808.03
464.23	7784.62
464.41	8046.76
464.59	7960.16
464.78	8301.88
464.96	8142.72
465.14	8051.44
465.32	8273.79
465.50	8402.52
465.69	8257.41
465.87	8166.13
466.05	8161.45
466.23	8159.11
466.41	8203.58
466.60	8484.44
466.78	8315.92
466.96	8358.05
467.14	8145.06
467.32	8435.29
467.51	8557.00
467.69	8177.83
467.87	8266.77
468.05	8442.31
468.23	8409.54
468.41	8454.02
468.60	8489.12
468.78	8461.04
468.96	8564.02
469.14	8685.73
469.32	8652.96
469.50	8514.87
469.69	8709.13
469.87	8765.31
470.05	8905.74
470.23	8650.62
470.41	8943.19
470.59	8891.70
470.77	9029.79
470.95	8926.80
471.14	9118.73
471.32	8891.70
471.50	9034.47
471.68	9177.24
471.86	9205.33
472.04	9268.52
472.22	9488.53
472.40	9266.18
472.58	9355.12
472.77	9275.54
472.95	9343.42
473.13	9680.46
473.31	9394.91
473.49	9563.43
473.67	9359.80
473.85	9579.81
474.03	9764.72
474.21	9970.68
474.39	9991.75
474.57	9909.83
474.75	9937.91
474.93	10183.67
475.12	9888.76
475.30	9987.07
475.48	10167.29
475.66	10024.51
475.84	10174.31
476.02	10303.04
476.20	10178.99
476.38	10462.19
476.56	10658.80
476.74	10682.20
476.92	10647.10
477.10	10532.41
477.28	10764.12
477.46	10658.80
477.64	11052.01
477.82	11037.97
478.00	11227.55
478.18	11208.83
478.36	11325.85
478.54	11492.03
478.72	11304.79
478.90	11538.84
479.08	11763.53
479.26	11918.01
479.44	11648.85
479.62	12070.14
479.80	11889.92
479.98	12070.14
480.16	12306.54
480.34	12170.79
480.52	12259.73
480.70	12468.03
480.88	12512.50
481.06	12446.97
481.24	12404.84
481.41	12423.56
481.59	12973.59
481.77	13078.91
481.95	13151.47
482.13	13195.94
482.31	13146.79
482.49	13341.05
482.67	13462.76
482.85	13544.68
483.03	13472.12
483.21	13755.33
483.39	13940.23
483.57	13837.25
483.74	14244.50
483.92	14134.50
484.10	13799.80
484.28	14312.38
484.46	14284.29
484.64	14995.81
484.82	14188.33
485.00	14700.90
485.18	14764.10
485.35	14927.94
485.53	14965.39
485.71	14839.00
485.89	15431.15
486.07	15068.37
486.25	15276.68
486.43	15468.60
486.61	15644.14
486.78	15576.27
486.96	15744.78
487.14	15948.41
487.32	16205.87
487.50	16397.79
487.68	16479.71
487.85	16706.74
488.03	17083.57
488.21	16587.38
488.39	16889.31
488.57	16655.25
488.75	17020.38
488.92	17266.13
489.10	17324.65
489.28	17343.37
489.46	17921.48
489.64	17640.62
489.81	17860.63
489.99	18017.44
490.17	18118.09
490.35	18562.79
490.53	18623.64
490.70	18317.03
490.88	18752.37
491.06	18993.45
491.24	18911.53
491.41	18621.30
491.59	19339.85
491.77	19126.86
491.95	19346.87
492.13	19632.41
492.30	19508.37
492.48	19976.47
492.66	19683.91
492.84	19679.22
493.01	20065.41
493.19	20233.93
493.37	20350.96
493.54	20301.81
493.72	20517.14
493.90	20451.60
494.08	20823.75
494.25	21102.27
494.43	21294.19
494.61	21006.31
494.79	21053.12
494.96	21411.22
495.14	21242.70
495.32	21172.49
495.49	21593.78
495.67	21553.99
495.85	21891.03
496.02	21958.91
496.20	22265.52
496.38	22146.15
496.55	22148.49
496.73	22789.80
496.91	22501.91
497.09	22733.62
497.26	22726.60
497.44	22668.09
497.62	22984.06
497.79	23295.35
497.97	23194.71
498.14	23463.87
498.32	23302.37
498.50	23550.47
498.67	23789.20
498.85	23718.99
499.03	23859.42
499.20	24091.13
499.38	24004.53
499.56	24088.79
499.73	24294.76
499.91	24327.53
500.08	24570.94
500.26	24545.20
500.44	24386.04
500.61	24226.89
500.79	24091.13
500.97	24421.15
501.14	24882.24
501.32	25062.46
501.49	24933.73
501.67	24922.02
501.84	24936.07
502.02	25434.60
502.20	25235.66
502.37	25675.68
502.55	25671.00
502.72	25706.10
502.90	25373.75
503.07	25659.29
503.25	25694.40
503.43	25584.40
503.60	26181.23
503.78	26096.97
503.95	26022.08
504.13	26012.71
504.30	26354.43
504.48	26064.21
504.65	26632.96
504.83	26602.53
505.01	27072.98
505.18	26642.32
505.36	27124.47
505.53	26937.23
505.71	26979.36
505.88	27573.85
506.06	27082.34
506.23	27211.07
506.41	27143.19
506.58	27494.27
506.76	27737.69
506.93	27592.58
507.11	27843.01
507.28	27534.06
507.46	27955.36
507.63	27873.44
507.81	27899.19
507.98	27826.63
508.16	27913.23
508.33	28243.24
508.50	27915.57
508.68	28041.96
508.85	28231.54
509.03	28615.39
509.20	28280.69
509.38	28872.85
509.55	28671.56
509.73	28519.43
509.90	28821.36
510.08	28931.36
510.25	28683.27
510.42	29233.29
510.60	29376.06
510.77	29319.89
510.95	29104.56
511.12	29530.54
511.30	29652.25
511.47	29766.93
511.64	29762.25
511.82	30075.88
511.99	29881.62
512.17	30272.49
512.34	30017.37
512.51	29970.56
512.69	30185.89
512.86	29902.68
513.04	30071.20
513.21	30579.10
513.38	30192.91
513.56	30436.33
513.73	30211.64
513.90	30579.10
514.08	30459.73
514.25	30438.67
514.43	30850.60
514.60	31070.61
514.77	30735.92
514.95	31187.64
515.12	31400.63
515.29	31079.97
515.47	31482.55
515.64	31763.41
515.81	31213.38
515.99	31405.31
516.16	31393.61
516.33	31414.67
516.51	32016.19
516.68	31835.97
516.85	31267.22
517.03	31690.85
517.20	31576.17
517.37	31548.08
517.54	32219.81
517.72	32187.05
517.89	31754.05
518.06	31686.17
518.24	31732.98
518.41	32086.40
518.58	32283.01
518.75	32180.03
518.93	32467.91
519.10	32594.30
519.27	32741.75
519.45	32779.20
519.62	32954.74
519.79	32968.79
519.96	33020.28
520.14	32957.08
520.31	33041.34
520.48	33088.15
520.65	33362.00
520.83	33301.14
521.00	33593.71
521.17	33455.62
521.34	33525.83
521.52	33586.69
521.69	33530.51
521.86	33956.49
522.03	33902.66
522.20	33596.05
522.38	34061.82
522.55	33897.98
522.72	34117.99
522.89	34029.05
523.07	34389.49
523.24	34204.59
523.41	34082.88
523.58	34445.66
523.75	34366.09
523.92	34801.43
524.10	34389.49
524.27	34771.00
524.44	34792.06
524.61	35189.95
524.78	34897.39
524.96	35037.82
525.13	35058.88
525.30	35222.72
525.47	34925.47
525.64	35049.52
525.81	35311.66
525.98	35311.66
526.16	35260.17
526.33	35576.14
526.50	35639.34
526.67	34983.99
526.84	34974.63
527.01	34881.00
527.18	35119.74
527.36	35473.16
527.53	35639.34
527.70	36149.57
527.87	35943.61
528.04	35969.35
528.21	35531.67
528.38	35992.76
528.55	36128.51
528.72	36011.48
528.89	36486.61
529.07	36430.44
529.24	36095.74
529.41	36575.55
529.58	36531.08
529.75	36456.18
529.92	36854.08
530.09	36423.42
530.26	36664.49
530.43	36706.62
530.60	36451.50
530.77	36453.84
530.94	37085.79
531.11	36428.10
531.28	37064.72
531.46	37240.26
531.63	37361.97
531.80	37163.03
531.97	37256.65
532.14	37048.34
532.31	36989.83
532.48	37139.62
532.65	37617.09
532.82	37230.90
532.99	37680.28
533.16	37305.80
533.33	37399.42
533.50	37677.94
533.67	37476.66
533.84	37207.50
534.01	37687.31
534.18	37535.17
534.35	37916.68
534.52	37759.86
534.69	37940.08
534.86	38075.84
535.03	37783.27
535.20	38075.84
535.37	38213.93
535.54	38265.42
535.71	38113.28
535.88	38316.91
536.05	38108.60
536.22	38288.82
536.38	38293.50
536.55	38192.86
536.72	38408.19
536.89	38361.38
537.06	38249.03
537.23	38927.79
537.40	38677.35
537.57	38707.78
537.74	38871.62
537.91	39126.74
538.08	38841.19
538.25	38433.94
538.42	38855.23
538.59	38656.29
538.75	38256.06
538.92	39037.80
539.09	38848.21
539.26	39274.19
539.43	39227.38
539.60	38871.62
539.77	38815.44
539.94	39180.57
540.11	39232.06
540.28	39346.75
540.44	38983.96
540.61	39627.61
540.78	39093.97
540.95	39152.48
541.12	39325.68
541.29	39346.75
541.46	39400.58
541.62	39372.49
541.79	39737.62
541.96	39480.16
542.13	39288.23
542.30	39756.34
542.47	39751.66
542.63	39646.33
542.80	40016.14
542.97	40495.95
543.14	40428.07
543.31	40231.47
543.48	40591.91
543.64	41148.96
543.81	40341.47
543.98	40680.85
544.15	40622.34
544.32	41109.17
544.48	40795.54
544.65	40512.33
544.82	40685.53
544.99	40355.52
545.16	40390.62
545.32	40194.02
545.49	40924.27
545.66	40818.94
545.83	40762.77
546.00	41158.32
546.16	41261.30
546.33	40783.83
546.50	40760.43
546.67	41076.40
546.83	40882.14
547.00	40900.86
547.17	41219.17
547.34	41221.52
547.50	41186.41
547.67	41310.46
547.84	41486.00
548.00	41256.62
548.17	41088.10
548.34	41516.42
548.51	41422.80
548.67	41249.60
548.84	41752.82
549.01	41420.46
549.18	41626.43
549.34	41383.01
549.51	41642.81
549.68	41734.09
549.84	41713.03
550.01	41385.35
550.18	41212.15
550.34	41694.30
550.51	41787.92
550.68	41736.43
550.84	41682.60
551.01	41862.82
551.18	41687.28
551.34	41607.70
551.51	41951.76
551.68	42136.66
551.84	41993.89
552.01	41750.48
552.18	42010.28
552.34	41727.07
552.51	41926.02
552.68	41918.99
552.84	42192.84
553.01	42738.18
553.18	42487.74
553.34	42660.94
553.51	42148.37
553.67	42777.97
553.84	42405.83
554.01	42590.73
554.17	42326.25
554.34	42408.17
554.51	42824.78
554.67	42859.89
554.84	42623.50
555.00	42344.97
555.17	42555.62
555.33	42600.09
555.50	42770.95
555.67	42658.60
555.83	42288.80
556.00	42944.15
556.16	42990.96
556.33	42878.61
556.50	42953.51
556.66	43367.79
556.83	42597.75
556.99	43072.88
557.16	43278.85
557.32	43318.64
557.49	43129.05
557.65	42902.02
557.82	42464.34
557.98	43051.81
558.15	42962.87
558.32	42981.60
558.48	43119.69
558.65	42993.30
558.81	42794.36
558.98	43093.94
559.14	43290.55
559.31	43351.40
559.47	43323.32
559.64	43196.93
559.80	43267.14
559.97	43349.06
560.13	43072.88
560.30	43115.01
560.46	43426.30
560.63	43304.59
560.79	43653.33
560.96	43416.94
561.12	43578.43
561.29	43473.11
561.45	43559.71
561.61	43948.24
561.78	43260.12
561.94	43629.93
562.11	43358.42
562.27	43880.36
562.44	43510.56
562.60	43491.83
562.77	43599.50
562.93	43449.70
563.10	44044.20
563.26	43225.01
563.42	43632.27
563.59	43468.43
563.75	43367.79
563.92	44006.75
564.08	43985.69
564.24	44285.28
564.41	43901.43
564.57	43700.14
564.74	43863.98
564.90	44163.57
565.07	44048.88
565.23	43793.76
565.39	44046.54
565.56	43531.62
565.72	43838.23
565.88	43978.67
566.05	43889.73
566.21	43964.62
566.38	43910.79
566.54	44086.33
566.70	43871.00
566.87	44175.27
567.03	44177.61
567.19	44336.77
567.36	44341.45
567.52	43927.17
567.68	44011.43
567.85	44126.12
568.01	44154.21
568.17	44023.14
568.34	43847.60
568.50	43985.69
568.66	44023.14
568.83	43831.21
568.99	44018.46
569.15	43744.61
569.32	43845.26
569.48	43798.44
569.64	44135.48
569.81	44051.22
569.97	44203.36
570.13	44191.65
570.30	44163.57
570.46	44388.26
570.62	43585.46
570.78	43945.90
570.95	44308.68
571.11	43838.23
571.27	44046.54
571.43	44315.70
571.60	44144.84
571.76	44198.68
571.92	44093.35
572.09	44638.70
572.25	44348.47
572.41	43906.11
572.57	44416.35
572.74	45052.97
572.90	44205.70
573.06	44289.96
573.22	44212.72
573.38	44577.84
573.55	44203.36
573.71	44374.22
573.87	44032.50
574.03	43962.28
574.20	44191.65
574.36	44177.61
574.52	44563.80
574.68	44566.14
574.84	44355.49
575.01	44203.36
575.17	44381.24
575.33	44315.70
575.49	44643.38
575.65	44631.68
575.82	44301.66
575.98	44512.31
576.14	44687.85
576.30	44364.85
576.46	44332.09
576.62	44296.98
576.79	44254.85
576.95	43826.53
577.11	44119.10
577.27	44006.75
577.43	44299.32
577.59	44666.78
577.75	44123.78
577.92	44243.15
578.08	44168.25
578.24	44046.54
578.40	43913.13
578.56	44037.18
578.72	44725.30
578.88	44320.38
579.04	44610.61
579.21	44030.16
579.37	44327.41
579.53	44821.26
579.69	43957.60
579.85	43992.71
580.01	44713.59
580.17	44392.94
580.33	44587.21
580.49	44685.51
580.65	44589.55
580.82	44694.87
580.98	44542.74
581.14	44002.07
581.30	44704.23
581.46	44575.50
581.62	44694.87
581.78	44451.45
581.94	44484.22
582.10	44320.38
582.26	44589.55
582.42	44584.86
582.58	44612.95
582.74	44233.78
582.90	44233.78
583.06	44910.20
583.22	44758.06
583.38	44907.86
583.54	44755.72
583.70	44870.41
583.86	44734.66
584.02	44299.32
584.18	44584.86
584.34	44678.49
584.50	44580.18
584.66	44603.59
584.82	44528.69
584.98	45153.62
585.14	44697.21
585.30	44605.93
585.46	44362.51
585.62	44280.60
585.78	44568.48
585.94	44034.84
586.10	44296.98
586.26	44643.38
586.42	44137.82
586.58	44783.81
586.74	44734.66
586.90	44603.59
587.06	44711.25
587.22	45130.21
587.38	44311.02
587.54	44760.40
587.70	45057.65
587.86	44559.12
588.02	44877.43
588.18	44809.56
588.34	44596.57
588.49	44549.76
588.65	44055.90
588.81	44409.32
588.97	44346.13
589.13	44322.72
589.29	44467.84
589.45	44755.72
589.61	44603.59
589.77	45050.63
589.93	44126.12
590.08	45031.91
590.24	44992.12
