SpectraSuite Data File
++++++++++++++++++++++++++++++++++++
Date: Fri Oct 25 11:23:15 EDT 2013
User: price-jones
Dark Spectrum Present: No
Reference Spectrum Present: No
Number of Sampled Component Spectra: 1
Spectrometers: USB2+H05261
Integration Time (usec): 100000 (USB2+H05261)
Spectra Averaged: 1 (USB2+H05261)
Boxcar Smoothing: 0 (USB2+H05261)
Correct for Electrical Dark: No (USB2+H05261)
Strobe/Lamp Enabled: No (USB2+H05261)
Correct for Detector Non-linearity: No (USB2+H05261)
Correct for Stray Light: No (USB2+H05261)
Number of Pixels in Processed Spectrum: 2048
>>>>>Begin Processed Spectral Data<<<<<
365.73	229.37
365.92	229.37
366.12	229.37
366.32	182.56
366.52	114.69
366.72	135.75
366.91	142.77
367.11	147.45
367.31	110.01
367.51	65.54
367.70	86.60
367.90	93.62
368.10	135.75
368.30	126.39
368.49	135.75
368.69	102.98
368.89	124.05
369.09	93.62
369.28	198.95
369.48	147.45
369.68	177.88
369.87	283.20
370.07	201.29
370.27	201.29
370.47	292.57
370.66	585.13
370.86	599.18
371.06	631.94
371.25	657.69
371.45	660.03
371.65	645.99
371.84	657.69
372.04	671.73
372.24	713.86
372.44	704.50
372.63	699.82
372.83	779.40
373.03	723.23
373.22	781.74
373.42	699.82
373.62	791.10
373.81	767.70
374.01	784.08
374.21	840.25
374.40	819.19
374.60	807.48
374.79	760.67
374.99	830.89
375.19	786.42
375.38	830.89
375.58	793.44
375.78	812.17
375.97	844.93
376.17	952.60
376.37	912.81
376.56	884.72
376.76	866.00
376.95	842.59
377.15	898.77
377.35	898.77
377.54	889.40
377.74	882.38
377.93	819.19
378.13	870.68
378.33	947.92
378.52	945.58
378.72	961.96
378.91	1020.47
379.11	997.07
379.31	896.43
379.50	917.49
379.70	966.64
379.89	1006.43
380.09	950.26
380.28	950.26
380.48	1046.22
380.68	997.07
380.87	954.94
381.07	1004.09
381.26	1022.81
381.46	994.73
381.65	1036.86
381.85	1011.11
382.04	992.39
382.24	1104.73
382.43	1114.10
382.63	1064.94
382.83	1100.05
383.02	1149.20
383.22	1128.14
383.41	1109.41
383.61	1006.43
383.80	1156.22
384.00	1142.18
384.19	1102.39
384.39	1095.37
384.58	1214.74
384.78	1174.95
384.97	1158.57
385.17	1135.16
385.36	1158.57
385.56	1219.42
385.75	1128.14
385.95	1196.01
386.14	1259.21
386.34	1205.38
386.53	1212.40
386.72	1231.12
386.92	1287.29
387.11	1224.10
387.31	1245.16
387.50	1235.80
387.70	1245.16
387.89	1210.06
388.09	1263.89
388.28	1256.87
388.48	1231.12
388.67	1369.21
388.86	1317.72
389.06	1303.68
389.25	1397.30
389.45	1378.58
389.64	1406.66
389.84	1462.83
390.03	1343.47
390.22	1343.47
390.42	1409.00
390.61	1397.30
390.81	1399.64
391.00	1392.62
391.19	1341.13
391.39	1521.35
391.58	1397.30
391.78	1469.86
391.97	1444.11
392.16	1378.58
392.36	1483.90
392.55	1533.05
392.75	1577.52
392.94	1544.75
393.13	1654.76
393.33	1589.22
393.52	1640.72
393.71	1556.46
393.91	1591.56
394.10	1600.93
394.29	1638.38
394.49	1617.31
394.68	1577.52
394.88	1603.27
395.07	1633.69
395.26	1703.91
395.46	1596.25
395.65	1654.76
395.84	1692.21
396.04	1771.79
396.23	1816.26
396.42	1802.21
396.62	1818.60
396.81	1874.77
397.00	1809.23
397.19	1806.89
397.39	1771.79
397.58	1877.11
397.77	1799.87
397.97	1846.68
398.16	1891.15
398.35	1860.73
398.55	1959.03
398.74	1928.60
398.93	1984.77
399.12	1954.35
399.32	1914.56
399.51	1963.71
399.70	1963.71
399.90	1926.26
400.09	2090.10
400.28	2003.50
400.47	2054.99
400.67	2106.48
400.86	2122.87
401.05	2153.29
401.24	2101.80
401.44	2104.14
401.63	2174.36
401.82	2181.38
402.01	2099.46
402.21	2270.32
402.40	2239.89
402.59	2207.13
402.78	2237.55
402.97	2340.54
403.17	2363.94
403.36	2293.72
403.55	2406.07
403.74	2429.48
403.93	2434.16
404.13	2422.45
404.32	2396.71
404.51	2345.22
404.70	2452.88
404.89	2464.58
405.09	2483.31
405.28	2548.84
405.47	2516.08
405.66	2457.56
405.85	2518.42
406.05	2541.82
406.24	2612.04
406.43	2595.65
406.62	2761.83
406.81	2705.66
407.00	2595.65
407.20	2588.63
407.39	2607.36
407.58	2668.21
407.77	2640.12
407.96	2745.45
408.15	2827.37
408.34	2810.98
408.54	2848.43
408.73	2775.88
408.92	2810.98
409.11	2946.73
409.30	2995.89
409.49	2998.23
409.68	2981.84
409.87	2885.88
410.07	3038.02
410.26	2899.92
410.45	2977.16
410.64	3033.33
410.83	3042.70
411.02	3047.38
411.21	3201.85
411.40	3185.47
411.59	3335.26
411.78	3122.27
411.98	3220.58
412.17	3480.38
412.36	3267.39
412.55	3234.62
412.74	3536.55
412.93	3323.56
413.12	3302.50
413.31	3487.40
413.50	3527.19
413.69	3557.61
413.88	3669.96
414.07	3616.13
414.26	3817.41
414.45	3665.28
414.64	3716.77
414.83	3672.30
415.02	3796.35
415.22	3777.62
415.41	3880.61
415.60	3833.80
415.79	3941.46
415.98	4011.68
416.17	4037.42
416.36	3983.59
416.55	3999.98
416.74	4124.02
416.93	4156.79
417.12	4159.13
417.31	4227.01
417.50	4198.92
417.69	4423.61
417.88	4456.38
418.07	4381.48
418.26	4290.20
418.45	4388.50
418.64	4409.57
418.83	4437.66
419.02	4484.47
419.21	4519.57
419.39	4608.51
419.58	4486.81
419.77	4561.70
419.96	4599.15
420.15	4617.88
420.34	4622.56
420.53	4662.35
420.72	4648.30
420.91	4814.48
421.10	4774.69
421.29	4940.87
421.48	4631.92
421.67	4777.03
421.86	4814.48
422.05	4716.18
422.24	4966.62
422.43	4919.81
422.61	4966.62
422.80	4922.15
422.99	4983.00
423.18	5032.15
423.37	5076.62
423.56	5090.67
423.75	4924.49
423.94	4875.34
424.13	4606.17
424.32	4791.08
424.50	4985.34
424.69	5137.48
424.88	5235.78
425.07	5036.83
425.26	4983.00
425.45	5069.60
425.64	4952.57
425.83	5076.62
426.01	5214.71
426.20	5191.31
426.39	5100.03
426.58	5195.99
426.77	5076.62
426.96	5287.27
427.15	5125.77
427.33	5217.05
427.52	5167.90
427.71	5364.51
427.90	5233.44
428.09	5179.61
428.28	5495.58
428.46	5509.62
428.65	5495.58
428.84	5575.16
429.03	5514.30
429.22	5437.06
429.40	5511.96
429.59	5516.64
429.78	5427.70
429.97	5228.76
430.16	5418.34
430.34	5671.12
430.53	5858.36
430.72	5731.97
430.91	5729.63
431.10	5760.06
431.28	5781.12
431.47	5804.53
431.66	6010.50
431.85	5851.34
432.03	5804.53
432.22	6054.97
432.41	6071.35
432.60	5884.11
432.79	5980.07
432.97	6136.88
433.16	6097.10
433.35	6181.35
433.54	6153.27
433.72	6169.65
433.91	6148.59
434.10	6305.40
434.28	6296.04
434.47	6195.40
434.66	6326.47
434.85	6312.42
435.03	6368.60
435.22	6284.34
435.41	6555.84
435.59	6581.59
435.78	6389.66
435.97	6469.24
436.16	6593.29
436.34	6319.45
436.53	6551.16
436.72	6696.27
436.90	6612.01
437.09	6626.06
437.28	6452.86
437.46	6558.18
437.65	6637.76
437.84	6810.96
438.02	6775.85
438.21	6974.80
438.40	6876.49
438.58	6977.14
438.77	7183.10
438.96	7103.53
439.14	7267.36
439.33	7173.74
439.52	7400.77
439.70	7157.36
439.89	7199.49
440.08	7407.80
440.26	7581.00
440.45	7510.78
440.63	7435.88
440.82	7660.57
441.01	7627.81
441.19	7646.53
441.38	7772.92
441.57	7911.01
441.75	7981.23
441.94	7997.61
442.12	8187.19
442.31	8009.31
442.50	7943.78
442.68	7992.93
442.87	8002.29
443.05	8327.63
443.24	8348.69
443.43	8327.63
443.61	8374.44
443.80	8475.08
443.98	8051.44
444.17	7854.84
444.35	8479.76
444.54	8587.43
444.73	8297.20
444.91	8362.73
445.10	8547.64
445.28	8351.03
445.47	8325.29
445.65	8507.85
445.84	8332.31
446.02	8531.25
446.21	8594.45
446.39	8416.57
446.58	8451.67
446.77	8411.89
446.95	8287.84
447.14	8489.12
447.32	8538.27
447.51	8435.29
447.69	8732.54
447.88	8610.83
448.06	8652.96
448.25	8671.68
448.43	8657.64
448.62	8718.50
448.80	8641.26
448.99	8741.90
449.17	8748.92
449.36	8372.10
449.54	9128.09
449.73	9132.77
449.91	9224.05
450.10	9043.83
450.28	9310.65
450.46	9156.18
450.65	9165.54
450.83	9174.90
451.02	9006.38
451.20	9128.09
451.39	9305.97
451.57	9493.21
451.76	9198.31
451.94	9362.14
452.13	9275.54
452.31	9528.32
452.49	9277.88
452.68	9364.48
452.86	9430.02
453.05	9420.66
453.23	9411.29
453.42	9338.74
453.60	9483.85
453.78	9832.59
453.97	9561.09
454.15	9579.81
454.34	9596.20
454.52	9650.03
454.70	9937.91
454.89	9776.42
455.07	10111.11
455.26	9947.28
455.44	10059.62
455.62	9919.19
455.81	10104.09
455.99	10026.86
456.17	10195.37
456.36	10317.08
456.54	10455.17
456.73	10293.68
456.91	10389.64
457.09	10476.24
457.28	10726.68
457.46	10509.01
457.64	10534.75
457.83	10640.08
458.01	10630.71
458.19	10916.26
458.38	10616.67
458.56	10796.89
458.74	10829.66
458.93	10909.24
459.11	10836.68
459.29	10909.24
459.48	10916.26
459.66	10916.26
459.84	10974.77
460.03	11248.61
460.21	11162.01
460.39	11185.42
460.57	11117.54
460.76	11213.51
460.94	11377.34
461.12	11154.99
461.31	11227.55
461.49	11431.18
461.67	11517.78
461.85	11480.33
462.04	11316.49
462.22	11513.10
462.40	11714.38
462.59	11639.48
462.77	11559.91
462.95	11934.39
463.13	11754.17
463.32	11445.22
463.50	11908.65
463.68	11758.85
463.86	12187.17
464.05	11721.40
464.23	11868.86
464.41	12056.10
464.59	11859.49
464.78	12170.79
464.96	12304.20
465.14	12035.03
465.32	12315.90
465.50	12369.73
465.69	12320.58
465.87	12362.71
466.05	12154.40
466.23	12304.20
466.41	12341.64
466.60	13011.04
466.78	12549.95
466.96	12610.81
467.14	12514.84
467.32	12421.22
467.51	12610.81
467.69	12023.33
467.87	12620.17
468.05	12482.08
468.23	12423.56
468.41	12458.67
468.60	12734.85
468.78	13020.40
468.96	12725.49
469.14	12980.61
469.32	13422.97
469.50	12877.63
469.69	13114.02
469.87	13151.47
470.05	13011.04
470.23	13394.89
470.41	13172.54
470.59	13750.65
470.77	13226.37
470.95	13427.65
471.14	13570.43
471.32	13013.38
471.50	13617.24
471.68	13755.33
471.86	13902.78
472.04	13830.23
472.22	14129.81
472.40	13762.35
472.58	13961.30
472.77	14097.05
472.95	14232.80
473.13	14656.43
473.31	14314.72
473.49	14480.89
473.67	14572.18
473.85	14422.38
474.03	14520.68
474.21	14768.78
474.39	14764.10
474.57	14740.69
474.75	14951.34
474.93	15262.63
475.12	15351.57
475.30	15328.17
475.48	15112.84
475.66	15630.10
475.84	15382.00
476.02	15564.56
476.20	15634.78
476.38	15833.72
476.56	16170.76
476.74	16116.93
476.92	15840.75
477.10	16177.78
477.28	16369.71
477.46	16428.22
477.64	16669.30
477.82	16383.75
478.00	17315.28
478.18	16847.18
478.36	17256.77
478.54	17305.92
478.72	17221.66
478.90	17736.58
479.08	17827.86
479.26	18033.83
479.44	18008.08
479.62	18092.34
479.80	18403.63
479.98	18551.09
480.16	18850.67
480.34	18513.64
480.52	18616.62
480.70	18799.18
480.88	18370.86
481.06	18838.97
481.24	18953.66
481.41	19367.93
481.59	19470.92
481.77	19707.31
481.95	20013.92
482.13	19817.32
482.31	19772.85
482.49	20622.46
482.67	20112.22
482.85	20439.90
483.03	20676.29
483.21	21046.10
483.39	21081.21
483.57	20994.61
483.74	21436.97
483.92	21287.17
484.10	21394.84
484.28	22017.42
484.46	22249.13
484.64	22642.34
484.82	22356.80
485.00	22808.52
485.18	23051.94
485.35	23393.65
485.53	23133.86
485.71	23417.06
485.89	23639.41
486.07	23697.92
486.25	23847.72
486.43	23939.00
486.61	24180.07
486.78	24166.03
486.96	24414.13
487.14	24851.81
487.32	24664.57
487.50	25511.84
487.68	25322.26
487.85	25729.51
488.03	25902.71
488.21	26216.34
488.39	26094.63
488.57	26265.49
488.75	26867.01
488.92	26719.56
489.10	27187.66
489.28	26909.14
489.46	27419.38
489.64	27489.59
489.81	27915.57
489.99	27978.76
490.17	27735.35
490.35	28147.28
490.53	28446.87
490.70	28613.05
490.88	28575.60
491.06	29081.16
491.24	28865.83
491.41	29553.94
491.59	29766.93
491.77	29532.88
491.95	30118.01
492.13	30127.38
492.30	30064.18
492.48	30382.49
492.66	30401.22
492.84	30567.40
493.01	30918.48
493.19	30487.82
493.37	31536.38
493.54	31564.46
493.72	31943.63
493.90	31945.97
494.08	32205.77
494.25	32385.99
494.43	32914.95
494.61	32851.76
494.79	32910.27
494.96	32680.90
495.14	33359.66
495.32	33362.00
495.49	33144.33
495.67	33312.84
495.85	33956.49
496.02	34120.33
496.20	33949.47
496.38	34391.83
496.55	34508.86
496.73	35150.17
496.91	34988.67
497.09	35044.84
497.26	35035.48
497.44	35208.68
497.62	35871.05
497.79	35988.08
497.97	35711.89
498.14	36130.85
498.32	36610.66
498.50	36446.82
498.67	37406.44
498.85	36910.25
499.03	36935.99
499.20	37111.53
499.38	37364.31
499.56	37748.16
499.73	37881.57
499.91	37787.95
500.08	38061.79
500.26	37998.60
500.44	38017.32
500.61	38197.54
500.79	38272.44
500.97	38117.96
501.14	38979.28
501.32	39037.80
501.49	38534.58
501.67	39313.98
501.84	39028.43
502.02	39367.81
502.20	39339.72
502.37	39686.12
502.55	39498.88
502.72	40039.54
502.90	39966.99
503.07	40034.86
503.25	39739.96
503.43	40133.17
503.60	40453.82
503.78	40397.65
503.95	40388.28
504.13	40807.24
504.30	41141.94
504.48	40968.74
504.65	41448.55
504.83	41670.90
505.01	41848.78
505.18	41177.04
505.36	42237.31
505.53	42003.25
505.71	42295.82
505.88	41998.57
506.06	41698.98
506.23	42178.79
506.41	42134.32
506.58	42679.67
506.76	42674.99
506.93	42890.32
507.11	42965.21
507.28	42981.60
507.46	43405.23
507.63	43538.65
507.81	43676.74
507.98	43140.75
508.16	43716.53
508.33	43936.54
508.50	43585.46
508.68	44037.18
508.85	44498.26
509.03	44383.58
509.20	44404.64
509.38	44608.27
509.55	45102.12
509.73	45200.43
509.90	45165.32
510.08	45130.21
510.25	44725.30
510.42	45710.66
510.60	45488.31
510.77	45874.50
510.95	45815.99
511.12	45600.66
511.30	45624.06
511.47	45813.65
511.64	46082.81
511.82	45841.73
511.99	45827.69
512.17	46419.84
512.34	45715.34
512.51	46756.88
512.69	46625.81
512.86	46756.88
513.04	47124.35
513.21	46890.29
513.38	46967.53
513.56	47405.21
513.73	46838.80
513.90	47082.22
514.08	47421.59
514.25	47498.83
514.43	47805.44
514.60	47580.75
514.77	48048.86
514.95	48240.78
515.12	48135.46
515.29	48011.41
515.47	47990.34
515.64	48605.91
515.81	47964.60
515.99	48765.06
516.16	48734.63
516.33	48825.92
516.51	49279.98
516.68	49052.95
516.85	48811.87
517.03	49319.77
517.20	49172.31
517.37	49284.66
517.54	49322.11
517.72	49392.33
517.89	49389.98
518.06	49832.35
518.24	49865.11
518.41	49179.34
518.58	49928.31
518.75	49703.62
518.93	49982.14
519.10	50232.58
519.27	50258.32
519.45	50110.87
519.62	50389.39
519.79	50047.68
519.96	50461.95
520.14	50403.44
520.31	50351.94
520.48	50822.39
520.65	50731.11
520.83	50925.38
521.00	50925.38
521.17	50939.42
521.34	50843.46
521.52	51255.39
521.69	51136.02
521.86	51166.45
522.03	51501.15
522.20	51676.69
522.38	51756.27
522.55	51885.00
522.72	51800.74
522.89	51657.96
523.07	51805.42
523.24	51622.86
523.41	52133.09
523.58	52018.41
523.75	52231.40
523.92	52453.75
524.10	52315.65
524.27	52257.14
524.44	52254.80
524.61	52528.64
524.78	52662.05
524.96	52371.83
525.13	52512.26
525.30	52795.46
525.47	53027.18
525.64	53071.65
525.81	53097.39
525.98	52879.72
526.16	53078.67
526.33	52905.47
526.50	53256.55
526.67	53031.86
526.84	53432.09
527.01	53366.55
527.18	53045.90
527.36	53221.44
527.53	53233.14
527.70	53563.16
527.87	53638.06
528.04	53366.55
528.21	53595.93
528.38	53591.25
528.55	53925.94
528.72	53710.61
528.89	53762.11
529.07	53574.86
529.24	53970.41
529.41	53944.67
529.58	53825.30
529.75	53577.20
529.92	54260.64
530.09	53804.24
530.26	54473.63
530.43	54232.55
530.60	54080.42
530.77	54148.29
530.94	54663.21
531.11	54333.20
531.28	54543.84
531.46	54597.68
531.63	54642.15
531.80	54506.40
531.97	54782.58
532.14	54789.60
532.31	54698.32
532.48	54787.26
532.65	54836.41
532.82	54808.32
532.99	54948.76
533.16	54904.29
533.33	55182.81
533.50	55320.90
533.67	55136.00
533.84	54649.17
534.01	55456.65
534.18	55105.57
534.35	55686.03
534.52	55201.53
534.69	55725.81
534.86	55702.41
535.03	55391.12
535.20	55526.87
535.37	55489.42
535.54	55784.33
535.71	55547.93
535.88	55962.21
536.05	55676.66
536.22	55674.32
536.38	56006.68
536.55	56102.64
536.72	55927.10
536.89	55604.11
537.06	55983.27
537.23	55973.91
537.40	56020.72
537.57	56046.47
537.74	56294.56
537.91	56458.40
538.08	56332.01
538.25	55875.61
538.42	56179.88
538.59	56397.55
538.75	56196.26
538.92	56310.95
539.09	56505.21
539.26	56453.72
539.43	56385.85
539.60	56526.28
539.77	56418.61
539.94	56673.73
540.11	56472.45
540.28	56734.59
540.44	56886.72
540.61	56694.80
540.78	56502.87
540.95	56598.83
541.12	56804.80
541.29	56811.82
541.46	56809.48
541.62	56870.34
541.79	56832.89
541.96	56458.40
542.13	56837.57
542.30	56942.89
542.47	56963.96
542.63	57008.43
542.80	57193.33
542.97	57303.34
543.14	57553.77
543.31	57513.98
543.48	57499.94
543.64	57804.21
543.81	57553.77
543.98	57579.52
544.15	57448.45
544.32	57701.23
544.48	57855.70
544.65	57525.69
544.82	57731.65
544.99	57586.54
545.16	57560.79
545.32	57759.74
545.49	57968.05
545.66	58099.12
545.83	57925.92
546.00	57949.32
546.16	57972.73
546.33	57888.47
546.50	57766.76
546.67	58038.26
546.83	57675.48
547.00	57991.45
547.17	58007.84
547.34	57951.66
547.50	58323.81
547.67	58302.74
547.84	58206.78
548.00	58291.04
548.17	58440.84
548.34	58405.73
548.51	58621.06
548.67	58599.99
548.84	58475.94
549.01	58387.00
549.18	58492.33
549.34	58599.99
549.51	58805.96
549.68	58616.38
549.84	58670.21
550.01	58756.81
550.18	58539.14
550.34	58752.13
550.51	58724.04
550.68	58756.81
550.84	58511.05
551.01	58885.54
551.18	58667.87
551.34	58796.60
551.51	58805.96
551.68	58843.41
551.84	58843.41
552.01	58700.64
552.18	59105.55
552.34	58775.53
552.51	58862.13
552.68	58607.01
552.84	58836.39
553.01	59112.57
553.18	58843.41
553.34	59096.19
553.51	59032.99
553.67	59023.63
553.84	59189.81
554.01	59089.16
554.17	59283.43
554.34	59337.26
554.51	59426.20
554.67	59302.15
554.84	59159.38
555.00	59131.29
555.17	59011.93
555.33	59105.55
555.50	59257.68
555.67	59245.98
555.83	59302.15
556.00	59306.83
556.16	59597.06
556.33	59505.78
556.50	59470.67
556.66	59524.50
556.83	59393.43
556.99	59423.86
557.16	59760.90
557.32	59894.31
557.49	59751.54
557.65	59594.72
557.82	59276.41
557.98	59669.62
558.15	59650.89
558.32	59751.54
558.48	59655.57
558.65	59615.79
558.81	59508.12
558.98	59718.77
559.14	59821.75
559.31	59906.01
559.47	60001.97
559.64	59910.69
559.80	59971.55
559.97	59821.75
560.13	59901.33
560.30	60048.78
560.46	59941.12
560.63	60004.31
560.79	59854.52
560.96	60186.88
561.12	60023.04
561.29	59896.65
561.45	60135.38
561.61	60214.96
561.78	60009.00
561.94	60217.30
562.11	60067.51
562.27	60247.73
562.44	60231.35
562.60	60441.99
562.77	60130.70
562.93	60121.34
563.10	60306.24
563.26	60147.09
563.42	60509.87
563.59	60165.81
563.75	60102.62
563.92	60378.80
564.08	60278.16
564.24	60402.21
564.41	60317.95
564.57	60427.95
564.74	60441.99
564.90	60451.36
565.07	60392.84
565.23	60460.72
565.39	60175.17
565.56	60441.99
565.72	60121.34
565.88	60301.56
566.05	60423.27
566.21	60523.91
566.38	60467.74
566.54	60465.40
566.70	60741.58
566.87	60491.15
567.03	60350.71
567.19	60582.43
567.36	60500.51
567.52	60533.28
567.68	60821.16
567.85	60697.11
568.01	60720.52
568.17	60596.47
568.34	60617.53
568.50	60540.30
568.66	60577.75
568.83	60729.88
568.99	60697.11
569.15	60647.96
569.32	60526.25
569.48	60594.13
569.64	60750.94
569.81	60837.54
569.97	60502.85
570.13	60727.54
570.30	60622.22
570.46	60650.30
570.62	60963.93
570.78	60746.26
570.95	60809.46
571.11	60673.71
571.27	60821.16
571.43	60903.08
571.60	60821.16
571.76	60795.42
571.92	60776.69
572.09	60905.42
572.25	60795.42
572.41	60636.26
572.57	60821.16
572.74	61071.60
572.90	60760.31
573.06	60893.72
573.22	60992.02
573.38	60769.67
573.55	60886.70
573.71	60994.36
573.87	60818.82
574.03	60921.80
574.20	60954.57
574.36	60879.67
574.52	61013.08
574.68	61162.88
574.84	60996.70
575.01	61027.13
575.17	60926.49
575.33	60746.26
575.49	60917.12
575.65	61095.00
575.82	60893.72
575.98	61268.20
576.14	61134.79
576.30	60982.66
576.46	60884.36
576.62	60992.02
576.79	61029.47
576.95	60928.83
577.11	61041.17
577.27	61099.68
577.43	61052.87
577.59	60793.07
577.75	61010.74
577.92	60858.61
578.08	61298.63
578.24	61038.83
578.40	61151.18
578.56	60982.66
578.72	61038.83
578.88	61261.18
579.04	61298.63
579.21	61015.43
579.37	61293.95
579.53	61230.75
579.69	60879.67
579.85	60989.68
580.01	61193.31
580.17	60947.55
580.33	61165.22
580.49	61347.78
580.65	61134.79
580.82	61085.64
580.98	61247.14
581.14	61160.54
581.30	61155.86
581.46	61183.94
581.62	61230.75
581.78	61270.54
581.94	61326.72
582.10	61092.66
582.26	61296.29
582.42	61106.71
582.58	61162.88
582.74	61064.58
582.90	61261.18
583.06	61080.96
583.22	60933.51
583.38	61237.78
583.54	61073.94
583.70	61202.67
583.86	61095.00
584.02	61197.99
584.18	61195.65
584.34	61200.33
584.50	61120.75
584.66	61080.96
584.82	60825.84
584.98	61422.68
585.14	61132.45
585.30	61010.74
585.46	61256.50
585.62	61317.35
585.78	61270.54
585.94	61127.77
586.10	61277.57
586.26	61071.60
586.42	61247.14
586.58	61291.61
586.74	61233.10
586.90	61228.41
587.06	61263.52
587.22	61207.35
587.38	61315.01
587.54	61373.53
587.70	61448.42
587.86	61343.10
588.02	61085.64
588.18	61539.71
588.34	61343.10
588.49	61502.26
