SpectraSuite Data File
++++++++++++++++++++++++++++++++++++
Date: Fri Oct 25 10:48:31 EDT 2013
User: price-jones
Dark Spectrum Present: No
Reference Spectrum Present: No
Number of Sampled Component Spectra: 1
Spectrometers: USB2+H05261
Integration Time (usec): 100000 (USB2+H05261)
Spectra Averaged: 1 (USB2+H05261)
Boxcar Smoothing: 0 (USB2+H05261)
Correct for Electrical Dark: No (USB2+H05261)
Strobe/Lamp Enabled: No (USB2+H05261)
Correct for Detector Non-linearity: No (USB2+H05261)
Correct for Stray Light: No (USB2+H05261)
Number of Pixels in Processed Spectrum: 2048
>>>>>Begin Processed Spectral Data<<<<<
365.73	154.48
365.92	154.48
366.12	154.48
366.32	84.26
366.52	98.30
366.72	32.77
366.91	42.13
367.11	67.88
367.31	91.28
367.51	11.70
367.70	65.54
367.90	42.13
368.10	156.82
368.30	67.88
368.49	65.54
368.69	28.09
368.89	56.17
369.09	72.56
369.28	114.69
369.48	28.09
369.68	156.82
369.87	154.48
370.07	110.01
370.27	126.39
370.47	168.52
370.66	421.30
370.86	423.64
371.06	355.76
371.25	524.28
371.45	482.15
371.65	526.62
371.84	468.11
372.04	498.53
372.24	528.96
372.44	566.41
372.63	559.39
372.83	561.73
373.03	461.09
373.22	468.11
373.42	608.54
373.62	601.52
373.81	592.16
374.01	571.09
374.21	603.86
374.40	585.13
374.60	514.92
374.79	538.32
374.99	629.60
375.19	617.90
375.38	624.92
375.58	543.00
375.78	629.60
375.97	660.03
376.17	624.92
376.37	734.93
376.56	596.84
376.76	636.63
376.95	699.82
377.15	681.10
377.35	688.12
377.54	676.41
377.74	716.20
377.93	650.67
378.13	631.94
378.33	676.41
378.52	695.14
378.72	667.05
378.91	641.31
379.11	660.03
379.31	695.14
379.50	634.29
379.70	697.48
379.89	755.99
380.09	697.48
380.28	704.50
380.48	732.59
380.68	751.31
380.87	685.78
381.07	713.86
381.26	732.59
381.46	732.59
381.65	802.80
381.85	704.50
382.04	723.23
382.24	655.35
382.43	805.14
382.63	702.16
382.83	720.88
383.02	702.16
383.22	793.44
383.41	770.04
383.61	781.74
383.80	798.12
384.00	835.57
384.19	924.51
384.39	863.66
384.58	882.38
384.78	791.10
384.97	903.45
385.17	809.83
385.36	840.25
385.56	795.78
385.75	823.87
385.95	858.98
386.14	922.17
386.34	954.94
386.53	826.21
386.72	873.02
386.92	912.81
387.11	926.85
387.31	830.89
387.50	922.17
387.70	898.77
387.89	887.06
388.09	985.37
388.28	931.53
388.48	983.02
388.67	985.37
388.86	954.94
389.06	1011.11
389.25	1015.79
389.45	1050.90
389.64	1043.88
389.84	1020.47
390.03	947.92
390.22	1050.90
390.42	999.41
390.61	1041.54
390.81	1116.44
391.00	1027.50
391.19	1142.18
391.39	1064.94
391.58	1111.75
391.78	1048.56
391.97	1156.22
392.16	1071.97
392.36	1064.94
392.55	1116.44
392.75	990.05
392.94	912.81
393.13	1043.88
393.33	961.96
393.52	1039.20
393.71	1076.65
393.91	1221.76
394.10	1097.71
394.29	1280.27
394.49	1254.53
394.68	1280.27
394.88	1287.29
395.07	1355.17
395.26	1270.91
395.46	1362.19
395.65	1301.34
395.84	1249.85
396.04	1282.61
396.23	1186.65
396.42	1123.46
396.62	1280.27
396.81	1275.59
397.00	1277.93
397.19	1315.38
397.39	1341.13
397.58	1458.15
397.77	1226.44
397.97	1418.36
398.16	1439.43
398.35	1423.05
398.55	1430.07
398.74	1535.39
398.93	1633.69
399.12	1521.35
399.32	1462.83
399.51	1556.46
399.70	1666.46
399.90	1640.72
400.09	1619.65
400.28	1607.95
400.47	1729.66
400.67	1720.29
400.86	1664.12
401.05	1664.12
401.24	1778.81
401.44	1699.23
401.63	1727.32
401.82	1806.89
402.01	1703.91
402.21	1689.87
402.40	1743.70
402.59	1682.85
402.78	1792.85
402.97	1767.10
403.17	1774.13
403.36	1846.68
403.55	1872.43
403.74	1900.52
403.93	1909.88
404.13	1874.77
404.32	1813.92
404.51	1937.96
404.70	1930.94
404.89	1961.37
405.09	2008.18
405.28	1905.20
405.47	1933.28
405.66	1970.73
405.85	1982.43
406.05	1984.77
406.24	2036.27
406.43	1994.14
406.62	2073.71
406.81	2111.16
407.00	2038.61
407.20	2162.66
407.39	2038.61
407.58	2230.53
407.77	2134.57
407.96	2286.70
408.15	2258.62
408.34	2193.08
408.54	2335.85
408.73	2289.04
408.92	2483.31
409.11	2333.51
409.30	2235.21
409.49	2347.56
409.68	2214.15
409.87	2286.70
410.07	2373.30
410.26	2434.16
410.45	2417.77
410.64	2502.03
410.83	2511.39
411.02	2490.33
411.21	2520.76
411.40	2574.59
411.59	2743.11
411.78	2710.34
411.98	2635.44
412.17	2834.39
412.36	2771.19
412.55	2792.26
412.74	2857.79
412.93	2874.18
413.12	2759.49
413.31	2827.37
413.50	2810.98
413.69	2839.07
413.88	3136.32
414.07	2897.58
414.26	2951.42
414.45	2937.37
414.64	2939.71
414.83	3033.33
415.02	3087.17
415.22	3199.51
415.41	3229.94
415.60	3265.05
415.79	3269.73
415.98	3236.96
416.17	3318.88
416.36	3173.77
416.55	3293.13
416.74	3328.24
416.93	3293.13
417.12	3421.86
417.31	3318.88
417.50	3297.81
417.69	3517.83
417.88	3447.61
418.07	3471.01
418.26	3478.04
418.45	3473.36
418.64	3714.43
418.83	3508.46
419.02	3513.14
419.21	3672.30
419.39	3588.04
419.58	3576.34
419.77	3506.12
419.96	3686.34
420.15	3758.90
420.34	3716.77
420.53	3747.20
420.72	3808.05
420.91	3824.44
421.10	3887.63
421.29	3871.25
421.48	3751.88
421.67	3908.69
421.86	3859.54
422.05	3833.80
422.24	3833.80
422.43	3847.84
422.61	3796.35
422.80	3985.93
422.99	3997.64
423.18	3932.10
423.37	4044.45
423.56	4098.28
423.75	4098.28
423.94	4004.66
424.13	3815.07
424.32	3957.85
424.50	4072.53
424.69	4044.45
424.88	4007.00
425.07	3957.85
425.26	3925.08
425.45	3955.51
425.64	3920.40
425.83	3925.08
426.01	4149.77
426.20	4023.38
426.39	4084.23
426.58	4025.72
426.77	4114.66
426.96	4053.81
427.15	4114.66
427.33	4049.13
427.52	4112.32
427.71	4234.03
427.90	4203.60
428.09	4212.96
428.28	4222.33
428.46	4180.20
428.65	4203.60
428.84	4423.61
429.03	4287.86
429.22	4072.53
429.40	4280.84
429.59	4351.06
429.78	3882.95
429.97	3934.44
430.16	4007.00
430.34	4131.05
430.53	4292.54
430.72	4304.25
430.91	4353.40
431.10	4423.61
431.28	4641.28
431.47	4692.77
431.66	4758.31
431.85	4437.66
432.03	4641.28
432.22	4753.63
432.41	4596.81
432.60	4641.28
432.79	4702.14
432.97	4858.95
433.16	4777.03
433.35	4816.82
433.54	4798.10
433.72	4706.82
433.91	4793.42
434.10	4706.82
434.28	4830.87
434.47	5067.26
434.66	5057.90
434.85	4983.00
435.03	5015.77
435.22	4931.51
435.41	5273.23
435.59	5149.18
435.78	5165.56
435.97	5146.84
436.16	5121.09
436.34	5144.50
436.53	5088.32
436.72	5301.31
436.90	5125.77
437.09	5317.70
437.28	5165.56
437.46	5364.51
437.65	5252.16
437.84	5104.71
438.02	5191.31
438.21	5376.21
438.40	5165.56
438.58	5474.51
438.77	5418.34
438.96	5612.60
439.14	5516.64
439.33	5565.79
439.52	5589.20
439.70	5755.38
439.89	5790.49
440.08	5853.68
440.26	5605.58
440.45	5762.40
440.63	5902.83
440.82	6066.67
441.01	5968.37
441.19	6066.67
441.38	6115.82
441.57	6122.84
441.75	6157.95
441.94	6359.24
442.12	6384.98
442.31	6499.67
442.50	6370.94
442.68	6214.12
442.87	6490.31
443.05	6396.68
443.24	6537.12
443.43	6466.90
443.61	6750.10
443.80	6516.05
443.98	6361.58
444.17	6190.72
444.35	6551.16
444.54	6590.95
444.73	6750.10
444.91	6644.78
445.10	6647.12
445.28	6452.86
445.47	6541.80
445.65	6579.25
445.84	6658.82
446.02	6633.08
446.21	6572.22
446.39	6637.76
446.58	7091.82
446.77	6745.42
446.95	6640.10
447.14	6820.32
447.32	6902.24
447.51	6801.60
447.69	6712.66
447.88	6555.84
448.06	6761.81
448.25	6750.10
448.43	6700.95
448.62	6637.76
448.80	6815.64
448.99	6974.80
449.17	6895.22
449.36	6780.53
449.54	6930.33
449.73	7229.91
449.91	7239.28
450.10	7314.17
450.28	7384.39
450.46	7204.17
450.65	7236.94
450.83	7199.49
451.02	7101.19
451.20	7269.70
451.39	7323.54
451.57	7204.17
451.76	7180.76
451.94	7417.16
452.13	7335.24
452.31	7358.64
452.49	7222.89
452.68	7344.60
452.86	7335.24
453.05	7454.61
453.23	7536.52
453.42	7379.71
453.60	7489.71
453.78	7679.30
453.97	7403.11
454.15	7487.37
454.34	7414.82
454.52	7487.37
454.70	7585.68
454.89	7588.02
455.07	7588.02
455.26	7712.07
455.44	7887.61
455.62	7779.94
455.81	7875.90
455.99	7770.58
456.17	7894.63
456.36	8074.85
456.54	8028.04
456.73	8030.38
456.91	8322.94
457.09	8152.09
457.28	8210.60
457.46	8217.62
457.64	8397.84
457.83	8191.88
458.01	8065.49
458.19	8479.76
458.38	7992.93
458.56	8238.69
458.74	8407.20
458.93	8402.52
459.11	8205.92
459.29	8500.83
459.48	8341.67
459.66	8400.18
459.84	8622.53
460.03	8540.61
460.21	8802.75
460.39	8505.51
460.57	8587.43
460.76	8812.12
460.94	8716.16
461.12	8723.18
461.31	8877.65
461.49	8734.88
461.67	8793.39
461.85	8980.64
462.04	8863.61
462.22	9100.00
462.40	9071.92
462.59	9048.51
462.77	8938.51
462.95	9060.21
463.13	8879.99
463.32	8968.93
463.50	9158.52
463.68	9128.09
463.86	9158.52
464.05	8896.38
464.23	9076.60
464.41	9186.60
464.59	9130.43
464.78	9408.95
464.96	9153.84
465.14	9287.25
465.32	9238.09
465.50	9355.12
465.69	9287.25
465.87	9294.27
466.05	9399.59
466.23	9266.18
466.41	9338.74
466.60	9334.06
466.78	9348.10
466.96	9460.45
467.14	9245.12
467.32	9516.62
467.51	9645.35
467.69	9352.78
467.87	9547.05
468.05	10031.54
468.23	9668.75
468.41	9685.14
468.60	9563.43
468.78	9619.60
468.96	9584.49
469.14	9781.10
469.32	10008.13
469.50	9596.20
469.69	9745.99
469.87	9635.99
470.05	9914.51
470.23	9809.19
470.41	9806.84
470.59	10066.64
470.77	9928.55
470.95	10333.47
471.14	10232.82
471.32	10216.44
471.50	10272.61
471.68	10403.68
471.86	10408.36
472.04	10537.09
472.22	10729.02
472.40	10511.35
472.58	10534.75
472.77	10448.15
472.95	10696.25
473.13	11009.88
473.31	10494.96
473.49	10595.61
473.67	10682.20
473.85	10738.38
474.03	11407.77
474.21	10925.62
474.39	11194.78
474.57	11073.07
474.75	11215.85
474.93	11447.56
475.12	11066.05
475.30	11569.27
475.48	11314.15
475.66	11332.87
475.84	11473.31
476.02	11655.87
476.20	11676.93
476.38	11740.13
476.56	12049.08
476.74	12002.27
476.92	12044.40
477.10	12114.61
477.28	12025.67
477.46	12395.48
477.64	12451.65
477.82	12449.31
478.00	12697.41
478.18	12437.61
478.36	12711.45
478.54	12748.90
478.72	12987.63
478.90	12940.82
479.08	13186.58
479.26	13483.83
479.44	13308.29
479.62	13319.99
479.80	13385.52
479.98	13554.04
480.16	14139.18
480.34	13774.05
480.52	13846.61
480.70	13797.46
480.88	13827.88
481.06	13930.87
481.24	14328.76
481.41	14190.67
481.59	14537.07
481.77	14476.21
481.95	14560.47
482.13	14665.80
482.31	14558.13
482.49	15096.46
482.67	15183.06
482.85	15246.25
483.03	15290.72
483.21	15454.56
483.39	15655.84
483.57	15440.51
483.74	15613.71
483.92	15756.49
484.10	15520.09
484.28	16081.82
484.46	16016.29
484.64	16308.85
484.82	16020.97
485.00	16313.53
485.18	16292.47
485.35	16638.87
485.53	16301.83
485.71	16493.76
485.89	16893.99
486.07	16823.77
486.25	17055.48
486.43	17132.72
486.61	17357.41
486.78	17462.74
486.96	17781.05
487.14	17830.20
487.32	17867.65
487.50	18141.49
487.68	18164.90
487.85	18408.31
488.03	18677.48
488.21	18984.09
488.39	18787.48
488.57	18726.63
488.75	18941.96
488.92	19571.56
489.10	19513.05
489.28	19695.61
489.46	20189.46
489.64	19924.98
489.81	20411.81
489.99	20575.65
490.17	20362.66
490.35	20669.27
490.53	20570.97
490.70	20568.63
490.88	20657.57
491.06	21106.95
491.24	21284.83
491.41	21067.16
491.59	21074.18
491.77	21380.79
491.95	21146.74
492.13	21404.20
492.30	21797.41
492.48	21970.61
492.66	21881.67
492.84	22192.96
493.01	22141.47
493.19	22239.77
493.37	22354.46
493.54	22750.01
493.72	22874.06
493.90	22864.69
494.08	23164.28
494.25	23173.64
494.43	23543.45
494.61	23484.94
494.79	23349.18
494.96	23534.09
495.14	23742.39
495.32	23496.64
495.49	23852.40
495.67	24123.90
495.85	24201.14
496.02	24421.15
496.20	24624.78
496.38	24725.42
496.55	24870.53
496.73	25804.41
496.91	25132.67
497.09	25380.77
497.26	25387.79
497.44	25380.77
497.62	25458.01
497.79	25434.60
497.97	24968.84
498.14	25785.68
498.32	26092.29
498.50	26263.15
498.67	26228.04
498.85	26384.86
499.03	26539.33
499.20	26483.16
499.38	26742.96
499.56	26609.55
499.73	26775.73
499.91	26703.17
500.08	27049.57
500.26	26621.25
500.44	27307.03
500.61	27126.81
500.79	26621.25
500.97	27400.65
501.14	27550.45
501.32	27707.26
501.49	27592.58
501.67	27285.97
501.84	28205.80
502.02	28151.96
502.20	27955.36
502.37	28301.76
502.55	28407.08
502.72	28194.09
502.90	28357.93
503.07	28355.59
503.25	28552.20
503.43	28540.49
503.60	28666.88
503.78	28748.80
503.95	28648.16
504.13	29008.60
504.30	28870.51
504.48	28830.72
504.65	29230.95
504.83	29326.91
505.01	29474.37
505.18	29137.33
505.36	30089.93
505.53	29930.77
505.71	30279.51
505.88	30300.58
506.06	30066.52
506.23	30129.72
506.41	29790.34
506.58	30040.78
506.76	30148.44
506.93	30471.43
507.11	30756.98
507.28	30607.19
507.46	30621.23
507.63	30630.59
507.81	30408.24
507.98	30600.16
508.16	30801.45
508.33	31290.62
508.50	31072.95
508.68	31030.82
508.85	31358.50
509.03	31344.45
509.20	31709.58
509.38	31754.05
509.55	31901.50
509.73	31969.38
509.90	31632.34
510.08	31381.90
510.25	32114.49
510.42	31735.32
510.60	32184.71
510.77	32154.28
510.95	32603.66
511.12	32308.76
511.30	32404.72
511.47	32673.88
511.64	32545.15
511.82	32566.21
511.99	32514.72
512.17	32708.99
512.34	32905.59
512.51	32826.01
512.69	33029.64
512.86	33329.23
513.04	33413.49
513.21	33511.79
513.38	33083.47
513.56	33064.75
513.73	33205.18
513.90	33439.23
514.08	33397.10
514.25	33982.24
514.43	33364.34
514.60	33078.79
514.77	33455.62
514.95	33937.77
515.12	33729.46
515.29	33942.45
515.47	34595.46
515.64	34529.92
515.81	34494.82
515.99	34930.16
516.16	34501.84
516.33	34019.69
516.51	34522.90
516.68	33537.54
516.85	33865.21
517.03	33823.08
517.20	34513.54
517.37	34279.49
517.54	34920.79
517.72	34660.99
517.89	34675.04
518.06	34424.60
518.24	34242.04
518.41	34539.29
518.58	34881.00
518.75	34955.90
518.93	35508.27
519.10	35166.55
519.27	35831.26
519.45	35655.72
519.62	36116.81
519.79	35864.03
519.96	36449.16
520.14	36130.85
520.31	35871.05
520.48	35824.24
520.65	36154.26
520.83	36315.75
521.00	36149.57
521.17	36250.22
521.34	36222.13
521.52	37010.89
521.69	36952.38
521.86	36842.37
522.03	36657.47
522.20	36280.64
522.38	36931.31
522.55	36797.90
522.72	37085.79
522.89	36996.85
523.07	37242.60
523.24	36762.79
523.41	37350.27
523.58	37125.58
523.75	37521.13
523.92	37965.83
524.10	37750.50
524.27	37935.40
524.44	37626.45
524.61	37736.46
524.78	38071.15
524.96	37626.45
525.13	38405.85
525.30	38295.85
525.47	38026.68
525.64	38300.53
525.81	38539.26
525.98	37638.15
526.16	37872.21
526.33	38014.98
526.50	38223.29
526.67	37776.25
526.84	38281.80
527.01	38218.61
527.18	38424.57
527.36	38553.30
527.53	38653.95
527.70	39065.88
527.87	39049.50
528.04	39098.65
528.21	39288.23
528.38	38843.53
528.55	39239.08
528.72	39398.24
528.89	39473.13
529.07	39126.74
529.24	39246.10
529.41	38904.38
529.58	38955.88
529.75	39365.47
529.92	39910.82
530.09	39718.89
530.26	39786.77
530.43	39924.86
530.60	39667.40
530.77	39899.11
530.94	40259.55
531.11	39718.89
531.28	40247.85
531.46	40240.83
531.63	40610.64
531.80	40065.29
531.97	39613.57
532.14	39711.87
532.31	39786.77
532.48	39842.94
532.65	40055.93
532.82	40301.68
532.99	40341.47
533.16	40247.85
533.33	40507.65
533.50	40573.19
533.67	40774.47
533.84	40179.98
534.01	40432.75
534.18	40304.02
534.35	40884.48
534.52	41006.19
534.69	40954.69
534.86	41385.35
535.03	40608.29
535.20	41441.53
535.37	41387.69
535.54	41333.86
535.71	41003.85
535.88	41322.16
536.05	40999.16
536.22	40985.12
536.38	41530.47
536.55	41214.49
536.72	41354.93
536.89	41668.56
537.06	41486.00
537.23	41500.04
537.40	41633.45
537.57	41757.50
537.74	41923.68
537.91	41825.37
538.08	41865.16
538.25	41427.48
538.42	41762.18
538.59	42211.56
538.75	41404.08
538.92	41839.42
539.09	41886.23
539.26	42307.52
539.43	42131.98
539.60	42038.36
539.77	41970.49
539.94	41961.12
540.11	41841.76
540.28	42298.16
540.44	42204.54
540.61	41659.20
540.78	42054.75
540.95	42314.55
541.12	41858.14
541.29	42281.78
541.46	42080.49
541.62	42511.15
541.79	42953.51
541.96	42401.14
542.13	42366.04
542.30	42635.20
542.47	42405.83
542.63	42754.57
542.80	42724.14
542.97	42808.40
543.14	43540.99
543.31	43260.12
543.48	43803.13
543.64	43807.81
543.81	43496.52
543.98	43454.39
544.15	43278.85
544.32	43379.49
544.48	43959.94
544.65	43746.95
544.82	43569.07
544.99	43407.58
545.16	43480.13
545.32	43482.47
545.49	44121.44
545.66	43789.08
545.83	43690.78
546.00	44055.90
546.16	43697.80
546.33	43531.62
546.50	43201.61
546.67	43674.40
546.83	43290.55
547.00	44044.20
547.17	43990.37
547.34	43908.45
547.50	44142.50
547.67	43976.33
547.84	43770.36
548.00	44154.21
548.17	44428.05
548.34	44119.10
548.51	44474.86
548.67	44343.79
548.84	44423.37
549.01	44304.00
549.18	44184.63
549.34	44509.97
549.51	44554.44
549.68	44563.80
549.84	44519.33
550.01	44807.22
550.18	43983.35
550.34	44449.11
550.51	44156.55
550.68	44191.65
550.84	44236.12
551.01	44825.94
551.18	44465.50
551.34	44734.66
551.51	44641.04
551.68	45064.67
551.84	44898.50
552.01	45003.82
552.18	44727.64
552.34	44348.47
552.51	45160.64
552.68	44861.05
552.84	45141.91
553.01	45277.66
553.18	45144.25
553.34	45158.30
553.51	44964.03
553.67	45247.24
553.84	45474.27
554.01	45680.24
554.17	44931.26
554.34	45523.42
554.51	45780.88
554.67	45645.13
554.84	45729.39
555.00	45350.22
555.17	44985.10
555.33	45492.99
555.50	45340.86
555.67	45808.96
555.83	45331.50
556.00	45492.99
556.16	45853.44
556.33	45703.64
556.50	45944.72
556.66	45741.09
556.83	45471.93
556.99	45595.98
557.16	45600.66
557.32	45965.78
557.49	45736.41
557.65	45675.55
557.82	46054.72
557.98	45783.22
558.15	45923.65
558.32	46054.72
558.48	45558.53
558.65	46017.27
558.81	45689.60
558.98	45319.79
559.14	45883.86
559.31	45546.82
559.47	45516.40
559.64	46073.45
559.80	46071.10
559.97	46248.99
560.13	45996.21
560.30	45947.06
560.46	46038.34
560.63	46094.51
560.79	46167.07
560.96	46057.06
561.12	45731.73
561.29	45951.74
561.45	46010.25
561.61	46129.62
561.78	45942.38
561.94	46328.56
562.11	45661.51
562.27	46000.89
562.44	46122.60
562.60	46401.12
562.77	46607.09
562.93	45923.65
563.10	46600.07
563.26	45977.48
563.42	46213.88
563.59	45958.76
563.75	46270.05
563.92	46724.11
564.08	46230.26
564.24	46258.35
564.41	46340.27
564.57	46270.05
564.74	46637.51
564.90	46513.47
565.07	46253.67
565.23	45986.85
565.39	45968.12
565.56	46529.85
565.72	46377.72
565.88	46319.20
566.05	46408.14
566.21	46677.30
566.38	46213.88
566.54	46396.44
566.70	46862.21
566.87	46789.65
567.03	46429.21
567.19	46838.80
567.36	46625.81
567.52	46480.70
567.68	46555.60
567.85	46546.23
568.01	46696.03
568.17	46433.89
568.34	46384.74
568.50	46555.60
568.66	46335.59
568.83	46712.41
568.99	46431.55
569.15	46894.97
569.32	46501.76
569.48	46422.19
569.64	46890.29
569.81	46312.18
569.97	46480.70
570.13	46590.70
570.30	46017.27
570.46	46885.61
570.62	46183.45
570.78	46223.24
570.95	46258.35
571.11	46794.33
571.27	46623.47
571.43	46469.00
571.60	46829.44
571.76	46527.51
571.92	46918.38
572.09	46714.75
572.25	46913.70
572.41	46588.36
572.57	46869.23
572.74	47007.32
572.90	46646.88
573.06	46995.62
573.22	46841.14
573.38	46635.17
573.55	46564.96
573.71	46859.87
573.87	46054.72
574.03	46703.05
574.20	46937.10
574.36	46469.00
574.52	46726.46
574.68	46834.12
574.84	46579.00
575.01	46553.26
575.17	47042.43
575.33	46618.79
575.49	46408.14
575.65	46813.05
575.82	46829.44
575.98	46801.35
576.14	46845.82
576.30	46904.34
576.46	46569.64
576.62	46735.82
576.79	46932.42
576.95	46279.41
577.11	46869.23
577.27	46674.96
577.43	46700.71
577.59	46852.84
577.75	46703.05
577.92	46424.53
578.08	46562.62
578.24	46169.41
578.40	46653.90
578.56	46873.91
578.72	46951.15
578.88	46944.12
579.04	46602.41
579.21	46866.89
579.37	46829.44
579.53	46918.38
579.69	46834.12
579.85	47077.54
580.01	47058.81
580.17	47049.45
580.33	47002.64
580.49	46974.55
580.65	46815.40
580.82	46810.71
580.98	46681.98
581.14	46651.56
581.30	46906.68
581.46	46958.17
581.62	46789.65
581.78	46586.02
581.94	47110.30
582.10	46873.91
582.26	47178.18
582.42	46974.55
582.58	47082.22
582.74	46651.56
582.90	46930.08
583.06	46944.12
583.22	47505.85
583.38	46913.70
583.54	46752.20
583.70	46939.44
583.86	46937.10
584.02	46288.77
584.18	46756.88
584.34	46593.04
584.50	46787.31
584.66	46904.34
584.82	46721.77
584.98	47299.89
585.14	46913.70
585.30	46555.60
585.46	47274.14
585.62	46398.78
585.78	46951.15
585.94	46534.53
586.10	46813.05
586.26	46995.62
586.42	46803.69
586.58	47143.07
586.74	46972.21
586.90	46906.68
587.06	46815.40
587.22	47009.66
587.38	46967.53
587.54	46990.94
587.70	47342.02
587.86	46939.44
588.02	46850.50
588.18	47281.16
588.34	46677.30
588.49	46424.53
588.65	46515.81
588.81	46539.21
588.97	46452.61
589.13	46363.67
589.29	46635.17
589.45	46686.67
589.61	46857.52
589.77	46843.48
