SpectraSuite Data File
++++++++++++++++++++++++++++++++++++
Date: Fri Oct 25 11:33:47 EDT 2013
User: price-jones
Dark Spectrum Present: No
Reference Spectrum Present: No
Number of Sampled Component Spectra: 1
Spectrometers: USB2+H05261
Integration Time (usec): 100000 (USB2+H05261)
Spectra Averaged: 1 (USB2+H05261)
Boxcar Smoothing: 0 (USB2+H05261)
Correct for Electrical Dark: No (USB2+H05261)
Strobe/Lamp Enabled: No (USB2+H05261)
Correct for Detector Non-linearity: No (USB2+H05261)
Correct for Stray Light: No (USB2+H05261)
Number of Pixels in Processed Spectrum: 2048
>>>>>Begin Processed Spectral Data<<<<<
365.73	259.80
365.92	259.80
366.12	259.80
366.32	264.48
366.52	217.67
366.72	175.54
366.91	184.90
367.11	208.31
367.31	126.39
367.51	177.88
367.70	128.73
367.90	241.08
368.10	187.24
368.30	241.08
368.49	121.71
368.69	238.73
368.89	264.48
369.09	184.90
369.28	215.33
369.48	243.42
369.68	264.48
369.87	351.08
370.07	245.76
370.27	262.14
370.47	297.25
370.66	489.17
370.86	498.53
371.06	521.94
371.25	599.18
371.45	545.34
371.65	568.75
371.84	486.83
372.04	578.11
372.24	589.82
372.44	571.09
372.63	498.53
372.83	589.82
373.03	582.79
373.22	585.13
373.42	575.77
373.62	711.52
373.81	596.84
374.01	648.33
374.21	657.69
374.40	650.67
374.60	641.31
374.79	631.94
374.99	636.63
375.19	681.10
375.38	737.27
375.58	692.80
375.78	678.76
375.97	704.50
376.17	685.78
376.37	638.97
376.56	706.84
376.76	704.50
376.95	683.44
377.15	664.71
377.35	683.44
377.54	706.84
377.74	657.69
377.93	617.90
378.13	713.86
378.33	683.44
378.52	641.31
378.72	739.61
378.91	653.01
379.11	657.69
379.31	716.20
379.50	671.73
379.70	716.20
379.89	706.84
380.09	690.46
380.28	692.80
380.48	753.65
380.68	748.97
380.87	711.52
381.07	746.63
381.26	751.31
381.46	786.42
381.65	807.48
381.85	765.36
382.04	751.31
382.24	737.27
382.43	706.84
382.63	798.12
382.83	809.83
383.02	819.19
383.22	828.55
383.41	770.04
383.61	763.01
383.80	866.00
384.00	868.34
384.19	763.01
384.39	720.88
384.58	851.96
384.78	840.25
384.97	830.89
385.17	835.57
385.36	791.10
385.56	833.23
385.75	795.78
385.95	884.72
386.14	873.02
386.34	915.15
386.53	908.13
386.72	795.78
386.92	851.96
387.11	966.64
387.31	908.13
387.50	910.47
387.70	826.21
387.89	868.34
388.09	901.11
388.28	957.28
388.48	929.19
388.67	933.87
388.86	952.60
389.06	851.96
389.25	971.32
389.45	931.53
389.64	976.00
389.84	994.73
390.03	968.98
390.22	968.98
390.42	936.21
390.61	1011.11
390.81	1004.09
391.00	978.34
391.19	1013.45
391.39	997.07
391.58	992.39
391.78	1041.54
391.97	1032.18
392.16	1006.43
392.36	985.37
392.55	1041.54
392.75	1088.35
392.94	1067.28
393.13	1118.78
393.33	1050.90
393.52	1008.77
393.71	1130.48
393.91	1074.31
394.10	1069.62
394.29	1071.97
394.49	983.02
394.68	1160.91
394.88	1139.84
395.07	1231.12
395.26	1224.10
395.46	1135.16
395.65	1193.67
395.84	1188.99
396.04	1188.99
396.23	1151.54
396.42	1132.82
396.62	1282.61
396.81	1139.84
397.00	1179.63
397.19	1191.33
397.39	1242.82
397.58	1256.87
397.77	1191.33
397.97	1343.47
398.16	1191.33
398.35	1263.89
398.55	1240.48
398.74	1289.64
398.93	1345.81
399.12	1259.21
399.32	1313.04
399.51	1364.53
399.70	1373.89
399.90	1280.27
400.09	1315.38
400.28	1352.83
400.47	1350.49
400.67	1432.41
400.86	1338.79
401.05	1411.34
401.24	1444.11
401.44	1474.54
401.63	1467.52
401.82	1448.79
402.01	1474.54
402.21	1465.18
402.40	1446.45
402.59	1516.67
402.78	1472.20
402.97	1448.79
403.17	1554.12
403.36	1631.35
403.55	1551.78
403.74	1586.88
403.93	1584.54
404.13	1572.84
404.32	1694.55
404.51	1551.78
404.70	1629.01
404.89	1727.32
405.09	1736.68
405.28	1645.40
405.47	1732.00
405.66	1734.34
405.85	1645.40
406.05	1710.93
406.24	1724.97
406.43	1802.21
406.62	1816.26
406.81	1823.28
407.00	1816.26
407.20	1696.89
407.39	1783.49
407.58	1769.44
407.77	1914.56
407.96	1837.32
408.15	1933.28
408.34	1879.45
408.54	1909.88
408.73	1947.33
408.92	1959.03
409.11	2024.56
409.30	2054.99
409.49	1921.58
409.68	1994.14
409.87	2094.78
410.07	2024.56
410.26	2036.27
410.45	2045.63
410.64	2069.03
410.83	2125.21
411.02	2172.02
411.21	2139.25
411.40	2190.74
411.59	2115.84
411.78	2272.66
411.98	2188.40
412.17	2321.81
412.36	2232.87
412.55	2204.78
412.74	2347.56
412.93	2321.81
413.12	2356.92
413.31	2455.22
413.50	2324.15
413.69	2459.90
413.88	2452.88
414.07	2569.91
414.26	2487.99
414.45	2574.59
414.64	2497.35
414.83	2581.61
415.02	2616.72
415.22	2593.31
415.41	2750.13
415.60	2710.34
415.79	2665.87
415.98	2785.24
416.17	2729.06
416.36	2747.79
416.55	2754.81
416.74	2672.89
416.93	2878.86
417.12	2832.05
417.31	2944.39
417.50	2827.37
417.69	2986.52
417.88	3000.57
418.07	2930.35
418.26	2988.86
418.45	3070.78
418.64	3014.61
418.83	3021.63
419.02	3162.06
419.21	3108.23
419.39	3073.12
419.58	3047.38
419.77	3157.38
419.96	3220.58
420.15	3152.70
420.34	3232.28
420.53	3059.08
420.72	3276.75
420.91	3225.26
421.10	3215.90
421.29	3290.79
421.48	3199.51
421.67	3375.05
421.86	3293.13
422.05	3300.16
422.24	3344.63
422.43	3424.20
422.61	3330.58
422.80	3449.95
422.99	3482.72
423.18	3400.80
423.37	3370.37
423.56	3389.10
423.75	3485.06
423.94	3389.10
424.13	3080.14
424.32	3251.00
424.50	3440.59
424.69	3529.53
424.88	3496.76
425.07	3456.97
425.26	3328.24
425.45	3424.20
425.64	3506.12
425.83	3426.54
426.01	3445.27
426.20	3508.46
426.39	3375.05
426.58	3370.37
426.77	3466.33
426.96	3454.63
427.15	3353.99
427.33	3433.57
427.52	3559.95
427.71	3669.96
427.90	3681.66
428.09	3672.30
428.28	3613.79
428.46	3758.90
428.65	3665.28
428.84	3826.78
429.03	3798.69
429.22	3693.37
429.40	3719.11
429.59	3824.44
429.78	3698.05
429.97	3651.24
430.16	3794.01
430.34	3880.61
430.53	3941.46
430.72	3920.40
430.91	3943.80
431.10	3840.82
431.28	3868.91
431.47	4077.21
431.66	3967.21
431.85	3992.95
432.03	3974.23
432.22	4170.83
432.41	4250.41
432.60	4065.51
432.79	4063.17
432.97	4044.45
433.16	4187.22
433.35	4189.56
433.54	4287.86
433.72	4198.92
433.91	4173.18
434.10	4264.46
434.28	4105.30
434.47	4117.00
434.66	4393.19
434.85	4285.52
435.03	4365.10
435.22	4266.80
435.41	4447.02
435.59	4461.06
435.78	4631.92
435.97	4491.49
436.16	4524.26
436.34	4524.26
436.53	4472.76
436.72	4547.66
436.90	4451.70
437.09	4526.60
437.28	4510.21
437.46	4578.09
437.65	4615.54
437.84	4660.01
438.02	4601.49
438.21	4667.03
438.40	4681.07
438.58	4842.57
438.77	4873.00
438.96	4898.74
439.14	4936.19
439.33	4802.78
439.52	5109.39
439.70	4919.81
439.89	4922.15
440.08	5067.26
440.26	5020.45
440.45	4994.70
440.63	5165.56
440.82	5366.85
441.01	5018.11
441.19	5020.45
441.38	5301.31
441.57	5097.69
441.75	5221.74
441.94	5387.91
442.12	5313.02
442.31	5313.02
442.50	5540.05
442.68	5509.62
442.87	5514.30
443.05	5474.51
443.24	5582.18
443.43	5401.96
443.61	5621.97
443.80	5647.71
443.98	5343.44
444.17	5310.68
444.35	5652.39
444.54	5643.03
444.73	5603.24
444.91	5832.62
445.10	5675.80
445.28	5523.66
445.47	5570.48
445.65	5495.58
445.84	5626.65
446.02	5687.50
446.21	5802.19
446.39	5823.25
446.58	6026.88
446.77	5701.54
446.95	5628.99
447.14	5654.73
447.32	5706.23
447.51	5781.12
447.69	5729.63
447.88	5863.04
448.06	5919.21
448.25	5771.76
448.43	5741.33
448.62	5877.09
448.80	5792.83
448.99	5893.47
449.17	5818.57
449.36	5907.51
449.54	5970.71
449.73	6031.56
449.91	6061.99
450.10	5970.71
450.28	6073.69
450.46	6267.95
450.65	6101.78
450.83	6104.12
451.02	6106.46
451.20	6129.86
451.39	6244.55
451.57	6171.99
451.76	6359.24
451.94	6251.57
452.13	6310.08
452.31	6427.11
452.49	6183.70
452.68	6321.79
452.86	6373.28
453.05	6363.92
453.23	6396.68
453.42	6434.13
453.60	6317.11
453.78	6483.28
453.97	6298.38
454.15	6579.25
454.34	6352.21
454.52	6693.93
454.70	6530.09
454.89	6626.06
455.07	6600.31
455.26	6670.53
455.44	6665.85
455.62	6848.41
455.81	6785.21
455.99	6750.10
456.17	6841.39
456.36	6794.58
456.54	6902.24
456.73	7049.69
456.91	7009.90
457.09	6925.65
457.28	7255.66
457.46	6909.26
457.64	7117.57
457.83	7037.99
458.01	6988.84
458.19	7178.42
458.38	7110.55
458.56	7358.64
458.74	7302.47
458.93	7241.62
459.11	7473.33
459.29	7122.25
459.48	7279.07
459.66	7281.41
459.84	7255.66
460.03	7592.70
460.21	7339.92
460.39	7520.14
460.57	7421.84
460.76	7304.81
460.94	7428.86
461.12	7566.95
461.31	7606.74
461.49	7520.14
461.67	7461.63
461.85	7798.66
462.04	7665.25
462.22	7974.21
462.40	7822.07
462.59	7716.75
462.77	7728.45
462.95	7775.26
463.13	7728.45
463.32	7683.98
463.50	8042.08
463.68	7960.16
463.86	8021.02
464.05	7882.92
464.23	7922.71
464.41	8002.29
464.59	7911.01
464.78	8079.53
464.96	7990.59
465.14	7854.84
465.32	8044.42
465.50	7955.48
465.69	8238.69
465.87	8138.04
466.05	8294.86
466.23	8112.30
466.41	8250.39
466.60	8425.93
466.78	8201.24
466.96	8182.51
467.14	8297.20
467.32	8372.10
467.51	8217.62
467.69	8238.69
467.87	8397.84
468.05	8423.59
468.23	8374.44
468.41	8418.91
468.60	8573.38
468.78	8580.40
468.96	8423.59
469.14	8737.22
469.32	8755.94
469.50	8627.21
469.69	8657.64
469.87	8802.75
470.05	8697.43
470.23	8730.20
470.41	8912.76
470.59	9011.06
470.77	8861.27
470.95	8812.12
471.14	9224.05
471.32	8943.19
471.50	8922.12
471.68	8905.74
471.86	9090.64
472.04	9202.99
472.22	9474.49
472.40	9118.73
472.58	9205.33
472.77	9474.49
472.95	9341.08
473.13	9762.37
473.31	9502.58
473.49	9404.27
473.67	9664.07
473.85	9533.00
474.03	9834.93
474.21	9371.50
474.39	9867.70
474.57	9898.13
474.75	9874.72
474.93	9689.82
475.12	9809.19
475.30	10122.82
475.48	10012.81
475.66	10129.84
475.84	10061.96
476.02	10333.47
476.20	10422.41
476.38	10284.31
476.56	10607.31
476.74	10558.16
476.92	10817.96
477.10	10712.63
477.28	10537.09
477.46	10782.85
477.64	10890.51
477.82	11213.51
478.00	11023.92
478.18	11147.97
478.36	11234.57
478.54	11538.84
478.72	11248.61
478.90	11590.33
479.08	11571.61
479.26	11805.66
479.44	11648.85
479.62	11770.55
479.80	11803.32
479.98	12058.44
480.16	12152.06
480.34	11969.50
480.52	12170.79
480.70	12395.48
480.88	12175.47
481.06	12388.46
481.24	12367.39
481.41	12573.36
481.59	12940.82
481.77	13032.10
481.95	12809.75
482.13	13160.83
482.31	12938.48
482.49	13345.73
482.67	13385.52
482.85	13607.87
483.03	13371.48
483.21	13678.09
483.39	13891.08
483.57	13963.64
483.74	13858.31
483.92	14022.15
484.10	13692.13
484.28	14338.12
484.46	14700.90
484.64	14614.30
484.82	14478.55
485.00	14757.08
485.18	14860.06
485.35	14958.36
485.53	14895.17
485.71	15218.16
485.89	15492.01
486.07	15131.56
486.25	15283.70
486.43	15576.27
486.61	15997.56
486.78	15943.73
486.96	16016.29
487.14	16215.23
487.32	16346.30
487.50	16512.48
487.68	16362.69
487.85	16449.28
488.03	16568.65
488.21	16971.22
488.39	16903.35
488.57	17151.45
488.75	17273.15
488.92	17664.02
489.10	17649.98
489.28	17584.44
489.46	17984.68
489.64	17549.34
489.81	17956.59
489.99	18345.12
490.17	18431.72
490.35	18511.30
490.53	18448.10
490.70	18597.90
490.88	18546.40
491.06	18909.19
491.24	19101.11
491.41	19332.82
491.59	19309.42
491.77	19363.25
491.95	19400.70
492.13	19702.63
492.30	19707.31
492.48	19777.53
492.66	19770.51
492.84	19927.32
493.01	20339.26
493.19	20311.17
493.37	20224.57
493.54	20615.44
493.72	20776.94
493.90	20685.65
494.08	20957.16
494.25	20964.18
494.43	21294.19
494.61	21025.03
494.79	21458.03
494.96	21308.24
495.14	21406.54
495.32	21752.94
495.49	21879.33
495.67	21788.05
495.85	21685.06
496.02	22356.80
496.20	22377.86
496.38	22647.02
496.55	22307.65
496.73	22836.61
496.91	22771.07
497.09	22881.08
497.26	23037.89
497.44	22869.37
497.62	23239.18
497.79	23410.04
497.97	23201.73
498.14	23695.58
498.32	23721.33
498.50	23648.77
498.67	23864.10
498.85	23868.78
499.03	23978.79
499.20	24009.22
499.38	24254.97
499.56	24367.32
499.73	24393.06
499.91	24407.11
500.08	24680.95
500.26	24627.12
500.44	24734.78
500.61	24837.76
500.79	24577.97
500.97	25067.14
501.14	25315.23
501.32	25624.18
501.49	25352.68
501.67	25514.18
501.84	25507.16
502.02	25647.59
502.20	25799.73
502.37	25858.24
502.55	25570.35
502.72	25696.74
502.90	26103.99
503.07	25844.20
503.25	26450.39
503.43	26422.31
503.60	26359.11
503.78	26405.92
503.95	26412.95
504.13	26593.17
504.30	26895.10
504.48	26574.44
504.65	27061.27
504.83	27023.83
505.01	27197.02
505.18	27077.66
505.36	27222.77
505.53	27218.09
505.71	27440.44
505.88	27531.72
506.06	27323.41
506.23	27651.09
506.41	27363.20
506.58	27854.72
506.76	28379.00
506.93	27899.19
507.11	28325.16
507.28	27835.99
507.46	28168.35
507.63	28271.33
507.81	28587.30
507.98	28175.37
508.16	28734.76
508.33	28280.69
508.50	28699.65
508.68	28886.89
508.85	28840.08
509.03	29017.96
509.20	29296.49
509.38	29364.36
509.55	29427.56
509.73	29406.49
509.90	29268.40
510.08	29717.78
510.25	29008.60
510.42	29666.29
510.60	29933.11
510.77	29898.00
510.95	30443.35
511.12	29979.92
511.30	29982.26
511.47	30279.51
511.64	29839.49
511.82	30499.52
511.99	30443.35
512.17	30536.97
512.34	30333.34
512.51	31037.84
512.69	30733.57
512.86	31007.42
513.04	31098.70
513.21	30745.28
513.38	30937.20
513.56	31402.97
513.73	31112.74
513.90	31302.32
514.08	31283.60
514.25	31494.25
514.43	31665.11
514.60	32126.19
514.77	31669.79
514.95	31732.98
515.12	31660.43
515.29	31618.30
515.47	32353.23
515.64	32196.41
515.81	31920.23
515.99	32334.50
516.16	32503.02
516.33	32154.28
516.51	32540.47
516.68	32437.48
516.85	32182.37
517.03	32559.19
517.20	32575.58
517.37	33010.92
517.54	32985.17
517.72	33031.98
517.89	32811.97
518.06	33249.65
518.24	33020.28
518.41	32943.04
518.58	33020.28
518.75	33156.03
518.93	33219.22
519.10	33191.14
519.27	33261.35
519.45	33787.97
519.62	33544.56
519.79	33748.18
519.96	34057.14
520.14	33818.40
520.31	34134.37
520.48	34064.16
520.65	34188.21
520.83	34471.41
521.00	34497.16
521.17	34132.03
521.34	34235.02
521.52	34387.15
521.69	34476.09
521.86	34796.74
522.03	34735.89
522.20	34850.58
522.38	34998.03
522.55	34983.99
522.72	34799.08
522.89	34899.73
523.07	35091.65
523.24	34967.60
523.41	35538.69
523.58	35096.33
523.75	36055.95
523.92	35426.35
524.10	35765.73
524.27	35379.54
524.44	35885.09
524.61	36070.00
524.78	35735.30
524.96	35882.75
525.13	36189.36
525.30	36018.50
525.47	36226.81
525.64	36357.88
525.81	36549.81
525.98	36699.60
526.16	36116.81
526.33	36683.22
526.50	37015.57
526.67	36343.84
526.84	36683.22
527.01	36570.87
527.18	36828.33
527.36	36973.44
527.53	36781.52
527.70	36788.54
527.87	37104.51
528.04	37258.99
528.21	37195.79
528.38	37205.16
528.55	37387.72
528.72	37479.00
528.89	37071.75
529.07	36919.61
529.24	37397.08
529.41	37818.38
529.58	37502.40
529.75	37577.30
529.92	37750.50
530.09	37935.40
530.26	37677.94
530.43	37806.67
530.60	37834.76
530.77	37699.01
530.94	38022.00
531.11	37935.40
531.28	38127.33
531.46	38281.80
531.63	38342.66
531.80	38256.06
531.97	38267.76
532.14	38029.02
532.31	38459.68
532.48	38579.05
532.65	39049.50
532.82	38759.27
532.99	38689.06
533.16	38359.04
533.33	38782.68
533.50	38616.50
533.67	38635.22
533.84	38796.72
534.01	39173.55
534.18	39136.10
534.35	39112.69
534.52	39189.93
534.69	39473.13
534.86	39711.87
535.03	39316.32
535.20	39129.08
535.37	39564.42
535.54	39746.98
535.71	39138.44
535.88	39758.68
536.05	39203.97
536.22	39615.91
536.38	39922.52
536.55	39887.41
536.72	40034.86
536.89	40086.36
537.06	39833.58
537.23	40144.87
537.40	39793.79
537.57	39714.21
537.74	39966.99
537.91	40460.84
538.08	39892.09
538.25	39697.83
538.42	39969.33
538.59	40545.10
538.75	40156.57
538.92	40467.86
539.09	40608.29
539.26	40580.21
539.43	40399.99
539.60	40605.95
539.77	40889.16
539.94	41097.47
540.11	40844.69
540.28	41118.53
540.44	40355.52
540.61	40734.68
540.78	40575.53
540.95	41057.68
541.12	40645.74
541.29	40961.72
541.46	40947.67
541.62	40877.46
541.79	41308.11
541.96	40849.37
542.13	41352.58
542.30	41502.38
542.47	41633.45
542.63	41467.27
542.80	41654.51
542.97	41834.74
543.14	41783.24
543.31	41373.65
543.48	41640.47
543.64	41982.19
543.81	42227.95
543.98	41944.74
544.15	42026.66
544.32	42136.66
544.48	42677.33
544.65	42146.03
544.82	42305.18
544.99	42045.38
545.16	41991.55
545.32	42792.01
545.49	42586.05
545.66	42494.77
545.83	42351.99
546.00	42829.46
546.16	42429.23
546.33	42436.25
546.50	42206.88
546.67	43143.09
546.83	42593.07
547.00	42770.95
547.17	42351.99
547.34	42731.16
547.50	42761.59
547.67	42920.74
547.84	42923.08
548.00	43201.61
548.17	43168.84
548.34	43295.23
548.51	43618.22
548.67	43658.01
548.84	43461.41
549.01	43372.47
549.18	43276.51
549.34	43789.08
549.51	43690.78
549.68	43358.42
549.84	43213.31
550.01	43419.28
550.18	43257.78
550.34	43505.88
550.51	43807.81
550.68	43950.58
550.84	43433.32
551.01	43594.82
551.18	43569.07
551.34	43615.88
551.51	44135.48
551.68	43604.18
551.84	44100.37
552.01	43887.39
552.18	43941.22
552.34	43466.09
552.51	44051.22
552.68	43894.41
552.84	44154.21
553.01	44123.78
553.18	44315.70
553.34	44392.94
553.51	44048.88
553.67	44332.09
553.84	44266.55
554.01	44322.72
554.17	44378.90
554.34	44315.70
554.51	44313.36
554.67	44329.75
554.84	44811.90
555.00	44236.12
555.17	44418.69
555.33	44725.30
555.50	44285.28
555.67	44519.33
555.83	44657.42
556.00	45151.27
556.16	44891.48
556.33	45017.86
556.50	45251.92
556.66	45125.53
556.83	44423.37
556.99	45455.54
557.16	45062.33
557.32	45139.57
557.49	45081.06
557.65	44898.50
557.82	45123.19
557.98	45420.44
558.15	45139.57
558.32	45118.51
558.48	44687.85
558.65	45272.98
558.81	45364.26
558.98	45195.74
559.14	45544.48
559.31	45254.26
559.47	45247.24
559.64	45249.58
559.80	45081.06
559.97	45656.83
560.13	45198.09
560.30	45673.21
560.46	45659.17
560.63	45687.26
560.79	45612.36
560.96	46003.23
561.12	45792.58
561.29	45710.66
561.45	46206.86
561.61	45654.49
561.78	45762.15
561.94	45207.45
562.11	45872.16
562.27	45881.52
562.44	45947.06
562.60	45682.58
562.77	46206.86
562.93	45806.62
563.10	46335.59
563.26	45839.39
563.42	46218.56
563.59	45851.09
563.75	45537.46
563.92	45937.69
564.08	45958.76
564.24	46232.60
564.41	45797.26
564.57	46108.55
564.74	45961.10
564.90	45881.52
565.07	46131.96
565.23	46263.03
565.39	46094.51
565.56	45893.22
565.72	45769.18
565.88	46071.10
566.05	46452.61
566.21	46075.79
566.38	46447.93
566.54	46169.41
566.70	46080.47
566.87	46401.12
567.03	45914.29
567.19	46274.73
567.36	46684.33
567.52	46010.25
567.68	46216.22
567.85	46319.20
568.01	46887.95
568.17	46307.50
568.34	46253.67
568.50	46583.68
568.66	46370.69
568.83	46766.24
568.99	46424.53
569.15	46581.34
569.32	46401.12
569.48	46714.75
569.64	46761.56
569.81	46735.82
569.97	46663.26
570.13	47213.29
570.30	46422.19
570.46	46726.46
570.62	46724.11
570.78	46705.39
570.95	46927.74
571.11	46649.22
571.27	46476.02
571.43	46625.81
571.60	46651.56
571.76	46621.13
571.92	46351.97
572.09	46742.84
572.25	46590.70
572.41	46511.13
572.57	47262.44
572.74	47269.46
572.90	46873.91
573.06	46883.27
573.22	46747.52
573.38	47232.01
573.55	46937.10
573.71	47072.85
573.87	46852.84
574.03	46834.12
574.20	46749.86
574.36	46600.07
574.52	47339.68
574.68	47105.62
574.84	46972.21
575.01	47220.31
575.17	46979.23
575.33	47110.30
575.49	46752.20
575.65	47054.13
575.82	47159.45
575.98	46794.33
576.14	47182.86
576.30	47559.69
576.46	46939.44
576.62	46834.12
576.79	46902.00
576.95	46597.73
577.11	46796.67
577.27	46939.44
577.43	47433.30
577.59	47124.35
577.75	46756.88
577.92	46934.76
578.08	46995.62
578.24	47379.46
578.40	47388.83
578.56	47538.62
578.72	47299.89
578.88	47498.83
579.04	47416.91
579.21	47311.59
579.37	47494.15
579.53	47454.36
579.69	46660.92
579.85	47054.13
580.01	47030.72
580.17	46782.63
580.33	47210.95
580.49	47253.08
580.65	47283.50
580.82	47021.36
580.98	46981.57
581.14	46726.46
581.30	47784.38
581.46	47079.88
581.62	47257.76
581.78	46843.48
581.94	46763.90
582.10	47276.48
582.26	47337.33
582.42	47402.87
582.58	47393.51
582.74	47395.85
582.90	47360.74
583.06	47363.08
583.22	47370.10
583.38	47299.89
583.54	47262.44
583.70	47192.22
583.86	47557.35
584.02	47117.32
584.18	47679.05
584.34	47913.11
584.50	47711.82
584.66	47470.75
584.82	47332.65
584.98	47512.88
585.14	47292.86
585.30	47229.67
585.46	47416.91
585.62	47201.58
585.78	47533.94
585.94	47168.82
586.10	47695.44
586.26	47342.02
586.42	47217.97
586.58	47452.02
586.74	47304.57
586.90	47203.92
587.06	47311.59
587.22	47948.21
587.38	47295.21
587.54	47555.00
587.70	47980.98
587.86	47634.58
588.02	47646.29
588.18	47484.79
588.34	47110.30
588.49	47337.33
588.65	47576.07
588.81	47650.97
588.97	47906.08
589.13	47323.29
589.29	47515.22
589.45	47629.90
589.61	47697.78
589.77	47693.10
589.93	47746.93
590.08	47929.49
