SpectraSuite Data File
++++++++++++++++++++++++++++++++++++
Date: Fri Oct 25 11:23:23 EDT 2013
User: price-jones
Dark Spectrum Present: No
Reference Spectrum Present: No
Number of Sampled Component Spectra: 1
Spectrometers: USB2+H05261
Integration Time (usec): 100000 (USB2+H05261)
Spectra Averaged: 1 (USB2+H05261)
Boxcar Smoothing: 0 (USB2+H05261)
Correct for Electrical Dark: No (USB2+H05261)
Strobe/Lamp Enabled: No (USB2+H05261)
Correct for Detector Non-linearity: No (USB2+H05261)
Correct for Stray Light: No (USB2+H05261)
Number of Pixels in Processed Spectrum: 2048
>>>>>Begin Processed Spectral Data<<<<<
365.73	245.76
365.92	245.76
366.12	245.76
366.32	119.37
366.52	95.96
366.72	110.01
366.91	91.28
367.11	135.75
367.31	166.18
367.51	156.82
367.70	98.30
367.90	147.45
368.10	91.28
368.30	147.45
368.49	102.98
368.69	177.88
368.89	79.58
369.09	114.69
369.28	168.52
369.48	126.39
369.68	187.24
369.87	245.76
370.07	184.90
370.27	231.71
370.47	339.38
370.66	568.75
370.86	662.37
371.06	683.44
371.25	671.73
371.45	566.41
371.65	599.18
371.84	650.67
372.04	716.20
372.24	734.93
372.44	711.52
372.63	676.41
372.83	695.14
373.03	772.38
373.22	833.23
373.42	779.40
373.62	770.04
373.81	774.72
374.01	905.79
374.21	840.25
374.40	856.64
374.60	842.59
374.79	816.85
374.99	880.04
375.19	868.34
375.38	889.40
375.58	833.23
375.78	875.36
375.97	863.66
376.17	910.47
376.37	842.59
376.56	973.66
376.76	847.27
376.95	929.19
377.15	901.11
377.35	873.02
377.54	950.26
377.74	849.61
377.93	873.02
378.13	866.00
378.33	896.43
378.52	992.39
378.72	931.53
378.91	924.51
379.11	926.85
379.31	880.04
379.50	901.11
379.70	985.37
379.89	1006.43
380.09	980.68
380.28	983.02
380.48	1034.52
380.68	990.05
380.87	940.90
381.07	1006.43
381.26	947.92
381.46	943.24
381.65	1006.43
381.85	1043.88
382.04	1071.97
382.24	1100.05
382.43	1001.75
382.63	1013.45
382.83	978.34
383.02	1118.78
383.22	1198.35
383.41	1109.41
383.61	1090.69
383.80	1107.07
384.00	1041.54
384.19	1188.99
384.39	1093.03
384.58	1196.01
384.78	1160.91
384.97	1114.10
385.17	1118.78
385.36	1158.57
385.56	1228.78
385.75	1104.73
385.95	1217.08
386.14	1132.82
386.34	1144.52
386.53	1158.57
386.72	1179.63
386.92	1254.53
387.11	1205.38
387.31	1245.16
387.50	1322.40
387.70	1266.23
387.89	1245.16
388.09	1306.02
388.28	1291.98
388.48	1280.27
388.67	1390.28
388.86	1341.13
389.06	1308.36
389.25	1350.49
389.45	1390.28
389.64	1362.19
389.84	1387.94
390.03	1329.42
390.22	1380.92
390.42	1409.00
390.61	1291.98
390.81	1469.86
391.00	1437.09
391.19	1423.05
391.39	1432.41
391.58	1411.34
391.78	1500.28
391.97	1376.24
392.16	1497.94
392.36	1542.41
392.55	1598.59
392.75	1563.48
392.94	1565.82
393.13	1526.03
393.33	1497.94
393.52	1565.82
393.71	1519.01
393.91	1474.54
394.10	1514.33
394.29	1675.82
394.49	1596.25
394.68	1554.12
394.88	1600.93
395.07	1689.87
395.26	1694.55
395.46	1678.16
395.65	1696.89
395.84	1743.70
396.04	1783.49
396.23	1715.61
396.42	1727.32
396.62	1783.49
396.81	1809.23
397.00	1834.98
397.19	1748.38
397.39	1713.27
397.58	1774.13
397.77	1753.06
397.97	1879.45
398.16	1858.39
398.35	1905.20
398.55	1937.96
398.74	1919.24
398.93	1898.17
399.12	1987.11
399.32	2022.22
399.51	1973.07
399.70	1949.67
399.90	2010.52
400.09	1989.46
400.28	2054.99
400.47	2090.10
400.67	2040.95
400.86	2085.42
401.05	2150.95
401.24	2078.40
401.44	2129.89
401.63	1996.48
401.82	2099.46
402.01	1996.48
402.21	2207.13
402.40	2125.21
402.59	2155.63
402.78	2218.83
402.97	2141.59
403.17	2209.47
403.36	2270.32
403.55	2270.32
403.74	2331.17
403.93	2359.26
404.13	2410.75
404.32	2380.32
404.51	2417.77
404.70	2331.17
404.89	2314.79
405.09	2450.54
405.28	2394.37
405.47	2452.88
405.66	2429.48
405.85	2607.36
406.05	2483.31
406.24	2513.74
406.43	2546.50
406.62	2686.94
406.81	2581.61
407.00	2553.52
407.20	2590.97
407.39	2616.72
407.58	2729.06
407.77	2700.98
407.96	2857.79
408.15	2722.04
408.34	2719.70
408.54	2780.56
408.73	2909.29
408.92	2883.54
409.11	2806.30
409.30	2876.52
409.49	2813.32
409.68	2939.71
409.87	2916.31
410.07	3070.78
410.26	2986.52
410.45	3063.76
410.64	3070.78
410.83	3080.14
411.02	3169.09
411.21	3220.58
411.40	3087.17
411.59	3286.11
411.78	3169.09
411.98	3148.02
412.17	3337.60
412.36	3353.99
412.55	3316.54
412.74	3473.36
412.93	3459.31
413.12	3281.43
413.31	3595.06
413.50	3442.93
413.69	3480.38
413.88	3632.51
414.07	3655.92
414.26	3726.13
414.45	3688.68
414.64	3517.83
414.83	3611.45
415.02	3676.98
415.22	3913.38
415.41	3868.91
415.60	3810.39
415.79	3751.88
415.98	4051.47
416.17	4109.98
416.36	3971.89
416.55	4140.41
416.74	4051.47
416.93	4046.79
417.12	4161.47
417.31	4124.02
417.50	4170.83
417.69	4414.25
417.88	4290.20
418.07	4337.01
418.26	4173.18
418.45	4372.12
418.64	4475.10
418.83	4299.56
419.02	4442.34
419.21	4491.49
419.39	4678.73
419.58	4557.02
419.77	4369.78
419.96	4458.72
420.15	4566.39
420.34	4678.73
420.53	4458.72
420.72	4739.58
420.91	4744.27
421.10	4596.81
421.29	4814.48
421.48	4725.54
421.67	4882.36
421.86	4767.67
422.05	4870.65
422.24	4699.80
422.43	4816.82
422.61	5001.72
422.80	5022.79
422.99	4966.62
423.18	4903.42
423.37	4985.34
423.56	4861.29
423.75	4894.06
423.94	4943.21
424.13	4711.50
424.32	4779.37
424.50	5011.09
424.69	5121.09
424.88	5074.28
425.07	5025.13
425.26	4933.85
425.45	5050.88
425.64	5018.11
425.83	4933.85
426.01	5128.11
426.20	5078.96
426.39	5144.50
426.58	4947.89
426.77	5303.65
426.96	5181.95
427.15	5121.09
427.33	5275.57
427.52	5174.92
427.71	5327.06
427.90	5483.88
428.09	5245.14
428.28	5493.24
428.46	5331.74
428.65	5296.63
428.84	5596.22
429.03	5577.50
429.22	5497.92
429.40	5584.52
429.59	5678.14
429.78	5369.19
429.97	5350.46
430.16	5703.89
430.34	5731.97
430.53	5750.70
430.72	5729.63
430.91	5589.20
431.10	5650.05
431.28	5811.55
431.47	5928.58
431.66	5959.00
431.85	5809.21
432.03	6001.13
432.22	5898.15
432.41	5914.53
432.60	5830.27
432.79	5879.43
432.97	6083.05
433.16	6047.94
433.35	5991.77
433.54	6174.33
433.72	6164.97
433.91	6214.12
434.10	6265.61
434.28	5968.37
434.47	6298.38
434.66	6132.20
434.85	6373.28
435.03	6441.15
435.22	6427.11
435.41	6715.00
435.59	6668.19
435.78	6614.35
435.97	6483.28
436.16	6583.93
436.34	6590.95
436.53	6562.86
436.72	6750.10
436.90	6590.95
437.09	6747.76
437.28	6401.37
437.46	6541.80
437.65	6820.32
437.84	6548.82
438.02	6949.05
438.21	6909.26
438.40	6724.36
438.58	6883.52
438.77	7040.33
438.96	7136.29
439.14	7103.53
439.33	7368.01
439.52	7246.30
439.70	7236.94
439.89	7440.56
440.08	7339.92
440.26	7332.90
440.45	7307.15
440.63	7618.44
440.82	7742.49
441.01	7648.87
441.19	7648.87
441.38	7667.60
441.57	7669.94
441.75	7824.41
441.94	7981.23
442.12	7864.20
442.31	8131.02
442.50	7967.18
442.68	8039.74
442.87	8222.30
443.05	8241.03
443.24	8304.22
443.43	8163.79
443.61	8238.69
443.80	8699.77
443.98	8049.10
444.17	7873.56
444.35	8416.57
444.54	8571.04
444.73	8339.33
444.91	8500.83
445.10	8674.03
445.28	8386.14
445.47	8269.11
445.65	8234.00
445.84	8449.33
446.02	8465.72
446.21	8411.89
446.39	8510.19
446.58	8430.61
446.77	8479.76
446.95	8449.33
447.14	8482.10
447.32	8393.16
447.51	8524.23
447.69	8500.83
447.88	8833.18
448.06	8589.77
448.25	8652.96
448.43	8662.32
448.62	8470.40
448.80	8704.45
448.99	8814.46
449.17	8865.95
449.36	8720.84
449.54	8781.69
449.73	9074.26
449.91	9231.07
450.10	8865.95
450.28	9107.02
450.46	9193.62
450.65	8987.66
450.83	9078.94
451.02	9114.05
451.20	9366.82
451.39	9041.49
451.57	9198.31
451.76	9142.13
451.94	9217.03
452.13	9212.35
452.31	9268.52
452.49	9329.38
452.68	9352.78
452.86	9348.10
453.05	9430.02
453.23	9563.43
453.42	9589.17
453.60	9626.62
453.78	9657.05
453.97	9523.64
454.15	9525.98
454.34	9434.70
454.52	9490.87
454.70	9685.14
454.89	9745.99
455.07	9858.34
455.26	9921.53
455.44	9977.70
455.62	9968.34
455.81	9970.68
455.99	10106.43
456.17	10188.35
456.36	10174.31
456.54	10186.01
456.73	10452.83
456.91	10312.40
457.09	10499.64
457.28	10700.93
457.46	10794.55
457.64	10740.72
457.83	10651.78
458.01	10478.58
458.19	10775.83
458.38	10619.01
458.56	10626.03
458.74	11103.50
458.93	10806.25
459.11	10977.11
459.29	10862.43
459.48	10892.85
459.66	10906.90
459.84	11005.20
460.03	11169.04
460.21	10967.75
460.39	11089.46
460.57	11208.83
460.76	11026.26
460.94	11227.55
461.12	11302.45
461.31	11105.84
461.49	11281.38
461.67	11398.41
461.85	11655.87
462.04	11534.16
462.22	11651.19
462.40	11564.59
462.59	11618.42
462.77	11606.72
462.95	11770.55
463.13	11587.99
463.32	11686.29
463.50	11866.52
463.68	11749.49
463.86	11936.73
464.05	11634.80
464.23	11908.65
464.41	11861.84
464.59	11777.58
464.78	12306.54
464.96	11983.54
465.14	12119.29
465.32	12208.23
465.50	12243.34
465.69	12084.19
465.87	12067.80
466.05	12262.07
466.23	12400.16
466.41	12301.86
466.60	12697.41
466.78	12425.90
466.96	11953.12
467.14	12224.62
467.32	12669.32
467.51	12781.67
467.69	12217.60
467.87	12578.04
468.05	12592.08
468.23	12409.52
468.41	12575.70
468.60	12580.38
468.78	12835.50
468.96	12725.49
469.14	12856.56
469.32	13149.13
469.50	12751.24
469.69	13088.28
469.87	13205.30
470.05	13174.88
470.23	13303.60
470.41	13090.62
470.59	13458.08
470.77	13177.22
470.95	13465.10
471.14	13671.07
471.32	13130.41
471.50	13542.34
471.68	13760.01
471.86	13785.76
472.04	13851.29
472.22	13919.17
472.40	13827.88
472.58	14153.22
472.77	13827.88
472.95	14246.84
473.13	14705.59
473.31	14127.47
473.49	14305.35
473.67	14295.99
473.85	14193.01
474.03	14665.80
474.21	14768.78
474.39	14780.48
474.57	14670.48
474.75	14726.65
474.93	15288.38
475.12	15264.97
475.30	14789.85
475.48	15077.73
475.66	15332.85
475.84	15330.51
476.02	15557.54
476.20	15786.91
476.38	16053.73
476.56	16182.46
476.74	16182.46
476.92	15742.44
477.10	15812.66
477.28	16421.20
477.46	16299.49
477.64	16451.63
477.82	16833.13
478.00	17249.75
478.18	16800.37
478.36	17095.27
478.54	17537.63
478.72	17348.05
478.90	17717.86
479.08	17685.09
479.26	17617.21
479.44	17762.33
479.62	17806.80
479.80	18270.22
479.98	17916.80
480.16	18831.95
480.34	18424.70
480.52	18721.95
480.70	18600.24
480.88	18853.02
481.06	18874.08
481.24	19051.96
481.41	19248.57
481.59	19625.39
481.77	19545.81
481.95	19878.17
482.13	20011.58
482.31	19552.84
482.49	20086.48
482.67	20079.46
482.85	20711.40
483.03	20460.96
483.21	21158.44
483.39	21078.86
483.57	21146.74
483.74	21308.24
483.92	21528.25
484.10	21336.32
484.28	22022.10
484.46	22242.11
484.64	22583.83
484.82	21902.73
485.00	22618.94
485.18	23077.68
485.35	23236.84
485.53	23063.64
485.71	23321.10
485.89	23810.27
486.07	23304.71
486.25	23637.07
486.43	24261.99
486.61	24187.10
486.78	24259.65
486.96	24669.25
487.14	24952.45
487.32	24704.35
487.50	25308.21
487.68	24917.34
487.85	25715.47
488.03	25776.32
488.21	25844.20
488.39	25893.35
488.57	26197.62
488.75	26384.86
488.92	26757.00
489.10	26993.40
489.28	27417.04
489.46	27428.74
489.64	27248.52
489.81	27810.25
489.99	27814.93
490.17	28079.41
490.35	28514.75
490.53	28439.85
490.70	28767.52
490.88	28783.91
491.06	29172.44
491.24	28858.81
491.41	29556.28
491.59	29490.75
491.77	29652.25
491.95	29546.92
492.13	30031.41
492.30	29993.97
492.48	30319.30
492.66	30553.35
492.84	30490.16
493.01	30508.88
493.19	30965.29
493.37	31175.94
493.54	31363.18
493.72	31707.24
493.90	31491.91
494.08	31887.46
494.25	32046.62
494.43	32245.56
494.61	32388.33
494.79	32978.15
494.96	32828.35
495.14	32896.23
495.32	33425.19
495.49	33172.41
495.67	33254.33
495.85	33832.44
496.02	33975.22
496.20	34321.62
496.38	34609.50
496.55	34218.63
496.73	35178.25
496.91	34869.30
497.09	34895.05
497.26	35138.46
497.44	35498.91
497.62	35489.54
497.79	36428.10
497.97	35578.48
498.14	36053.61
498.32	36559.17
498.50	36449.16
498.67	36531.08
498.85	36968.76
499.03	36980.46
499.20	37179.41
499.38	37223.88
499.56	37446.23
499.73	37776.25
499.91	37904.98
500.08	37989.24
500.26	37373.67
500.44	38038.39
500.61	38162.43
500.79	38216.27
500.97	38733.53
501.14	39093.97
501.32	38799.06
501.49	38909.07
501.67	38625.86
501.84	39398.24
502.02	39016.73
502.20	39428.66
502.37	39828.90
502.55	39260.15
502.72	39864.00
502.90	40044.23
503.07	39728.25
503.25	40154.23
503.43	39835.92
503.60	40308.71
503.78	40741.71
503.95	40388.28
504.13	40760.43
504.30	40884.48
504.48	40648.08
504.65	40891.50
504.83	41090.44
505.01	41588.98
505.18	41588.98
505.36	42045.38
505.53	41668.56
505.71	41792.61
505.88	42462.00
506.06	41933.04
506.23	42698.39
506.41	42146.03
506.58	42454.98
506.76	42181.13
506.93	42990.96
507.11	42742.86
507.28	43349.06
507.46	42696.05
507.63	43309.27
507.81	43356.08
507.98	42997.98
508.16	43351.40
508.33	43576.09
508.50	43725.89
508.68	44091.01
508.85	44451.45
509.03	44088.67
509.20	44526.35
509.38	44825.94
509.55	44839.98
509.73	44772.11
509.90	44992.12
510.08	45116.17
510.25	44662.10
510.42	44928.92
510.60	45586.61
510.77	45411.07
510.95	46003.23
511.12	45324.47
511.30	45287.03
511.47	45315.11
511.64	45862.80
511.82	46391.76
511.99	45977.48
512.17	46127.28
512.34	46670.28
512.51	46466.66
512.69	46759.22
512.86	46546.23
513.04	46885.61
513.21	46806.03
513.38	47159.45
513.56	47622.88
513.73	46721.77
513.90	47384.15
514.08	47306.91
514.25	47461.38
514.43	47756.29
514.60	47838.21
514.77	47636.92
514.95	47807.78
515.12	47835.87
515.29	47999.71
515.47	48409.30
515.64	48329.72
515.81	47983.32
515.99	48467.81
516.16	48875.07
516.33	48739.32
516.51	49207.42
516.68	48811.87
516.85	49062.31
517.03	49200.40
517.20	49584.25
517.37	48956.99
517.54	49404.03
517.72	49258.91
517.89	49420.41
518.06	49195.72
518.24	49205.08
518.41	49418.07
518.58	49776.17
518.75	49659.15
518.93	49808.94
519.10	50028.95
519.27	49911.92
519.45	50160.02
519.62	50389.39
519.79	50178.75
519.96	50122.57
520.14	50312.16
520.31	50595.36
520.48	50595.36
520.65	50267.69
520.83	50803.67
521.00	51063.47
521.17	51061.13
521.34	51187.52
521.52	51227.31
521.69	51112.62
521.86	51011.98
522.03	51318.59
522.20	51461.36
522.38	51531.57
522.55	51491.79
522.72	51662.64
522.89	51873.29
523.07	51929.47
523.24	51615.83
523.41	51941.17
523.58	51835.84
523.75	52067.56
523.92	52112.03
524.10	52243.10
524.27	52273.52
524.44	52325.02
524.61	52013.73
524.78	52474.81
524.96	52336.72
525.13	52299.27
525.30	52893.77
525.47	52589.50
525.64	52526.30
525.81	53055.26
525.98	52783.76
526.16	53188.67
526.33	53055.26
526.50	53024.84
526.67	53078.67
526.84	53165.27
527.01	53081.01
527.18	53291.66
527.36	53153.57
527.53	53485.92
527.70	53717.64
527.87	53352.51
528.04	53371.24
528.21	53626.35
528.38	53696.57
528.55	53708.27
528.72	53897.86
528.89	53811.26
529.07	53624.01
529.24	53921.26
529.41	53883.81
529.58	53858.07
529.75	54152.97
529.92	53797.21
530.09	53979.78
530.26	54497.03
530.43	54131.91
530.60	54010.20
530.77	54021.90
530.94	54674.91
531.11	54218.51
531.28	54522.78
531.46	54583.63
531.63	54398.73
531.80	54684.28
531.97	54567.25
532.14	54710.02
532.31	54780.24
532.48	54983.86
532.65	54904.29
532.82	54461.93
532.99	54841.09
533.16	54775.56
533.33	55028.34
533.50	55246.00
533.67	54876.20
533.84	55051.74
534.01	55086.85
534.18	55241.32
534.35	55709.43
534.52	55164.09
534.69	55381.76
534.86	55332.60
535.03	55255.37
535.20	55477.72
535.37	55552.62
535.54	55416.86
535.71	55529.21
535.88	55643.90
536.05	55852.20
536.22	55856.88
536.38	55796.03
536.55	55824.12
536.72	55732.84
536.89	55711.77
537.06	55966.89
537.23	56081.58
537.40	55976.25
537.57	55847.52
537.74	55945.83
537.91	55934.12
538.08	56170.52
538.25	56095.62
538.42	56203.28
538.59	56460.74
538.75	56264.14
538.92	56060.51
539.09	56411.59
539.26	56212.65
539.43	56530.96
539.60	56547.34
539.77	56573.09
539.94	56540.32
540.11	56573.09
540.28	56591.81
540.44	56652.67
540.61	56725.22
540.78	56652.67
540.95	56779.06
541.12	56622.24
541.29	56615.22
541.46	56727.56
541.62	56678.41
541.79	56926.51
541.96	56849.27
542.13	56727.56
542.30	56809.48
542.47	57158.22
542.63	56975.66
542.80	57219.08
542.97	57333.76
543.14	57392.28
543.31	57478.88
543.48	57509.30
543.64	57661.44
543.81	57638.03
543.98	57425.04
544.15	57570.16
544.32	57652.08
544.48	58106.14
544.65	57474.20
544.82	57553.77
544.99	57347.81
545.16	57666.12
545.32	57556.11
545.49	57804.21
545.66	58033.58
545.83	57872.09
546.00	57787.83
546.16	57780.81
546.33	57855.70
546.50	57853.36
546.67	58012.52
546.83	57598.24
547.00	57996.13
547.17	58024.22
547.34	58082.73
547.50	58082.73
547.67	58384.66
547.84	58085.07
548.00	58361.26
548.17	58431.47
548.34	58277.00
548.51	58363.60
548.67	58436.16
548.84	58361.26
549.01	58174.02
549.18	58281.68
549.34	58377.64
549.51	58660.85
549.68	58506.37
549.84	58562.54
550.01	58536.80
550.18	58377.64
550.34	58567.23
550.51	58707.66
550.68	58482.97
550.84	58295.72
551.01	58836.39
551.18	58787.24
551.34	58707.66
551.51	58742.77
551.68	58864.47
551.84	58740.42
552.01	58635.10
552.18	59014.27
552.34	58621.06
552.51	59047.04
552.68	58798.94
552.84	58906.60
553.01	58857.45
553.18	58908.94
553.34	59175.76
553.51	58930.01
553.67	59051.72
553.84	59016.61
554.01	59079.80
554.17	59135.98
554.34	59278.75
554.51	59054.06
554.67	59110.23
554.84	59168.74
555.00	59255.34
555.17	59077.46
555.33	59311.52
555.50	59311.52
555.67	59175.76
555.83	59318.54
556.00	59295.13
556.16	59463.65
556.33	59393.43
556.50	59608.76
556.66	59547.91
556.83	59447.27
556.99	59533.87
557.16	59721.11
557.32	59639.19
557.49	59751.54
557.65	59330.24
557.82	59536.21
557.98	59650.89
558.15	59805.37
558.32	59714.09
558.48	59508.12
558.65	59695.36
558.81	59552.59
558.98	59732.81
559.14	59838.14
559.31	59943.46
559.47	59718.77
559.64	60018.36
559.80	59990.27
559.97	59936.44
560.13	59943.46
560.30	60025.38
560.46	59889.63
560.63	59915.37
560.79	60086.23
560.96	60210.28
561.12	60100.28
561.29	60046.44
561.45	59863.88
561.61	60034.74
561.78	60116.66
561.94	60009.00
562.11	59896.65
562.27	60100.28
562.44	60046.44
562.60	60278.16
562.77	60170.49
562.93	59908.35
563.10	60058.15
563.26	60320.29
563.42	60437.31
563.59	60123.68
563.75	60353.05
563.92	60292.20
564.08	60205.60
564.24	60470.08
564.41	60245.39
564.57	60250.07
564.74	60299.22
564.90	60385.82
565.07	60275.82
565.23	60156.45
565.39	60456.04
565.56	60320.29
565.72	60493.49
565.88	60357.74
566.05	60126.02
566.21	60467.74
566.38	60303.90
566.54	60369.44
566.70	60378.80
566.87	60760.31
567.03	60374.12
567.19	60727.54
567.36	60750.94
567.52	60334.33
567.68	60664.35
567.85	60584.77
568.01	60776.69
568.17	60584.77
568.34	60474.76
568.50	60495.83
568.66	60378.80
568.83	60816.48
568.99	60456.04
569.15	60439.65
569.32	60638.60
569.48	60818.82
569.64	60624.56
569.81	60776.69
569.97	60488.80
570.13	60664.35
570.30	60659.66
570.46	60830.52
570.62	60652.64
570.78	60811.80
570.95	60671.37
571.11	60867.97
571.27	60797.76
571.43	60814.14
571.60	60942.87
571.76	60594.13
571.92	60835.20
572.09	60664.35
572.25	60788.39
572.41	60662.00
572.57	60851.59
572.74	61272.88
572.90	60830.52
573.06	60917.12
573.22	60772.01
573.38	60844.57
573.55	60821.16
573.71	61031.81
573.87	60704.13
574.03	60725.20
574.20	61010.74
574.36	60842.23
574.52	60867.97
574.68	61078.62
574.84	60949.89
575.01	61078.62
575.17	60858.61
575.33	60917.12
575.49	60919.46
575.65	60867.97
575.82	60977.98
575.98	60961.59
576.14	61207.35
576.30	60968.61
576.46	60877.33
576.62	61048.19
576.79	60788.39
576.95	60996.70
577.11	61076.28
577.27	61029.47
577.43	61078.62
577.59	61031.81
577.75	60830.52
577.92	60940.53
578.08	60905.42
578.24	60975.64
578.40	61132.45
578.56	61118.41
578.72	61057.56
578.88	61076.28
579.04	61228.41
579.21	61066.92
579.37	61057.56
579.53	61214.37
579.69	61015.43
579.85	60977.98
580.01	61104.37
580.17	60781.37
580.33	61017.77
580.49	61214.37
580.65	61066.92
580.82	60989.68
580.98	60982.66
581.14	61223.73
581.30	61254.16
581.46	61127.77
581.62	61139.47
581.78	61113.73
581.94	61083.30
582.10	61111.39
582.26	61160.54
582.42	61223.73
582.58	61226.07
582.74	61118.41
582.90	61153.52
583.06	61095.00
583.22	60867.97
583.38	61066.92
583.54	61219.05
583.70	61052.87
583.86	61006.06
584.02	61176.92
584.18	61160.54
584.34	61209.69
584.50	61116.07
584.66	61095.00
584.82	61015.43
584.98	61183.94
585.14	61223.73
585.30	61186.28
585.46	61167.56
585.62	61209.69
585.78	61176.92
585.94	61120.75
586.10	61085.64
586.26	61034.15
586.42	61240.12
586.58	61312.67
586.74	61139.47
586.90	61118.41
587.06	61109.05
587.22	61434.38
587.38	61396.93
587.54	61200.33
587.70	61249.48
587.86	61350.12
588.02	61134.79
588.18	61326.72
588.34	61322.04
588.49	61146.50
