SpectraSuite Data File
++++++++++++++++++++++++++++++++++++
Date: Fri Oct 25 11:34:25 EDT 2013
User: price-jones
Dark Spectrum Present: No
Reference Spectrum Present: No
Number of Sampled Component Spectra: 1
Spectrometers: USB2+H05261
Integration Time (usec): 100000 (USB2+H05261)
Spectra Averaged: 1 (USB2+H05261)
Boxcar Smoothing: 0 (USB2+H05261)
Correct for Electrical Dark: No (USB2+H05261)
Strobe/Lamp Enabled: No (USB2+H05261)
Correct for Detector Non-linearity: No (USB2+H05261)
Correct for Stray Light: No (USB2+H05261)
Number of Pixels in Processed Spectrum: 2048
>>>>>Begin Processed Spectral Data<<<<<
365.73	337.04
365.92	337.04
366.12	337.04
366.32	163.84
366.52	170.86
366.72	234.05
366.91	205.97
367.11	187.24
367.31	170.86
367.51	231.71
367.70	201.29
367.90	168.52
368.10	142.77
368.30	173.20
368.49	156.82
368.69	201.29
368.89	208.31
369.09	210.65
369.28	231.71
369.48	257.46
369.68	173.20
369.87	280.86
370.07	290.23
370.27	262.14
370.47	330.02
370.66	470.45
370.86	500.87
371.06	514.92
371.25	660.03
371.45	528.96
371.65	472.79
371.84	531.30
372.04	571.09
372.24	641.31
372.44	540.66
372.63	575.77
372.83	550.03
373.03	547.69
373.22	596.84
373.42	505.56
373.62	681.10
373.81	674.07
374.01	667.05
374.21	671.73
374.40	578.11
374.60	629.60
374.79	517.26
374.99	662.37
375.19	596.84
375.38	613.22
375.58	627.26
375.78	692.80
375.97	655.35
376.17	690.46
376.37	622.58
376.56	674.07
376.76	681.10
376.95	660.03
377.15	702.16
377.35	650.67
377.54	711.52
377.74	725.57
377.93	664.71
378.13	718.54
378.33	613.22
378.52	786.42
378.72	697.48
378.91	748.97
379.11	763.01
379.31	711.52
379.50	664.71
379.70	725.57
379.89	795.78
380.09	746.63
380.28	720.88
380.48	774.72
380.68	767.70
380.87	657.69
381.07	755.99
381.26	777.06
381.46	727.91
381.65	770.04
381.85	744.29
382.04	674.07
382.24	692.80
382.43	725.57
382.63	763.01
382.83	786.42
383.02	816.85
383.22	788.76
383.41	779.40
383.61	800.46
383.80	830.89
384.00	755.99
384.19	856.64
384.39	786.42
384.58	788.76
384.78	854.30
384.97	826.21
385.17	835.57
385.36	791.10
385.56	798.12
385.75	800.46
385.95	802.80
386.14	854.30
386.34	835.57
386.53	851.96
386.72	802.80
386.92	891.74
387.11	835.57
387.31	877.70
387.50	844.93
387.70	898.77
387.89	933.87
388.09	912.81
388.28	851.96
388.48	849.61
388.67	851.96
388.86	919.83
389.06	938.55
389.25	866.00
389.45	917.49
389.64	891.74
389.84	903.45
390.03	917.49
390.22	950.26
390.42	943.24
390.61	945.58
390.81	966.64
391.00	997.07
391.19	999.41
391.39	947.92
391.58	973.66
391.78	985.37
391.97	999.41
392.16	1018.13
392.36	997.07
392.55	1025.15
392.75	1053.24
392.94	1100.05
393.13	1032.18
393.33	1039.20
393.52	1027.50
393.71	1125.80
393.91	1039.20
394.10	1050.90
394.29	1114.10
394.49	1088.35
394.68	1022.81
394.88	1078.99
395.07	1118.78
395.26	1130.48
395.46	1146.86
395.65	1146.86
395.84	1170.27
396.04	1151.54
396.23	1156.22
396.42	1123.46
396.62	1071.97
396.81	1179.63
397.00	1132.82
397.19	1198.35
397.39	1149.20
397.58	1203.04
397.77	1254.53
397.97	1275.59
398.16	1240.48
398.35	1233.46
398.55	1231.12
398.74	1324.74
398.93	1261.55
399.12	1245.16
399.32	1210.06
399.51	1221.76
399.70	1282.61
399.90	1320.06
400.09	1301.34
400.28	1343.47
400.47	1310.70
400.67	1334.11
400.86	1416.02
401.05	1451.13
401.24	1423.05
401.44	1394.96
401.63	1427.73
401.82	1455.81
402.01	1359.85
402.21	1448.79
402.40	1467.52
402.59	1376.24
402.78	1409.00
402.97	1427.73
403.17	1427.73
403.36	1401.98
403.55	1565.82
403.74	1511.99
403.93	1455.81
404.13	1514.33
404.32	1547.09
404.51	1652.42
404.70	1600.93
404.89	1685.19
405.09	1586.88
405.28	1631.35
405.47	1650.08
405.66	1661.78
405.85	1823.28
406.05	1713.27
406.24	1654.76
406.43	1570.50
406.62	1678.16
406.81	1767.10
407.00	1736.68
407.20	1734.34
407.39	1706.25
407.58	1717.95
407.77	1785.83
407.96	1832.64
408.15	1832.64
408.34	1729.66
408.54	1842.00
408.73	1900.52
408.92	1909.88
409.11	1884.13
409.30	1944.99
409.49	1949.67
409.68	2029.24
409.87	1944.99
410.07	1973.07
410.26	1907.54
410.45	2012.86
410.64	2017.54
410.83	2059.67
411.02	2005.84
411.21	1989.46
411.40	2143.93
411.59	2015.20
411.78	2064.35
411.98	2099.46
412.17	2249.25
412.36	2162.66
412.55	2260.96
412.74	2080.74
412.93	2326.49
413.12	2214.15
413.31	2359.26
413.50	2303.09
413.69	2354.58
413.88	2326.49
414.07	2532.46
414.26	2471.61
414.45	2471.61
414.64	2345.22
414.83	2590.97
415.02	2513.74
415.22	2544.16
415.41	2534.80
415.60	2619.06
415.79	2565.23
415.98	2600.34
416.17	2551.18
416.36	2647.15
416.55	2656.51
416.74	2792.26
416.93	2576.93
417.12	2771.19
417.31	2799.28
417.50	2794.60
417.69	2738.43
417.88	2895.24
418.07	2743.11
418.26	2813.32
418.45	2911.63
418.64	3028.65
418.83	3021.63
419.02	2981.84
419.21	3038.02
419.39	3026.31
419.58	2991.20
419.77	3012.27
419.96	3155.04
420.15	3091.85
420.34	2979.50
420.53	3054.40
420.72	3103.55
420.91	3171.43
421.10	3066.10
421.29	3166.74
421.48	3157.38
421.67	3164.40
421.86	3213.56
422.05	3141.00
422.24	3246.32
422.43	3150.36
422.61	3309.52
422.80	3206.53
422.99	3225.26
423.18	3101.21
423.37	3384.41
423.56	3353.99
423.75	3150.36
423.94	3251.00
424.13	3005.25
424.32	3162.06
424.50	3335.26
424.69	3520.17
424.88	3300.16
425.07	3236.96
425.26	3337.60
425.45	3260.37
425.64	3325.90
425.83	3164.40
426.01	3318.88
426.20	3389.10
426.39	3258.03
426.58	3260.37
426.77	3302.50
426.96	3400.80
427.15	3396.12
427.33	3520.17
427.52	3403.14
427.71	3585.70
427.90	3496.76
428.09	3517.83
428.28	3543.57
428.46	3508.46
428.65	3492.08
428.84	3698.05
429.03	3592.72
429.22	3545.91
429.40	3634.85
429.59	3693.37
429.78	3454.63
429.97	3510.80
430.16	3609.11
430.34	3595.06
430.53	3751.88
430.72	3772.94
430.91	3866.56
431.10	3686.34
431.28	3667.62
431.47	3885.29
431.66	3997.64
431.85	3908.69
432.03	3920.40
432.22	4051.47
432.41	3981.25
432.60	3866.56
432.79	3880.61
432.97	3990.61
433.16	3854.86
433.35	3796.35
433.54	4086.58
433.72	3925.08
433.91	4114.66
434.10	4175.52
434.28	4093.60
434.47	4093.60
434.66	3988.27
434.85	4025.72
435.03	4086.58
435.22	4224.67
435.41	4273.82
435.59	4264.46
435.78	4292.54
435.97	4351.06
436.16	4166.15
436.34	4119.34
436.53	4196.58
436.72	4421.27
436.90	4353.40
437.09	4465.74
437.28	4308.93
437.46	4358.08
437.65	4290.20
437.84	4510.21
438.02	4500.85
438.21	4442.34
438.40	4461.06
438.58	4477.44
438.77	4531.28
438.96	4596.81
439.14	4634.26
439.33	4622.56
439.52	4798.10
439.70	4706.82
439.89	4898.74
440.08	4755.97
440.26	4823.84
440.45	4905.76
440.63	4840.23
440.82	5078.96
441.01	4945.55
441.19	5167.90
441.38	5135.14
441.57	5111.73
441.75	5130.45
441.94	5249.82
442.12	5156.20
442.31	5219.39
442.50	5352.81
442.68	5301.31
442.87	5149.18
443.05	5240.46
443.24	5348.12
443.43	5490.90
443.61	5476.85
443.80	5493.24
443.98	5142.16
444.17	5144.50
444.35	5497.92
444.54	5584.52
444.73	5406.64
444.91	5462.81
445.10	5378.55
445.28	5481.53
445.47	5448.77
445.65	5603.24
445.84	5441.75
446.02	5486.22
446.21	5460.47
446.39	5561.11
446.58	5444.09
446.77	5551.75
446.95	5474.51
447.14	5425.36
447.32	5575.16
447.51	5448.77
447.69	5535.37
447.88	5507.28
448.06	5448.77
448.25	5568.13
448.43	5713.25
448.62	5577.50
448.80	5654.73
448.99	5813.89
449.17	5617.29
449.36	5469.83
449.54	5797.51
449.73	5762.40
449.91	5830.27
450.10	5839.64
450.28	5881.77
450.46	6005.81
450.65	6080.71
450.83	5834.96
451.02	5834.96
451.20	5816.23
451.39	5949.64
451.57	5942.62
451.76	5959.00
451.94	6120.50
452.13	6073.69
452.31	6017.52
452.49	6026.88
452.68	6052.63
452.86	6113.48
453.05	5959.00
453.23	6083.05
453.42	5928.58
453.60	5968.37
453.78	6118.16
453.97	5935.60
454.15	5970.71
454.34	6146.25
454.52	6380.30
454.70	6387.32
454.89	6265.61
455.07	6373.28
455.26	6445.84
455.44	6443.49
455.62	6471.58
455.81	6377.96
455.99	6518.39
456.17	6560.52
456.36	6471.58
456.54	6668.19
456.73	6684.57
456.91	6707.98
457.09	6597.97
457.28	6787.55
457.46	6572.22
457.64	6787.55
457.83	6771.17
458.01	6827.34
458.19	6930.33
458.38	6841.39
458.56	6960.75
458.74	6853.09
458.93	6920.96
459.11	6951.39
459.29	7014.59
459.48	7101.19
459.66	7014.59
459.84	6988.84
460.03	7052.03
460.21	6906.92
460.39	6909.26
460.57	7052.03
460.76	7314.17
460.94	7229.91
461.12	7087.14
461.31	7297.79
461.49	7302.47
461.67	7243.96
461.85	7232.26
462.04	7337.58
462.22	7777.60
462.40	7581.00
462.59	7300.13
462.77	7431.20
462.95	7644.19
463.13	7365.67
463.32	7431.20
463.50	7559.93
463.68	7840.79
463.86	7627.81
464.05	7569.29
464.23	7719.09
464.41	7836.11
464.59	7517.80
464.78	7679.30
464.96	7665.25
465.14	7566.95
465.32	7700.36
465.50	7735.47
465.69	8030.38
465.87	7733.13
466.05	7896.97
466.23	7838.45
466.41	7812.71
466.60	7929.74
466.78	7698.02
466.96	8002.29
467.14	7885.26
467.32	8053.78
467.51	7997.61
467.69	7829.09
467.87	8009.31
468.05	8032.72
468.23	7969.52
468.41	8095.91
468.60	7962.50
468.78	8168.47
468.96	8030.38
469.14	8138.04
469.32	8271.45
469.50	8191.88
469.69	8468.06
469.87	8397.84
470.05	8491.46
470.23	8404.86
470.41	8512.53
470.59	8554.66
470.77	8425.93
470.95	8517.21
471.14	8713.81
471.32	8327.63
471.50	8805.10
471.68	8762.97
471.86	8732.54
472.04	8674.03
472.22	8851.91
472.40	8737.22
472.58	8730.20
472.77	8990.00
472.95	9008.72
473.13	9165.54
473.31	9139.79
473.49	9207.67
473.67	9282.56
473.85	9055.53
474.03	9284.91
474.21	9486.19
474.39	9415.98
474.57	9628.96
474.75	9614.92
474.93	9533.00
475.12	9298.95
475.30	9748.33
475.48	9778.76
475.66	9823.23
475.84	9771.74
476.02	9708.54
476.20	10036.22
476.38	10036.22
476.56	10195.37
476.74	10076.01
476.92	10104.09
477.10	10031.54
477.28	10223.46
477.46	10202.40
477.64	10335.81
477.82	10277.29
478.00	10640.08
478.18	10520.71
478.36	10700.93
478.54	10682.20
478.72	10747.74
478.90	11037.97
479.08	10942.00
479.26	11274.36
479.44	11061.37
479.62	11323.51
479.80	11248.61
479.98	11662.89
480.16	11775.24
480.34	11836.09
480.52	11716.72
480.70	11833.75
480.88	11782.26
481.06	11871.20
481.24	11747.15
481.41	12004.61
481.59	12173.13
481.77	12381.43
481.95	12444.63
482.13	12521.87
482.31	12491.44
482.49	12788.69
482.67	12751.24
482.85	12807.41
483.03	12999.34
483.21	13036.78
483.39	13242.75
483.57	13308.29
483.74	13394.89
483.92	13350.42
484.10	13224.03
484.28	13589.15
484.46	13874.70
484.64	14134.50
484.82	13923.85
485.00	13879.38
485.18	14382.59
485.35	14731.33
485.53	14295.99
485.71	14525.36
485.89	14703.25
486.07	14817.93
486.25	14792.19
486.43	14813.25
486.61	15026.24
486.78	14991.13
486.96	15426.47
487.14	15297.74
487.32	15255.61
487.50	15681.59
487.68	16137.99
487.85	15878.19
488.03	16088.84
488.21	16189.49
488.39	15943.73
488.57	16358.00
488.75	16451.63
488.92	16498.44
489.10	16718.45
489.28	16793.34
489.46	17106.98
489.64	17069.53
489.81	17406.56
489.99	17511.89
490.17	17439.33
490.35	17968.29
490.53	17991.70
490.70	17722.54
490.88	17954.25
491.06	18090.00
491.24	18136.81
491.41	18424.70
491.59	18373.21
491.77	18635.35
491.95	18422.36
492.13	18733.65
492.30	18906.85
492.48	18930.25
492.66	19066.00
492.84	19260.27
493.01	19176.01
493.19	19161.97
493.37	19316.44
493.54	19564.54
493.72	19791.57
493.90	19793.91
494.08	19847.74
494.25	19962.43
494.43	19983.49
494.61	20243.29
494.79	20390.75
494.96	20416.49
495.14	20608.42
495.32	21001.63
495.49	21036.74
495.67	20947.79
495.85	21249.72
496.02	20922.05
496.20	21369.09
496.38	21500.16
496.55	21439.31
496.73	21912.10
496.91	21972.95
497.09	22005.72
497.26	21874.65
497.44	21661.66
497.62	22171.89
497.79	22178.92
497.97	22389.56
498.14	22817.88
498.32	22530.00
498.50	22698.52
498.67	22892.78
498.85	22925.55
499.03	23077.68
499.20	23239.18
499.38	23379.61
499.56	23452.17
499.73	23400.68
499.91	23459.19
500.08	23779.84
500.26	23215.77
500.44	23688.56
500.61	23791.55
500.79	23756.44
500.97	24032.62
501.14	24247.95
501.32	24491.37
501.49	24325.19
501.67	24063.05
501.84	24503.07
502.02	24636.48
502.20	24795.64
502.37	24512.43
502.55	24704.35
502.72	24638.82
502.90	25144.38
503.07	24725.42
503.25	25125.65
503.43	24940.75
503.60	25184.16
503.78	25291.83
503.95	25123.31
504.13	25034.37
504.30	25776.32
504.48	25748.23
504.65	25734.19
504.83	25816.11
505.01	25766.96
505.18	26094.63
505.36	26197.62
505.53	26040.80
505.71	25972.92
505.88	26263.15
506.06	26106.34
506.23	26293.58
506.41	26286.56
506.58	26403.58
506.76	26604.87
506.93	26932.54
507.11	26923.18
507.28	26834.24
507.46	27019.14
507.63	26862.33
507.81	27494.27
507.98	27346.82
508.16	27096.38
508.33	27213.41
508.50	27534.06
508.68	27608.96
508.85	27613.64
509.03	27562.15
509.20	27819.61
509.38	28294.74
509.55	28135.58
509.73	28278.35
509.90	28166.01
510.08	28219.84
510.25	28393.04
510.42	27981.10
510.60	28379.00
510.77	28601.35
510.95	28772.21
511.12	28762.84
511.30	28339.21
511.47	28886.89
511.64	28884.55
511.82	28774.55
511.99	28510.07
512.17	29083.50
512.34	29198.18
512.51	29434.58
512.69	29509.47
512.86	29689.70
513.04	29539.90
513.21	29488.41
513.38	29589.05
513.56	29851.19
513.73	29551.60
513.90	29806.72
514.08	29839.49
514.25	30331.00
514.43	30066.52
514.60	30094.61
514.77	30298.23
514.95	30335.68
515.12	30689.10
515.29	30654.00
515.47	30581.44
515.64	30712.51
515.81	30574.42
515.99	30682.08
516.16	31166.57
516.33	31026.14
516.51	31012.10
516.68	31192.32
516.85	30984.01
517.03	31461.48
517.20	31110.40
517.37	31590.21
517.54	31447.44
517.72	31583.19
517.89	31576.17
518.06	31576.17
518.24	31550.42
518.41	31527.02
518.58	31702.56
518.75	31632.34
518.93	31988.10
519.10	32250.24
519.27	32027.89
519.45	32041.93
519.62	32034.91
519.79	32180.03
519.96	32348.54
520.14	32334.50
520.31	32086.40
520.48	32472.59
520.65	32315.78
520.83	33242.63
521.00	32854.10
521.17	32521.74
521.34	33076.45
521.52	32882.19
521.69	33212.20
521.86	33284.76
522.03	33661.58
522.20	33181.77
522.38	33942.45
522.55	33511.79
522.72	33682.65
522.89	33467.32
523.07	33663.93
523.24	33432.21
523.41	33757.55
523.58	33509.45
523.75	34167.14
523.92	33818.40
524.10	34003.30
524.27	34204.59
524.44	34646.95
524.61	34291.19
524.78	34052.45
524.96	34136.71
525.13	34866.96
525.30	34476.09
525.47	34576.73
525.64	34771.00
525.81	34494.82
525.98	34581.42
526.16	34838.87
526.33	34852.92
526.50	35171.23
526.67	35182.93
526.84	35009.73
527.01	35482.52
527.18	35051.86
527.36	35330.39
527.53	35828.92
527.70	35683.81
527.87	35672.10
528.04	35377.20
528.21	35496.56
528.38	35777.43
528.55	35419.33
528.72	35683.81
528.89	35693.17
529.07	35873.39
529.24	35398.26
529.41	35922.54
529.58	35620.61
529.75	35721.26
529.92	36231.49
530.09	36112.13
530.26	35931.90
530.43	36086.38
530.60	36182.34
530.77	35871.05
530.94	36336.82
531.11	35751.68
531.28	36332.14
531.46	36205.75
531.63	36374.27
531.80	36535.76
531.97	36327.45
532.14	36931.31
532.31	36825.99
532.48	36790.88
532.65	36781.52
532.82	37001.53
532.99	36659.81
533.16	36500.65
533.33	37088.13
533.50	37350.27
533.67	36996.85
533.84	36563.85
534.01	36926.63
534.18	37181.75
534.35	37727.10
534.52	37589.00
534.69	38171.80
534.86	37537.51
535.03	37596.03
535.20	38017.32
535.37	37703.69
535.54	37696.67
535.71	37553.90
535.88	38555.64
536.05	37846.46
536.22	38286.48
536.38	38380.10
536.55	38050.09
536.72	37844.12
536.89	37961.15
537.06	38213.93
537.23	38066.47
537.40	38429.26
537.57	38312.23
537.74	37926.04
537.91	38335.63
538.08	38349.68
538.25	38438.62
538.42	38993.32
538.59	38656.29
538.75	38363.72
538.92	38604.80
539.09	38614.16
539.26	38731.18
539.43	38899.70
539.60	39016.73
539.77	38684.37
539.94	39129.08
540.11	39475.48
540.28	39206.31
540.44	38981.62
540.61	38909.07
540.78	38761.61
540.95	39065.88
541.12	39108.01
541.29	39108.01
541.46	39203.97
541.62	39283.55
541.79	39662.72
541.96	39473.13
542.13	39189.93
542.30	39695.49
542.47	39852.30
542.63	40112.10
542.80	39793.79
542.97	40222.11
543.14	40629.36
543.31	40219.77
543.48	40147.21
543.64	40924.27
543.81	40748.73
543.98	40182.32
544.15	40158.91
544.32	40465.52
544.48	40832.99
544.65	40325.09
544.82	40980.44
544.99	40264.24
545.16	40582.55
545.32	40507.65
545.49	41137.26
545.66	41083.42
545.83	40814.26
546.00	40402.33
546.16	41022.57
546.33	40458.50
546.50	40547.44
546.67	40727.66
546.83	40989.80
547.00	40924.27
547.17	41233.22
547.34	41029.59
547.50	41422.80
547.67	41422.80
547.84	41036.61
548.00	41432.16
548.17	41631.11
548.34	41420.46
548.51	41436.84
548.67	41455.57
548.84	41572.60
549.01	41163.00
549.18	41684.94
549.34	41689.62
549.51	41551.53
549.68	41642.81
549.84	42043.04
550.01	41750.48
550.18	41277.69
550.34	42284.12
550.51	41989.21
550.68	42073.47
550.84	41528.13
551.01	41944.74
551.18	41724.73
551.34	41977.51
551.51	42178.79
551.68	41467.27
551.84	41942.40
552.01	41853.46
552.18	42377.74
552.34	41986.87
552.51	42183.48
552.68	42108.58
552.84	42110.92
553.01	42256.03
553.18	42075.81
553.34	42572.00
553.51	42019.64
553.67	42328.59
553.84	42419.87
554.01	42726.48
554.17	42742.86
554.34	42590.73
554.51	42319.23
554.67	43007.34
554.84	42941.81
555.00	42644.56
555.17	42696.05
555.33	42967.55
555.50	42714.78
555.67	43084.58
555.83	43093.94
556.00	42836.48
556.16	43367.79
556.33	43236.72
556.50	42913.72
556.66	43042.45
556.83	42911.38
556.99	43580.78
557.16	43557.37
557.32	43028.41
557.49	43269.48
557.65	42738.18
557.82	43330.34
557.98	43040.11
558.15	43185.22
558.32	43185.22
558.48	43304.59
558.65	42930.11
558.81	43295.23
558.98	43494.18
559.14	43349.06
559.31	43091.60
559.47	43683.76
559.64	43873.34
559.80	43782.06
559.97	43597.16
560.13	43505.88
560.30	43154.80
560.46	43531.62
560.63	44053.56
560.79	44196.34
560.96	44030.16
561.12	43948.24
561.29	43739.93
561.45	43335.02
561.61	44217.40
561.78	44102.71
561.94	43966.96
562.11	43920.15
562.27	43620.56
562.44	43889.73
562.60	44182.29
562.77	43885.04
562.93	43590.14
563.10	44184.63
563.26	44208.04
563.42	44470.18
563.59	43978.67
563.75	43906.11
563.92	44004.41
564.08	44350.81
564.24	44524.01
564.41	44430.39
564.57	43971.64
564.74	44306.34
564.90	44210.38
565.07	44093.35
565.23	44128.46
565.39	44402.30
565.56	44425.71
565.72	44425.71
565.88	44184.63
566.05	43835.89
566.21	44322.72
566.38	44512.31
566.54	44313.36
566.70	44531.03
566.87	44421.03
567.03	44619.97
567.19	44582.52
567.36	44463.16
567.52	44671.46
567.68	44463.16
567.85	44980.42
568.01	44491.24
568.17	44603.59
568.34	44577.84
568.50	45022.54
568.66	44624.65
568.83	44334.43
568.99	44409.32
569.15	44484.22
569.32	44144.84
569.48	44685.51
569.64	45062.33
569.81	45104.46
569.97	44898.50
570.13	45230.85
570.30	44931.26
570.46	44708.91
570.62	45254.26
570.78	44659.76
570.95	44783.81
571.11	45160.64
571.27	44580.18
571.43	44734.66
571.60	44903.18
571.76	44662.10
571.92	44624.65
572.09	44949.99
572.25	44973.39
572.41	44804.88
572.57	44914.88
572.74	45268.30
572.90	44781.47
573.06	45003.82
573.22	44973.39
573.38	45544.48
573.55	44706.57
573.71	45090.42
573.87	44935.95
574.03	44704.23
574.20	45516.40
574.36	45429.80
574.52	45055.31
574.68	45057.65
574.84	45495.33
575.01	45626.40
575.17	45904.93
575.33	45443.84
575.49	45022.54
575.65	45326.81
575.82	45137.23
575.98	45188.72
576.14	45670.87
576.30	45478.95
576.46	45546.82
576.62	45523.42
576.79	45064.67
576.95	44837.64
577.11	44893.82
577.27	44626.99
577.43	45027.23
577.59	44907.86
577.75	45125.53
577.92	44573.16
578.08	45593.64
578.24	45272.98
578.40	45193.40
578.56	45333.84
578.72	44818.92
578.88	44809.56
579.04	45048.29
579.21	45017.86
579.37	45170.00
579.53	45303.41
579.69	44949.99
579.85	45256.60
580.01	45731.73
580.17	45720.02
580.33	45600.66
580.49	45558.53
580.65	45612.36
580.82	45343.20
580.98	44786.15
581.14	45375.97
581.30	45476.61
581.46	44957.01
581.62	45343.20
581.78	45361.92
581.94	45656.83
582.10	45043.61
582.26	45549.17
582.42	45312.77
582.58	45647.47
582.74	45518.74
582.90	45766.84
583.06	45804.28
583.22	45551.51
583.38	45521.08
583.54	45006.16
583.70	45490.65
583.86	45656.83
584.02	45443.84
584.18	45928.33
584.34	45633.42
584.50	45729.39
584.66	45619.38
584.82	45268.30
584.98	45694.28
585.14	45923.65
585.30	45343.20
585.46	45514.06
585.62	45343.20
585.78	45603.00
585.94	45352.56
586.10	45361.92
586.26	45378.31
586.42	45607.68
586.58	45745.77
586.74	45205.11
586.90	45167.66
587.06	45535.12
587.22	45811.31
587.38	45106.80
587.54	45464.91
587.70	46136.64
587.86	45701.30
588.02	45628.74
588.18	45525.76
588.34	45858.12
588.49	45787.90
588.65	45645.13
588.81	45930.67
588.97	45832.37
589.13	45605.34
589.29	45930.67
589.45	45827.69
589.61	45717.68
589.77	45811.31
589.93	45991.53
590.08	45844.07
