SpectraSuite Data File
++++++++++++++++++++++++++++++++++++
Date: Fri Oct 25 10:48:15 EDT 2013
User: price-jones
Dark Spectrum Present: No
Reference Spectrum Present: No
Number of Sampled Component Spectra: 1
Spectrometers: USB2+H05261
Integration Time (usec): 100000 (USB2+H05261)
Spectra Averaged: 1 (USB2+H05261)
Boxcar Smoothing: 0 (USB2+H05261)
Correct for Electrical Dark: No (USB2+H05261)
Strobe/Lamp Enabled: No (USB2+H05261)
Correct for Detector Non-linearity: No (USB2+H05261)
Correct for Stray Light: No (USB2+H05261)
Number of Pixels in Processed Spectrum: 2048
>>>>>Begin Processed Spectral Data<<<<<
365.73	156.82
365.92	156.82
366.12	156.82
366.32	65.54
366.52	60.85
366.72	128.73
366.91	105.32
367.11	37.45
367.31	23.41
367.51	95.96
367.70	16.38
367.90	46.81
368.10	16.38
368.30	11.70
368.49	0.00
368.69	58.51
368.89	2.34
369.09	133.41
369.28	91.28
369.48	46.81
369.68	81.92
369.87	42.13
370.07	126.39
370.27	117.03
370.47	212.99
370.66	355.76
370.86	489.17
371.06	423.64
371.25	456.40
371.45	475.13
371.65	507.90
371.84	425.98
372.04	456.40
372.24	564.07
372.44	411.93
372.63	500.87
372.83	554.71
373.03	533.64
373.22	561.73
373.42	547.69
373.62	479.81
373.81	568.75
374.01	524.28
374.21	547.69
374.40	564.07
374.60	521.94
374.79	564.07
374.99	547.69
375.19	566.41
375.38	636.63
375.58	617.90
375.78	547.69
375.97	599.18
376.17	645.99
376.37	585.13
376.56	645.99
376.76	624.92
376.95	585.13
377.15	610.88
377.35	629.60
377.54	613.22
377.74	627.26
377.93	622.58
378.13	601.52
378.33	664.71
378.52	594.50
378.72	690.46
378.91	748.97
379.11	688.12
379.31	660.03
379.50	711.52
379.70	636.63
379.89	709.18
380.09	624.92
380.28	620.24
380.48	678.76
380.68	755.99
380.87	704.50
381.07	683.44
381.26	664.71
381.46	685.78
381.65	631.94
381.85	603.86
382.04	641.31
382.24	739.61
382.43	755.99
382.63	730.25
382.83	669.39
383.02	725.57
383.22	786.42
383.41	702.16
383.61	720.88
383.80	837.91
384.00	706.84
384.19	737.27
384.39	734.93
384.58	788.76
384.78	807.48
384.97	760.67
385.17	767.70
385.36	847.27
385.56	807.48
385.75	795.78
385.95	800.46
386.14	809.83
386.34	777.06
386.53	856.64
386.72	805.14
386.92	926.85
387.11	835.57
387.31	851.96
387.50	734.93
387.70	854.30
387.89	854.30
388.09	887.06
388.28	891.74
388.48	889.40
388.67	856.64
388.86	964.30
389.06	922.17
389.25	936.21
389.45	938.55
389.64	926.85
389.84	971.32
390.03	985.37
390.22	945.58
390.42	945.58
390.61	952.60
390.81	891.74
391.00	1025.15
391.19	1076.65
391.39	1036.86
391.58	952.60
391.78	1048.56
391.97	1006.43
392.16	1015.79
392.36	1025.15
392.55	999.41
392.75	1015.79
392.94	950.26
393.13	1039.20
393.33	1020.47
393.52	1093.03
393.71	1057.92
393.91	1067.28
394.10	1083.67
394.29	1170.27
394.49	1128.14
394.68	1196.01
394.88	1153.88
395.07	1153.88
395.26	1240.48
395.46	1188.99
395.65	1247.51
395.84	1191.33
396.04	1228.78
396.23	1214.74
396.42	1172.61
396.62	1170.27
396.81	1268.57
397.00	1207.72
397.19	1174.95
397.39	1242.82
397.58	1207.72
397.77	1280.27
397.97	1235.80
398.16	1364.53
398.35	1394.96
398.55	1327.08
398.74	1418.36
398.93	1392.62
399.12	1453.47
399.32	1432.41
399.51	1343.47
399.70	1500.28
399.90	1500.28
400.09	1519.01
400.28	1507.30
400.47	1448.79
400.67	1509.65
400.86	1514.33
401.05	1497.94
401.24	1643.06
401.44	1645.40
401.63	1629.01
401.82	1526.03
402.01	1530.71
402.21	1645.40
402.40	1629.01
402.59	1647.74
402.78	1558.80
402.97	1610.29
403.17	1717.95
403.36	1778.81
403.55	1696.89
403.74	1783.49
403.93	1844.34
404.13	1802.21
404.32	1666.46
404.51	1720.29
404.70	1823.28
404.89	1823.28
405.09	1849.02
405.28	1902.86
405.47	1886.47
405.66	1839.66
405.85	1898.17
406.05	1881.79
406.24	1888.81
406.43	1949.67
406.62	2012.86
406.81	1991.80
407.00	1970.73
407.20	2010.52
407.39	1973.07
407.58	2050.31
407.77	2069.03
407.96	2120.53
408.15	2101.80
408.34	1991.80
408.54	2073.71
408.73	2155.63
408.92	2167.34
409.11	2176.70
409.30	2174.36
409.49	2125.21
409.68	2188.40
409.87	2300.75
410.07	2160.31
410.26	2263.30
410.45	2300.75
410.64	2417.77
410.83	2347.56
411.02	2434.16
411.21	2459.90
411.40	2504.37
411.59	2401.39
411.78	2459.90
411.98	2359.26
412.17	2417.77
412.36	2462.24
412.55	2586.29
412.74	2581.61
412.93	2558.21
413.12	2558.21
413.31	2682.25
413.50	2705.66
413.69	2586.29
413.88	2782.90
414.07	2705.66
414.26	2878.86
414.45	2771.19
414.64	2930.35
414.83	2904.60
415.02	2967.80
415.22	2834.39
415.41	2876.52
415.60	3133.98
415.79	2963.12
415.98	3166.74
416.17	3075.46
416.36	3084.83
416.55	3131.64
416.74	3033.33
416.93	3152.70
417.12	3023.97
417.31	3054.40
417.50	3262.71
417.69	3241.64
417.88	3255.69
418.07	3248.66
418.26	3267.39
418.45	3375.05
418.64	3410.16
418.83	3445.27
419.02	3386.76
419.21	3421.86
419.39	3318.88
419.58	3358.67
419.77	3400.80
419.96	3442.93
420.15	3538.89
420.34	3463.99
420.53	3541.23
420.72	3597.40
420.91	3698.05
421.10	3674.64
421.29	3655.92
421.48	3487.40
421.67	3581.02
421.86	3590.38
422.05	3559.95
422.24	3627.83
422.43	3520.17
422.61	3524.85
422.80	3630.17
422.99	3749.54
423.18	3688.68
423.37	3756.56
423.56	3726.13
423.75	3653.58
423.94	3634.85
424.13	3475.70
424.32	3571.66
424.50	3861.88
424.69	3789.33
424.88	3854.86
425.07	3861.88
425.26	3798.69
425.45	3541.23
425.64	3700.39
425.83	3693.37
426.01	3669.96
426.20	3733.15
426.39	3742.52
426.58	3798.69
426.77	3754.22
426.96	3819.75
427.15	3803.37
427.33	3880.61
427.52	3927.42
427.71	3915.72
427.90	3967.21
428.09	3981.25
428.28	4014.02
428.46	3929.76
428.65	3932.10
428.84	4051.47
429.03	4079.55
429.22	3911.04
429.40	4095.94
429.59	3875.93
429.78	3798.69
429.97	3875.93
430.16	3815.07
430.34	3918.06
430.53	4098.28
430.72	3960.19
430.91	4117.00
431.10	4140.41
431.28	4348.72
431.47	4383.82
431.66	4414.25
431.85	4381.48
432.03	4535.96
432.22	4344.03
432.41	4440.00
432.60	4430.63
432.79	4367.44
432.97	4442.34
433.16	4484.47
433.35	4407.23
433.54	4468.08
433.72	4414.25
433.91	4484.47
434.10	4404.89
434.28	4641.28
434.47	4627.24
434.66	4622.56
434.85	4648.30
435.03	4718.52
435.22	4573.41
435.41	4929.17
435.59	4732.56
435.78	4791.08
435.97	4940.87
436.16	4823.84
436.34	4945.55
436.53	4727.88
436.72	4875.34
436.90	4781.71
437.09	4842.57
437.28	4961.94
437.46	4971.30
437.65	4880.02
437.84	5004.07
438.02	4868.31
438.21	4915.12
438.40	4884.70
438.58	5053.22
438.77	5043.85
438.96	5053.22
439.14	5343.44
439.33	5441.75
439.52	5352.81
439.70	5270.89
439.89	5261.52
440.08	5554.09
440.26	5434.72
440.45	5544.73
440.63	5628.99
440.82	5626.65
441.01	5713.25
441.19	5760.06
441.38	5760.06
441.57	5907.51
441.75	5961.34
441.94	5809.21
442.12	5900.49
442.31	5959.00
442.50	6050.28
442.68	5930.92
442.87	5989.43
443.05	5825.59
443.24	6047.94
443.43	6097.10
443.61	5977.73
443.80	6307.74
443.98	5975.39
444.17	5863.04
444.35	6164.97
444.54	6384.98
444.73	6284.34
444.91	6223.48
445.10	6029.22
445.28	6139.23
445.47	6129.86
445.65	5968.37
445.84	6218.80
446.02	6363.92
446.21	6258.59
446.39	6190.72
446.58	6272.64
446.77	6267.95
446.95	6146.25
447.14	6310.08
447.32	6436.47
447.51	6279.66
447.69	6338.17
447.88	6331.15
448.06	6399.02
448.25	6480.94
448.43	6399.02
448.62	6382.64
448.80	6347.53
448.99	6289.02
449.17	6483.28
449.36	6417.75
449.54	6539.46
449.73	6593.29
449.91	6679.89
450.10	6672.87
450.28	6724.36
450.46	6672.87
450.65	6853.09
450.83	6792.23
451.02	6719.68
451.20	6857.77
451.39	6935.01
451.57	6899.90
451.76	6677.55
451.94	6885.86
452.13	7002.88
452.31	6876.49
452.49	6925.65
452.68	6876.49
452.86	6757.13
453.05	6860.11
453.23	6956.07
453.42	7075.44
453.60	6970.12
453.78	7075.44
453.97	6977.14
454.15	7023.95
454.34	7040.33
454.52	7082.46
454.70	7258.00
454.89	7143.32
455.07	7171.40
455.26	7220.55
455.44	7239.28
455.62	7405.46
455.81	7321.20
455.99	7342.26
456.17	7307.15
456.36	7258.00
456.54	7459.29
456.73	7634.83
456.91	7819.73
457.09	7646.53
457.28	7721.43
457.46	7489.71
457.64	7742.49
457.83	7632.49
458.01	7630.15
458.19	7723.77
458.38	7737.81
458.56	7782.28
458.74	7918.03
458.93	7700.36
459.11	7857.18
459.29	7939.10
459.48	8072.51
459.66	8053.78
459.84	7988.25
460.03	8119.32
460.21	8098.25
460.39	7943.78
460.57	8021.02
460.76	8196.56
460.94	8116.98
461.12	8147.40
461.31	8091.23
461.49	8339.33
461.67	8304.22
461.85	8386.14
462.04	8243.37
462.22	8879.99
462.40	8493.80
462.59	8294.86
462.77	8545.30
462.95	8386.14
463.13	8360.39
463.32	8432.95
463.50	8629.56
463.68	8674.03
463.86	8451.67
464.05	8463.38
464.23	8575.72
464.41	8657.64
464.59	8545.30
464.78	8858.93
464.96	8580.40
465.14	8699.77
465.32	8872.97
465.50	8947.87
465.69	8889.35
465.87	8898.72
466.05	8786.37
466.23	8917.44
466.41	8767.65
466.60	9088.30
466.78	8620.19
466.96	8898.72
467.14	8872.97
467.32	9071.92
467.51	9071.92
467.69	8877.65
467.87	8854.25
468.05	9064.89
468.23	9032.13
468.41	9041.49
468.60	9001.70
468.78	9142.13
468.96	9085.96
469.14	9188.94
469.32	9312.99
469.50	9142.13
469.69	9233.41
469.87	9507.26
470.05	9350.44
470.23	9425.34
470.41	9474.49
470.59	9523.64
470.77	9437.04
470.95	9523.64
471.14	9703.86
471.32	9490.87
471.50	9734.29
471.68	9783.44
471.86	9738.97
472.04	10038.56
472.22	9724.93
472.40	9839.61
472.58	9834.93
472.77	9987.07
472.95	10139.20
473.13	10565.18
473.31	10272.61
473.49	10115.80
473.67	10235.16
473.85	10347.51
474.03	10729.02
474.21	10434.11
474.39	10380.28
474.57	10342.83
474.75	10700.93
474.93	10656.46
475.12	10614.33
475.30	10752.42
475.48	10635.39
475.66	10747.74
475.84	10773.49
476.02	10874.13
476.20	10860.09
476.38	11176.06
476.56	11234.57
476.74	11293.08
476.92	11248.61
477.10	11063.71
477.28	11520.12
477.46	11611.40
477.64	11815.02
477.82	11880.56
478.00	11915.67
478.18	12056.10
478.36	12156.74
478.54	11922.69
478.72	11946.09
478.90	12187.17
479.08	12671.66
479.26	12463.35
479.44	12397.82
479.62	12814.43
479.80	12915.08
479.98	12868.27
480.16	12994.65
480.34	12814.43
480.52	13317.65
480.70	13310.63
480.88	13092.96
481.06	13247.43
481.24	13378.50
481.41	13390.20
481.59	13741.29
481.77	13518.93
481.95	13642.98
482.13	13605.53
482.31	13776.39
482.49	14445.79
482.67	14293.65
482.85	14295.99
483.03	14752.40
483.21	14611.96
483.39	14642.39
483.57	14764.10
483.74	14846.02
483.92	14881.13
484.10	15218.16
484.28	15222.84
484.46	15492.01
484.64	15875.85
484.82	15332.85
485.00	15398.38
485.18	15857.13
485.35	15819.68
485.53	15585.63
485.71	15793.94
485.89	15768.19
486.07	15707.34
486.25	16264.38
486.43	16238.64
486.61	16388.43
486.78	16615.46
486.96	16601.42
487.14	17132.72
487.32	17032.08
487.50	17287.20
487.68	17228.68
487.85	17549.34
488.03	17823.18
488.21	18106.38
488.39	17926.16
488.57	17771.69
488.75	17935.53
488.92	17944.89
489.10	18434.06
489.28	18693.86
489.46	19000.47
489.64	18771.10
489.81	19185.37
489.99	19178.35
490.17	19241.54
490.35	19435.81
490.53	19592.62
490.70	19459.21
490.88	19583.26
491.06	20053.71
491.24	19889.87
491.41	19939.02
491.59	20065.41
491.77	20119.24
491.95	20367.34
492.13	20449.26
492.30	20802.68
492.48	20652.89
492.66	21139.72
492.84	20922.05
493.01	21209.93
493.19	20889.28
493.37	21411.22
493.54	21556.33
493.72	21502.50
493.90	21743.58
494.08	21902.73
494.25	22087.64
494.43	22387.22
494.61	22403.61
494.79	22520.63
494.96	22515.95
495.14	22583.83
495.32	22778.09
495.49	22913.84
495.67	23063.64
495.85	23379.61
496.02	23136.20
496.20	23007.47
496.38	23384.29
496.55	23417.06
496.73	23929.64
496.91	23770.48
497.09	24156.67
497.26	24100.50
497.44	24084.11
497.62	24271.36
497.79	24381.36
497.97	24259.65
498.14	24416.47
498.32	24638.82
498.50	24870.53
498.67	24870.53
498.85	24964.15
499.03	25315.23
499.20	25125.65
499.38	25535.24
499.56	25568.01
499.73	25827.81
499.91	25453.33
500.08	25949.52
500.26	25399.49
500.44	25645.25
500.61	25610.14
500.79	25769.30
500.97	26008.03
501.14	25642.91
501.32	26059.52
501.49	26174.21
501.67	26583.80
501.84	26377.84
502.02	26696.15
502.20	26780.41
502.37	27222.77
502.55	26808.50
502.72	26848.29
502.90	26925.52
503.07	26904.46
503.25	26946.59
503.43	26953.61
503.60	27204.05
503.78	27412.35
503.95	27035.53
504.13	27473.21
504.30	27644.07
504.48	27718.96
504.65	28058.34
504.83	27929.61
505.01	28390.70
505.18	28107.49
505.36	28290.06
505.53	28196.43
505.71	28723.05
505.88	28407.08
506.06	28332.18
506.23	28732.42
506.41	28414.10
506.58	28701.99
506.76	28575.60
506.93	28697.31
507.11	29301.17
507.28	29223.93
507.46	29202.86
507.63	29280.10
507.81	29216.91
507.98	28980.51
508.16	29743.53
508.33	29567.99
508.50	29495.43
508.68	29865.24
508.85	30221.00
509.03	29408.83
509.20	30178.87
509.38	30146.10
509.55	30218.66
509.73	30068.86
509.90	30132.06
510.08	30469.09
510.25	30321.64
510.42	30328.66
510.60	30487.82
510.77	30892.73
510.95	31079.97
511.12	30855.28
511.30	31047.21
511.47	31267.22
511.64	31194.66
511.82	31517.65
511.99	31028.48
512.17	31505.95
512.34	31037.84
512.51	31531.70
512.69	31796.18
512.86	31833.63
513.04	32180.03
513.21	31543.40
513.38	32210.45
513.56	32051.30
513.73	31908.52
513.90	31826.60
514.08	31889.80
514.25	32442.17
514.43	32390.67
514.60	32163.64
514.77	32151.94
514.95	32779.20
515.12	32556.85
515.29	32793.25
515.47	32868.14
515.64	32863.46
515.81	32786.22
515.99	32683.24
516.16	32823.67
516.33	32765.16
516.51	32687.92
516.68	32301.73
516.85	32921.98
517.03	32737.07
517.20	32933.68
517.37	33369.02
517.54	33567.96
517.72	33050.70
517.89	33132.62
518.06	33329.23
518.24	33333.91
518.41	33385.40
518.58	33251.99
518.75	33802.02
518.93	33509.45
519.10	33940.11
519.27	34108.63
519.45	33874.57
519.62	34256.08
519.79	34565.03
519.96	34492.47
520.14	34923.13
520.31	34501.84
520.48	34904.41
520.65	34532.26
520.83	34955.90
521.00	34778.02
521.17	34976.97
521.34	34534.60
521.52	35075.27
521.69	35049.52
521.86	35271.87
522.03	34672.70
522.20	35278.89
522.38	35644.02
522.55	35578.48
522.72	35599.55
522.89	35512.95
523.07	36067.66
523.24	35477.84
523.41	36091.06
523.58	35922.54
523.75	35922.54
523.92	35922.54
524.10	36023.19
524.27	36074.68
524.44	36357.88
524.61	36311.07
524.78	36556.83
524.96	36460.87
525.13	36481.93
525.30	36737.05
525.47	36891.52
525.64	36762.79
525.81	36458.52
525.98	36854.08
526.16	36254.90
526.33	36109.78
526.50	36751.09
526.67	36629.38
526.84	36938.33
527.01	36264.26
527.18	36676.19
527.36	36919.61
527.53	37120.90
527.70	37303.46
527.87	37324.52
528.04	37081.11
528.21	37266.01
528.38	37394.74
528.55	37743.48
528.72	37699.01
528.89	37560.92
529.07	37900.29
529.24	37574.96
529.41	37883.91
529.58	37422.83
529.75	37670.92
529.92	37914.34
530.09	37926.04
530.26	38120.31
530.43	38422.23
530.60	37848.80
530.77	38141.37
530.94	38445.64
531.11	38394.15
531.28	38623.52
531.46	38782.68
531.63	38340.32
531.80	38457.34
531.97	38555.64
532.14	38829.49
532.31	38485.43
532.48	38871.62
532.65	38782.68
532.82	38780.34
532.99	38691.40
533.16	38532.24
533.33	38820.13
533.50	39274.19
533.67	39164.18
533.84	38916.09
534.01	39473.13
534.18	38815.44
534.35	39613.57
534.52	39335.04
534.69	39700.17
534.86	39365.47
535.03	39386.54
535.20	39878.05
535.37	40093.38
535.54	40055.93
535.71	39639.31
535.88	39503.56
536.05	39629.95
536.22	39948.26
536.38	40109.76
536.55	40076.99
536.72	39772.72
536.89	39395.90
537.06	39803.15
537.23	40121.46
537.40	39782.09
537.57	40100.40
537.74	40304.02
537.91	40605.95
538.08	40772.13
538.25	40065.29
538.42	40732.34
538.59	41045.97
538.75	40135.51
538.92	40320.41
539.09	40498.29
539.26	40509.99
539.43	40289.98
539.60	40671.49
539.77	40524.04
539.94	40542.76
540.11	40650.42
540.28	40659.79
540.44	40587.23
540.61	40814.26
540.78	40727.66
540.95	40587.23
541.12	41120.87
541.29	40680.85
541.46	41029.59
541.62	40975.76
541.79	41331.52
541.96	40818.94
542.13	40847.03
542.30	41085.76
542.47	41371.31
542.63	41310.46
542.80	41521.10
542.97	41626.43
543.14	42309.86
543.31	41830.05
543.48	42171.77
543.64	41933.04
543.81	42457.32
543.98	41780.90
544.15	41977.51
544.32	41577.28
544.48	42059.43
544.65	41818.35
544.82	42054.75
544.99	42092.19
545.16	42321.57
545.32	42021.98
545.49	42263.05
545.66	42401.14
545.83	42349.65
546.00	42440.93
546.16	42277.10
546.33	41853.46
546.50	41963.46
546.67	42017.30
546.83	41923.68
547.00	42258.37
547.17	42270.08
547.34	42438.59
547.50	42614.13
547.67	42536.90
547.84	42307.52
548.00	42536.90
548.17	42639.88
548.34	43019.05
548.51	43089.26
548.67	43072.88
548.84	42918.40
549.01	43122.03
549.18	42754.57
549.34	42939.47
549.51	43037.77
549.68	43503.54
549.84	43372.47
550.01	43660.35
550.18	42225.60
550.34	43440.34
550.51	42532.22
550.68	43033.09
550.84	42759.25
551.01	43653.33
551.18	42899.68
551.34	43386.51
551.51	43409.92
551.68	43505.88
551.84	43526.94
552.01	43735.25
552.18	43576.09
552.34	43306.93
552.51	43765.68
552.68	43655.67
552.84	43601.84
553.01	43824.19
553.18	43569.07
553.34	43222.67
553.51	43339.70
553.67	43707.16
553.84	44051.22
554.01	44406.98
554.17	43962.28
554.34	43807.81
554.51	43756.32
554.67	43990.37
554.84	43945.90
555.00	43763.34
555.17	43533.96
555.33	43447.36
555.50	43948.24
555.67	43810.15
555.83	44046.54
556.00	44093.35
556.16	44531.03
556.33	44289.96
556.50	43821.85
556.66	44399.96
556.83	43871.00
556.99	44369.54
557.16	44481.88
557.32	44533.37
557.49	44444.43
557.65	44219.74
557.82	43950.58
557.98	44294.64
558.15	44055.90
558.32	44219.74
558.48	44203.36
558.65	44528.69
558.81	44355.49
558.98	44100.37
559.14	44362.51
559.31	44568.48
559.47	44292.30
559.64	44776.79
559.80	44659.76
559.97	44828.28
560.13	44325.07
560.30	44650.40
560.46	44598.91
560.63	44624.65
560.79	44676.15
560.96	44638.70
561.12	44648.06
561.29	44697.21
561.45	44729.98
561.61	44493.58
561.78	44793.17
561.94	44315.70
562.11	45219.15
562.27	44851.69
562.44	44847.00
562.60	44795.51
562.77	44924.24
562.93	45254.26
563.10	45244.90
563.26	44877.43
563.42	45539.80
563.59	45390.01
563.75	44739.34
563.92	45052.97
564.08	45064.67
564.24	45008.50
564.41	45085.74
564.57	45071.70
564.74	45214.47
564.90	45165.32
565.07	44954.67
565.23	44847.00
565.39	45240.21
565.56	45045.95
565.72	44825.94
565.88	45324.47
566.05	44928.92
566.21	45027.23
566.38	44978.07
566.54	44947.65
566.70	45205.11
566.87	45633.42
567.03	45322.13
567.19	45563.21
567.36	45022.54
567.52	45270.64
567.68	45448.52
567.85	44891.48
568.01	44940.63
568.17	45017.86
568.34	45242.56
568.50	45411.07
568.66	44657.42
568.83	45495.33
568.99	45076.38
569.15	45600.66
569.32	45322.13
569.48	45162.98
569.64	45734.07
569.81	45661.51
569.97	44788.49
570.13	45397.03
570.30	44992.12
570.46	45256.60
570.62	45144.25
570.78	45074.04
570.95	45153.62
571.11	45574.91
571.27	45216.81
571.43	44947.65
571.60	45113.83
571.76	45317.45
571.92	45375.97
572.09	45254.26
572.25	45624.06
572.41	45291.71
572.57	45258.94
572.74	46043.02
572.90	45521.08
573.06	45387.67
573.22	45500.01
573.38	45579.59
573.55	45256.60
573.71	45773.86
573.87	45488.31
574.03	45280.00
574.20	45532.78
574.36	45694.28
574.52	45488.31
574.68	45684.92
574.84	45462.57
575.01	45610.02
575.17	45642.79
575.33	45514.06
575.49	45368.94
575.65	45296.39
575.82	45724.71
575.98	45626.40
576.14	45762.15
576.30	45593.64
576.46	45558.53
576.62	45387.67
576.79	44905.52
576.95	45212.13
577.11	45563.21
577.27	45354.90
577.43	45457.88
577.59	45368.94
577.75	45001.48
577.92	44755.72
578.08	45017.86
578.24	45200.43
578.40	45661.51
578.56	45588.95
578.72	45287.03
578.88	45521.08
579.04	45797.26
579.21	45783.22
579.37	45523.42
579.53	44912.54
579.69	45177.02
579.85	45638.11
580.01	45261.28
580.17	45347.88
580.33	45865.14
580.49	45546.82
580.65	45586.61
580.82	45869.82
580.98	45441.50
581.14	45425.12
581.30	45776.20
581.46	45738.75
581.62	45577.25
581.78	45532.78
581.94	46197.49
582.10	45855.78
582.26	45989.19
582.42	45588.95
582.58	45633.42
582.74	45675.55
582.90	45563.21
583.06	45872.16
583.22	46082.81
583.38	46169.41
583.54	46026.63
583.70	45509.38
583.86	45553.85
584.02	45724.71
584.18	45942.38
584.34	45647.47
584.50	45432.14
584.66	45979.82
584.82	45436.82
584.98	46087.49
585.14	45689.60
585.30	45968.12
585.46	45137.23
585.62	45310.43
585.78	45769.18
585.94	45600.66
586.10	45277.66
586.26	45921.31
586.42	45663.85
586.58	46190.47
586.74	46082.81
586.90	46106.21
587.06	45619.38
587.22	45542.14
587.38	45780.88
587.54	45818.33
587.70	45815.99
587.86	45539.80
588.02	45900.25
588.18	45895.56
588.34	45652.15
588.49	45317.45
588.65	45071.70
588.81	45340.86
588.97	45195.74
589.13	45457.88
589.29	45682.58
589.45	45708.32
589.61	45883.86
589.77	45965.78
589.93	45778.54
590.08	45808.96
