SpectraSuite Data File
++++++++++++++++++++++++++++++++++++
Date: Fri Oct 25 10:47:10 EDT 2013
User: price-jones
Dark Spectrum Present: No
Reference Spectrum Present: No
Number of Sampled Component Spectra: 1
Spectrometers: USB2+H05261
Integration Time (usec): 100000 (USB2+H05261)
Spectra Averaged: 1 (USB2+H05261)
Boxcar Smoothing: 0 (USB2+H05261)
Correct for Electrical Dark: No (USB2+H05261)
Strobe/Lamp Enabled: No (USB2+H05261)
Correct for Detector Non-linearity: No (USB2+H05261)
Correct for Stray Light: No (USB2+H05261)
Number of Pixels in Processed Spectrum: 2048
>>>>>Begin Processed Spectral Data<<<<<
365.73	194.26
365.92	194.26
366.12	194.26
366.32	9.36
366.52	37.45
366.72	81.92
366.91	0.00
367.11	25.75
367.31	0.00
367.51	28.09
367.70	67.88
367.90	86.60
368.10	16.38
368.30	81.92
368.49	28.09
368.69	0.00
368.89	51.49
369.09	53.83
369.28	9.36
369.48	91.28
369.68	91.28
369.87	149.79
370.07	145.11
370.27	166.18
370.47	208.31
370.66	409.59
370.86	411.93
371.06	447.04
371.25	414.27
371.45	393.21
371.65	409.59
371.84	465.77
372.04	449.38
372.24	425.98
372.44	461.09
372.63	550.03
372.83	475.13
373.03	484.49
373.22	475.13
373.42	540.66
373.62	596.84
373.81	519.60
374.01	578.11
374.21	550.03
374.40	491.51
374.60	578.11
374.79	550.03
374.99	531.30
375.19	571.09
375.38	540.66
375.58	601.52
375.78	599.18
375.97	674.07
376.17	631.94
376.37	564.07
376.56	528.96
376.76	472.79
376.95	631.94
377.15	671.73
377.35	589.82
377.54	573.43
377.74	613.22
377.93	585.13
378.13	650.67
378.33	716.20
378.52	669.39
378.72	599.18
378.91	667.05
379.11	606.20
379.31	596.84
379.50	702.16
379.70	638.97
379.89	669.39
380.09	636.63
380.28	624.92
380.48	636.63
380.68	725.57
380.87	657.69
381.07	664.71
381.26	763.01
381.46	624.92
381.65	650.67
381.85	617.90
382.04	631.94
382.24	638.97
382.43	615.56
382.63	624.92
382.83	669.39
383.02	748.97
383.22	664.71
383.41	648.33
383.61	704.50
383.80	727.91
384.00	746.63
384.19	688.12
384.39	713.86
384.58	711.52
384.78	744.29
384.97	732.59
385.17	662.37
385.36	683.44
385.56	711.52
385.75	795.78
385.95	772.38
386.14	802.80
386.34	746.63
386.53	781.74
386.72	795.78
386.92	828.55
387.11	779.40
387.31	816.85
387.50	863.66
387.70	861.32
387.89	812.17
388.09	795.78
388.28	866.00
388.48	751.31
388.67	816.85
388.86	823.87
389.06	863.66
389.25	866.00
389.45	837.91
389.64	767.70
389.84	898.77
390.03	924.51
390.22	968.98
390.42	858.98
390.61	898.77
390.81	866.00
391.00	936.21
391.19	1048.56
391.39	873.02
391.58	905.79
391.78	903.45
391.97	1055.58
392.16	1025.15
392.36	983.02
392.55	910.47
392.75	912.81
392.94	901.11
393.13	917.49
393.33	1004.09
393.52	990.05
393.71	1008.77
393.91	978.34
394.10	1053.24
394.29	1050.90
394.49	973.66
394.68	1029.84
394.88	1083.67
395.07	1088.35
395.26	1083.67
395.46	1128.14
395.65	1186.65
395.84	1032.18
396.04	1109.41
396.23	1109.41
396.42	1041.54
396.62	1100.05
396.81	1062.60
397.00	1114.10
397.19	1174.95
397.39	1158.57
397.58	1336.45
397.77	1156.22
397.97	1327.08
398.16	1289.64
398.35	1238.14
398.55	1252.19
398.74	1308.36
398.93	1336.45
399.12	1329.42
399.32	1263.89
399.51	1306.02
399.70	1324.74
399.90	1320.06
400.09	1343.47
400.28	1362.19
400.47	1460.49
400.67	1439.43
400.86	1409.00
401.05	1423.05
401.24	1441.77
401.44	1495.60
401.63	1535.39
401.82	1502.62
402.01	1444.11
402.21	1472.20
402.40	1502.62
402.59	1547.09
402.78	1446.45
402.97	1544.75
403.17	1551.78
403.36	1537.73
403.55	1586.88
403.74	1682.85
403.93	1685.19
404.13	1523.69
404.32	1621.99
404.51	1596.25
404.70	1645.40
404.89	1657.10
405.09	1776.47
405.28	1865.41
405.47	1724.97
405.66	1748.38
405.85	1727.32
406.05	1717.95
406.24	1771.79
406.43	1750.72
406.62	1914.56
406.81	1846.68
407.00	1809.23
407.20	1839.66
407.39	1764.76
407.58	1830.30
407.77	1804.55
407.96	1973.07
408.15	1914.56
408.34	1860.73
408.54	1905.20
408.73	1970.73
408.92	1980.09
409.11	1926.26
409.30	2062.01
409.49	1982.43
409.68	1881.79
409.87	1944.99
410.07	2052.65
410.26	2024.56
410.45	2094.78
410.64	2111.16
410.83	2054.99
411.02	2216.49
411.21	2209.47
411.40	2214.15
411.59	2253.94
411.78	2172.02
411.98	2146.27
412.17	2319.47
412.36	2225.85
412.55	2373.30
412.74	2401.39
412.93	2375.64
413.12	2340.54
413.31	2478.63
413.50	2424.80
413.69	2480.97
413.88	2583.95
414.07	2471.61
414.26	2562.89
414.45	2715.02
414.64	2483.31
414.83	2686.94
415.02	2693.96
415.22	2607.36
415.41	2700.98
415.60	2710.34
415.79	2651.83
415.98	2796.94
416.17	2768.85
416.36	2785.24
416.55	2918.65
416.74	2909.29
416.93	2855.45
417.12	2972.48
417.31	2827.37
417.50	2925.67
417.69	3023.97
417.88	2909.29
418.07	2883.54
418.26	2937.37
418.45	2979.50
418.64	3108.23
418.83	3082.49
419.02	3009.93
419.21	3169.09
419.39	3019.29
419.58	3045.04
419.77	3183.13
419.96	3133.98
420.15	3281.43
420.34	3215.90
420.53	3218.24
420.72	3227.60
420.91	3215.90
421.10	3358.67
421.29	3417.18
421.48	3393.78
421.67	3274.41
421.86	3297.81
422.05	3279.09
422.24	3325.90
422.43	3412.50
422.61	3398.46
422.80	3428.88
422.99	3485.06
423.18	3396.12
423.37	3478.04
423.56	3435.91
423.75	3452.29
423.94	3531.87
424.13	3283.77
424.32	3442.93
424.50	3459.31
424.69	3510.80
424.88	3536.55
425.07	3473.36
425.26	3489.74
425.45	3398.46
425.64	3529.53
425.83	3494.42
426.01	3517.83
426.20	3480.38
426.39	3417.18
426.58	3515.48
426.77	3585.70
426.96	3426.54
427.15	3604.42
427.33	3641.87
427.52	3456.97
427.71	3749.54
427.90	3726.13
428.09	3667.62
428.28	3691.02
428.46	3733.15
428.65	3723.79
428.84	3700.39
429.03	3721.45
429.22	3779.97
429.40	3728.47
429.59	3805.71
429.78	3679.32
429.97	3698.05
430.16	3681.66
430.34	3742.52
430.53	3918.06
430.72	3779.97
430.91	3786.99
431.10	3950.82
431.28	3983.59
431.47	4028.06
431.66	4243.39
431.85	3948.48
432.03	4088.92
432.22	4177.86
432.41	4152.11
432.60	4070.19
432.79	4149.77
432.97	4238.71
433.16	4102.96
433.35	4121.68
433.54	4173.18
433.72	4189.56
433.91	4189.56
434.10	4227.01
434.28	4325.31
434.47	4294.88
434.66	4320.63
434.85	4318.29
435.03	4400.21
435.22	4327.65
435.41	4334.67
435.59	4461.06
435.78	4538.30
435.97	4557.02
436.16	4465.74
436.34	4533.62
436.53	4425.95
436.72	4676.39
436.90	4454.04
437.09	4585.11
437.28	4456.38
437.46	4610.86
437.65	4601.49
437.84	4484.47
438.02	4608.51
438.21	4709.16
438.40	4608.51
438.58	4844.91
438.77	4765.33
438.96	4858.95
439.14	5078.96
439.33	4936.19
439.52	4844.91
439.70	5135.14
439.89	4968.96
440.08	5111.73
440.26	5060.24
440.45	5043.85
440.63	5165.56
440.82	5137.48
441.01	5111.73
441.19	5135.14
441.38	5430.04
441.57	5327.06
441.75	5348.12
441.94	5394.93
442.12	5521.32
442.31	5565.79
442.50	5516.64
442.68	5418.34
442.87	5509.62
443.05	5570.48
443.24	5727.29
443.43	5607.92
443.61	5619.63
443.80	5795.17
443.98	5579.84
444.17	5472.17
444.35	5743.67
444.54	5785.80
444.73	5654.73
444.91	5619.63
445.10	5626.65
445.28	5930.92
445.47	5771.76
445.65	5636.01
445.84	5586.86
446.02	5877.09
446.21	5757.72
446.39	5825.59
446.58	5928.58
446.77	5844.32
446.95	5830.27
447.14	5827.93
447.32	6073.69
447.51	5907.51
447.69	5856.02
447.88	5916.87
448.06	5839.64
448.25	5846.66
448.43	5891.13
448.62	5987.09
448.80	5914.53
448.99	6015.18
449.17	6038.58
449.36	6052.63
449.54	6106.46
449.73	6113.48
449.91	6342.85
450.10	6078.37
450.28	6244.55
450.46	6078.37
450.65	6270.30
450.83	6347.53
451.02	6445.84
451.20	6469.24
451.39	6396.68
451.57	6312.42
451.76	6272.64
451.94	6340.51
452.13	6338.17
452.31	6314.77
452.49	6104.12
452.68	6279.66
452.86	6377.96
453.05	6347.53
453.23	6459.88
453.42	6375.62
453.60	6534.78
453.78	6438.81
453.97	6370.94
454.15	6574.56
454.34	6424.77
454.52	6675.21
454.70	6757.13
454.89	6839.05
455.07	6782.87
455.26	6752.45
455.44	6853.09
455.62	6867.13
455.81	6656.48
455.99	6841.39
456.17	6808.62
456.36	6813.30
456.54	6843.73
456.73	7014.59
456.91	7140.97
457.09	7225.23
457.28	7283.75
457.46	6949.05
457.64	7197.15
457.83	7138.63
458.01	7171.40
458.19	7222.89
458.38	7185.44
458.56	7314.17
458.74	7164.38
458.93	7234.60
459.11	7417.16
459.29	7222.89
459.48	7360.98
459.66	7353.96
459.84	7377.37
460.03	7552.91
460.21	7555.25
460.39	7482.69
460.57	7332.90
460.76	7674.62
460.94	7531.84
461.12	7691.00
461.31	7747.17
461.49	7768.24
461.67	7632.49
461.85	7868.88
462.04	7819.73
462.22	8245.71
462.40	7831.43
462.59	7798.66
462.77	7929.74
462.95	7981.23
463.13	8025.70
463.32	7946.12
463.50	7997.61
463.68	7801.01
463.86	7889.95
464.05	7939.10
464.23	7988.25
464.41	8035.06
464.59	7946.12
464.78	8126.34
464.96	8081.87
465.14	8046.76
465.32	8006.97
465.50	8269.11
465.69	8226.98
465.87	8355.71
466.05	8318.26
466.23	8084.21
466.41	8196.56
466.60	8463.38
466.78	8191.88
466.96	8435.29
467.14	8358.05
467.32	8339.33
467.51	8468.06
467.69	8154.43
467.87	8313.58
468.05	8697.43
468.23	8379.12
468.41	8500.83
468.60	8514.87
468.78	8767.65
468.96	8505.51
469.14	8713.81
469.32	8896.38
469.50	8505.51
469.69	8805.10
469.87	8968.93
470.05	8966.59
470.23	8847.22
470.41	8910.42
470.59	8840.20
470.77	8774.67
470.95	9146.81
471.14	9076.60
471.32	8947.87
471.50	9291.93
471.68	9041.49
471.86	9298.95
472.04	9254.48
472.22	9408.95
472.40	9324.69
472.58	9240.44
472.77	9385.55
472.95	9502.58
473.13	9816.21
473.31	9188.94
473.49	9423.00
473.67	9486.19
473.85	9521.30
474.03	9769.40
474.21	9930.89
474.39	9764.72
474.57	9832.59
474.75	9877.06
474.93	10204.74
475.12	10008.13
475.30	9935.57
475.48	10033.88
475.66	10284.31
475.84	10111.11
476.02	10300.70
476.20	10118.14
476.38	10265.59
476.56	10464.54
476.74	10752.42
476.92	10389.64
477.10	10525.39
477.28	10927.96
477.46	10750.08
477.64	10782.85
477.82	10993.50
478.00	11171.38
478.18	11215.85
478.36	11386.71
478.54	11410.11
478.72	11325.85
478.90	11583.31
479.08	11562.25
479.26	11653.53
479.44	11749.49
479.62	11751.83
479.80	11950.78
479.98	12013.97
480.16	12514.84
480.34	11903.96
480.52	12341.64
480.70	12238.66
480.88	12184.83
481.06	12531.23
481.24	12573.36
481.41	12819.11
481.59	12989.97
481.77	12940.82
481.95	12851.88
482.13	13240.41
482.31	13102.32
482.49	13420.63
482.67	13252.11
482.85	13607.87
483.03	13706.18
483.21	13710.86
483.39	13771.71
483.57	13736.60
483.74	14132.15
483.92	13870.01
484.10	13862.99
484.28	14139.18
484.46	14356.85
484.64	14738.35
484.82	14618.99
485.00	14654.09
485.18	14817.93
485.35	15119.86
485.53	14895.17
485.71	15119.86
485.89	15124.54
486.07	15145.61
486.25	14949.00
486.43	15321.15
486.61	15529.45
486.78	15496.69
486.96	15679.25
487.14	16006.92
487.32	16250.34
487.50	16418.86
487.68	16671.64
487.85	16521.84
488.03	16702.06
488.21	16769.94
488.39	16596.74
488.57	16840.15
488.75	17181.87
488.92	17362.09
489.10	17441.67
489.28	17357.41
489.46	17743.60
489.64	17678.07
489.81	18111.07
489.99	18401.29
490.17	18359.16
490.35	18457.46
490.53	18494.91
490.70	18478.53
490.88	18284.26
491.06	19049.62
491.24	18834.29
491.41	18726.63
491.59	18981.74
491.77	18707.90
491.95	19297.72
492.13	19349.21
492.30	19658.16
492.48	19800.93
492.66	19667.52
492.84	19875.83
493.01	19920.30
493.19	19960.09
493.37	19957.75
493.54	20545.22
493.72	20603.74
493.90	20535.86
494.08	20870.56
494.25	21153.76
494.43	21167.80
494.61	21254.40
494.79	21113.97
494.96	21200.57
495.14	21270.79
495.32	21511.86
495.49	21394.84
495.67	21671.02
495.85	21617.19
496.02	21994.01
496.20	22466.80
496.38	22125.08
496.55	22377.86
496.73	22831.93
496.91	22530.00
497.09	22787.46
497.26	22778.09
497.44	22497.23
497.62	23091.73
497.79	23508.34
497.97	22829.59
498.14	22953.63
498.32	23318.76
498.50	23414.72
498.67	23571.54
498.85	23669.84
499.03	23819.63
499.20	23772.82
499.38	24208.16
499.56	23793.89
499.73	23885.17
499.91	24386.04
500.08	24212.84
500.26	24126.24
500.44	24683.29
500.61	24418.81
500.79	24325.19
500.97	24650.52
501.14	24915.00
501.32	24769.89
501.49	24912.66
501.67	24802.66
501.84	24891.60
502.02	24992.24
502.20	25514.18
502.37	25570.35
502.55	25486.09
502.72	25675.68
502.90	25495.46
503.07	25443.96
503.25	25713.13
503.43	25518.86
503.60	25834.83
503.78	25888.67
503.95	26183.57
504.13	25869.94
504.30	26223.36
504.48	26253.79
504.65	26487.84
504.83	26974.67
505.01	27044.89
505.18	26401.24
505.36	26965.31
505.53	27054.25
505.71	26710.19
505.88	27150.21
506.06	26878.71
506.23	27276.60
506.41	27087.02
506.58	27234.47
506.76	27529.38
506.93	27690.88
507.11	27527.04
507.28	27594.92
507.46	27381.93
507.63	27620.66
507.81	27772.80
507.98	27688.54
508.16	27875.78
508.33	27896.85
508.50	28095.79
508.68	28584.96
508.85	28313.46
509.03	28568.58
509.20	28376.66
509.38	28718.37
509.55	29083.50
509.73	28610.71
509.90	28683.27
510.08	28664.54
510.25	28898.59
510.42	29043.71
510.60	29577.35
510.77	29497.77
510.95	29579.69
511.12	29355.00
511.30	29090.52
511.47	29514.16
511.64	29626.50
511.82	29364.36
511.99	29596.07
512.17	29745.87
512.34	29675.65
512.51	29738.85
512.69	30033.75
512.86	30080.56
513.04	30263.13
513.21	30623.57
513.38	30263.13
513.56	30015.03
513.73	30455.05
513.90	30728.89
514.08	30663.36
514.25	30981.67
514.43	30632.93
514.60	30822.51
514.77	30962.95
514.95	31690.85
515.12	30754.64
515.29	31164.23
515.47	31311.69
515.64	31185.30
515.81	31489.57
515.99	31541.06
516.16	31468.50
516.33	32037.25
516.51	31880.44
516.68	31339.77
516.85	31676.81
517.03	31398.29
517.20	31988.10
517.37	31711.92
517.54	32140.24
517.72	31821.92
517.89	31859.37
518.06	31641.70
518.24	31887.46
518.41	31695.53
518.58	32081.72
518.75	31969.38
518.93	32327.48
519.10	32545.15
519.27	32369.61
519.45	32402.38
519.62	32741.75
519.79	32931.34
519.96	32961.76
520.14	33242.63
520.31	33029.64
520.48	33230.93
520.65	33146.67
520.83	33504.77
521.00	33579.67
521.17	33404.13
521.34	33448.60
521.52	33610.09
521.69	33673.29
521.86	33991.60
522.03	33528.17
522.20	34256.08
522.38	33574.98
522.55	34176.50
522.72	33748.18
522.89	33923.72
523.07	34178.84
523.24	34045.43
523.41	34469.07
523.58	34274.80
523.75	34625.89
523.92	34558.01
524.10	34471.41
524.27	34483.11
524.44	34417.58
524.61	34724.19
524.78	34937.18
524.96	35009.73
525.13	35342.09
525.30	34878.66
525.47	35047.18
525.64	35126.76
525.81	35131.44
525.98	35082.29
526.16	35372.52
526.33	35093.99
526.50	35716.58
526.67	35089.31
526.84	35292.94
527.01	35356.13
527.18	35667.42
527.36	35534.01
527.53	35896.80
527.70	36168.30
527.87	35599.55
528.04	35269.53
528.21	35913.18
528.38	35913.18
528.55	35732.96
528.72	36191.70
528.89	36018.50
529.07	35999.78
529.24	36048.93
529.41	35847.64
529.58	36341.50
529.75	36109.78
529.92	36343.84
530.09	36655.13
530.26	36367.24
530.43	36849.39
530.60	36500.65
530.77	36575.55
530.94	36652.79
531.11	36744.07
531.28	36886.84
531.46	37024.93
531.63	37055.36
531.80	36767.48
531.97	36973.44
532.14	36797.90
532.31	36877.48
532.48	37668.58
532.65	37170.05
532.82	37275.37
532.99	37303.46
533.16	37546.87
533.33	37277.71
533.50	37607.73
533.67	37731.78
533.84	37790.29
534.01	37551.56
534.18	37495.38
534.35	38003.28
534.52	37120.90
534.69	37581.98
534.86	37900.29
535.03	37710.71
535.20	38139.03
535.37	38384.79
535.54	38314.57
535.71	37813.70
535.88	38279.46
536.05	38206.90
536.22	38148.39
536.38	38326.27
536.55	38415.21
536.72	38337.98
536.89	38281.80
537.06	37851.14
537.23	38583.73
537.40	38555.64
537.57	38157.75
537.74	38600.12
537.91	38756.93
538.08	39089.29
538.25	38487.77
538.42	38436.28
538.59	38557.99
538.75	38522.88
538.92	38843.53
539.09	39196.95
539.26	38742.89
539.43	38983.96
539.60	38831.83
539.77	38667.99
539.94	39192.27
540.11	38852.89
540.28	39166.52
540.44	39402.92
540.61	39587.82
540.78	39166.52
540.95	39372.49
541.12	39761.02
541.29	39377.17
541.46	38838.85
541.62	39393.56
541.79	39824.22
541.96	39452.07
542.13	39035.45
542.30	39934.22
542.47	39810.17
542.63	39466.11
542.80	39917.84
542.97	39819.53
543.14	40229.13
543.31	39971.67
543.48	40095.72
543.64	40622.34
543.81	40554.46
543.98	40247.85
544.15	40168.27
544.32	40538.08
544.48	40837.67
544.65	40495.95
544.82	40507.65
544.99	40414.03
545.16	40765.11
545.32	40643.40
545.49	40828.30
545.66	40641.06
545.83	41027.25
546.00	41158.32
546.16	41020.23
546.33	40699.58
546.50	40435.10
546.67	40493.61
546.83	40610.64
547.00	40872.78
547.17	40783.83
547.34	40900.86
547.50	40875.12
547.67	41560.89
547.84	40879.80
548.00	41148.96
548.17	41322.16
548.34	40910.22
548.51	41338.54
548.67	41371.31
548.84	41226.20
549.01	41464.93
549.18	41420.46
549.34	41876.86
549.51	41434.50
549.68	41640.47
549.84	41518.76
550.01	41804.31
550.18	41736.43
550.34	41755.16
550.51	41584.30
550.68	41244.92
550.84	41385.35
551.01	41736.43
551.18	41603.02
551.34	41691.96
551.51	41773.88
551.68	41773.88
551.84	41619.41
552.01	41338.54
552.18	41923.68
552.34	41713.03
552.51	41883.89
552.68	42157.73
552.84	42108.58
553.01	42845.85
553.18	42323.91
553.34	42447.96
553.51	41759.84
553.67	41993.89
553.84	42602.43
554.01	42857.55
554.17	42794.36
554.34	42932.45
554.51	42263.05
554.67	42775.63
554.84	42546.26
555.00	42728.82
555.17	42497.11
555.33	42562.64
555.50	42543.92
555.67	42188.16
555.83	42607.11
556.00	42394.12
556.16	43042.45
556.33	42920.74
556.50	42564.98
556.66	42990.96
556.83	42398.80
556.99	43269.48
557.16	42632.86
557.32	43260.12
557.49	43054.15
557.65	42501.79
557.82	42866.91
557.98	42827.12
558.15	43035.43
558.32	43468.43
558.48	43068.20
558.65	42920.74
558.81	43147.78
558.98	42869.25
559.14	43562.05
559.31	43320.98
559.47	42972.24
559.64	43468.43
559.80	43676.74
559.97	43622.90
560.13	42462.00
560.30	43227.35
560.46	43482.47
560.63	43012.02
560.79	43260.12
560.96	43466.09
561.12	43124.37
561.29	43229.69
561.45	43625.25
561.61	43309.27
561.78	43110.33
561.94	43295.23
562.11	43129.05
562.27	43220.33
562.44	43297.57
562.60	43952.92
562.77	43859.30
562.93	43508.22
563.10	43353.74
563.26	43107.99
563.42	43882.70
563.59	43470.77
563.75	43557.37
563.92	43973.98
564.08	43573.75
564.24	43412.26
564.41	43564.39
564.57	43674.40
564.74	43438.00
564.90	43863.98
565.07	43608.86
565.23	43856.96
565.39	44147.18
565.56	43964.62
565.72	43578.43
565.88	43292.89
566.05	43627.59
566.21	44502.95
566.38	43515.24
566.54	43711.84
566.70	44016.11
566.87	44348.47
567.03	44067.61
567.19	44095.69
567.36	44055.90
567.52	43863.98
567.68	44381.24
567.85	43468.43
568.01	43973.98
568.17	43952.92
568.34	44114.42
568.50	44046.54
568.66	44065.27
568.83	44294.64
568.99	43929.51
569.15	43622.90
569.32	43768.02
569.48	43772.70
569.64	44271.23
569.81	44404.64
569.97	43917.81
570.13	44149.53
570.30	43784.40
570.46	43625.25
570.62	43768.02
570.78	43878.02
570.95	43583.12
571.11	44165.91
571.27	43934.20
571.43	43522.26
571.60	43854.62
571.76	43882.70
571.92	44275.91
572.09	43981.01
572.25	43962.28
572.41	44416.35
572.57	44451.45
572.74	44556.78
572.90	44311.02
573.06	44168.25
573.22	44371.88
573.38	44236.12
573.55	44046.54
573.71	44509.97
573.87	44378.90
574.03	44109.74
574.20	44463.16
574.36	44306.34
574.52	44315.70
574.68	43906.11
574.84	44521.67
575.01	44484.22
575.17	44327.41
575.33	43927.17
575.49	44034.84
575.65	44439.75
575.82	44746.36
575.98	44446.77
576.14	44406.98
576.30	44446.77
576.46	44004.41
576.62	43887.39
576.79	44273.57
576.95	44048.88
577.11	43665.03
577.27	44470.18
577.43	44568.48
577.59	44463.16
577.75	44776.79
577.92	43934.20
578.08	44250.17
578.24	43913.13
578.40	44240.81
578.56	44734.66
578.72	44133.14
578.88	44659.76
579.04	44458.48
579.21	44535.71
579.37	44114.42
579.53	44135.48
579.69	44154.21
579.85	43995.05
580.01	44322.72
580.17	44933.60
580.33	44364.85
580.49	44474.86
580.65	44292.30
580.82	44046.54
580.98	44219.74
581.14	44238.47
581.30	44250.17
581.46	44694.87
581.62	44617.63
581.78	44601.25
581.94	44666.78
582.10	44573.16
582.26	44610.61
582.42	44842.32
582.58	44472.52
582.74	44467.84
582.90	44655.08
583.06	44814.24
583.22	44371.88
583.38	44945.31
583.54	44325.07
583.70	43999.73
583.86	44327.41
584.02	44271.23
584.18	44727.64
584.34	44308.68
584.50	44399.96
584.66	44313.36
584.82	44533.37
584.98	44692.53
585.14	44519.33
585.30	44449.11
585.46	44542.74
585.62	44259.53
585.78	44320.38
585.94	44364.85
586.10	44325.07
586.26	44109.74
586.42	44568.48
586.58	44863.39
586.74	44479.54
586.90	44439.75
587.06	44573.16
587.22	44746.36
587.38	44615.29
587.54	44828.28
587.70	44776.79
587.86	44914.88
588.02	44280.60
588.18	44790.83
588.34	44236.12
588.49	44034.84
588.65	44233.78
588.81	44315.70
588.97	44196.34
589.13	43863.98
589.29	44493.58
589.45	44428.05
589.61	44577.84
589.77	44371.88
589.93	44725.30
590.08	44903.18
590.24	44854.03
590.40	44744.02
