SpectraSuite Data File
++++++++++++++++++++++++++++++++++++
Date: Fri Oct 25 11:23:25 EDT 2013
User: price-jones
Dark Spectrum Present: No
Reference Spectrum Present: No
Number of Sampled Component Spectra: 1
Spectrometers: USB2+H05261
Integration Time (usec): 100000 (USB2+H05261)
Spectra Averaged: 1 (USB2+H05261)
Boxcar Smoothing: 0 (USB2+H05261)
Correct for Electrical Dark: No (USB2+H05261)
Strobe/Lamp Enabled: No (USB2+H05261)
Correct for Detector Non-linearity: No (USB2+H05261)
Correct for Stray Light: No (USB2+H05261)
Number of Pixels in Processed Spectrum: 2048
>>>>>Begin Processed Spectral Data<<<<<
365.73	222.35
365.92	222.35
366.12	222.35
366.32	175.54
366.52	135.75
366.72	147.45
366.91	175.54
367.11	88.94
367.31	77.24
367.51	126.39
367.70	93.62
367.90	159.16
368.10	203.63
368.30	175.54
368.49	156.82
368.69	180.22
368.89	208.31
369.09	88.94
369.28	121.71
369.48	175.54
369.68	180.22
369.87	234.05
370.07	161.50
370.27	257.46
370.47	320.65
370.66	507.90
370.86	657.69
371.06	601.52
371.25	711.52
371.45	674.07
371.65	645.99
371.84	641.31
372.04	695.14
372.24	688.12
372.44	732.59
372.63	760.67
372.83	809.83
373.03	781.74
373.22	730.25
373.42	662.37
373.62	727.91
373.81	791.10
374.01	800.46
374.21	844.93
374.40	840.25
374.60	880.04
374.79	816.85
374.99	823.87
375.19	823.87
375.38	866.00
375.58	861.32
375.78	861.32
375.97	938.55
376.17	936.21
376.37	901.11
376.56	922.17
376.76	908.13
376.95	854.30
377.15	901.11
377.35	959.62
377.54	866.00
377.74	896.43
377.93	910.47
378.13	842.59
378.33	898.77
378.52	873.02
378.72	990.05
378.91	891.74
379.11	816.85
379.31	912.81
379.50	976.00
379.70	889.40
379.89	999.41
380.09	873.02
380.28	903.45
380.48	957.28
380.68	940.90
380.87	1018.13
381.07	987.71
381.26	1013.45
381.46	945.58
381.65	964.30
381.85	1083.67
382.04	1198.35
382.24	1029.84
382.43	1029.84
382.63	1029.84
382.83	1111.75
383.02	1006.43
383.22	1172.61
383.41	1053.24
383.61	1111.75
383.80	1181.97
384.00	1149.20
384.19	1149.20
384.39	1118.78
384.58	1130.48
384.78	1090.69
384.97	1125.80
385.17	1231.12
385.36	1135.16
385.56	1118.78
385.75	1146.86
385.95	1123.46
386.14	1280.27
386.34	1137.50
386.53	1221.76
386.72	1273.25
386.92	1261.55
387.11	1196.01
387.31	1259.21
387.50	1221.76
387.70	1254.53
387.89	1254.53
388.09	1125.80
388.28	1167.93
388.48	1186.65
388.67	1291.98
388.86	1294.32
389.06	1341.13
389.25	1399.64
389.45	1380.92
389.64	1341.13
389.84	1301.34
390.03	1350.49
390.22	1387.94
390.42	1434.75
390.61	1343.47
390.81	1401.98
391.00	1437.09
391.19	1369.21
391.39	1488.58
391.58	1444.11
391.78	1451.13
391.97	1476.88
392.16	1441.77
392.36	1640.72
392.55	1495.60
392.75	1563.48
392.94	1551.78
393.13	1530.71
393.33	1500.28
393.52	1526.03
393.71	1586.88
393.91	1633.69
394.10	1535.39
394.29	1607.95
394.49	1577.52
394.68	1568.16
394.88	1612.63
395.07	1654.76
395.26	1671.14
395.46	1657.10
395.65	1671.14
395.84	1753.06
396.04	1776.47
396.23	1767.10
396.42	1764.76
396.62	1706.25
396.81	1802.21
397.00	1839.66
397.19	1895.83
397.39	1832.64
397.58	1867.75
397.77	1757.74
397.97	1827.96
398.16	1849.02
398.35	1905.20
398.55	1975.41
398.74	1944.99
398.93	1870.09
399.12	1968.39
399.32	1870.09
399.51	1984.77
399.70	2108.82
399.90	1893.49
400.09	1963.71
400.28	2076.06
400.47	2029.24
400.67	2099.46
400.86	2078.40
401.05	2045.63
401.24	2101.80
401.44	2071.37
401.63	2099.46
401.82	2200.10
402.01	2160.31
402.21	2129.89
402.40	2165.00
402.59	2174.36
402.78	2214.15
402.97	2235.21
403.17	2289.04
403.36	2296.07
403.55	2455.22
403.74	2429.48
403.93	2431.82
404.13	2359.26
404.32	2375.64
404.51	2317.13
404.70	2487.99
404.89	2387.35
405.09	2473.95
405.28	2476.29
405.47	2450.54
405.66	2586.29
405.85	2527.78
406.05	2537.14
406.24	2523.10
406.43	2502.03
406.62	2670.55
406.81	2626.08
407.00	2527.78
407.20	2562.89
407.39	2562.89
407.58	2605.02
407.77	2733.75
407.96	2740.77
408.15	2726.72
408.34	2736.09
408.54	2677.57
408.73	2864.82
408.92	2827.37
409.11	2874.18
409.30	2885.88
409.49	2878.86
409.68	2848.43
409.87	3082.49
410.07	2949.08
410.26	3005.25
410.45	3005.25
410.64	3131.64
410.83	2986.52
411.02	3082.49
411.21	3194.83
411.40	3145.68
411.59	3138.66
411.78	3190.15
411.98	3222.92
412.17	3382.07
412.36	3342.28
412.55	3370.37
412.74	3323.56
412.93	3478.04
413.12	3279.09
413.31	3590.38
413.50	3499.10
413.69	3475.70
413.88	3606.77
414.07	3595.06
414.26	3581.02
414.45	3667.62
414.64	3786.99
414.83	3700.39
415.02	3744.86
415.22	3805.71
415.41	3770.60
415.60	4023.38
415.79	3861.88
415.98	3936.78
416.17	3871.25
416.36	3852.52
416.55	4007.00
416.74	4018.70
416.93	4126.36
417.12	3992.95
417.31	4252.75
417.50	4124.02
417.69	4299.56
417.88	4372.12
418.07	4315.95
418.26	4236.37
418.45	4299.56
418.64	4547.66
418.83	4477.44
419.02	4409.57
419.21	4540.64
419.39	4643.62
419.58	4554.68
419.77	4542.98
419.96	4510.21
420.15	4531.28
420.34	4517.23
420.53	4603.83
420.72	4767.67
420.91	4683.41
421.10	4873.00
421.29	4748.95
421.48	4695.11
421.67	4854.27
421.86	4732.56
422.05	4903.42
422.24	4884.70
422.43	4978.32
422.61	4945.55
422.80	4940.87
422.99	5008.75
423.18	5123.43
423.37	5081.30
423.56	4875.34
423.75	5011.09
423.94	4968.96
424.13	4610.86
424.32	4779.37
424.50	4954.91
424.69	4917.47
424.88	5132.79
425.07	4922.15
425.26	4922.15
425.45	4938.53
425.64	4870.65
425.83	4961.94
426.01	5128.11
426.20	5163.22
426.39	5109.39
426.58	5177.26
426.77	5104.71
426.96	5116.41
427.15	5245.14
427.33	5305.99
427.52	5146.84
427.71	5287.27
427.90	5200.67
428.09	5455.79
428.28	5327.06
428.46	5397.28
428.65	5214.71
428.84	5441.75
429.03	5579.84
429.22	5352.81
429.40	5526.00
429.59	5544.73
429.78	5359.83
429.97	5301.31
430.16	5359.83
430.34	5528.35
430.53	5708.57
430.72	5724.95
430.91	5806.87
431.10	5715.59
431.28	5746.02
431.47	5867.72
431.66	5893.47
431.85	5729.63
432.03	5933.26
432.22	5942.62
432.41	5834.96
432.60	5973.05
432.79	6029.22
432.97	5888.79
433.16	5956.66
433.35	5963.68
433.54	6078.37
433.72	6200.08
433.91	6157.95
434.10	6228.17
434.28	6092.41
434.47	6265.61
434.66	6134.54
434.85	6162.63
435.03	6225.82
435.22	6188.38
435.41	6555.84
435.59	6417.75
435.78	6466.90
435.97	6506.69
436.16	6420.09
436.34	6352.21
436.53	6581.59
436.72	6647.12
436.90	6555.84
437.09	6839.05
437.28	6464.56
437.46	6803.94
437.65	6656.48
437.84	6794.58
438.02	6715.00
438.21	6764.15
438.40	6759.47
438.58	6862.45
438.77	7103.53
438.96	6995.86
439.14	7304.81
439.33	7232.26
439.52	7262.68
439.70	7199.49
439.89	7438.22
440.08	7403.11
440.26	7297.79
440.45	7353.96
440.63	7597.38
440.82	7541.21
441.01	7473.33
441.19	7632.49
441.38	7808.03
441.57	7695.68
441.75	7786.96
441.94	7922.71
442.12	7915.69
442.31	8004.63
442.50	7955.48
442.68	7967.18
442.87	7925.05
443.05	8184.85
443.24	8161.45
443.43	8234.00
443.61	8138.04
443.80	8521.89
443.98	7962.50
444.17	8086.55
444.35	8191.88
444.54	8418.91
444.73	8559.34
444.91	8208.26
445.10	8461.04
445.28	8346.35
445.47	8351.03
445.65	8432.95
445.84	8407.20
446.02	8498.49
446.21	8416.57
446.39	8542.96
446.58	8421.25
446.77	8458.70
446.95	8362.73
447.14	8545.30
447.32	8610.83
447.51	8498.49
447.69	8404.86
447.88	8615.51
448.06	8601.47
448.25	8486.78
448.43	8505.51
448.62	8517.21
448.80	8615.51
448.99	8648.28
449.17	8746.58
449.36	8727.86
449.54	9008.72
449.73	9067.24
449.91	9041.49
450.10	9092.98
450.28	9057.87
450.46	9069.58
450.65	9153.84
450.83	9174.90
451.02	9156.18
451.20	9329.38
451.39	9312.99
451.57	9376.19
451.76	9195.96
451.94	9210.01
452.13	9525.98
452.31	9408.95
452.49	9139.79
452.68	9345.76
452.86	9184.26
453.05	9647.69
453.23	9287.25
453.42	9289.59
453.60	9207.67
453.78	9458.10
453.97	9294.27
454.15	9635.99
454.34	9540.02
454.52	9710.88
454.70	9708.54
454.89	9675.77
455.07	9762.37
455.26	9856.00
455.44	9984.73
455.62	9837.27
455.81	9970.68
455.99	10094.73
456.17	9973.02
456.36	9954.30
456.54	10071.33
456.73	10300.70
456.91	10427.09
457.09	10506.66
457.28	10328.78
457.46	10281.97
457.64	10494.96
457.83	10464.54
458.01	10321.76
458.19	10616.67
458.38	10707.95
458.56	10817.96
458.74	10738.38
458.93	10609.65
459.11	10848.38
459.29	10895.19
459.48	10848.38
459.66	10822.64
459.84	10979.45
460.03	11183.08
460.21	10855.40
460.39	10939.66
460.57	10890.51
460.76	11232.23
460.94	11302.45
461.12	11180.74
461.31	11403.09
461.49	11115.20
461.67	11122.23
461.85	11501.39
462.04	11351.60
462.22	11365.64
462.40	11676.93
462.59	11536.50
462.77	11592.67
462.95	11609.06
463.13	11695.66
463.32	11599.70
463.50	11761.19
463.68	11758.85
463.86	11831.41
464.05	11719.06
464.23	11700.34
464.41	12091.21
464.59	11683.95
464.78	12145.04
464.96	11899.28
465.14	12018.65
465.32	12030.35
465.50	12070.14
465.69	12336.96
465.87	12093.55
466.05	12325.26
466.23	12414.20
466.41	12198.87
466.60	12414.20
466.78	12374.41
466.96	12283.13
467.14	12301.86
467.32	12257.39
467.51	12461.01
467.69	12180.15
467.87	12688.04
468.05	12453.99
468.23	12341.64
468.41	12674.00
468.60	12746.56
468.78	12865.92
468.96	12823.80
469.14	12886.99
469.32	12954.87
469.50	12706.77
469.69	12950.18
469.87	13128.06
470.05	13289.56
470.23	13214.66
470.41	13362.12
470.59	13256.79
470.77	13139.77
470.95	13490.85
471.14	13685.11
471.32	13233.39
471.50	13575.11
471.68	13738.94
471.86	13612.56
472.04	13694.47
472.22	14064.28
472.40	13582.13
472.58	13907.46
472.77	13916.83
472.95	14188.33
473.13	14530.05
473.31	13909.80
473.49	14087.68
473.67	14356.85
473.85	14298.33
474.03	14565.15
474.21	14525.36
474.39	14675.16
474.57	14841.34
474.75	14909.21
474.93	15094.11
475.12	15061.35
475.30	15213.48
475.48	15047.30
475.66	15187.74
475.84	15257.95
476.02	15461.58
476.20	15241.57
476.38	15751.81
476.56	16163.74
476.74	15889.90
476.92	15992.88
477.10	16072.46
477.28	16341.62
477.46	16194.17
477.64	16411.84
477.82	16737.17
478.00	17043.78
478.18	17025.06
478.36	16943.14
478.54	17261.45
478.72	17188.89
478.90	17291.88
479.08	17727.22
479.26	17638.28
479.44	17642.96
479.62	17877.01
479.80	18237.45
479.98	18111.07
480.16	18654.07
480.34	18415.34
480.52	18588.53
480.70	18710.24
480.88	18649.39
481.06	18993.45
481.24	18890.46
481.41	19073.03
481.59	19501.34
481.77	19564.54
481.95	19609.01
482.13	20137.97
482.31	19644.12
482.49	20245.63
482.67	20280.74
482.85	20566.29
483.03	20781.62
483.21	20713.74
483.39	21268.45
483.57	20896.30
483.74	21245.04
483.92	21516.54
484.10	21380.79
484.28	21598.46
484.46	22298.28
484.64	22677.45
484.82	21713.15
485.00	22314.67
485.18	22906.82
485.35	23063.64
485.53	23005.13
485.71	22953.63
485.89	23910.91
486.07	23506.00
486.25	23440.47
486.43	23943.68
486.61	24067.73
486.78	24334.55
486.96	24470.30
487.14	24919.68
487.32	24741.80
487.50	24889.26
487.68	25397.15
487.85	25518.86
488.03	25816.11
488.21	25823.13
488.39	25788.02
488.57	26040.80
488.75	26682.11
488.92	26551.04
489.10	26630.62
489.28	26824.88
489.46	27201.71
489.64	27187.66
489.81	27646.41
489.99	27552.79
490.17	28133.24
490.35	28374.31
490.53	28077.07
490.70	28556.88
490.88	28318.14
491.06	28947.75
491.24	28601.35
491.41	29153.71
491.59	29226.27
491.77	29603.10
491.95	30143.76
492.13	29294.14
492.30	30199.93
492.48	30293.55
492.66	30260.79
492.84	30490.16
493.01	30506.54
493.19	30373.13
493.37	31487.23
493.54	31344.45
493.72	31690.85
493.90	31754.05
494.08	31768.09
494.25	31910.86
494.43	32107.47
494.61	32432.80
494.79	32545.15
494.96	32308.76
495.14	33542.22
495.32	33160.71
495.49	33371.36
495.67	33502.43
495.85	33448.60
496.02	34068.84
496.20	34167.14
496.38	34239.70
496.55	34368.43
496.73	35019.10
496.91	34668.02
497.09	34859.94
497.26	34960.58
497.44	34976.97
497.62	35225.06
497.79	36172.98
497.97	35585.50
498.14	35889.77
498.32	36201.07
498.50	36587.25
498.67	36802.58
498.85	36676.19
499.03	37083.45
499.20	36704.28
499.38	37305.80
499.56	37287.07
499.73	37202.82
499.91	37455.59
500.08	37827.74
500.26	37462.61
500.44	38080.52
500.61	38333.29
500.79	37986.89
500.97	38696.08
501.14	38579.05
501.32	38731.18
501.49	38476.07
501.67	38787.36
501.84	39136.10
502.02	39061.20
502.20	39213.34
502.37	39924.86
502.55	39264.83
502.72	39536.33
502.90	39585.48
503.07	39386.54
503.25	40411.69
503.43	40215.08
503.60	39974.01
503.78	40685.53
503.95	40381.26
504.13	40708.94
504.30	41207.47
504.48	40514.67
504.65	40907.88
504.83	40971.08
505.01	41888.57
505.18	41373.65
505.36	41581.96
505.53	41631.11
505.71	41734.09
505.88	42061.77
506.06	41427.48
506.23	42064.11
506.41	41975.17
506.58	42344.97
506.76	42164.75
506.93	42469.02
507.11	42618.81
507.28	42969.90
507.46	42951.17
507.63	43215.65
507.81	43407.58
507.98	43075.22
508.16	43889.73
508.33	43496.52
508.50	43559.71
508.68	44130.80
508.85	43505.88
509.03	43842.92
509.20	44009.09
509.38	44971.05
509.55	44460.82
509.73	44580.18
509.90	44577.84
510.08	45195.74
510.25	45422.78
510.42	45177.02
510.60	45357.24
510.77	45113.83
510.95	45483.63
511.12	45130.21
511.30	45455.54
511.47	45544.48
511.64	45645.13
511.82	46099.19
511.99	46040.68
512.17	46508.79
512.34	45813.65
512.51	46494.74
512.69	46946.47
512.86	46759.22
513.04	46714.75
513.21	46642.20
513.38	47196.90
513.56	47143.07
513.73	46628.15
513.90	47203.92
514.08	46845.82
514.25	47330.31
514.43	47835.87
514.60	47751.61
514.77	47522.24
514.95	47896.72
515.12	47915.45
515.29	47810.12
515.47	48170.57
515.64	48233.76
515.81	48039.50
515.99	48128.44
516.16	48713.57
516.33	48556.75
516.51	48846.98
516.68	48463.13
516.85	48594.20
517.03	48851.66
517.20	49064.65
517.37	49144.23
517.54	49123.16
517.72	49055.29
517.89	49553.82
518.06	49151.25
518.24	49151.25
518.41	49483.61
518.58	49233.17
518.75	49574.89
518.93	49677.87
519.10	49612.34
519.27	49734.04
519.45	49741.06
519.62	50209.17
519.79	49780.85
519.96	50267.69
520.14	50600.04
520.31	50525.14
520.48	50518.12
520.65	50504.08
520.83	50824.73
521.00	50775.58
521.17	50948.78
521.34	51051.76
521.52	50864.52
521.69	51079.85
521.86	51473.06
522.03	51269.43
522.20	51398.16
522.38	51826.48
522.55	51437.95
522.72	51201.56
522.89	51742.22
523.07	51686.05
523.24	51283.48
523.41	52051.17
523.58	51789.03
523.75	51929.47
523.92	51805.42
524.10	52303.95
524.27	52013.73
524.44	52149.48
524.61	52465.45
524.78	52282.89
524.96	52334.38
525.13	52322.68
525.30	52530.98
525.47	52734.61
525.64	52521.62
525.81	52575.45
525.98	52507.58
526.16	52636.31
526.33	52973.34
526.50	53029.52
526.67	52814.19
526.84	53455.50
527.01	53059.94
527.18	52959.30
527.36	53104.41
527.53	53008.45
527.70	53343.15
527.87	53380.60
528.04	53411.02
528.21	53525.71
528.38	53600.61
528.55	53481.24
528.72	53719.98
528.89	53661.46
529.07	53434.43
529.24	53673.16
529.41	53605.29
529.58	53776.15
529.75	53806.58
529.92	54127.23
530.09	54190.42
530.26	54045.31
530.43	54197.44
530.60	53778.49
530.77	54014.88
530.94	54148.29
531.11	54293.41
531.28	54284.04
531.46	53928.28
531.63	54450.22
531.80	54361.28
531.97	54384.69
532.14	54637.47
532.31	54625.76
532.48	54394.05
532.65	54951.10
532.82	54679.60
532.99	54805.98
533.16	54775.56
533.33	54878.54
533.50	55030.68
533.67	55145.36
533.84	54660.87
534.01	55030.68
534.18	55182.81
534.35	55358.35
534.52	55068.12
534.69	55395.80
534.86	55367.71
535.03	55306.86
535.20	55533.89
535.37	55295.16
535.54	55625.17
535.71	55487.08
535.88	55531.55
536.05	55529.21
536.22	55461.33
536.38	55679.00
536.55	55803.05
536.72	55735.18
536.89	55508.14
537.06	55777.31
537.23	55810.07
537.40	55667.30
537.57	55803.05
537.74	56149.45
537.91	55941.14
538.08	56055.83
538.25	55779.65
538.42	56100.30
538.59	55987.95
538.75	56182.22
538.92	56193.92
539.09	56334.35
539.26	56278.18
539.43	56296.91
539.60	56306.27
539.77	56229.03
539.94	56617.56
540.11	56638.62
540.28	56451.38
540.44	56341.38
540.61	56767.35
540.78	56470.11
540.95	56683.09
541.12	56430.32
541.29	56622.24
541.46	56624.58
541.62	56598.83
541.79	56846.93
541.96	56406.91
542.13	56521.60
542.30	56605.86
542.47	56793.10
542.63	57041.20
542.80	57139.50
542.97	57102.05
543.14	57200.35
543.31	57127.80
543.48	57176.95
543.64	57495.26
543.81	57446.11
543.98	57481.22
544.15	57408.66
544.32	57357.17
544.48	57607.61
544.65	57549.09
544.82	57504.62
544.99	57352.49
545.16	57499.94
545.32	57481.22
545.49	57836.98
545.66	57851.02
545.83	57708.25
546.00	57825.28
546.16	57972.73
546.33	57755.06
546.50	57635.69
546.67	57839.32
546.83	57705.91
547.00	57907.19
547.17	57935.28
547.34	57815.91
547.50	57963.37
547.67	58370.62
547.84	58197.42
548.00	58258.27
548.17	58351.90
548.34	58220.83
548.51	58258.27
548.67	58396.37
548.84	58059.33
549.01	58169.33
549.18	58185.72
549.34	58335.51
549.51	58295.72
549.68	58557.86
549.84	58475.94
550.01	58574.25
550.18	58515.73
550.34	58394.03
550.51	58698.30
550.68	58518.07
550.84	58375.30
551.01	58693.61
551.18	58536.80
551.34	58520.41
551.51	58812.98
551.68	58702.98
551.84	58707.66
552.01	58742.77
552.18	58805.96
552.34	58918.31
552.51	58754.47
552.68	58773.19
552.84	58969.80
553.01	59243.64
553.18	58784.90
553.34	59133.63
553.51	58857.45
553.67	59075.12
553.84	58988.52
554.01	59135.98
554.17	58960.44
554.34	59175.76
554.51	59187.47
554.67	58986.18
554.84	58908.94
555.00	59075.12
555.17	58976.82
555.33	58995.54
555.50	59278.75
555.67	58930.01
555.83	59243.64
556.00	59220.23
556.16	59716.43
556.33	59402.80
556.50	59407.48
556.66	59428.54
556.83	59107.89
556.99	59430.88
557.16	59690.68
557.32	59505.78
557.49	59657.91
557.65	59508.12
557.82	59379.39
557.98	59309.18
558.15	59498.76
558.32	59550.25
558.48	59313.86
558.65	59405.14
558.81	59681.32
558.98	59491.74
559.14	59737.49
559.31	59814.73
559.47	59756.22
559.64	59856.86
559.80	59786.64
559.97	59788.98
560.13	59573.66
560.30	59896.65
560.46	59959.84
560.63	59976.23
560.79	59821.75
560.96	59901.33
561.12	59906.01
561.29	59994.95
561.45	59730.47
561.61	59833.46
561.78	59985.59
561.94	59898.99
562.11	59987.93
562.27	59908.35
562.44	60046.44
562.60	60062.83
562.77	60210.28
562.93	60020.70
563.10	60207.94
563.26	60130.70
563.42	60329.65
563.59	59973.89
563.75	60039.42
563.92	60203.26
564.08	59882.61
564.24	60376.46
564.41	60154.11
564.57	60219.64
564.74	60158.79
564.90	59901.33
565.07	60116.66
565.23	60437.31
565.39	60322.63
565.56	60214.96
565.72	60221.98
565.88	60170.49
566.05	60210.28
566.21	60296.88
566.38	60514.55
566.54	60449.02
566.70	60526.25
566.87	60404.55
567.03	60346.03
567.19	60568.38
567.36	60411.57
567.52	60390.50
567.68	60816.48
567.85	60486.46
568.01	60697.11
568.17	60322.63
568.34	60381.14
568.50	60418.59
568.66	60441.99
568.83	60573.06
568.99	60512.21
569.15	60526.25
569.32	60526.25
569.48	60491.15
569.64	60725.20
569.81	60491.15
569.97	60411.57
570.13	60722.86
570.30	60416.25
570.46	60659.66
570.62	60701.79
570.78	60633.92
570.95	60713.50
571.11	60591.79
571.27	60570.72
571.43	60851.59
571.60	60647.96
571.76	60699.45
571.92	60748.60
572.09	60790.73
572.25	60821.16
572.41	60552.00
572.57	60671.37
572.74	60893.72
572.90	60893.72
573.06	60509.87
573.22	60678.39
573.38	60821.16
573.55	60629.24
573.71	60898.40
573.87	60870.31
574.03	60687.75
574.20	60788.39
574.36	60690.09
574.52	60874.99
574.68	60912.44
574.84	61069.26
575.01	60811.80
575.17	60935.85
575.33	60725.20
575.49	60694.77
575.65	60844.57
575.82	60849.25
575.98	61076.28
576.14	61146.50
576.30	60790.73
576.46	60999.04
576.62	60772.01
576.79	60947.55
576.95	60650.30
577.11	60893.72
577.27	60935.85
577.43	60842.23
577.59	60914.78
577.75	60739.24
577.92	60832.86
578.08	61038.83
578.24	60980.32
578.40	61080.96
578.56	61045.85
578.72	60945.21
578.88	61216.71
579.04	61073.94
579.21	60807.12
579.37	61071.60
579.53	61293.95
579.69	60903.08
579.85	60994.36
580.01	61212.03
580.17	60940.53
580.33	60856.27
580.49	61193.31
580.65	60977.98
580.82	60809.46
580.98	60987.34
581.14	60975.64
581.30	61041.17
581.46	61092.66
581.62	61048.19
581.78	61080.96
581.94	61111.39
582.10	61116.07
582.26	61235.44
582.42	61118.41
582.58	61031.81
582.74	61029.47
582.90	61017.77
583.06	60989.68
583.22	60767.33
583.38	61015.43
583.54	61251.82
583.70	61111.39
583.86	61013.08
584.02	61024.79
584.18	61048.19
584.34	60898.40
584.50	61251.82
584.66	61078.62
584.82	60795.42
584.98	61200.33
585.14	61296.29
585.30	61116.07
585.46	61179.26
585.62	61116.07
585.78	61291.61
585.94	61080.96
586.10	61104.37
586.26	61268.20
586.42	61151.18
586.58	61289.27
586.74	61228.41
586.90	61029.47
587.06	61057.56
587.22	61380.55
587.38	61022.45
587.54	61174.58
587.70	61240.12
587.86	61209.69
588.02	61127.77
588.18	61212.03
588.34	61022.45
588.49	61293.95
