SpectraSuite Data File
++++++++++++++++++++++++++++++++++++
Date: Fri Oct 25 11:22:53 EDT 2013
User: price-jones
Dark Spectrum Present: No
Reference Spectrum Present: No
Number of Sampled Component Spectra: 1
Spectrometers: USB2+H05261
Integration Time (usec): 100000 (USB2+H05261)
Spectra Averaged: 1 (USB2+H05261)
Boxcar Smoothing: 0 (USB2+H05261)
Correct for Electrical Dark: No (USB2+H05261)
Strobe/Lamp Enabled: No (USB2+H05261)
Correct for Detector Non-linearity: No (USB2+H05261)
Correct for Stray Light: No (USB2+H05261)
Number of Pixels in Processed Spectrum: 2048
>>>>>Begin Processed Spectral Data<<<<<
365.73	231.71
365.92	231.71
366.12	231.71
366.32	182.56
366.52	126.39
366.72	156.82
366.91	81.92
367.11	271.50
367.31	100.64
367.51	161.50
367.70	149.79
367.90	93.62
368.10	105.32
368.30	152.13
368.49	133.41
368.69	163.84
368.89	133.41
369.09	131.07
369.28	173.20
369.48	138.09
369.68	147.45
369.87	138.09
370.07	212.99
370.27	241.08
370.47	283.20
370.66	543.00
370.86	634.29
371.06	648.33
371.25	688.12
371.45	610.88
371.65	746.63
371.84	683.44
372.04	580.45
372.24	631.94
372.44	786.42
372.63	662.37
372.83	826.21
373.03	711.52
373.22	753.65
373.42	795.78
373.62	774.72
373.81	802.80
374.01	802.80
374.21	793.44
374.40	798.12
374.60	863.66
374.79	704.50
374.99	725.57
375.19	763.01
375.38	760.67
375.58	851.96
375.78	814.51
375.97	870.68
376.17	896.43
376.37	791.10
376.56	891.74
376.76	908.13
376.95	873.02
377.15	966.64
377.35	891.74
377.54	891.74
377.74	873.02
377.93	947.92
378.13	908.13
378.33	891.74
378.52	889.40
378.72	912.81
378.91	870.68
379.11	978.34
379.31	924.51
379.50	870.68
379.70	929.19
379.89	915.15
380.09	947.92
380.28	1046.22
380.48	1029.84
380.68	1062.60
380.87	966.64
381.07	1006.43
381.26	1053.24
381.46	1004.09
381.65	1086.01
381.85	957.28
382.04	1071.97
382.24	1039.20
382.43	999.41
382.63	994.73
382.83	1203.04
383.02	1043.88
383.22	1053.24
383.41	1067.28
383.61	1123.46
383.80	1078.99
384.00	1057.92
384.19	1093.03
384.39	1116.44
384.58	1095.37
384.78	1156.22
384.97	1095.37
385.17	1123.46
385.36	1153.88
385.56	1144.52
385.75	1188.99
385.95	1203.04
386.14	1221.76
386.34	1266.23
386.53	1160.91
386.72	1247.51
386.92	1268.57
387.11	1338.79
387.31	1247.51
387.50	1207.72
387.70	1277.93
387.89	1256.87
388.09	1268.57
388.28	1277.93
388.48	1306.02
388.67	1329.42
388.86	1289.64
389.06	1352.83
389.25	1301.34
389.45	1331.76
389.64	1376.24
389.84	1390.28
390.03	1306.02
390.22	1418.36
390.42	1444.11
390.61	1469.86
390.81	1324.74
391.00	1439.43
391.19	1406.66
391.39	1448.79
391.58	1519.01
391.78	1469.86
391.97	1453.47
392.16	1369.21
392.36	1476.88
392.55	1493.26
392.75	1645.40
392.94	1474.54
393.13	1542.41
393.33	1516.67
393.52	1528.37
393.71	1643.06
393.91	1666.46
394.10	1633.69
394.29	1537.73
394.49	1528.37
394.68	1710.93
394.88	1605.61
395.07	1680.50
395.26	1694.55
395.46	1617.31
395.65	1720.29
395.84	1750.72
396.04	1743.70
396.23	1753.06
396.42	1605.61
396.62	1823.28
396.81	1778.81
397.00	1778.81
397.19	1799.87
397.39	1764.76
397.58	1928.60
397.77	1930.94
397.97	1877.11
398.16	1888.81
398.35	1872.43
398.55	1919.24
398.74	1942.64
398.93	1966.05
399.12	1874.77
399.32	1884.13
399.51	1991.80
399.70	2066.69
399.90	2118.18
400.09	2036.27
400.28	2026.90
400.47	2052.65
400.67	2012.86
400.86	2057.33
401.05	2071.37
401.24	2153.29
401.44	2132.23
401.63	2239.89
401.82	2188.40
402.01	2167.34
402.21	2146.27
402.40	2160.31
402.59	2209.47
402.78	2225.85
402.97	2251.60
403.17	2286.70
403.36	2277.34
403.55	2284.36
403.74	2356.92
403.93	2417.77
404.13	2347.56
404.32	2237.55
404.51	2431.82
404.70	2401.39
404.89	2464.58
405.09	2555.86
405.28	2443.52
405.47	2450.54
405.66	2499.69
405.85	2600.34
406.05	2565.23
406.24	2471.61
406.43	2546.50
406.62	2590.97
406.81	2649.49
407.00	2619.06
407.20	2661.19
407.39	2644.81
407.58	2684.59
407.77	2864.82
407.96	2752.47
408.15	2705.66
408.34	2654.17
408.54	2839.07
408.73	2806.30
408.92	2841.41
409.11	2942.05
409.30	2909.29
409.49	2956.10
409.68	2885.88
409.87	2981.84
410.07	3145.68
410.26	2991.20
410.45	2949.08
410.64	3009.93
410.83	3042.70
411.02	3042.70
411.21	3080.14
411.40	3148.02
411.59	3143.34
411.78	3129.30
411.98	3155.04
412.17	3330.58
412.36	3279.09
412.55	3236.96
412.74	3438.25
412.93	3428.88
413.12	3272.07
413.31	3574.00
413.50	3414.84
413.69	3386.76
413.88	3742.52
414.07	3562.30
414.26	3646.55
414.45	3805.71
414.64	3588.04
414.83	3838.48
415.02	3733.15
415.22	3920.40
415.41	3871.25
415.60	3892.31
415.79	3932.10
415.98	4074.87
416.17	3885.29
416.36	3950.82
416.55	4002.32
416.74	4133.39
416.93	4098.28
417.12	4170.83
417.31	4187.22
417.50	4175.52
417.69	4315.95
417.88	4327.65
418.07	4273.82
418.26	4449.36
418.45	4191.90
418.64	4493.83
418.83	4381.48
419.02	4550.00
419.21	4552.34
419.39	4369.78
419.58	4461.06
419.77	4564.04
419.96	4678.73
420.15	4643.62
420.34	4716.18
420.53	4627.24
420.72	4753.63
420.91	4596.81
421.10	4678.73
421.29	4676.39
421.48	4606.17
421.67	4828.53
421.86	4716.18
422.05	4926.83
422.24	4910.44
422.43	5015.77
422.61	4805.12
422.80	5027.47
422.99	4933.85
423.18	5163.22
423.37	5090.67
423.56	5114.07
423.75	5149.18
423.94	4940.87
424.13	4613.20
424.32	4854.27
424.50	5013.43
424.69	5090.67
424.88	5235.78
425.07	4908.10
425.26	4992.36
425.45	5121.09
425.64	5053.22
425.83	4901.08
426.01	4975.98
426.20	5034.49
426.39	5076.62
426.58	5071.94
426.77	5053.22
426.96	5195.99
427.15	5200.67
427.33	5212.37
427.52	5170.24
427.71	5420.68
427.90	5198.33
428.09	5317.70
428.28	5451.11
428.46	5359.83
428.65	5261.52
428.84	5568.13
429.03	5633.67
429.22	5376.21
429.40	5430.04
429.59	5568.13
429.78	5203.01
429.97	5341.10
430.16	5490.90
430.34	5617.29
430.53	5746.02
430.72	5781.12
430.91	5612.60
431.10	5598.56
431.28	5776.44
431.47	5809.21
431.66	5963.68
431.85	5727.29
432.03	5940.28
432.22	5989.43
432.41	6052.63
432.60	5987.09
432.79	5963.68
432.97	5956.66
433.16	5940.28
433.35	5853.68
433.54	6148.59
433.72	6087.73
433.91	6202.42
434.10	6136.88
434.28	6101.78
434.47	6190.72
434.66	6139.23
434.85	6260.93
435.03	6478.60
435.22	6319.45
435.41	6551.16
435.59	6480.94
435.78	6410.73
435.97	6574.56
436.16	6642.44
436.34	6595.63
436.53	6551.16
436.72	6857.77
436.90	6380.30
437.09	6806.28
437.28	6640.10
437.46	6726.70
437.65	6633.08
437.84	6780.53
438.02	6853.09
438.21	6925.65
438.40	6871.81
438.58	6974.80
438.77	7105.87
438.96	7056.72
439.14	7094.16
439.33	7148.00
439.52	7178.42
439.70	7222.89
439.89	7368.01
440.08	7405.46
440.26	7456.95
440.45	7288.43
440.63	7517.80
440.82	7686.32
441.01	7492.05
441.19	7569.29
441.38	7719.09
441.57	7932.08
441.75	7763.56
441.94	7997.61
442.12	7903.99
442.31	8013.99
442.50	8245.71
442.68	8032.72
442.87	8030.38
443.05	8109.96
443.24	8355.71
443.43	8210.60
443.61	8236.35
443.80	8519.55
443.98	8217.62
444.17	7920.37
444.35	8374.44
444.54	8411.89
444.73	8479.76
444.91	8449.33
445.10	8468.06
445.28	8332.31
445.47	8259.75
445.65	8463.38
445.84	8610.83
446.02	8552.32
446.21	8477.42
446.39	8540.61
446.58	8711.47
446.77	8664.66
446.95	8306.56
447.14	8306.56
447.32	8755.94
447.51	8561.68
447.69	8568.70
447.88	8631.90
448.06	8409.54
448.25	8568.70
448.43	8807.44
448.62	8690.41
448.80	8601.47
448.99	8674.03
449.17	8882.33
449.36	8769.99
449.54	9046.17
449.73	8959.57
449.91	9039.15
450.10	9029.79
450.28	8992.34
450.46	9221.71
450.65	8985.32
450.83	8894.04
451.02	9163.20
451.20	9202.99
451.39	9231.07
451.57	9273.20
451.76	9329.38
451.94	9324.69
452.13	9579.81
452.31	9535.34
452.49	9245.12
452.68	9699.18
452.86	9104.68
453.05	9586.83
453.23	9331.72
453.42	9404.27
453.60	9357.46
453.78	9724.93
453.97	9474.49
454.15	9432.36
454.34	9432.36
454.52	9664.07
454.70	9696.84
454.89	9753.01
455.07	9881.74
455.26	9898.13
455.44	9970.68
455.62	9989.41
455.81	9902.81
455.99	10104.09
456.17	10087.71
456.36	10153.24
456.54	10235.16
456.73	10478.58
456.91	10679.86
457.09	10611.99
457.28	10656.46
457.46	10382.62
457.64	10509.01
457.83	10644.76
458.01	10548.79
458.19	10820.30
458.38	10679.86
458.56	10827.32
458.74	10878.81
458.93	10991.16
459.11	10937.32
459.29	10909.24
459.48	10750.08
459.66	10787.53
459.84	11028.60
460.03	11349.26
460.21	11236.91
460.39	11080.10
460.57	11040.31
460.76	11070.73
460.94	11157.33
461.12	11255.64
461.31	11262.66
461.49	11220.53
461.67	11297.77
461.85	11552.88
462.04	11683.95
462.22	11836.09
462.40	11735.45
462.59	11555.22
462.77	11494.37
462.95	11700.34
463.13	11634.80
463.32	11758.85
463.50	11936.73
463.68	11758.85
463.86	12088.87
464.05	11786.94
464.23	11723.74
464.41	12131.00
464.59	11953.12
464.78	12241.00
464.96	12042.06
465.14	11997.59
465.32	12025.67
465.50	12210.57
465.69	12404.84
465.87	12339.30
466.05	11932.05
466.23	12056.10
466.41	12341.64
466.60	12720.81
466.78	12238.66
466.96	12170.79
467.14	12453.99
467.32	12606.13
467.51	12526.55
467.69	12348.67
467.87	12662.30
468.05	12732.51
468.23	12585.06
468.41	12685.70
468.60	12671.66
468.78	12882.31
468.96	12781.67
469.14	12863.58
469.32	12996.99
469.50	12940.82
469.69	13181.90
469.87	13310.63
470.05	13217.01
470.23	13373.82
470.41	13151.47
470.59	13434.68
470.77	13184.24
470.95	13523.62
471.14	13544.68
471.32	13369.14
471.50	13909.80
471.68	13809.16
471.86	13760.01
472.04	13940.23
472.22	13867.67
472.40	13706.18
472.58	13867.67
472.77	13783.41
472.95	14310.04
473.13	14806.23
473.31	14193.01
473.49	14134.50
473.67	14176.62
473.85	14391.95
474.03	15042.62
474.21	14743.03
474.39	14579.20
474.57	14827.29
474.75	15220.50
474.93	15089.43
475.12	15213.48
475.30	15302.42
475.48	15241.57
475.66	15527.11
475.84	15059.01
476.02	15527.11
476.20	15428.81
476.38	15719.04
476.56	16027.99
476.74	15978.84
476.92	15985.86
477.10	16156.72
477.28	16231.62
477.46	16355.66
477.64	16435.24
477.82	16688.02
478.00	17106.98
478.18	16624.83
478.36	17001.65
478.54	17226.34
478.72	17202.94
478.90	17432.31
479.08	17708.49
479.26	18036.17
479.44	17778.71
479.62	18092.34
479.80	18363.84
479.98	18192.98
480.16	18724.29
480.34	18370.86
480.52	18757.05
480.70	18658.75
480.88	18728.97
481.06	18789.82
481.24	19286.01
481.41	19117.50
481.59	19475.60
481.77	19711.99
481.95	19775.19
482.13	19609.01
482.31	20126.27
482.49	20671.61
482.67	20301.81
482.85	20365.00
483.03	20404.79
483.21	21020.35
483.39	20978.22
483.57	21106.95
483.74	21298.88
483.92	21535.27
484.10	21341.00
484.28	21876.99
484.46	22185.94
484.64	22377.86
484.82	22302.96
485.00	22632.98
485.18	22731.28
485.35	23077.68
485.53	22878.74
485.71	23323.44
485.89	23197.05
486.07	23817.29
486.25	23592.60
486.43	23583.24
486.61	24407.11
486.78	24130.92
486.96	24187.10
487.14	24727.76
487.32	24980.54
487.50	25015.65
487.68	25151.40
487.85	25715.47
488.03	26225.70
488.21	26118.04
488.39	26047.82
488.57	26506.57
488.75	26300.60
488.92	26546.36
489.10	27037.87
489.28	27056.59
489.46	27452.14
489.64	27302.35
489.81	27946.00
489.99	27899.19
490.17	27938.97
490.35	27974.08
490.53	28582.62
490.70	29081.16
490.88	28751.14
491.06	29177.12
491.24	29134.99
491.41	29228.61
491.59	29652.25
491.77	29530.54
491.95	30005.67
492.13	30178.87
492.30	30274.83
492.48	30546.33
492.66	30469.09
492.84	30621.23
493.01	31161.89
493.19	31178.28
493.37	31220.41
493.54	31227.43
493.72	31660.43
493.90	31786.82
494.08	31510.63
494.25	32194.07
494.43	32486.64
494.61	32325.14
494.79	32957.08
494.96	32446.85
495.14	33017.94
495.32	33291.78
495.49	33415.83
495.67	33315.19
495.85	33727.12
496.02	34007.98
496.20	34183.52
496.38	34253.74
496.55	34707.80
496.73	35129.10
496.91	34906.75
497.09	35459.12
497.26	35222.72
497.44	35241.45
497.62	35672.10
497.79	35864.03
497.97	35849.99
498.14	36058.29
498.32	36573.21
498.50	36671.51
498.67	36938.33
498.85	36699.60
499.03	36804.92
499.20	36868.12
499.38	37273.03
499.56	37301.12
499.73	37745.82
499.91	37874.55
500.08	37769.22
500.26	37984.55
500.44	38110.94
500.61	38047.75
500.79	38274.78
500.97	38527.56
501.14	38581.39
501.32	38663.31
501.49	38675.01
501.67	38925.45
501.84	39381.85
502.02	38976.94
502.20	39267.17
502.37	39536.33
502.55	39831.24
502.72	39665.06
502.90	39803.15
503.07	39805.49
503.25	40060.61
503.43	40184.66
503.60	40233.81
503.78	40671.49
503.95	40451.48
504.13	40720.64
504.30	40938.31
504.48	40886.82
504.65	41177.04
504.83	41535.15
505.01	41762.18
505.18	41364.29
505.36	41701.32
505.53	41607.70
505.71	41666.22
505.88	42447.96
506.06	41862.82
506.23	42384.76
506.41	42127.30
506.58	42438.59
506.76	42401.14
506.93	42808.40
507.11	42869.25
507.28	42887.98
507.46	43309.27
507.63	43119.69
507.81	43145.44
507.98	43540.99
508.16	43873.34
508.33	43625.25
508.50	43838.23
508.68	43894.41
508.85	44580.18
509.03	44313.36
509.20	44708.91
509.38	44631.68
509.55	44706.57
509.73	45038.93
509.90	44610.61
510.08	44889.13
510.25	45062.33
510.42	44729.98
510.60	45237.87
510.77	45598.32
510.95	45998.55
511.12	45567.89
511.30	45347.88
511.47	45876.84
511.64	45876.84
511.82	46277.07
511.99	46539.21
512.17	46642.20
512.34	45963.44
512.51	46447.93
512.69	46721.77
512.86	46761.56
513.04	47093.92
513.21	46831.78
513.38	47042.43
513.56	47089.24
513.73	47234.35
513.90	47779.70
514.08	47388.83
514.25	47526.92
514.43	47363.08
514.60	47454.36
514.77	47730.54
514.95	48388.24
515.12	47657.99
515.29	48051.20
515.47	48617.61
515.64	48257.17
515.81	48069.92
515.99	48083.97
516.16	48610.59
516.33	48367.17
516.51	48989.75
516.68	48905.49
516.85	49031.88
517.03	49036.56
517.20	49130.19
517.37	48875.07
517.54	49572.55
517.72	49315.09
517.89	49659.15
518.06	49682.55
518.24	49411.05
518.41	49450.84
518.58	50035.97
518.75	49626.38
518.93	49797.24
519.10	49844.05
519.27	49783.19
519.45	50017.25
519.62	50244.28
519.79	50307.47
519.96	50052.36
520.14	50328.54
520.31	50300.45
520.48	50466.63
520.65	50632.81
520.83	51206.24
521.00	50810.69
521.17	50724.09
521.34	50710.05
521.52	51110.28
521.69	51554.98
521.86	51407.53
522.03	51508.17
522.20	51597.11
522.38	51821.80
522.55	51814.78
522.72	52072.24
522.89	51597.11
523.07	51931.81
523.24	51976.28
523.41	52109.69
523.58	51889.68
523.75	52222.03
523.92	51962.23
524.10	52135.43
524.27	52561.41
524.44	52224.37
524.61	52229.05
524.78	52327.36
524.96	52493.54
525.13	52498.22
525.30	52839.93
525.47	52750.99
525.64	52767.38
525.81	52671.42
525.98	53085.69
526.16	52811.85
526.33	52917.17
526.50	53467.20
526.67	53083.35
526.84	53308.04
527.01	52903.13
527.18	53336.13
527.36	53375.92
527.53	53308.04
527.70	53565.50
527.87	53762.11
528.04	53422.73
528.21	53797.21
528.38	53652.10
528.55	53719.98
528.72	53633.38
528.89	53897.86
529.07	53560.82
529.24	53628.69
529.41	54248.94
529.58	54071.06
529.75	53790.19
529.92	54066.38
530.09	54232.55
530.26	54272.34
530.43	54361.28
530.60	54370.64
530.77	54300.43
530.94	53942.33
531.11	54372.99
531.28	54457.24
531.46	54457.24
531.63	54644.49
531.80	54396.39
531.97	54726.41
532.14	54878.54
532.31	54602.36
532.48	54859.82
532.65	54869.18
532.82	54485.33
532.99	54768.54
533.16	54876.20
533.33	55384.10
533.50	55260.05
533.67	55145.36
533.84	55033.02
534.01	55180.47
534.18	54944.08
534.35	55423.89
534.52	55468.36
534.69	55409.84
534.86	55360.69
535.03	55370.05
535.20	55442.61
535.37	55681.34
535.54	55721.13
535.71	55662.62
535.88	55627.51
536.05	55503.46
536.22	55859.23
536.38	56027.74
536.55	55866.25
536.72	55800.71
536.89	55875.61
537.06	55803.05
537.23	56474.79
537.40	55798.37
537.57	55999.66
537.74	55941.14
537.91	56112.00
538.08	56093.28
538.25	55903.70
538.42	56079.24
538.59	56540.32
538.75	56226.69
538.92	56219.67
539.09	56488.83
539.26	56348.40
539.43	56324.99
539.60	56334.35
539.77	56268.82
539.94	56741.61
540.11	56388.19
540.28	56655.01
540.44	56666.71
540.61	56587.13
540.78	56596.49
540.95	56877.36
541.12	56420.95
541.29	56402.23
541.46	57041.20
541.62	56757.99
541.79	56992.04
541.96	56664.37
542.13	57055.24
542.30	57027.15
542.47	57237.80
542.63	56994.39
542.80	57453.13
542.97	57289.29
543.14	57396.96
543.31	57378.23
543.48	57401.64
543.64	57471.85
543.81	57673.14
543.98	57460.15
544.15	57668.46
544.32	57553.77
544.48	58024.22
544.65	57528.03
544.82	57593.56
544.99	57392.28
545.16	57635.69
545.32	57581.86
545.49	57888.47
545.66	57984.43
545.83	57804.21
546.00	57968.05
546.16	57741.02
546.33	57918.90
546.50	57741.02
546.67	57834.64
546.83	57584.20
547.00	58052.31
547.17	58092.10
547.34	57696.55
547.50	58171.67
547.67	58342.53
547.84	58223.17
548.00	58567.23
548.17	58356.58
548.34	58239.55
548.51	58562.54
548.67	58368.28
548.84	58277.00
549.01	58356.58
549.18	58099.12
549.34	58541.48
549.51	58354.24
549.68	58607.01
549.84	58550.84
550.01	58663.19
550.18	58452.54
550.34	58492.33
550.51	58768.51
550.68	58637.44
550.84	58567.23
551.01	59178.10
551.18	58869.15
551.34	58784.90
551.51	58796.60
551.68	58834.05
551.84	58890.22
552.01	58541.48
552.18	59065.76
552.34	58611.70
552.51	58944.05
552.68	58794.26
552.84	59084.48
553.01	59063.42
553.18	59173.42
553.34	59014.27
553.51	58862.13
553.67	59000.22
553.84	59398.12
554.01	59255.34
554.17	59363.01
554.34	59173.42
554.51	59318.54
554.67	59241.30
554.84	59276.41
555.00	59348.96
555.17	59194.49
555.33	59255.34
555.50	59016.61
555.67	59306.83
555.83	59175.76
556.00	59248.32
556.16	59449.61
556.33	59564.29
556.50	59496.42
556.66	59454.29
556.83	59451.95
556.99	59435.56
557.16	59791.33
557.32	59615.79
557.49	59784.30
557.65	59522.16
557.82	59678.98
557.98	59669.62
558.15	59629.83
558.32	59601.74
558.48	59791.33
558.65	59557.27
558.81	59700.04
558.98	59625.15
559.14	59821.75
559.31	59749.20
559.47	60023.04
559.64	59985.59
559.80	59845.16
559.97	59966.87
560.13	59901.33
560.30	60032.40
560.46	60088.57
560.63	59936.44
560.79	60030.06
560.96	59992.61
561.12	60037.08
561.29	60086.23
561.45	60207.94
561.61	60025.38
561.78	60030.06
561.94	59906.01
562.11	60058.15
562.27	60074.53
562.44	60214.96
562.60	60505.19
562.77	60149.43
562.93	60025.38
563.10	60294.54
563.26	59997.29
563.42	60339.01
563.59	60317.95
563.75	60207.94
563.92	60341.35
564.08	60165.81
564.24	60357.74
564.41	60158.79
564.57	60111.98
564.74	60254.75
564.90	60280.50
565.07	60371.78
565.23	60273.48
565.39	60243.05
565.56	60402.21
565.72	60327.31
565.88	60275.82
566.05	60257.09
566.21	60334.33
566.38	60465.40
566.54	60385.82
566.70	60589.45
566.87	60631.58
567.03	60477.10
567.19	60685.41
567.36	60561.36
567.52	60402.21
567.68	60807.12
567.85	60472.42
568.01	60662.00
568.17	60573.06
568.34	60624.56
568.50	60643.28
568.66	60523.91
568.83	60509.87
568.99	60406.89
569.15	60542.64
569.32	60633.92
569.48	60584.77
569.64	60708.82
569.81	60598.81
569.97	60640.94
570.13	60526.25
570.30	60823.50
570.46	60896.06
570.62	60612.85
570.78	60685.41
570.95	60718.18
571.11	60739.24
571.27	60823.50
571.43	60727.54
571.60	60954.57
571.76	60919.46
571.92	60767.33
572.09	60853.93
572.25	60896.06
572.41	60690.09
572.57	60931.17
572.74	61027.13
572.90	60694.77
573.06	60935.85
573.22	60914.78
573.38	60645.62
573.55	61010.74
573.71	60954.57
573.87	60956.91
574.03	60725.20
574.20	60713.50
574.36	60804.78
574.52	60947.55
574.68	60982.66
574.84	60935.85
575.01	60889.04
575.17	60872.65
575.33	60669.03
575.49	60856.27
575.65	60942.87
575.82	61076.28
575.98	61006.06
576.14	61303.31
576.30	61158.20
576.46	60851.59
576.62	61080.96
576.79	60896.06
576.95	60823.50
577.11	60910.10
577.27	61048.19
577.43	61013.08
577.59	60811.80
577.75	60809.46
577.92	60893.72
578.08	61031.81
578.24	61090.32
578.40	61186.28
578.56	61221.39
578.72	61141.81
578.88	60987.34
579.04	61254.16
579.21	60982.66
579.37	61315.01
579.53	61183.94
579.69	60781.37
579.85	60917.12
580.01	61137.13
580.17	60821.16
580.33	61167.56
580.49	60985.00
580.65	61183.94
580.82	61052.87
580.98	60858.61
581.14	60924.14
581.30	61219.05
581.46	61125.43
581.62	61254.16
581.78	61104.37
581.94	61151.18
582.10	61111.39
582.26	60989.68
582.42	61022.45
582.58	61078.62
582.74	61186.28
582.90	61146.50
583.06	61050.53
583.22	61043.51
583.38	61113.73
583.54	61123.09
583.70	61375.87
583.86	61106.71
584.02	60879.67
584.18	61179.26
584.34	61254.16
584.50	61087.98
584.66	61059.90
584.82	60823.50
584.98	61200.33
585.14	61247.14
585.30	61099.68
585.46	61125.43
585.62	61186.28
585.78	61312.67
585.94	61282.25
586.10	61221.39
586.26	61268.20
586.42	61247.14
586.58	61380.55
586.74	61387.57
586.90	61151.18
587.06	61286.93
587.22	61123.09
587.38	61183.94
587.54	61497.58
587.70	61570.13
587.86	61237.78
588.02	61371.19
588.18	61432.04
588.34	61174.58
588.49	61336.08
