SpectraSuite Data File
++++++++++++++++++++++++++++++++++++
Date: Fri Oct 25 11:23:50 EDT 2013
User: price-jones
Dark Spectrum Present: No
Reference Spectrum Present: No
Number of Sampled Component Spectra: 1
Spectrometers: USB2+H05261
Integration Time (usec): 100000 (USB2+H05261)
Spectra Averaged: 1 (USB2+H05261)
Boxcar Smoothing: 0 (USB2+H05261)
Correct for Electrical Dark: No (USB2+H05261)
Strobe/Lamp Enabled: No (USB2+H05261)
Correct for Detector Non-linearity: No (USB2+H05261)
Correct for Stray Light: No (USB2+H05261)
Number of Pixels in Processed Spectrum: 2048
>>>>>Begin Processed Spectral Data<<<<<
365.73	196.60
365.92	196.60
366.12	196.60
366.32	131.07
366.52	149.79
366.72	117.03
366.91	119.37
367.11	124.05
367.31	156.82
367.51	117.03
367.70	67.88
367.90	98.30
368.10	56.17
368.30	142.77
368.49	114.69
368.69	145.11
368.89	170.86
369.09	184.90
369.28	175.54
369.48	121.71
369.68	102.98
369.87	147.45
370.07	210.65
370.27	154.48
370.47	376.83
370.66	575.77
370.86	631.94
371.06	608.54
371.25	692.80
371.45	655.35
371.65	702.16
371.84	711.52
372.04	624.92
372.24	748.97
372.44	667.05
372.63	732.59
372.83	683.44
373.03	753.65
373.22	814.51
373.42	716.20
373.62	739.61
373.81	819.19
374.01	842.59
374.21	786.42
374.40	798.12
374.60	751.31
374.79	763.01
374.99	800.46
375.19	866.00
375.38	901.11
375.58	875.36
375.78	858.98
375.97	788.76
376.17	917.49
376.37	880.04
376.56	938.55
376.76	791.10
376.95	870.68
377.15	837.91
377.35	887.06
377.54	959.62
377.74	901.11
377.93	926.85
378.13	952.60
378.33	950.26
378.52	840.25
378.72	826.21
378.91	912.81
379.11	887.06
379.31	891.74
379.50	973.66
379.70	999.41
379.89	978.34
380.09	924.51
380.28	980.68
380.48	994.73
380.68	990.05
380.87	1055.58
381.07	971.32
381.26	1069.62
381.46	1036.86
381.65	1036.86
381.85	976.00
382.04	1041.54
382.24	1095.37
382.43	1013.45
382.63	976.00
382.83	1041.54
383.02	1107.07
383.22	1170.27
383.41	1123.46
383.61	1086.01
383.80	1207.72
384.00	1114.10
384.19	1102.39
384.39	1156.22
384.58	1095.37
384.78	1142.18
384.97	1198.35
385.17	1151.54
385.36	1144.52
385.56	1071.97
385.75	1181.97
385.95	1111.75
386.14	1207.72
386.34	1153.88
386.53	1200.69
386.72	1242.82
386.92	1219.42
387.11	1231.12
387.31	1200.69
387.50	1132.82
387.70	1287.29
387.89	1240.48
388.09	1338.79
388.28	1331.76
388.48	1315.38
388.67	1324.74
388.86	1320.06
389.06	1289.64
389.25	1268.57
389.45	1392.62
389.64	1205.38
389.84	1444.11
390.03	1294.32
390.22	1392.62
390.42	1383.26
390.61	1416.02
390.81	1444.11
391.00	1455.81
391.19	1390.28
391.39	1383.26
391.58	1446.45
391.78	1476.88
391.97	1500.28
392.16	1430.07
392.36	1577.52
392.55	1584.54
392.75	1558.80
392.94	1455.81
393.13	1430.07
393.33	1643.06
393.52	1607.95
393.71	1589.22
393.91	1530.71
394.10	1607.95
394.29	1626.67
394.49	1659.44
394.68	1671.14
394.88	1715.61
395.07	1732.00
395.26	1600.93
395.46	1675.82
395.65	1734.34
395.84	1790.51
396.04	1682.85
396.23	1734.34
396.42	1753.06
396.62	1785.83
396.81	1746.04
397.00	1727.32
397.19	1811.57
397.39	1912.22
397.58	1839.66
397.77	1729.66
397.97	1919.24
398.16	1884.13
398.35	1849.02
398.55	1788.17
398.74	1919.24
398.93	1977.75
399.12	1865.41
399.32	1813.92
399.51	1912.22
399.70	1961.37
399.90	1909.88
400.09	2003.50
400.28	2071.37
400.47	2043.29
400.67	2045.63
400.86	2052.65
401.05	2015.20
401.24	2181.38
401.44	2078.40
401.63	2263.30
401.82	2139.25
402.01	2162.66
402.21	2218.83
402.40	2136.91
402.59	2333.51
402.78	2256.28
402.97	2202.44
403.17	2312.45
403.36	2342.88
403.55	2473.95
403.74	2366.28
403.93	2394.37
404.13	2363.94
404.32	2338.20
404.51	2396.71
404.70	2490.33
404.89	2490.33
405.09	2583.95
405.28	2520.76
405.47	2427.14
405.66	2546.50
405.85	2532.46
406.05	2579.27
406.24	2548.84
406.43	2581.61
406.62	2621.40
406.81	2593.31
407.00	2579.27
407.20	2595.65
407.39	2560.55
407.58	2757.15
407.77	2726.72
407.96	2862.48
408.15	2780.56
408.34	2775.88
408.54	2810.98
408.73	2729.06
408.92	2813.32
409.11	2883.54
409.30	3007.59
409.49	2953.76
409.68	2864.82
409.87	2855.45
410.07	3028.65
410.26	3110.57
410.45	3091.85
410.64	3028.65
410.83	3187.81
411.02	3089.51
411.21	3173.77
411.40	3185.47
411.59	3255.69
411.78	3295.47
411.98	3316.54
412.17	3304.84
412.36	3241.64
412.55	3382.07
412.74	3386.76
412.93	3494.42
413.12	3269.73
413.31	3562.30
413.50	3613.79
413.69	3583.36
413.88	3562.30
414.07	3492.08
414.26	3578.68
414.45	3585.70
414.64	3794.01
414.83	3768.26
415.02	3618.47
415.22	3784.65
415.41	3824.44
415.60	3892.31
415.79	3866.56
415.98	4032.74
416.17	4074.87
416.36	3985.93
416.55	3990.61
416.74	3971.89
416.93	4114.66
417.12	4046.79
417.31	4191.90
417.50	4229.35
417.69	4327.65
417.88	4264.46
418.07	4229.35
418.26	4241.05
418.45	4369.78
418.64	4535.96
418.83	4332.33
419.02	4318.29
419.21	4531.28
419.39	4514.89
419.58	4568.73
419.77	4552.34
419.96	4550.00
420.15	4561.70
420.34	4716.18
420.53	4751.29
420.72	4655.33
420.91	4767.67
421.10	4826.18
421.29	4730.22
421.48	4727.88
421.67	4814.48
421.86	4835.55
422.05	4734.90
422.24	4854.27
422.43	4812.14
422.61	4940.87
422.80	4966.62
422.99	4926.83
423.18	4947.89
423.37	4887.04
423.56	4954.91
423.75	4966.62
423.94	4844.91
424.13	4580.43
424.32	4739.58
424.50	4961.94
424.69	5097.69
424.88	5015.77
425.07	4936.19
425.26	5029.81
425.45	5020.45
425.64	4931.51
425.83	5055.56
426.01	5125.77
426.20	4873.00
426.39	5062.58
426.58	5238.12
426.77	5188.97
426.96	5102.37
427.15	5179.61
427.33	5184.29
427.52	5184.29
427.71	5233.44
427.90	5348.12
428.09	5348.12
428.28	5350.46
428.46	5320.04
428.65	5441.75
428.84	5547.07
429.03	5565.79
429.22	5305.99
429.40	5657.07
429.59	5614.95
429.78	5322.38
429.97	5240.46
430.16	5451.11
430.34	5497.92
430.53	5713.25
430.72	5633.67
430.91	5614.95
431.10	5612.60
431.28	5853.68
431.47	5753.04
431.66	6022.20
431.85	5771.76
432.03	5907.51
432.22	6003.47
432.41	6008.16
432.60	5909.85
432.79	6026.88
432.97	5891.13
433.16	6043.26
433.35	6017.52
433.54	5944.96
433.72	6150.93
433.91	6029.22
434.10	6157.95
434.28	6087.73
434.47	6359.24
434.66	6335.83
434.85	6345.19
435.03	6356.90
435.22	6406.05
435.41	6597.97
435.59	6342.85
435.78	6455.20
435.97	6630.74
436.16	6485.62
436.34	6494.99
436.53	6553.50
436.72	6707.98
436.90	6436.47
437.09	6663.51
437.28	6684.57
437.46	6799.26
437.65	6607.33
437.84	6871.81
438.02	6722.02
438.21	6813.30
438.40	6839.05
438.58	6956.07
438.77	7140.97
438.96	6935.01
439.14	6991.18
439.33	7328.22
439.52	7253.32
439.70	7358.64
439.89	7463.97
440.08	7297.79
440.26	7400.77
440.45	7426.52
440.63	7403.11
440.82	7665.25
441.01	7559.93
441.19	7737.81
441.38	7737.81
441.57	7651.21
441.75	7646.53
441.94	8028.04
442.12	7911.01
442.31	8112.30
442.50	8046.76
442.68	8191.88
442.87	7887.61
443.05	8229.32
443.24	8308.90
443.43	8196.56
443.61	8341.67
443.80	8510.19
443.98	7992.93
444.17	7922.71
444.35	8156.77
444.54	8344.01
444.73	8201.24
444.91	8269.11
445.10	8437.63
445.28	8393.16
445.47	8290.18
445.65	8461.04
445.84	8547.64
446.02	8641.26
446.21	8304.22
446.39	8601.47
446.58	8702.11
446.77	8692.75
446.95	8287.84
447.14	8482.10
447.32	8498.49
447.51	8348.69
447.69	8613.17
447.88	8517.21
448.06	8564.02
448.25	8620.19
448.43	8711.47
448.62	8601.47
448.80	8454.02
448.99	8669.34
449.17	8779.35
449.36	8774.67
449.54	8837.86
449.73	8990.00
449.91	9111.71
450.10	9172.56
450.28	9118.73
450.46	9078.94
450.65	9137.45
450.83	9053.19
451.02	9048.51
451.20	9188.94
451.39	9198.31
451.57	9200.65
451.76	9362.14
451.94	9172.56
452.13	9343.42
452.31	9380.87
452.49	9205.33
452.68	9160.86
452.86	9420.66
453.05	9472.15
453.23	9549.39
453.42	9444.06
453.60	9507.26
453.78	9596.20
453.97	9481.51
454.15	9713.22
454.34	9458.10
454.52	9645.35
454.70	9673.43
454.89	9900.47
455.07	9727.27
455.26	10015.15
455.44	10090.05
455.62	9991.75
455.81	9827.91
455.99	9996.43
456.17	10200.05
456.36	10099.41
456.54	10321.76
456.73	10167.29
456.91	10333.47
457.09	10438.79
457.28	10832.00
457.46	10438.79
457.64	10759.44
457.83	10455.17
458.01	10483.26
458.19	10719.65
458.38	10574.54
458.56	10799.23
458.74	10892.85
458.93	10640.08
459.11	10843.70
459.29	10773.49
459.48	11007.54
459.66	10869.45
459.84	10934.98
460.03	11192.44
460.21	10916.26
460.39	11063.71
460.57	11269.68
460.76	11112.86
460.94	11300.11
461.12	11290.74
461.31	11421.81
461.49	11197.12
461.67	11178.40
461.85	11779.92
462.04	11290.74
462.22	11489.69
462.40	11520.12
462.59	11536.50
462.77	11716.72
462.95	11908.65
463.13	11763.53
463.32	11618.42
463.50	11936.73
463.68	11667.57
463.86	12145.04
464.05	11705.02
464.23	11726.08
464.41	11969.50
464.59	11667.57
464.78	12233.98
464.96	12140.36
465.14	12058.44
465.32	11939.07
465.50	12189.51
465.69	12037.38
465.87	12152.06
466.05	12006.95
466.23	12372.07
466.41	12306.54
466.60	12482.08
466.78	12313.56
466.96	12170.79
467.14	12648.26
467.32	12505.48
467.51	12739.54
467.69	12194.19
467.87	12465.69
468.05	12758.26
468.23	12482.08
468.41	12671.66
468.60	12620.17
468.78	12629.53
468.96	12519.53
469.14	12966.57
469.32	12954.87
469.50	12655.28
469.69	12961.89
469.87	13277.86
470.05	13280.20
470.23	13378.50
470.41	13153.81
470.59	13312.97
470.77	13233.39
470.95	13205.30
471.14	13441.70
471.32	13081.25
471.50	13642.98
471.68	13734.26
471.86	13799.80
472.04	13940.23
472.22	14120.45
472.40	13736.60
472.58	14090.02
472.77	13816.18
472.95	14113.43
473.13	14714.95
473.31	14303.01
473.49	14218.75
473.67	14469.19
473.85	14384.93
474.03	14583.88
474.21	14361.53
474.39	14752.40
474.57	14635.37
474.75	15061.35
474.93	14972.41
475.12	14916.23
475.30	14841.34
475.48	15178.37
475.66	15365.62
475.84	15269.66
476.02	15426.47
476.20	15262.63
476.38	15770.53
476.56	16088.84
476.74	16091.18
476.92	15861.81
477.10	16070.12
477.28	16393.11
477.46	16283.11
477.64	16753.55
477.82	16592.06
478.00	17238.05
478.18	16498.44
478.36	16915.05
478.54	17247.41
478.72	17254.43
478.90	17649.98
479.08	17767.01
479.26	17759.98
479.44	18031.49
479.62	18043.19
479.80	18256.18
479.98	18288.95
480.16	18602.58
480.34	18146.17
480.52	18780.46
480.70	18740.67
480.88	18654.07
481.06	18593.22
481.24	18838.97
481.41	19417.08
481.59	19433.47
481.77	19585.60
481.95	19728.38
482.13	19913.28
482.31	19805.61
482.49	20596.71
482.67	20374.36
482.85	20645.87
483.03	20842.47
483.21	20893.96
483.39	21029.71
483.57	20863.54
483.74	21275.47
483.92	21633.57
484.10	21476.76
484.28	21736.56
484.46	22263.18
484.64	22455.10
484.82	22295.94
485.00	22214.02
485.18	22955.97
485.35	23117.47
485.53	23175.98
485.71	23236.84
485.89	23761.12
486.07	23386.63
486.25	23770.48
486.43	24039.64
486.61	23936.66
486.78	24238.59
486.96	24376.68
487.14	24746.48
487.32	24886.92
487.50	24938.41
487.68	25259.06
487.85	25673.34
488.03	25427.58
488.21	25972.92
488.39	25858.24
488.57	26312.30
488.75	26307.62
488.92	26513.59
489.10	26707.85
489.28	27037.87
489.46	27126.81
489.64	27192.34
489.81	27845.35
489.99	27543.42
490.17	28034.94
490.35	28357.93
490.53	28542.83
490.70	28643.48
490.88	28093.45
491.06	29116.26
491.24	29041.37
491.41	29535.22
491.59	29205.20
491.77	29516.50
491.95	29862.90
492.13	30174.19
492.30	30326.32
492.48	30071.20
492.66	30157.80
492.84	30576.76
493.01	30740.60
493.19	30740.60
493.37	31323.39
493.54	31515.31
493.72	31622.98
493.90	31585.53
494.08	31732.98
494.25	32121.51
494.43	32350.88
494.61	32636.43
494.79	32638.77
494.96	32783.88
495.14	32933.68
495.32	33256.67
495.49	33296.46
495.67	33202.84
495.85	33755.21
496.02	34064.16
496.20	34539.29
496.38	33902.66
496.55	34532.26
496.73	34906.75
496.91	34855.26
497.09	34810.79
497.26	34775.68
497.44	35316.34
497.62	35494.22
497.79	35934.24
497.97	35758.70
498.14	35983.40
498.32	36488.95
498.50	36439.80
498.67	36973.44
498.85	36814.29
499.03	36664.49
499.20	36980.46
499.38	36858.76
499.56	37429.85
499.73	37469.64
499.91	37474.32
500.08	37872.21
500.26	37649.86
500.44	37680.28
500.61	38136.69
500.79	38307.55
500.97	37933.06
501.14	39248.44
501.32	38993.32
501.49	39115.03
501.67	39192.27
501.84	39447.39
502.02	39108.01
502.20	39189.93
502.37	39419.30
502.55	39470.79
502.72	39590.16
502.90	39868.69
503.07	39599.52
503.25	39819.53
503.43	40091.04
503.60	40612.98
503.78	40343.81
503.95	40509.99
504.13	41013.21
504.30	41113.85
504.48	40875.12
504.65	41095.13
504.83	41305.77
505.01	41450.89
505.18	41607.70
505.36	42007.94
505.53	41570.25
505.71	41722.39
505.88	42012.62
506.06	41638.13
506.23	42183.48
506.41	42354.33
506.58	42363.70
506.76	42698.39
506.93	42520.51
507.11	42642.22
507.28	42969.90
507.46	43393.53
507.63	42595.41
507.81	43690.78
507.98	43150.12
508.16	43405.23
508.33	43873.34
508.50	43775.04
508.68	43636.95
508.85	44236.12
509.03	44140.16
509.20	44163.57
509.38	45059.99
509.55	44786.15
509.73	44596.57
509.90	44739.34
510.08	44921.90
510.25	44800.19
510.42	45340.86
510.60	45296.39
510.77	45399.37
510.95	45918.97
511.12	45546.82
511.30	45588.95
511.47	45507.04
511.64	45965.78
511.82	45965.78
511.99	45921.31
512.17	46431.55
512.34	46263.03
512.51	46611.77
512.69	46356.65
512.86	46480.70
513.04	47196.90
513.21	46920.72
513.38	46759.22
513.56	47449.68
513.73	47187.54
513.90	47316.27
514.08	47250.74
514.25	47505.85
514.43	47325.63
514.60	47728.20
514.77	47370.10
514.95	47849.91
515.12	47730.54
515.29	47744.59
515.47	48130.78
515.64	48236.10
515.81	48032.47
515.99	48346.11
516.16	48765.06
516.33	48758.04
516.51	48814.21
516.68	48919.54
516.85	48601.22
517.03	49240.19
517.20	49530.42
517.37	49020.18
517.54	49256.57
517.72	49324.45
517.89	49207.42
518.06	49682.55
518.24	49600.63
518.41	49741.06
518.58	49694.25
518.75	49558.50
518.93	49708.30
519.10	49741.06
519.27	49860.43
519.45	50040.65
519.62	50211.51
519.79	50244.28
519.96	50541.53
520.14	50492.38
520.31	50468.97
520.48	50555.57
520.65	50403.44
520.83	50703.03
521.00	50864.52
521.17	50705.37
521.34	50937.08
521.52	50885.59
521.69	51023.68
521.86	51309.22
522.03	51161.77
522.20	51473.06
522.38	51784.35
522.55	51505.83
522.72	51639.24
522.89	51421.57
523.07	51976.28
523.24	51861.59
523.41	51950.53
523.58	51835.84
523.75	51995.00
523.92	51833.50
524.10	51889.68
524.27	52179.90
524.44	52488.85
524.61	52191.61
524.78	52430.34
524.96	52486.51
525.13	52437.36
525.30	52793.12
525.47	52722.91
525.64	52736.95
525.81	52814.19
525.98	52807.17
526.16	52664.39
526.33	52594.18
526.50	53408.68
526.67	52795.46
526.84	53048.24
527.01	52844.62
527.18	53233.14
527.36	52924.19
527.53	53373.58
527.70	53743.38
527.87	53593.59
528.04	53305.70
528.21	53502.31
528.38	53612.31
528.55	53886.15
528.72	53439.11
528.89	53829.98
529.07	53544.44
529.24	53750.40
529.41	53932.96
529.58	53684.87
529.75	53663.80
529.92	54426.82
530.09	54223.19
530.26	54113.19
530.43	54312.13
530.60	53977.43
530.77	54174.04
530.94	54291.07
531.11	54394.05
531.28	54485.33
531.46	54049.99
531.63	54468.95
531.80	54768.54
531.97	54564.91
532.14	54808.32
532.31	54672.57
532.48	54915.99
532.65	54993.23
532.82	54658.53
532.99	55051.74
533.16	54609.38
533.33	54838.75
533.50	55157.06
533.67	54789.60
533.84	54735.77
534.01	55150.04
534.18	55058.76
534.35	55407.50
534.52	55274.09
534.69	55421.55
534.86	55494.10
535.03	55339.63
535.20	55341.97
535.37	55498.78
535.54	55363.03
535.71	55348.99
535.88	55737.52
536.05	55770.28
536.22	55669.64
536.38	55627.51
536.55	55800.71
536.72	56086.26
536.89	55723.47
537.06	55688.37
537.23	56119.02
537.40	55901.36
537.57	55840.50
537.74	55856.88
537.91	56100.30
538.08	55957.53
538.25	55840.50
538.42	55971.57
538.59	56287.54
538.75	55973.91
538.92	56240.73
539.09	56320.31
539.26	56528.62
539.43	56198.60
539.60	56369.46
539.77	56444.36
539.94	56633.94
540.11	56364.78
540.28	56692.46
540.44	56818.84
540.61	56460.74
540.78	56591.81
540.95	56591.81
541.12	56638.62
541.29	56694.80
541.46	56725.22
541.62	56605.86
541.79	56875.02
541.96	56566.07
542.13	56687.78
542.30	56774.37
542.47	57071.62
542.63	57134.82
542.80	56903.10
542.97	56970.98
543.14	57488.24
543.31	57378.23
543.48	57427.38
543.64	57469.51
543.81	57455.47
543.98	57518.67
544.15	57668.46
544.32	57602.92
544.48	57764.42
544.65	57333.76
544.82	57717.61
544.99	57745.70
545.16	57726.97
545.32	57563.14
545.49	57911.88
545.66	57822.93
545.83	57846.34
546.00	57932.94
546.16	57731.65
546.33	57827.62
546.50	57429.72
546.67	57907.19
546.83	57701.23
547.00	57979.75
547.17	57930.60
547.34	57911.88
547.50	58183.38
547.67	58302.74
547.84	58274.66
548.00	58232.53
548.17	58181.04
548.34	58384.66
548.51	58499.35
548.67	58293.38
548.84	58344.87
549.01	58159.97
549.18	58115.50
549.34	58284.02
549.51	58422.11
549.68	58674.89
549.84	58475.94
550.01	58532.12
550.18	58429.13
550.34	58574.25
550.51	58789.58
550.68	58478.28
550.84	58307.43
551.01	58564.88
551.18	58805.96
551.34	58726.38
551.51	58653.82
551.68	58731.06
551.84	58852.77
552.01	58585.95
552.18	58859.79
552.34	58670.21
552.51	59082.14
552.68	58789.58
552.84	58794.26
553.01	59217.89
553.18	58838.73
553.34	58915.96
553.51	58986.18
553.67	59030.65
553.84	59154.70
554.01	58908.94
554.17	59138.32
554.34	59304.49
554.51	59138.32
554.67	59238.96
554.84	59124.27
555.00	58946.39
555.17	59178.10
555.33	59119.59
555.50	58932.35
555.67	58997.88
555.83	59023.63
556.00	59320.88
556.16	59484.72
556.33	59234.28
556.50	59363.01
556.66	59384.07
556.83	59311.52
556.99	59465.99
557.16	59613.44
557.32	59547.91
557.49	59786.64
557.65	59353.65
557.82	59505.78
557.98	59494.08
558.15	59505.78
558.32	59770.26
558.48	59615.79
558.65	59580.68
558.81	59674.30
558.98	59482.37
559.14	59760.90
559.31	59639.19
559.47	60020.70
559.64	59945.80
559.80	59690.68
559.97	59805.37
560.13	59695.36
560.30	59756.22
560.46	59913.03
560.63	59966.87
560.79	59934.10
560.96	60158.79
561.12	60151.77
561.29	59913.03
561.45	60013.68
561.61	60051.12
561.78	59908.35
561.94	59924.74
562.11	59990.27
562.27	60133.04
562.44	60053.47
562.60	60128.36
562.77	60023.04
562.93	60058.15
563.10	60104.96
563.26	60081.55
563.42	60233.69
563.59	60233.69
563.75	60051.12
563.92	60116.66
564.08	60032.40
564.24	60353.05
564.41	60310.92
564.57	60360.08
564.74	60465.40
564.90	60250.07
565.07	60477.10
565.23	60282.84
565.39	60154.11
565.56	60406.89
565.72	60114.32
565.88	60374.12
566.05	60252.41
566.21	60240.71
566.38	60364.76
566.54	60491.15
566.70	60303.90
566.87	60259.43
567.03	60250.07
567.19	60505.19
567.36	60320.29
567.52	60322.63
567.68	60643.28
567.85	60528.59
568.01	60617.53
568.17	60498.17
568.34	60425.61
568.50	60360.08
568.66	60409.23
568.83	60683.07
568.99	60596.47
569.15	60626.90
569.32	60444.33
569.48	60486.46
569.64	60760.31
569.81	60418.59
569.97	60509.87
570.13	60767.33
570.30	60371.78
570.46	60659.66
570.62	60783.71
570.78	60671.37
570.95	60500.51
571.11	60896.06
571.27	60713.50
571.43	60718.18
571.60	60830.52
571.76	60774.35
571.92	60781.37
572.09	60879.67
572.25	60858.61
572.41	60715.84
572.57	60776.69
572.74	60952.23
572.90	60762.65
573.06	60921.80
573.22	60640.94
573.38	60917.12
573.55	60718.18
573.71	61013.08
573.87	60764.99
574.03	60631.58
574.20	60938.19
574.36	60715.84
574.52	60917.12
574.68	60919.46
574.84	61013.08
575.01	60879.67
575.17	60952.23
575.33	60783.71
575.49	60968.61
575.65	60940.53
575.82	60910.10
575.98	60952.23
576.14	61193.31
576.30	61013.08
576.46	60949.89
576.62	60907.76
576.79	60961.59
576.95	60973.30
577.11	60947.55
577.27	60898.40
577.43	61006.06
577.59	60781.37
577.75	61013.08
577.92	60769.67
578.08	60647.96
578.24	61118.41
578.40	61085.64
578.56	61013.08
578.72	60882.02
578.88	61029.47
579.04	61242.46
579.21	61059.90
579.37	61066.92
579.53	61148.84
579.69	60886.70
579.85	60907.76
580.01	61279.91
580.17	60900.74
580.33	61029.47
580.49	61127.77
580.65	61226.07
580.82	60919.46
580.98	61113.73
581.14	61017.77
581.30	61055.21
581.46	61111.39
581.62	61106.71
581.78	60720.52
581.94	61158.20
582.10	61097.34
582.26	61020.11
582.42	61073.94
582.58	61162.88
582.74	60977.98
582.90	60996.70
583.06	61036.49
583.22	60963.93
583.38	61151.18
583.54	61137.13
583.70	60954.57
583.86	61146.50
584.02	60994.36
584.18	61104.37
584.34	61165.22
584.50	61038.83
584.66	60952.23
584.82	60947.55
584.98	61256.50
585.14	60928.83
585.30	60856.27
585.46	60970.96
585.62	61190.97
585.78	61422.68
585.94	61015.43
586.10	61205.01
586.26	61244.80
586.42	61130.11
586.58	61247.14
586.74	61200.33
586.90	61006.06
587.06	61106.71
587.22	61155.86
587.38	61183.94
587.54	61226.07
587.70	61258.84
587.86	61212.03
588.02	61286.93
588.18	61518.64
588.34	61097.34
588.49	61228.41
