SpectraSuite Data File
++++++++++++++++++++++++++++++++++++
Date: Fri Oct 25 11:25:39 EDT 2013
User: price-jones
Dark Spectrum Present: No
Reference Spectrum Present: No
Number of Sampled Component Spectra: 1
Spectrometers: USB2+H05261
Integration Time (usec): 100000 (USB2+H05261)
Spectra Averaged: 1 (USB2+H05261)
Boxcar Smoothing: 0 (USB2+H05261)
Correct for Electrical Dark: No (USB2+H05261)
Strobe/Lamp Enabled: No (USB2+H05261)
Correct for Detector Non-linearity: No (USB2+H05261)
Correct for Stray Light: No (USB2+H05261)
Number of Pixels in Processed Spectrum: 2048
>>>>>Begin Processed Spectral Data<<<<<
365.73	224.69
365.92	224.69
366.12	224.69
366.32	166.18
366.52	170.86
366.72	131.07
366.91	198.95
367.11	170.86
367.31	112.35
367.51	121.71
367.70	77.24
367.90	117.03
368.10	102.98
368.30	81.92
368.49	191.92
368.69	154.48
368.89	173.20
369.09	110.01
369.28	135.75
369.48	182.56
369.68	210.65
369.87	203.63
370.07	191.92
370.27	215.33
370.47	325.33
370.66	538.32
370.86	571.09
371.06	613.22
371.25	727.91
371.45	624.92
371.65	699.82
371.84	594.50
372.04	711.52
372.24	720.88
372.44	737.27
372.63	704.50
372.83	746.63
373.03	781.74
373.22	770.04
373.42	704.50
373.62	753.65
373.81	779.40
374.01	786.42
374.21	880.04
374.40	844.93
374.60	880.04
374.79	741.95
374.99	763.01
375.19	805.14
375.38	842.59
375.58	856.64
375.78	945.58
375.97	894.08
376.17	849.61
376.37	837.91
376.56	802.80
376.76	896.43
376.95	828.55
377.15	826.21
377.35	887.06
377.54	905.79
377.74	959.62
377.93	793.44
378.13	924.51
378.33	873.02
378.52	781.74
378.72	997.07
378.91	901.11
379.11	877.70
379.31	919.83
379.50	868.34
379.70	856.64
379.89	961.96
380.09	1004.09
380.28	987.71
380.48	947.92
380.68	1027.50
380.87	980.68
381.07	1043.88
381.26	1090.69
381.46	976.00
381.65	1022.81
381.85	1004.09
382.04	976.00
382.24	1060.26
382.43	1130.48
382.63	1090.69
382.83	957.28
383.02	1081.33
383.22	1046.22
383.41	1060.26
383.61	1069.62
383.80	1177.29
384.00	1156.22
384.19	1093.03
384.39	1191.33
384.58	1151.54
384.78	1114.10
384.97	1146.86
385.17	1118.78
385.36	1191.33
385.56	1032.18
385.75	1107.07
385.95	1151.54
386.14	1226.44
386.34	1188.99
386.53	1193.67
386.72	1252.19
386.92	1296.66
387.11	1238.14
387.31	1196.01
387.50	1315.38
387.70	1235.80
387.89	1299.00
388.09	1231.12
388.28	1266.23
388.48	1280.27
388.67	1320.06
388.86	1343.47
389.06	1284.95
389.25	1247.51
389.45	1359.85
389.64	1366.87
389.84	1320.06
390.03	1444.11
390.22	1516.67
390.42	1380.92
390.61	1453.47
390.81	1406.66
391.00	1397.30
391.19	1430.07
391.39	1467.52
391.58	1455.81
391.78	1474.54
391.97	1376.24
392.16	1376.24
392.36	1462.83
392.55	1481.56
392.75	1528.37
392.94	1556.46
393.13	1504.96
393.33	1472.20
393.52	1502.62
393.71	1633.69
393.91	1586.88
394.10	1603.27
394.29	1497.94
394.49	1664.12
394.68	1554.12
394.88	1591.56
395.07	1645.40
395.26	1703.91
395.46	1624.33
395.65	1736.68
395.84	1724.97
396.04	1802.21
396.23	1671.14
396.42	1734.34
396.62	1715.61
396.81	1806.89
397.00	1842.00
397.19	1755.40
397.39	1753.06
397.58	1853.70
397.77	1748.38
397.97	1783.49
398.16	1844.34
398.35	1853.70
398.55	1923.92
398.74	1881.79
398.93	1959.03
399.12	1809.23
399.32	1853.70
399.51	2015.20
399.70	1937.96
399.90	1963.71
400.09	1982.43
400.28	2040.95
400.47	1928.60
400.67	2057.33
400.86	2092.44
401.05	2031.58
401.24	2047.97
401.44	2150.95
401.63	2148.61
401.82	2085.42
402.01	2101.80
402.21	2214.15
402.40	2237.55
402.59	2214.15
402.78	2162.66
402.97	2183.72
403.17	2209.47
403.36	2186.06
403.55	2270.32
403.74	2207.13
403.93	2310.11
404.13	2286.70
404.32	2314.79
404.51	2319.47
404.70	2377.98
404.89	2321.81
405.09	2476.29
405.28	2441.18
405.47	2422.45
405.66	2586.29
405.85	2485.65
406.05	2422.45
406.24	2497.35
406.43	2572.25
406.62	2560.55
406.81	2555.86
407.00	2607.36
407.20	2530.12
407.39	2616.72
407.58	2689.28
407.77	2738.43
407.96	2703.32
408.15	2764.17
408.34	2642.46
408.54	2899.92
408.73	2736.09
408.92	2820.35
409.11	2923.33
409.30	2853.11
409.49	3047.38
409.68	2848.43
409.87	2977.16
410.07	3054.40
410.26	2928.01
410.45	3042.70
410.64	3094.19
410.83	3038.02
411.02	2995.89
411.21	3026.31
411.40	3000.57
411.59	3180.79
411.78	3192.49
411.98	3042.70
412.17	3199.51
412.36	3222.92
412.55	3344.63
412.74	3454.63
412.93	3471.01
413.12	3363.35
413.31	3520.17
413.50	3538.89
413.69	3545.91
413.88	3552.93
414.07	3597.40
414.26	3552.93
414.45	3648.90
414.64	3669.96
414.83	3819.75
415.02	3714.43
415.22	3815.07
415.41	3700.39
415.60	3899.33
415.79	3889.97
415.98	4004.66
416.17	3988.27
416.36	3808.05
416.55	4051.47
416.74	4028.06
416.93	3934.44
417.12	3861.88
417.31	4086.58
417.50	4194.24
417.69	4315.95
417.88	4285.52
418.07	4215.30
418.26	4191.90
418.45	4463.40
418.64	4402.55
418.83	4360.42
419.02	4423.61
419.21	4430.63
419.39	4550.00
419.58	4559.36
419.77	4432.97
419.96	4528.94
420.15	4564.04
420.34	4557.02
420.53	4559.36
420.72	4725.54
420.91	4678.73
421.10	4753.63
421.29	4692.77
421.48	4524.26
421.67	4891.72
421.86	4760.65
422.05	4788.74
422.24	4765.33
422.43	4905.76
422.61	4952.57
422.80	4924.49
422.99	4910.44
423.18	4898.74
423.37	4887.04
423.56	4788.74
423.75	4926.83
423.94	4943.21
424.13	4709.16
424.32	4622.56
424.50	5008.75
424.69	5020.45
424.88	5001.72
425.07	4868.31
425.26	4865.97
425.45	4870.65
425.64	4868.31
425.83	5055.56
426.01	5004.07
426.20	5055.56
426.39	4929.17
426.58	5053.22
426.77	5046.20
426.96	5224.08
427.15	5277.91
427.33	5125.77
427.52	5107.05
427.71	5228.76
427.90	5083.64
428.09	5383.23
428.28	5385.57
428.46	5359.83
428.65	5418.34
428.84	5500.26
429.03	5619.63
429.22	5441.75
429.40	5315.36
429.59	5444.09
429.78	5186.63
429.97	5273.23
430.16	5486.22
430.34	5654.73
430.53	5636.01
430.72	5516.64
430.91	5661.76
431.10	5575.16
431.28	5671.12
431.47	5750.70
431.66	5753.04
431.85	5788.14
432.03	5921.56
432.22	5937.94
432.41	5818.57
432.60	5947.30
432.79	6029.22
432.97	6097.10
433.16	6134.54
433.35	6043.26
433.54	6087.73
433.72	6099.44
433.91	5961.34
434.10	6127.52
434.28	6043.26
434.47	6291.36
434.66	6246.89
434.85	6253.91
435.03	6324.13
435.22	6183.70
435.41	6286.68
435.59	6305.40
435.78	6150.93
435.97	6321.79
436.16	6314.77
436.34	6464.56
436.53	6487.96
436.72	6712.66
436.90	6502.01
437.09	6635.42
437.28	6366.26
437.46	6576.91
437.65	6586.27
437.84	6668.19
438.02	6682.23
438.21	6796.92
438.40	6658.82
438.58	6993.52
438.77	7159.70
438.96	6820.32
439.14	6991.18
439.33	6965.43
439.52	7290.77
439.70	7178.42
439.89	7222.89
440.08	7372.69
440.26	7286.09
440.45	7166.72
440.63	7559.93
440.82	7681.64
441.01	7503.76
441.19	7822.07
441.38	7758.88
441.57	7702.70
441.75	7751.85
441.94	7955.48
442.12	7999.95
442.31	8051.44
442.50	8072.51
442.68	7950.80
442.87	7854.84
443.05	8264.43
443.24	8229.32
443.43	7985.91
443.61	8039.74
443.80	8255.07
443.98	8058.46
444.17	7817.39
444.35	8044.42
444.54	8442.31
444.73	8212.94
444.91	8234.00
445.10	8451.67
445.28	8449.33
445.47	8067.83
445.65	8379.12
445.84	8271.45
446.02	8540.61
446.21	8306.56
446.39	8409.54
446.58	8341.67
446.77	8526.57
446.95	8280.82
447.14	8454.02
447.32	8624.87
447.51	8329.97
447.69	8418.91
447.88	8475.08
448.06	8482.10
448.25	8472.74
448.43	8505.51
448.62	8638.92
448.80	8510.19
448.99	8571.04
449.17	8615.51
449.36	8739.56
449.54	8982.98
449.73	8968.93
449.91	8912.76
450.10	8978.30
450.28	8978.30
450.46	9083.62
450.65	8950.21
450.83	9088.30
451.02	8917.44
451.20	9191.28
451.39	9095.32
451.57	9071.92
451.76	9130.43
451.94	9268.52
452.13	9392.57
452.31	9343.42
452.49	9158.52
452.68	9334.06
452.86	9266.18
453.05	9434.70
453.23	9434.70
453.42	9411.29
453.60	9270.86
453.78	9544.70
453.97	9518.96
454.15	9348.10
454.34	9207.67
454.52	9764.72
454.70	9757.69
454.89	9804.50
455.07	9699.18
455.26	9865.36
455.44	9870.04
455.62	9717.90
455.81	9984.73
455.99	10029.20
456.17	9888.76
456.36	9856.00
456.54	10162.61
456.73	9987.07
456.91	10485.60
457.09	10317.08
457.28	10473.90
457.46	10307.72
457.64	10422.41
457.83	10413.04
458.01	10349.85
458.19	10719.65
458.38	10377.94
458.56	10658.80
458.74	10710.29
458.93	10764.12
459.11	10459.85
459.29	10541.77
459.48	10686.89
459.66	10888.17
459.84	10668.16
460.03	10918.60
460.21	10906.90
460.39	10752.42
460.57	10923.28
460.76	11040.31
460.94	11173.72
461.12	11192.44
461.31	11314.15
461.49	11117.54
461.67	11094.14
461.85	11206.48
462.04	11110.52
462.22	11637.14
462.40	11690.98
462.59	11356.28
462.77	11452.24
462.95	11705.02
463.13	11517.78
463.32	11667.57
463.50	11435.86
463.68	11925.03
463.86	11611.40
464.05	11456.92
464.23	11599.70
464.41	11768.21
464.59	11655.87
464.78	12037.38
464.96	11908.65
465.14	11871.20
465.32	11885.24
465.50	12241.00
465.69	12093.55
465.87	12219.94
466.05	11967.16
466.23	12255.04
466.41	12140.36
466.60	12542.93
466.78	12161.42
466.96	12283.13
467.14	12189.51
467.32	12233.98
467.51	12556.97
467.69	12161.42
467.87	12507.82
468.05	12446.97
468.23	12521.87
468.41	12395.48
468.60	12671.66
468.78	12556.97
468.96	12746.56
469.14	12575.70
469.32	12903.37
469.50	12444.63
469.69	12957.21
469.87	13132.75
470.05	13298.92
470.23	13205.30
470.41	13247.43
470.59	13282.54
470.77	12945.50
470.95	13319.99
471.14	13455.74
471.32	13076.57
471.50	13469.78
471.68	13434.68
471.86	13532.98
472.04	13532.98
472.22	13783.41
472.40	13612.56
472.58	13832.57
472.77	13947.25
472.95	14155.56
473.13	14225.78
473.31	13998.74
473.49	13907.46
473.67	14052.58
473.85	14455.15
474.03	14445.79
474.21	14429.40
474.39	14785.16
474.57	14675.16
474.75	14927.94
474.93	14846.02
475.12	14586.22
475.30	15145.61
475.48	14953.68
475.66	15145.61
475.84	15021.56
476.02	15143.27
476.20	15213.48
476.38	15534.14
476.56	15864.15
476.74	15779.89
476.92	15946.07
477.10	15875.85
477.28	16079.48
477.46	15875.85
477.64	16201.19
477.82	16507.80
478.00	16830.79
478.18	16755.90
478.36	16739.51
478.54	17083.57
478.72	17151.45
478.90	17383.16
479.08	17298.90
479.26	17404.22
479.44	17514.23
479.62	18026.81
479.80	17874.67
479.98	18078.30
480.16	18317.03
480.34	18326.39
480.52	18520.66
480.70	18272.56
480.88	18178.94
481.06	18843.65
481.24	18370.86
481.41	18956.00
481.59	18909.19
481.77	19349.21
481.95	19215.80
482.13	19580.92
482.31	19522.41
482.49	20154.35
482.67	20189.46
482.85	20397.77
483.03	20496.07
483.21	20610.76
483.39	20816.72
483.57	20350.96
483.74	20772.25
483.92	21413.56
484.10	20964.18
484.28	21509.52
484.46	21774.00
484.64	22185.94
484.82	21930.82
485.00	22361.48
485.18	22363.82
485.35	22742.99
485.53	22689.15
485.71	22742.99
485.89	23463.87
486.07	23175.98
486.25	23503.66
486.43	23342.16
486.61	23356.21
486.78	24023.26
486.96	23992.83
487.14	24404.77
487.32	24453.92
487.50	24528.81
487.68	24774.57
487.85	25125.65
488.03	25507.16
488.21	25755.26
488.39	25752.91
488.57	25694.40
488.75	25883.98
488.92	26302.94
489.10	26670.40
489.28	26649.34
489.46	26773.39
489.64	26700.83
489.81	27452.14
489.99	27367.88
490.17	27700.24
490.35	27990.47
490.53	27955.36
490.70	28133.24
490.88	28341.55
491.06	28849.44
491.24	28620.07
491.41	29350.32
491.59	29125.63
491.77	29017.96
491.95	29612.46
492.13	29656.93
492.30	29811.40
492.48	29830.13
492.66	30045.46
492.84	30178.87
493.01	30403.56
493.19	30328.66
493.37	30951.24
493.54	30841.24
493.72	31683.83
493.90	31070.61
494.08	31421.69
494.25	31800.86
494.43	32006.83
494.61	32182.37
494.79	32004.49
494.96	32283.01
495.14	32458.55
495.32	32617.71
495.49	32783.88
495.67	32891.55
495.85	33610.09
496.02	33408.81
496.20	34136.71
496.38	34057.14
496.55	34122.67
496.73	34391.83
496.91	34576.73
497.09	34593.12
497.26	34740.57
497.44	34761.64
497.62	35105.70
497.79	35800.83
497.97	35035.48
498.14	35761.05
498.32	36409.37
498.50	35833.60
498.67	36648.11
498.85	36074.68
499.03	36512.36
499.20	36870.46
499.38	36622.36
499.56	37202.82
499.73	36720.66
499.91	37427.51
500.08	37521.13
500.26	37048.34
500.44	37457.93
500.61	37324.52
500.79	37258.99
500.97	37806.67
501.14	38094.56
501.32	38408.19
501.49	38457.34
501.67	38286.48
501.84	38572.03
502.02	38204.56
502.20	38623.52
502.37	39276.53
502.55	39337.38
502.72	39239.08
502.90	39323.34
503.07	39512.92
503.25	39725.91
503.43	39264.83
503.60	39646.33
503.78	39772.72
503.95	39889.75
504.13	40325.09
504.30	40758.09
504.48	40477.22
504.65	40229.13
504.83	41088.10
505.01	41006.19
505.18	41205.13
505.36	41759.84
505.53	40907.88
505.71	41165.34
505.88	41626.43
506.06	41284.71
506.23	41656.85
506.41	41766.86
506.58	42160.07
506.76	42021.98
506.93	42153.05
507.11	42218.58
507.28	42337.95
507.46	42316.89
507.63	42429.23
507.81	43136.07
507.98	42747.54
508.16	43203.95
508.33	43161.82
508.50	43236.72
508.68	43398.21
508.85	43683.76
509.03	43650.99
509.20	43800.79
509.38	44016.11
509.55	44231.44
509.73	44170.59
509.90	44203.36
510.08	44315.70
510.25	44411.67
510.42	44879.77
510.60	44957.01
510.77	44935.95
510.95	45371.28
511.12	45277.66
511.30	45041.27
511.47	45233.19
511.64	45233.19
511.82	45731.73
511.99	45698.96
512.17	45769.18
512.34	45507.04
512.51	46216.22
512.69	46043.02
512.86	46199.83
513.04	46749.86
513.21	46300.48
513.38	46291.12
513.56	46724.11
513.73	46494.74
513.90	46646.88
514.08	46597.73
514.25	47035.41
514.43	47035.41
514.60	47433.30
514.77	47337.33
514.95	47805.44
515.12	47716.50
515.29	47157.11
515.47	47674.37
515.64	47899.06
515.81	47433.30
515.99	47840.55
516.16	48172.91
516.33	47999.71
516.51	48470.15
516.68	48423.34
516.85	48165.88
517.03	48332.06
517.20	48533.35
517.37	48608.25
517.54	48797.83
517.72	48837.62
517.89	48741.66
518.06	49223.81
518.24	48928.90
518.41	48816.55
518.58	48919.54
518.75	48786.13
518.93	49045.93
519.10	49118.48
519.27	49612.34
519.45	49308.07
519.62	49675.53
519.79	49860.43
519.96	49434.45
520.14	50267.69
520.31	49785.54
520.48	49940.01
520.65	49869.79
520.83	50038.31
521.00	50227.90
521.17	50518.12
521.34	50630.47
521.52	50852.82
521.69	50628.13
521.86	50738.13
522.03	51007.29
522.20	51372.42
522.38	51267.09
522.55	51150.07
522.72	51168.79
522.89	50969.85
523.07	51634.56
523.24	51278.80
523.41	51718.82
523.58	51517.53
523.75	51643.92
523.92	51231.99
524.10	51950.53
524.27	51730.52
524.44	51873.29
524.61	52069.90
524.78	52044.15
524.96	52067.56
525.13	52346.08
525.30	52273.52
525.47	52605.88
525.64	52371.83
525.81	52498.22
525.98	52325.02
526.16	52580.13
526.33	52444.38
526.50	52821.21
526.67	52662.05
526.84	52739.29
527.01	52816.53
527.18	52912.49
527.36	52685.46
527.53	52914.83
527.70	53139.52
527.87	53111.44
528.04	52734.61
528.21	53186.33
528.38	53226.12
528.55	53439.11
528.72	53027.18
528.89	53532.73
529.07	53188.67
529.24	53137.18
529.41	54024.25
529.58	53670.82
529.75	53687.21
529.92	53776.15
530.09	53443.79
530.26	53776.15
530.43	53588.91
530.60	53792.53
530.77	53584.22
530.94	53813.60
531.11	53895.52
531.28	53872.11
531.46	54134.25
531.63	54232.55
531.80	54267.66
531.97	54557.89
532.14	54300.43
532.31	54176.38
532.48	54396.39
532.65	54270.00
532.82	54408.09
532.99	54326.17
533.16	54262.98
533.33	54693.64
533.50	54820.03
533.67	54651.51
533.84	54546.18
534.01	54738.11
534.18	54621.08
534.35	54997.91
534.52	54759.17
534.69	55128.98
534.86	55084.51
535.03	54738.11
535.20	55072.81
535.37	55379.42
535.54	55302.18
535.71	55309.20
535.88	55128.98
536.05	55318.56
536.22	55451.97
536.38	55583.04
536.55	55695.39
536.72	55440.27
536.89	55356.01
537.06	55517.51
537.23	55627.51
537.40	55374.73
537.57	55711.77
537.74	55924.76
537.91	55999.66
538.08	55550.27
538.25	55660.28
538.42	55894.33
538.59	56196.26
538.75	55697.73
538.92	55978.59
539.09	56119.02
539.26	56128.39
539.43	55863.91
539.60	56020.72
539.77	56200.94
539.94	56198.60
540.11	56123.71
540.28	56177.54
540.44	56219.67
540.61	56212.65
540.78	56287.54
540.95	56481.81
541.12	56196.26
541.29	56451.38
541.46	56430.32
541.62	56388.19
541.79	56605.86
541.96	56011.36
542.13	56348.40
542.30	56673.73
542.47	56619.90
542.63	56776.72
542.80	56552.02
542.97	57172.27
543.14	56933.53
543.31	57059.92
543.48	57045.88
543.64	57467.17
543.81	57141.84
543.98	57125.46
544.15	57045.88
544.32	57195.67
544.48	57324.40
544.65	57256.53
544.82	57556.11
544.99	57088.01
545.16	57418.02
545.32	57464.83
545.49	57513.98
545.66	57628.67
545.83	57427.38
546.00	57687.18
546.16	57687.18
546.33	57602.92
546.50	57130.14
546.67	57628.67
546.83	57516.32
547.00	57631.01
547.17	57499.94
547.34	57675.48
547.50	57682.50
547.67	57832.30
547.84	57942.30
548.00	57991.45
548.17	58026.56
548.34	57993.79
548.51	58031.24
548.67	58293.38
548.84	57829.96
549.01	57769.10
549.18	58159.97
549.34	58321.47
549.51	58262.96
549.68	58316.79
549.84	58272.32
550.01	58323.81
550.18	58195.08
550.34	58522.76
550.51	58333.17
550.68	58103.80
550.84	58075.71
551.01	58340.19
551.18	58262.96
551.34	58391.68
551.51	58387.00
551.68	58532.12
551.84	58408.07
552.01	58340.19
552.18	58649.14
552.34	58522.76
552.51	58520.41
552.68	58447.86
552.84	58508.71
553.01	58829.37
553.18	58637.44
553.34	58742.77
553.51	58721.70
553.67	58784.90
553.84	58773.19
554.01	58754.47
554.17	58922.99
554.34	58803.62
554.51	58866.81
554.67	58857.45
554.84	59068.10
555.00	58824.68
555.17	58876.18
555.33	59007.25
555.50	58951.07
555.67	58986.18
555.83	58951.07
556.00	59105.55
556.16	59428.54
556.33	59023.63
556.50	59037.67
556.66	59243.64
556.83	58995.54
556.99	59288.11
557.16	59304.49
557.32	59414.50
557.49	59423.86
557.65	59379.39
557.82	59311.52
557.98	59470.67
558.15	59414.50
558.32	59456.63
558.48	59344.28
558.65	59510.46
558.81	59231.94
558.98	59381.73
559.14	59468.33
559.31	59583.02
559.47	59547.91
559.64	59681.32
559.80	59634.51
559.97	59650.89
560.13	59454.29
560.30	59662.60
560.46	59739.83
560.63	59533.87
560.79	59873.24
560.96	59554.93
561.12	59796.01
561.29	59648.55
561.45	59678.98
561.61	59660.26
561.78	59512.80
561.94	59688.34
562.11	59676.64
562.27	59678.98
562.44	59875.58
562.60	60048.78
562.77	59880.27
562.93	59798.35
563.10	60158.79
563.26	59662.60
563.42	59994.95
563.59	59739.83
563.75	59688.34
563.92	59817.07
564.08	59920.05
564.24	60149.43
564.41	59753.88
564.57	60196.24
564.74	60041.76
564.90	60083.89
565.07	60041.76
565.23	60018.36
565.39	60039.42
565.56	60027.72
565.72	59852.18
565.88	60016.02
566.05	59917.71
566.21	59983.25
566.38	60200.92
566.54	60074.53
566.70	60224.32
566.87	60200.92
567.03	60109.64
567.19	60203.26
567.36	60086.23
567.52	59929.42
567.68	60439.65
567.85	60324.97
568.01	60308.58
568.17	60236.03
568.34	60402.21
568.50	60156.45
568.66	60069.85
568.83	60310.92
568.99	60163.47
569.15	60329.65
569.32	60203.26
569.48	60308.58
569.64	60479.44
569.81	60329.65
569.97	60207.94
570.13	60350.71
570.30	60198.58
570.46	60395.18
570.62	60313.26
570.78	60472.42
570.95	60423.27
571.11	60425.61
571.27	60158.79
571.43	60243.05
571.60	60605.83
571.76	60488.80
571.92	60526.25
572.09	60413.91
572.25	60378.80
572.41	60516.89
572.57	60245.39
572.74	60535.62
572.90	60348.37
573.06	60449.02
573.22	60657.32
573.38	60619.88
573.55	60537.96
573.71	60748.60
573.87	60472.42
574.03	60495.83
574.20	60608.17
574.36	60430.29
574.52	60406.89
574.68	60631.58
574.84	60629.24
575.01	60570.72
575.17	60713.50
575.33	60446.68
575.49	60346.03
575.65	60636.26
575.82	60680.73
575.98	60594.13
576.14	60874.99
576.30	60910.10
576.46	60610.51
576.62	60713.50
576.79	60622.22
576.95	60495.83
577.11	60741.58
577.27	60608.17
577.43	60699.45
577.59	60683.07
577.75	60587.11
577.92	60278.16
578.08	60846.91
578.24	60654.98
578.40	60893.72
578.56	60846.91
578.72	60874.99
578.88	60732.22
579.04	60856.27
579.21	60685.41
579.37	60790.73
579.53	60683.07
579.69	60395.18
579.85	60886.70
580.01	60760.31
580.17	60659.66
580.33	60865.63
580.49	60903.08
580.65	60711.16
580.82	60757.97
580.98	60786.05
581.14	60795.42
581.30	60893.72
581.46	60760.31
581.62	60711.16
581.78	60720.52
581.94	60839.89
582.10	60615.19
582.26	60753.29
582.42	60790.73
582.58	60940.53
582.74	60886.70
582.90	60907.76
583.06	61015.43
583.22	60720.52
583.38	60685.41
583.54	60926.49
583.70	60865.63
583.86	60828.18
584.02	60561.36
584.18	61024.79
584.34	60711.16
584.50	60772.01
584.66	60865.63
584.82	60753.29
584.98	60982.66
585.14	60966.27
585.30	60896.06
585.46	60891.38
585.62	60828.18
585.78	60975.64
585.94	60664.35
586.10	60757.97
586.26	60809.46
586.42	61066.92
586.58	61064.58
586.74	60889.04
586.90	60949.89
587.06	60755.63
587.22	61048.19
587.38	60874.99
587.54	60996.70
587.70	61048.19
587.86	61087.98
588.02	60947.55
588.18	61017.77
588.34	60970.96
588.49	60879.67
