SpectraSuite Data File
++++++++++++++++++++++++++++++++++++
Date: Fri Oct 25 11:24:01 EDT 2013
User: price-jones
Dark Spectrum Present: No
Reference Spectrum Present: No
Number of Sampled Component Spectra: 1
Spectrometers: USB2+H05261
Integration Time (usec): 100000 (USB2+H05261)
Spectra Averaged: 1 (USB2+H05261)
Boxcar Smoothing: 0 (USB2+H05261)
Correct for Electrical Dark: No (USB2+H05261)
Strobe/Lamp Enabled: No (USB2+H05261)
Correct for Detector Non-linearity: No (USB2+H05261)
Correct for Stray Light: No (USB2+H05261)
Number of Pixels in Processed Spectrum: 2048
>>>>>Begin Processed Spectral Data<<<<<
365.73	180.22
365.92	180.22
366.12	180.22
366.32	187.24
366.52	88.94
366.72	149.79
366.91	163.84
367.11	154.48
367.31	91.28
367.51	110.01
367.70	147.45
367.90	180.22
368.10	194.26
368.30	177.88
368.49	72.56
368.69	121.71
368.89	124.05
369.09	112.35
369.28	149.79
369.48	194.26
369.68	173.20
369.87	182.56
370.07	177.88
370.27	245.76
370.47	315.97
370.66	564.07
370.86	690.46
371.06	580.45
371.25	653.01
371.45	702.16
371.65	653.01
371.84	655.35
372.04	629.60
372.24	744.29
372.44	746.63
372.63	788.76
372.83	716.20
373.03	763.01
373.22	781.74
373.42	751.31
373.62	788.76
373.81	805.14
374.01	802.80
374.21	800.46
374.40	746.63
374.60	758.33
374.79	784.08
374.99	854.30
375.19	905.79
375.38	847.27
375.58	800.46
375.78	870.68
375.97	912.81
376.17	880.04
376.37	828.55
376.56	971.32
376.76	905.79
376.95	877.70
377.15	828.55
377.35	858.98
377.54	910.47
377.74	917.49
377.93	856.64
378.13	901.11
378.33	957.28
378.52	915.15
378.72	992.39
378.91	901.11
379.11	973.66
379.31	952.60
379.50	954.94
379.70	1008.77
379.89	950.26
380.09	978.34
380.28	1020.47
380.48	1032.18
380.68	985.37
380.87	1050.90
381.07	983.02
381.26	1029.84
381.46	1015.79
381.65	1008.77
381.85	1036.86
382.04	1057.92
382.24	1090.69
382.43	1011.11
382.63	1039.20
382.83	999.41
383.02	1053.24
383.22	1032.18
383.41	1071.97
383.61	1076.65
383.80	1043.88
384.00	1149.20
384.19	1139.84
384.39	1172.61
384.58	1097.71
384.78	1036.86
384.97	1118.78
385.17	1184.31
385.36	1135.16
385.56	1078.99
385.75	1090.69
385.95	1095.37
386.14	1247.51
386.34	1174.95
386.53	1116.44
386.72	1196.01
386.92	1212.40
387.11	1207.72
387.31	1207.72
387.50	1228.78
387.70	1252.19
387.89	1219.42
388.09	1315.38
388.28	1322.40
388.48	1270.91
388.67	1284.95
388.86	1277.93
389.06	1352.83
389.25	1336.45
389.45	1369.21
389.64	1366.87
389.84	1343.47
390.03	1334.11
390.22	1465.18
390.42	1235.80
390.61	1345.81
390.81	1287.29
391.00	1331.76
391.19	1460.49
391.39	1465.18
391.58	1521.35
391.78	1479.22
391.97	1490.92
392.16	1444.11
392.36	1495.60
392.55	1500.28
392.75	1554.12
392.94	1547.09
393.13	1570.50
393.33	1624.33
393.52	1621.99
393.71	1493.26
393.91	1610.29
394.10	1603.27
394.29	1668.80
394.49	1603.27
394.68	1584.54
394.88	1582.20
395.07	1626.67
395.26	1593.90
395.46	1629.01
395.65	1703.91
395.84	1659.44
396.04	1701.57
396.23	1729.66
396.42	1834.98
396.62	1804.55
396.81	1706.25
397.00	1809.23
397.19	1816.26
397.39	1769.44
397.58	1891.15
397.77	1959.03
397.97	1818.60
398.16	1973.07
398.35	1886.47
398.55	1870.09
398.74	1867.75
398.93	2012.86
399.12	1830.30
399.32	1879.45
399.51	2047.97
399.70	2024.56
399.90	1956.69
400.09	2057.33
400.28	2174.36
400.47	2083.08
400.67	2083.08
400.86	2019.88
401.05	2115.84
401.24	2179.04
401.44	2040.95
401.63	2104.14
401.82	2146.27
402.01	2080.74
402.21	2094.78
402.40	2176.70
402.59	2169.68
402.78	2207.13
402.97	2258.62
403.17	2237.55
403.36	2218.83
403.55	2272.66
403.74	2368.62
403.93	2307.77
404.13	2328.83
404.32	2307.77
404.51	2408.41
404.70	2457.56
404.89	2361.60
405.09	2399.05
405.28	2490.33
405.47	2471.61
405.66	2516.08
405.85	2605.02
406.05	2560.55
406.24	2413.09
406.43	2626.08
406.62	2593.31
406.81	2696.30
407.00	2520.76
407.20	2595.65
407.39	2637.78
407.58	2775.88
407.77	2719.70
407.96	2745.45
408.15	2792.26
408.34	2672.89
408.54	2885.88
408.73	2902.26
408.92	2801.62
409.11	2871.84
409.30	2944.39
409.49	2939.71
409.68	2977.16
409.87	2909.29
410.07	2920.99
410.26	3021.63
410.45	3080.14
410.64	3080.14
410.83	2977.16
411.02	3119.93
411.21	3155.04
411.40	3056.74
411.59	3225.26
411.78	3222.92
411.98	3253.34
412.17	3389.10
412.36	3300.16
412.55	3344.63
412.74	3414.84
412.93	3452.29
413.12	3452.29
413.31	3606.77
413.50	3463.99
413.69	3637.19
413.88	3662.94
414.07	3545.91
414.26	3508.46
414.45	3765.92
414.64	3613.79
414.83	3815.07
415.02	3765.92
415.22	3751.88
415.41	3974.23
415.60	3885.29
415.79	3955.51
415.98	3953.16
416.17	3953.16
416.36	4025.72
416.55	4063.17
416.74	3985.93
416.93	4100.62
417.12	4149.77
417.31	4189.56
417.50	4278.50
417.69	4351.06
417.88	4432.97
418.07	4400.21
418.26	4329.99
418.45	4257.43
418.64	4468.08
418.83	4564.04
419.02	4521.92
419.21	4418.93
419.39	4482.13
419.58	4519.57
419.77	4521.92
419.96	4493.83
420.15	4512.55
420.34	4519.57
420.53	4559.36
420.72	4786.40
420.91	4674.05
421.10	4697.46
421.29	4844.91
421.48	4606.17
421.67	4788.74
421.86	4856.61
422.05	4767.67
422.24	4891.72
422.43	4990.02
422.61	4924.49
422.80	4954.91
422.99	4896.40
423.18	5050.88
423.37	4975.98
423.56	5039.17
423.75	4987.68
423.94	4997.04
424.13	4692.77
424.32	4816.82
424.50	4931.51
424.69	5200.67
424.88	5027.47
425.07	5018.11
425.26	4980.66
425.45	4915.12
425.64	4903.42
425.83	5111.73
426.01	5238.12
426.20	5060.24
426.39	5064.92
426.58	5149.18
426.77	5001.72
426.96	5181.95
427.15	5146.84
427.33	5224.08
427.52	5139.82
427.71	5413.66
427.90	5238.12
428.09	5425.36
428.28	5341.10
428.46	5345.78
428.65	5242.80
428.84	5537.71
429.03	5603.24
429.22	5423.02
429.40	5444.09
429.59	5483.88
429.78	5242.80
429.97	5362.17
430.16	5462.81
430.34	5666.44
430.53	5734.31
430.72	5650.05
430.91	5741.33
431.10	5664.10
431.28	5813.89
431.47	5750.70
431.66	5947.30
431.85	5856.02
432.03	5776.44
432.22	6026.88
432.41	6092.41
432.60	5947.30
432.79	6104.12
432.97	6097.10
433.16	6171.99
433.35	5884.11
433.54	6111.14
433.72	6263.27
433.91	6141.57
434.10	6207.10
434.28	6106.46
434.47	6148.59
434.66	6183.70
434.85	6459.88
435.03	6361.58
435.22	6223.48
435.41	6593.29
435.59	6480.94
435.78	6497.33
435.97	6443.49
436.16	6452.86
436.34	6448.18
436.53	6506.69
436.72	6691.59
436.90	6466.90
437.09	6759.47
437.28	6663.51
437.46	6682.23
437.65	6562.86
437.84	6920.96
438.02	6738.40
438.21	6743.08
438.40	6722.02
438.58	7007.56
438.77	6935.01
438.96	7033.31
439.14	7136.29
439.33	7045.01
439.52	7307.15
439.70	7208.85
439.89	7426.52
440.08	7281.41
440.26	7562.27
440.45	7311.83
440.63	7349.28
440.82	7632.49
441.01	7510.78
441.19	7606.74
441.38	7822.07
441.57	7749.51
441.75	7733.13
441.94	7920.37
442.12	8030.38
442.31	8149.75
442.50	7943.78
442.68	7892.29
442.87	7960.16
443.05	8037.40
443.24	8304.22
443.43	8170.81
443.61	8409.54
443.80	8540.61
443.98	7992.93
444.17	7906.33
444.35	8180.17
444.54	8461.04
444.73	8173.15
444.91	8341.67
445.10	8397.84
445.28	8304.22
445.47	8355.71
445.65	8531.25
445.84	8519.55
446.02	8472.74
446.21	8334.65
446.39	8482.10
446.58	8477.42
446.77	8636.58
446.95	8386.14
447.14	8526.57
447.32	8678.71
447.51	8692.75
447.69	8346.35
447.88	8404.86
448.06	8589.77
448.25	8603.81
448.43	8746.58
448.62	8554.66
448.80	8610.83
448.99	8571.04
449.17	8713.81
449.36	8751.26
449.54	9132.77
449.73	8741.90
449.91	8924.46
450.10	8823.82
450.28	9029.79
450.46	9071.92
450.65	8987.66
450.83	8994.68
451.02	9139.79
451.20	9465.13
451.39	9137.45
451.57	9114.05
451.76	9153.84
451.94	9343.42
452.13	9378.53
452.31	9415.98
452.49	9242.78
452.68	9500.23
452.86	9439.38
453.05	9432.36
453.23	9586.83
453.42	9554.07
453.60	9432.36
453.78	9488.53
453.97	9469.81
454.15	9509.60
454.34	9558.75
454.52	9713.22
454.70	9858.34
454.89	9853.66
455.07	9722.59
455.26	9692.16
455.44	10005.79
455.62	9914.51
455.81	10012.81
455.99	10169.63
456.17	10190.69
456.36	10059.62
456.54	10485.60
456.73	10298.36
456.91	10408.36
457.09	10417.72
457.28	10668.16
457.46	10345.17
457.64	10780.51
457.83	10434.11
458.01	10464.54
458.19	10686.89
458.38	10565.18
458.56	10579.22
458.74	10719.65
458.93	10738.38
459.11	10703.27
459.29	11173.72
459.48	10876.47
459.66	10808.59
459.84	11145.63
460.03	11269.68
460.21	11234.57
460.39	11084.78
460.57	11009.88
460.76	11171.38
460.94	11220.53
461.12	11393.73
461.31	11227.55
461.49	10977.11
461.67	11293.08
461.85	11494.37
462.04	11552.88
462.22	11606.72
462.40	11627.78
462.59	11417.13
462.77	11353.94
462.95	11754.17
463.13	11480.33
463.32	11494.37
463.50	11793.96
463.68	11646.51
463.86	11906.31
464.05	11648.85
464.23	11836.09
464.41	12020.99
464.59	11819.71
464.78	12322.92
464.96	11941.41
465.14	11737.79
465.32	12142.70
465.50	12126.32
465.69	12294.83
465.87	12257.39
466.05	12313.56
466.23	12215.26
466.41	12245.68
466.60	12500.80
466.78	12241.00
466.96	12201.21
467.14	12416.54
467.32	12444.63
467.51	12559.31
467.69	12226.96
467.87	12383.77
468.05	12596.76
468.23	12727.83
468.41	12566.34
468.60	12760.60
468.78	12671.66
468.96	12648.26
469.14	12961.89
469.32	13001.68
469.50	12659.96
469.69	12830.82
469.87	13231.05
470.05	13092.96
470.23	13256.79
470.41	13099.98
470.59	13380.84
470.77	13397.23
470.95	13256.79
471.14	13809.16
471.32	13114.02
471.50	13708.52
471.68	13628.94
471.86	13703.84
472.04	13647.66
472.22	14200.03
472.40	13961.30
472.58	13743.63
472.77	14017.47
472.95	14232.80
473.13	14525.36
473.31	14207.05
473.49	14331.10
473.67	14052.58
473.85	14218.75
474.03	14728.99
474.21	14649.41
474.39	14839.00
474.57	14881.13
474.75	14897.51
474.93	15094.11
475.12	15044.96
475.30	15136.24
475.48	15096.46
475.66	15227.53
475.84	15194.76
476.02	15379.66
476.20	15496.69
476.38	15845.43
476.56	16343.96
476.74	15969.48
476.92	15929.69
477.10	16023.31
477.28	16226.93
477.46	16229.27
477.64	16135.65
477.82	16570.99
478.00	17142.08
478.18	16872.92
478.36	16870.58
478.54	17029.74
478.72	17235.70
478.90	17287.20
479.08	17916.80
479.26	17748.28
479.44	17598.49
479.62	17942.55
479.80	18291.29
479.98	18017.44
480.16	19040.26
480.34	18431.72
480.52	18764.07
480.70	18651.73
480.88	18546.40
481.06	18855.36
481.24	18974.72
481.41	19178.35
481.59	19328.14
481.77	19576.24
481.95	19779.87
482.13	19836.04
482.31	19791.57
482.49	20465.64
482.67	20320.53
482.85	20475.01
483.03	20566.29
483.21	20652.89
483.39	21165.46
483.57	21436.97
483.74	21315.26
483.92	21549.31
484.10	21479.10
484.28	22012.74
484.46	22122.74
484.64	22597.87
484.82	21678.04
485.00	22324.03
485.18	23339.82
485.35	22817.88
485.53	23026.19
485.71	23087.04
485.89	23592.60
486.07	23440.47
486.25	23407.70
486.43	23929.64
486.61	23892.19
486.78	24051.34
486.96	24217.52
487.14	24737.12
487.32	24755.85
487.50	25352.68
487.68	25010.96
487.85	25666.31
488.03	25879.30
488.21	25701.42
488.39	26057.18
488.57	26235.06
488.75	26448.05
488.92	26558.06
489.10	27126.81
489.28	26859.99
489.46	27449.80
489.64	27180.64
489.81	27892.16
489.99	27716.62
490.17	27882.80
490.35	28189.41
490.53	28196.43
490.70	28802.63
490.88	28357.93
491.06	29034.35
491.24	29125.63
491.41	29366.70
491.59	29572.67
491.77	29497.77
491.95	29706.08
492.13	30143.76
492.30	29673.31
492.48	30064.18
492.66	30499.52
492.84	30471.43
493.01	30717.19
493.19	30771.02
493.37	31255.51
493.54	30852.94
493.72	31704.90
493.90	31627.66
494.08	31761.07
494.25	32116.83
494.43	32203.43
494.61	32100.45
494.79	32357.91
494.96	32870.48
495.14	33083.47
495.32	33242.63
495.49	33261.35
495.67	33413.49
495.85	33626.48
496.02	33893.30
496.20	33577.33
496.38	34106.29
496.55	34415.24
496.73	34876.32
496.91	34703.12
497.09	35058.88
497.26	35098.67
497.44	35264.85
497.62	35580.82
497.79	36072.34
497.97	35487.20
498.14	36004.46
498.32	36091.06
498.50	36484.27
498.67	37298.78
498.85	36261.92
499.03	36568.53
499.20	36950.04
499.38	36793.22
499.56	37446.23
499.73	37038.98
499.91	37343.25
500.08	37846.46
500.26	37296.44
500.44	38094.56
500.61	38080.52
500.79	37837.10
500.97	38113.28
501.14	38754.59
501.32	38759.27
501.49	38534.58
501.67	38593.09
501.84	38916.09
502.02	38792.04
502.20	39138.44
502.37	39321.00
502.55	39550.37
502.72	39571.44
502.90	40163.59
503.07	39981.03
503.25	39976.35
503.43	39824.22
503.60	40435.10
503.78	40013.80
503.95	40645.74
504.13	40671.49
504.30	41240.24
504.48	40631.70
504.65	40971.08
504.83	40898.52
505.01	41619.41
505.18	41464.93
505.36	41736.43
505.53	41359.61
505.71	41476.63
505.88	41734.09
506.06	41638.13
506.23	42092.19
506.41	41963.46
506.58	42209.22
506.76	42087.51
506.93	42960.53
507.11	42651.58
507.28	42506.47
507.46	42827.12
507.63	43285.87
507.81	43494.18
507.98	43133.73
508.16	43690.78
508.33	43587.80
508.50	43746.95
508.68	43730.57
508.85	43969.30
509.03	44217.40
509.20	44060.58
509.38	44493.58
509.55	44561.46
509.73	44828.28
509.90	44683.17
510.08	44622.31
510.25	44734.66
510.42	45125.53
510.60	45340.86
510.77	45251.92
510.95	45713.00
511.12	45399.37
511.30	45324.47
511.47	45909.61
511.64	45565.55
511.82	46316.86
511.99	45764.49
512.17	46218.56
512.34	46127.28
512.51	46150.68
512.69	46836.46
512.86	46387.08
513.04	46899.65
513.21	46710.07
513.38	47004.98
513.56	46967.53
513.73	47136.05
513.90	47311.59
514.08	46890.29
514.25	47622.88
514.43	47430.96
514.60	47470.75
514.77	47988.00
514.95	47461.38
515.12	47583.09
515.29	48062.90
515.47	47753.95
515.64	48135.46
515.81	48449.09
515.99	48580.16
516.16	48645.69
516.33	48439.73
516.51	49057.63
516.68	48683.14
516.85	48484.20
517.03	49146.57
517.20	49324.45
517.37	49104.44
517.54	48863.36
517.72	49254.23
517.89	49270.62
518.06	49757.45
518.24	49258.91
518.41	49607.65
518.58	49682.55
518.75	49277.64
518.93	49755.11
519.10	49888.52
519.27	50085.12
519.45	49668.51
519.62	50260.66
519.79	49705.96
519.96	49937.67
520.14	50365.99
520.31	49876.82
520.48	50522.80
520.65	50461.95
520.83	51009.64
521.00	50810.69
521.17	50808.35
521.34	50948.78
521.52	50866.86
521.69	50745.15
521.86	51281.14
522.03	51131.34
522.20	51414.55
522.38	51615.83
522.55	51341.99
522.72	51477.74
522.89	51372.42
523.07	51877.97
523.24	51669.67
523.41	52226.71
523.58	51913.08
523.75	51716.48
523.92	51987.98
524.10	52306.29
524.27	52233.74
524.44	52074.58
524.61	52074.58
524.78	52322.68
524.96	52364.81
525.13	52619.92
525.30	52327.36
525.47	52694.82
525.64	52706.52
525.81	52685.46
525.98	52804.83
526.16	52832.91
526.33	52680.78
526.50	53240.17
526.67	53001.43
526.84	53085.69
527.01	52767.38
527.18	53036.54
527.36	53242.51
527.53	53301.02
527.70	53528.05
527.87	53502.31
528.04	53457.84
528.21	53642.74
528.38	53457.84
528.55	53502.31
528.72	53457.84
528.89	53322.08
529.07	53663.80
529.24	53549.12
529.41	53986.80
529.58	54014.88
529.75	53783.17
529.92	53865.09
530.09	54110.85
530.26	53715.29
530.43	54209.15
530.60	53937.65
530.77	54195.10
530.94	54356.60
531.11	54188.08
531.28	54518.10
531.46	54410.43
531.63	54457.24
531.80	54494.69
531.97	54475.97
532.14	54518.10
532.31	54644.49
532.48	54831.73
532.65	54986.21
532.82	54703.00
532.99	54810.67
533.16	54630.44
533.33	55098.55
533.50	55182.81
533.67	54724.07
533.84	54546.18
534.01	55096.21
534.18	55126.64
534.35	55281.11
534.52	55210.90
534.69	55339.63
534.86	55330.26
535.03	55124.30
535.20	55339.63
535.37	55370.05
535.54	55620.49
535.71	55311.54
535.88	55494.10
536.05	55470.70
536.22	55667.30
536.38	55749.22
536.55	55763.26
536.72	55763.26
536.89	55643.90
537.06	55786.67
537.23	56032.42
537.40	55585.38
537.57	56009.02
537.74	55913.06
537.91	56247.75
538.08	55950.51
538.25	55697.73
538.42	56004.34
538.59	56355.42
538.75	56095.62
538.92	56193.92
539.09	56413.93
539.26	56502.87
539.43	56081.58
539.60	56289.88
539.77	56320.31
539.94	56727.56
540.11	56626.92
540.28	56727.56
540.44	56545.00
540.61	56552.02
540.78	56671.39
540.95	56552.02
541.12	56643.30
541.29	56676.07
541.46	56757.99
541.62	56797.78
541.79	56757.99
541.96	56610.54
542.13	56647.99
542.30	57052.90
542.47	57148.86
542.63	56919.49
542.80	57106.73
542.97	57223.76
543.14	57233.12
543.31	57188.65
543.48	57518.67
543.64	57462.49
543.81	57235.46
543.98	57347.81
544.15	57434.41
544.32	57532.71
544.48	57731.65
544.65	57455.47
544.82	57485.90
544.99	57345.47
545.16	57645.05
545.32	57577.18
545.49	57907.19
545.66	57949.32
545.83	57710.59
546.00	58000.82
546.16	57815.91
546.33	57525.69
546.50	57584.20
546.67	57762.08
546.83	57640.37
547.00	57925.92
547.17	58049.97
547.34	58052.31
547.50	58230.19
547.67	58466.58
547.84	58028.90
548.00	58269.98
548.17	58312.11
548.34	58237.21
548.51	58330.83
548.67	58347.21
548.84	58361.26
549.01	58272.32
549.18	58108.48
549.34	58265.30
549.51	58370.62
549.68	58459.56
549.84	58543.82
550.01	58583.61
550.18	58356.58
550.34	58541.48
550.51	58698.30
550.68	58412.75
550.84	58459.56
551.01	58763.83
551.18	58585.95
551.34	58543.82
551.51	58628.08
551.68	58820.00
551.84	58731.06
552.01	58471.26
552.18	58904.26
552.34	58656.17
552.51	58974.48
552.68	58672.55
552.84	58780.21
553.01	59166.40
553.18	59173.42
553.34	58993.20
553.51	58803.62
553.67	58899.58
553.84	58937.03
554.01	59007.25
554.17	59201.51
554.34	59107.89
554.51	59032.99
554.67	59330.24
554.84	59119.59
555.00	59152.36
555.17	59178.10
555.33	59070.44
555.50	59222.58
555.67	59318.54
555.83	59138.32
556.00	59238.96
556.16	59629.83
556.33	59430.88
556.50	59248.32
556.66	59388.75
556.83	59281.09
556.99	59578.34
557.16	59681.32
557.32	59606.42
557.49	59870.90
557.65	59482.37
557.82	59367.69
557.98	59421.52
558.15	59503.44
558.32	59796.01
558.48	59678.98
558.65	59681.32
558.81	59707.07
558.98	59545.57
559.14	59767.92
559.31	59634.51
559.47	59810.05
559.64	60006.65
559.80	60016.02
559.97	59803.03
560.13	59814.73
560.30	59648.55
560.46	59999.63
560.63	59973.89
560.79	59777.28
560.96	60041.76
561.12	59884.95
561.29	59898.99
561.45	59847.50
561.61	60020.70
561.78	59906.01
561.94	59824.09
562.11	59866.22
562.27	59976.23
562.44	59990.27
562.60	60193.90
562.77	60079.21
562.93	59814.73
563.10	60123.68
563.26	60025.38
563.42	60383.48
563.59	60119.00
563.75	60095.60
563.92	60212.62
564.08	59920.05
564.24	60271.14
564.41	60175.17
564.57	60236.03
564.74	60226.66
564.90	60130.70
565.07	60322.63
565.23	60329.65
565.39	60257.09
565.56	60491.15
565.72	60205.60
565.88	60285.18
566.05	60280.50
566.21	60324.97
566.38	60427.95
566.54	60434.97
566.70	60481.78
566.87	60537.96
567.03	60303.90
567.19	60683.07
567.36	60418.59
567.52	60285.18
567.68	60636.26
567.85	60624.56
568.01	60512.21
568.17	60390.50
568.34	60423.27
568.50	60575.40
568.66	60280.50
568.83	60484.12
568.99	60479.44
569.15	60706.47
569.32	60498.17
569.48	60589.45
569.64	60470.08
569.81	60643.28
569.97	60470.08
570.13	60664.35
570.30	60381.14
570.46	60615.19
570.62	60516.89
570.78	60729.88
570.95	60657.32
571.11	60825.84
571.27	60507.53
571.43	60755.63
571.60	60889.04
571.76	60479.44
571.92	60734.56
572.09	60636.26
572.25	60762.65
572.41	60736.90
572.57	60729.88
572.74	61048.19
572.90	60788.39
573.06	60917.12
573.22	60914.78
573.38	60673.71
573.55	60762.65
573.71	60977.98
573.87	60715.84
574.03	60769.67
574.20	60919.46
574.36	60809.46
574.52	60786.05
574.68	60825.84
574.84	60807.12
575.01	60764.99
575.17	60685.41
575.33	60872.65
575.49	60708.82
575.65	60739.24
575.82	61034.15
575.98	61106.71
576.14	61111.39
576.30	60933.51
576.46	60879.67
576.62	60865.63
576.79	60846.91
576.95	60739.24
577.11	60935.85
577.27	61043.51
577.43	60947.55
577.59	60825.84
577.75	60891.38
577.92	60856.27
578.08	61069.26
578.24	60889.04
578.40	61069.26
578.56	61102.03
578.72	60940.53
578.88	61172.24
579.04	61331.40
579.21	60914.78
579.37	61158.20
579.53	61106.71
579.69	60835.20
579.85	60816.48
580.01	60973.30
580.17	60835.20
580.33	61085.64
580.49	60760.31
580.65	61113.73
580.82	60935.85
580.98	60886.70
581.14	60860.95
581.30	61151.18
581.46	61158.20
581.62	61015.43
581.78	61073.94
581.94	60982.66
582.10	61167.56
582.26	61162.88
582.42	60933.51
582.58	60919.46
582.74	60975.64
582.90	60980.32
583.06	60914.78
583.22	60867.97
583.38	61095.00
583.54	60947.55
583.70	60959.25
583.86	60963.93
584.02	60914.78
584.18	61080.96
584.34	60914.78
584.50	61242.46
584.66	61022.45
584.82	60994.36
584.98	61329.06
585.14	61233.10
585.30	60935.85
585.46	61167.56
585.62	61048.19
585.78	61141.81
585.94	60924.14
586.10	61331.40
586.26	61350.12
586.42	60985.00
586.58	61207.35
586.74	61230.75
586.90	61017.77
587.06	61127.77
587.22	61300.97
587.38	61045.85
587.54	61151.18
587.70	61240.12
587.86	61071.60
588.02	61286.93
588.18	61396.93
588.34	60994.36
588.49	61048.19
