SpectraSuite Data File
++++++++++++++++++++++++++++++++++++
Date: Fri Oct 25 10:47:56 EDT 2013
User: price-jones
Dark Spectrum Present: No
Reference Spectrum Present: No
Number of Sampled Component Spectra: 1
Spectrometers: USB2+H05261
Integration Time (usec): 100000 (USB2+H05261)
Spectra Averaged: 1 (USB2+H05261)
Boxcar Smoothing: 0 (USB2+H05261)
Correct for Electrical Dark: No (USB2+H05261)
Strobe/Lamp Enabled: No (USB2+H05261)
Correct for Detector Non-linearity: No (USB2+H05261)
Correct for Stray Light: No (USB2+H05261)
Number of Pixels in Processed Spectrum: 2048
>>>>>Begin Processed Spectral Data<<<<<
365.73	149.79
365.92	149.79
366.12	149.79
366.32	77.24
366.52	0.00
366.72	49.15
366.91	4.68
367.11	70.22
367.31	84.26
367.51	60.85
367.70	9.36
367.90	46.81
368.10	51.49
368.30	72.56
368.49	44.47
368.69	67.88
368.89	0.00
369.09	53.83
369.28	81.92
369.48	138.09
369.68	93.62
369.87	102.98
370.07	74.90
370.27	133.41
370.47	236.39
370.66	376.83
370.86	395.55
371.06	440.02
371.25	475.13
371.45	397.89
371.65	440.02
371.84	437.68
372.04	514.92
372.24	557.05
372.44	543.00
372.63	500.87
372.83	472.79
373.03	409.59
373.22	498.53
373.42	505.56
373.62	554.71
373.81	517.26
374.01	545.34
374.21	463.43
374.40	543.00
374.60	526.62
374.79	449.38
374.99	564.07
375.19	571.09
375.38	540.66
375.58	585.13
375.78	580.45
375.97	578.11
376.17	636.63
376.37	592.16
376.56	610.88
376.76	631.94
376.95	580.45
377.15	627.26
377.35	627.26
377.54	603.86
377.74	547.69
377.93	596.84
378.13	566.41
378.33	613.22
378.52	568.75
378.72	688.12
378.91	671.73
379.11	657.69
379.31	629.60
379.50	631.94
379.70	737.27
379.89	683.44
380.09	655.35
380.28	678.76
380.48	732.59
380.68	631.94
380.87	631.94
381.07	681.10
381.26	744.29
381.46	631.94
381.65	697.48
381.85	692.80
382.04	683.44
382.24	657.69
382.43	720.88
382.63	650.67
382.83	636.63
383.02	631.94
383.22	753.65
383.41	624.92
383.61	706.84
383.80	713.86
384.00	713.86
384.19	695.14
384.39	786.42
384.58	737.27
384.78	699.82
384.97	737.27
385.17	763.01
385.36	753.65
385.56	847.27
385.75	753.65
385.95	805.14
386.14	812.17
386.34	779.40
386.53	758.33
386.72	713.86
386.92	858.98
387.11	830.89
387.31	802.80
387.50	835.57
387.70	788.76
387.89	835.57
388.09	882.38
388.28	788.76
388.48	828.55
388.67	819.19
388.86	844.93
389.06	866.00
389.25	952.60
389.45	980.68
389.64	931.53
389.84	938.55
390.03	959.62
390.22	971.32
390.42	884.72
390.61	947.92
390.81	868.34
391.00	983.02
391.19	1060.26
391.39	1022.81
391.58	999.41
391.78	938.55
391.97	954.94
392.16	971.32
392.36	1036.86
392.55	1039.20
392.75	971.32
392.94	959.62
393.13	922.17
393.33	1020.47
393.52	980.68
393.71	1013.45
393.91	999.41
394.10	1032.18
394.29	1062.60
394.49	1060.26
394.68	1121.12
394.88	1095.37
395.07	1179.63
395.26	1107.07
395.46	1188.99
395.65	1188.99
395.84	1036.86
396.04	1123.46
396.23	1053.24
396.42	1123.46
396.62	1165.59
396.81	1074.31
397.00	1153.88
397.19	1142.18
397.39	1198.35
397.58	1249.85
397.77	1188.99
397.97	1252.19
398.16	1172.61
398.35	1331.76
398.55	1394.96
398.74	1313.04
398.93	1373.89
399.12	1299.00
399.32	1329.42
399.51	1245.16
399.70	1439.43
399.90	1322.40
400.09	1411.34
400.28	1472.20
400.47	1441.77
400.67	1460.49
400.86	1488.58
401.05	1465.18
401.24	1439.43
401.44	1504.96
401.63	1401.98
401.82	1570.50
402.01	1542.41
402.21	1596.25
402.40	1537.73
402.59	1582.20
402.78	1544.75
402.97	1535.39
403.17	1528.37
403.36	1565.82
403.55	1722.63
403.74	1614.97
403.93	1664.12
404.13	1687.53
404.32	1596.25
404.51	1652.42
404.70	1715.61
404.89	1664.12
405.09	1732.00
405.28	1652.42
405.47	1790.51
405.66	1846.68
405.85	1783.49
406.05	1734.34
406.24	1774.13
406.43	1820.94
406.62	1689.87
406.81	1774.13
407.00	1781.15
407.20	1799.87
407.39	1785.83
407.58	1842.00
407.77	1886.47
407.96	1998.82
408.15	2026.90
408.34	2017.54
408.54	1991.80
408.73	1959.03
408.92	2059.67
409.11	2099.46
409.30	2031.58
409.49	1954.35
409.68	1940.30
409.87	2059.67
410.07	2050.31
410.26	2148.61
410.45	2174.36
410.64	2085.42
410.83	2293.72
411.02	2211.81
411.21	2310.11
411.40	2136.91
411.59	2345.22
411.78	2401.39
411.98	2270.32
412.17	2246.91
412.36	2366.28
412.55	2452.88
412.74	2392.03
412.93	2366.28
413.12	2363.94
413.31	2490.33
413.50	2452.88
413.69	2579.27
413.88	2649.49
414.07	2609.70
414.26	2523.10
414.45	2555.86
414.64	2626.08
414.83	2628.42
415.02	2693.96
415.22	2700.98
415.41	2745.45
415.60	2780.56
415.79	2780.56
415.98	2822.69
416.17	2806.30
416.36	2904.60
416.55	2895.24
416.74	2974.82
416.93	2963.12
417.12	2956.10
417.31	2923.33
417.50	2956.10
417.69	3021.63
417.88	3035.67
418.07	3066.10
418.26	2946.73
418.45	3138.66
418.64	3199.51
418.83	3267.39
419.02	3199.51
419.21	3143.34
419.39	3133.98
419.58	3330.58
419.77	3129.30
419.96	3290.79
420.15	3258.03
420.34	3297.81
420.53	3288.45
420.72	3316.54
420.91	3452.29
421.10	3323.56
421.29	3536.55
421.48	3382.07
421.67	3471.01
421.86	3372.71
422.05	3300.16
422.24	3363.35
422.43	3440.59
422.61	3353.99
422.80	3515.48
422.99	3522.51
423.18	3566.98
423.37	3609.11
423.56	3463.99
423.75	3449.95
423.94	3522.51
424.13	3297.81
424.32	3393.78
424.50	3620.81
424.69	3658.26
424.88	3503.78
425.07	3426.54
425.26	3419.52
425.45	3492.08
425.64	3639.53
425.83	3595.06
426.01	3620.81
426.20	3676.98
426.39	3508.46
426.58	3499.10
426.77	3445.27
426.96	3665.28
427.15	3637.19
427.33	3782.31
427.52	3693.37
427.71	3702.73
427.90	3691.02
428.09	3789.33
428.28	3723.79
428.46	3826.78
428.65	3794.01
428.84	3845.50
429.03	3892.31
429.22	3672.30
429.40	3801.03
429.59	3747.20
429.78	3756.56
429.97	3599.74
430.16	3772.94
430.34	3756.56
430.53	3705.07
430.72	3882.95
430.91	3826.78
431.10	3866.56
431.28	4124.02
431.47	4201.26
431.66	4191.90
431.85	4032.74
432.03	4149.77
432.22	4313.61
432.41	4210.62
432.60	4337.01
432.79	4259.78
432.97	4070.19
433.16	4224.67
433.35	4219.99
433.54	4215.30
433.72	4397.87
433.91	4306.59
434.10	4285.52
434.28	4383.82
434.47	4428.29
434.66	4587.45
434.85	4571.07
435.03	4386.16
435.22	4437.66
435.41	4500.85
435.59	4496.17
435.78	4496.17
435.97	4519.57
436.16	4414.25
436.34	4500.85
436.53	4620.22
436.72	4615.54
436.90	4571.07
437.09	4603.83
437.28	4746.61
437.46	4688.09
437.65	4720.86
437.84	4765.33
438.02	4561.70
438.21	4730.22
438.40	4720.86
438.58	4840.23
438.77	4788.74
438.96	4966.62
439.14	4952.57
439.33	4985.34
439.52	5046.20
439.70	5069.60
439.89	5247.48
440.08	5177.26
440.26	5160.88
440.45	5116.41
440.63	5296.63
440.82	5308.34
441.01	5226.42
441.19	5263.86
441.38	5392.59
441.57	5359.83
441.75	5465.15
441.94	5643.03
442.12	5568.13
442.31	5753.04
442.50	5619.63
442.68	5638.35
442.87	5717.93
443.05	5668.78
443.24	5825.59
443.43	5715.59
443.61	5692.18
443.80	5921.56
443.98	5736.65
444.17	5610.26
444.35	5722.61
444.54	5820.91
444.73	5816.23
444.91	5895.81
445.10	5846.66
445.28	5722.61
445.47	5788.14
445.65	5849.00
445.84	5898.15
446.02	5870.06
446.21	5881.77
446.39	5851.34
446.58	5987.09
446.77	5668.78
446.95	5731.97
447.14	5898.15
447.32	6097.10
447.51	5872.40
447.69	5813.89
447.88	5991.77
448.06	5851.34
448.25	5813.89
448.43	6113.48
448.62	6038.58
448.80	6036.24
448.99	6024.54
449.17	6253.91
449.36	6101.78
449.54	6181.35
449.73	6265.61
449.91	6097.10
450.10	6221.14
450.28	6462.22
450.46	6499.67
450.65	6396.68
450.83	6394.34
451.02	6389.66
451.20	6525.41
451.39	6352.21
451.57	6359.24
451.76	6345.19
451.94	6422.43
452.13	6516.05
452.31	6497.33
452.49	6394.34
452.68	6672.87
452.86	6520.73
453.05	6497.33
453.23	6810.96
453.42	6523.07
453.60	6574.56
453.78	6541.80
453.97	6516.05
454.15	6455.20
454.34	6513.71
454.52	6778.19
454.70	6871.81
454.89	6703.29
455.07	6825.00
455.26	6981.82
455.44	7033.31
455.62	6843.73
455.81	6984.16
455.99	6899.90
456.17	6998.20
456.36	6913.94
456.54	6998.20
456.73	7145.66
456.91	7428.86
457.09	7229.91
457.28	7475.67
457.46	7206.51
457.64	7222.89
457.83	7370.35
458.01	7152.68
458.19	7309.49
458.38	7435.88
458.56	7454.61
458.74	7419.50
458.93	7426.52
459.11	7485.03
459.29	7456.95
459.48	7496.74
459.66	7543.55
459.84	7393.75
460.03	7646.53
460.21	7557.59
460.39	7712.07
460.57	7569.29
460.76	7627.81
460.94	7789.30
461.12	7700.36
461.31	7751.85
461.49	7691.00
461.67	7648.87
461.85	7777.60
462.04	7810.37
462.22	8290.18
462.40	8046.76
462.59	7808.03
462.77	7922.71
462.95	7992.93
463.13	7911.01
463.32	8067.83
463.50	8238.69
463.68	8131.02
463.86	8065.49
464.05	7927.39
464.23	8032.72
464.41	8098.25
464.59	8091.23
464.78	8308.90
464.96	8114.64
465.14	8095.91
465.32	8358.05
465.50	8393.16
465.69	8500.83
465.87	8273.79
466.05	8152.09
466.23	8336.99
466.41	8280.82
466.60	8634.24
466.78	8121.66
466.96	8465.72
467.14	8533.59
467.32	8608.49
467.51	8442.31
467.69	8231.66
467.87	8528.91
468.05	8627.21
468.23	8582.74
468.41	8531.25
468.60	8561.68
468.78	8697.43
468.96	8549.98
469.14	8557.00
469.32	8767.65
469.50	8547.64
469.69	8814.46
469.87	8910.42
470.05	8828.50
470.23	8896.38
470.41	8870.63
470.59	8807.44
470.77	8926.80
470.95	9078.94
471.14	9228.73
471.32	9149.15
471.50	9284.91
471.68	9198.31
471.86	9298.95
472.04	9235.75
472.22	9495.55
472.40	9191.28
472.58	9310.65
472.77	9483.85
472.95	9469.81
473.13	9699.18
473.31	9710.88
473.49	9479.17
473.67	9680.46
473.85	9621.94
474.03	9771.74
474.21	10019.83
474.39	10029.20
474.57	10003.45
474.75	9984.73
474.93	10078.35
475.12	10108.77
475.30	10232.82
475.48	10298.36
475.66	10363.89
475.84	10375.59
476.02	10251.55
476.20	10485.60
476.38	10462.19
476.56	10754.76
476.74	10815.62
476.92	10593.26
477.10	10895.19
477.28	10970.09
477.46	10864.77
477.64	10977.11
477.82	11103.50
478.00	11370.32
478.18	10984.13
478.36	11173.72
478.54	11662.89
478.72	11573.95
478.90	11590.33
479.08	11777.58
479.26	11950.78
479.44	11763.53
479.62	11901.62
479.80	12016.31
479.98	12229.30
480.16	12273.77
480.34	12407.18
480.52	12517.18
480.70	12381.43
480.88	12313.56
481.06	12491.44
481.24	12531.23
481.41	12622.51
481.59	12903.37
481.77	13025.08
481.95	12952.52
482.13	12994.65
482.31	13200.62
482.49	13425.31
482.67	13315.31
482.85	13781.07
483.03	13813.84
483.21	13970.66
483.39	14071.30
483.57	13940.23
483.74	14345.14
483.92	14288.97
484.10	14244.50
484.28	14263.22
484.46	14747.72
484.64	14939.64
484.82	14572.18
485.00	15000.49
485.18	14806.23
485.35	15028.58
485.53	14789.85
485.71	15030.92
485.89	15152.63
486.07	15400.72
486.25	15428.81
486.43	15616.05
486.61	15613.71
486.78	15850.11
486.96	15733.08
487.14	16346.30
487.32	16336.94
487.50	16388.43
487.68	16645.89
487.85	16821.43
488.03	16791.00
488.21	16889.31
488.39	16739.51
488.57	17205.28
488.75	17198.26
488.92	17469.76
489.10	17624.23
489.28	17767.01
489.46	17912.12
489.64	17893.40
489.81	18251.50
489.99	18445.76
490.17	18560.45
490.35	18743.01
490.53	18677.48
490.70	18934.93
490.88	18750.03
491.06	18977.06
491.24	19166.65
491.41	19033.24
491.59	19176.01
491.77	19222.82
491.95	19164.31
492.13	19786.89
492.30	19772.85
492.48	19761.14
492.66	19735.40
492.84	20091.16
493.01	20006.90
493.19	20269.04
493.37	20280.74
493.54	20727.78
493.72	20739.49
493.90	20741.83
494.08	20783.96
494.25	21226.32
494.43	21259.09
494.61	21495.48
494.79	21336.32
494.96	21207.59
495.14	21685.06
495.32	21603.14
495.49	21816.13
495.67	22010.40
495.85	22319.35
496.02	21944.86
496.20	22445.74
496.38	22377.86
496.55	22490.21
496.73	22768.73
496.91	22569.79
497.09	22822.56
497.26	22963.00
497.44	23054.28
497.62	23257.90
497.79	23604.30
497.97	23136.20
498.14	23356.21
498.32	23632.39
498.50	23784.52
498.67	23988.15
498.85	24018.58
499.03	24173.05
499.20	23854.74
499.38	24205.82
499.56	24149.65
499.73	24364.98
499.91	24718.40
500.08	24584.99
500.26	24549.88
500.44	24706.70
500.61	24966.49
500.79	24926.71
500.97	24779.25
501.14	25071.82
501.32	24987.56
501.49	25415.88
501.67	25635.89
501.84	25645.25
502.02	25219.27
502.20	25652.27
502.37	25715.47
502.55	25926.11
502.72	25703.76
502.90	25956.54
503.07	25975.27
503.25	26031.44
503.43	25919.09
503.60	26279.54
503.78	26607.21
503.95	26230.38
504.13	26366.13
504.30	26387.20
504.48	26625.93
504.65	26658.70
504.83	27115.11
505.01	26958.29
505.18	26738.28
505.36	27145.53
505.53	27402.99
505.71	27840.67
505.88	27658.11
506.06	26867.01
506.23	27482.57
506.41	27358.52
506.58	27353.84
506.76	27857.06
506.93	27845.35
507.11	27604.28
507.28	27662.79
507.46	27632.36
507.63	27981.10
507.81	28254.95
507.98	27931.95
508.16	28128.56
508.33	28236.22
508.50	28418.78
508.68	28453.89
508.85	28826.04
509.03	28648.16
509.20	28575.60
509.38	28989.88
509.55	29015.62
509.73	29237.97
509.90	29060.09
510.08	29113.92
510.25	29263.72
510.42	29263.72
510.60	29205.20
510.77	29654.59
510.95	29806.72
511.12	29589.05
511.30	29621.82
511.47	29905.02
511.64	30213.98
511.82	30052.48
511.99	29830.13
512.17	30494.84
512.34	30029.07
512.51	30508.88
512.69	30455.05
512.86	30125.04
513.04	30511.22
513.21	30726.55
513.38	30541.65
513.56	31019.12
513.73	30272.49
513.90	30988.69
514.08	30780.39
514.25	30991.03
514.43	30857.62
514.60	31475.52
514.77	31094.02
514.95	31246.15
515.12	31211.04
515.29	31578.51
515.47	31688.51
515.64	31906.18
515.81	31419.35
515.99	31833.63
516.16	31651.06
516.33	31566.81
516.51	31917.89
516.68	31653.40
516.85	31023.80
517.03	32013.85
517.20	31990.44
517.37	31922.57
517.54	32275.99
517.72	32353.23
517.89	32119.17
518.06	31908.52
518.24	32283.01
518.41	32238.54
518.58	32493.66
518.75	32313.44
518.93	32807.29
519.10	32481.95
519.27	32692.60
519.45	32723.03
519.62	32804.95
519.79	33362.00
519.96	33420.51
520.14	33146.67
520.31	33139.65
520.48	33553.92
520.65	33294.12
520.83	33806.70
521.00	33799.68
521.17	33565.62
521.34	33635.84
521.52	33795.00
521.69	34211.61
521.86	34211.61
522.03	34363.75
522.20	34117.99
522.38	34012.66
522.55	34595.46
522.72	34183.52
522.89	34338.00
523.07	34377.79
523.24	34235.02
523.41	34312.25
523.58	34845.90
523.75	35131.44
523.92	35133.78
524.10	34820.15
524.27	34829.51
524.44	34829.51
524.61	35101.01
524.78	34539.29
524.96	35262.51
525.13	35569.12
525.30	35845.30
525.47	35819.56
525.64	35213.36
525.81	35564.44
525.98	35161.87
526.16	35328.05
526.33	35260.17
526.50	35758.70
526.67	35372.52
526.84	35768.07
527.01	35519.97
527.18	35842.96
527.36	35730.62
527.53	36070.00
527.70	36135.53
527.87	36364.90
528.04	36086.38
528.21	35875.73
528.38	35873.39
528.55	36552.15
528.72	36364.90
528.89	36212.77
529.07	36208.09
529.24	36601.30
529.41	35981.06
529.58	36666.83
529.75	36851.73
529.92	36755.77
530.09	36580.23
530.26	37156.00
530.43	37010.89
530.60	36418.74
530.77	36835.35
530.94	37092.81
531.11	37109.19
531.28	36711.30
531.46	37184.09
531.63	37233.24
531.80	37141.96
531.97	37148.98
532.14	37294.10
532.31	37270.69
532.48	37589.00
532.65	37553.90
532.82	37544.53
532.99	37710.71
533.16	37411.12
533.33	37710.71
533.50	38080.52
533.67	37780.93
533.84	37535.17
534.01	38038.39
534.18	38078.18
534.35	38045.41
534.52	38066.47
534.69	38513.52
534.86	38139.03
535.03	38143.71
535.20	38756.93
535.37	38209.25
535.54	38405.85
535.71	37949.45
535.88	38251.38
536.05	38667.99
536.22	38485.43
536.38	38824.81
536.55	38253.72
536.72	38305.21
536.89	38522.88
537.06	38190.52
537.23	38979.28
537.40	38366.06
537.57	38822.47
537.74	38909.07
537.91	39227.38
538.08	39257.81
538.25	39079.92
538.42	38838.85
538.59	39056.52
538.75	39007.37
538.92	39023.75
539.09	39517.60
539.26	39299.94
539.43	39360.79
539.60	38808.42
539.77	39166.52
539.94	39100.99
540.11	39100.99
540.28	39227.38
540.44	39388.88
540.61	38904.38
540.78	39086.95
540.95	39711.87
541.12	39374.83
541.29	39468.45
541.46	39503.56
541.62	39515.26
541.79	39658.04
541.96	40016.14
542.13	40301.68
542.30	40058.27
542.47	39934.22
542.63	39974.01
542.80	40044.23
542.97	40615.32
543.14	40999.16
543.31	40126.14
543.48	40421.05
543.64	40673.83
543.81	41022.57
543.98	40650.42
544.15	40374.24
544.32	41106.83
544.48	41036.61
544.65	40793.20
544.82	40737.02
544.99	40823.62
545.16	40631.70
545.32	40659.79
545.49	40994.48
545.66	40898.52
545.83	40809.58
546.00	40982.78
546.16	40926.61
546.33	41048.32
546.50	40549.78
546.67	41326.84
546.83	40898.52
547.00	41387.69
547.17	41354.93
547.34	41120.87
547.50	41429.82
547.67	41694.30
547.84	41116.19
548.00	41436.84
548.17	41317.48
548.34	41441.53
548.51	41605.36
548.67	41851.12
548.84	41816.01
549.01	41834.74
549.18	41446.21
549.34	41729.41
549.51	42085.17
549.68	42117.94
549.84	41867.50
550.01	42462.00
550.18	41605.36
550.34	42267.73
550.51	41902.61
550.68	42150.71
550.84	41626.43
551.01	41825.37
551.18	42094.53
551.34	42094.53
551.51	41926.02
551.68	41993.89
551.84	42717.12
552.01	41853.46
552.18	42190.50
552.34	42122.62
552.51	42019.64
552.68	42440.93
552.84	42436.25
553.01	42859.89
553.18	42284.12
553.34	42635.20
553.51	42047.72
553.67	42770.95
553.84	42902.02
554.01	42784.99
554.17	42916.06
554.34	42583.71
554.51	42738.18
554.67	42801.38
554.84	42728.82
555.00	42494.77
555.17	42405.83
555.33	43337.36
555.50	42951.17
555.67	42630.52
555.83	42583.71
556.00	43028.41
556.16	43124.37
556.33	43096.28
556.50	42745.20
556.66	43147.78
556.83	42997.98
556.99	43260.12
557.16	43456.73
557.32	43217.99
557.49	43070.54
557.65	42960.53
557.82	42824.78
557.98	43115.01
558.15	43112.67
558.32	43356.08
558.48	43288.21
558.65	43772.70
558.81	43615.88
558.98	43325.66
559.14	43154.80
559.31	43367.79
559.47	43445.02
559.64	43533.96
559.80	43810.15
559.97	43842.92
560.13	43313.95
560.30	43260.12
560.46	43391.19
560.63	43182.88
560.79	43737.59
560.96	43679.08
561.12	43512.90
561.29	43510.56
561.45	43543.33
561.61	43852.28
561.78	43475.45
561.94	43636.95
562.11	43302.25
562.27	44023.14
562.44	43819.51
562.60	43653.33
562.77	43976.33
562.93	43599.50
563.10	44048.88
563.26	43882.70
563.42	43791.42
563.59	43629.93
563.75	43302.25
563.92	44076.97
564.08	44105.06
564.24	44004.41
564.41	44088.67
564.57	43950.58
564.74	44320.38
564.90	44060.58
565.07	43866.32
565.23	44179.95
565.39	44236.12
565.56	43995.05
565.72	43814.83
565.88	44264.21
566.05	43882.70
566.21	44025.48
566.38	43971.64
566.54	43913.13
566.70	44339.11
566.87	44390.60
567.03	43758.66
567.19	44669.12
567.36	44519.33
567.52	44081.65
567.68	44414.01
567.85	44271.23
568.01	44659.76
568.17	43973.98
568.34	44456.14
568.50	44535.71
568.66	43952.92
568.83	44245.49
568.99	44151.87
569.15	43927.17
569.32	44098.03
569.48	43927.17
569.64	44416.35
569.81	44549.76
569.97	44570.82
570.13	44608.27
570.30	44201.02
570.46	44350.81
570.62	43793.76
570.78	43936.54
570.95	44109.74
571.11	44208.04
571.27	44629.34
571.43	44306.34
571.60	44451.45
571.76	44484.22
571.92	44603.59
572.09	44006.75
572.25	44177.61
572.41	44266.55
572.57	44603.59
572.74	44634.02
572.90	44540.39
573.06	44715.93
573.22	44362.51
573.38	44311.02
573.55	44053.56
573.71	44715.93
573.87	44369.54
574.03	44046.54
574.20	44538.05
574.36	44505.29
574.52	44315.70
574.68	44369.54
574.84	44423.37
575.01	44514.65
575.17	44697.21
575.33	44282.94
575.49	43997.39
575.65	44989.78
575.82	44568.48
575.98	44524.01
576.14	44634.02
576.30	44619.97
576.46	44093.35
576.62	44470.18
576.79	44467.84
576.95	44619.97
577.11	44587.21
577.27	43803.13
577.43	44765.09
577.59	44704.23
577.75	44587.21
577.92	44198.68
578.08	44411.67
578.24	44397.62
578.40	44385.92
578.56	44243.15
578.72	44318.04
578.88	44720.62
579.04	45167.66
579.21	44416.35
579.37	44282.94
579.53	44069.95
579.69	44549.76
579.85	44533.37
580.01	44348.47
580.17	44690.19
580.33	44825.94
580.49	44945.31
580.65	44842.32
580.82	45083.40
580.98	44835.30
581.14	44397.62
581.30	44821.26
581.46	44847.00
581.62	44505.29
581.78	44748.70
581.94	44935.95
582.10	44617.63
582.26	44912.54
582.42	44802.53
582.58	44814.24
582.74	44889.13
582.90	44615.29
583.06	44753.38
583.22	45174.68
583.38	45139.57
583.54	44940.63
583.70	44797.85
583.86	44711.25
584.02	44790.83
584.18	44811.90
584.34	44245.49
584.50	44732.32
584.66	44481.88
584.82	44275.91
584.98	44870.41
585.14	44619.97
585.30	44568.48
585.46	45184.04
585.62	44507.63
585.78	44526.35
585.94	44507.63
586.10	44460.82
586.26	44587.21
586.42	45153.62
586.58	44287.62
586.74	44762.75
586.90	44617.63
587.06	44818.92
587.22	45123.19
587.38	45038.93
587.54	44818.92
587.70	44809.56
587.86	45048.29
588.02	44669.12
588.18	45158.30
588.34	44842.32
588.49	44718.28
588.65	44514.65
588.81	44418.69
588.97	44722.96
589.13	44308.68
589.29	44666.78
589.45	44612.95
589.61	44900.84
589.77	45057.65
589.93	44879.77
590.08	45109.14
590.24	44832.96
