SpectraSuite Data File
++++++++++++++++++++++++++++++++++++
Date: Fri Oct 25 11:26:35 EDT 2013
User: price-jones
Dark Spectrum Present: No
Reference Spectrum Present: No
Number of Sampled Component Spectra: 1
Spectrometers: USB2+H05261
Integration Time (usec): 100000 (USB2+H05261)
Spectra Averaged: 1 (USB2+H05261)
Boxcar Smoothing: 0 (USB2+H05261)
Correct for Electrical Dark: No (USB2+H05261)
Strobe/Lamp Enabled: No (USB2+H05261)
Correct for Detector Non-linearity: No (USB2+H05261)
Correct for Stray Light: No (USB2+H05261)
Number of Pixels in Processed Spectrum: 2048
>>>>>Begin Processed Spectral Data<<<<<
365.73	222.35
365.92	222.35
366.12	222.35
366.32	161.50
366.52	156.82
366.72	117.03
366.91	180.22
367.11	201.29
367.31	98.30
367.51	147.45
367.70	114.69
367.90	110.01
368.10	168.52
368.30	156.82
368.49	161.50
368.69	133.41
368.89	152.13
369.09	126.39
369.28	133.41
369.48	196.60
369.68	191.92
369.87	229.37
370.07	245.76
370.27	243.42
370.47	346.40
370.66	594.50
370.86	655.35
371.06	697.48
371.25	739.61
371.45	643.65
371.65	720.88
371.84	702.16
372.04	784.08
372.24	751.31
372.44	685.78
372.63	737.27
372.83	781.74
373.03	807.48
373.22	786.42
373.42	781.74
373.62	807.48
373.81	746.63
374.01	800.46
374.21	805.14
374.40	847.27
374.60	800.46
374.79	863.66
374.99	847.27
375.19	807.48
375.38	870.68
375.58	802.80
375.78	851.96
375.97	861.32
376.17	940.90
376.37	858.98
376.56	929.19
376.76	868.34
376.95	816.85
377.15	1011.11
377.35	910.47
377.54	929.19
377.74	835.57
377.93	931.53
378.13	980.68
378.33	1018.13
378.52	1008.77
378.72	896.43
378.91	954.94
379.11	961.96
379.31	985.37
379.50	943.24
379.70	994.73
379.89	983.02
380.09	1036.86
380.28	968.98
380.48	1027.50
380.68	968.98
380.87	1071.97
381.07	1020.47
381.26	1067.28
381.46	978.34
381.65	1060.26
381.85	1088.35
382.04	1144.52
382.24	1057.92
382.43	1060.26
382.63	1093.03
382.83	1193.67
383.02	1095.37
383.22	1198.35
383.41	1123.46
383.61	1153.88
383.80	1121.12
384.00	1158.57
384.19	1165.59
384.39	1142.18
384.58	1144.52
384.78	1242.82
384.97	1193.67
385.17	1196.01
385.36	1179.63
385.56	1109.41
385.75	1151.54
385.95	1179.63
386.14	1334.11
386.34	1177.29
386.53	1224.10
386.72	1233.46
386.92	1205.38
387.11	1261.55
387.31	1303.68
387.50	1284.95
387.70	1284.95
387.89	1308.36
388.09	1214.74
388.28	1205.38
388.48	1308.36
388.67	1385.60
388.86	1348.15
389.06	1329.42
389.25	1240.48
389.45	1362.19
389.64	1383.26
389.84	1357.51
390.03	1420.71
390.22	1455.81
390.42	1341.13
390.61	1474.54
390.81	1373.89
391.00	1441.77
391.19	1465.18
391.39	1348.15
391.58	1446.45
391.78	1481.56
391.97	1533.05
392.16	1469.86
392.36	1624.33
392.55	1514.33
392.75	1549.43
392.94	1516.67
393.13	1502.62
393.33	1526.03
393.52	1633.69
393.71	1703.91
393.91	1535.39
394.10	1575.18
394.29	1696.89
394.49	1652.42
394.68	1629.01
394.88	1617.31
395.07	1755.40
395.26	1654.76
395.46	1673.48
395.65	1753.06
395.84	1746.04
396.04	1827.96
396.23	1788.17
396.42	1769.44
396.62	1699.23
396.81	1799.87
397.00	1846.68
397.19	1804.55
397.39	1825.62
397.58	1778.81
397.77	1792.85
397.97	1813.92
398.16	1837.32
398.35	1872.43
398.55	1916.90
398.74	1966.05
398.93	1933.28
399.12	1881.79
399.32	1849.02
399.51	1968.39
399.70	1912.22
399.90	1973.07
400.09	1984.77
400.28	2111.16
400.47	1928.60
400.67	2003.50
400.86	2083.08
401.05	2211.81
401.24	2043.29
401.44	2146.27
401.63	2122.87
401.82	2069.03
402.01	2289.04
402.21	2160.31
402.40	2190.74
402.59	2118.18
402.78	2293.72
402.97	2207.13
403.17	2291.38
403.36	2392.03
403.55	2359.26
403.74	2312.45
403.93	2385.01
404.13	2277.34
404.32	2469.27
404.51	2427.14
404.70	2403.73
404.89	2303.09
405.09	2457.56
405.28	2464.58
405.47	2473.95
405.66	2504.37
405.85	2581.61
406.05	2544.16
406.24	2555.86
406.43	2621.40
406.62	2663.53
406.81	2693.96
407.00	2546.50
407.20	2651.83
407.39	2715.02
407.58	2825.03
407.77	2794.60
407.96	2686.94
408.15	2885.88
408.34	2700.98
408.54	2803.96
408.73	2869.50
408.92	2785.24
409.11	2897.58
409.30	2951.42
409.49	2937.37
409.68	2932.69
409.87	2967.80
410.07	2874.18
410.26	3005.25
410.45	2974.82
410.64	3061.42
410.83	3005.25
411.02	3126.96
411.21	3187.81
411.40	3047.38
411.59	3148.02
411.78	3185.47
411.98	3143.34
412.17	3265.05
412.36	3311.86
412.55	3258.03
412.74	3339.94
412.93	3456.97
413.12	3379.73
413.31	3566.98
413.50	3550.59
413.69	3562.30
413.88	3674.64
414.07	3602.08
414.26	3756.56
414.45	3583.36
414.64	3730.81
414.83	3611.45
415.02	3719.11
415.22	3786.99
415.41	3829.12
415.60	4051.47
415.79	4032.74
415.98	4009.34
416.17	4009.34
416.36	3983.59
416.55	4018.70
416.74	4039.76
416.93	4039.76
417.12	4072.53
417.31	4170.83
417.50	4133.39
417.69	4299.56
417.88	4348.72
418.07	4358.08
418.26	4287.86
418.45	4173.18
418.64	4454.04
418.83	4589.79
419.02	4514.89
419.21	4645.96
419.39	4615.54
419.58	4402.55
419.77	4456.38
419.96	4542.98
420.15	4606.17
420.34	4589.79
420.53	4552.34
420.72	4755.97
420.91	4711.50
421.10	4837.89
421.29	4809.80
421.48	4741.93
421.67	4727.88
421.86	4683.41
422.05	4851.93
422.24	4873.00
422.43	4903.42
422.61	5027.47
422.80	5034.49
422.99	4795.76
423.18	4868.31
423.37	5167.90
423.56	4975.98
423.75	4919.81
423.94	4856.61
424.13	4603.83
424.32	4655.33
424.50	4999.38
424.69	5212.37
424.88	5064.92
425.07	4891.72
425.26	4851.93
425.45	5029.81
425.64	5135.14
425.83	4847.25
426.01	5081.30
426.20	4933.85
426.39	5008.75
426.58	5027.47
426.77	5114.07
426.96	5228.76
427.15	5020.45
427.33	5219.39
427.52	5352.81
427.71	5186.63
427.90	5249.82
428.09	5350.46
428.28	5378.55
428.46	5296.63
428.65	5315.36
428.84	5603.24
429.03	5418.34
429.22	5434.72
429.40	5399.62
429.59	5453.45
429.78	5350.46
429.97	5350.46
430.16	5577.50
430.34	5664.10
430.53	5605.58
430.72	5713.25
430.91	5701.54
431.10	5575.16
431.28	5834.96
431.47	5750.70
431.66	5900.49
431.85	5912.19
432.03	5947.30
432.22	6059.65
432.41	5963.68
432.60	5947.30
432.79	5804.53
432.97	6120.50
433.16	6120.50
433.35	5893.47
433.54	6090.07
433.72	6148.59
433.91	6057.31
434.10	6094.76
434.28	6090.07
434.47	6394.34
434.66	6370.94
434.85	6384.98
435.03	6338.17
435.22	6473.92
435.41	6471.58
435.59	6193.06
435.78	6305.40
435.97	6487.96
436.16	6532.44
436.34	6410.73
436.53	6640.10
436.72	6614.35
436.90	6389.66
437.09	6626.06
437.28	6541.80
437.46	6691.59
437.65	6604.99
437.84	6766.49
438.02	6810.96
438.21	6825.00
438.40	6707.98
438.58	6988.84
438.77	7112.89
438.96	6937.35
439.14	7150.34
439.33	7250.98
439.52	7066.08
439.70	7391.41
439.89	7431.20
440.08	7592.70
440.26	7447.58
440.45	7279.07
440.63	7485.03
440.82	7749.51
441.01	7648.87
441.19	7665.25
441.38	7597.38
441.57	7613.76
441.75	7901.65
441.94	7805.69
442.12	7948.46
442.31	8049.10
442.50	8088.89
442.68	8028.04
442.87	8093.57
443.05	8196.56
443.24	8278.47
443.43	8301.88
443.61	8262.09
443.80	8470.40
443.98	8023.36
444.17	7901.65
444.35	8081.87
444.54	8484.44
444.73	8262.09
444.91	8360.39
445.10	8381.46
445.28	8437.63
445.47	8313.58
445.65	8341.67
445.84	8489.12
446.02	8561.68
446.21	8423.59
446.39	8301.88
446.58	8655.30
446.77	8334.65
446.95	8243.37
447.14	8491.46
447.32	8772.33
447.51	8491.46
447.69	8514.87
447.88	8634.24
448.06	8552.32
448.25	8444.65
448.43	8505.51
448.62	8608.49
448.80	8659.98
448.99	8709.13
449.17	8868.29
449.36	8599.13
449.54	8940.85
449.73	8966.59
449.91	9160.86
450.10	8980.64
450.28	9027.45
450.46	9022.77
450.65	9060.21
450.83	9287.25
451.02	9167.88
451.20	9273.20
451.39	9259.16
451.57	9165.54
451.76	9076.60
451.94	9308.31
452.13	9371.50
452.31	9460.45
452.49	9305.97
452.68	9390.23
452.86	9523.64
453.05	9610.24
453.23	9699.18
453.42	9537.68
453.60	9186.60
453.78	9638.33
453.97	9521.30
454.15	9589.17
454.34	9563.43
454.52	9895.78
454.70	9708.54
454.89	9865.36
455.07	10005.79
455.26	9909.83
455.44	10005.79
455.62	10040.90
455.81	9975.36
455.99	10101.75
456.17	10120.48
456.36	10228.14
456.54	10094.73
456.73	10244.52
456.91	10534.75
457.09	10434.11
457.28	10672.84
457.46	10223.46
457.64	10860.09
457.83	10546.45
458.01	10417.72
458.19	10642.42
458.38	10637.73
458.56	10925.62
458.74	10778.17
458.93	10771.15
459.11	10972.43
459.29	10874.13
459.48	10881.15
459.66	10799.23
459.84	10747.74
460.03	11077.76
460.21	11044.99
460.39	10883.49
460.57	10981.79
460.76	11103.50
460.94	11229.89
461.12	11063.71
461.31	11555.22
461.49	11232.23
461.67	11255.64
461.85	11531.82
462.04	11239.25
462.22	11463.94
462.40	11648.85
462.59	11592.67
462.77	11681.61
462.95	11548.20
463.13	11510.75
463.32	11779.92
463.50	11829.07
463.68	12058.44
463.86	11843.11
464.05	11819.71
464.23	11728.42
464.41	11988.22
464.59	11730.76
464.78	12100.57
464.96	11967.16
465.14	12100.57
465.32	12191.85
465.50	12105.25
465.69	12149.72
465.87	12042.06
466.05	12058.44
466.23	12259.73
466.41	12182.49
466.60	12442.29
466.78	12056.10
466.96	12346.33
467.14	12322.92
467.32	12388.46
467.51	12788.69
467.69	12266.75
467.87	12545.27
468.05	12732.51
468.23	12475.06
468.41	12493.78
468.60	12709.11
468.78	12915.08
468.96	12662.30
469.14	13004.02
469.32	12894.01
469.50	12781.67
469.69	12786.35
469.87	13048.49
470.05	13036.78
470.23	13310.63
470.41	13226.37
470.59	13556.38
470.77	13231.05
470.95	13380.84
471.14	13692.13
471.32	13254.45
471.50	13823.20
471.68	13783.41
471.86	13872.36
472.04	13792.78
472.22	13944.91
472.40	13748.31
472.58	13944.91
472.77	14085.34
472.95	14328.76
473.13	14766.44
473.31	14162.58
473.49	14295.99
473.67	14469.19
473.85	14319.40
474.03	14609.62
474.21	14516.00
474.39	14518.34
474.57	14588.56
474.75	14864.74
474.93	15084.75
475.12	15103.48
475.30	15330.51
475.48	14834.32
475.66	15154.97
475.84	15335.19
476.02	15585.63
476.20	15690.95
476.38	15697.97
476.56	15962.45
476.74	16208.21
476.92	15999.90
477.10	15887.56
477.28	16042.03
477.46	16449.28
477.64	16388.43
477.82	16514.82
478.00	17214.64
478.18	16786.32
478.36	16936.12
478.54	16968.88
478.72	17254.43
478.90	17319.96
479.08	17631.26
479.26	17668.70
479.44	17699.13
479.62	18181.28
479.80	18267.88
479.98	18176.60
480.16	18572.15
480.34	18398.95
480.52	18621.30
480.70	18792.16
480.88	18466.83
481.06	19063.66
481.24	18621.30
481.41	19241.54
481.59	19213.46
481.77	19653.48
481.95	19611.35
482.13	19917.96
482.31	19763.48
482.49	20428.20
482.67	20350.96
482.85	20402.45
483.03	20451.60
483.21	20882.26
483.39	21200.57
483.57	20926.73
483.74	21329.30
483.92	21689.74
484.10	21308.24
484.28	22125.08
484.46	22270.20
484.64	22483.19
484.82	22080.61
485.00	22424.67
485.18	22927.89
485.35	23194.71
485.53	23068.32
485.71	22717.24
485.89	23527.06
486.07	23419.40
486.25	23569.19
486.43	23665.16
486.61	23515.36
486.78	24123.90
486.96	24243.27
487.14	24636.48
487.32	24552.22
487.50	24847.13
487.68	24980.54
487.85	25577.37
488.03	26068.89
488.21	25895.69
488.39	25979.95
488.57	26249.11
488.75	26382.52
488.92	26789.77
489.10	26864.67
489.28	27218.09
489.46	27318.73
489.64	27101.06
489.81	27360.86
489.99	27826.63
490.17	28025.57
490.35	28386.02
490.53	28474.96
490.70	28428.15
490.88	28297.08
491.06	29022.64
491.24	28980.51
491.41	28959.45
491.59	29261.38
491.77	29352.66
491.95	29813.74
492.13	29935.45
492.30	29930.77
492.48	30506.54
492.66	30756.98
492.84	30153.12
493.01	30941.88
493.19	30761.66
493.37	31168.91
493.54	31723.62
493.72	31480.21
493.90	31356.16
494.08	31988.10
494.25	31864.05
494.43	32528.77
494.61	32758.14
494.79	32645.79
494.96	32734.73
495.14	33259.01
495.32	33289.44
495.49	33317.53
495.67	33626.48
495.85	34045.43
496.02	33476.68
496.20	33930.75
496.38	34553.33
496.55	34396.51
496.73	35061.22
496.91	34511.20
497.09	34616.52
497.26	35023.78
497.44	35152.51
497.62	35388.90
497.79	36039.57
497.97	35585.50
498.14	36397.67
498.32	36334.48
498.50	36723.01
498.67	36636.41
498.85	36545.12
499.03	36952.38
499.20	36952.38
499.38	37134.94
499.56	37160.69
499.73	37586.66
499.91	37558.58
500.08	37851.14
500.26	37497.72
500.44	37970.51
500.61	37750.50
500.79	38078.18
500.97	38778.00
501.14	38845.87
501.32	38778.00
501.49	38745.23
501.67	38852.89
501.84	39189.93
502.02	38948.85
502.20	39206.31
502.37	39313.98
502.55	39208.65
502.72	39175.89
502.90	40030.18
503.07	39559.73
503.25	39833.58
503.43	39735.27
503.60	40154.23
503.78	40519.35
503.95	40268.92
504.13	40748.73
504.30	41062.36
504.48	40896.18
504.65	40690.21
504.83	41301.09
505.01	41174.70
505.18	41008.53
505.36	41921.34
505.53	41790.27
505.71	41727.07
505.88	42314.55
506.06	41790.27
506.23	42293.48
506.41	42211.56
506.58	42314.55
506.76	42265.39
506.93	43061.18
507.11	42483.06
507.28	43047.13
507.46	43173.52
507.63	43042.45
507.81	43812.49
507.98	43220.33
508.16	43133.73
508.33	43171.18
508.50	43819.51
508.68	43428.64
508.85	43976.33
509.03	43826.53
509.20	43807.81
509.38	44374.22
509.55	44598.91
509.73	44182.29
509.90	44671.46
510.08	44720.62
510.25	44587.21
510.42	44919.56
510.60	45343.20
510.77	45127.87
510.95	45474.27
511.12	45340.86
511.30	45645.13
511.47	45317.45
511.64	45460.23
511.82	46014.93
511.99	46094.51
512.17	46052.38
512.34	46183.45
512.51	46590.70
512.69	46438.57
512.86	46586.02
513.04	46644.54
513.21	46616.45
513.38	47185.20
513.56	47100.94
513.73	46986.25
513.90	47585.43
514.08	47246.05
514.25	47388.83
514.43	47351.38
514.60	47697.78
514.77	47711.82
514.95	47693.10
515.12	47583.09
515.29	47824.17
515.47	48217.38
515.64	48467.81
515.81	47983.32
515.99	48119.07
516.16	48683.14
516.33	48629.31
516.51	48615.27
516.68	48690.16
516.85	48711.23
517.03	48975.71
517.20	48919.54
517.37	48868.05
517.54	49153.59
517.72	49088.06
517.89	49001.46
518.06	49109.12
518.24	49441.48
518.41	49647.44
518.58	49340.83
518.75	49525.74
518.93	49602.97
519.10	49729.36
519.27	49998.52
519.45	50059.38
519.62	49890.86
519.79	50403.44
519.96	49979.80
520.14	50080.44
520.31	50443.23
520.48	50291.09
520.65	50499.40
520.83	50894.95
521.00	50595.36
521.17	50578.98
521.34	50864.52
521.52	51056.45
521.69	50890.27
521.86	50960.48
522.03	51487.10
522.20	51356.03
522.38	51594.77
522.55	51765.63
522.72	51447.32
522.89	51711.80
523.07	51540.94
523.24	51564.34
523.41	52041.81
523.58	51407.53
523.75	51936.49
523.92	51758.61
524.10	51746.90
524.27	52060.54
524.44	51948.19
524.61	52144.80
524.78	52224.37
524.96	52158.84
525.13	52530.98
525.30	52289.91
525.47	52336.72
525.64	52552.05
525.81	52748.65
525.98	53022.50
526.16	52910.15
526.33	52912.49
526.50	53048.24
526.67	53081.01
526.84	53062.29
527.01	53162.93
527.18	53081.01
527.36	53141.86
527.53	53111.44
527.70	53684.87
527.87	53485.92
528.04	53165.27
528.21	53499.97
528.38	53455.50
528.55	53764.45
528.72	53593.59
528.89	53682.53
529.07	53577.20
529.24	53528.05
529.41	53677.85
529.58	53872.11
529.75	53970.41
529.92	53722.32
530.09	54000.84
530.26	54096.80
530.43	54131.91
530.60	53925.94
530.77	54007.86
530.94	54230.21
531.11	54113.19
531.28	54382.35
531.46	54384.69
531.63	54347.24
531.80	54644.49
531.97	54454.90
532.14	54520.44
532.31	54677.25
532.48	54632.78
532.65	54789.60
532.82	54794.28
532.99	54686.62
533.16	54768.54
533.33	55079.83
533.50	55168.77
533.67	55056.42
533.84	55100.89
534.01	54632.78
534.18	55159.41
534.35	55238.98
534.52	54946.42
534.69	55168.77
534.86	55440.27
535.03	54965.14
535.20	55243.66
535.37	55564.32
535.54	55632.19
535.71	55524.53
535.88	55639.22
536.05	55564.32
536.22	55693.05
536.38	55803.05
536.55	55632.19
536.72	55831.14
536.89	55707.09
537.06	55606.45
537.23	55931.78
537.40	55903.70
537.57	55746.88
537.74	55669.64
537.91	55999.66
538.08	55994.98
538.25	55861.57
538.42	55985.61
538.59	56339.04
538.75	56051.15
538.92	55976.25
539.09	56107.32
539.26	56320.31
539.43	56121.37
539.60	56399.89
539.77	56233.71
539.94	56802.46
540.11	56575.43
540.28	56547.34
540.44	56767.35
540.61	56575.43
540.78	56533.30
540.95	56638.62
541.12	56413.93
541.29	56488.83
541.46	56655.01
541.62	56830.55
541.79	56715.86
541.96	56537.98
542.13	56638.62
542.30	56781.40
542.47	57038.86
542.63	56814.16
542.80	57015.45
542.97	56985.02
543.14	57310.36
543.31	57282.27
543.48	57326.74
543.64	57495.26
543.81	57469.51
543.98	57413.34
544.15	57570.16
544.32	57382.91
544.48	57895.49
544.65	57602.92
544.82	57682.50
544.99	57530.37
545.16	57689.52
545.32	57396.96
545.49	57841.66
545.66	57745.70
545.83	57591.22
546.00	57893.15
546.16	57872.09
546.33	57851.02
546.50	57513.98
546.67	57836.98
546.83	57593.56
547.00	57827.62
547.17	57743.36
547.34	58026.56
547.50	58211.46
547.67	58314.45
547.84	58438.50
548.00	58211.46
548.17	58232.53
548.34	58136.57
548.51	58188.06
548.67	58316.79
548.84	58342.53
549.01	58185.72
549.18	58178.70
549.34	58176.36
549.51	58436.16
549.68	58518.07
549.84	58272.32
550.01	58679.57
550.18	58269.98
550.34	58707.66
550.51	58597.65
550.68	58536.80
550.84	58159.97
551.01	58569.57
551.18	58518.07
551.34	58592.97
551.51	58525.10
551.68	58599.99
551.84	58592.97
552.01	58525.10
552.18	58749.79
552.34	58681.91
552.51	58681.91
552.68	58665.53
552.84	58848.09
553.01	59147.68
553.18	59131.29
553.34	58906.60
553.51	59049.38
553.67	58843.41
553.84	59161.72
554.01	59051.72
554.17	59049.38
554.34	59245.98
554.51	59063.42
554.67	59243.64
554.84	59126.61
555.00	58960.44
555.17	59063.42
555.33	59098.53
555.50	59016.61
555.67	59152.36
555.83	59072.78
556.00	59166.40
556.16	59536.21
556.33	59290.45
556.50	59292.79
556.66	59601.74
556.83	59089.16
556.99	59515.14
557.16	59625.15
557.32	59564.29
557.49	59707.07
557.65	59243.64
557.82	59540.89
557.98	59508.12
558.15	59601.74
558.32	59594.72
558.48	59423.86
558.65	59496.42
558.81	59590.04
558.98	59491.74
559.14	59763.24
559.31	59913.03
559.47	59898.99
559.64	59618.13
559.80	59732.81
559.97	59917.71
560.13	59620.47
560.30	59702.38
560.46	59779.62
560.63	59943.46
560.79	59898.99
560.96	59971.55
561.12	60095.60
561.29	59728.13
561.45	60090.91
561.61	59868.56
561.78	59847.50
561.94	59959.84
562.11	59882.61
562.27	59964.52
562.44	60009.00
562.60	60250.07
562.77	60041.76
562.93	59906.01
563.10	60294.54
563.26	59880.27
563.42	60020.70
563.59	60259.43
563.75	60172.83
563.92	60233.69
564.08	60065.17
564.24	60168.15
564.41	60119.00
564.57	60205.60
564.74	60339.01
564.90	60212.62
565.07	60137.72
565.23	60126.02
565.39	60299.22
565.56	60093.25
565.72	60163.47
565.88	60444.33
566.05	60168.15
566.21	60163.47
566.38	60245.39
566.54	60353.05
566.70	60488.80
566.87	60346.03
567.03	60053.47
567.19	60477.10
567.36	60439.65
567.52	60367.10
567.68	60711.16
567.85	60568.38
568.01	60427.95
568.17	60306.24
568.34	60397.52
568.50	60509.87
568.66	60430.29
568.83	60500.51
568.99	60402.21
569.15	60317.95
569.32	60491.15
569.48	60589.45
569.64	60430.29
569.81	60395.18
569.97	60381.14
570.13	60563.70
570.30	60163.47
570.46	60624.56
570.62	60575.40
570.78	60608.17
570.95	60523.91
571.11	60741.58
571.27	60488.80
571.43	60601.15
571.60	60523.91
571.76	60580.09
571.92	60750.94
572.09	60664.35
572.25	60858.61
572.41	60720.52
572.57	60521.57
572.74	60722.86
572.90	60659.66
573.06	60807.12
573.22	60882.02
573.38	60739.24
573.55	60601.15
573.71	61003.72
573.87	60889.04
574.03	60488.80
574.20	60772.01
574.36	60715.84
574.52	60755.63
574.68	60912.44
574.84	60977.98
575.01	60800.10
575.17	60640.94
575.33	60729.88
575.49	60645.62
575.65	60877.33
575.82	61078.62
575.98	60832.86
576.14	61113.73
576.30	60795.42
576.46	60729.88
576.62	60977.98
576.79	60865.63
576.95	60729.88
577.11	60914.78
577.27	61069.26
577.43	60882.02
577.59	60856.27
577.75	60975.64
577.92	60884.36
578.08	60762.65
578.24	60987.34
578.40	61066.92
578.56	61125.43
578.72	61045.85
578.88	61186.28
579.04	61090.32
579.21	60919.46
579.37	61087.98
579.53	60865.63
579.69	60842.23
579.85	60945.21
580.01	61006.06
580.17	60774.35
580.33	60973.30
580.49	61106.71
580.65	60940.53
580.82	61015.43
580.98	61146.50
581.14	60856.27
581.30	61293.95
581.46	60977.98
581.62	61139.47
581.78	60924.14
581.94	61141.81
582.10	61003.72
582.26	61029.47
582.42	60914.78
582.58	60926.49
582.74	60814.14
582.90	61083.30
583.06	60919.46
583.22	60811.80
583.38	60989.68
583.54	60917.12
583.70	61095.00
583.86	61038.83
584.02	61078.62
584.18	61251.82
584.34	61104.37
584.50	61020.11
584.66	61038.83
584.82	60898.40
584.98	61329.06
585.14	61261.18
585.30	61001.38
585.46	61095.00
585.62	61036.49
585.78	61095.00
585.94	60863.29
586.10	61013.08
586.26	61097.34
586.42	60980.32
586.58	61235.44
586.74	61183.94
586.90	61083.30
587.06	61010.74
587.22	61305.65
587.38	60985.00
587.54	61389.91
587.70	61439.06
587.86	61169.90
588.02	61043.51
588.18	61446.08
588.34	61169.90
