SpectraSuite Data File
++++++++++++++++++++++++++++++++++++
Date: Fri Oct 25 11:23:17 EDT 2013
User: price-jones
Dark Spectrum Present: No
Reference Spectrum Present: No
Number of Sampled Component Spectra: 1
Spectrometers: USB2+H05261
Integration Time (usec): 100000 (USB2+H05261)
Spectra Averaged: 1 (USB2+H05261)
Boxcar Smoothing: 0 (USB2+H05261)
Correct for Electrical Dark: No (USB2+H05261)
Strobe/Lamp Enabled: No (USB2+H05261)
Correct for Detector Non-linearity: No (USB2+H05261)
Correct for Stray Light: No (USB2+H05261)
Number of Pixels in Processed Spectrum: 2048
>>>>>Begin Processed Spectral Data<<<<<
365.73	245.76
365.92	245.76
366.12	245.76
366.32	117.03
366.52	163.84
366.72	110.01
366.91	72.56
367.11	95.96
367.31	100.64
367.51	142.77
367.70	95.96
367.90	79.58
368.10	100.64
368.30	102.98
368.49	159.16
368.69	159.16
368.89	117.03
369.09	161.50
369.28	124.05
369.48	112.35
369.68	187.24
369.87	227.03
370.07	131.07
370.27	210.65
370.47	353.42
370.66	582.79
370.86	660.03
371.06	720.88
371.25	678.76
371.45	697.48
371.65	702.16
371.84	770.04
372.04	648.33
372.24	664.71
372.44	716.20
372.63	791.10
372.83	753.65
373.03	791.10
373.22	791.10
373.42	788.76
373.62	842.59
373.81	809.83
374.01	814.51
374.21	765.36
374.40	777.06
374.60	905.79
374.79	788.76
374.99	772.38
375.19	833.23
375.38	877.70
375.58	786.42
375.78	866.00
375.97	954.94
376.17	950.26
376.37	870.68
376.56	854.30
376.76	880.04
376.95	884.72
377.15	929.19
377.35	971.32
377.54	837.91
377.74	866.00
377.93	842.59
378.13	1018.13
378.33	1022.81
378.52	842.59
378.72	938.55
378.91	947.92
379.11	823.87
379.31	957.28
379.50	940.90
379.70	1008.77
379.89	1015.79
380.09	861.32
380.28	980.68
380.48	959.62
380.68	976.00
380.87	980.68
381.07	973.66
381.26	1076.65
381.46	1027.50
381.65	1043.88
381.85	964.30
382.04	1055.58
382.24	1032.18
382.43	1062.60
382.63	1036.86
382.83	952.60
383.02	1097.71
383.22	1165.59
383.41	1043.88
383.61	1137.50
383.80	1172.61
384.00	1081.33
384.19	1186.65
384.39	1233.46
384.58	1144.52
384.78	1203.04
384.97	1167.93
385.17	1221.76
385.36	1069.62
385.56	1196.01
385.75	1151.54
385.95	1212.40
386.14	1263.89
386.34	1144.52
386.53	1188.99
386.72	1179.63
386.92	1275.59
387.11	1289.64
387.31	1266.23
387.50	1231.12
387.70	1231.12
387.89	1291.98
388.09	1242.82
388.28	1284.95
388.48	1327.08
388.67	1350.49
388.86	1373.89
389.06	1355.17
389.25	1357.51
389.45	1390.28
389.64	1366.87
389.84	1385.60
390.03	1448.79
390.22	1441.77
390.42	1352.83
390.61	1350.49
390.81	1446.45
391.00	1355.17
391.19	1437.09
391.39	1516.67
391.58	1481.56
391.78	1448.79
391.97	1526.03
392.16	1451.13
392.36	1596.25
392.55	1579.86
392.75	1507.30
392.94	1526.03
393.13	1636.03
393.33	1533.05
393.52	1551.78
393.71	1568.16
393.91	1614.97
394.10	1633.69
394.29	1654.76
394.49	1729.66
394.68	1666.46
394.88	1624.33
395.07	1685.19
395.26	1666.46
395.46	1689.87
395.65	1736.68
395.84	1666.46
396.04	1762.42
396.23	1732.00
396.42	1717.95
396.62	1863.07
396.81	1750.72
397.00	1811.57
397.19	1769.44
397.39	1699.23
397.58	1872.43
397.77	1863.07
397.97	1849.02
398.16	1783.49
398.35	1982.43
398.55	1898.17
398.74	1916.90
398.93	1987.11
399.12	1935.62
399.32	1858.39
399.51	1980.09
399.70	2029.24
399.90	1933.28
400.09	2097.12
400.28	2143.93
400.47	2101.80
400.67	2134.57
400.86	2022.22
401.05	2078.40
401.24	2202.44
401.44	2092.44
401.63	2146.27
401.82	2118.18
402.01	2139.25
402.21	2069.03
402.40	2275.00
402.59	2155.63
402.78	2242.23
402.97	2197.76
403.17	2328.83
403.36	2183.72
403.55	2352.24
403.74	2296.07
403.93	2363.94
404.13	2471.61
404.32	2443.52
404.51	2429.48
404.70	2445.86
404.89	2385.01
405.09	2532.46
405.28	2452.88
405.47	2539.48
405.66	2562.89
405.85	2562.89
406.05	2569.91
406.24	2644.81
406.43	2605.02
406.62	2630.76
406.81	2752.47
407.00	2537.14
407.20	2640.12
407.39	2747.79
407.58	2743.11
407.77	2789.92
407.96	2754.81
408.15	2792.26
408.34	2745.45
408.54	2813.32
408.73	2691.62
408.92	2808.64
409.11	2911.63
409.30	3021.63
409.49	2995.89
409.68	2988.86
409.87	2925.67
410.07	2974.82
410.26	2937.37
410.45	2991.20
410.64	2956.10
410.83	3197.17
411.02	3194.83
411.21	3258.03
411.40	3133.98
411.59	3243.98
411.78	3112.91
411.98	3199.51
412.17	3358.67
412.36	3316.54
412.55	3323.56
412.74	3407.82
412.93	3255.69
413.12	3377.39
413.31	3641.87
413.50	3520.17
413.69	3588.04
413.88	3576.34
414.07	3648.90
414.26	3737.84
414.45	3623.15
414.64	3723.79
414.83	3812.73
415.02	3702.73
415.22	3822.09
415.41	3920.40
415.60	3873.59
415.79	3939.12
415.98	4004.66
416.17	4042.11
416.36	4046.79
416.55	3985.93
416.74	3985.93
416.93	4100.62
417.12	4074.87
417.31	4196.58
417.50	4133.39
417.69	4414.25
417.88	4215.30
418.07	4397.87
418.26	4337.01
418.45	4159.13
418.64	4514.89
418.83	4463.40
419.02	4409.57
419.21	4622.56
419.39	4421.27
419.58	4585.11
419.77	4505.53
419.96	4552.34
420.15	4589.79
420.34	4779.37
420.53	4704.48
420.72	4863.63
420.91	4772.35
421.10	4755.97
421.29	4842.57
421.48	4685.75
421.67	4891.72
421.86	4816.82
422.05	4837.89
422.24	4865.97
422.43	4936.19
422.61	4912.78
422.80	5060.24
422.99	4997.04
423.18	5193.65
423.37	5018.11
423.56	4908.10
423.75	4891.72
423.94	4880.02
424.13	4648.30
424.32	4765.33
424.50	5015.77
424.69	5186.63
424.88	5102.37
425.07	4961.94
425.26	5029.81
425.45	5153.86
425.64	4917.47
425.83	4919.81
426.01	5018.11
426.20	5085.98
426.39	5093.01
426.58	5121.09
426.77	4910.44
426.96	5287.27
427.15	5184.29
427.33	5266.21
427.52	5394.93
427.71	5338.76
427.90	5254.50
428.09	5263.86
428.28	5589.20
428.46	5207.69
428.65	5296.63
428.84	5572.82
429.03	5549.41
429.22	5423.02
429.40	5472.17
429.59	5565.79
429.78	5430.04
429.97	5336.42
430.16	5446.43
430.34	5628.99
430.53	5710.91
430.72	5673.46
430.91	5593.88
431.10	5755.38
431.28	5767.08
431.47	5781.12
431.66	5846.66
431.85	5907.51
432.03	5994.11
432.22	6066.67
432.41	6181.35
432.60	6010.50
432.79	6001.13
432.97	6162.63
433.16	6125.18
433.35	6176.67
433.54	6232.85
433.72	6090.07
433.91	6260.93
434.10	6179.01
434.28	6324.13
434.47	6176.67
434.66	6588.61
434.85	6483.28
435.03	6335.83
435.22	6118.16
435.41	6609.67
435.59	6562.86
435.78	6445.84
435.97	6600.31
436.16	6696.27
436.34	6675.21
436.53	6553.50
436.72	6827.34
436.90	6487.96
437.09	6747.76
437.28	6602.65
437.46	6773.51
437.65	6754.79
437.84	6752.45
438.02	6815.64
438.21	6881.18
438.40	6820.32
438.58	7084.80
438.77	7215.87
438.96	6972.46
439.14	7243.96
439.33	7323.54
439.52	7377.37
439.70	7356.30
439.89	7410.14
440.08	7524.82
440.26	7531.84
440.45	7555.25
440.63	7569.29
440.82	7768.24
441.01	7597.38
441.19	7693.34
441.38	7925.05
441.57	7885.26
441.75	7831.43
441.94	8140.38
442.12	8175.49
442.31	8149.75
442.50	8269.11
442.68	8058.46
442.87	8264.43
443.05	8107.62
443.24	8269.11
443.43	8358.05
443.61	8489.12
443.80	8697.43
443.98	8119.32
444.17	8032.72
444.35	8379.12
444.54	8512.53
444.73	8475.08
444.91	8322.94
445.10	8386.14
445.28	8421.25
445.47	8280.82
445.65	8390.82
445.84	8430.61
446.02	8645.94
446.21	8341.67
446.39	8400.18
446.58	8699.77
446.77	8542.96
446.95	8402.52
447.14	8540.61
447.32	8856.59
447.51	8624.87
447.69	8454.02
447.88	8526.57
448.06	8667.00
448.25	8503.17
448.43	8573.38
448.62	8697.43
448.80	8671.68
448.99	8812.12
449.17	8884.67
449.36	8812.12
449.54	8889.35
449.73	8933.82
449.91	8973.61
450.10	8964.25
450.28	9090.64
450.46	8959.57
450.65	8999.36
450.83	9090.64
451.02	9095.32
451.20	9291.93
451.39	9144.47
451.57	9174.90
451.76	9067.24
451.94	9186.60
452.13	9458.10
452.31	9336.40
452.49	9228.73
452.68	9497.89
452.86	9413.63
453.05	9537.68
453.23	9488.53
453.42	9521.30
453.60	9563.43
453.78	9706.20
453.97	9579.81
454.15	9507.26
454.34	9324.69
454.52	9832.59
454.70	9703.86
454.89	9848.97
455.07	9870.04
455.26	9902.81
455.44	9977.70
455.62	10101.75
455.81	10024.51
455.99	10207.08
456.17	10284.31
456.36	10136.86
456.54	10349.85
456.73	10443.47
456.91	10607.31
457.09	10597.95
457.28	10719.65
457.46	10459.85
457.64	10621.35
457.83	10633.05
458.01	10789.87
458.19	10691.57
458.38	10743.06
458.56	10995.84
458.74	10768.80
458.93	10499.64
459.11	11033.29
459.29	10864.77
459.48	11042.65
459.66	10729.02
459.84	10965.41
460.03	11136.27
460.21	10963.07
460.39	11176.06
460.57	11133.93
460.76	11293.08
460.94	11279.04
461.12	11286.06
461.31	11164.36
461.49	11300.11
461.67	11431.18
461.85	11543.52
462.04	11550.54
462.22	11719.06
462.40	11861.84
462.59	11307.13
462.77	11623.10
462.95	11864.18
463.13	11868.86
463.32	11716.72
463.50	11700.34
463.68	11988.22
463.86	11967.16
464.05	11714.38
464.23	11857.15
464.41	11939.07
464.59	11962.48
464.78	12311.22
464.96	12194.19
465.14	11896.94
465.32	11992.90
465.50	12311.22
465.69	12362.71
465.87	12212.92
466.05	12292.49
466.23	12210.57
466.41	12184.83
466.60	12540.59
466.78	12336.96
466.96	12283.13
467.14	12430.59
467.32	12393.14
467.51	12872.95
467.69	12123.98
467.87	12699.75
468.05	12755.92
468.23	12489.10
468.41	12636.55
468.60	12699.75
468.78	12564.00
468.96	12671.66
469.14	12863.58
469.32	13191.26
469.50	12872.95
469.69	13249.77
469.87	13160.83
470.05	13111.68
470.23	13238.07
470.41	13256.79
470.59	13406.59
470.77	13280.20
470.95	13387.86
471.14	13907.46
471.32	13369.14
471.50	13816.18
471.68	13680.43
471.86	13820.86
472.04	13809.16
472.22	14104.07
472.40	13944.91
472.58	14136.84
472.77	14211.73
472.95	14288.97
473.13	14721.97
473.31	14441.11
473.49	14455.15
473.67	14207.05
473.85	14286.63
474.03	14775.80
474.21	14651.75
474.39	14930.28
474.57	14918.57
474.75	15075.39
474.93	15176.03
475.12	15087.09
475.30	15379.66
475.48	15145.61
475.66	15178.37
475.84	15250.93
476.02	15716.70
476.20	15859.47
476.38	16004.58
476.56	16346.30
476.74	15864.15
476.92	15920.32
477.10	15756.49
477.28	16248.00
477.46	16416.52
477.64	16463.33
477.82	16851.86
478.00	17224.00
478.18	17188.89
478.36	17177.19
478.54	17291.88
478.72	17401.88
478.90	17488.48
479.08	17944.89
479.26	17771.69
479.44	17710.83
479.62	18328.74
479.80	18361.50
479.98	18279.58
480.16	18925.57
480.34	18434.06
480.52	18881.10
480.70	18586.19
480.88	18448.10
481.06	19058.98
481.24	19030.90
481.41	19119.84
481.59	19477.94
481.77	19730.72
481.95	19653.48
482.13	19908.60
482.31	19761.14
482.49	20432.88
482.67	20388.41
482.85	20205.84
483.03	20896.30
483.21	21106.95
483.39	21078.86
483.57	21221.64
483.74	21497.82
483.92	21535.27
484.10	21591.44
484.28	21919.12
484.46	22192.96
484.64	22183.60
484.82	22181.26
485.00	22328.71
485.18	23037.89
485.35	22955.97
485.53	23173.64
485.71	23061.30
485.89	23920.28
486.07	23489.62
486.25	24144.97
486.43	23854.74
486.61	24381.36
486.78	24098.16
486.96	24762.87
487.14	24968.84
487.32	24624.78
487.50	24996.92
487.68	25284.81
487.85	25469.71
488.03	26038.46
488.21	26373.16
488.39	26094.63
488.57	26382.52
488.75	26417.63
488.92	26810.84
489.10	27225.11
489.28	27419.38
489.46	27264.90
489.64	27728.33
489.81	28140.26
489.99	27758.75
490.17	28156.64
490.35	28091.11
490.53	28753.48
490.70	28662.20
490.88	28397.72
491.06	29317.55
491.24	29298.83
491.41	29350.32
491.59	29898.00
491.77	29668.63
491.95	30050.14
492.13	30211.64
492.30	30183.55
492.48	30607.19
492.66	30532.29
492.84	30735.92
493.01	31016.78
493.19	30920.82
493.37	31498.93
493.54	31655.75
493.72	31667.45
493.90	31775.11
494.08	31999.80
494.25	32149.60
494.43	32362.59
494.61	32584.94
494.79	32854.10
494.96	32973.47
495.14	33170.07
495.32	33624.14
495.49	33373.70
495.67	33804.36
495.85	33956.49
496.02	33996.28
496.20	34220.97
496.38	34539.29
496.55	34745.25
496.73	35377.20
496.91	34455.03
497.09	35042.50
497.26	35517.63
497.44	35016.75
497.62	35803.17
497.79	35992.76
497.97	35943.61
498.14	36112.13
498.32	36706.62
498.50	36407.03
498.67	36662.15
498.85	36339.16
499.03	37333.89
499.20	36795.56
499.38	37544.53
499.56	37556.24
499.73	37371.33
499.91	37801.99
500.08	38429.26
500.26	38047.75
500.44	38132.01
500.61	38267.76
500.79	38176.48
500.97	38782.68
501.14	38876.30
501.32	38890.34
501.49	39079.92
501.67	39115.03
501.84	39445.05
502.02	39175.89
502.20	39812.51
502.37	39824.22
502.55	39463.77
502.72	40107.42
502.90	39896.77
503.07	40121.46
503.25	40250.19
503.43	40147.21
503.60	40617.66
503.78	40818.94
503.95	40811.92
504.13	40879.80
504.30	41050.66
504.48	40847.03
504.65	41195.77
504.83	41127.89
505.01	41380.67
505.18	41525.78
505.36	41635.79
505.53	41656.85
505.71	41862.82
505.88	42054.75
506.06	42007.94
506.23	42522.85
506.41	42209.22
506.58	42621.16
506.76	42749.88
506.93	43063.52
507.11	42873.93
507.28	42983.94
507.46	43084.58
507.63	43239.06
507.81	43491.83
507.98	43494.18
508.16	43594.82
508.33	43749.29
508.50	43882.70
508.68	44072.29
508.85	44545.08
509.03	44509.97
509.20	44360.17
509.38	44821.26
509.55	45057.65
509.73	44516.99
509.90	45240.21
510.08	45120.85
510.25	45251.92
510.42	45404.05
510.60	45729.39
510.77	45787.90
510.95	45439.16
511.12	45633.42
511.30	45998.55
511.47	46344.95
511.64	45818.33
511.82	46490.06
511.99	46143.66
512.17	46447.93
512.34	45808.96
512.51	47089.24
512.69	46815.40
512.86	46588.36
513.04	46906.68
513.21	47232.01
513.38	47337.33
513.56	47232.01
513.73	47550.32
513.90	47428.62
514.08	47234.35
514.25	47634.58
514.43	47899.06
514.60	48025.45
514.77	47746.93
514.95	48355.47
515.12	47899.06
515.29	47852.25
515.47	48636.33
515.64	48774.42
515.81	48299.30
515.99	48662.08
516.16	48914.86
516.33	48912.52
516.51	49123.16
516.68	49085.72
516.85	48968.69
517.03	49261.26
517.20	49284.66
517.37	49240.19
517.54	49020.18
517.72	49099.76
517.89	49256.57
518.06	49509.35
518.24	49776.17
518.41	49687.23
518.58	49741.06
518.75	49771.49
518.93	50064.06
519.10	49848.73
519.27	49759.79
519.45	50525.14
519.62	50426.84
519.79	50588.34
519.96	50358.97
520.14	50731.11
520.31	50642.17
520.48	50738.13
520.65	50754.52
520.83	50951.12
521.00	51213.26
521.17	50827.07
521.34	51079.85
521.52	51341.99
521.69	51351.35
521.86	51325.61
522.03	51821.80
522.20	51569.02
522.38	51667.33
522.55	51723.50
522.72	51805.42
522.89	51742.22
523.07	52404.59
523.24	52257.14
523.41	52388.21
523.58	52076.92
523.75	52383.53
523.92	52299.27
524.10	52774.40
524.27	52474.81
524.44	52587.16
524.61	52327.36
524.78	52570.77
524.96	52423.32
525.13	52598.86
525.30	52786.10
525.47	52802.49
525.64	52612.90
525.81	52938.24
525.98	52975.69
526.16	52580.13
526.33	52823.55
526.50	53544.44
526.67	53212.08
526.84	53179.31
527.01	53029.52
527.18	53064.63
527.36	53228.46
527.53	53439.11
527.70	53712.95
527.87	53652.10
528.04	53411.02
528.21	53471.88
528.38	53729.34
528.55	54005.52
528.72	53708.27
528.89	53808.92
529.07	53670.82
529.24	53717.64
529.41	54321.49
529.58	53722.32
529.75	54145.95
529.92	54045.31
530.09	54295.75
530.26	54241.92
530.43	54363.62
530.60	54066.38
530.77	53989.14
530.94	54401.07
531.11	54368.30
531.28	54513.42
531.46	54499.37
531.63	54293.41
531.80	54569.59
531.97	54482.99
532.14	54827.05
532.31	54843.43
532.48	54862.16
532.65	54869.18
532.82	54901.95
532.99	55011.95
533.16	54871.52
533.33	54913.65
533.50	55077.49
533.67	55079.83
533.84	55000.25
534.01	55304.52
534.18	55288.13
534.35	55817.10
534.52	55220.26
534.69	55554.96
534.86	55578.36
535.03	55292.82
535.20	55320.90
535.37	55374.73
535.54	55770.28
535.71	55489.42
535.88	55725.81
536.05	55683.69
536.22	55852.20
536.38	55934.12
536.55	55941.14
536.72	55987.95
536.89	55924.76
537.06	55845.18
537.23	56069.87
537.40	55789.01
537.57	56140.09
537.74	55817.10
537.91	56287.54
538.08	56385.85
538.25	55887.31
538.42	56376.48
538.59	56231.37
538.75	56032.42
538.92	56369.46
539.09	56493.51
539.26	56491.17
539.43	56460.74
539.60	56474.79
539.77	56406.91
539.94	56671.39
540.11	56631.60
540.28	56765.01
540.44	56608.20
540.61	56790.76
540.78	56839.91
540.95	56638.62
541.12	56786.08
541.29	56917.15
541.46	56907.79
541.62	56914.81
541.79	57102.05
541.96	56767.35
542.13	56711.18
542.30	56933.53
542.47	57167.58
542.63	57324.40
542.80	57340.78
542.97	57333.76
543.14	57439.09
543.31	57396.96
543.48	57301.00
543.64	57811.23
543.81	57717.61
543.98	57532.71
544.15	57670.80
544.32	57881.45
544.48	57841.66
544.65	57631.01
544.82	57647.39
544.99	57598.24
545.16	57766.76
545.32	57616.97
545.49	57916.56
545.66	57979.75
545.83	57858.04
546.00	57895.49
546.16	58000.82
546.33	57790.17
546.50	57811.23
546.67	58181.04
546.83	57677.82
547.00	58056.99
547.17	58073.37
547.34	57968.05
547.50	58251.25
547.67	58401.05
547.84	58239.55
548.00	58454.88
548.17	58536.80
548.34	58183.38
548.51	58433.81
548.67	58623.40
548.84	58351.90
549.01	58501.69
549.18	58398.71
549.34	58616.38
549.51	58431.47
549.68	58880.86
549.84	58604.67
550.01	58623.40
550.18	58646.80
550.34	58569.57
550.51	58995.54
550.68	58735.74
550.84	58567.23
551.01	58972.14
551.18	58724.04
551.34	58726.38
551.51	58848.09
551.68	58904.26
551.84	58859.79
552.01	58705.32
552.18	58899.58
552.34	58843.41
552.51	58932.35
552.68	58894.90
552.84	58848.09
553.01	59124.27
553.18	59040.01
553.34	59058.74
553.51	59063.42
553.67	59084.48
553.84	59264.70
554.01	59320.88
554.17	59231.94
554.34	59358.33
554.51	59384.07
554.67	59255.34
554.84	59192.15
555.00	59126.61
555.17	59217.89
555.33	59393.43
555.50	59159.38
555.67	59245.98
555.83	59267.05
556.00	59311.52
556.16	59707.07
556.33	59650.89
556.50	59524.50
556.66	59620.47
556.83	59334.92
556.99	59798.35
557.16	59882.61
557.32	59700.04
557.49	59957.50
557.65	59531.53
557.82	59873.24
557.98	59749.20
558.15	59540.89
558.32	59664.94
558.48	59498.76
558.65	59742.17
558.81	59674.30
558.98	59810.05
559.14	60011.34
559.31	59978.57
559.47	59814.73
559.64	60062.83
559.80	59934.10
559.97	59915.37
560.13	59847.50
560.30	60095.60
560.46	59889.63
560.63	60086.23
560.79	60250.07
560.96	60191.56
561.12	60147.09
561.29	60233.69
561.45	60191.56
561.61	59971.55
561.78	59943.46
561.94	59906.01
562.11	60109.64
562.27	60275.82
562.44	60111.98
562.60	60306.24
562.77	60243.05
562.93	59936.44
563.10	60175.17
563.26	59948.14
563.42	60413.91
563.59	60374.12
563.75	60257.09
563.92	60423.27
564.08	60177.51
564.24	60530.93
564.41	60374.12
564.57	60449.02
564.74	60481.78
564.90	60444.33
565.07	60404.55
565.23	60488.80
565.39	60385.82
565.56	60477.10
565.72	60418.59
565.88	60465.40
566.05	60378.80
566.21	60439.65
566.38	60247.73
566.54	60463.06
566.70	60603.49
566.87	60685.41
567.03	60465.40
567.19	60790.73
567.36	60491.15
567.52	60617.53
567.68	60764.99
567.85	60645.62
568.01	60673.71
568.17	60596.47
568.34	60664.35
568.50	60687.75
568.66	60409.23
568.83	60769.67
568.99	60587.11
569.15	60598.81
569.32	60856.27
569.48	60762.65
569.64	60743.92
569.81	60818.82
569.97	60360.08
570.13	60907.76
570.30	60692.43
570.46	60757.97
570.62	60750.94
570.78	60940.53
570.95	60694.77
571.11	61015.43
571.27	60804.78
571.43	60657.32
571.60	61027.13
571.76	60987.34
571.92	60926.49
572.09	60994.36
572.25	61029.47
572.41	60736.90
572.57	60762.65
572.74	60977.98
572.90	60851.59
573.06	60896.06
573.22	60800.10
573.38	60919.46
573.55	60996.70
573.71	61048.19
573.87	60793.07
574.03	60889.04
574.20	61080.96
574.36	60928.83
574.52	61066.92
574.68	61029.47
574.84	61240.12
575.01	61118.41
575.17	61034.15
575.33	60973.30
575.49	60963.93
575.65	61078.62
575.82	61045.85
575.98	61123.09
576.14	61172.24
576.30	61095.00
576.46	60863.29
576.62	61116.07
576.79	60905.42
576.95	60877.33
577.11	61050.53
577.27	61006.06
577.43	61148.84
577.59	60933.51
577.75	61022.45
577.92	60839.89
578.08	61050.53
578.24	61111.39
578.40	61176.92
578.56	61350.12
578.72	61205.01
578.88	61530.34
579.04	61502.26
579.21	61181.60
579.37	61132.45
579.53	61190.97
579.69	60977.98
579.85	60989.68
580.01	61003.72
580.17	61015.43
580.33	61197.99
580.49	61181.60
580.65	61244.80
580.82	61160.54
580.98	61106.71
581.14	61034.15
581.30	61244.80
581.46	61043.51
581.62	61219.05
581.78	61228.41
581.94	61343.10
582.10	61092.66
582.26	61228.41
582.42	61158.20
582.58	61090.32
582.74	61130.11
582.90	61097.34
583.06	61174.58
583.22	61052.87
583.38	61286.93
583.54	61326.72
583.70	61312.67
583.86	61261.18
584.02	61408.64
584.18	61329.06
584.34	61340.76
584.50	61368.85
584.66	61352.46
584.82	60926.49
584.98	61354.80
585.14	61443.74
585.30	61099.68
585.46	61167.56
585.62	61151.18
585.78	61415.66
585.94	61300.97
586.10	61279.91
586.26	61350.12
586.42	61312.67
586.58	61457.79
586.74	61216.71
586.90	61233.10
587.06	61212.03
587.22	61300.97
587.38	61425.02
587.54	61490.55
587.70	61567.79
587.86	61310.33
588.02	61389.91
588.18	61378.21
588.34	61291.61
588.49	61244.80
