SpectraSuite Data File
++++++++++++++++++++++++++++++++++++
Date: Fri Oct 25 11:23:25 EDT 2013
User: price-jones
Dark Spectrum Present: No
Reference Spectrum Present: No
Number of Sampled Component Spectra: 1
Spectrometers: USB2+H05261
Integration Time (usec): 100000 (USB2+H05261)
Spectra Averaged: 1 (USB2+H05261)
Boxcar Smoothing: 0 (USB2+H05261)
Correct for Electrical Dark: No (USB2+H05261)
Strobe/Lamp Enabled: No (USB2+H05261)
Correct for Detector Non-linearity: No (USB2+H05261)
Correct for Stray Light: No (USB2+H05261)
Number of Pixels in Processed Spectrum: 2048
>>>>>Begin Processed Spectral Data<<<<<
365.73	259.80
365.92	259.80
366.12	259.80
366.32	198.95
366.52	56.17
366.72	194.26
366.91	180.22
367.11	159.16
367.31	30.43
367.51	170.86
367.70	119.37
367.90	163.84
368.10	161.50
368.30	67.88
368.49	154.48
368.69	145.11
368.89	107.66
369.09	184.90
369.28	173.20
369.48	126.39
369.68	182.56
369.87	154.48
370.07	182.56
370.27	189.58
370.47	290.23
370.66	573.43
370.86	636.63
371.06	645.99
371.25	697.48
371.45	650.67
371.65	737.27
371.84	678.76
372.04	638.97
372.24	674.07
372.44	814.51
372.63	725.57
372.83	755.99
373.03	739.61
373.22	765.36
373.42	751.31
373.62	716.20
373.81	833.23
374.01	727.91
374.21	814.51
374.40	739.61
374.60	842.59
374.79	833.23
374.99	826.21
375.19	798.12
375.38	837.91
375.58	861.32
375.78	833.23
375.97	821.53
376.17	936.21
376.37	936.21
376.56	882.38
376.76	884.72
376.95	952.60
377.15	889.40
377.35	821.53
377.54	943.24
377.74	968.98
377.93	968.98
378.13	898.77
378.33	894.08
378.52	870.68
378.72	961.96
378.91	959.62
379.11	837.91
379.31	973.66
379.50	997.07
379.70	971.32
379.89	1053.24
380.09	940.90
380.28	990.05
380.48	971.32
380.68	933.87
380.87	1048.56
381.07	1027.50
381.26	1001.75
381.46	985.37
381.65	1001.75
381.85	1036.86
382.04	1046.22
382.24	1102.39
382.43	1022.81
382.63	1046.22
382.83	1048.56
383.02	1090.69
383.22	1181.97
383.41	1086.01
383.61	1090.69
383.80	1107.07
384.00	1062.60
384.19	1181.97
384.39	1083.67
384.58	1093.03
384.78	1149.20
384.97	1186.65
385.17	1123.46
385.36	1111.75
385.56	1137.50
385.75	1170.27
385.95	1240.48
386.14	1181.97
386.34	1228.78
386.53	1287.29
386.72	1203.04
386.92	1200.69
387.11	1235.80
387.31	1217.08
387.50	1231.12
387.70	1242.82
387.89	1217.08
388.09	1207.72
388.28	1259.21
388.48	1334.11
388.67	1270.91
388.86	1273.25
389.06	1399.64
389.25	1390.28
389.45	1357.51
389.64	1376.24
389.84	1380.92
390.03	1350.49
390.22	1387.94
390.42	1329.42
390.61	1350.49
390.81	1434.75
391.00	1479.22
391.19	1394.96
391.39	1399.64
391.58	1474.54
391.78	1460.49
391.97	1561.14
392.16	1437.09
392.36	1591.56
392.55	1507.30
392.75	1584.54
392.94	1479.22
393.13	1544.75
393.33	1523.69
393.52	1507.30
393.71	1481.56
393.91	1535.39
394.10	1540.07
394.29	1624.33
394.49	1575.18
394.68	1626.67
394.88	1629.01
395.07	1659.44
395.26	1682.85
395.46	1689.87
395.65	1778.81
395.84	1650.08
396.04	1713.27
396.23	1713.27
396.42	1715.61
396.62	1849.02
396.81	1771.79
397.00	1710.93
397.19	1790.51
397.39	1762.42
397.58	1930.94
397.77	1809.23
397.97	1853.70
398.16	1849.02
398.35	1867.75
398.55	1886.47
398.74	1928.60
398.93	1921.58
399.12	1879.45
399.32	2015.20
399.51	1893.49
399.70	2001.16
399.90	1877.11
400.09	1956.69
400.28	2073.71
400.47	2045.63
400.67	2064.35
400.86	2150.95
401.05	2097.12
401.24	2085.42
401.44	2181.38
401.63	2207.13
401.82	2181.38
402.01	2260.96
402.21	2260.96
402.40	2216.49
402.59	2293.72
402.78	2118.18
402.97	2265.64
403.17	2181.38
403.36	2174.36
403.55	2270.32
403.74	2342.88
403.93	2401.39
404.13	2408.41
404.32	2256.28
404.51	2445.86
404.70	2434.16
404.89	2429.48
405.09	2502.03
405.28	2410.75
405.47	2415.43
405.66	2502.03
405.85	2602.68
406.05	2452.88
406.24	2462.24
406.43	2588.63
406.62	2679.91
406.81	2708.00
407.00	2668.21
407.20	2455.22
407.39	2464.58
407.58	2654.17
407.77	2698.64
407.96	2663.53
408.15	2736.09
408.34	2738.43
408.54	2684.59
408.73	2862.48
408.92	2832.05
409.11	2892.90
409.30	2986.52
409.49	2822.69
409.68	2808.64
409.87	2815.66
410.07	2988.86
410.26	2984.18
410.45	2939.71
410.64	2930.35
410.83	3066.10
411.02	3150.36
411.21	3159.72
411.40	3213.56
411.59	3199.51
411.78	3225.26
411.98	3171.43
412.17	3349.31
412.36	3379.73
412.55	3307.18
412.74	3323.56
412.93	3311.86
413.12	3243.98
413.31	3510.80
413.50	3433.57
413.69	3356.33
413.88	3667.62
414.07	3658.26
414.26	3665.28
414.45	3625.49
414.64	3747.20
414.83	3747.20
415.02	3742.52
415.22	3850.18
415.41	3861.88
415.60	3871.25
415.79	3803.37
415.98	3929.76
416.17	3971.89
416.36	3934.44
416.55	4037.42
416.74	4091.26
416.93	3946.14
417.12	4095.94
417.31	4203.60
417.50	4203.60
417.69	4365.10
417.88	4257.43
418.07	4264.46
418.26	4334.67
418.45	4262.12
418.64	4447.02
418.83	4629.58
419.02	4372.12
419.21	4503.19
419.39	4477.44
419.58	4428.29
419.77	4339.35
419.96	4727.88
420.15	4573.41
420.34	4512.55
420.53	4610.86
420.72	4575.75
420.91	4702.14
421.10	4800.44
421.29	4800.44
421.48	4655.33
421.67	4884.70
421.86	4812.14
422.05	4840.23
422.24	4788.74
422.43	4926.83
422.61	4819.16
422.80	5020.45
422.99	5018.11
423.18	5076.62
423.37	5071.94
423.56	4957.25
423.75	4908.10
423.94	4910.44
424.13	4554.68
424.32	4971.30
424.50	5078.96
424.69	5125.77
424.88	5081.30
425.07	5081.30
425.26	4936.19
425.45	4959.60
425.64	4992.36
425.83	4821.50
426.01	5109.39
426.20	5064.92
426.39	5093.01
426.58	4894.06
426.77	5085.98
426.96	5069.60
427.15	5064.92
427.33	5203.01
427.52	5011.09
427.71	5177.26
427.90	5294.29
428.09	5305.99
428.28	5287.27
428.46	5174.92
428.65	5116.41
428.84	5535.37
429.03	5523.66
429.22	5334.08
429.40	5493.24
429.59	5507.28
429.78	5305.99
429.97	5268.55
430.16	5490.90
430.34	5488.56
430.53	5577.50
430.72	5657.07
430.91	5603.24
431.10	5586.86
431.28	5610.26
431.47	5891.13
431.66	5954.32
431.85	5741.33
432.03	5947.30
432.22	6083.05
432.41	6008.16
432.60	5696.86
432.79	5991.77
432.97	6045.60
433.16	6139.23
433.35	5895.81
433.54	6050.28
433.72	6200.08
433.91	6125.18
434.10	6143.91
434.28	6211.78
434.47	6150.93
434.66	6141.57
434.85	6345.19
435.03	6328.81
435.22	6310.08
435.41	6649.46
435.59	6539.46
435.78	6438.81
435.97	6424.77
436.16	6452.86
436.34	6312.42
436.53	6473.92
436.72	6609.67
436.90	6523.07
437.09	6609.67
437.28	6534.78
437.46	6576.91
437.65	6623.72
437.84	6705.63
438.02	6700.95
438.21	6878.83
438.40	6654.14
438.58	7061.40
438.77	7115.23
438.96	7070.76
439.14	7197.15
439.33	7396.09
439.52	7262.68
439.70	7325.88
439.89	7351.62
440.08	7517.80
440.26	7545.89
440.45	7597.38
440.63	7417.16
440.82	7576.31
441.01	7466.31
441.19	7765.90
441.38	7730.79
441.57	7723.77
441.75	7889.95
441.94	7854.84
442.12	8032.72
442.31	8126.34
442.50	8093.57
442.68	7892.29
442.87	8042.08
443.05	8201.24
443.24	8273.79
443.43	8243.37
443.61	8065.49
443.80	8456.36
443.98	8119.32
444.17	7939.10
444.35	8226.98
444.54	8271.45
444.73	8283.16
444.91	8313.58
445.10	8519.55
445.28	8409.54
445.47	8411.89
445.65	8236.35
445.84	8306.56
446.02	8564.02
446.21	8369.76
446.39	8535.93
446.58	8369.76
446.77	8400.18
446.95	8362.73
447.14	8512.53
447.32	8723.18
447.51	8521.89
447.69	8599.13
447.88	8624.87
448.06	8451.67
448.25	8706.79
448.43	8568.70
448.62	8582.74
448.80	8336.99
448.99	8568.70
449.17	8641.26
449.36	8624.87
449.54	8882.33
449.73	9053.19
449.91	9008.72
450.10	9036.81
450.28	9006.38
450.46	9312.99
450.65	9186.60
450.83	8994.68
451.02	9158.52
451.20	9102.34
451.39	9188.94
451.57	9235.75
451.76	9130.43
451.94	9116.39
452.13	9432.36
452.31	9214.69
452.49	9170.22
452.68	9610.24
452.86	9334.06
453.05	9535.34
453.23	9598.54
453.42	9235.75
453.60	9359.80
453.78	9736.63
453.97	9628.96
454.15	9657.05
454.34	9453.42
454.52	9645.35
454.70	9661.73
454.89	9565.77
455.07	9724.93
455.26	9898.13
455.44	9776.42
455.62	9912.17
455.81	10057.28
455.99	9998.77
456.17	10186.01
456.36	10148.56
456.54	10115.80
456.73	10186.01
456.91	10321.76
457.09	10291.34
457.28	10607.31
457.46	10310.06
457.64	10511.35
457.83	10399.00
458.01	10523.05
458.19	10614.33
458.38	10422.41
458.56	10803.91
458.74	10796.89
458.93	10583.90
459.11	10857.75
459.29	10747.74
459.48	10764.12
459.66	10551.14
459.84	11138.61
460.03	11042.65
460.21	11012.22
460.39	10862.43
460.57	10902.22
460.76	11267.34
460.94	11199.46
461.12	11344.58
461.31	11229.89
461.49	11164.36
461.67	11246.27
461.85	11658.21
462.04	11194.78
462.22	11672.25
462.40	11499.05
462.59	11489.69
462.77	11339.90
462.95	11782.26
463.13	11412.45
463.32	11817.36
463.50	11719.06
463.68	11735.45
463.86	12088.87
464.05	11566.93
464.23	11829.07
464.41	11845.45
464.59	11896.94
464.78	12180.15
464.96	12159.08
465.14	11749.49
465.32	12154.40
465.50	12210.57
465.69	12116.95
465.87	12428.24
466.05	12081.85
466.23	12273.77
466.41	12341.64
466.60	12681.02
466.78	11967.16
466.96	12198.87
467.14	12369.73
467.32	12463.35
467.51	12439.95
467.69	12145.04
467.87	12369.73
468.05	12650.60
468.23	12741.88
468.41	12362.71
468.60	12528.89
468.78	12755.92
468.96	12617.83
469.14	12538.25
469.32	13324.67
469.50	12643.57
469.69	12931.46
469.87	13048.49
470.05	13046.15
470.23	13160.83
470.41	13123.38
470.59	13589.15
470.77	13221.69
470.95	13195.94
471.14	13521.27
471.32	13202.96
471.50	13724.90
471.68	13762.35
471.86	13497.87
472.04	13912.14
472.22	14083.00
472.40	13748.31
472.58	13771.71
472.77	13891.08
472.95	14075.98
473.13	14820.27
473.31	14146.20
473.49	14090.02
473.67	14171.94
473.85	14354.51
474.03	14590.90
474.21	14705.59
474.39	14611.96
474.57	14565.15
474.75	14820.27
474.93	15070.71
475.12	15171.35
475.30	15023.90
475.48	15288.38
475.66	15288.38
475.84	15260.29
476.02	15405.41
476.20	15398.38
476.38	15405.41
476.56	16262.04
476.74	16109.91
476.92	15829.04
477.10	15943.73
477.28	16271.40
477.46	16332.26
477.64	16444.60
477.82	16290.13
478.00	16854.20
478.18	16795.68
478.36	16945.48
478.54	17186.55
478.72	17193.58
478.90	17308.26
479.08	17432.31
479.26	17867.65
479.44	17729.56
479.62	17989.36
479.80	17811.48
479.98	17926.16
480.16	18810.89
480.34	18457.46
480.52	18384.91
480.70	18473.85
480.88	18466.83
481.06	18698.54
481.24	18902.17
481.41	19157.28
481.59	19267.29
481.77	19665.18
481.95	19651.14
482.13	19693.27
482.31	19934.34
482.49	20262.02
482.67	20147.33
482.85	20573.31
483.03	20702.04
483.21	20851.83
483.39	21057.80
483.57	21003.97
483.74	21088.23
483.92	21481.44
484.10	21408.88
484.28	21916.78
484.46	22309.99
484.64	22221.05
484.82	22120.40
485.00	22424.67
485.18	22867.03
485.35	23253.22
485.53	23154.92
485.71	23220.45
485.89	23545.79
486.07	23475.57
486.25	23744.73
486.43	23672.18
486.61	23960.06
486.78	23957.72
486.96	24025.60
487.14	24830.74
487.32	24727.76
487.50	24919.68
487.68	24903.30
487.85	25486.09
488.03	25671.00
488.21	25951.86
488.39	25495.46
488.57	26316.98
488.75	26225.70
488.92	26642.32
489.10	26906.80
489.28	26448.05
489.46	27007.44
489.64	27091.70
489.81	28067.70
489.99	27728.33
490.17	27470.87
490.35	28039.62
490.53	28273.67
490.70	28357.93
490.88	28599.01
491.06	29125.63
491.24	28809.65
491.41	29209.89
491.59	29261.38
491.77	29511.81
491.95	29511.81
492.13	29743.53
492.30	30237.38
492.48	30263.13
492.66	30457.39
492.84	30829.54
493.01	30637.61
493.19	30656.34
493.37	31276.58
493.54	31445.10
493.72	31917.89
493.90	31587.87
494.08	31910.86
494.25	31824.26
494.43	32180.03
494.61	32275.99
494.79	32779.20
494.96	32589.62
495.14	32701.96
495.32	33085.81
495.49	32936.02
495.67	33151.35
495.85	33748.18
496.02	33680.31
496.20	34363.75
496.38	34071.18
496.55	34506.52
496.73	35044.84
496.91	34707.80
497.09	34925.47
497.26	34904.41
497.44	34794.40
497.62	35117.40
497.79	35941.27
497.97	35208.68
498.14	36208.09
498.32	36327.45
498.50	36636.41
498.67	36409.37
498.85	36304.05
499.03	36713.64
499.20	36458.52
499.38	37036.64
499.56	37366.65
499.73	37029.62
499.91	37085.79
500.08	37638.15
500.26	37378.36
500.44	37949.45
500.61	37832.42
500.79	38019.66
500.97	38286.48
501.14	38810.76
501.32	38990.98
501.49	38541.60
501.67	38824.81
501.84	39325.68
502.02	39115.03
502.20	39168.87
502.37	39213.34
502.55	39651.02
502.72	39309.30
502.90	39702.51
503.07	40046.57
503.25	40355.52
503.43	39812.51
503.60	40107.42
503.78	39758.68
503.95	40542.76
504.13	40847.03
504.30	40942.99
504.48	40659.79
504.65	41137.26
504.83	40854.05
505.01	41586.64
505.18	41467.27
505.36	41998.57
505.53	41778.56
505.71	41539.83
505.88	42195.18
506.06	41720.05
506.23	41820.69
506.41	41998.57
506.58	42211.56
506.76	42869.25
506.93	42588.39
507.11	42574.34
507.28	42597.75
507.46	42808.40
507.63	42733.50
507.81	43365.45
507.98	43386.51
508.16	42974.58
508.33	43749.29
508.50	43629.93
508.68	44215.06
508.85	44264.21
509.03	43683.76
509.20	44048.88
509.38	44659.76
509.55	44699.55
509.73	44655.08
509.90	44800.19
510.08	44718.28
510.25	45177.02
510.42	45167.66
510.60	45125.53
510.77	45668.53
510.95	45488.31
511.12	45738.75
511.30	45165.32
511.47	45652.15
511.64	45689.60
511.82	45778.54
511.99	45670.87
512.17	45947.06
512.34	46047.70
512.51	46164.73
512.69	46511.13
512.86	46590.70
513.04	46679.64
513.21	46630.49
513.38	46951.15
513.56	47051.79
513.73	46721.77
513.90	46897.31
514.08	46714.75
514.25	47356.06
514.43	47707.14
514.60	47856.93
514.77	47571.39
514.95	47929.49
515.12	47913.11
515.29	47753.95
515.47	47674.37
515.64	48268.87
515.81	48121.41
515.99	48507.60
516.16	48545.05
516.33	48425.68
516.51	49015.50
516.68	48659.74
516.85	48858.68
517.03	49240.19
517.20	49043.59
517.37	49237.85
517.54	48938.26
517.72	49256.57
517.89	49284.66
518.06	49106.78
518.24	49558.50
518.41	49305.73
518.58	49567.87
518.75	49319.77
518.93	49712.98
519.10	49617.02
519.27	49944.69
519.45	49572.55
519.62	50164.70
519.79	49888.52
519.96	50267.69
520.14	50012.57
520.31	50492.38
520.48	50646.85
520.65	50354.29
520.83	50735.79
521.00	50429.18
521.17	50539.19
521.34	50967.51
521.52	50871.54
521.69	50813.03
521.86	51152.41
522.03	51082.19
522.20	51484.76
522.38	51732.86
522.55	51466.04
522.72	51407.53
522.89	51428.59
523.07	51508.17
523.24	51688.39
523.41	51606.47
523.58	51491.79
523.75	52053.51
523.92	51997.34
524.10	51922.44
524.27	52266.50
524.44	52334.38
524.61	52334.38
524.78	52177.56
524.96	52278.21
525.13	52364.81
525.30	52608.22
525.47	52708.86
525.64	52488.85
525.81	52680.78
525.98	52547.37
526.16	52720.57
526.33	52713.55
526.50	52933.56
526.67	53127.82
526.84	53022.50
527.01	52643.33
527.18	52952.28
527.36	52865.68
527.53	52804.83
527.70	53457.84
527.87	53553.80
528.04	53083.35
528.21	53464.86
528.38	53380.60
528.55	53738.70
528.72	53666.14
528.89	53574.86
529.07	53539.75
529.24	53387.62
529.41	53827.64
529.58	53778.49
529.75	53778.49
529.92	53839.34
530.09	53853.39
530.26	54096.80
530.43	53986.80
530.60	53841.68
530.77	53797.21
530.94	54134.25
531.11	54239.57
531.28	54040.63
531.46	54478.31
531.63	54258.30
531.80	54298.09
531.97	54642.15
532.14	54422.14
532.31	54576.61
532.48	54649.17
532.65	54667.89
532.82	54506.40
532.99	54576.61
533.16	54665.55
533.33	54915.99
533.50	54911.31
533.67	55049.40
533.84	54593.00
534.01	55002.59
534.18	55234.30
534.35	55351.33
534.52	55320.90
534.69	55344.31
534.86	55494.10
535.03	55136.00
535.20	55318.56
535.37	55288.13
535.54	55526.87
535.71	55325.58
535.88	55416.86
536.05	55671.98
536.22	55669.64
536.38	55611.13
536.55	55819.44
536.72	55777.31
536.89	55526.87
537.06	55526.87
537.23	55917.74
537.40	55622.83
537.57	55840.50
537.74	55798.37
537.91	55985.61
538.08	56032.42
538.25	56025.40
538.42	56097.96
538.59	56315.63
538.75	56158.81
538.92	56109.66
539.09	56252.44
539.26	56039.45
539.43	56093.28
539.60	56420.95
539.77	56594.15
539.94	56591.81
540.11	56399.89
540.28	56556.70
540.44	56533.30
540.61	56285.20
540.78	56512.23
540.95	56404.57
541.12	56392.87
541.29	56666.71
541.46	56676.07
541.62	56622.24
541.79	56622.24
541.96	56905.44
542.13	56516.92
542.30	56694.80
542.47	56893.74
542.63	56835.23
542.80	56891.40
542.97	57216.74
543.14	57193.33
543.31	57366.53
543.48	57317.38
543.64	57413.34
543.81	57563.14
543.98	57411.00
544.15	57254.18
544.32	57565.48
544.48	57619.31
544.65	57443.77
544.82	57593.56
544.99	57308.02
545.16	57464.83
545.32	57521.01
545.49	57804.21
545.66	57872.09
545.83	57869.75
546.00	57944.64
546.16	57698.89
546.33	57708.25
546.50	57467.17
546.67	57820.59
546.83	57511.64
547.00	57839.32
547.17	57860.38
547.34	57930.60
547.50	57886.13
547.67	58206.78
547.84	57951.66
548.00	58342.53
548.17	58361.26
548.34	58199.76
548.51	58377.64
548.67	58370.62
548.84	58192.74
549.01	58211.46
549.18	58155.29
549.34	58305.09
549.51	58354.24
549.68	58511.05
549.84	58433.81
550.01	58459.56
550.18	58372.96
550.34	58599.99
550.51	58651.48
550.68	58578.93
550.84	58321.47
551.01	58639.78
551.18	58358.92
551.34	58621.06
551.51	58628.08
551.68	58789.58
551.84	58616.38
552.01	58635.10
552.18	58651.48
552.34	58653.82
552.51	58890.22
552.68	58607.01
552.84	58684.25
553.01	59025.97
553.18	58810.64
553.34	59089.16
553.51	58761.49
553.67	58798.94
553.84	59018.95
554.01	59107.89
554.17	58864.47
554.34	59016.61
554.51	59145.34
554.67	59241.30
554.84	59124.27
555.00	58939.37
555.17	59124.27
555.33	59243.64
555.50	59103.21
555.67	59154.70
555.83	59086.82
556.00	59290.45
556.16	59440.24
556.33	59325.56
556.50	59238.96
556.66	59583.02
556.83	59374.71
556.99	59414.50
557.16	59639.19
557.32	59496.42
557.49	59519.82
557.65	59306.83
557.82	59440.24
557.98	59512.80
558.15	59639.19
558.32	59767.92
558.48	59355.99
558.65	59463.65
558.81	59594.72
558.98	59627.49
559.14	59854.52
559.31	59613.44
559.47	59655.57
559.64	60027.72
559.80	59751.54
559.97	59777.28
560.13	59777.28
560.30	59707.07
560.46	59777.28
560.63	59744.51
560.79	59950.48
560.96	59924.74
561.12	60013.68
561.29	59915.37
561.45	59941.12
561.61	60079.21
561.78	59842.82
561.94	59767.92
562.11	59891.97
562.27	60013.68
562.44	60009.00
562.60	60210.28
562.77	60079.21
562.93	59870.90
563.10	60067.51
563.26	59980.91
563.42	60151.77
563.59	59978.57
563.75	60254.75
563.92	60130.70
564.08	60111.98
564.24	60409.23
564.41	60329.65
564.57	60114.32
564.74	60350.71
564.90	60186.88
565.07	60025.38
565.23	60320.29
565.39	60240.71
565.56	60268.79
565.72	60205.60
565.88	60221.98
566.05	60151.77
566.21	60360.08
566.38	60200.92
566.54	60355.39
566.70	60418.59
566.87	60474.76
567.03	60191.56
567.19	60629.24
567.36	60399.86
567.52	60229.01
567.68	60591.79
567.85	60343.69
568.01	60701.79
568.17	60254.75
568.34	60678.39
568.50	60629.24
568.66	60214.96
568.83	60659.66
568.99	60374.12
569.15	60617.53
569.32	60488.80
569.48	60568.38
569.64	60580.09
569.81	60500.51
569.97	60575.40
570.13	60371.78
570.30	60493.49
570.46	60486.46
570.62	60678.39
570.78	60523.91
570.95	60465.40
571.11	60451.36
571.27	60743.92
571.43	60608.17
571.60	60804.78
571.76	60687.75
571.92	60589.45
572.09	60687.75
572.25	60612.85
572.41	60718.18
572.57	60685.41
572.74	60748.60
572.90	60889.04
573.06	60767.33
573.22	60687.75
573.38	60891.38
573.55	60666.69
573.71	60865.63
573.87	60858.61
574.03	60736.90
574.20	60804.78
574.36	60575.40
574.52	60835.20
574.68	60699.45
574.84	60687.75
575.01	60718.18
575.17	60802.44
575.33	60762.65
575.49	60858.61
575.65	61006.06
575.82	60949.89
575.98	60755.63
576.14	60896.06
576.30	60954.57
576.46	60750.94
576.62	60828.18
576.79	60900.74
576.95	60938.19
577.11	60736.90
577.27	60860.95
577.43	60992.02
577.59	60713.50
577.75	60669.03
577.92	60882.02
578.08	60811.80
578.24	60842.23
578.40	60900.74
578.56	60966.27
578.72	60961.59
578.88	60874.99
579.04	61062.24
579.21	60924.14
579.37	61041.17
579.53	61200.33
579.69	60853.93
579.85	60849.25
580.01	60748.60
580.17	60954.57
580.33	60935.85
580.49	61176.92
580.65	61132.45
580.82	60828.18
580.98	60835.20
581.14	60977.98
581.30	61062.24
581.46	60952.23
581.62	61071.60
581.78	60973.30
581.94	61197.99
582.10	60917.12
582.26	61062.24
582.42	60977.98
582.58	61146.50
582.74	60999.04
582.90	61113.73
583.06	61048.19
583.22	60835.20
583.38	60931.17
583.54	61113.73
583.70	61153.52
583.86	61158.20
584.02	60797.76
584.18	61045.85
584.34	61106.71
584.50	61087.98
584.66	60914.78
584.82	60898.40
584.98	61179.26
585.14	61097.34
585.30	61066.92
585.46	60924.14
585.62	61027.13
585.78	61144.16
585.94	60788.39
586.10	61059.90
586.26	61087.98
586.42	61244.80
586.58	61233.10
586.74	61085.64
586.90	61043.51
587.06	61073.94
587.22	61233.10
587.38	61078.62
587.54	61230.75
587.70	61307.99
587.86	61158.20
588.02	61165.22
588.18	61144.16
588.34	61134.79
588.49	61153.52
