SpectraSuite Data File
++++++++++++++++++++++++++++++++++++
Date: Fri Oct 25 11:22:51 EDT 2013
User: price-jones
Dark Spectrum Present: No
Reference Spectrum Present: No
Number of Sampled Component Spectra: 1
Spectrometers: USB2+H05261
Integration Time (usec): 100000 (USB2+H05261)
Spectra Averaged: 1 (USB2+H05261)
Boxcar Smoothing: 0 (USB2+H05261)
Correct for Electrical Dark: No (USB2+H05261)
Strobe/Lamp Enabled: No (USB2+H05261)
Correct for Detector Non-linearity: No (USB2+H05261)
Correct for Stray Light: No (USB2+H05261)
Number of Pixels in Processed Spectrum: 2048
>>>>>Begin Processed Spectral Data<<<<<
365.73	229.37
365.92	229.37
366.12	229.37
366.32	152.13
366.52	25.75
366.72	114.69
366.91	86.60
367.11	119.37
367.31	117.03
367.51	67.88
367.70	102.98
367.90	117.03
368.10	107.66
368.30	161.50
368.49	142.77
368.69	161.50
368.89	98.30
369.09	138.09
369.28	241.08
369.48	156.82
369.68	182.56
369.87	170.86
370.07	191.92
370.27	159.16
370.47	355.76
370.66	566.41
370.86	575.77
371.06	571.09
371.25	660.03
371.45	678.76
371.65	620.24
371.84	557.05
372.04	610.88
372.24	613.22
372.44	709.18
372.63	683.44
372.83	674.07
373.03	753.65
373.22	727.91
373.42	734.93
373.62	725.57
373.81	823.87
374.01	748.97
374.21	751.31
374.40	802.80
374.60	823.87
374.79	889.40
374.99	866.00
375.19	870.68
375.38	858.98
375.58	816.85
375.78	880.04
375.97	866.00
376.17	856.64
376.37	910.47
376.56	844.93
376.76	849.61
376.95	809.83
377.15	945.58
377.35	961.96
377.54	828.55
377.74	861.32
377.93	835.57
378.13	919.83
378.33	915.15
378.52	903.45
378.72	940.90
378.91	929.19
379.11	854.30
379.31	858.98
379.50	987.71
379.70	1004.09
379.89	994.73
380.09	915.15
380.28	884.72
380.48	1004.09
380.68	985.37
380.87	1015.79
381.07	997.07
381.26	1032.18
381.46	1032.18
381.65	999.41
381.85	976.00
382.04	1029.84
382.24	1039.20
382.43	1097.71
382.63	1006.43
382.83	1095.37
383.02	1123.46
383.22	1156.22
383.41	1130.48
383.61	1086.01
383.80	1111.75
384.00	1015.79
384.19	1090.69
384.39	1170.27
384.58	1090.69
384.78	1064.94
384.97	1093.03
385.17	1214.74
385.36	1102.39
385.56	1238.14
385.75	1186.65
385.95	1078.99
386.14	1100.05
386.34	1287.29
386.53	1132.82
386.72	1163.25
386.92	1233.46
387.11	1203.04
387.31	1294.32
387.50	1163.25
387.70	1282.61
387.89	1273.25
388.09	1207.72
388.28	1275.59
388.48	1362.19
388.67	1327.08
388.86	1303.68
389.06	1313.04
389.25	1263.89
389.45	1387.94
389.64	1357.51
389.84	1343.47
390.03	1334.11
390.22	1380.92
390.42	1467.52
390.61	1455.81
390.81	1434.75
391.00	1409.00
391.19	1488.58
391.39	1455.81
391.58	1460.49
391.78	1441.77
391.97	1444.11
392.16	1371.55
392.36	1540.07
392.55	1511.99
392.75	1451.13
392.94	1523.69
393.13	1591.56
393.33	1526.03
393.52	1598.59
393.71	1598.59
393.91	1629.01
394.10	1636.03
394.29	1537.73
394.49	1638.38
394.68	1544.75
394.88	1586.88
395.07	1650.08
395.26	1612.63
395.46	1699.23
395.65	1736.68
395.84	1666.46
396.04	1687.53
396.23	1865.41
396.42	1678.16
396.62	1769.44
396.81	1818.60
397.00	1778.81
397.19	1853.70
397.39	1858.39
397.58	1902.86
397.77	1729.66
397.97	1816.26
398.16	1799.87
398.35	1870.09
398.55	1851.36
398.74	1912.22
398.93	1930.94
399.12	1907.54
399.32	1956.69
399.51	1952.01
399.70	1959.03
399.90	2031.58
400.09	2022.22
400.28	2106.48
400.47	2108.82
400.67	2120.53
400.86	2062.01
401.05	2040.95
401.24	2160.31
401.44	2146.27
401.63	2242.23
401.82	2237.55
402.01	2169.68
402.21	2174.36
402.40	2237.55
402.59	2256.28
402.78	2207.13
402.97	2314.79
403.17	2272.66
403.36	2389.69
403.55	2328.83
403.74	2410.75
403.93	2401.39
404.13	2485.65
404.32	2399.05
404.51	2347.56
404.70	2548.84
404.89	2452.88
405.09	2530.12
405.28	2499.69
405.47	2413.09
405.66	2509.05
405.85	2609.70
406.05	2581.61
406.24	2480.97
406.43	2644.81
406.62	2747.79
406.81	2708.00
407.00	2605.02
407.20	2537.14
407.39	2665.87
407.58	2623.74
407.77	2722.04
407.96	2815.66
408.15	2743.11
408.34	2642.46
408.54	2810.98
408.73	2874.18
408.92	2841.41
409.11	2925.67
409.30	2902.26
409.49	2902.26
409.68	3038.02
409.87	2883.54
410.07	3117.59
410.26	3026.31
410.45	2958.44
410.64	3059.08
410.83	3159.72
411.02	3126.96
411.21	3229.94
411.40	3162.06
411.59	3145.68
411.78	3215.90
411.98	3201.85
412.17	3339.94
412.36	3323.56
412.55	3361.01
412.74	3485.06
412.93	3487.40
413.12	3571.66
413.31	3489.74
413.50	3431.23
413.69	3616.13
413.88	3686.34
414.07	3578.68
414.26	3658.26
414.45	3812.73
414.64	3691.02
414.83	3768.26
415.02	3894.65
415.22	3845.50
415.41	3826.78
415.60	3854.86
415.79	3967.21
415.98	4051.47
416.17	3960.19
416.36	3885.29
416.55	3925.08
416.74	4182.54
416.93	4086.58
417.12	4067.85
417.31	4276.16
417.50	4234.03
417.69	4236.37
417.88	4351.06
418.07	4231.69
418.26	4327.65
418.45	4402.55
418.64	4486.81
418.83	4414.25
419.02	4456.38
419.21	4603.83
419.39	4571.07
419.58	4390.84
419.77	4503.19
419.96	4542.98
420.15	4603.83
420.34	4596.81
420.53	4652.98
420.72	4669.37
420.91	4629.58
421.10	4814.48
421.29	4758.31
421.48	4727.88
421.67	4940.87
421.86	4798.10
422.05	4847.25
422.24	4844.91
422.43	4788.74
422.61	4964.28
422.80	4971.30
422.99	4924.49
423.18	4938.53
423.37	5137.48
423.56	5093.01
423.75	4891.72
423.94	4854.27
424.13	4662.35
424.32	4732.56
424.50	5125.77
424.69	5214.71
424.88	5139.82
425.07	4924.49
425.26	5149.18
425.45	5078.96
425.64	5069.60
425.83	5027.47
426.01	4999.38
426.20	5198.33
426.39	5254.50
426.58	5018.11
426.77	5132.79
426.96	5067.26
427.15	5404.30
427.33	5198.33
427.52	5144.50
427.71	5373.87
427.90	5289.61
428.09	5455.79
428.28	5563.45
428.46	5408.98
428.65	5371.53
428.84	5481.53
429.03	5549.41
429.22	5362.17
429.40	5504.94
429.59	5563.45
429.78	5434.72
429.97	5373.87
430.16	5446.43
430.34	5685.16
430.53	5591.54
430.72	5729.63
430.91	5741.33
431.10	5647.71
431.28	5729.63
431.47	5912.19
431.66	5923.90
431.85	5926.24
432.03	5977.73
432.22	5973.05
432.41	5947.30
432.60	5977.73
432.79	5846.66
432.97	5902.83
433.16	6071.35
433.35	6090.07
433.54	6340.51
433.72	6171.99
433.91	6183.70
434.10	6071.35
434.28	6106.46
434.47	6396.68
434.66	6122.84
434.85	6380.30
435.03	6497.33
435.22	6223.48
435.41	6609.67
435.59	6314.77
435.78	6408.39
435.97	6384.98
436.16	6502.01
436.34	6497.33
436.53	6590.95
436.72	6565.20
436.90	6455.20
437.09	6691.59
437.28	6537.12
437.46	6483.28
437.65	6717.34
437.84	6883.52
438.02	6775.85
438.21	6841.39
438.40	6766.49
438.58	7171.40
438.77	7232.26
438.96	7096.50
439.14	7157.36
439.33	7293.11
439.52	7211.19
439.70	7208.85
439.89	7431.20
440.08	7384.39
440.26	7522.48
440.45	7522.48
440.63	7676.96
440.82	7698.02
441.01	7749.51
441.19	7576.31
441.38	7651.21
441.57	7873.56
441.75	7866.54
441.94	7936.76
442.12	8042.08
442.31	8067.83
442.50	8203.58
442.68	8095.91
442.87	8168.47
443.05	8128.68
443.24	8381.46
443.43	8173.15
443.61	8184.85
443.80	8580.40
443.98	8006.97
444.17	7913.35
444.35	8184.85
444.54	8315.92
444.73	8393.16
444.91	8463.38
445.10	8519.55
445.28	8294.86
445.47	8451.67
445.65	8372.10
445.84	8542.96
446.02	8528.91
446.21	8568.70
446.39	8409.54
446.58	8674.03
446.77	8491.46
446.95	8528.91
447.14	8615.51
447.32	8585.08
447.51	8634.24
447.69	8477.42
447.88	8688.07
448.06	8688.07
448.25	8493.80
448.43	8720.84
448.62	8559.34
448.80	8674.03
448.99	8683.39
449.17	8994.68
449.36	8674.03
449.54	8847.22
449.73	9165.54
449.91	9092.98
450.10	8872.97
450.28	9097.66
450.46	9249.80
450.65	9043.83
450.83	9078.94
451.02	8985.32
451.20	9275.54
451.39	9219.37
451.57	9226.39
451.76	9212.35
451.94	9046.17
452.13	9364.48
452.31	9303.63
452.49	9336.40
452.68	9399.59
452.86	9425.34
453.05	9631.30
453.23	9448.74
453.42	9591.52
453.60	9488.53
453.78	9678.12
453.97	9469.81
454.15	9568.11
454.34	9652.37
454.52	9919.19
454.70	9832.59
454.89	9799.82
455.07	9722.59
455.26	9839.61
455.44	9949.62
455.62	10029.20
455.81	9900.47
455.99	10068.98
456.17	10195.37
456.36	10045.58
456.54	10200.05
456.73	10429.43
456.91	10630.71
457.09	10436.45
457.28	10630.71
457.46	10293.68
457.64	10729.02
457.83	10689.23
458.01	10553.48
458.19	10747.74
458.38	10654.12
458.56	10953.71
458.74	10696.25
458.93	10710.29
459.11	10738.38
459.29	10810.93
459.48	10817.96
459.66	10888.17
459.84	11023.92
460.03	11084.78
460.21	11124.57
460.39	11201.80
460.57	11028.60
460.76	11037.97
460.94	11382.03
461.12	11180.74
461.31	11140.95
461.49	11424.15
461.67	11351.60
461.85	11604.38
462.04	11323.51
462.22	11723.74
462.40	11580.97
462.59	11660.55
462.77	11726.08
462.95	11836.09
463.13	11644.17
463.32	11744.81
463.50	11812.68
463.68	11595.01
463.86	11812.68
464.05	11922.69
464.23	11655.87
464.41	12004.61
464.59	11936.73
464.78	12308.88
464.96	12121.63
465.14	11927.37
465.32	12067.80
465.50	12121.63
465.69	12121.63
465.87	12259.73
466.05	12299.52
466.23	12393.14
466.41	12512.50
466.60	12486.76
466.78	12194.19
466.96	12407.18
467.14	12500.80
467.32	12603.78
467.51	12685.70
467.69	12470.37
467.87	12510.16
468.05	12837.84
468.23	12613.15
468.41	12390.80
468.60	12912.74
468.78	12737.20
468.96	12725.49
469.14	12896.35
469.32	13263.82
469.50	13015.72
469.69	13170.19
469.87	13097.64
470.05	13104.66
470.23	13095.30
470.41	13394.89
470.59	13434.68
470.77	13319.99
470.95	13256.79
471.14	13582.13
471.32	13406.59
471.50	13638.30
471.68	13635.96
471.86	13607.87
472.04	13930.87
472.22	14087.68
472.40	13710.86
472.58	14022.15
472.77	14061.94
472.95	14256.20
473.13	14714.95
473.31	14150.88
473.49	14150.88
473.67	14544.09
473.85	14721.97
474.03	14895.17
474.21	14560.47
474.39	14979.43
474.57	14829.63
474.75	15087.09
474.93	15047.30
475.12	15026.24
475.30	15396.04
475.48	15105.82
475.66	15417.11
475.84	15297.74
476.02	15543.50
476.20	15590.31
476.38	15672.23
476.56	16149.70
476.74	16035.01
476.92	16044.37
477.10	16084.16
477.28	16217.57
477.46	16201.19
477.64	16362.69
477.82	16556.95
478.00	16968.88
478.18	16957.18
478.36	17191.23
478.54	17289.54
478.72	17186.55
478.90	17909.78
479.08	17757.64
479.26	17989.36
479.44	17820.84
479.62	18253.84
479.80	18218.73
479.98	18192.98
480.16	18551.09
480.34	18476.19
480.52	18820.25
480.70	18857.70
480.88	18459.81
481.06	19248.57
481.24	19150.26
481.41	19349.21
481.59	19473.26
481.77	19651.14
481.95	19510.71
482.13	19697.95
482.31	19854.76
482.49	20425.86
482.67	20409.47
482.85	20620.12
483.03	20819.07
483.21	21013.33
483.39	21078.86
483.57	21186.53
483.74	21205.25
483.92	21326.96
484.10	21467.39
484.28	21668.68
484.46	22015.08
484.64	22813.20
484.82	22164.87
485.00	22574.47
485.18	22981.72
485.35	23138.54
485.53	23040.23
485.71	23339.82
485.89	23676.86
486.07	23800.91
486.25	23604.30
486.43	23812.61
486.61	24105.18
486.78	24381.36
486.96	24236.25
487.14	24978.20
487.32	24905.64
487.50	24877.55
487.68	25139.69
487.85	25357.36
488.03	25851.22
488.21	26305.28
488.39	26178.89
488.57	26239.75
488.75	26515.93
488.92	26979.36
489.10	27122.13
489.28	27094.04
489.46	27285.97
489.64	27351.50
489.81	27601.94
489.99	28149.62
490.17	27782.16
490.35	28369.63
490.53	28460.91
490.70	28762.84
490.88	28620.07
491.06	28929.02
491.24	28671.56
491.41	29565.65
491.59	29305.85
491.77	29617.14
491.95	29869.92
492.13	30000.99
492.30	30223.34
492.48	30501.86
492.66	30539.31
492.84	30511.22
493.01	30710.17
493.19	31159.55
493.37	31199.34
493.54	31651.06
493.72	31737.66
493.90	31782.13
494.08	31791.50
494.25	32257.26
494.43	32245.56
494.61	32741.75
494.79	32692.60
494.96	32783.88
495.14	32821.33
495.32	33359.66
495.49	33376.04
495.67	33886.28
495.85	33846.49
496.02	34094.58
496.20	33860.53
496.38	34267.78
496.55	34380.13
496.73	35150.17
496.91	34775.68
497.09	35182.93
497.26	35732.96
497.44	35281.24
497.62	35330.39
497.79	35861.69
497.97	36062.97
498.14	36224.47
498.32	36229.15
498.50	36645.77
498.67	37237.92
498.85	36804.92
499.03	36907.91
499.20	36814.29
499.38	37677.94
499.56	37322.18
499.73	37574.96
499.91	37638.15
500.08	37823.06
500.26	37954.13
500.44	38033.71
500.61	38370.74
500.79	38094.56
500.97	38087.54
501.14	38974.60
501.32	38770.97
501.49	38892.68
501.67	38752.25
501.84	39260.15
502.02	39335.04
502.20	39112.69
502.37	39784.43
502.55	39416.96
502.72	39924.86
502.90	40105.08
503.07	39660.38
503.25	40444.46
503.43	40030.18
503.60	40362.54
503.78	40308.71
503.95	40598.93
504.13	40968.74
504.30	40575.53
504.48	41017.89
504.65	41280.03
504.83	41277.69
505.01	41780.90
505.18	41422.80
505.36	41940.06
505.53	41895.59
505.71	41773.88
505.88	42363.70
506.06	41745.80
506.23	42366.04
506.41	42344.97
506.58	42576.69
506.76	42557.96
506.93	43009.68
507.11	42021.98
507.28	42862.23
507.46	42677.33
507.63	43552.69
507.81	43957.60
507.98	43344.38
508.16	43323.32
508.33	43784.40
508.50	43681.42
508.68	43791.42
508.85	44039.52
509.03	44350.81
509.20	44243.15
509.38	44554.44
509.55	44739.34
509.73	44795.51
509.90	45277.66
510.08	45214.47
510.25	45085.74
510.42	44844.66
510.60	45308.09
510.77	45322.13
510.95	45783.22
511.12	45420.44
511.30	45263.62
511.47	45881.52
511.64	45764.49
511.82	46178.77
511.99	45918.97
512.17	46307.50
512.34	46536.87
512.51	46216.22
512.69	46710.07
512.86	47030.72
513.04	46927.74
513.21	47014.34
513.38	47416.91
513.56	47372.44
513.73	46834.12
513.90	47089.24
514.08	46972.21
514.25	47948.21
514.43	47454.36
514.60	47606.50
514.77	47449.68
514.95	47875.66
515.12	47634.58
515.29	47943.53
515.47	48205.67
515.64	48535.69
515.81	48044.18
515.99	48942.94
516.16	48685.48
516.33	48804.85
516.51	48736.98
516.68	48886.77
516.85	48774.42
517.03	49389.98
517.20	49279.98
517.37	49195.72
517.54	48945.28
517.72	49017.84
517.89	49387.64
518.06	49900.22
518.24	49563.18
518.41	49406.37
518.58	49528.08
518.75	49600.63
518.93	49940.01
519.10	49514.03
519.27	50260.66
519.45	50218.53
519.62	50548.55
519.79	50452.59
519.96	50377.69
520.14	50614.08
520.31	50445.57
520.48	50948.78
520.65	50571.96
520.83	50946.44
521.00	51264.75
521.17	50859.84
521.34	50953.46
521.52	51217.94
521.69	51381.78
521.86	51119.64
522.03	51262.41
522.20	51866.27
522.38	51831.16
522.55	51702.43
522.72	51746.90
522.89	51861.59
523.07	52006.70
523.24	51978.62
523.41	51978.62
523.58	51728.18
523.75	52032.45
523.92	51882.66
524.10	52292.25
524.27	52383.53
524.44	52397.57
524.61	52343.74
524.78	52601.20
524.96	52449.06
525.13	52516.94
525.30	52523.96
525.47	52912.49
525.64	52633.97
525.81	53183.99
525.98	52910.15
526.16	52875.04
526.33	52996.75
526.50	53298.68
526.67	52917.17
526.84	53404.00
527.01	53226.12
527.18	53464.86
527.36	53434.43
527.53	53345.49
527.70	53647.42
527.87	53694.23
528.04	53446.13
528.21	53621.67
528.38	53570.18
528.55	54122.55
528.72	53525.71
528.89	53750.40
529.07	53776.15
529.24	53806.58
529.41	54241.92
529.58	53865.09
529.75	54035.95
529.92	54068.72
530.09	54143.61
530.26	54059.35
530.43	54190.42
530.60	53771.47
530.77	53975.09
530.94	54508.74
531.11	54422.14
531.28	54321.49
531.46	54440.86
531.63	54536.82
531.80	54593.00
531.97	55063.44
532.14	54532.14
532.31	54990.89
532.48	54841.09
532.65	55086.85
532.82	54796.62
532.99	54756.83
533.16	54972.16
533.33	55285.79
533.50	55150.04
533.67	55180.47
533.84	54780.24
534.01	54993.23
534.18	55171.11
534.35	55646.24
534.52	55086.85
534.69	55559.64
534.86	55594.74
535.03	55545.59
535.20	55468.36
535.37	55868.59
535.54	55716.45
535.71	55732.84
535.88	55849.86
536.05	55639.22
536.22	55852.20
536.38	55805.39
536.55	56074.55
536.72	55938.80
536.89	55744.54
537.06	55917.74
537.23	55966.89
537.40	55688.37
537.57	55987.95
537.74	56093.28
537.91	56156.47
538.08	56182.22
538.25	56154.13
538.42	55990.30
538.59	56502.87
538.75	56310.95
538.92	56226.69
539.09	56336.69
539.26	56502.87
539.43	56214.99
539.60	56584.79
539.77	56683.09
539.94	56828.21
540.11	56561.39
540.28	56727.56
540.44	56727.56
540.61	56746.29
540.78	56795.44
540.95	56533.30
541.12	56512.23
541.29	56601.18
541.46	56912.47
541.62	56921.83
541.79	56917.15
541.96	56577.77
542.13	56907.79
542.30	56858.63
542.47	57144.18
542.63	57233.12
542.80	57198.01
542.97	57282.27
543.14	57434.41
543.31	57462.49
543.48	57434.41
543.64	57759.74
543.81	57345.47
543.98	57485.90
544.15	57485.90
544.32	57623.99
544.48	58005.50
544.65	57439.09
544.82	57450.79
544.99	57818.25
545.16	57663.78
545.32	57766.76
545.49	57928.26
545.66	57904.85
545.83	57867.40
546.00	58045.29
546.16	57724.63
546.33	57818.25
546.50	57888.47
546.67	57986.77
546.83	57783.15
547.00	58040.60
547.17	58178.70
547.34	58134.23
547.50	58138.91
547.67	58408.07
547.84	58185.72
548.00	58394.03
548.17	58351.90
548.34	58590.63
548.51	58564.88
548.67	58557.86
548.84	58454.88
549.01	58473.60
549.18	58291.04
549.34	58433.81
549.51	58478.28
549.68	58607.01
549.84	58553.18
550.01	58616.38
550.18	58611.70
550.34	58522.76
550.51	58782.55
550.68	58740.42
550.84	58302.74
551.01	58649.14
551.18	58808.30
551.34	58742.77
551.51	58766.17
551.68	58904.26
551.84	58665.53
552.01	58768.51
552.18	59082.14
552.34	58822.34
552.51	58850.43
552.68	58700.64
552.84	58728.72
553.01	59161.72
553.18	59185.13
553.34	59079.80
553.51	59025.97
553.67	59023.63
553.84	59152.36
554.01	59257.68
554.17	59260.02
554.34	59171.08
554.51	58948.73
554.67	59372.37
554.84	59325.56
555.00	59208.53
555.17	59199.17
555.33	58962.78
555.50	59100.87
555.67	59159.38
555.83	59147.68
556.00	59355.99
556.16	59578.34
556.33	59222.58
556.50	59447.27
556.66	59611.10
556.83	59449.61
556.99	59700.04
557.16	59667.28
557.32	59742.17
557.49	59763.24
557.65	59355.99
557.82	59561.95
557.98	59515.14
558.15	59767.92
558.32	59742.17
558.48	59559.61
558.65	59594.72
558.81	59753.88
558.98	59786.64
559.14	59999.63
559.31	59805.37
559.47	60025.38
559.64	59978.57
559.80	59884.95
559.97	59922.40
560.13	60093.25
560.30	59973.89
560.46	59856.86
560.63	59980.91
560.79	59980.91
560.96	60100.28
561.12	59980.91
561.29	60062.83
561.45	60126.02
561.61	60147.09
561.78	60147.09
561.94	60032.40
562.11	59973.89
562.27	60142.41
562.44	59875.58
562.60	60278.16
562.77	60229.01
562.93	60142.41
563.10	60264.11
563.26	60025.38
563.42	60383.48
563.59	60165.81
563.75	60420.93
563.92	60388.16
564.08	60327.31
564.24	60327.31
564.41	60247.73
564.57	60416.25
564.74	60566.04
564.90	60149.43
565.07	60198.58
565.23	60423.27
565.39	60179.85
565.56	60392.84
565.72	60437.31
565.88	60350.71
566.05	60432.63
566.21	60303.90
566.38	60154.11
566.54	60392.84
566.70	60687.75
566.87	60619.88
567.03	60404.55
567.19	60659.66
567.36	60491.15
567.52	60603.49
567.68	60828.18
567.85	60636.26
568.01	60575.40
568.17	60465.40
568.34	60624.56
568.50	60514.55
568.66	60411.57
568.83	60416.25
568.99	60612.85
569.15	60498.17
569.32	60633.92
569.48	60617.53
569.64	60650.30
569.81	60750.94
569.97	60704.13
570.13	60669.03
570.30	60647.96
570.46	60549.66
570.62	60734.56
570.78	60657.32
570.95	60816.48
571.11	60872.65
571.27	60802.44
571.43	60676.05
571.60	60924.14
571.76	60722.86
571.92	60764.99
572.09	60757.97
572.25	60640.94
572.41	60851.59
572.57	60842.23
572.74	60954.57
572.90	60671.37
573.06	60914.78
573.22	60804.78
573.38	60907.76
573.55	60755.63
573.71	61008.40
573.87	60952.23
574.03	60746.26
574.20	61062.24
574.36	60727.54
574.52	61027.13
574.68	60963.93
574.84	60987.34
575.01	60940.53
575.17	61036.49
575.33	60867.97
575.49	60945.21
575.65	60935.85
575.82	60952.23
575.98	60992.02
576.14	60977.98
576.30	60912.44
576.46	61073.94
576.62	61048.19
576.79	61099.68
576.95	60924.14
577.11	61116.07
577.27	61132.45
577.43	60940.53
577.59	60835.20
577.75	61003.72
577.92	61015.43
578.08	60963.93
578.24	61031.81
578.40	61013.08
578.56	61233.10
578.72	61013.08
578.88	61256.50
579.04	61237.78
579.21	61085.64
579.37	61087.98
579.53	61116.07
579.69	61219.05
579.85	61125.43
580.01	61181.60
580.17	61085.64
580.33	61090.32
580.49	61233.10
580.65	61263.52
580.82	61111.39
580.98	60867.97
581.14	60952.23
581.30	61123.09
581.46	61214.37
581.62	61123.09
581.78	61209.69
581.94	61216.71
582.10	60996.70
582.26	61125.43
582.42	61176.92
582.58	61080.96
582.74	61092.66
582.90	61113.73
583.06	61247.14
583.22	61034.15
583.38	61186.28
583.54	61291.61
583.70	61031.81
583.86	61305.65
584.02	61066.92
584.18	61310.33
584.34	61123.09
584.50	61186.28
584.66	61214.37
584.82	61066.92
584.98	61221.39
585.14	61095.00
585.30	61113.73
585.46	61197.99
585.62	61282.25
585.78	61382.89
585.94	61190.97
586.10	61202.67
586.26	61062.24
586.42	61331.40
586.58	61333.74
586.74	61226.07
586.90	61071.60
587.06	61137.13
587.22	61352.46
587.38	61205.01
587.54	61434.38
587.70	61413.32
587.86	61448.42
588.02	61300.97
588.18	61518.64
588.34	61219.05
588.49	61109.05
