SpectraSuite Data File
++++++++++++++++++++++++++++++++++++
Date: Fri Oct 25 11:22:34 EDT 2013
User: price-jones
Dark Spectrum Present: No
Reference Spectrum Present: No
Number of Sampled Component Spectra: 1
Spectrometers: USB2+H05261
Integration Time (usec): 100000 (USB2+H05261)
Spectra Averaged: 1 (USB2+H05261)
Boxcar Smoothing: 0 (USB2+H05261)
Correct for Electrical Dark: No (USB2+H05261)
Strobe/Lamp Enabled: No (USB2+H05261)
Correct for Detector Non-linearity: No (USB2+H05261)
Correct for Stray Light: No (USB2+H05261)
Number of Pixels in Processed Spectrum: 2048
>>>>>Begin Processed Spectral Data<<<<<
365.73	170.86
365.92	170.86
366.12	170.86
366.32	126.39
366.52	128.73
366.72	133.41
366.91	67.88
367.11	102.98
367.31	65.54
367.51	142.77
367.70	74.90
367.90	147.45
368.10	147.45
368.30	117.03
368.49	126.39
368.69	124.05
368.89	175.54
369.09	70.22
369.28	154.48
369.48	184.90
369.68	84.26
369.87	152.13
370.07	201.29
370.27	191.92
370.47	353.42
370.66	566.41
370.86	613.22
371.06	603.86
371.25	730.25
371.45	627.26
371.65	631.94
371.84	610.88
372.04	653.01
372.24	739.61
372.44	681.10
372.63	676.41
372.83	697.48
373.03	765.36
373.22	713.86
373.42	795.78
373.62	748.97
373.81	819.19
374.01	812.17
374.21	849.61
374.40	802.80
374.60	856.64
374.79	800.46
374.99	807.48
375.19	863.66
375.38	830.89
375.58	821.53
375.78	880.04
375.97	851.96
376.17	933.87
376.37	812.17
376.56	844.93
376.76	877.70
376.95	866.00
377.15	880.04
377.35	875.36
377.54	1001.75
377.74	1008.77
377.93	968.98
378.13	844.93
378.33	957.28
378.52	837.91
378.72	908.13
378.91	929.19
379.11	875.36
379.31	1001.75
379.50	926.85
379.70	1060.26
379.89	961.96
380.09	945.58
380.28	983.02
380.48	999.41
380.68	959.62
380.87	957.28
381.07	1039.20
381.26	1032.18
381.46	987.71
381.65	1041.54
381.85	1071.97
382.04	985.37
382.24	1111.75
382.43	1078.99
382.63	1060.26
382.83	1011.11
383.02	1083.67
383.22	1111.75
383.41	1151.54
383.61	1057.92
383.80	1069.62
384.00	1172.61
384.19	1139.84
384.39	1130.48
384.58	1165.59
384.78	1146.86
384.97	1160.91
385.17	1179.63
385.36	1160.91
385.56	1212.40
385.75	1102.39
385.95	1193.67
386.14	1174.95
386.34	1226.44
386.53	1210.06
386.72	1158.57
386.92	1263.89
387.11	1240.48
387.31	1226.44
387.50	1268.57
387.70	1270.91
387.89	1291.98
388.09	1261.55
388.28	1270.91
388.48	1256.87
388.67	1291.98
388.86	1345.81
389.06	1275.59
389.25	1313.04
389.45	1329.42
389.64	1306.02
389.84	1455.81
390.03	1334.11
390.22	1474.54
390.42	1380.92
390.61	1397.30
390.81	1390.28
391.00	1350.49
391.19	1481.56
391.39	1486.24
391.58	1472.20
391.78	1474.54
391.97	1509.65
392.16	1488.58
392.36	1495.60
392.55	1542.41
392.75	1519.01
392.94	1465.18
393.13	1481.56
393.33	1497.94
393.52	1495.60
393.71	1584.54
393.91	1610.29
394.10	1586.88
394.29	1535.39
394.49	1547.09
394.68	1640.72
394.88	1626.67
395.07	1673.48
395.26	1713.27
395.46	1629.01
395.65	1713.27
395.84	1636.03
396.04	1762.42
396.23	1818.60
396.42	1834.98
396.62	1748.38
396.81	1774.13
397.00	1839.66
397.19	1771.79
397.39	1813.92
397.58	1895.83
397.77	1827.96
397.97	1872.43
398.16	1813.92
398.35	1853.70
398.55	1825.62
398.74	1870.09
398.93	2012.86
399.12	1970.73
399.32	1970.73
399.51	1975.41
399.70	2066.69
399.90	1900.52
400.09	2141.59
400.28	2024.56
400.47	2045.63
400.67	2153.29
400.86	2132.23
401.05	2104.14
401.24	2083.08
401.44	2118.18
401.63	2139.25
401.82	2036.27
402.01	2120.53
402.21	2132.23
402.40	2165.00
402.59	2153.29
402.78	2349.90
402.97	2267.98
403.17	2319.47
403.36	2239.89
403.55	2284.36
403.74	2321.81
403.93	2382.67
404.13	2392.03
404.32	2478.63
404.51	2408.41
404.70	2338.20
404.89	2403.73
405.09	2537.14
405.28	2551.18
405.47	2537.14
405.66	2462.24
405.85	2651.83
406.05	2480.97
406.24	2590.97
406.43	2691.62
406.62	2602.68
406.81	2740.77
407.00	2562.89
407.20	2595.65
407.39	2668.21
407.58	2733.75
407.77	2686.94
407.96	2747.79
408.15	2794.60
408.34	2686.94
408.54	2843.75
408.73	2794.60
408.92	2892.90
409.11	2855.45
409.30	2834.39
409.49	2850.77
409.68	2963.12
409.87	3038.02
410.07	2960.78
410.26	3054.40
410.45	3026.31
410.64	3070.78
410.83	3089.51
411.02	3143.34
411.21	3122.27
411.40	3169.09
411.59	3246.32
411.78	3297.81
411.98	3241.64
412.17	3265.05
412.36	3417.18
412.55	3361.01
412.74	3440.59
412.93	3346.97
413.12	3365.69
413.31	3634.85
413.50	3398.46
413.69	3536.55
413.88	3707.41
414.07	3648.90
414.26	3597.40
414.45	3599.74
414.64	3777.62
414.83	3824.44
415.02	3796.35
415.22	3742.52
415.41	3803.37
415.60	4002.32
415.79	4084.23
415.98	3967.21
416.17	3999.98
416.36	3964.87
416.55	4091.26
416.74	4105.30
416.93	4067.85
417.12	4100.62
417.31	4311.27
417.50	4180.20
417.69	4299.56
417.88	4449.36
418.07	4241.05
418.26	4297.22
418.45	4423.61
418.64	4372.12
418.83	4496.17
419.02	4402.55
419.21	4461.06
419.39	4592.13
419.58	4606.17
419.77	4479.79
419.96	4578.09
420.15	4641.28
420.34	4667.03
420.53	4713.84
420.72	4706.82
420.91	4662.35
421.10	4868.31
421.29	4807.46
421.48	4737.24
421.67	4910.44
421.86	4952.57
422.05	4800.44
422.24	4870.65
422.43	4983.00
422.61	5015.77
422.80	4851.93
422.99	4933.85
423.18	5097.69
423.37	5135.14
423.56	5036.83
423.75	5060.24
423.94	4896.40
424.13	4702.14
424.32	4786.40
424.50	4997.04
424.69	5165.56
424.88	5139.82
425.07	5095.35
425.26	5001.72
425.45	5062.58
425.64	4994.70
425.83	4990.02
426.01	5149.18
426.20	4994.70
426.39	5252.16
426.58	5022.79
426.77	5001.72
426.96	5275.57
427.15	5226.42
427.33	5284.93
427.52	5193.65
427.71	5320.04
427.90	5268.55
428.09	5401.96
428.28	5540.05
428.46	5385.57
428.65	5317.70
428.84	5472.17
429.03	5495.58
429.22	5444.09
429.40	5486.22
429.59	5680.48
429.78	5362.17
429.97	5247.48
430.16	5526.00
430.34	5799.85
430.53	5750.70
430.72	5823.25
430.91	5738.99
431.10	5757.72
431.28	5832.62
431.47	5870.06
431.66	5809.21
431.85	5991.77
432.03	5996.45
432.22	6211.78
432.41	5982.41
432.60	5940.28
432.79	5851.34
432.97	6066.67
433.16	6050.28
433.35	6057.31
433.54	6181.35
433.72	6202.42
433.91	6171.99
434.10	6087.73
434.28	6279.66
434.47	6171.99
434.66	6139.23
434.85	6260.93
435.03	6303.06
435.22	6382.64
435.41	6574.56
435.59	6520.73
435.78	6562.86
435.97	6544.14
436.16	6492.65
436.34	6417.75
436.53	6703.29
436.72	6813.30
436.90	6576.91
437.09	6761.81
437.28	6483.28
437.46	6602.65
437.65	6747.76
437.84	6890.54
438.02	6768.83
438.21	6792.23
438.40	6771.17
438.58	7129.27
438.77	7145.66
438.96	7129.27
439.14	7253.32
439.33	7314.17
439.52	7276.73
439.70	7363.33
439.89	7288.43
440.08	7503.76
440.26	7433.54
440.45	7541.21
440.63	7501.42
440.82	7637.17
441.01	7487.37
441.19	7826.75
441.38	7868.88
441.57	7754.19
441.75	7833.77
441.94	8248.05
442.12	7957.82
442.31	8039.74
442.50	8095.91
442.68	7964.84
442.87	8170.81
443.05	8212.94
443.24	8381.46
443.43	8386.14
443.61	8313.58
443.80	8542.96
443.98	8252.73
444.17	7880.58
444.35	8257.41
444.54	8507.85
444.73	8346.35
444.91	8257.41
445.10	8500.83
445.28	8505.51
445.47	8313.58
445.65	8414.23
445.84	8409.54
446.02	8526.57
446.21	8397.84
446.39	8374.44
446.58	8638.92
446.77	8421.25
446.95	8383.80
447.14	8451.67
447.32	8727.86
447.51	8748.92
447.69	8477.42
447.88	8496.14
448.06	8531.25
448.25	8564.02
448.43	8753.60
448.62	8774.67
448.80	8585.08
448.99	8685.73
449.17	8758.28
449.36	8762.97
449.54	8938.51
449.73	9214.69
449.91	9289.59
450.10	9114.05
450.28	9362.14
450.46	9217.03
450.65	9238.09
450.83	9109.36
451.02	9144.47
451.20	9404.27
451.39	9233.41
451.57	9205.33
451.76	8997.02
451.94	9027.45
452.13	9453.42
452.31	9408.95
452.49	9474.49
452.68	9380.87
452.86	9640.67
453.05	9420.66
453.23	9441.72
453.42	9430.02
453.60	9439.38
453.78	9668.75
453.97	9521.30
454.15	9516.62
454.34	9373.85
454.52	9809.19
454.70	9724.93
454.89	9851.31
455.07	9839.61
455.26	9949.62
455.44	10031.54
455.62	9951.96
455.81	9996.43
455.99	10207.08
456.17	10132.18
456.36	10106.43
456.54	10113.45
456.73	10370.91
456.91	10492.62
457.09	10527.73
457.28	10459.85
457.46	10377.94
457.64	10595.61
457.83	10516.03
458.01	10427.09
458.19	10869.45
458.38	10789.87
458.56	10689.23
458.74	10773.49
458.93	10724.33
459.11	10801.57
459.29	10981.79
459.48	11023.92
459.66	10939.66
459.84	10949.03
460.03	11190.10
460.21	10951.37
460.39	11145.63
460.57	11190.10
460.76	11119.89
460.94	11454.58
461.12	11470.97
461.31	11351.60
461.49	11295.43
461.67	11377.34
461.85	11850.13
462.04	11365.64
462.22	11836.09
462.40	11655.87
462.59	11775.24
462.77	11602.04
462.95	11700.34
463.13	11707.36
463.32	11992.90
463.50	11896.94
463.68	11934.39
463.86	12084.19
464.05	12088.87
464.23	11625.44
464.41	12105.25
464.59	11913.33
464.78	12182.49
464.96	11936.73
465.14	12016.31
465.32	12376.75
465.50	12177.81
465.69	12175.47
465.87	12271.43
466.05	12367.39
466.23	12252.70
466.41	12582.72
466.60	12540.59
466.78	12149.72
466.96	12231.64
467.14	12554.63
467.32	12451.65
467.51	12725.49
467.69	12191.85
467.87	12755.92
468.05	12781.67
468.23	12582.72
468.41	12542.93
468.60	12666.98
468.78	12980.61
468.96	12767.62
469.14	12828.48
469.32	13139.77
469.50	12678.68
469.69	13121.04
469.87	13193.60
470.05	13280.20
470.23	13317.65
470.41	13362.12
470.59	13451.06
470.77	13380.84
470.95	13467.44
471.14	13708.52
471.32	13305.95
471.50	13914.48
471.68	13645.32
471.86	13776.39
472.04	13813.84
472.22	14209.39
472.40	13703.84
472.58	14068.96
472.77	14204.71
472.95	14443.45
473.13	14918.57
473.31	14370.89
473.49	14281.95
473.67	14162.58
473.85	14312.38
474.03	14736.01
474.21	14717.29
474.39	14703.25
474.57	15108.16
474.75	15021.56
474.93	15131.56
475.12	15049.64
475.30	15164.33
475.48	15370.30
475.66	15475.62
475.84	15337.53
476.02	15318.81
476.20	15484.98
476.38	15906.28
476.56	16332.26
476.74	16226.93
476.92	16016.29
477.10	15625.42
477.28	16250.34
477.46	16514.82
477.64	16524.18
477.82	16587.38
478.00	16994.63
478.18	17282.52
478.36	17144.42
478.54	17406.56
478.72	17596.15
478.90	17359.75
479.08	17708.49
479.26	17912.12
479.44	17898.08
479.62	17940.21
479.80	18127.45
479.98	18511.30
480.16	18932.59
480.34	18579.17
480.52	19091.75
480.70	18920.89
480.88	18703.22
481.06	18789.82
481.24	19295.38
481.41	19391.34
481.59	19524.75
481.77	19632.41
481.95	19850.08
482.13	19917.96
482.31	20203.50
482.49	20685.65
482.67	20350.96
482.85	20716.08
483.03	20718.42
483.21	21095.25
483.39	21025.03
483.57	20800.34
483.74	21649.96
483.92	21729.53
484.10	21336.32
484.28	22038.48
484.46	22412.97
484.64	22544.04
484.82	22136.79
485.00	22274.88
485.18	22937.25
485.35	23234.50
485.53	23192.37
485.71	23536.43
485.89	23983.47
486.07	23920.28
486.25	23550.47
486.43	23906.23
486.61	24051.34
486.78	24250.29
486.96	24613.07
487.14	24968.84
487.32	24758.19
487.50	24783.93
487.68	25233.32
487.85	25881.64
488.03	25577.37
488.21	26644.66
488.39	26122.72
488.57	26394.22
488.75	26473.80
488.92	26686.79
489.10	26852.97
489.28	27140.85
489.46	27637.05
489.64	27349.16
489.81	28175.37
489.99	28418.78
490.17	28252.61
490.35	28170.69
490.53	28215.16
490.70	28919.66
490.88	28765.18
491.06	29151.37
491.24	29230.95
491.41	29376.06
491.59	29734.17
491.77	29670.97
491.95	30019.71
492.13	30492.50
492.30	30143.76
492.48	30003.33
492.66	30782.73
492.84	30747.62
493.01	31136.15
493.19	30780.39
493.37	31386.58
493.54	31754.05
493.72	31552.76
493.90	31339.77
494.08	32098.11
494.25	32306.41
494.43	32474.93
494.61	33083.47
494.79	32837.72
494.96	32926.66
495.14	33076.45
495.32	33645.20
495.49	33333.91
495.67	33516.47
495.85	33783.29
496.02	34141.39
496.20	34377.79
496.38	34010.32
496.55	34480.77
496.73	35054.20
496.91	34857.60
497.09	35461.46
497.26	35550.40
497.44	35412.31
497.62	35789.13
497.79	36418.74
497.97	35716.58
498.14	36055.95
498.32	36250.22
498.50	36545.12
498.67	36957.06
498.85	36943.02
499.03	37165.37
499.20	37043.66
499.38	37425.17
499.56	37156.00
499.73	37479.00
499.91	37530.49
500.08	38045.41
500.26	37605.39
500.44	38265.42
500.61	38424.57
500.79	38047.75
500.97	38696.08
501.14	39189.93
501.32	38930.13
501.49	38946.51
501.67	39400.58
501.84	39278.87
502.02	39255.46
502.20	39449.73
502.37	39917.84
502.55	39728.25
502.72	40100.40
502.90	39908.47
503.07	40016.14
503.25	40282.96
503.43	39875.71
503.60	40643.40
503.78	40769.79
503.95	40540.42
504.13	41104.49
504.30	41148.96
504.48	40854.05
504.65	41085.76
504.83	41364.29
505.01	41881.55
505.18	41773.88
505.36	42047.72
505.53	41584.30
505.71	41551.53
505.88	42366.04
506.06	41883.89
506.23	42363.70
506.41	42117.94
506.58	42476.04
506.76	42651.58
506.93	42878.61
507.11	42960.53
507.28	43096.28
507.46	43248.42
507.63	43414.60
507.81	43758.66
507.98	43332.68
508.16	43683.76
508.33	43674.40
508.50	44072.29
508.68	44149.53
508.85	44034.84
509.03	44325.07
509.20	44554.44
509.38	44664.44
509.55	44891.48
509.73	45081.06
509.90	45113.83
510.08	44891.48
510.25	44877.43
510.42	45081.06
510.60	45500.01
510.77	45577.25
510.95	46209.20
511.12	45523.42
511.30	45539.80
511.47	45954.08
511.64	46028.98
511.82	46061.74
511.99	45811.31
512.17	46293.46
512.34	46494.74
512.51	46941.78
512.69	46649.22
512.86	46674.96
513.04	46948.81
513.21	47405.21
513.38	47201.58
513.56	47014.34
513.73	47189.88
513.90	47433.30
514.08	47540.96
514.25	47885.02
514.43	47744.59
514.60	47973.96
514.77	47838.21
514.95	48210.35
515.12	48208.01
515.29	48037.16
515.47	48343.77
515.64	48488.88
515.81	48516.96
515.99	48577.82
516.16	48872.73
516.33	48804.85
516.51	49326.79
516.68	49059.97
516.85	48755.70
517.03	49184.02
517.20	49638.08
517.37	49233.17
517.54	49361.90
517.72	49027.20
517.89	49298.70
518.06	49881.50
518.24	49773.83
518.41	49535.10
518.58	49808.94
518.75	49462.54
518.93	49947.03
519.10	49797.24
519.27	50508.76
519.45	50543.87
519.62	50258.32
519.79	50742.81
519.96	50501.74
520.14	50721.75
520.31	50501.74
520.48	50850.48
520.65	50532.17
520.83	51145.39
521.00	51166.45
521.17	51007.29
521.34	51220.28
521.52	51009.64
521.69	51318.59
521.86	51398.16
522.03	51604.13
522.20	51812.44
522.38	52116.71
522.55	51590.09
522.72	51632.22
522.89	51906.06
523.07	52060.54
523.24	51980.96
523.41	52107.35
523.58	51615.83
523.75	52245.44
523.92	52238.42
524.10	52514.60
524.27	52650.35
524.44	52388.21
524.61	52343.74
524.78	52631.63
524.96	52669.08
525.13	52666.73
525.30	53015.47
525.47	52959.30
525.64	52921.85
525.81	53139.52
525.98	53312.72
526.16	52924.19
526.33	52978.03
526.50	53366.55
526.67	53160.59
526.84	53289.32
527.01	53102.07
527.18	53450.81
527.36	53116.12
527.53	53439.11
527.70	53766.79
527.87	53375.92
528.04	53616.99
528.21	53822.96
528.38	53787.85
528.55	53979.78
528.72	53516.35
528.89	53860.41
529.07	53694.23
529.24	53996.16
529.41	54138.93
529.58	54178.72
529.75	53961.05
529.92	54239.57
530.09	53972.75
530.26	54246.60
530.43	54298.09
530.60	54117.87
530.77	54148.29
530.94	54529.80
531.11	54436.18
531.28	54525.12
531.46	54635.13
531.63	54272.34
531.80	54628.10
531.97	54801.30
532.14	54663.21
532.31	54796.62
532.48	54976.84
532.65	55021.31
532.82	54646.83
532.99	55194.51
533.16	54782.58
533.33	55274.09
533.50	55157.06
533.67	55253.03
533.84	55143.02
534.01	55276.43
534.18	55121.96
534.35	55842.84
534.52	55475.38
534.69	55571.34
534.86	55444.95
535.03	55079.83
535.20	55786.67
535.37	55587.72
535.54	55674.32
535.71	55758.58
535.88	55758.58
536.05	55997.32
536.22	56058.17
536.38	55899.01
536.55	55618.15
536.72	56264.14
536.89	55807.73
537.06	55934.12
537.23	56102.64
537.40	55964.55
537.57	56046.47
537.74	56053.49
537.91	56191.58
538.08	56240.73
538.25	56247.75
538.42	56074.55
538.59	56406.91
538.75	56261.80
538.92	56168.18
539.09	56556.70
539.26	56397.55
539.43	56362.44
539.60	56477.13
539.77	56481.81
539.94	56816.50
540.11	56633.94
540.28	56647.99
540.44	56907.79
540.61	56954.60
540.78	56638.62
540.95	56729.90
541.12	56690.12
541.29	56631.60
541.46	56664.37
541.62	57052.90
541.79	56926.51
541.96	56619.90
542.13	56849.27
542.30	56924.17
542.47	57144.18
542.63	57146.52
542.80	57092.69
542.97	57347.81
543.14	57427.38
543.31	57518.67
543.48	57457.81
543.64	57726.97
543.81	57593.56
543.98	57570.16
544.15	57712.93
544.32	57755.06
544.48	57780.81
544.65	57865.06
544.82	57682.50
544.99	57516.32
545.16	57862.72
545.32	57696.55
545.49	57932.94
545.66	58078.05
545.83	57769.10
546.00	58267.64
546.16	58141.25
546.33	57834.64
546.50	57918.90
546.67	58061.67
546.83	57602.92
547.00	57970.39
547.17	58038.26
547.34	57900.17
547.50	58188.06
547.67	58475.94
547.84	58262.96
548.00	58293.38
548.17	58555.52
548.34	58487.65
548.51	58719.36
548.67	58581.27
548.84	58588.29
549.01	58494.67
549.18	58644.46
549.34	58653.82
549.51	58665.53
549.68	58857.45
549.84	58693.61
550.01	58684.25
550.18	58688.93
550.34	58417.43
550.51	58834.05
550.68	58834.05
550.84	58473.60
551.01	59058.74
551.18	58773.19
551.34	58768.51
551.51	58527.44
551.68	58941.71
551.84	58838.73
552.01	58815.32
552.18	58798.94
552.34	58787.24
552.51	58834.05
552.68	58855.11
552.84	58899.58
553.01	59077.46
553.18	59318.54
553.34	59138.32
553.51	59072.78
553.67	59047.04
553.84	59203.85
554.01	59255.34
554.17	59309.18
554.34	59522.16
554.51	59154.70
554.67	59299.81
554.84	59353.65
555.00	59334.92
555.17	59208.53
555.33	59351.30
555.50	59253.00
555.67	59276.41
555.83	59332.58
556.00	59391.09
556.16	59625.15
556.33	59473.01
556.50	59561.95
556.66	59676.64
556.83	59587.70
556.99	59461.31
557.16	59576.00
557.32	59669.62
557.49	59870.90
557.65	59723.45
557.82	59676.64
557.98	59702.38
558.15	59688.34
558.32	59817.07
558.48	59601.74
558.65	59686.00
558.81	59671.96
558.98	60023.04
559.14	59756.22
559.31	59952.82
559.47	59938.78
559.64	60006.65
559.80	59915.37
559.97	60023.04
560.13	59931.76
560.30	60009.00
560.46	60001.97
560.63	60076.87
560.79	60135.38
560.96	60041.76
561.12	60172.83
561.29	60147.09
561.45	60254.75
561.61	60161.13
561.78	59901.33
561.94	60030.06
562.11	60177.51
562.27	60247.73
562.44	60205.60
562.60	60350.71
562.77	60395.18
562.93	60212.62
563.10	60128.36
563.26	60172.83
563.42	60317.95
563.59	60390.50
563.75	60339.01
563.92	60161.13
564.08	60310.92
564.24	60467.74
564.41	60463.06
564.57	60463.06
564.74	60495.83
564.90	60463.06
565.07	60460.72
565.23	60409.23
565.39	60259.43
565.56	60491.15
565.72	60381.14
565.88	60561.36
566.05	60416.25
566.21	60378.80
566.38	60495.83
566.54	60722.86
566.70	60498.17
566.87	60645.62
567.03	60544.98
567.19	60671.37
567.36	60673.71
567.52	60647.96
567.68	60636.26
567.85	60633.92
568.01	60610.51
568.17	60659.66
568.34	60601.15
568.50	60711.16
568.66	60706.47
568.83	60753.29
568.99	60622.22
569.15	60669.03
569.32	60624.56
569.48	60669.03
569.64	60940.53
569.81	60793.07
569.97	60526.25
570.13	60846.91
570.30	60575.40
570.46	60561.36
570.62	60835.20
570.78	60867.97
570.95	60767.33
571.11	60797.76
571.27	60706.47
571.43	60945.21
571.60	61078.62
571.76	60697.11
571.92	60891.38
572.09	60694.77
572.25	60678.39
572.41	60809.46
572.57	60823.50
572.74	60947.55
572.90	61087.98
573.06	60926.49
573.22	60942.87
573.38	60839.89
573.55	60622.22
573.71	61066.92
573.87	60893.72
574.03	60734.56
574.20	60963.93
574.36	60779.03
574.52	60942.87
574.68	60935.85
574.84	61153.52
575.01	60963.93
575.17	60816.48
575.33	60844.57
575.49	61031.81
575.65	61134.79
575.82	61291.61
575.98	61057.56
576.14	61162.88
576.30	61052.87
576.46	60994.36
576.62	60985.00
576.79	61036.49
576.95	60931.17
577.11	61258.84
577.27	61235.44
577.43	61137.13
577.59	60912.44
577.75	61027.13
577.92	61092.66
578.08	61052.87
578.24	61038.83
578.40	61282.25
578.56	61188.63
578.72	61036.49
578.88	61345.44
579.04	61427.36
579.21	61235.44
579.37	61315.01
579.53	61109.05
579.69	61020.11
579.85	61111.39
580.01	61258.84
580.17	61090.32
580.33	61282.25
580.49	61134.79
580.65	61214.37
580.82	61106.71
580.98	61050.53
581.14	61368.85
581.30	61205.01
581.46	61078.62
581.62	61254.16
581.78	61162.88
581.94	61300.97
582.10	61109.05
582.26	61141.81
582.42	61244.80
582.58	61097.34
582.74	61205.01
582.90	61102.03
583.06	61172.24
583.22	61188.63
583.38	61291.61
583.54	61284.59
583.70	61300.97
583.86	61378.21
584.02	61043.51
584.18	61148.84
584.34	61179.26
584.50	61251.82
584.66	61148.84
584.82	61102.03
584.98	61240.12
585.14	61539.71
585.30	61193.31
585.46	61343.10
585.62	61158.20
585.78	61460.13
585.94	61216.71
586.10	61286.93
586.26	61263.52
586.42	61338.42
586.58	61509.28
586.74	61298.63
586.90	61158.20
587.06	61179.26
587.22	61338.42
587.38	61380.55
587.54	61511.62
587.70	61450.77
587.86	61345.44
588.02	61429.70
588.18	61418.00
588.34	61439.06
588.49	61324.38
