SpectraSuite Data File
++++++++++++++++++++++++++++++++++++
Date: Fri Oct 25 11:33:26 EDT 2013
User: price-jones
Dark Spectrum Present: No
Reference Spectrum Present: No
Number of Sampled Component Spectra: 1
Spectrometers: USB2+H05261
Integration Time (usec): 100000 (USB2+H05261)
Spectra Averaged: 1 (USB2+H05261)
Boxcar Smoothing: 0 (USB2+H05261)
Correct for Electrical Dark: No (USB2+H05261)
Strobe/Lamp Enabled: No (USB2+H05261)
Correct for Detector Non-linearity: No (USB2+H05261)
Correct for Stray Light: No (USB2+H05261)
Number of Pixels in Processed Spectrum: 2048
>>>>>Begin Processed Spectral Data<<<<<
365.73	290.23
365.92	290.23
366.12	290.23
366.32	166.18
366.52	177.88
366.72	210.65
366.91	152.13
367.11	131.07
367.31	149.79
367.51	198.95
367.70	163.84
367.90	166.18
368.10	182.56
368.30	126.39
368.49	147.45
368.69	182.56
368.89	208.31
369.09	180.22
369.28	196.60
369.48	205.97
369.68	224.69
369.87	210.65
370.07	266.82
370.27	231.71
370.47	278.52
370.66	486.83
370.86	514.92
371.06	505.56
371.25	526.62
371.45	552.37
371.65	636.63
371.84	535.98
372.04	550.03
372.24	631.94
372.44	533.64
372.63	627.26
372.83	582.79
373.03	617.90
373.22	571.09
373.42	610.88
373.62	671.73
373.81	582.79
374.01	582.79
374.21	641.31
374.40	667.05
374.60	627.26
374.79	603.86
374.99	622.58
375.19	690.46
375.38	645.99
375.58	667.05
375.78	671.73
375.97	716.20
376.17	702.16
376.37	739.61
376.56	720.88
376.76	681.10
376.95	671.73
377.15	739.61
377.35	681.10
377.54	650.67
377.74	617.90
377.93	685.78
378.13	723.23
378.33	784.08
378.52	709.18
378.72	681.10
378.91	770.04
379.11	781.74
379.31	748.97
379.50	664.71
379.70	748.97
379.89	746.63
380.09	697.48
380.28	793.44
380.48	732.59
380.68	798.12
380.87	800.46
381.07	837.91
381.26	821.53
381.46	737.27
381.65	779.40
381.85	732.59
382.04	704.50
382.24	746.63
382.43	760.67
382.63	805.14
382.83	781.74
383.02	734.93
383.22	882.38
383.41	753.65
383.61	812.17
383.80	800.46
384.00	807.48
384.19	814.51
384.39	821.53
384.58	807.48
384.78	880.04
384.97	828.55
385.17	847.27
385.36	912.81
385.56	889.40
385.75	851.96
385.95	833.23
386.14	837.91
386.34	833.23
386.53	854.30
386.72	795.78
386.92	849.61
387.11	882.38
387.31	854.30
387.50	908.13
387.70	814.51
387.89	985.37
388.09	884.72
388.28	961.96
388.48	933.87
388.67	990.05
388.86	849.61
389.06	976.00
389.25	978.34
389.45	922.17
389.64	1006.43
389.84	1018.13
390.03	964.30
390.22	1022.81
390.42	1008.77
390.61	952.60
390.81	936.21
391.00	1025.15
391.19	1011.11
391.39	1022.81
391.58	1011.11
391.78	1076.65
391.97	1020.47
392.16	1067.28
392.36	1027.50
392.55	1041.54
392.75	1076.65
392.94	997.07
393.13	1146.86
393.33	1062.60
393.52	1013.45
393.71	1078.99
393.91	1053.24
394.10	1102.39
394.29	1132.82
394.49	1125.80
394.68	1074.31
394.88	1071.97
395.07	1081.33
395.26	1132.82
395.46	1118.78
395.65	1228.78
395.84	1221.76
396.04	1217.08
396.23	1231.12
396.42	1151.54
396.62	1238.14
396.81	1198.35
397.00	1235.80
397.19	1240.48
397.39	1184.31
397.58	1210.06
397.77	1221.76
397.97	1273.25
398.16	1245.16
398.35	1203.04
398.55	1345.81
398.74	1373.89
398.93	1329.42
399.12	1317.72
399.32	1303.68
399.51	1310.70
399.70	1294.32
399.90	1240.48
400.09	1380.92
400.28	1420.71
400.47	1420.71
400.67	1373.89
400.86	1427.73
401.05	1420.71
401.24	1455.81
401.44	1467.52
401.63	1476.88
401.82	1514.33
402.01	1460.49
402.21	1420.71
402.40	1406.66
402.59	1490.92
402.78	1521.35
402.97	1563.48
403.17	1528.37
403.36	1554.12
403.55	1551.78
403.74	1591.56
403.93	1645.40
404.13	1603.27
404.32	1540.07
404.51	1596.25
404.70	1638.38
404.89	1479.22
405.09	1582.20
405.28	1701.57
405.47	1717.95
405.66	1706.25
405.85	1692.21
406.05	1708.59
406.24	1746.04
406.43	1736.68
406.62	1797.53
406.81	1879.45
407.00	1839.66
407.20	1860.73
407.39	1722.63
407.58	1802.21
407.77	1916.90
407.96	1987.11
408.15	1804.55
408.34	1830.30
408.54	1919.24
408.73	1949.67
408.92	1998.82
409.11	2083.08
409.30	2026.90
409.49	2033.93
409.68	2073.71
409.87	2022.22
410.07	1984.77
410.26	2036.27
410.45	1980.09
410.64	2101.80
410.83	2132.23
411.02	2111.16
411.21	2094.78
411.40	2080.74
411.59	2242.23
411.78	2272.66
411.98	2207.13
412.17	2230.53
412.36	2244.57
412.55	2305.43
412.74	2361.60
412.93	2408.41
413.12	2368.62
413.31	2415.43
413.50	2441.18
413.69	2441.18
413.88	2551.18
414.07	2562.89
414.26	2527.78
414.45	2499.69
414.64	2532.46
414.83	2553.52
415.02	2640.12
415.22	2579.27
415.41	2654.17
415.60	2663.53
415.79	2750.13
415.98	2815.66
416.17	2717.36
416.36	2796.94
416.55	2841.41
416.74	2750.13
416.93	2925.67
417.12	2855.45
417.31	2930.35
417.50	2949.08
417.69	2895.24
417.88	3035.67
418.07	2932.69
418.26	3056.74
418.45	3026.31
418.64	3077.80
418.83	2977.16
419.02	3103.55
419.21	3117.59
419.39	3101.21
419.58	3105.89
419.77	3084.83
419.96	3040.36
420.15	3150.36
420.34	3218.24
420.53	3091.85
420.72	3318.88
420.91	3353.99
421.10	3293.13
421.29	3321.22
421.48	3150.36
421.67	3391.44
421.86	3325.90
422.05	3274.41
422.24	3215.90
422.43	3302.50
422.61	3321.22
422.80	3449.95
422.99	3419.52
423.18	3356.33
423.37	3438.25
423.56	3379.73
423.75	3353.99
423.94	3316.54
424.13	3281.43
424.32	3318.88
424.50	3445.27
424.69	3471.01
424.88	3660.60
425.07	3478.04
425.26	3442.93
425.45	3279.09
425.64	3414.84
425.83	3494.42
426.01	3590.38
426.20	3445.27
426.39	3480.38
426.58	3473.36
426.77	3562.30
426.96	3592.72
427.15	3592.72
427.33	3562.30
427.52	3693.37
427.71	3651.24
427.90	3590.38
428.09	3754.22
428.28	3714.43
428.46	3786.99
428.65	3662.94
428.84	3904.01
429.03	3803.37
429.22	3721.45
429.40	3831.46
429.59	3878.27
429.78	3655.92
429.97	3688.68
430.16	3805.71
430.34	3929.76
430.53	3754.22
430.72	3936.78
430.91	3815.07
431.10	3915.72
431.28	3971.89
431.47	3969.55
431.66	3840.82
431.85	3899.33
432.03	3978.91
432.22	4163.81
432.41	4203.60
432.60	3950.82
432.79	4074.87
432.97	4086.58
433.16	4184.88
433.35	4212.96
433.54	4170.83
433.72	4159.13
433.91	4306.59
434.10	4248.07
434.28	4210.62
434.47	4241.05
434.66	4358.08
434.85	4386.16
435.03	4348.72
435.22	4280.84
435.41	4409.57
435.59	4369.78
435.78	4475.10
435.97	4435.32
436.16	4500.85
436.34	4287.86
436.53	4533.62
436.72	4606.17
436.90	4493.83
437.09	4631.92
437.28	4442.34
437.46	4484.47
437.65	4524.26
437.84	4557.02
438.02	4624.90
438.21	4624.90
438.40	4718.52
438.58	4709.16
438.77	4786.40
438.96	4713.84
439.14	4901.08
439.33	4975.98
439.52	4835.55
439.70	4915.12
439.89	5195.99
440.08	5095.35
440.26	5013.43
440.45	5135.14
440.63	5039.17
440.82	5191.31
441.01	5048.54
441.19	5156.20
441.38	5275.57
441.57	5247.48
441.75	5357.49
441.94	5179.61
442.12	5460.47
442.31	5301.31
442.50	5331.74
442.68	5434.72
442.87	5624.31
443.05	5521.32
443.24	5626.65
443.43	5584.52
443.61	5598.56
443.80	5738.99
443.98	5589.20
444.17	5238.12
444.35	5729.63
444.54	5701.54
444.73	5664.10
444.91	5659.42
445.10	5699.20
445.28	5696.86
445.47	5533.03
445.65	5689.84
445.84	5561.11
446.02	5675.80
446.21	5692.18
446.39	5551.75
446.58	5841.98
446.77	5743.67
446.95	5731.97
447.14	5799.85
447.32	5914.53
447.51	5757.72
447.69	5661.76
447.88	5785.80
448.06	5769.42
448.25	5776.44
448.43	5818.57
448.62	5884.11
448.80	5926.24
448.99	5930.92
449.17	5879.43
449.36	5806.87
449.54	6008.16
449.73	6104.12
449.91	6115.82
450.10	5933.26
450.28	6153.27
450.46	6232.85
450.65	6127.52
450.83	6087.73
451.02	6282.00
451.20	6270.30
451.39	6221.14
451.57	6270.30
451.76	6115.82
451.94	6267.95
452.13	6370.94
452.31	6413.07
452.49	6289.02
452.68	6377.96
452.86	6349.87
453.05	6427.11
453.23	6492.65
453.42	6347.53
453.60	6305.40
453.78	6466.90
453.97	6338.17
454.15	6394.34
454.34	6408.39
454.52	6656.48
454.70	6679.89
454.89	6612.01
455.07	6516.05
455.26	6534.78
455.44	6677.55
455.62	6707.98
455.81	6754.79
455.99	6885.86
456.17	6736.06
456.36	6932.67
456.54	6808.62
456.73	6932.67
456.91	7066.08
457.09	7103.53
457.28	7148.00
457.46	7094.16
457.64	7342.26
457.83	7110.55
458.01	7007.56
458.19	7295.45
458.38	7302.47
458.56	7332.90
458.74	7164.38
458.93	7187.79
459.11	7269.70
459.29	7258.00
459.48	7243.96
459.66	7407.80
459.84	7515.46
460.03	7559.93
460.21	7548.23
460.39	7445.24
460.57	7403.11
460.76	7702.70
460.94	7569.29
461.12	7414.82
461.31	7609.08
461.49	7522.48
461.67	7543.55
461.85	7719.09
462.04	7693.34
462.22	8173.15
462.40	7779.94
462.59	7772.92
462.77	7702.70
462.95	7719.09
463.13	7798.66
463.32	7695.68
463.50	7911.01
463.68	7810.37
463.86	7911.01
464.05	7772.92
464.23	7819.73
464.41	8093.57
464.59	7976.55
464.78	8081.87
464.96	8091.23
465.14	8030.38
465.32	8086.55
465.50	7889.95
465.69	8147.40
465.87	8105.28
466.05	8109.96
466.23	8152.09
466.41	8404.86
466.60	8271.45
466.78	8264.43
466.96	8086.55
467.14	8201.24
467.32	8306.56
467.51	8346.35
467.69	8018.68
467.87	8315.92
468.05	8461.04
468.23	8234.00
468.41	8437.63
468.60	8505.51
468.78	8458.70
468.96	8430.61
469.14	8627.21
469.32	8723.18
469.50	8688.07
469.69	8922.12
469.87	8802.75
470.05	8821.48
470.23	8861.27
470.41	8755.94
470.59	8894.04
470.77	8959.57
470.95	8732.54
471.14	9165.54
471.32	8926.80
471.50	9135.11
471.68	8830.84
471.86	9179.58
472.04	9170.22
472.22	9324.69
472.40	9036.81
472.58	9025.11
472.77	9310.65
472.95	9380.87
473.13	9540.02
473.31	9238.09
473.49	9514.28
473.67	9621.94
473.85	9488.53
474.03	9750.67
474.21	9767.06
474.39	10085.37
474.57	10094.73
474.75	9781.10
474.93	10141.54
475.12	9902.81
475.30	10118.14
475.48	9989.41
475.66	10050.26
475.84	10193.03
476.02	10181.33
476.20	10146.22
476.38	10263.25
476.56	10611.99
476.74	10658.80
476.92	10469.22
477.10	10670.50
477.28	10808.59
477.46	10918.60
477.64	11105.84
477.82	11115.20
478.00	11197.12
478.18	11211.17
478.36	11314.15
478.54	11400.75
478.72	11274.36
478.90	11386.71
479.08	11541.18
479.26	11903.96
479.44	11946.09
479.62	11896.94
479.80	11875.88
479.98	11906.31
480.16	12257.39
480.34	12334.62
480.52	12283.13
480.70	12343.99
480.88	12285.47
481.06	12500.80
481.24	12505.48
481.41	12828.48
481.59	12961.89
481.77	12945.50
481.95	12966.57
482.13	13177.22
482.31	13088.28
482.49	13408.93
482.67	13301.26
482.85	13387.86
483.03	13760.01
483.21	13579.79
483.39	13884.06
483.57	13844.27
483.74	13825.54
483.92	14171.94
484.10	13968.32
484.28	14029.17
484.46	14780.48
484.64	14724.31
484.82	14513.66
485.00	14618.99
485.18	14965.39
485.35	15276.68
485.53	15051.99
485.71	14895.17
485.89	15609.03
486.07	15602.01
486.25	15337.53
486.43	15634.78
486.61	15782.23
486.78	15578.61
486.96	16107.57
487.14	16177.78
487.32	16004.58
487.50	16107.57
487.68	16622.48
487.85	16844.84
488.03	16645.89
488.21	16959.52
488.39	16872.92
488.57	17139.74
488.75	17408.90
488.92	17781.05
489.10	17556.36
489.28	17483.80
489.46	17703.81
489.64	17820.84
489.81	18155.54
489.99	18401.29
490.17	18317.03
490.35	18658.75
490.53	18789.82
490.70	18874.08
490.88	18691.52
491.06	19222.82
491.24	19002.81
491.41	19393.68
491.59	19278.99
491.77	19283.67
491.95	19630.07
492.13	19543.47
492.30	19836.04
492.48	19777.53
492.66	20163.72
492.84	20091.16
493.01	20144.99
493.19	20357.98
493.37	20379.04
493.54	20730.12
493.72	20875.24
493.90	20510.11
494.08	20936.09
494.25	21160.78
494.43	21095.25
494.61	21226.32
494.79	21366.75
494.96	21397.18
495.14	21607.83
495.32	22043.17
495.49	21832.52
495.67	21844.22
495.85	21909.75
496.02	22202.32
496.20	22398.93
496.38	22466.80
496.55	22590.85
496.73	23129.17
496.91	22871.72
497.09	22401.27
497.26	23058.96
497.44	23019.17
497.62	23304.71
497.79	23749.42
497.97	23515.36
498.14	23730.69
498.32	23873.46
498.50	23988.15
498.67	24074.75
498.85	23868.78
499.03	24360.30
499.20	24271.36
499.38	24037.30
499.56	24474.98
499.73	24404.77
499.91	24849.47
500.08	25146.72
500.26	24587.33
500.44	24940.75
500.61	24870.53
500.79	24882.24
500.97	25355.02
501.14	25591.42
501.32	25912.07
501.49	25340.98
501.67	25228.63
501.84	25933.14
502.02	25659.29
502.20	25734.19
502.37	25769.30
502.55	25991.65
502.72	26356.77
502.90	25937.82
503.07	25825.47
503.25	26239.75
503.43	26071.23
503.60	26272.51
503.78	26246.77
503.95	26703.17
504.13	26672.74
504.30	26855.31
504.48	26822.54
504.65	26686.79
504.83	27234.47
505.01	27524.70
505.18	27431.08
505.36	27487.25
505.53	27608.96
505.71	27585.55
505.88	27623.00
506.06	27262.56
506.23	27821.95
506.41	27812.59
506.58	28067.70
506.76	28072.39
506.93	28334.53
507.11	28318.14
507.28	28584.96
507.46	28334.53
507.63	28463.25
507.81	28973.49
507.98	28566.24
508.16	28472.62
508.33	28685.61
508.50	28964.13
508.68	29034.35
508.85	29500.11
509.03	29090.52
509.20	29170.10
509.38	29413.51
509.55	29247.33
509.73	29846.51
509.90	29748.21
510.08	29502.45
510.25	29680.33
510.42	29465.00
510.60	29823.11
510.77	30052.48
510.95	30309.94
511.12	29937.79
511.30	29776.30
511.47	30146.10
511.64	30356.75
511.82	30455.05
511.99	30581.44
512.17	30504.20
512.34	30616.55
512.51	30951.24
512.69	31133.81
512.86	30780.39
513.04	31260.20
513.21	31136.15
513.38	31023.80
513.56	31566.81
513.73	31536.38
513.90	30874.01
514.08	31604.25
514.25	31564.46
514.43	31751.71
514.60	31931.93
514.77	31915.54
514.95	32063.00
515.12	31892.14
515.29	31854.69
515.47	32187.05
515.64	32367.27
515.81	32074.70
515.99	32378.97
516.16	32299.39
516.33	32299.39
516.51	32690.26
516.68	32624.73
516.85	32353.23
517.03	32779.20
517.20	32669.20
517.37	32718.35
517.54	33010.92
517.72	33149.01
517.89	33357.32
518.06	33401.79
518.24	33113.90
518.41	33151.35
518.58	33141.99
518.75	33305.82
518.93	33511.79
519.10	33537.54
519.27	33736.48
519.45	34122.67
519.62	33621.80
519.79	33881.60
519.96	33680.31
520.14	34204.59
520.31	34242.04
520.48	34473.75
520.65	34419.92
520.83	34927.81
521.00	34143.74
521.17	34300.55
521.34	34464.39
521.52	35110.38
521.69	34536.94
521.86	34604.82
522.03	35089.31
522.20	35271.87
522.38	35304.64
522.55	34955.90
522.72	35091.65
522.89	35393.58
523.07	35686.15
523.24	35180.59
523.41	35826.58
523.58	35405.28
523.75	35669.76
523.92	35931.90
524.10	35849.99
524.27	35725.94
524.44	36121.49
524.61	36240.86
524.78	36187.02
524.96	35704.87
525.13	36435.12
525.30	36470.23
525.47	36559.17
525.64	36229.15
525.81	36362.56
525.98	36825.99
526.16	36367.24
526.33	36261.92
526.50	36814.29
526.67	36662.15
526.84	36673.85
527.01	36528.74
527.18	37071.75
527.36	37010.89
527.53	37137.28
527.70	37574.96
527.87	37584.32
528.04	37436.87
528.21	37013.23
528.38	37198.13
528.55	37457.93
528.72	36978.12
528.89	37280.05
529.07	37560.92
529.24	37317.50
529.41	37811.35
529.58	37844.12
529.75	37617.09
529.92	37596.03
530.09	37567.94
530.26	37818.38
530.43	37827.74
530.60	37956.47
530.77	38082.86
530.94	37979.87
531.11	38019.66
531.28	38150.73
531.46	38305.21
531.63	38202.22
531.80	38515.86
531.97	38469.04
532.14	38714.80
532.31	38267.76
532.48	38218.61
532.65	39016.73
532.82	38478.41
532.99	38565.01
533.16	38651.61
533.33	38646.93
533.50	39414.62
533.67	39218.02
533.84	38773.31
534.01	39587.82
534.18	39051.84
534.35	39419.30
534.52	38930.13
534.69	39522.29
534.86	39328.02
535.03	39306.96
535.20	39690.80
535.37	39791.45
535.54	39873.37
535.71	39620.59
535.88	39543.35
536.05	39363.13
536.22	39845.28
536.38	39655.70
536.55	40039.54
536.72	40025.50
536.89	39845.28
537.06	39669.74
537.23	40456.16
537.40	40456.16
537.57	39988.05
537.74	40325.09
537.91	40666.81
538.08	40432.75
538.25	40257.21
538.42	40498.29
538.59	40570.85
538.75	40421.05
538.92	40512.33
539.09	41111.51
539.26	40479.57
539.43	40926.61
539.60	40849.37
539.77	40935.97
539.94	41024.91
540.11	40861.07
540.28	41263.64
540.44	41284.71
540.61	41284.71
540.78	41074.06
540.95	40774.47
541.12	41289.39
541.29	40910.22
541.46	41174.70
541.62	41368.97
541.79	41675.58
541.96	40842.35
542.13	41380.67
542.30	41251.94
542.47	41720.05
542.63	41661.54
542.80	41862.82
542.97	41841.76
543.14	42237.31
543.31	41832.39
543.48	41926.02
543.64	42602.43
543.81	42218.58
543.98	42340.29
544.15	42167.09
544.32	42562.64
544.48	42941.81
544.65	42288.80
544.82	42618.81
544.99	42368.38
545.16	42817.76
545.32	42761.59
545.49	42625.84
545.66	42724.14
545.83	42836.48
546.00	42667.97
546.16	42775.63
546.33	42454.98
546.50	42490.09
546.67	43416.94
546.83	42761.59
547.00	42953.51
547.17	42813.08
547.34	42981.60
547.50	43344.38
547.67	43517.58
547.84	43639.29
548.00	43379.49
548.17	43468.43
548.34	43456.73
548.51	43777.38
548.67	43250.76
548.84	43402.89
549.01	43590.14
549.18	43508.22
549.34	43672.06
549.51	44076.97
549.68	43847.60
549.84	43634.61
550.01	43863.98
550.18	43381.83
550.34	43557.37
550.51	44126.12
550.68	44371.88
550.84	43466.09
551.01	44161.23
551.18	43709.50
551.34	43959.94
551.51	44191.65
551.68	44107.40
551.84	44194.00
552.01	44304.00
552.18	43763.34
552.34	43999.73
552.51	43917.81
552.68	44203.36
552.84	44540.39
553.01	44210.38
553.18	44144.84
553.34	44446.77
553.51	44545.08
553.67	44652.74
553.84	44926.58
554.01	44603.59
554.17	44697.21
554.34	44486.56
554.51	44847.00
554.67	44811.90
554.84	45251.92
555.00	44509.97
555.17	44753.38
555.33	45017.86
555.50	45081.06
555.67	45055.31
555.83	45097.44
556.00	45226.17
556.16	45551.51
556.33	44992.12
556.50	45038.93
556.66	45151.27
556.83	44870.41
556.99	45703.64
557.16	45450.86
557.32	45172.34
557.49	45429.80
557.65	44793.17
557.82	45343.20
557.98	45052.97
558.15	45043.61
558.32	45755.13
558.48	45052.97
558.65	45364.26
558.81	45806.62
558.98	45132.55
559.14	45385.33
559.31	45858.12
559.47	45652.15
559.64	45406.39
559.80	45368.94
559.97	45558.53
560.13	45462.57
560.30	45741.09
560.46	45963.44
560.63	45970.46
560.79	46335.59
560.96	46153.02
561.12	46241.96
561.29	46010.25
561.45	46096.85
561.61	45921.31
561.78	45837.05
561.94	45909.61
562.11	45553.85
562.27	46014.93
562.44	45883.86
562.60	45832.37
562.77	46146.00
562.93	46021.95
563.10	46256.01
563.26	46281.75
563.42	46438.57
563.59	46120.26
563.75	46260.69
563.92	45963.44
564.08	46089.83
564.24	46433.89
564.41	46337.93
564.57	46431.55
564.74	46342.61
564.90	46284.09
565.07	46363.67
565.23	46522.83
565.39	45954.08
565.56	46546.23
565.72	46075.79
565.88	46597.73
566.05	46646.88
566.21	46579.00
566.38	46171.75
566.54	46658.58
566.70	46815.40
566.87	46483.04
567.03	46431.55
567.19	46600.07
567.36	46349.63
567.52	46316.86
567.68	46738.16
567.85	46452.61
568.01	46611.77
568.17	46677.30
568.34	46712.41
568.50	46904.34
568.66	46284.09
568.83	46464.32
568.99	46663.26
569.15	46667.94
569.32	46492.40
569.48	46806.03
569.64	47093.92
569.81	46913.70
569.97	46944.12
570.13	46808.37
570.30	46574.32
570.46	46965.19
570.62	46993.28
570.78	46857.52
570.95	46745.18
571.11	47442.66
571.27	46763.90
571.43	46817.74
571.60	47007.32
571.76	46693.69
571.92	47021.36
572.09	46728.80
572.25	46611.77
572.41	46834.12
572.57	46845.82
572.74	47480.11
572.90	46852.84
573.06	46871.57
573.22	47449.68
573.38	46972.21
573.55	47573.73
573.71	47508.19
573.87	47339.68
574.03	47112.64
574.20	47037.75
574.36	47334.99
574.52	47290.52
574.68	47278.82
574.84	47292.86
575.01	47503.51
575.17	47267.12
575.33	47299.89
575.49	46951.15
575.65	47482.45
575.82	47363.08
575.98	46965.19
576.14	47550.32
576.30	47667.35
576.46	47196.90
576.62	47253.08
576.79	47302.23
576.95	46960.51
577.11	47269.46
577.27	47281.16
577.43	47388.83
577.59	47550.32
577.75	47004.98
577.92	46705.39
578.08	46923.06
578.24	47175.84
578.40	47618.20
578.56	47421.59
578.72	47672.03
578.88	47459.04
579.04	47704.80
579.21	47316.27
579.37	47264.78
579.53	47426.28
579.69	47627.56
579.85	47164.14
580.01	47601.82
580.17	47384.15
580.33	47601.82
580.49	47559.69
580.65	47777.36
580.82	47388.83
580.98	47175.84
581.14	47320.95
581.30	47023.70
581.46	47037.75
581.62	46972.21
581.78	47161.79
581.94	47253.08
582.10	47613.52
582.26	47646.29
582.42	47239.03
582.58	47812.46
582.74	47442.66
582.90	47199.24
583.06	47763.31
583.22	47430.96
583.38	47613.52
583.54	47433.30
583.70	47445.00
583.86	47702.46
584.02	47344.36
584.18	47704.80
584.34	47585.43
584.50	47475.43
584.66	47945.87
584.82	47405.21
584.98	47934.17
585.14	47826.51
585.30	47496.49
585.46	47887.36
585.62	47604.16
585.78	47856.93
585.94	47044.77
586.10	47545.64
586.26	47550.32
586.42	47608.84
586.58	47620.54
586.74	47639.26
586.90	47346.70
587.06	47496.49
587.22	47770.33
587.38	47407.55
587.54	47522.24
587.70	48088.65
587.86	47735.23
588.02	47337.33
588.18	47971.62
588.34	47342.02
588.49	47566.71
588.65	47615.86
588.81	47810.12
588.97	47772.67
589.13	47540.96
589.29	47723.52
589.45	48215.04
589.61	47594.79
589.77	47702.46
589.93	48020.77
