SpectraSuite Data File
++++++++++++++++++++++++++++++++++++
Date: Fri Oct 25 11:34:42 EDT 2013
User: price-jones
Dark Spectrum Present: No
Reference Spectrum Present: No
Number of Sampled Component Spectra: 1
Spectrometers: USB2+H05261
Integration Time (usec): 100000 (USB2+H05261)
Spectra Averaged: 1 (USB2+H05261)
Boxcar Smoothing: 0 (USB2+H05261)
Correct for Electrical Dark: No (USB2+H05261)
Strobe/Lamp Enabled: No (USB2+H05261)
Correct for Detector Non-linearity: No (USB2+H05261)
Correct for Stray Light: No (USB2+H05261)
Number of Pixels in Processed Spectrum: 2048
>>>>>Begin Processed Spectral Data<<<<<
365.73	297.25
365.92	297.25
366.12	297.25
366.32	175.54
366.52	114.69
366.72	210.65
366.91	133.41
367.11	177.88
367.31	215.33
367.51	184.90
367.70	182.56
367.90	191.92
368.10	152.13
368.30	196.60
368.49	154.48
368.69	184.90
368.89	159.16
369.09	236.39
369.28	173.20
369.48	173.20
369.68	248.10
369.87	262.14
370.07	248.10
370.27	283.20
370.47	402.57
370.66	479.81
370.86	510.24
371.06	519.60
371.25	561.73
371.45	547.69
371.65	594.50
371.84	592.16
372.04	573.43
372.24	418.96
372.44	585.13
372.63	650.67
372.83	610.88
373.03	608.54
373.22	629.60
373.42	629.60
373.62	653.01
373.81	596.84
374.01	655.35
374.21	615.56
374.40	599.18
374.60	636.63
374.79	547.69
374.99	685.78
375.19	596.84
375.38	655.35
375.58	641.31
375.78	624.92
375.97	634.29
376.17	610.88
376.37	636.63
376.56	711.52
376.76	669.39
376.95	638.97
377.15	620.24
377.35	664.71
377.54	636.63
377.74	676.41
377.93	699.82
378.13	692.80
378.33	706.84
378.52	718.54
378.72	660.03
378.91	636.63
379.11	622.58
379.31	767.70
379.50	713.86
379.70	606.20
379.89	685.78
380.09	779.40
380.28	650.67
380.48	772.38
380.68	674.07
380.87	777.06
381.07	697.48
381.26	814.51
381.46	716.20
381.65	774.72
381.85	793.44
382.04	800.46
382.24	788.76
382.43	781.74
382.63	664.71
382.83	755.99
383.02	758.33
383.22	786.42
383.41	720.88
383.61	718.54
383.80	791.10
384.00	816.85
384.19	772.38
384.39	753.65
384.58	851.96
384.78	788.76
384.97	830.89
385.17	837.91
385.36	873.02
385.56	844.93
385.75	772.38
385.95	819.19
386.14	753.65
386.34	772.38
386.53	877.70
386.72	826.21
386.92	866.00
387.11	856.64
387.31	884.72
387.50	788.76
387.70	830.89
387.89	947.92
388.09	915.15
388.28	861.32
388.48	873.02
388.67	896.43
388.86	926.85
389.06	858.98
389.25	884.72
389.45	922.17
389.64	896.43
389.84	905.79
390.03	903.45
390.22	908.13
390.42	912.81
390.61	968.98
390.81	924.51
391.00	1020.47
391.19	915.15
391.39	915.15
391.58	992.39
391.78	1032.18
391.97	961.96
392.16	968.98
392.36	1018.13
392.55	936.21
392.75	1025.15
392.94	1039.20
393.13	1104.73
393.33	1048.56
393.52	1100.05
393.71	992.39
393.91	1078.99
394.10	1062.60
394.29	1015.79
394.49	1060.26
394.68	1086.01
394.88	1116.44
395.07	1125.80
395.26	1067.28
395.46	1104.73
395.65	1139.84
395.84	1160.91
396.04	1247.51
396.23	1107.07
396.42	1093.03
396.62	1144.52
396.81	1172.61
397.00	1151.54
397.19	1207.72
397.39	1219.42
397.58	1172.61
397.77	1212.40
397.97	1259.21
398.16	1172.61
398.35	1219.42
398.55	1233.46
398.74	1200.69
398.93	1320.06
399.12	1289.64
399.32	1303.68
399.51	1261.55
399.70	1329.42
399.90	1310.70
400.09	1329.42
400.28	1317.72
400.47	1317.72
400.67	1303.68
400.86	1315.38
401.05	1380.92
401.24	1369.21
401.44	1217.08
401.63	1427.73
401.82	1341.13
402.01	1313.04
402.21	1441.77
402.40	1423.05
402.59	1315.38
402.78	1434.75
402.97	1401.98
403.17	1483.90
403.36	1394.96
403.55	1413.68
403.74	1502.62
403.93	1469.86
404.13	1542.41
404.32	1500.28
404.51	1500.28
404.70	1493.26
404.89	1666.46
405.09	1685.19
405.28	1600.93
405.47	1540.07
405.66	1631.35
405.85	1720.29
406.05	1694.55
406.24	1640.72
406.43	1661.78
406.62	1666.46
406.81	1832.64
407.00	1710.93
407.20	1661.78
407.39	1727.32
407.58	1729.66
407.77	1741.36
407.96	1753.06
408.15	1788.17
408.34	1811.57
408.54	1863.07
408.73	1900.52
408.92	1863.07
409.11	1900.52
409.30	1900.52
409.49	1928.60
409.68	1872.43
409.87	1961.37
410.07	1966.05
410.26	1930.94
410.45	2010.52
410.64	2003.50
410.83	2141.59
411.02	2047.97
411.21	1963.71
411.40	1952.01
411.59	2120.53
411.78	2054.99
411.98	2134.57
412.17	2099.46
412.36	2092.44
412.55	2104.14
412.74	2263.30
412.93	2207.13
413.12	2298.41
413.31	2230.53
413.50	2340.54
413.69	2289.04
413.88	2272.66
414.07	2363.94
414.26	2438.84
414.45	2431.82
414.64	2464.58
414.83	2487.99
415.02	2457.56
415.22	2527.78
415.41	2602.68
415.60	2532.46
415.79	2448.20
415.98	2590.97
416.17	2579.27
416.36	2731.41
416.55	2689.28
416.74	2712.68
416.93	2637.78
417.12	2682.25
417.31	2719.70
417.50	2764.17
417.69	2822.69
417.88	2778.22
418.07	2818.00
418.26	2743.11
418.45	2799.28
418.64	2813.32
418.83	2815.66
419.02	2792.26
419.21	2909.29
419.39	3028.65
419.58	2970.14
419.77	2942.05
419.96	2967.80
420.15	3005.25
420.34	2967.80
420.53	3045.04
420.72	3152.70
420.91	3056.74
421.10	3192.49
421.29	3054.40
421.48	2993.55
421.67	3152.70
421.86	3255.69
422.05	3124.62
422.24	3087.17
422.43	3098.87
422.61	3166.74
422.80	3274.41
422.99	3393.78
423.18	3173.77
423.37	3297.81
423.56	3190.15
423.75	3222.92
423.94	3112.91
424.13	3005.25
424.32	3159.72
424.50	3215.90
424.69	3253.34
424.88	3283.77
425.07	3272.07
425.26	3356.33
425.45	3243.98
425.64	3321.22
425.83	3335.26
426.01	3396.12
426.20	3260.37
426.39	3225.26
426.58	3351.65
426.77	3375.05
426.96	3494.42
427.15	3339.94
427.33	3478.04
427.52	3405.48
427.71	3459.31
427.90	3384.41
428.09	3426.54
428.28	3569.32
428.46	3602.08
428.65	3522.51
428.84	3681.66
429.03	3527.19
429.22	3447.61
429.40	3499.10
429.59	3585.70
429.78	3499.10
429.97	3482.72
430.16	3597.40
430.34	3700.39
430.53	3536.55
430.72	3709.75
430.91	3660.60
431.10	3695.71
431.28	3667.62
431.47	3777.62
431.66	3791.67
431.85	3845.50
432.03	3740.18
432.22	3988.27
432.41	3859.54
432.60	3826.78
432.79	3918.06
432.97	3847.84
433.16	3957.85
433.35	3786.99
433.54	3824.44
433.72	3962.53
433.91	3976.57
434.10	4044.45
434.28	3957.85
434.47	4124.02
434.66	4114.66
434.85	4203.60
435.03	4065.51
435.22	4114.66
435.41	4348.72
435.59	4133.39
435.78	4322.97
435.97	4170.83
436.16	4133.39
436.34	4070.19
436.53	4341.69
436.72	4208.28
436.90	4173.18
437.09	4311.27
437.28	4264.46
437.46	4194.24
437.65	4423.61
437.84	4318.29
438.02	4355.74
438.21	4395.53
438.40	4257.43
438.58	4519.57
438.77	4521.92
438.96	4484.47
439.14	4596.81
439.33	4613.20
439.52	4643.62
439.70	4650.64
439.89	4816.82
440.08	4854.27
440.26	4737.24
440.45	4723.20
440.63	4758.31
440.82	5046.20
441.01	4751.29
441.19	4931.51
441.38	4954.91
441.57	5043.85
441.75	4936.19
441.94	5167.90
442.12	4961.94
442.31	5067.26
442.50	5132.79
442.68	5085.98
442.87	5296.63
443.05	5144.50
443.24	5130.45
443.43	5263.86
443.61	5228.76
443.80	5427.70
443.98	5186.63
444.17	5008.75
444.35	5280.25
444.54	5263.86
444.73	5331.74
444.91	5327.06
445.10	5348.12
445.28	5465.15
445.47	5303.65
445.65	5268.55
445.84	5385.57
446.02	5444.09
446.21	5406.64
446.39	5413.66
446.58	5502.60
446.77	5371.53
446.95	5301.31
447.14	5469.83
447.32	5348.12
447.51	5355.15
447.69	5345.78
447.88	5467.49
448.06	5502.60
448.25	5495.58
448.43	5486.22
448.62	5526.00
448.80	5572.82
448.99	5469.83
449.17	5661.76
449.36	5600.90
449.54	5652.39
449.73	5790.49
449.91	5502.60
450.10	5769.42
450.28	5820.91
450.46	5706.23
450.65	5809.21
450.83	5806.87
451.02	5720.27
451.20	5865.38
451.39	5813.89
451.57	5823.25
451.76	5907.51
451.94	5954.32
452.13	5902.83
452.31	5933.26
452.49	5905.17
452.68	6118.16
452.86	6071.35
453.05	6012.84
453.23	6134.54
453.42	6113.48
453.60	5818.57
453.78	6106.46
453.97	5928.58
454.15	6001.13
454.34	5963.68
454.52	6321.79
454.70	6256.25
454.89	6282.00
455.07	6083.05
455.26	6296.04
455.44	6293.70
455.62	6200.08
455.81	6366.26
455.99	6420.09
456.17	6530.09
456.36	6492.65
456.54	6490.31
456.73	6471.58
456.91	6729.04
457.09	6682.23
457.28	6705.63
457.46	6548.82
457.64	6869.47
457.83	6902.24
458.01	6483.28
458.19	6850.75
458.38	6745.42
458.56	6775.85
458.74	6848.41
458.93	6813.30
459.11	6939.69
459.29	6817.98
459.48	6974.80
459.66	6944.37
459.84	7035.65
460.03	7140.97
460.21	7045.01
460.39	7009.90
460.57	7082.46
460.76	7045.01
460.94	7178.42
461.12	7070.76
461.31	7089.48
461.49	7075.44
461.67	7096.50
461.85	7309.49
462.04	7311.83
462.22	7571.63
462.40	7222.89
462.59	7375.03
462.77	7258.00
462.95	7398.43
463.13	7253.32
463.32	7545.89
463.50	7506.10
463.68	7541.21
463.86	7494.40
464.05	7302.47
464.23	7424.18
464.41	7485.03
464.59	7470.99
464.78	7653.55
464.96	7550.57
465.14	7463.97
465.32	7588.02
465.50	7700.36
465.69	7772.92
465.87	7527.16
466.05	7838.45
466.23	7803.35
466.41	7531.84
466.60	7889.95
466.78	7810.37
466.96	7744.83
467.14	7866.54
467.32	7826.75
467.51	7894.63
467.69	7698.02
467.87	7763.56
468.05	7723.77
468.23	7932.08
468.41	7721.43
468.60	8065.49
468.78	8013.99
468.96	8013.99
469.14	8135.70
469.32	8259.75
469.50	8189.53
469.69	8140.38
469.87	8173.15
470.05	8320.60
470.23	8311.24
470.41	8128.68
470.59	8477.42
470.77	8430.61
470.95	8531.25
471.14	8561.68
471.32	8138.04
471.50	8449.33
471.68	8496.14
471.86	8538.27
472.04	8589.77
472.22	8615.51
472.40	8472.74
472.58	8716.16
472.77	8887.01
472.95	8662.32
473.13	9212.35
473.31	8821.48
473.49	9048.51
473.67	8823.82
473.85	8966.59
474.03	8978.30
474.21	9366.82
474.39	9399.59
474.57	9116.39
474.75	9289.59
474.93	9221.71
475.12	9385.55
475.30	9848.97
475.48	9509.60
475.66	9563.43
475.84	9296.61
476.02	9579.81
476.20	9778.76
476.38	9680.46
476.56	9998.77
476.74	10031.54
476.92	9909.83
477.10	10031.54
477.28	9832.59
477.46	9994.09
477.64	10160.27
477.82	10326.44
478.00	10626.03
478.18	10586.24
478.36	10600.29
478.54	10630.71
478.72	10855.40
478.90	10867.11
479.08	11016.90
479.26	10986.47
479.44	11201.80
479.62	11077.76
479.80	10974.77
479.98	11204.14
480.16	11459.26
480.34	11222.87
480.52	11639.48
480.70	11627.78
480.88	11548.20
481.06	11709.70
481.24	11815.02
481.41	11943.75
481.59	12102.91
481.77	12182.49
481.95	12322.92
482.13	12159.08
482.31	12325.26
482.49	12634.21
482.67	12479.74
482.85	12617.83
483.03	12629.53
483.21	12973.59
483.39	13202.96
483.57	12936.14
483.74	13132.75
483.92	13270.84
484.10	13373.82
484.28	13483.83
484.46	13467.44
484.64	13738.94
484.82	13495.53
485.00	13640.64
485.18	14080.66
485.35	14408.34
485.53	14097.05
485.71	14406.00
485.89	14326.42
486.07	14431.74
486.25	14595.58
486.43	14597.92
486.61	14883.47
486.78	14895.17
486.96	14766.44
487.14	15122.20
487.32	15440.51
487.50	15522.43
487.68	15461.58
487.85	15700.31
488.03	15735.42
488.21	15915.64
488.39	16081.82
488.57	15908.62
488.75	15859.47
488.92	16362.69
489.10	16580.36
489.28	16472.69
489.46	16652.91
489.64	16723.13
489.81	17170.17
489.99	17029.74
490.17	17277.83
490.35	17427.63
490.53	17589.13
490.70	17387.84
490.88	17621.89
491.06	18101.70
491.24	17984.68
491.41	17743.60
491.59	18010.42
491.77	18108.72
491.95	18417.68
492.13	18405.97
492.30	18705.56
492.48	18387.25
492.66	18787.48
492.84	18752.37
493.01	19063.66
493.19	18932.59
493.37	19253.25
493.54	19187.71
493.72	19356.23
493.90	19480.28
494.08	19543.47
494.25	19641.78
494.43	19723.69
494.61	19866.47
494.79	20018.60
494.96	20081.80
495.14	20339.26
495.32	20313.51
495.49	20629.48
495.67	20601.40
495.85	20287.76
496.02	20716.08
496.20	21109.29
496.38	21195.89
496.55	20999.29
496.73	21762.30
496.91	21277.81
497.09	21474.42
497.26	21900.39
497.44	21479.10
497.62	21776.34
497.79	22370.84
497.97	21750.60
498.14	22008.06
498.32	22380.20
498.50	22043.17
498.67	22649.36
498.85	22480.85
499.03	22567.45
499.20	22799.16
499.38	22745.33
499.56	22963.00
499.73	23049.60
499.91	23019.17
500.08	23047.26
500.26	23255.56
500.44	23122.15
500.61	23400.68
500.79	23372.59
500.97	23627.71
501.14	23997.51
501.32	23534.09
501.49	23672.18
501.67	23562.17
501.84	24130.92
502.02	23819.63
502.20	24271.36
502.37	24379.02
502.55	24257.31
502.72	24606.05
502.90	24559.24
503.07	24105.18
503.25	24748.82
503.43	24357.96
503.60	24767.55
503.78	24889.26
503.95	25109.27
504.13	25057.78
504.30	24982.88
504.48	25034.37
504.65	25549.29
504.83	25310.55
505.01	25369.07
505.18	25497.80
505.36	25628.87
505.53	25556.31
505.71	25738.87
505.88	25944.84
506.06	25706.10
506.23	26366.13
506.41	25986.97
506.58	26244.43
506.76	25940.16
506.93	26658.70
507.11	26281.88
507.28	26597.85
507.46	26324.01
507.63	26455.08
507.81	26916.16
507.98	26677.43
508.16	26635.30
508.33	26717.22
508.50	27007.44
508.68	26897.44
508.85	27328.10
509.03	26981.70
509.20	27655.77
509.38	27395.97
509.55	27428.74
509.73	27667.47
509.90	27630.02
510.08	27580.87
510.25	28004.51
510.42	27728.33
510.60	27885.14
510.77	28250.27
510.95	28437.51
511.12	28369.63
511.30	28147.28
511.47	28615.39
511.64	28481.98
511.82	28503.04
511.99	28641.14
512.17	28931.36
512.34	28496.02
512.51	28732.42
512.69	28898.59
512.86	28687.95
513.04	29333.93
513.21	29013.28
513.38	29312.87
513.56	29214.57
513.73	29469.69
513.90	29308.19
514.08	29317.55
514.25	29450.96
514.43	29968.22
514.60	29762.25
514.77	30038.44
514.95	29949.50
515.12	29516.50
515.29	29443.94
515.47	29991.62
515.64	30108.65
515.81	30181.21
515.99	30452.71
516.16	30518.25
516.33	30333.34
516.51	30654.00
516.68	30490.16
516.85	30321.64
517.03	30345.05
517.20	30754.64
517.37	30794.43
517.54	31072.95
517.72	30532.29
517.89	30930.18
518.06	31157.21
518.24	30876.35
518.41	31089.34
518.58	31414.67
518.75	30775.70
518.93	31412.33
519.10	31058.91
519.27	31833.63
519.45	31386.58
519.62	31772.77
519.79	32119.17
519.96	32051.30
520.14	31763.41
520.31	31407.65
520.48	32081.72
520.65	31868.73
520.83	32105.13
521.00	32503.02
521.17	31950.65
521.34	32718.35
521.52	32748.78
521.69	32388.33
521.86	32837.72
522.03	32533.45
522.20	32882.19
522.38	33125.60
522.55	32730.05
522.72	33048.36
522.89	33071.77
523.07	33195.82
523.24	33057.73
523.41	33366.68
523.58	33331.57
523.75	33572.64
523.92	33294.12
524.10	33385.40
524.27	33343.27
524.44	33619.46
524.61	33872.23
524.78	33986.92
524.96	34101.61
525.13	34087.56
525.30	33949.47
525.47	34293.53
525.64	33888.62
525.81	34274.80
525.98	34288.85
526.16	34213.95
526.33	34316.93
526.50	34267.78
526.67	34146.08
526.84	34588.44
527.01	34464.39
527.18	34745.25
527.36	34778.02
527.53	34342.68
527.70	34892.71
527.87	34974.63
528.04	34700.78
528.21	34951.22
528.38	35072.93
528.55	35119.74
528.72	35131.44
528.89	35189.95
529.07	35122.08
529.24	35222.72
529.41	35370.18
529.58	34857.60
529.75	34869.30
529.92	35325.71
530.09	35669.76
530.26	35456.78
530.43	35622.95
530.60	35405.28
530.77	35494.22
530.94	35751.68
531.11	35950.63
531.28	35871.05
531.46	35517.63
531.63	35800.83
531.80	35917.86
531.97	36245.54
532.14	36219.79
532.31	36446.82
532.48	36046.59
532.65	36077.02
532.82	36142.55
532.99	36301.71
533.16	35978.72
533.33	36233.83
533.50	36676.19
533.67	36362.56
533.84	36409.37
534.01	36587.25
534.18	36542.78
534.35	36975.78
534.52	37090.47
534.69	36875.14
534.86	37280.05
535.03	37254.31
535.20	37340.91
535.37	37111.53
535.54	37266.01
535.71	37380.70
535.88	37404.10
536.05	36933.65
536.22	37670.92
536.38	37446.23
536.55	37020.25
536.72	37308.14
536.89	37315.16
537.06	37640.50
537.23	37397.08
537.40	37656.88
537.57	37612.41
537.74	37603.05
537.91	37811.35
538.08	37790.29
538.25	37680.28
538.42	38134.35
538.59	38047.75
538.75	37813.70
538.92	37949.45
539.09	38220.95
539.26	37944.76
539.43	37907.32
539.60	38419.89
539.77	38108.60
539.94	38522.88
540.11	38527.56
540.28	38337.98
540.44	38714.80
540.61	38417.55
540.78	38529.90
540.95	38665.65
541.12	38504.15
541.29	38274.78
541.46	38745.23
541.62	38586.07
541.79	39082.27
541.96	38724.16
542.13	38829.49
542.30	38934.81
542.47	39084.61
542.63	38799.06
542.80	38738.21
542.97	39447.39
543.14	39388.88
543.31	39330.36
543.48	39299.94
543.64	39864.00
543.81	39658.04
543.98	39524.63
544.15	39821.87
544.32	39742.30
544.48	40034.86
544.65	39854.64
544.82	40133.17
544.99	39889.75
545.16	39763.36
545.32	39693.15
545.49	40196.36
545.66	40088.70
545.83	40318.07
546.00	40212.74
546.16	39889.75
546.33	40500.63
546.50	39896.77
546.67	40439.78
546.83	39981.03
547.00	40353.18
547.17	40151.89
547.34	40261.90
547.50	40556.80
547.67	40781.49
547.84	40861.07
548.00	40809.58
548.17	41034.27
548.34	40671.49
548.51	41340.88
548.67	40830.65
548.84	40816.60
549.01	40734.68
549.18	40561.48
549.34	40840.01
549.51	41134.92
549.68	41060.02
549.84	40875.12
550.01	41319.82
550.18	40917.25
550.34	40477.22
550.51	41338.54
550.68	41413.44
550.84	41500.04
551.01	41310.46
551.18	40898.52
551.34	41434.50
551.51	41588.98
551.68	41415.78
551.84	41556.21
552.01	41390.03
552.18	41053.00
552.34	41153.64
552.51	41722.39
552.68	41495.36
552.84	41677.92
553.01	41317.48
553.18	41392.37
553.34	41455.57
553.51	41425.14
553.67	41638.13
553.84	41862.82
554.01	41689.62
554.17	41670.90
554.34	42192.84
554.51	41996.23
554.67	42253.69
554.84	42141.35
555.00	41984.53
555.17	41851.12
555.33	42209.22
555.50	42054.75
555.67	42412.85
555.83	42464.34
556.00	42319.23
556.16	42834.14
556.33	42686.69
556.50	42363.70
556.66	42440.93
556.83	42326.25
556.99	42639.88
557.16	42295.82
557.32	42787.33
557.49	42508.81
557.65	42286.46
557.82	42623.50
557.98	42628.18
558.15	42583.71
558.32	42534.56
558.48	42534.56
558.65	42504.13
558.81	42850.53
558.98	42719.46
559.14	42831.80
559.31	42836.48
559.47	42827.12
559.64	42497.11
559.80	42674.99
559.97	43030.75
560.13	42632.86
560.30	43030.75
560.46	43201.61
560.63	42988.62
560.79	43386.51
560.96	43789.08
561.12	43002.66
561.29	43037.77
561.45	43419.28
561.61	43225.01
561.78	42822.44
561.94	43313.95
562.11	43243.74
562.27	42937.13
562.44	43463.75
562.60	43147.78
562.77	43227.35
562.93	43187.56
563.10	43564.39
563.26	43517.58
563.42	43686.10
563.59	42974.58
563.75	43611.20
563.92	43384.17
564.08	43395.87
564.24	43491.83
564.41	43695.46
564.57	43620.56
564.74	43379.49
564.90	43674.40
565.07	43391.19
565.23	43915.47
565.39	43739.93
565.56	43438.00
565.72	42995.64
565.88	43840.57
566.05	43650.99
566.21	43707.16
566.38	43779.72
566.54	44189.31
566.70	43711.84
566.87	43489.49
567.03	43709.50
567.19	43952.92
567.36	43725.89
567.52	43807.81
567.68	44147.18
567.85	44163.57
568.01	44182.29
568.17	44060.58
568.34	43796.10
568.50	44172.93
568.66	43746.95
568.83	43899.09
568.99	43992.71
569.15	44030.16
569.32	43779.72
569.48	43952.92
569.64	44582.52
569.81	44025.48
569.97	44128.46
570.13	44250.17
570.30	43955.26
570.46	44250.17
570.62	44259.53
570.78	44245.49
570.95	43765.68
571.11	44259.53
571.27	44093.35
571.43	43838.23
571.60	44126.12
571.76	44289.96
571.92	44135.48
572.09	43784.40
572.25	44299.32
572.41	44109.74
572.57	44175.27
572.74	44582.52
572.90	44367.20
573.06	44287.62
573.22	44088.67
573.38	44512.31
573.55	44318.04
573.71	44809.56
573.87	44559.12
574.03	44807.22
574.20	45207.45
574.36	44257.19
574.52	44205.70
574.68	44091.01
574.84	44418.69
575.01	44451.45
575.17	44575.50
575.33	44268.89
575.49	44376.56
575.65	44865.73
575.82	44568.48
575.98	44308.68
576.14	44512.31
576.30	45085.74
576.46	44676.15
576.62	44673.81
576.79	44311.02
576.95	44058.24
577.11	44210.38
577.27	44402.30
577.43	44348.47
577.59	44362.51
577.75	44652.74
577.92	44474.86
578.08	44612.95
578.24	44477.20
578.40	44339.11
578.56	44741.68
578.72	44392.94
578.88	44814.24
579.04	44495.92
579.21	44114.42
579.37	44367.20
579.53	44811.90
579.69	44222.08
579.85	44491.24
580.01	44535.71
580.17	44465.50
580.33	44875.09
580.49	44683.17
580.65	44650.40
580.82	44605.93
580.98	44446.77
581.14	44601.25
581.30	44643.38
581.46	44334.43
581.62	44896.16
581.78	44346.13
581.94	45195.74
582.10	44828.28
582.26	44999.14
582.42	44807.22
582.58	44718.28
582.74	44973.39
582.90	44687.85
583.06	44561.46
583.22	44645.72
583.38	44779.13
583.54	44835.30
583.70	45022.54
583.86	44875.09
584.02	44549.76
584.18	44964.03
584.34	45116.17
584.50	45158.30
584.66	44863.39
584.82	44804.88
584.98	45301.07
585.14	44758.06
585.30	44912.54
585.46	44952.33
585.62	44701.89
585.78	45326.81
585.94	44282.94
586.10	44652.74
586.26	44495.92
586.42	44856.37
586.58	44837.64
586.74	44442.09
586.90	44737.00
587.06	44676.15
587.22	45123.19
587.38	44729.98
587.54	44861.05
587.70	45184.04
587.86	44996.80
588.02	44619.97
588.18	44690.19
588.34	44868.07
588.49	45237.87
588.65	44863.39
588.81	44957.01
588.97	44748.70
589.13	44683.17
589.29	44896.16
589.45	45359.58
589.61	45113.83
589.77	45333.84
589.93	45064.67
590.08	44992.12
590.24	44854.03
