SpectraSuite Data File
++++++++++++++++++++++++++++++++++++
Date: Fri Oct 25 10:43:39 EDT 2013
User: price-jones
Dark Spectrum Present: No
Reference Spectrum Present: No
Number of Sampled Component Spectra: 1
Spectrometers: USB2+H05261
Integration Time (usec): 100000 (USB2+H05261)
Spectra Averaged: 1 (USB2+H05261)
Boxcar Smoothing: 0 (USB2+H05261)
Correct for Electrical Dark: No (USB2+H05261)
Strobe/Lamp Enabled: No (USB2+H05261)
Correct for Detector Non-linearity: No (USB2+H05261)
Correct for Stray Light: No (USB2+H05261)
Number of Pixels in Processed Spectrum: 2048
>>>>>Begin Processed Spectral Data<<<<<
365.73	142.77
365.92	142.77
366.12	142.77
366.32	23.41
366.52	28.09
366.72	79.58
366.91	16.38
367.11	7.02
367.31	32.77
367.51	126.39
367.70	0.00
367.90	21.06
368.10	9.36
368.30	32.77
368.49	7.02
368.69	0.00
368.89	0.00
369.09	114.69
369.28	39.79
369.48	16.38
369.68	32.77
369.87	72.56
370.07	98.30
370.27	170.86
370.47	161.50
370.66	318.31
370.86	414.27
371.06	589.82
371.25	514.92
371.45	451.72
371.65	514.92
371.84	465.77
372.04	491.51
372.24	500.87
372.44	477.47
372.63	472.79
372.83	435.34
373.03	578.11
373.22	521.94
373.42	573.43
373.62	578.11
373.81	519.60
374.01	524.28
374.21	624.92
374.40	594.50
374.60	564.07
374.79	535.98
374.99	615.56
375.19	610.88
375.38	606.20
375.58	601.52
375.78	655.35
375.97	664.71
376.17	617.90
376.37	603.86
376.56	685.78
376.76	613.22
376.95	653.01
377.15	671.73
377.35	622.58
377.54	638.97
377.74	641.31
377.93	711.52
378.13	655.35
378.33	704.50
378.52	631.94
378.72	730.25
378.91	681.10
379.11	772.38
379.31	697.48
379.50	585.13
379.70	702.16
379.89	650.67
380.09	711.52
380.28	758.33
380.48	791.10
380.68	732.59
380.87	627.26
381.07	744.29
381.26	758.33
381.46	830.89
381.65	758.33
381.85	671.73
382.04	727.91
382.24	704.50
382.43	767.70
382.63	704.50
382.83	699.82
383.02	699.82
383.22	741.95
383.41	641.31
383.61	704.50
383.80	744.29
384.00	840.25
384.19	711.52
384.39	875.36
384.58	781.74
384.78	851.96
384.97	887.06
385.17	819.19
385.36	774.72
385.56	844.93
385.75	795.78
385.95	781.74
386.14	763.01
386.34	781.74
386.53	875.36
386.72	863.66
386.92	903.45
387.11	840.25
387.31	830.89
387.50	816.85
387.70	894.08
387.89	851.96
388.09	828.55
388.28	880.04
388.48	891.74
388.67	945.58
388.86	919.83
389.06	997.07
389.25	917.49
389.45	978.34
389.64	999.41
389.84	973.66
390.03	945.58
390.22	973.66
390.42	1015.79
390.61	1069.62
390.81	1046.22
391.00	1025.15
391.19	1121.12
391.39	1011.11
391.58	1034.52
391.78	1048.56
391.97	1100.05
392.16	1081.33
392.36	1078.99
392.55	983.02
392.75	1006.43
392.94	919.83
393.13	954.94
393.33	1036.86
393.52	1018.13
393.71	1158.57
393.91	1090.69
394.10	1146.86
394.29	1207.72
394.49	1203.04
394.68	1228.78
394.88	1212.40
395.07	1282.61
395.26	1226.44
395.46	1245.16
395.65	1320.06
395.84	1181.97
396.04	1280.27
396.23	1179.63
396.42	1135.16
396.62	1090.69
396.81	1228.78
397.00	1210.06
397.19	1266.23
397.39	1331.76
397.58	1493.26
397.77	1432.41
397.97	1322.40
398.16	1397.30
398.35	1509.65
398.55	1528.37
398.74	1577.52
398.93	1540.07
399.12	1490.92
399.32	1437.09
399.51	1493.26
399.70	1551.78
399.90	1516.67
400.09	1563.48
400.28	1600.93
400.47	1586.88
400.67	1603.27
400.86	1565.82
401.05	1720.29
401.24	1682.85
401.44	1703.91
401.63	1760.08
401.82	1806.89
402.01	1736.68
402.21	1722.63
402.40	1722.63
402.59	1832.64
402.78	1746.04
402.97	1710.93
403.17	1827.96
403.36	1947.33
403.55	1933.28
403.74	1930.94
403.93	1874.77
404.13	2017.54
404.32	1806.89
404.51	1886.47
404.70	1944.99
404.89	1949.67
405.09	1989.46
405.28	1970.73
405.47	1898.17
405.66	2083.08
405.85	1998.82
406.05	1930.94
406.24	2064.35
406.43	2019.88
406.62	2087.76
406.81	2136.91
407.00	2094.78
407.20	2026.90
407.39	2045.63
407.58	2293.72
407.77	2139.25
407.96	2150.95
408.15	2228.19
408.34	2286.70
408.54	2347.56
408.73	2246.91
408.92	2296.07
409.11	2363.94
409.30	2228.19
409.49	2223.51
409.68	2291.38
409.87	2284.36
410.07	2331.17
410.26	2422.45
410.45	2464.58
410.64	2555.86
410.83	2555.86
411.02	2612.04
411.21	2670.55
411.40	2642.46
411.59	2600.34
411.78	2616.72
411.98	2541.82
412.17	2679.91
412.36	2747.79
412.55	2700.98
412.74	2715.02
412.93	2665.87
413.12	2691.62
413.31	2935.03
413.50	2780.56
413.69	2848.43
413.88	3052.06
414.07	2937.37
414.26	2960.78
414.45	3014.61
414.64	3012.27
414.83	3087.17
415.02	3112.91
415.22	3148.02
415.41	3138.66
415.60	3110.57
415.79	3218.24
415.98	3309.52
416.17	3253.34
416.36	3295.47
416.55	3337.60
416.74	3375.05
416.93	3384.41
417.12	3351.65
417.31	3396.12
417.50	3265.05
417.69	3428.88
417.88	3344.63
418.07	3438.25
418.26	3471.01
418.45	3592.72
418.64	3684.00
418.83	3684.00
419.02	3590.38
419.21	3562.30
419.39	3693.37
419.58	3695.71
419.77	3588.04
419.96	3742.52
420.15	3676.98
420.34	3880.61
420.53	3730.81
420.72	3892.31
420.91	3829.12
421.10	3983.59
421.29	3882.95
421.48	3831.46
421.67	4046.79
421.86	3880.61
422.05	3817.41
422.24	3737.84
422.43	3763.58
422.61	3763.58
422.80	3918.06
422.99	3812.73
423.18	3859.54
423.37	4037.42
423.56	3927.42
423.75	3936.78
423.94	4058.49
424.13	3728.47
424.32	3978.91
424.50	4074.87
424.69	4102.96
424.88	4039.76
425.07	4056.15
425.26	3934.44
425.45	4126.36
425.64	3990.61
425.83	3920.40
426.01	3988.27
426.20	4119.34
426.39	4074.87
426.58	3985.93
426.77	3845.50
426.96	3904.01
427.15	4028.06
427.33	4121.68
427.52	4044.45
427.71	4107.64
427.90	4245.73
428.09	4201.26
428.28	4138.07
428.46	4142.75
428.65	4168.49
428.84	4259.78
429.03	4283.18
429.22	4065.51
429.40	4131.05
429.59	4138.07
429.78	4049.13
429.97	3915.72
430.16	4065.51
430.34	4074.87
430.53	4264.46
430.72	4219.99
430.91	4341.69
431.10	4418.93
431.28	4624.90
431.47	4521.92
431.66	4751.29
431.85	4664.69
432.03	4622.56
432.22	4800.44
432.41	4650.64
432.60	4795.76
432.79	4774.69
432.97	4865.97
433.16	4758.31
433.35	4711.50
433.54	4746.61
433.72	4624.90
433.91	4849.59
434.10	4777.03
434.28	4901.08
434.47	4990.02
434.66	4971.30
434.85	5074.28
435.03	5062.58
435.22	5067.26
435.41	4997.04
435.59	5118.75
435.78	5289.61
435.97	5100.03
436.16	5055.56
436.34	5104.71
436.53	5132.79
436.72	5261.52
436.90	5107.05
437.09	5156.20
437.28	5205.35
437.46	5125.77
437.65	5224.08
437.84	5308.34
438.02	5263.86
438.21	5167.90
438.40	5219.39
438.58	5495.58
438.77	5310.68
438.96	5561.11
439.14	5628.99
439.33	5762.40
439.52	5738.99
439.70	5706.23
439.89	5762.40
440.08	5673.46
440.26	5785.80
440.45	5738.99
440.63	5872.40
440.82	6003.47
441.01	5984.75
441.19	6071.35
441.38	6157.95
441.57	6253.91
441.75	6260.93
441.94	6331.15
442.12	6466.90
442.31	6506.69
442.50	6485.62
442.68	6506.69
442.87	6333.49
443.05	6672.87
443.24	6679.89
443.43	6541.80
443.61	6431.79
443.80	6722.02
443.98	6310.08
444.17	6387.32
444.35	6473.92
444.54	6712.66
444.73	6633.08
444.91	6466.90
445.10	6494.99
445.28	6548.82
445.47	6403.71
445.65	6518.39
445.84	6597.97
446.02	6703.29
446.21	6705.63
446.39	6649.46
446.58	6719.68
446.77	6761.81
446.95	6703.29
447.14	6757.13
447.32	6876.49
447.51	6801.60
447.69	6813.30
447.88	6932.67
448.06	6754.79
448.25	6733.72
448.43	6752.45
448.62	6731.38
448.80	6761.81
448.99	6935.01
449.17	7000.54
449.36	6935.01
449.54	6949.05
449.73	7112.89
449.91	7190.13
450.10	7155.02
450.28	7290.77
450.46	7353.96
450.65	7337.58
450.83	7225.23
451.02	7290.77
451.20	7356.30
451.39	7192.47
451.57	7279.07
451.76	7178.42
451.94	7262.68
452.13	7559.93
452.31	7288.43
452.49	7007.56
452.68	7145.66
452.86	7122.25
453.05	7375.03
453.23	7447.58
453.42	7358.64
453.60	7452.27
453.78	7314.17
453.97	7517.80
454.15	7480.35
454.34	7297.79
454.52	7599.72
454.70	7632.49
454.89	7803.35
455.07	7653.55
455.26	7761.22
455.44	7866.54
455.62	7894.63
455.81	8070.17
455.99	7934.42
456.17	7850.16
456.36	7847.82
456.54	7941.44
456.73	8018.68
456.91	8252.73
457.09	8098.25
457.28	8355.71
457.46	7981.23
457.64	8311.24
457.83	7960.16
458.01	8163.79
458.19	8145.06
458.38	8198.90
458.56	8365.07
458.74	8229.32
458.93	8262.09
459.11	8446.99
459.29	8365.07
459.48	8327.63
459.66	8484.44
459.84	8512.53
460.03	8685.73
460.21	8615.51
460.39	8496.14
460.57	8861.27
460.76	8676.37
460.94	8718.50
461.12	8648.28
461.31	8807.44
461.49	8730.20
461.67	8821.48
461.85	8809.78
462.04	8971.27
462.22	9453.42
462.40	8938.51
462.59	8936.17
462.77	9004.04
462.95	8971.27
463.13	8987.66
463.32	9043.83
463.50	9146.81
463.68	9177.24
463.86	9088.30
464.05	9102.34
464.23	8863.61
464.41	9249.80
464.59	8879.99
464.78	9160.86
464.96	9191.28
465.14	9132.77
465.32	9217.03
465.50	9380.87
465.69	9521.30
465.87	9334.06
466.05	9425.34
466.23	9427.68
466.41	9350.44
466.60	9432.36
466.78	9401.93
466.96	9514.28
467.14	9331.72
467.32	9685.14
467.51	9558.75
467.69	9373.85
467.87	9682.80
468.05	9432.36
468.23	9614.92
468.41	9647.69
468.60	9504.92
468.78	9769.40
468.96	9516.62
469.14	9767.06
469.32	9956.64
469.50	9680.46
469.69	9825.57
469.87	10099.41
470.05	9944.94
470.23	9633.64
470.41	10059.62
470.59	10108.77
470.77	10132.18
470.95	10244.52
471.14	10324.10
471.32	9851.31
471.50	10422.41
471.68	10265.59
471.86	10436.45
472.04	10532.41
472.22	10637.73
472.40	10347.51
472.58	10506.66
472.77	10611.99
472.95	10640.08
473.13	11047.33
473.31	10679.86
473.49	10457.51
473.67	10616.67
473.85	10862.43
474.03	11049.67
474.21	11133.93
474.39	11232.23
474.57	10958.39
474.75	11176.06
474.93	11382.03
475.12	11276.70
475.30	11454.58
475.48	11295.43
475.66	11337.56
475.84	11431.18
476.02	11651.19
476.20	11592.67
476.38	11665.23
476.56	12208.23
476.74	11761.19
476.92	12046.74
477.10	12135.68
477.28	12060.78
477.46	12210.57
477.64	12374.41
477.82	12475.06
478.00	12940.82
478.18	12638.89
478.36	12826.14
478.54	12772.30
478.72	12767.62
478.90	13128.06
479.08	13399.57
479.26	13394.89
479.44	13355.10
479.62	13277.86
479.80	13469.78
479.98	13635.96
480.16	13928.53
480.34	13708.52
480.52	13743.63
480.70	13872.36
480.88	13893.42
481.06	13881.72
481.24	14134.50
481.41	14429.40
481.59	14516.00
481.77	14394.29
481.95	14551.11
482.13	14647.07
482.31	14609.62
482.49	15208.80
482.67	14752.40
482.85	15192.42
483.03	15370.30
483.21	15253.27
483.39	15524.77
483.57	15456.90
483.74	15695.63
483.92	15782.23
484.10	15707.34
484.28	15943.73
484.46	16800.37
484.64	16374.39
484.82	16255.02
485.00	16468.01
485.18	16610.78
485.35	16512.48
485.53	16421.20
485.71	16346.30
485.89	16358.00
486.07	16472.69
486.25	16786.32
486.43	17057.82
486.61	17151.45
486.78	17359.75
486.96	17390.18
487.14	17752.96
487.32	17633.60
487.50	18129.79
487.68	18359.16
487.85	18565.13
488.03	18665.77
488.21	18881.10
488.39	18771.10
488.57	18773.44
488.75	18939.62
488.92	19290.70
489.10	19405.38
489.28	19578.58
489.46	19934.34
489.64	19562.20
489.81	20437.56
489.99	20149.67
490.17	20166.06
490.35	20446.92
490.53	20184.78
490.70	20720.76
490.88	20243.29
491.06	20971.20
491.24	21018.01
491.41	21057.80
491.59	21036.74
491.77	21139.72
491.95	21209.93
492.13	21345.69
492.30	21715.49
492.48	22162.53
492.66	22267.86
492.84	22183.60
493.01	22492.55
493.19	22263.18
493.37	22464.46
493.54	22534.68
493.72	23026.19
493.90	23068.32
494.08	23173.64
494.25	23075.34
494.43	23669.84
494.61	23632.39
494.79	23726.01
494.96	23936.66
495.14	23821.97
495.32	24046.66
495.49	23990.49
495.67	24067.73
495.85	24327.53
496.02	24500.73
496.20	24657.54
496.38	24751.17
496.55	24854.15
496.73	25443.96
496.91	24978.20
497.09	25399.49
497.26	25106.93
497.44	25689.72
497.62	25968.24
497.79	25481.41
497.97	25434.60
498.14	25855.90
498.32	26260.81
498.50	26038.46
498.67	26628.27
498.85	26284.22
499.03	26478.48
499.20	26567.42
499.38	26536.99
499.56	26705.51
499.73	26672.74
499.91	26782.75
500.08	27012.12
500.26	26443.37
500.44	26944.25
500.61	26911.48
500.79	26693.81
500.97	27058.93
501.14	27339.80
501.32	27513.00
501.49	27213.41
501.67	27527.04
501.84	27571.51
502.02	27613.64
502.20	27910.89
502.37	27892.16
502.55	27859.40
502.72	28467.94
502.90	28559.22
503.07	28048.98
503.25	28388.36
503.43	28123.88
503.60	28322.82
503.78	28479.64
503.95	28222.18
504.13	28458.57
504.30	28875.19
504.48	28760.50
504.65	29186.48
504.83	29113.92
505.01	29500.11
505.18	29397.13
505.36	29876.94
505.53	29757.57
505.71	30040.78
505.88	29902.68
506.06	29909.71
506.23	29872.26
506.41	30017.37
506.58	30438.67
506.76	30213.98
506.93	30455.05
507.11	30045.46
507.28	30457.39
507.46	30129.72
507.63	30342.70
507.81	30436.33
507.98	30345.05
508.16	30501.86
508.33	30829.54
508.50	30815.49
508.68	31145.51
508.85	31295.30
509.03	31405.31
509.20	31658.09
509.38	31463.82
509.55	31580.85
509.73	31370.20
509.90	31400.63
510.08	31384.24
510.25	31562.12
510.42	31662.77
510.60	32224.50
510.77	32009.17
510.95	32561.53
511.12	31988.10
511.30	32250.24
511.47	32545.15
511.64	32491.32
511.82	32856.44
511.99	32409.40
512.17	32641.11
512.34	32694.94
512.51	32697.28
512.69	33055.39
512.86	33078.79
513.04	33156.03
513.21	33076.45
513.38	33008.58
513.56	33071.77
513.73	32847.08
513.90	33048.36
514.08	33493.07
514.25	33312.84
514.43	33647.54
514.60	33560.94
514.77	33591.37
514.95	33846.49
515.12	34092.24
515.29	33617.11
515.47	34436.30
515.64	34520.56
515.81	34309.91
515.99	34298.21
516.16	34024.37
516.33	33986.92
516.51	33881.60
516.68	33507.11
516.85	33055.39
517.03	33546.90
517.20	33811.38
517.37	34649.29
517.54	34562.69
517.72	34747.59
517.89	34117.99
518.06	34232.68
518.24	34398.85
518.41	34483.11
518.58	34845.90
518.75	34714.83
518.93	35503.59
519.10	34794.40
519.27	35452.09
519.45	35374.86
519.62	35721.26
519.79	35772.75
519.96	35421.67
520.14	35693.17
520.31	35655.72
520.48	35639.34
520.65	35838.28
520.83	36168.30
521.00	35962.33
521.17	36421.08
521.34	36084.04
521.52	36481.93
521.69	36180.00
521.86	36400.01
522.03	36395.33
522.20	36786.20
522.38	36320.43
522.55	36708.96
522.72	36701.94
522.89	36774.50
523.07	36788.54
523.24	37188.77
523.41	37619.43
523.58	37532.83
523.75	37469.64
523.92	37338.57
524.10	37544.53
524.27	37516.45
524.44	37610.07
524.61	37600.71
524.78	37642.84
524.96	37673.26
525.13	37776.25
525.30	37708.37
525.47	37982.21
525.64	37874.55
525.81	37853.48
525.98	37708.37
526.16	37715.39
526.33	37359.63
526.50	37935.40
526.67	37390.06
526.84	37514.11
527.01	37682.62
527.18	37816.04
527.36	38265.42
527.53	38866.94
527.70	38623.52
527.87	38904.38
528.04	38799.06
528.21	38869.28
528.38	38492.45
528.55	38787.36
528.72	38960.56
528.89	39227.38
529.07	38930.13
529.24	38698.42
529.41	39466.11
529.58	38948.85
529.75	39044.82
529.92	39367.81
530.09	39431.01
530.26	39168.87
530.43	39019.07
530.60	39332.70
530.77	39321.00
530.94	40046.57
531.11	39878.05
531.28	39498.88
531.46	40617.66
531.63	39754.00
531.80	39594.84
531.97	39587.82
532.14	39943.58
532.31	39426.32
532.48	39651.02
532.65	40051.25
532.82	39861.66
532.99	40013.80
533.16	39915.50
533.33	40428.07
533.50	40105.08
533.67	40304.02
533.84	40641.06
534.01	40252.53
534.18	40231.47
534.35	40877.46
534.52	39981.03
534.69	40488.93
534.86	40907.88
535.03	40947.67
535.20	41263.64
535.37	41158.32
535.54	41280.03
535.71	40718.30
535.88	40760.43
536.05	40957.03
536.22	40795.54
536.38	40914.90
536.55	41001.50
536.72	41275.35
536.89	40549.78
537.06	41008.53
537.23	41539.83
537.40	41621.75
537.57	41663.88
537.74	41448.55
537.91	41549.19
538.08	41537.49
538.25	41308.11
538.42	41607.70
538.59	41851.12
538.75	41205.13
538.92	41415.78
539.09	41862.82
539.26	41890.91
539.43	41483.66
539.60	41567.91
539.77	41500.04
539.94	41902.61
540.11	41565.57
540.28	41940.06
540.44	41493.02
540.61	41415.78
540.78	41820.69
540.95	41495.36
541.12	41947.08
541.29	42115.60
541.46	42045.38
541.62	41879.21
541.79	41972.83
541.96	41769.20
542.13	42127.30
542.30	42356.67
542.47	42054.75
542.63	42047.72
542.80	42707.76
542.97	42553.28
543.14	42656.26
543.31	42848.19
543.48	42670.31
543.64	43070.54
543.81	43077.56
543.98	43210.97
544.15	42995.64
544.32	43349.06
544.48	43508.22
544.65	43438.00
544.82	43468.43
544.99	43070.54
545.16	43005.00
545.32	43075.22
545.49	43597.16
545.66	43751.63
545.83	43430.98
546.00	43395.87
546.16	43028.41
546.33	43454.39
546.50	42967.55
546.67	43683.76
546.83	43222.67
547.00	43543.33
547.17	43461.41
547.34	42939.47
547.50	43569.07
547.67	43962.28
547.84	43693.12
548.00	43910.79
548.17	44067.61
548.34	44172.93
548.51	44250.17
548.67	44161.23
548.84	43856.96
549.01	43894.41
549.18	43758.66
549.34	44205.70
549.51	44044.20
549.68	44051.22
549.84	44177.61
550.01	44741.68
550.18	44559.12
550.34	43999.73
550.51	44374.22
550.68	44100.37
550.84	43594.82
551.01	44147.18
551.18	43821.85
551.34	44446.77
551.51	44617.63
551.68	44547.42
551.84	44559.12
552.01	43924.83
552.18	44622.31
552.34	44268.89
552.51	44624.65
552.68	44739.34
552.84	44790.83
553.01	44619.97
553.18	44481.88
553.34	44573.16
553.51	44746.36
553.67	44786.15
553.84	45303.41
554.01	45235.53
554.17	45013.18
554.34	45174.68
554.51	44940.63
554.67	45336.18
554.84	44676.15
555.00	45191.06
555.17	44762.75
555.33	45067.02
555.50	45214.47
555.67	44732.32
555.83	44896.16
556.00	45291.71
556.16	45457.88
556.33	45137.23
556.50	44926.58
556.66	45013.18
556.83	45015.52
556.99	45059.99
557.16	45448.52
557.32	45280.00
557.49	45406.39
557.65	44875.09
557.82	45485.97
557.98	45483.63
558.15	45352.56
558.32	45387.67
558.48	45155.96
558.65	45375.97
558.81	44968.71
558.98	45052.97
559.14	45574.91
559.31	45518.74
559.47	45354.90
559.64	45724.71
559.80	45670.87
559.97	45621.72
560.13	45207.45
560.30	45429.80
560.46	45696.62
560.63	45823.01
560.79	45801.94
560.96	46256.01
561.12	45233.19
561.29	45478.95
561.45	45574.91
561.61	45727.05
561.78	45111.49
561.94	45425.12
562.11	45614.70
562.27	45612.36
562.44	45525.76
562.60	45883.86
562.77	45900.25
562.93	45237.87
563.10	45811.31
563.26	45237.87
563.42	45874.50
563.59	45942.38
563.75	45694.28
563.92	46569.64
564.08	46096.85
564.24	46017.27
564.41	46167.07
564.57	45907.27
564.74	45918.97
564.90	46007.91
565.07	45902.59
565.23	46216.22
565.39	46124.94
565.56	45794.92
565.72	45275.32
565.88	45904.93
566.05	45652.15
566.21	45860.46
566.38	45745.77
566.54	46073.45
566.70	45792.58
566.87	46387.08
567.03	45785.56
567.19	46185.79
567.36	46555.60
567.52	45958.76
567.68	45830.03
567.85	45783.22
568.01	46101.53
568.17	45968.12
568.34	46225.58
568.50	46036.00
568.66	46267.71
568.83	46454.95
568.99	45581.93
569.15	45972.80
569.32	46073.45
569.48	46043.02
569.64	46356.65
569.81	46555.60
569.97	45670.87
570.13	45827.69
570.30	45773.86
570.46	45488.31
570.62	45734.07
570.78	45687.26
570.95	45944.72
571.11	46347.29
571.27	45956.42
571.43	46248.99
571.60	46241.96
571.76	46120.26
571.92	46529.85
572.09	46272.39
572.25	45954.08
572.41	45996.21
572.57	46677.30
572.74	46515.81
572.90	46834.12
573.06	46188.13
573.22	46181.11
573.38	46251.33
573.55	46150.68
573.71	46611.77
573.87	46246.65
574.03	45865.14
574.20	46267.71
574.36	46075.79
574.52	46190.47
574.68	46073.45
574.84	46316.86
575.01	46326.22
575.17	45841.73
575.33	46174.09
575.49	46092.17
575.65	46361.33
575.82	46581.34
575.98	46092.17
576.14	46532.19
576.30	46347.29
576.46	46141.32
576.62	46351.97
576.79	46202.18
576.95	46316.86
577.11	46377.72
577.27	46279.41
577.43	46525.17
577.59	45783.22
577.75	45890.88
577.92	45820.67
578.08	45998.55
578.24	46094.51
578.40	45895.56
578.56	46267.71
578.72	46494.74
578.88	46670.28
579.04	46440.91
579.21	46244.30
579.37	46321.54
579.53	46288.77
579.69	46085.15
579.85	46181.11
580.01	46469.00
580.17	46190.47
580.33	46323.88
580.49	46506.44
580.65	46431.55
580.82	46274.73
580.98	46241.96
581.14	45996.21
581.30	46230.26
581.46	46436.23
581.62	46225.58
581.78	46096.85
581.94	47119.66
582.10	46707.73
582.26	46604.75
582.42	46256.01
582.58	46651.56
582.74	46085.15
582.90	46375.37
583.06	46843.48
583.22	46920.72
583.38	46527.51
583.54	46632.83
583.70	46424.53
583.86	46623.47
584.02	46326.22
584.18	46621.13
584.34	46351.97
584.50	46256.01
584.66	46232.60
584.82	46248.99
584.98	46241.96
585.14	46380.06
585.30	46394.10
585.46	46239.62
585.62	45900.25
585.78	46202.18
585.94	46295.80
586.10	46323.88
586.26	46270.05
586.42	46494.74
586.58	46445.59
586.74	46096.85
586.90	46469.00
587.06	46579.00
587.22	46192.81
587.38	46366.01
587.54	46169.41
587.70	46646.88
587.86	46288.77
588.02	46220.90
588.18	46717.09
588.34	45764.49
588.49	45844.07
588.65	46213.88
588.81	45701.30
588.97	45799.60
589.13	45933.01
589.29	46153.02
589.45	46288.77
589.61	46230.26
589.77	46543.89
589.93	46337.93
