SpectraSuite Data File
++++++++++++++++++++++++++++++++++++
Date: Fri Oct 25 10:47:30 EDT 2013
User: price-jones
Dark Spectrum Present: No
Reference Spectrum Present: No
Number of Sampled Component Spectra: 1
Spectrometers: USB2+H05261
Integration Time (usec): 100000 (USB2+H05261)
Spectra Averaged: 1 (USB2+H05261)
Boxcar Smoothing: 0 (USB2+H05261)
Correct for Electrical Dark: No (USB2+H05261)
Strobe/Lamp Enabled: No (USB2+H05261)
Correct for Detector Non-linearity: No (USB2+H05261)
Correct for Stray Light: No (USB2+H05261)
Number of Pixels in Processed Spectrum: 2048
>>>>>Begin Processed Spectral Data<<<<<
365.73	159.16
365.92	159.16
366.12	159.16
366.32	21.06
366.52	65.54
366.72	79.58
366.91	65.54
367.11	72.56
367.31	7.02
367.51	37.45
367.70	56.17
367.90	63.19
368.10	44.47
368.30	84.26
368.49	7.02
368.69	70.22
368.89	112.35
369.09	49.15
369.28	70.22
369.48	100.64
369.68	63.19
369.87	105.32
370.07	95.96
370.27	49.15
370.47	182.56
370.66	379.17
370.86	407.25
371.06	416.62
371.25	526.62
371.45	451.72
371.65	447.04
371.84	428.32
372.04	498.53
372.24	468.11
372.44	437.68
372.63	500.87
372.83	404.91
373.03	486.83
373.22	430.66
373.42	552.37
373.62	496.19
373.81	468.11
374.01	514.92
374.21	545.34
374.40	552.37
374.60	585.13
374.79	557.05
374.99	538.32
375.19	606.20
375.38	594.50
375.58	580.45
375.78	587.47
375.97	669.39
376.17	557.05
376.37	533.64
376.56	578.11
376.76	631.94
376.95	519.60
377.15	641.31
377.35	575.77
377.54	557.05
377.74	564.07
377.93	601.52
378.13	561.73
378.33	550.03
378.52	631.94
378.72	620.24
378.91	657.69
379.11	648.33
379.31	645.99
379.50	535.98
379.70	645.99
379.89	723.23
380.09	631.94
380.28	650.67
380.48	678.76
380.68	575.77
380.87	622.58
381.07	561.73
381.26	650.67
381.46	660.03
381.65	650.67
381.85	599.18
382.04	685.78
382.24	723.23
382.43	655.35
382.63	664.71
382.83	709.18
383.02	662.37
383.22	664.71
383.41	690.46
383.61	608.54
383.80	692.80
384.00	681.10
384.19	805.14
384.39	763.01
384.58	753.65
384.78	781.74
384.97	828.55
385.17	744.29
385.36	748.97
385.56	713.86
385.75	699.82
385.95	692.80
386.14	748.97
386.34	767.70
386.53	760.67
386.72	784.08
386.92	777.06
387.11	826.21
387.31	884.72
387.50	875.36
387.70	772.38
387.89	767.70
388.09	788.76
388.28	849.61
388.48	800.46
388.67	889.40
388.86	856.64
389.06	957.28
389.25	917.49
389.45	917.49
389.64	873.02
389.84	945.58
390.03	954.94
390.22	922.17
390.42	889.40
390.61	922.17
390.81	922.17
391.00	901.11
391.19	947.92
391.39	929.19
391.58	961.96
391.78	896.43
391.97	978.34
392.16	1004.09
392.36	992.39
392.55	1015.79
392.75	929.19
392.94	959.62
393.13	978.34
393.33	990.05
393.52	1004.09
393.71	966.64
393.91	1013.45
394.10	1036.86
394.29	957.28
394.49	1074.31
394.68	1083.67
394.88	1109.41
395.07	1020.47
395.26	1064.94
395.46	1121.12
395.65	1048.56
395.84	1100.05
396.04	1210.06
396.23	1116.44
396.42	1006.43
396.62	1151.54
396.81	1167.93
397.00	1083.67
397.19	1071.97
397.39	1139.84
397.58	1219.42
397.77	1196.01
397.97	1107.07
398.16	1303.68
398.35	1132.82
398.55	1200.69
398.74	1219.42
398.93	1383.26
399.12	1289.64
399.32	1203.04
399.51	1369.21
399.70	1320.06
399.90	1306.02
400.09	1275.59
400.28	1430.07
400.47	1336.45
400.67	1444.11
400.86	1317.72
401.05	1359.85
401.24	1376.24
401.44	1411.34
401.63	1378.58
401.82	1427.73
402.01	1437.09
402.21	1448.79
402.40	1486.24
402.59	1387.94
402.78	1448.79
402.97	1441.77
403.17	1636.03
403.36	1521.35
403.55	1572.84
403.74	1636.03
403.93	1530.71
404.13	1540.07
404.32	1596.25
404.51	1547.09
404.70	1572.84
404.89	1633.69
405.09	1713.27
405.28	1668.80
405.47	1565.82
405.66	1795.19
405.85	1760.08
406.05	1708.59
406.24	1739.02
406.43	1741.36
406.62	1722.63
406.81	1736.68
407.00	1703.91
407.20	1720.29
407.39	1888.81
407.58	1872.43
407.77	1860.73
407.96	1898.17
408.15	1893.49
408.34	1846.68
408.54	1933.28
408.73	1916.90
408.92	1970.73
409.11	2010.52
409.30	2010.52
409.49	1921.58
409.68	2047.97
409.87	1930.94
410.07	2001.16
410.26	2139.25
410.45	2054.99
410.64	2186.06
410.83	2183.72
411.02	2132.23
411.21	2232.87
411.40	2155.63
411.59	2181.38
411.78	2356.92
411.98	2160.31
412.17	2204.78
412.36	2235.21
412.55	2242.23
412.74	2356.92
412.93	2406.07
413.12	2207.13
413.31	2511.39
413.50	2445.86
413.69	2445.86
413.88	2495.01
414.07	2455.22
414.26	2562.89
414.45	2558.21
414.64	2513.74
414.83	2644.81
415.02	2677.57
415.22	2602.68
415.41	2672.89
415.60	2642.46
415.79	2724.38
415.98	2855.45
416.17	2733.75
416.36	2782.90
416.55	2782.90
416.74	2785.24
416.93	2810.98
417.12	2853.11
417.31	2918.65
417.50	3005.25
417.69	2913.97
417.88	2970.14
418.07	2991.20
418.26	3103.55
418.45	2963.12
418.64	3082.49
418.83	3049.72
419.02	3059.08
419.21	3215.90
419.39	3105.89
419.58	3162.06
419.77	3089.51
419.96	3187.81
420.15	3169.09
420.34	3222.92
420.53	3234.62
420.72	3232.28
420.91	3225.26
421.10	3227.60
421.29	3370.37
421.48	3262.71
421.67	3337.60
421.86	3368.03
422.05	3283.77
422.24	3234.62
422.43	3349.31
422.61	3323.56
422.80	3431.23
422.99	3447.61
423.18	3496.76
423.37	3482.72
423.56	3538.89
423.75	3480.38
423.94	3375.05
424.13	3290.79
424.32	3314.20
424.50	3403.14
424.69	3445.27
424.88	3480.38
425.07	3536.55
425.26	3485.06
425.45	3375.05
425.64	3391.44
425.83	3548.25
426.01	3611.45
426.20	3501.44
426.39	3407.82
426.58	3541.23
426.77	3471.01
426.96	3513.14
427.15	3639.53
427.33	3658.26
427.52	3602.08
427.71	3761.24
427.90	3578.68
428.09	3667.62
428.28	3705.07
428.46	3611.45
428.65	3648.90
428.84	3684.00
429.03	3967.21
429.22	3747.20
429.40	3744.86
429.59	3803.37
429.78	3639.53
429.97	3648.90
430.16	3695.71
430.34	3812.73
430.53	3693.37
430.72	3934.44
430.91	3864.22
431.10	3789.33
431.28	3786.99
431.47	3953.16
431.66	4140.41
431.85	3955.51
432.03	4088.92
432.22	4121.68
432.41	4191.90
432.60	4079.55
432.79	4049.13
432.97	4131.05
433.16	4203.60
433.35	4037.42
433.54	4168.49
433.72	4252.75
433.91	4030.40
434.10	4248.07
434.28	4084.23
434.47	4114.66
434.66	4205.94
434.85	4440.00
435.03	4390.84
435.22	4442.34
435.41	4578.09
435.59	4550.00
435.78	4547.66
435.97	4524.26
436.16	4442.34
436.34	4411.91
436.53	4533.62
436.72	4461.06
436.90	4414.25
437.09	4491.49
437.28	4479.79
437.46	4610.86
437.65	4507.87
437.84	4578.09
438.02	4603.83
438.21	4770.01
438.40	4578.09
438.58	4697.46
438.77	4674.05
438.96	4755.97
439.14	4847.25
439.33	4950.23
439.52	4807.46
439.70	4856.61
439.89	4975.98
440.08	4999.38
440.26	4983.00
440.45	5053.22
440.63	5088.32
440.82	5179.61
441.01	5207.69
441.19	5287.27
441.38	5181.95
441.57	5425.36
441.75	5408.98
441.94	5291.95
442.12	5465.15
442.31	5516.64
442.50	5467.49
442.68	5453.45
442.87	5647.71
443.05	5682.82
443.24	5638.35
443.43	5720.27
443.61	5650.05
443.80	5827.93
443.98	5544.73
444.17	5310.68
444.35	5610.26
444.54	5720.27
444.73	5764.74
444.91	5572.82
445.10	5444.09
445.28	5467.49
445.47	5547.07
445.65	5554.09
445.84	5736.65
446.02	5863.04
446.21	5685.16
446.39	5806.87
446.58	5874.74
446.77	5692.18
446.95	5729.63
447.14	5743.67
447.32	5834.96
447.51	5797.51
447.69	5902.83
447.88	5884.11
448.06	5912.19
448.25	5947.30
448.43	5834.96
448.62	5909.85
448.80	5853.68
448.99	5832.62
449.17	6101.78
449.36	5982.41
449.54	6022.20
449.73	5987.09
449.91	6186.04
450.10	6164.97
450.28	6279.66
450.46	6052.63
450.65	6340.51
450.83	6291.36
451.02	6183.70
451.20	6251.57
451.39	6244.55
451.57	6380.30
451.76	6394.34
451.94	6225.82
452.13	6544.14
452.31	6193.06
452.49	6176.67
452.68	6246.89
452.86	6377.96
453.05	6410.73
453.23	6530.09
453.42	6555.84
453.60	6499.67
453.78	6658.82
453.97	6462.22
454.15	6380.30
454.34	6595.63
454.52	6569.88
454.70	6560.52
454.89	6513.71
455.07	6630.74
455.26	6504.35
455.44	6703.29
455.62	6750.10
455.81	6715.00
455.99	6700.95
456.17	6855.43
456.36	6761.81
456.54	7054.37
456.73	7030.97
456.91	7115.23
457.09	7105.87
457.28	7246.30
457.46	7115.23
457.64	7040.33
457.83	7148.00
458.01	7077.78
458.19	7105.87
458.38	7145.66
458.56	7143.32
458.74	7377.37
458.93	7241.62
459.11	7276.73
459.29	7283.75
459.48	7442.90
459.66	7220.55
459.84	7281.41
460.03	7482.69
460.21	7379.71
460.39	7428.86
460.57	7499.08
460.76	7531.84
460.94	7632.49
461.12	7538.87
461.31	7503.76
461.49	7557.59
461.67	7513.12
461.85	7793.98
462.04	7688.66
462.22	8016.33
462.40	7793.98
462.59	7646.53
462.77	7672.28
462.95	7880.58
463.13	7932.08
463.32	7971.86
463.50	7955.48
463.68	7960.16
463.86	8046.76
464.05	7960.16
464.23	7878.24
464.41	8135.70
464.59	7892.29
464.78	7953.14
464.96	7864.20
465.14	7791.64
465.32	8145.06
465.50	8308.90
465.69	8318.26
465.87	8273.79
466.05	8285.50
466.23	8124.00
466.41	8116.98
466.60	8100.59
466.78	8234.00
466.96	8353.37
467.14	8203.58
467.32	8294.86
467.51	8531.25
467.69	8084.21
467.87	8208.26
468.05	8379.12
468.23	8299.54
468.41	8329.97
468.60	8479.76
468.78	8505.51
468.96	8383.80
469.14	8390.82
469.32	8512.53
469.50	8191.88
469.69	8702.11
469.87	8945.53
470.05	8854.25
470.23	8812.12
470.41	8795.73
470.59	8952.55
470.77	8999.36
470.95	8922.12
471.14	8968.93
471.32	8837.86
471.50	8980.64
471.68	9022.77
471.86	9081.28
472.04	9137.45
472.22	9301.29
472.40	9128.09
472.58	9144.47
472.77	9202.99
472.95	9228.73
473.13	9664.07
473.31	9228.73
473.49	9296.61
473.67	9385.55
473.85	9376.19
474.03	9884.08
474.21	9755.35
474.39	9802.16
474.57	9891.10
474.75	9860.68
474.93	9982.38
475.12	9584.49
475.30	10059.62
475.48	9678.12
475.66	10015.15
475.84	10054.94
476.02	10207.08
476.20	10134.52
476.38	10342.83
476.56	10560.50
476.74	10637.73
476.92	10391.98
477.10	10394.32
477.28	10766.46
477.46	10670.50
477.64	10963.07
477.82	11049.67
478.00	11070.73
478.18	11375.00
478.36	11218.19
478.54	11325.85
478.72	11243.93
478.90	11400.75
479.08	11363.30
479.26	11800.98
479.44	11796.30
479.62	11655.87
479.80	11903.96
479.98	12009.29
480.16	12187.17
480.34	11995.25
480.52	12407.18
480.70	12189.51
480.88	12053.76
481.06	12231.64
481.24	12421.22
481.41	12800.39
481.59	12861.24
481.77	12697.41
481.95	12875.29
482.13	12959.55
482.31	13085.94
482.49	13231.05
482.67	13174.88
482.85	13364.46
483.03	13600.85
483.21	13504.89
483.39	13841.93
483.57	13593.83
483.74	13848.95
483.92	13797.46
484.10	13818.52
484.28	14181.31
484.46	14354.51
484.64	14630.69
484.82	14398.98
485.00	14356.85
485.18	14782.82
485.35	14885.81
485.53	14647.07
485.71	14981.77
485.89	15005.17
486.07	14904.53
486.25	15218.16
486.43	15253.27
486.61	15384.34
486.78	15517.75
486.96	15569.24
487.14	15899.26
487.32	15915.64
487.50	15985.86
487.68	16128.63
487.85	16470.35
488.03	16610.78
488.21	16776.96
488.39	16617.80
488.57	16807.39
488.75	17156.13
488.92	17048.46
489.10	17245.07
489.28	17301.24
489.46	17720.20
489.64	17350.39
489.81	18036.17
489.99	17905.10
490.17	18216.39
490.35	18279.58
490.53	18038.51
490.70	18480.87
490.88	18485.55
491.06	18628.32
491.24	18649.39
491.41	18480.87
491.59	18787.48
491.77	18963.02
491.95	18974.72
492.13	18813.23
492.30	19761.14
492.48	19426.45
492.66	19686.25
492.84	19740.08
493.01	19566.88
493.19	19597.31
493.37	19992.86
493.54	20149.67
493.72	20226.91
493.90	20259.68
494.08	20517.14
494.25	20695.02
494.43	21018.01
494.61	21020.35
494.79	20915.03
494.96	20908.01
495.14	20945.45
495.32	21422.92
495.49	21261.43
495.67	21612.51
495.85	21371.43
496.02	21764.64
496.20	21928.48
496.38	21591.44
496.55	22553.40
496.73	22462.12
496.91	22415.31
497.09	22164.87
497.26	22792.14
497.44	22651.70
497.62	23112.79
497.79	23049.60
497.97	22726.60
498.14	23314.08
498.32	23178.33
498.50	23014.49
498.67	23531.75
498.85	23548.13
499.03	23410.04
499.20	23765.80
499.38	23793.89
499.56	23948.36
499.73	23885.17
499.91	23901.55
500.08	24077.09
500.26	24016.24
500.44	24100.50
500.61	24020.92
500.79	24147.31
500.97	24308.80
501.14	24900.96
501.32	24484.34
501.49	24814.36
501.67	24652.86
501.84	25064.80
502.02	24872.87
502.20	25090.54
502.37	25282.47
502.55	25188.85
502.72	25291.83
502.90	25280.13
503.07	25387.79
503.25	25560.99
503.43	25200.55
503.60	25989.31
503.78	25713.13
503.95	25736.53
504.13	26230.38
504.30	26260.81
504.48	26096.97
504.65	26536.99
504.83	26391.88
505.01	26948.93
505.18	26419.97
505.36	27047.23
505.53	26448.05
505.71	26817.86
505.88	26546.36
506.06	26838.92
506.23	27321.07
506.41	26593.17
506.58	27047.23
506.76	27002.76
506.93	27023.83
507.11	27402.99
507.28	27534.06
507.46	27513.00
507.63	27363.20
507.81	27391.29
507.98	27875.78
508.16	27648.75
508.33	28048.98
508.50	27784.50
508.68	28154.30
508.85	28432.83
509.03	28299.42
509.20	28013.87
509.38	28318.14
509.55	28231.54
509.73	28652.84
509.90	28341.55
510.08	28451.55
510.25	28500.70
510.42	28737.10
510.60	29291.80
510.77	28821.36
510.95	29235.63
511.12	29083.50
511.30	29270.74
511.47	29551.60
511.64	29614.80
511.82	29179.46
511.99	29425.22
512.17	29792.68
512.34	29460.32
512.51	29778.64
512.69	30331.00
512.86	29860.55
513.04	30003.33
513.21	29839.49
513.38	30146.10
513.56	30548.67
513.73	30066.52
513.90	30298.23
514.08	30218.66
514.25	30452.71
514.43	30398.88
514.60	30700.81
514.77	30546.33
514.95	30913.80
515.12	30719.53
515.29	30768.68
515.47	31129.12
515.64	31545.74
515.81	31056.57
515.99	31344.45
516.16	31028.48
516.33	30843.58
516.51	31168.91
516.68	31101.04
516.85	31047.21
517.03	31337.43
517.20	31409.99
517.37	31578.51
517.54	31772.77
517.72	31812.56
517.89	32140.24
518.06	31934.27
518.24	31828.95
518.41	31737.66
518.58	31934.27
518.75	31864.05
518.93	32226.84
519.10	32170.66
519.27	32437.48
519.45	32762.82
519.62	32708.99
519.79	32409.40
519.96	32685.58
520.14	33202.84
520.31	32465.57
520.48	32954.74
520.65	32940.70
520.83	32840.06
521.00	33170.07
521.17	33347.95
521.34	33092.83
521.52	33420.51
521.69	33734.14
521.86	33549.24
522.03	33001.55
522.20	33673.29
522.38	33790.31
522.55	33907.34
522.72	33797.34
522.89	33464.98
523.07	34132.03
523.24	33846.49
523.41	33968.19
523.58	33790.31
523.75	34527.58
523.92	34181.18
524.10	34529.92
524.27	34462.05
524.44	34487.79
524.61	34726.53
524.78	34328.64
524.96	34419.92
525.13	34686.74
525.30	34754.61
525.47	34721.85
525.64	34932.50
525.81	35047.18
525.98	34838.87
526.16	34696.10
526.33	34724.19
526.50	34831.85
526.67	34845.90
526.84	34892.71
527.01	35138.46
527.18	34991.01
527.36	35412.31
527.53	35150.17
527.70	35864.03
527.87	36048.93
528.04	35416.99
528.21	35571.46
528.38	35917.86
528.55	35634.66
528.72	35838.28
528.89	36107.44
529.07	35807.86
529.24	35992.76
529.41	36002.12
529.58	35629.98
529.75	35749.34
529.92	35786.79
530.09	36318.09
530.26	36339.16
530.43	36821.31
530.60	35995.10
530.77	36336.82
530.94	36175.32
531.11	36175.32
531.28	36641.09
531.46	36793.22
531.63	36903.23
531.80	36847.05
531.97	36524.06
532.14	36900.89
532.31	36713.64
532.48	36772.16
532.65	36748.75
532.82	37046.00
532.99	37090.47
533.16	36758.11
533.33	37148.98
533.50	37516.45
533.67	37357.29
533.84	37050.68
534.01	37160.69
534.18	37392.40
534.35	37617.09
534.52	37277.71
534.69	37656.88
534.86	37607.73
535.03	37450.91
535.20	37565.60
535.37	37551.56
535.54	37921.36
535.71	37991.58
535.88	37560.92
536.05	37654.54
536.22	37930.72
536.38	37942.42
536.55	37809.01
536.72	37708.37
536.89	37619.43
537.06	37951.79
537.23	38167.12
537.40	37947.11
537.57	38052.43
537.74	38167.12
537.91	38843.53
538.08	38380.10
538.25	38518.20
538.42	38213.93
538.59	38579.05
538.75	38223.29
538.92	39077.58
539.09	38876.30
539.26	39028.43
539.43	38927.79
539.60	38459.68
539.77	38433.94
539.94	38962.90
540.11	38698.42
540.28	39070.56
540.44	39082.27
540.61	38932.47
540.78	38649.27
540.95	39002.69
541.12	38981.62
541.29	39166.52
541.46	38923.11
541.62	39196.95
541.79	39433.35
541.96	39115.03
542.13	39412.28
542.30	39461.43
542.47	39292.91
542.63	39351.43
542.80	39751.66
542.97	40086.36
543.14	39927.20
543.31	39992.73
543.48	40357.86
543.64	40549.78
543.81	39992.73
543.98	40044.23
544.15	40224.45
544.32	40247.85
544.48	40760.43
544.65	40486.59
544.82	40215.08
544.99	40112.10
545.16	40399.99
545.32	40030.18
545.49	40388.28
545.66	40568.51
545.83	40643.40
546.00	41120.87
546.16	40835.33
546.33	40460.84
546.50	40205.72
546.67	40669.15
546.83	39917.84
547.00	40652.76
547.17	40818.94
547.34	40823.62
547.50	40872.78
547.67	41069.38
547.84	40912.56
548.00	41427.48
548.17	41195.77
548.34	40835.33
548.51	41165.34
548.67	41343.22
548.84	41394.71
549.01	41296.41
549.18	40868.09
549.34	41588.98
549.51	41378.33
549.68	41165.34
549.84	41670.90
550.01	41560.89
550.18	41249.60
550.34	41661.54
550.51	41202.79
550.68	41191.09
550.84	41450.89
551.01	41731.75
551.18	41710.69
551.34	41640.47
551.51	41780.90
551.68	41991.55
551.84	41808.99
552.01	41394.71
552.18	41808.99
552.34	41621.75
552.51	41722.39
552.68	42054.75
552.84	41525.78
553.01	42293.48
553.18	41869.84
553.34	41776.22
553.51	41832.39
553.67	41628.77
553.84	42298.16
554.01	42213.90
554.17	42483.06
554.34	42602.43
554.51	42134.32
554.67	42724.14
554.84	42342.63
555.00	41855.80
555.17	42398.80
555.33	42508.81
555.50	42384.76
555.67	42426.89
555.83	42314.55
556.00	42974.58
556.16	42953.51
556.33	42649.24
556.50	42522.85
556.66	42707.76
556.83	42436.25
556.99	42539.24
557.16	42581.37
557.32	43082.24
557.49	42263.05
557.65	42335.61
557.82	42469.02
557.98	42431.57
558.15	42543.92
558.32	42925.42
558.48	42838.83
558.65	42782.65
558.81	42754.57
558.98	42792.01
559.14	42855.21
559.31	42656.26
559.47	43075.22
559.64	42717.12
559.80	43260.12
559.97	43608.86
560.13	42831.80
560.30	43000.32
560.46	43054.15
560.63	42567.32
560.79	43084.58
560.96	43129.05
561.12	43346.72
561.29	43409.92
561.45	43152.46
561.61	43166.50
561.78	43227.35
561.94	43313.95
562.11	42920.74
562.27	43658.01
562.44	42883.30
562.60	43206.29
562.77	43587.80
562.93	43629.93
563.10	43227.35
563.26	42822.44
563.42	43494.18
563.59	43386.51
563.75	43377.15
563.92	43505.88
564.08	43578.43
564.24	43824.19
564.41	43585.46
564.57	43648.65
564.74	43466.09
564.90	43742.27
565.07	43789.08
565.23	43526.94
565.39	43627.59
565.56	43798.44
565.72	43601.84
565.88	43594.82
566.05	43765.68
566.21	43260.12
566.38	43449.70
566.54	43548.01
566.70	43374.81
566.87	44074.63
567.03	43988.03
567.19	44196.34
567.36	43742.27
567.52	43695.46
567.68	43985.69
567.85	43856.96
568.01	44135.48
568.17	43866.32
568.34	43882.70
568.50	43562.05
568.66	43583.12
568.83	43973.98
568.99	43761.00
569.15	43723.55
569.32	43672.06
569.48	43744.61
569.64	44538.05
569.81	43824.19
569.97	43665.03
570.13	43452.05
570.30	43164.16
570.46	43524.60
570.62	43543.33
570.78	44004.41
570.95	43690.78
571.11	43768.02
571.27	43536.30
571.43	44058.24
571.60	43700.14
571.76	43704.82
571.92	43833.55
572.09	43711.84
572.25	43899.09
572.41	43985.69
572.57	43543.33
572.74	44648.06
572.90	43538.65
573.06	43962.28
573.22	44201.02
573.38	44165.91
573.55	43852.28
573.71	44168.25
573.87	43674.40
574.03	43583.12
574.20	44215.06
574.36	44201.02
574.52	44360.17
574.68	44002.07
574.84	44002.07
575.01	44137.82
575.17	44399.96
575.33	44261.87
575.49	43945.90
575.65	44488.90
575.82	44643.38
575.98	43690.78
576.14	44318.04
576.30	44091.01
576.46	43784.40
576.62	43779.72
576.79	44002.07
576.95	43667.37
577.11	43959.94
577.27	44107.40
577.43	44498.26
577.59	44044.20
577.75	44245.49
577.92	43924.83
578.08	44540.39
578.24	43999.73
578.40	43882.70
578.56	43819.51
578.72	44673.81
578.88	43927.17
579.04	44294.64
579.21	43973.98
579.37	44060.58
579.53	44095.69
579.69	43807.81
579.85	44182.29
580.01	44449.11
580.17	44245.49
580.33	44409.32
580.49	44037.18
580.65	44804.88
580.82	44301.66
580.98	44339.11
581.14	44320.38
581.30	44516.99
581.46	44505.29
581.62	44343.79
581.78	44067.61
581.94	44458.48
582.10	44306.34
582.26	44411.67
582.42	44266.55
582.58	44009.09
582.74	43903.77
582.90	44282.94
583.06	44130.80
583.22	44238.47
583.38	44411.67
583.54	44364.85
583.70	44491.24
583.86	44360.17
584.02	43894.41
584.18	44580.18
584.34	44240.81
584.50	44765.09
584.66	44678.49
584.82	44037.18
584.98	44591.89
585.14	44161.23
585.30	43973.98
585.46	44034.84
585.62	44137.82
585.78	44524.01
585.94	44044.20
586.10	44006.75
586.26	44182.29
586.42	44385.92
586.58	44231.44
586.74	44332.09
586.90	44247.83
587.06	44371.88
587.22	44170.59
587.38	44268.89
587.54	44727.64
587.70	44706.57
587.86	44992.12
588.02	44692.53
588.18	44545.08
588.34	44428.05
588.49	44275.91
588.65	43871.00
588.81	43751.63
588.97	44219.74
589.13	44280.60
589.29	44264.21
589.45	44421.03
589.61	44142.50
589.77	44844.66
589.93	44444.43
590.08	44423.37
590.24	44250.17
590.40	44109.74
