SpectraSuite Data File
++++++++++++++++++++++++++++++++++++
Date: Fri Oct 25 11:22:47 EDT 2013
User: price-jones
Dark Spectrum Present: No
Reference Spectrum Present: No
Number of Sampled Component Spectra: 1
Spectrometers: USB2+H05261
Integration Time (usec): 100000 (USB2+H05261)
Spectra Averaged: 1 (USB2+H05261)
Boxcar Smoothing: 0 (USB2+H05261)
Correct for Electrical Dark: No (USB2+H05261)
Strobe/Lamp Enabled: No (USB2+H05261)
Correct for Detector Non-linearity: No (USB2+H05261)
Correct for Stray Light: No (USB2+H05261)
Number of Pixels in Processed Spectrum: 2048
>>>>>Begin Processed Spectral Data<<<<<
365.73	231.71
365.92	231.71
366.12	231.71
366.32	88.94
366.52	44.47
366.72	152.13
366.91	170.86
367.11	112.35
367.31	98.30
367.51	133.41
367.70	156.82
367.90	135.75
368.10	119.37
368.30	107.66
368.49	98.30
368.69	72.56
368.89	147.45
369.09	128.73
369.28	128.73
369.48	107.66
369.68	222.35
369.87	203.63
370.07	152.13
370.27	201.29
370.47	330.02
370.66	552.37
370.86	617.90
371.06	645.99
371.25	620.24
371.45	660.03
371.65	620.24
371.84	657.69
372.04	624.92
372.24	641.31
372.44	650.67
372.63	786.42
372.83	739.61
373.03	695.14
373.22	669.39
373.42	772.38
373.62	716.20
373.81	816.85
374.01	795.78
374.21	847.27
374.40	702.16
374.60	863.66
374.79	805.14
374.99	854.30
375.19	812.17
375.38	844.93
375.58	779.40
375.78	854.30
375.97	884.72
376.17	947.92
376.37	851.96
376.56	809.83
376.76	802.80
376.95	882.38
377.15	922.17
377.35	891.74
377.54	910.47
377.74	856.64
377.93	870.68
378.13	926.85
378.33	875.36
378.52	971.32
378.72	976.00
378.91	908.13
379.11	1025.15
379.31	1041.54
379.50	912.81
379.70	933.87
379.89	1008.77
380.09	1090.69
380.28	973.66
380.48	929.19
380.68	1036.86
380.87	961.96
381.07	983.02
381.26	1006.43
381.46	1008.77
381.65	1008.77
381.85	966.64
382.04	1078.99
382.24	1015.79
382.43	1088.35
382.63	976.00
382.83	1081.33
383.02	1093.03
383.22	1137.50
383.41	1076.65
383.61	1093.03
383.80	1149.20
384.00	1149.20
384.19	1095.37
384.39	1135.16
384.58	1128.14
384.78	1142.18
384.97	1231.12
385.17	1102.39
385.36	1128.14
385.56	1268.57
385.75	1146.86
385.95	1149.20
386.14	1207.72
386.34	1174.95
386.53	1266.23
386.72	1158.57
386.92	1238.14
387.11	1240.48
387.31	1327.08
387.50	1184.31
387.70	1287.29
387.89	1205.38
388.09	1226.44
388.28	1224.10
388.48	1259.21
388.67	1317.72
388.86	1359.85
389.06	1338.79
389.25	1242.82
389.45	1406.66
389.64	1394.96
389.84	1282.61
390.03	1399.64
390.22	1383.26
390.42	1437.09
390.61	1401.98
390.81	1324.74
391.00	1327.08
391.19	1476.88
391.39	1383.26
391.58	1444.11
391.78	1434.75
391.97	1460.49
392.16	1488.58
392.36	1565.82
392.55	1500.28
392.75	1514.33
392.94	1437.09
393.13	1502.62
393.33	1565.82
393.52	1596.25
393.71	1586.88
393.91	1654.76
394.10	1556.46
394.29	1607.95
394.49	1619.65
394.68	1654.76
394.88	1600.93
395.07	1710.93
395.26	1675.82
395.46	1755.40
395.65	1673.48
395.84	1678.16
396.04	1776.47
396.23	1771.79
396.42	1647.74
396.62	1722.63
396.81	1827.96
397.00	1717.95
397.19	1778.81
397.39	1746.04
397.58	1727.32
397.77	1809.23
397.97	1783.49
398.16	1853.70
398.35	1757.74
398.55	1891.15
398.74	1842.00
398.93	1982.43
399.12	2031.58
399.32	1954.35
399.51	1921.58
399.70	2059.67
399.90	1860.73
400.09	1989.46
400.28	1956.69
400.47	2012.86
400.67	2047.97
400.86	2139.25
401.05	2071.37
401.24	2120.53
401.44	2190.74
401.63	2169.68
401.82	2111.16
402.01	2253.94
402.21	2237.55
402.40	2174.36
402.59	2310.11
402.78	2197.76
402.97	2289.04
403.17	2335.85
403.36	2307.77
403.55	2260.96
403.74	2361.60
403.93	2349.90
404.13	2363.94
404.32	2368.62
404.51	2326.49
404.70	2452.88
404.89	2406.07
405.09	2511.39
405.28	2523.10
405.47	2464.58
405.66	2427.14
405.85	2579.27
406.05	2518.42
406.24	2530.12
406.43	2668.21
406.62	2586.29
406.81	2612.04
407.00	2656.51
407.20	2579.27
407.39	2621.40
407.58	2747.79
407.77	2740.77
407.96	2754.81
408.15	2656.51
408.34	2733.75
408.54	2916.31
408.73	2726.72
408.92	2799.28
409.11	2918.65
409.30	2953.76
409.49	2911.63
409.68	2803.96
409.87	2888.22
410.07	2935.03
410.26	3110.57
410.45	2965.46
410.64	2986.52
410.83	3119.93
411.02	3126.96
411.21	3234.62
411.40	3255.69
411.59	3248.66
411.78	3295.47
411.98	3295.47
412.17	3330.58
412.36	3246.32
412.55	3419.52
412.74	3269.73
412.93	3300.16
413.12	3368.03
413.31	3494.42
413.50	3555.27
413.69	3428.88
413.88	3625.49
414.07	3442.93
414.26	3550.59
414.45	3742.52
414.64	3576.34
414.83	3742.52
415.02	3618.47
415.22	3686.34
415.41	3901.67
415.60	3850.18
415.79	3904.01
415.98	3967.21
416.17	4028.06
416.36	3929.76
416.55	4042.11
416.74	4189.56
416.93	4025.72
417.12	4093.60
417.31	4102.96
417.50	4147.43
417.69	4341.69
417.88	4442.34
418.07	4252.75
418.26	4222.33
418.45	4297.22
418.64	4545.32
418.83	4535.96
419.02	4430.63
419.21	4498.51
419.39	4566.39
419.58	4571.07
419.77	4458.72
419.96	4564.04
420.15	4620.22
420.34	4580.43
420.53	4774.69
420.72	4781.71
420.91	4800.44
421.10	4798.10
421.29	4884.70
421.48	4601.49
421.67	4887.04
421.86	4767.67
422.05	4727.88
422.24	4697.46
422.43	4791.08
422.61	4816.82
422.80	4840.23
422.99	4961.94
423.18	4980.66
423.37	5097.69
423.56	5069.60
423.75	5050.88
423.94	4791.08
424.13	4652.98
424.32	4805.12
424.50	4980.66
424.69	5048.54
424.88	5064.92
425.07	5001.72
425.26	4994.70
425.45	5011.09
425.64	4943.21
425.83	5008.75
426.01	5011.09
426.20	4985.34
426.39	5151.52
426.58	4994.70
426.77	5100.03
426.96	5156.20
427.15	5212.37
427.33	5163.22
427.52	5193.65
427.71	5320.04
427.90	5247.48
428.09	5214.71
428.28	5369.19
428.46	5476.85
428.65	5364.51
428.84	5488.56
429.03	5577.50
429.22	5472.17
429.40	5425.36
429.59	5645.37
429.78	5390.25
429.97	5296.63
430.16	5619.63
430.34	5689.84
430.53	5640.69
430.72	5687.50
430.91	5605.58
431.10	5750.70
431.28	5790.49
431.47	5877.09
431.66	5905.17
431.85	5760.06
432.03	6043.26
432.22	6026.88
432.41	5996.45
432.60	5942.62
432.79	6001.13
432.97	5905.17
433.16	6164.97
433.35	5968.37
433.54	6064.33
433.72	6064.33
433.91	6183.70
434.10	6228.17
434.28	6225.82
434.47	6174.33
434.66	6373.28
434.85	6218.80
435.03	6356.90
435.22	6171.99
435.41	6539.46
435.59	6356.90
435.78	6333.49
435.97	6473.92
436.16	6368.60
436.34	6265.61
436.53	6623.72
436.72	6707.98
436.90	6443.49
437.09	6658.82
437.28	6516.05
437.46	6476.26
437.65	6782.87
437.84	6836.70
438.02	6675.21
438.21	6668.19
438.40	6834.36
438.58	7103.53
438.77	7007.56
438.96	6773.51
439.14	6977.14
439.33	7103.53
439.52	7173.74
439.70	7440.56
439.89	7456.95
440.08	7400.77
440.26	7475.67
440.45	7365.67
440.63	7503.76
440.82	7700.36
441.01	7396.09
441.19	7543.55
441.38	7658.23
441.57	8074.85
441.75	7634.83
441.94	8084.21
442.12	7932.08
442.31	8053.78
442.50	7962.50
442.68	8058.46
442.87	8147.40
443.05	8248.05
443.24	8269.11
443.43	8229.32
443.61	8203.58
443.80	8411.89
443.98	8149.75
444.17	7983.57
444.35	8285.50
444.54	8355.71
444.73	8238.69
444.91	8304.22
445.10	8241.03
445.28	8170.81
445.47	8325.29
445.65	8451.67
445.84	8599.13
446.02	8580.40
446.21	8383.80
446.39	8397.84
446.58	8547.64
446.77	8540.61
446.95	8278.47
447.14	8472.74
447.32	8477.42
447.51	8573.38
447.69	8510.19
447.88	8561.68
448.06	8526.57
448.25	8634.24
448.43	8758.28
448.62	8561.68
448.80	8629.56
448.99	8564.02
449.17	8943.19
449.36	8702.11
449.54	8840.20
449.73	8973.61
449.91	9025.11
450.10	8929.14
450.28	9053.19
450.46	9256.82
450.65	9144.47
450.83	9039.15
451.02	9020.42
451.20	9130.43
451.39	9142.13
451.57	9245.12
451.76	9254.48
451.94	9137.45
452.13	9350.44
452.31	9376.19
452.49	9315.33
452.68	9294.27
452.86	9359.80
453.05	9331.72
453.23	9495.55
453.42	9460.45
453.60	9397.25
453.78	9778.76
453.97	9610.24
454.15	9799.82
454.34	9359.80
454.52	9584.49
454.70	9572.79
454.89	9710.88
455.07	9991.75
455.26	9914.51
455.44	10209.42
455.62	9907.49
455.81	9877.06
455.99	10068.98
456.17	9907.49
456.36	10022.17
456.54	10204.74
456.73	10176.65
456.91	10445.81
457.09	10375.59
457.28	10602.63
457.46	10284.31
457.64	10555.82
457.83	10455.17
458.01	10452.83
458.19	10717.31
458.38	10420.06
458.56	10619.01
458.74	10583.90
458.93	10839.02
459.11	10927.96
459.29	10773.49
459.48	10806.25
459.66	10686.89
459.84	11028.60
460.03	11061.37
460.21	10862.43
460.39	10995.84
460.57	11192.44
460.76	11070.73
460.94	11283.72
461.12	11309.47
461.31	11279.04
461.49	11140.95
461.67	11267.34
461.85	11583.31
462.04	11503.73
462.22	11627.78
462.40	11665.23
462.59	11358.62
462.77	11470.97
462.95	12006.95
463.13	11592.67
463.32	11676.93
463.50	11716.72
463.68	11810.34
463.86	12051.42
464.05	11981.20
464.23	11852.47
464.41	11920.35
464.59	11885.24
464.78	12360.37
464.96	12102.91
465.14	11768.21
465.32	12236.32
465.50	12198.87
465.69	12475.06
465.87	12147.38
466.05	12184.83
466.23	12196.53
466.41	12128.66
466.60	12547.61
466.78	12177.81
466.96	12477.40
467.14	12503.14
467.32	12383.77
467.51	12606.13
467.69	12051.42
467.87	12582.72
468.05	12587.40
468.23	12629.53
468.41	12449.31
468.60	12781.67
468.78	12662.30
468.96	12571.02
469.14	13020.40
469.32	13102.32
469.50	12676.34
469.69	13270.84
469.87	13172.54
470.05	13348.08
470.23	12975.93
470.41	13172.54
470.59	13390.20
470.77	13280.20
470.95	13472.12
471.14	13598.51
471.32	13298.92
471.50	13493.19
471.68	13783.41
471.86	13631.28
472.04	13523.62
472.22	14026.83
472.40	13743.63
472.58	13832.57
472.77	13750.65
472.95	14033.85
473.13	14609.62
473.31	14319.40
473.49	14527.71
473.67	14328.76
473.85	14274.93
474.03	14785.16
474.21	14534.73
474.39	14705.59
474.57	14754.74
474.75	14934.96
474.93	15176.03
475.12	14988.79
475.30	15279.02
475.48	15152.63
475.66	15222.84
475.84	15215.82
476.02	15527.11
476.20	15330.51
476.38	15634.78
476.56	15889.90
476.74	16109.91
476.92	15775.21
477.10	15981.18
477.28	16334.60
477.46	16121.61
477.64	16264.38
477.82	16444.60
478.00	16849.52
478.18	16758.24
478.36	17123.36
478.54	17357.41
478.72	17130.38
478.90	17685.09
479.08	17518.91
479.26	17738.92
479.44	17998.72
479.62	17837.22
479.80	18148.51
479.98	18134.47
480.16	18754.71
480.34	18363.84
480.52	18572.15
480.70	18754.71
480.88	18544.06
481.06	18813.23
481.24	19063.66
481.41	19058.98
481.59	19389.00
481.77	19496.66
481.95	19873.49
482.13	19999.88
482.31	19903.92
482.49	20397.77
482.67	20306.49
482.85	20423.51
483.03	20751.19
483.21	21186.53
483.39	20896.30
483.57	20994.61
483.74	21088.23
483.92	21528.25
484.10	21383.13
484.28	21626.55
484.46	22335.73
484.64	22363.82
484.82	22001.04
485.00	22373.18
485.18	22998.10
485.35	23122.15
485.53	22963.00
485.71	23281.31
485.89	23379.61
486.07	23498.98
486.25	23714.31
486.43	23651.11
486.61	24116.88
486.78	24407.11
486.96	24161.35
487.14	24425.83
487.32	24533.50
487.50	24900.96
487.68	24858.83
487.85	25317.57
488.03	25727.17
488.21	25788.02
488.39	25928.45
488.57	26092.29
488.75	26359.11
488.92	26539.33
489.10	26670.40
489.28	27009.78
489.46	27201.71
489.64	27213.41
489.81	28056.00
489.99	27718.96
490.17	27714.28
490.35	28367.29
490.53	28346.23
490.70	28954.77
490.88	28610.71
491.06	28929.02
491.24	29362.02
491.41	29268.40
491.59	29525.86
491.77	29376.06
491.95	30015.03
492.13	30073.54
492.30	30717.19
492.48	29958.86
492.66	30354.41
492.84	30490.16
493.01	30857.62
493.19	30588.46
493.37	31051.89
493.54	31150.19
493.72	31878.10
493.90	31821.92
494.08	32107.47
494.25	32292.37
494.43	32456.21
494.61	32371.95
494.79	32582.60
494.96	32774.52
495.14	33120.92
495.32	33413.49
495.49	33099.86
495.67	33528.17
495.85	33708.40
496.02	34007.98
496.20	33769.25
496.38	34244.38
496.55	34136.71
496.73	34904.41
496.91	34897.39
497.09	35063.57
497.26	35346.77
497.44	35374.86
497.62	35716.58
497.79	36044.25
497.97	35541.03
498.14	36109.78
498.32	36528.74
498.50	36095.74
498.67	36996.85
498.85	36395.33
499.03	37050.68
499.20	36786.20
499.38	37202.82
499.56	37205.16
499.73	37256.65
499.91	37848.80
500.08	37914.34
500.26	37546.87
500.44	38014.98
500.61	38005.62
500.79	37818.38
500.97	38249.03
501.14	38838.85
501.32	38562.67
501.49	38644.59
501.67	38864.60
501.84	39164.18
502.02	39454.41
502.20	39206.31
502.37	39349.09
502.55	39482.50
502.72	39901.45
502.90	39981.03
503.07	40100.40
503.25	40154.23
503.43	39950.60
503.60	40123.80
503.78	40297.00
503.95	40430.41
504.13	40521.69
504.30	40781.49
504.48	40631.70
504.65	40786.18
504.83	40942.99
505.01	41970.49
505.18	41581.96
505.36	41132.57
505.53	41464.93
505.71	41949.42
505.88	41862.82
506.06	41935.38
506.23	42326.25
506.41	42124.96
506.58	42291.14
506.76	42494.77
506.93	42501.79
507.11	42216.24
507.28	42892.66
507.46	42686.69
507.63	43290.55
507.81	43543.33
507.98	43093.94
508.16	43033.09
508.33	43540.99
508.50	43615.88
508.68	44051.22
508.85	44046.54
509.03	44091.01
509.20	44451.45
509.38	44577.84
509.55	44898.50
509.73	45031.91
509.90	44479.54
510.08	44233.78
510.25	44964.03
510.42	44563.80
510.60	45436.82
510.77	45120.85
510.95	45638.11
511.12	45029.57
511.30	45352.56
511.47	46061.74
511.64	45872.16
511.82	46106.21
511.99	45942.38
512.17	46101.53
512.34	46335.59
512.51	46443.25
512.69	46799.01
512.86	46230.26
513.04	46927.74
513.21	46679.64
513.38	46745.18
513.56	47332.65
513.73	47105.62
513.90	47210.95
514.08	47000.30
514.25	47363.08
514.43	47524.58
514.60	47880.34
514.77	47636.92
514.95	47943.53
515.12	47779.70
515.29	47798.42
515.47	48170.57
515.64	48397.60
515.81	48086.31
515.99	48222.06
516.16	48533.35
516.33	48594.20
516.51	48959.33
516.68	48526.33
516.85	49050.61
517.03	49148.91
517.20	49076.35
517.37	49106.78
517.54	49457.86
517.72	49041.24
517.89	49188.70
518.06	49572.55
518.24	49184.02
518.41	49125.50
518.58	49380.62
518.75	49368.92
518.93	49696.59
519.10	49806.60
519.27	49904.90
519.45	49752.77
519.62	50047.68
519.79	50305.13
519.96	50307.47
520.14	50277.05
520.31	50073.42
520.48	50525.14
520.65	50602.38
520.83	51145.39
521.00	50564.93
521.17	50497.06
521.34	50672.60
521.52	50550.89
521.69	50955.80
521.86	51203.90
522.03	51201.56
522.20	51700.09
522.38	51835.84
522.55	51089.21
522.72	51765.63
522.89	51442.63
523.07	52135.43
523.24	51690.73
523.41	52002.02
523.58	51632.22
523.75	52011.38
523.92	51707.12
524.10	51966.91
524.27	51882.66
524.44	52172.88
524.61	52191.61
524.78	52060.54
524.96	52523.96
525.13	52189.27
525.30	52678.44
525.47	52706.52
525.64	52781.42
525.81	52868.02
525.98	52685.46
526.16	52978.03
526.33	52837.59
526.50	53420.39
526.67	52807.17
526.84	53071.65
527.01	52659.71
527.18	53373.58
527.36	52905.47
527.53	53109.10
527.70	53455.50
527.87	53392.30
528.04	53242.51
528.21	53701.25
528.38	53319.74
528.55	53837.00
528.72	53577.20
528.89	53373.58
529.07	53572.52
529.24	53214.42
529.41	53446.13
529.58	53769.13
529.75	53904.88
529.92	54059.35
530.09	53970.41
530.26	54284.04
530.43	53963.39
530.60	53932.96
530.77	53914.24
530.94	54239.57
531.11	54155.32
531.28	54255.96
531.46	54415.11
531.63	54274.68
531.80	54429.16
531.97	54382.35
532.14	54649.17
532.31	54754.49
532.48	54901.95
532.65	54749.81
532.82	54738.11
532.99	54843.43
533.16	54803.64
533.33	54852.80
533.50	55206.22
533.67	54923.01
533.84	54894.92
534.01	55126.64
534.18	55236.64
534.35	55365.37
534.52	55187.49
534.69	55435.59
534.86	55428.57
535.03	55370.05
535.20	55348.99
535.37	55157.06
535.54	55578.36
535.71	55487.08
535.88	55529.21
536.05	55608.79
536.22	55540.91
536.38	55732.84
536.55	55744.54
536.72	55884.97
536.89	55877.95
537.06	55646.24
537.23	56086.26
537.40	55805.39
537.57	55849.86
537.74	56114.34
537.91	56184.56
538.08	55920.08
538.25	55810.07
538.42	56062.85
538.59	56231.37
538.75	56172.86
538.92	56238.39
539.09	56271.16
539.26	56013.70
539.43	56388.19
539.60	56336.69
539.77	56163.50
539.94	56659.69
540.11	56435.00
540.28	56596.49
540.44	56718.20
540.61	56378.82
540.78	56734.59
540.95	56575.43
541.12	56404.57
541.29	56610.54
541.46	56673.73
541.62	56587.13
541.79	56868.00
541.96	56322.65
542.13	56757.99
542.30	56868.00
542.47	56985.02
542.63	57066.94
542.80	57268.23
542.97	56952.26
543.14	57317.38
543.31	57167.58
543.48	57272.91
543.64	57593.56
543.81	57352.49
543.98	57476.54
544.15	57502.28
544.32	57661.44
544.48	57535.05
544.65	57415.68
544.82	57556.11
544.99	57389.94
545.16	57609.95
545.32	57427.38
545.49	57645.05
545.66	57851.02
545.83	57883.79
546.00	57930.60
546.16	57722.29
546.33	57710.59
546.50	57696.55
546.67	58028.90
546.83	57504.62
547.00	57815.91
547.17	57794.85
547.34	58230.19
547.50	58192.74
547.67	58326.15
547.84	57984.43
548.00	58248.91
548.17	58230.19
548.34	58092.10
548.51	58197.42
548.67	58365.94
548.84	58365.94
549.01	58197.42
549.18	58342.53
549.34	58241.89
549.51	58548.50
549.68	58518.07
549.84	58607.01
550.01	58230.19
550.18	58347.21
550.34	58599.99
550.51	58562.54
550.68	58539.14
550.84	58319.13
551.01	58646.80
551.18	58794.26
551.34	58899.58
551.51	58801.28
551.68	58609.35
551.84	58761.49
552.01	58681.91
552.18	58473.60
552.34	58642.12
552.51	58852.77
552.68	58714.68
552.84	58817.66
553.01	59274.07
553.18	58974.48
553.34	58925.33
553.51	58901.92
553.67	58946.39
553.84	59194.49
554.01	59077.46
554.17	59018.95
554.34	59145.34
554.51	59302.15
554.67	59363.01
554.84	59231.94
555.00	58904.26
555.17	59091.51
555.33	58958.09
555.50	59121.93
555.67	59222.58
555.83	59128.95
556.00	59330.24
556.16	59433.22
556.33	59388.75
556.50	59157.04
556.66	59430.88
556.83	59309.18
556.99	59559.61
557.16	59643.87
557.32	59634.51
557.49	59709.41
557.65	59192.15
557.82	59515.14
557.98	59632.17
558.15	59564.29
558.32	59646.21
558.48	59510.46
558.65	59695.36
558.81	59688.34
558.98	59709.41
559.14	59835.80
559.31	59618.13
559.47	59760.90
559.64	59978.57
559.80	59821.75
559.97	59880.27
560.13	59529.19
560.30	59723.45
560.46	59934.10
560.63	60027.72
560.79	59917.71
560.96	59826.43
561.12	59962.18
561.29	60161.13
561.45	59824.09
561.61	59908.35
561.78	60130.70
561.94	60060.49
562.11	60102.62
562.27	60130.70
562.44	60051.12
562.60	60126.02
562.77	60175.17
562.93	59774.94
563.10	60119.00
563.26	60067.51
563.42	60282.84
563.59	60217.30
563.75	59962.18
563.92	60140.07
564.08	60097.94
564.24	60200.92
564.41	60367.10
564.57	60374.12
564.74	60233.69
564.90	60317.95
565.07	60371.78
565.23	60137.72
565.39	60367.10
565.56	60371.78
565.72	60346.03
565.88	60355.39
566.05	60243.05
566.21	60371.78
566.38	60360.08
566.54	60376.46
566.70	60484.12
566.87	60411.57
567.03	60170.49
567.19	60537.96
567.36	60411.57
567.52	60404.55
567.68	60577.75
567.85	60472.42
568.01	60552.00
568.17	60453.70
568.34	60638.60
568.50	60530.93
568.66	60360.08
568.83	60341.35
568.99	60488.80
569.15	60650.30
569.32	60722.86
569.48	60535.62
569.64	60809.46
569.81	60444.33
569.97	60472.42
570.13	60589.45
570.30	60493.49
570.46	60549.66
570.62	60533.28
570.78	60802.44
570.95	60640.94
571.11	60760.31
571.27	60739.24
571.43	60652.64
571.60	60860.95
571.76	60622.22
571.92	60706.47
572.09	60750.94
572.25	60697.11
572.41	60540.30
572.57	60849.25
572.74	60903.08
572.90	60697.11
573.06	60832.86
573.22	60505.19
573.38	60896.06
573.55	60851.59
573.71	60933.51
573.87	60870.31
574.03	60626.90
574.20	60676.05
574.36	60727.54
574.52	60935.85
574.68	60772.01
574.84	60849.25
575.01	60940.53
575.17	60870.31
575.33	60821.16
575.49	60683.07
575.65	60959.25
575.82	60977.98
575.98	60842.23
576.14	61116.07
576.30	61083.30
576.46	60830.52
576.62	60697.11
576.79	60783.71
576.95	60713.50
577.11	60999.04
577.27	60963.93
577.43	60772.01
577.59	60760.31
577.75	60835.20
577.92	60769.67
578.08	60933.51
578.24	61062.24
578.40	61090.32
578.56	60945.21
578.72	60882.02
578.88	60970.96
579.04	61230.75
579.21	61017.77
579.37	61146.50
579.53	61066.92
579.69	60907.76
579.85	60914.78
580.01	60914.78
580.17	60963.93
580.33	61226.07
580.49	61003.72
580.65	61024.79
580.82	60933.51
580.98	60945.21
581.14	60947.55
581.30	60823.50
581.46	61092.66
581.62	61092.66
581.78	60853.93
581.94	61268.20
582.10	60837.54
582.26	60970.96
582.42	60996.70
582.58	61066.92
582.74	60956.91
582.90	61197.99
583.06	61080.96
583.22	61141.81
583.38	61151.18
583.54	61085.64
583.70	60996.70
583.86	61176.92
584.02	60996.70
584.18	61291.61
584.34	61118.41
584.50	61045.85
584.66	61146.50
584.82	60842.23
584.98	61146.50
585.14	61087.98
585.30	61087.98
585.46	61048.19
585.62	61235.44
585.78	61254.16
585.94	61055.21
586.10	60992.02
586.26	61109.05
586.42	61190.97
586.58	61216.71
586.74	61127.77
586.90	61097.34
587.06	61076.28
587.22	61293.95
587.38	61188.63
587.54	61249.48
587.70	61474.17
587.86	61165.22
588.02	61148.84
588.18	61509.28
588.34	61197.99
588.49	61139.47
