SpectraSuite Data File
++++++++++++++++++++++++++++++++++++
Date: Fri Oct 25 10:47:12 EDT 2013
User: price-jones
Dark Spectrum Present: No
Reference Spectrum Present: No
Number of Sampled Component Spectra: 1
Spectrometers: USB2+H05261
Integration Time (usec): 100000 (USB2+H05261)
Spectra Averaged: 1 (USB2+H05261)
Boxcar Smoothing: 0 (USB2+H05261)
Correct for Electrical Dark: No (USB2+H05261)
Strobe/Lamp Enabled: No (USB2+H05261)
Correct for Detector Non-linearity: No (USB2+H05261)
Correct for Stray Light: No (USB2+H05261)
Number of Pixels in Processed Spectrum: 2048
>>>>>Begin Processed Spectral Data<<<<<
365.73	154.48
365.92	154.48
366.12	154.48
366.32	0.00
366.52	25.75
366.72	63.19
366.91	16.38
367.11	58.51
367.31	51.49
367.51	65.54
367.70	21.06
367.90	65.54
368.10	32.77
368.30	44.47
368.49	0.00
368.69	84.26
368.89	88.94
369.09	0.00
369.28	95.96
369.48	91.28
369.68	114.69
369.87	58.51
370.07	114.69
370.27	121.71
370.47	156.82
370.66	332.36
370.86	362.78
371.06	465.77
371.25	442.36
371.45	428.32
371.65	519.60
371.84	393.21
372.04	423.64
372.24	484.49
372.44	486.83
372.63	451.72
372.83	557.05
373.03	503.22
373.22	475.13
373.42	461.09
373.62	535.98
373.81	571.09
374.01	550.03
374.21	545.34
374.40	524.28
374.60	559.39
374.79	524.28
374.99	554.71
375.19	505.56
375.38	564.07
375.58	589.82
375.78	533.64
375.97	475.13
376.17	568.75
376.37	514.92
376.56	582.79
376.76	568.75
376.95	521.94
377.15	554.71
377.35	655.35
377.54	613.22
377.74	585.13
377.93	545.34
378.13	641.31
378.33	674.07
378.52	601.52
378.72	730.25
378.91	648.33
379.11	568.75
379.31	573.43
379.50	575.77
379.70	648.33
379.89	678.76
380.09	650.67
380.28	650.67
380.48	617.90
380.68	641.31
380.87	645.99
381.07	664.71
381.26	685.78
381.46	603.86
381.65	720.88
381.85	669.39
382.04	711.52
382.24	674.07
382.43	692.80
382.63	688.12
382.83	641.31
383.02	669.39
383.22	671.73
383.41	725.57
383.61	835.57
383.80	791.10
384.00	674.07
384.19	706.84
384.39	650.67
384.58	685.78
384.78	795.78
384.97	671.73
385.17	638.97
385.36	753.65
385.56	795.78
385.75	741.95
385.95	851.96
386.14	856.64
386.34	753.65
386.53	732.59
386.72	816.85
386.92	828.55
387.11	819.19
387.31	847.27
387.50	821.53
387.70	720.88
387.89	807.48
388.09	851.96
388.28	788.76
388.48	844.93
388.67	805.14
388.86	875.36
389.06	840.25
389.25	875.36
389.45	891.74
389.64	908.13
389.84	844.93
390.03	938.55
390.22	898.77
390.42	912.81
390.61	875.36
390.81	910.47
391.00	952.60
391.19	849.61
391.39	917.49
391.58	983.02
391.78	1020.47
391.97	952.60
392.16	968.98
392.36	985.37
392.55	973.66
392.75	952.60
392.94	933.87
393.13	926.85
393.33	870.68
393.52	987.71
393.71	1018.13
393.91	1041.54
394.10	945.58
394.29	1027.50
394.49	994.73
394.68	1025.15
394.88	1081.33
395.07	1034.52
395.26	1062.60
395.46	1069.62
395.65	1200.69
395.84	1090.69
396.04	1193.67
396.23	1083.67
396.42	1142.18
396.62	1151.54
396.81	1102.39
397.00	1146.86
397.19	1116.44
397.39	1160.91
397.58	1203.04
397.77	1076.65
397.97	1186.65
398.16	1179.63
398.35	1210.06
398.55	1254.53
398.74	1287.29
398.93	1252.19
399.12	1277.93
399.32	1193.67
399.51	1380.92
399.70	1331.76
399.90	1341.13
400.09	1390.28
400.28	1439.43
400.47	1296.66
400.67	1362.19
400.86	1460.49
401.05	1563.48
401.24	1327.08
401.44	1406.66
401.63	1472.20
401.82	1483.90
402.01	1427.73
402.21	1413.68
402.40	1437.09
402.59	1345.81
402.78	1596.25
402.97	1474.54
403.17	1493.26
403.36	1481.56
403.55	1621.99
403.74	1603.27
403.93	1495.60
404.13	1675.82
404.32	1629.01
404.51	1619.65
404.70	1598.59
404.89	1579.86
405.09	1643.06
405.28	1614.97
405.47	1687.53
405.66	1650.08
405.85	1680.50
406.05	1678.16
406.24	1842.00
406.43	1767.10
406.62	1844.34
406.81	1792.85
407.00	1778.81
407.20	1746.04
407.39	1818.60
407.58	1802.21
407.77	1877.11
407.96	1940.30
408.15	1952.01
408.34	1827.96
408.54	1947.33
408.73	1886.47
408.92	1919.24
409.11	1881.79
409.30	2031.58
409.49	1940.30
409.68	2036.27
409.87	1961.37
410.07	2010.52
410.26	1998.82
410.45	2076.06
410.64	2024.56
410.83	2122.87
411.02	2232.87
411.21	2237.55
411.40	2179.04
411.59	2101.80
411.78	2211.81
411.98	2253.94
412.17	2291.38
412.36	2335.85
412.55	2361.60
412.74	2392.03
412.93	2422.45
413.12	2342.88
413.31	2396.71
413.50	2361.60
413.69	2495.01
413.88	2485.65
414.07	2455.22
414.26	2406.07
414.45	2525.44
414.64	2555.86
414.83	2516.08
415.02	2583.95
415.22	2642.46
415.41	2605.02
415.60	2689.28
415.79	2843.75
415.98	2796.94
416.17	2799.28
416.36	2761.83
416.55	2710.34
416.74	2867.16
416.93	2822.69
417.12	2825.03
417.31	2911.63
417.50	2869.50
417.69	2916.31
417.88	2850.77
418.07	2974.82
418.26	2841.41
418.45	2925.67
418.64	3152.70
418.83	3075.46
419.02	3138.66
419.21	3187.81
419.39	3119.93
419.58	3180.79
419.77	3096.53
419.96	3183.13
420.15	3251.00
420.34	3199.51
420.53	3258.03
420.72	3206.53
420.91	3300.16
421.10	3318.88
421.29	3459.31
421.48	3145.68
421.67	3459.31
421.86	3267.39
422.05	3321.22
422.24	3314.20
422.43	3471.01
422.61	3344.63
422.80	3353.99
422.99	3403.14
423.18	3396.12
423.37	3485.06
423.56	3372.71
423.75	3325.90
423.94	3454.63
424.13	3262.71
424.32	3332.92
424.50	3419.52
424.69	3571.66
424.88	3529.53
425.07	3438.25
425.26	3426.54
425.45	3356.33
425.64	3428.88
425.83	3431.23
426.01	3613.79
426.20	3552.93
426.39	3571.66
426.58	3379.73
426.77	3478.04
426.96	3510.80
427.15	3466.33
427.33	3651.24
427.52	3578.68
427.71	3576.34
427.90	3611.45
428.09	3634.85
428.28	3761.24
428.46	3578.68
428.65	3613.79
428.84	3700.39
429.03	3805.71
429.22	3637.19
429.40	3815.07
429.59	3796.35
429.78	3555.27
429.97	3602.08
430.16	3634.85
430.34	3782.31
430.53	3831.46
430.72	3838.48
430.91	3791.67
431.10	3875.93
431.28	3913.38
431.47	4021.04
431.66	4117.00
431.85	3985.93
432.03	4173.18
432.22	4154.45
432.41	4100.62
432.60	4187.22
432.79	4114.66
432.97	4126.36
433.16	4070.19
433.35	4133.39
433.54	4231.69
433.72	4102.96
433.91	4016.36
434.10	4102.96
434.28	4196.58
434.47	4292.54
434.66	4360.42
434.85	4610.86
435.03	4325.31
435.22	4313.61
435.41	4461.06
435.59	4374.46
435.78	4414.25
435.97	4540.64
436.16	4503.19
436.34	4381.48
436.53	4578.09
436.72	4486.81
436.90	4346.37
437.09	4550.00
437.28	4358.08
437.46	4526.60
437.65	4655.33
437.84	4664.69
438.02	4627.24
438.21	4685.75
438.40	4559.36
438.58	4657.67
438.77	4767.67
438.96	4723.20
439.14	4880.02
439.33	4905.76
439.52	4954.91
439.70	4992.36
439.89	5029.81
440.08	5093.01
440.26	4997.04
440.45	4968.96
440.63	5240.46
440.82	5252.16
441.01	5149.18
441.19	5165.56
441.38	5444.09
441.57	5341.10
441.75	5242.80
441.94	5390.25
442.12	5652.39
442.31	5605.58
442.50	5352.81
442.68	5420.68
442.87	5554.09
443.05	5689.84
443.24	5547.07
443.43	5570.48
443.61	5645.37
443.80	5846.66
443.98	5568.13
444.17	5462.81
444.35	5778.78
444.54	5886.45
444.73	5624.31
444.91	5762.40
445.10	5781.12
445.28	5708.57
445.47	5551.75
445.65	5713.25
445.84	5774.10
446.02	5851.34
446.21	5607.92
446.39	5612.60
446.58	5776.44
446.77	6029.22
446.95	5666.44
447.14	5738.99
447.32	5792.83
447.51	5781.12
447.69	5703.89
447.88	5846.66
448.06	5877.09
448.25	5891.13
448.43	5795.17
448.62	5884.11
448.80	5846.66
448.99	6005.81
449.17	5991.77
449.36	5961.34
449.54	5980.07
449.73	6164.97
449.91	6097.10
450.10	6090.07
450.28	6207.10
450.46	6143.91
450.65	6363.92
450.83	6167.31
451.02	6263.27
451.20	6321.79
451.39	6469.24
451.57	6286.68
451.76	6202.42
451.94	6375.62
452.13	6361.58
452.31	6314.77
452.49	6296.04
452.68	6464.56
452.86	6195.40
453.05	6480.94
453.23	6544.14
453.42	6593.29
453.60	6382.64
453.78	6387.32
453.97	6452.86
454.15	6466.90
454.34	6518.39
454.52	6555.84
454.70	6569.88
454.89	6480.94
455.07	6537.12
455.26	6703.29
455.44	6747.76
455.62	6555.84
455.81	6853.09
455.99	6715.00
456.17	6832.02
456.36	6832.02
456.54	6932.67
456.73	7152.68
456.91	7012.24
457.09	7049.69
457.28	7339.92
457.46	6937.35
457.64	7171.40
457.83	7199.49
458.01	6977.14
458.19	7250.98
458.38	7084.80
458.56	7173.74
458.74	7302.47
458.93	7220.55
459.11	7253.32
459.29	7335.24
459.48	7351.62
459.66	7241.62
459.84	7393.75
460.03	7705.04
460.21	7482.69
460.39	7524.82
460.57	7651.21
460.76	7562.27
460.94	7660.57
461.12	7726.11
461.31	7625.47
461.49	7588.02
461.67	7461.63
461.85	7693.34
462.04	7513.12
462.22	8147.40
462.40	7903.99
462.59	7782.28
462.77	7744.83
462.95	7763.56
463.13	7908.67
463.32	7941.44
463.50	8058.46
463.68	7939.10
463.86	7974.21
464.05	7901.65
464.23	7854.84
464.41	7892.29
464.59	7796.32
464.78	7985.91
464.96	8093.57
465.14	8025.70
465.32	8208.26
465.50	8278.47
465.69	8339.33
465.87	8161.45
466.05	8093.57
466.23	8112.30
466.41	8159.11
466.60	8432.95
466.78	8159.11
466.96	8133.36
467.14	8238.69
467.32	8084.21
467.51	8381.46
467.69	8021.02
467.87	8222.30
468.05	8465.72
468.23	8435.29
468.41	8491.46
468.60	8533.59
468.78	8692.75
468.96	8524.23
469.14	8561.68
469.32	8793.39
469.50	8479.76
469.69	8823.82
469.87	8629.56
470.05	8779.35
470.23	8741.90
470.41	8744.24
470.59	8854.25
470.77	8828.50
470.95	8884.67
471.14	9135.11
471.32	8772.33
471.50	9116.39
471.68	8952.55
471.86	9015.74
472.04	9060.21
472.22	9455.76
472.40	9064.89
472.58	9170.22
472.77	9371.50
472.95	9533.00
473.13	9614.92
473.31	9294.27
473.49	9217.03
473.67	9411.29
473.85	9359.80
474.03	9933.23
474.21	9654.71
474.39	9647.69
474.57	9848.97
474.75	9806.84
474.93	9891.10
475.12	9921.53
475.30	10139.20
475.48	10080.69
475.66	10066.64
475.84	9998.77
476.02	10289.00
476.20	10253.89
476.38	10303.04
476.56	10504.32
476.74	10576.88
476.92	10347.51
477.10	10368.57
477.28	10857.75
477.46	10619.01
477.64	10698.59
477.82	10972.43
478.00	11089.46
478.18	11007.54
478.36	11255.64
478.54	11239.25
478.72	11276.70
478.90	11428.84
479.08	11632.46
479.26	11496.71
479.44	11744.81
479.62	11829.07
479.80	11922.69
479.98	11913.33
480.16	12264.41
480.34	12168.45
480.52	12168.45
480.70	12072.48
480.88	12182.49
481.06	12362.71
481.24	12423.56
481.41	12554.63
481.59	12849.54
481.77	12823.80
481.95	12886.99
482.13	13097.64
482.31	13041.46
482.49	13195.94
482.67	13399.57
482.85	13523.62
483.03	13448.72
483.21	13540.00
483.39	13855.97
483.57	13745.97
483.74	14125.13
483.92	13685.11
484.10	13818.52
484.28	14272.59
484.46	14354.51
484.64	14534.73
484.82	14382.59
485.00	14466.85
485.18	14654.09
485.35	14822.61
485.53	14710.27
485.71	15035.60
485.89	15192.42
486.07	15403.07
486.25	15110.50
486.43	15161.99
486.61	15332.85
486.78	15763.51
486.96	15775.21
487.14	15929.69
487.32	16156.72
487.50	16114.59
487.68	16479.71
487.85	16772.28
488.03	16594.40
488.21	16681.00
488.39	17006.33
488.57	17247.41
488.75	16961.86
488.92	17172.51
489.10	17099.95
489.28	17467.42
489.46	17673.39
489.64	17750.62
489.81	17921.48
489.99	17944.89
490.17	18045.53
490.35	18726.63
490.53	18429.38
490.70	18288.95
490.88	18394.27
491.06	18600.24
491.24	18569.81
491.41	18672.79
491.59	19080.05
491.77	19058.98
491.95	19264.95
492.13	19070.68
492.30	19459.21
492.48	19611.35
492.66	19632.41
492.84	19683.91
493.01	20004.56
493.19	19868.81
493.37	19857.10
493.54	20269.04
493.72	20432.88
493.90	20582.67
494.08	20718.42
494.25	20924.39
494.43	20816.72
494.61	20999.29
494.79	21212.28
494.96	20987.58
495.14	21092.91
495.32	21542.29
495.49	21036.74
495.67	21282.49
495.85	21692.08
496.02	21823.16
496.20	22040.82
496.38	22174.24
496.55	22019.76
496.73	22581.49
496.91	22052.53
497.09	22473.82
497.26	22817.88
497.44	22834.27
497.62	22663.41
497.79	23178.33
497.97	22691.49
498.14	23351.52
498.32	23194.71
498.50	23166.62
498.67	23552.81
498.85	23517.70
499.03	23690.90
499.20	23906.23
499.38	23754.10
499.56	23836.02
499.73	24372.00
499.91	23864.10
500.08	24271.36
500.26	24067.73
500.44	24685.63
500.61	24411.79
500.79	24573.28
500.97	24439.87
501.14	24805.00
501.32	24877.55
501.49	24821.38
501.67	24809.68
501.84	25120.97
502.02	24882.24
502.20	25167.78
502.37	25394.81
502.55	25003.94
502.72	25406.52
502.90	25015.65
503.07	25413.54
503.25	25853.56
503.43	25692.06
503.60	25900.37
503.78	26010.37
503.95	25916.75
504.13	25993.99
504.30	26178.89
504.48	26085.27
504.65	26536.99
504.83	26497.20
505.01	26316.98
505.18	26359.11
505.36	26764.03
505.53	26838.92
505.71	26789.77
505.88	27213.41
506.06	27143.19
506.23	27393.63
506.41	27009.78
506.58	26878.71
506.76	27206.39
506.93	27480.23
507.11	27487.25
507.28	27623.00
507.46	27709.60
507.63	27466.19
507.81	27665.13
507.98	27440.44
508.16	27861.74
508.33	27927.27
508.50	27988.13
508.68	28006.85
508.85	28367.29
509.03	28144.94
509.20	28156.64
509.38	28489.00
509.55	28711.35
509.73	28664.54
509.90	28683.27
510.08	28912.64
510.25	28671.56
510.42	29167.76
510.60	29336.27
510.77	29294.14
510.95	29472.03
511.12	29167.76
511.30	29411.17
511.47	29488.41
511.64	30155.46
511.82	29902.68
511.99	29575.01
512.17	29872.26
512.34	29820.77
512.51	30052.48
512.69	30244.40
512.86	29593.73
513.04	30134.40
513.21	30202.27
513.38	30246.74
513.56	30335.68
513.73	30235.04
513.90	30759.32
514.08	30174.19
514.25	30859.96
514.43	30651.66
514.60	30778.04
514.77	30553.35
514.95	31030.82
515.12	30735.92
515.29	31058.91
515.47	31536.38
515.64	31402.97
515.81	30707.83
515.99	31398.29
516.16	31414.67
516.33	31758.73
516.51	31405.31
516.68	31267.22
516.85	31044.87
517.03	31084.65
517.20	31627.66
517.37	31475.52
517.54	31543.40
517.72	31601.91
517.89	31931.93
518.06	31864.05
518.24	31824.26
518.41	32079.38
518.58	31983.42
518.75	32367.27
518.93	31948.31
519.10	32437.48
519.27	32458.55
519.45	32652.81
519.62	32320.46
519.79	32680.90
519.96	32910.27
520.14	33329.23
520.31	32589.62
520.48	32905.59
520.65	32912.61
520.83	33251.99
521.00	32921.98
521.17	33469.66
521.34	33244.97
521.52	33670.95
521.69	33380.72
521.86	33305.82
522.03	33701.37
522.20	33919.04
522.38	33851.17
522.55	33937.77
522.72	34054.79
522.89	33860.53
523.07	34040.75
523.24	33544.56
523.41	33951.81
523.58	34295.87
523.75	34864.62
523.92	34637.59
524.10	34625.89
524.27	34450.35
524.44	34593.12
524.61	34660.99
524.78	34782.70
524.96	34878.66
525.13	34665.67
525.30	35054.20
525.47	34986.33
525.64	35150.17
525.81	35108.04
525.98	35323.36
526.16	35157.19
526.33	35318.68
526.50	35452.09
526.67	35311.66
526.84	34983.99
527.01	34740.57
527.18	35601.89
527.36	35522.31
527.53	35358.47
527.70	35775.09
527.87	35704.87
528.04	35353.79
528.21	35871.05
528.38	35871.05
528.55	36011.48
528.72	36362.56
528.89	36013.82
529.07	35739.98
529.24	35962.33
529.41	35917.86
529.58	36039.57
529.75	36081.70
529.92	36332.14
530.09	36449.16
530.26	36222.13
530.43	36620.02
530.60	36315.75
530.77	36362.56
530.94	36718.32
531.11	36442.14
531.28	36755.77
531.46	36856.42
531.63	37177.07
531.80	36804.92
531.97	36697.26
532.14	36943.02
532.31	36290.01
532.48	36783.86
532.65	36844.71
532.82	37249.63
532.99	37235.58
533.16	36935.99
533.33	37153.66
533.50	37343.25
533.67	37413.46
533.84	37310.48
534.01	37291.76
534.18	36765.14
534.35	37963.49
534.52	37755.18
534.69	37844.12
534.86	37820.72
535.03	37404.10
535.20	38010.30
535.37	38213.93
535.54	38078.18
535.71	37628.79
535.88	37584.32
536.05	37457.93
536.22	37935.40
536.38	38087.54
536.55	38227.97
536.72	38115.62
536.89	37998.60
537.06	37923.70
537.23	38562.67
537.40	38410.53
537.57	38597.77
537.74	38234.99
537.91	38724.16
538.08	38976.94
538.25	38740.55
538.42	38628.20
538.59	38974.60
538.75	38464.36
538.92	38693.74
539.09	39019.07
539.26	39292.91
539.43	38852.89
539.60	39154.82
539.77	38305.21
539.94	38817.78
540.11	38934.81
540.28	38740.55
540.44	38983.96
540.61	39161.84
540.78	38581.39
540.95	39143.12
541.12	39248.44
541.29	39590.16
541.46	39051.84
541.62	39248.44
541.79	39688.46
541.96	39358.45
542.13	39505.90
542.30	39622.93
542.47	39377.17
542.63	39377.17
542.80	39578.46
542.97	39889.75
543.14	40399.99
543.31	39903.79
543.48	40240.83
543.64	40388.28
543.81	40243.17
543.98	39885.07
544.15	40664.47
544.32	40432.75
544.48	40760.43
544.65	40552.12
544.82	40229.13
544.99	40236.15
545.16	40231.47
545.32	40222.11
545.49	40758.09
545.66	40573.19
545.83	40989.80
546.00	40959.38
546.16	40804.90
546.33	41308.11
546.50	40289.98
546.67	41001.50
546.83	40360.20
547.00	40776.81
547.17	40563.82
547.34	40734.68
547.50	41010.87
547.67	41095.13
547.84	40767.45
548.00	41394.71
548.17	41237.90
548.34	41209.81
548.51	41020.23
548.67	41301.09
548.84	41488.34
549.01	41607.70
549.18	41345.56
549.34	40971.08
549.51	42110.92
549.68	41560.89
549.84	41219.17
550.01	41558.55
550.18	41258.96
550.34	41516.42
550.51	41310.46
550.68	41553.87
550.84	41336.20
551.01	41661.54
551.18	41827.71
551.34	41684.94
551.51	41816.01
551.68	42003.25
551.84	41755.16
552.01	41626.43
552.18	41963.46
552.34	41972.83
552.51	42059.43
552.68	41694.30
552.84	42389.44
553.01	42244.33
553.18	42157.73
553.34	41989.21
553.51	42139.00
553.67	42000.91
553.84	42499.45
554.01	42284.12
554.17	42576.69
554.34	42567.32
554.51	42752.23
554.67	42576.69
554.84	42801.38
555.00	42656.26
555.17	42719.46
555.33	42642.22
555.50	42454.98
555.67	42466.68
555.83	42768.61
556.00	42639.88
556.16	43014.37
556.33	42731.16
556.50	42211.56
556.66	42997.98
556.83	42618.81
556.99	42997.98
557.16	42569.66
557.32	42967.55
557.49	42712.44
557.65	42443.27
557.82	42829.46
557.98	42784.99
558.15	43009.68
558.32	43044.79
558.48	42974.58
558.65	43234.38
558.81	42768.61
558.98	42862.23
559.14	43239.06
559.31	42878.61
559.47	43061.18
559.64	43194.59
559.80	43562.05
559.97	43461.41
560.13	43358.42
560.30	43536.30
560.46	43679.08
560.63	43311.61
560.79	43477.79
560.96	43819.51
561.12	43185.22
561.29	43117.35
561.45	43260.12
561.61	43456.73
561.78	43091.60
561.94	43555.03
562.11	43440.34
562.27	43051.81
562.44	43313.95
562.60	43367.79
562.77	43789.08
562.93	43412.26
563.10	43564.39
563.26	43068.20
563.42	43433.32
563.59	43604.18
563.75	43292.89
563.92	44037.18
564.08	43704.82
564.24	43739.93
564.41	43405.23
564.57	43494.18
564.74	43505.88
564.90	43704.82
565.07	43449.70
565.23	43498.86
565.39	44027.82
565.56	43634.61
565.72	43625.25
565.88	43421.62
566.05	43461.41
566.21	43615.88
566.38	43540.99
566.54	43440.34
566.70	43868.66
566.87	43952.92
567.03	44048.88
567.19	44020.80
567.36	44336.77
567.52	43227.35
567.68	44177.61
567.85	43810.15
568.01	44217.40
568.17	43999.73
568.34	43828.87
568.50	44107.40
568.66	44079.31
568.83	44222.08
568.99	44215.06
569.15	44009.09
569.32	43688.44
569.48	43819.51
569.64	43929.51
569.81	44208.04
569.97	43573.75
570.13	44013.77
570.30	43903.77
570.46	43438.00
570.62	43765.68
570.78	43917.81
570.95	43950.58
571.11	44114.42
571.27	44079.31
571.43	44250.17
571.60	43819.51
571.76	44093.35
571.92	43721.21
572.09	44119.10
572.25	44016.11
572.41	43922.49
572.57	43576.09
572.74	44666.78
572.90	44177.61
573.06	44259.53
573.22	44172.93
573.38	44032.50
573.55	43966.96
573.71	44226.76
573.87	44133.14
574.03	44037.18
574.20	43871.00
574.36	43817.17
574.52	44357.83
574.68	44107.40
574.84	44224.42
575.01	44030.16
575.17	44210.38
575.33	44128.46
575.49	44371.88
575.65	44795.51
575.82	44516.99
575.98	43981.01
576.14	44758.06
576.30	44381.24
576.46	44261.87
576.62	43971.64
576.79	44341.45
576.95	43615.88
577.11	44332.09
577.27	44334.43
577.43	44367.20
577.59	44451.45
577.75	44566.14
577.92	44201.02
578.08	43892.07
578.24	43971.64
578.40	44306.34
578.56	44339.11
578.72	44243.15
578.88	44538.05
579.04	44226.76
579.21	44287.62
579.37	44149.53
579.53	44240.81
579.69	43709.50
579.85	44357.83
580.01	44210.38
580.17	44549.76
580.33	44292.30
580.49	44879.77
580.65	44626.99
580.82	44498.26
580.98	44264.21
581.14	44079.31
581.30	44409.32
581.46	43775.04
581.62	44268.89
581.78	44147.18
581.94	44591.89
582.10	44378.90
582.26	45038.93
582.42	44596.57
582.58	44041.86
582.74	44402.30
582.90	44612.95
583.06	44966.37
583.22	44428.05
583.38	44516.99
583.54	44589.55
583.70	44460.82
583.86	44418.69
584.02	44219.74
584.18	44177.61
584.34	44423.37
584.50	44381.24
584.66	44224.42
584.82	44137.82
584.98	44741.68
585.14	45045.95
585.30	44629.34
585.46	44549.76
585.62	44329.75
585.78	44371.88
585.94	43789.08
586.10	44051.22
586.26	44477.20
586.42	44919.56
586.58	44425.71
586.74	44580.18
586.90	44093.35
587.06	44357.83
587.22	44870.41
587.38	44458.48
587.54	44257.19
587.70	44886.79
587.86	44884.45
588.02	44315.70
588.18	44844.66
588.34	44428.05
588.49	44182.29
588.65	44081.65
588.81	44175.27
588.97	44416.35
589.13	44669.12
589.29	44266.55
589.45	44650.40
589.61	45036.59
589.77	44755.72
589.93	44657.42
590.08	45036.59
590.24	44849.35
590.40	44942.97
