SpectraSuite Data File
++++++++++++++++++++++++++++++++++++
Date: Fri Oct 25 10:47:00 EDT 2013
User: price-jones
Dark Spectrum Present: No
Reference Spectrum Present: No
Number of Sampled Component Spectra: 1
Spectrometers: USB2+H05261
Integration Time (usec): 100000 (USB2+H05261)
Spectra Averaged: 1 (USB2+H05261)
Boxcar Smoothing: 0 (USB2+H05261)
Correct for Electrical Dark: No (USB2+H05261)
Strobe/Lamp Enabled: No (USB2+H05261)
Correct for Detector Non-linearity: No (USB2+H05261)
Correct for Stray Light: No (USB2+H05261)
Number of Pixels in Processed Spectrum: 2048
>>>>>Begin Processed Spectral Data<<<<<
365.73	112.35
365.92	112.35
366.12	112.35
366.32	63.19
366.52	25.75
366.72	44.47
366.91	77.24
367.11	56.17
367.31	60.85
367.51	2.34
367.70	2.34
367.90	145.11
368.10	14.04
368.30	77.24
368.49	23.41
368.69	81.92
368.89	95.96
369.09	65.54
369.28	79.58
369.48	86.60
369.68	100.64
369.87	91.28
370.07	93.62
370.27	23.41
370.47	243.42
370.66	292.57
370.86	409.59
371.06	444.70
371.25	503.22
371.45	451.72
371.65	451.72
371.84	454.06
372.04	491.51
372.24	479.81
372.44	475.13
372.63	496.19
372.83	557.05
373.03	500.87
373.22	526.62
373.42	538.32
373.62	517.26
373.81	517.26
374.01	552.37
374.21	538.32
374.40	557.05
374.60	622.58
374.79	617.90
374.99	585.13
375.19	573.43
375.38	587.47
375.58	669.39
375.78	610.88
375.97	592.16
376.17	638.97
376.37	575.77
376.56	578.11
376.76	608.54
376.95	627.26
377.15	662.37
377.35	671.73
377.54	620.24
377.74	601.52
377.93	594.50
378.13	669.39
378.33	615.56
378.52	620.24
378.72	704.50
378.91	636.63
379.11	706.84
379.31	674.07
379.50	610.88
379.70	601.52
379.89	664.71
380.09	636.63
380.28	753.65
380.48	711.52
380.68	685.78
380.87	697.48
381.07	692.80
381.26	655.35
381.46	596.84
381.65	678.76
381.85	713.86
382.04	730.25
382.24	826.21
382.43	716.20
382.63	741.95
382.83	688.12
383.02	690.46
383.22	713.86
383.41	699.82
383.61	723.23
383.80	737.27
384.00	711.52
384.19	720.88
384.39	816.85
384.58	732.59
384.78	851.96
384.97	781.74
385.17	758.33
385.36	739.61
385.56	779.40
385.75	781.74
385.95	805.14
386.14	781.74
386.34	835.57
386.53	858.98
386.72	875.36
386.92	866.00
387.11	814.51
387.31	774.72
387.50	880.04
387.70	851.96
387.89	826.21
388.09	835.57
388.28	849.61
388.48	833.23
388.67	884.72
388.86	882.38
389.06	983.02
389.25	961.96
389.45	889.40
389.64	912.81
389.84	926.85
390.03	910.47
390.22	968.98
390.42	959.62
390.61	910.47
390.81	945.58
391.00	952.60
391.19	978.34
391.39	1057.92
391.58	1062.60
391.78	1011.11
391.97	990.05
392.16	978.34
392.36	1086.01
392.55	992.39
392.75	1071.97
392.94	856.64
393.13	978.34
393.33	910.47
393.52	1053.24
393.71	1022.81
393.91	992.39
394.10	1076.65
394.29	1081.33
394.49	1132.82
394.68	1188.99
394.88	1067.28
395.07	1095.37
395.26	1151.54
395.46	1109.41
395.65	1090.69
395.84	1137.50
396.04	1198.35
396.23	1172.61
396.42	1093.03
396.62	1118.78
396.81	1184.31
397.00	1125.80
397.19	1217.08
397.39	1231.12
397.58	1334.11
397.77	1238.14
397.97	1263.89
398.16	1268.57
398.35	1399.64
398.55	1380.92
398.74	1334.11
398.93	1441.77
399.12	1371.55
399.32	1404.32
399.51	1465.18
399.70	1394.96
399.90	1401.98
400.09	1416.02
400.28	1507.30
400.47	1486.24
400.67	1526.03
400.86	1495.60
401.05	1547.09
401.24	1561.14
401.44	1537.73
401.63	1631.35
401.82	1593.90
402.01	1561.14
402.21	1643.06
402.40	1685.19
402.59	1572.84
402.78	1643.06
402.97	1596.25
403.17	1661.78
403.36	1678.16
403.55	1638.38
403.74	1701.57
403.93	1736.68
404.13	1710.93
404.32	1647.74
404.51	1811.57
404.70	1799.87
404.89	1844.34
405.09	1928.60
405.28	1753.06
405.47	1816.26
405.66	1816.26
405.85	1888.81
406.05	1727.32
406.24	1830.30
406.43	1874.77
406.62	1881.79
406.81	2015.20
407.00	1886.47
407.20	1982.43
407.39	2033.93
407.58	2115.84
407.77	1998.82
407.96	2090.10
408.15	1947.33
408.34	2017.54
408.54	2127.55
408.73	2134.57
408.92	2150.95
409.11	2092.44
409.30	2143.93
409.49	2165.00
409.68	2099.46
409.87	2165.00
410.07	2193.08
410.26	2197.76
410.45	2101.80
410.64	2197.76
410.83	2270.32
411.02	2363.94
411.21	2375.64
411.40	2256.28
411.59	2424.80
411.78	2401.39
411.98	2403.73
412.17	2410.75
412.36	2466.92
412.55	2640.12
412.74	2495.01
412.93	2490.33
413.12	2539.48
413.31	2696.30
413.50	2675.23
413.69	2658.85
413.88	2691.62
414.07	2745.45
414.26	2700.98
414.45	2731.41
414.64	2796.94
414.83	2789.92
415.02	2848.43
415.22	2974.82
415.41	2888.22
415.60	2918.65
415.79	2956.10
415.98	3016.95
416.17	2974.82
416.36	2991.20
416.55	3033.33
416.74	3122.27
416.93	3236.96
417.12	3091.85
417.31	3096.53
417.50	3126.96
417.69	3190.15
417.88	3227.60
418.07	3262.71
418.26	3265.05
418.45	3265.05
418.64	3433.57
418.83	3330.58
419.02	3255.69
419.21	3421.86
419.39	3262.71
419.58	3253.34
419.77	3211.22
419.96	3375.05
420.15	3463.99
420.34	3349.31
420.53	3398.46
420.72	3506.12
420.91	3510.80
421.10	3501.44
421.29	3651.24
421.48	3552.93
421.67	3644.21
421.86	3588.04
422.05	3602.08
422.24	3583.36
422.43	3555.27
422.61	3672.30
422.80	3660.60
422.99	3742.52
423.18	3733.15
423.37	3653.58
423.56	3613.79
423.75	3655.92
423.94	3529.53
424.13	3454.63
424.32	3503.78
424.50	3648.90
424.69	3566.98
424.88	3737.84
425.07	3552.93
425.26	3648.90
425.45	3761.24
425.64	3686.34
425.83	3716.77
426.01	3749.54
426.20	3861.88
426.39	3742.52
426.58	3592.72
426.77	3749.54
426.96	3763.58
427.15	3726.13
427.33	3819.75
427.52	3751.88
427.71	3843.16
427.90	3885.29
428.09	3815.07
428.28	3880.61
428.46	3946.14
428.65	3969.55
428.84	4046.79
429.03	4109.98
429.22	4030.40
429.40	3709.75
429.59	3904.01
429.78	3730.81
429.97	3733.15
430.16	3943.80
430.34	4002.32
430.53	4051.47
430.72	4131.05
430.91	3992.95
431.10	4121.68
431.28	4271.48
431.47	4327.65
431.66	4264.46
431.85	4135.73
432.03	4379.14
432.22	4320.63
432.41	4351.06
432.60	4369.78
432.79	4344.03
432.97	4461.06
433.16	4454.04
433.35	4325.31
433.54	4458.72
433.72	4327.65
433.91	4470.42
434.10	4606.17
434.28	4489.15
434.47	4531.28
434.66	4704.48
434.85	4580.43
435.03	4709.16
435.22	4662.35
435.41	4734.90
435.59	4767.67
435.78	4741.93
435.97	4826.18
436.16	4781.71
436.34	4615.54
436.53	4863.63
436.72	4793.42
436.90	4793.42
437.09	4706.82
437.28	4842.57
437.46	4830.87
437.65	4779.37
437.84	4802.78
438.02	4950.23
438.21	4760.65
438.40	4851.93
438.58	5158.54
438.77	4950.23
438.96	5135.14
439.14	5240.46
439.33	5317.70
439.52	5380.89
439.70	5420.68
439.89	5256.84
440.08	5399.62
440.26	5458.13
440.45	5378.55
440.63	5514.30
440.82	5584.52
441.01	5401.96
441.19	5640.69
441.38	5591.54
441.57	5781.12
441.75	5846.66
441.94	5713.25
442.12	5872.40
442.31	5778.78
442.50	5884.11
442.68	5956.66
442.87	5809.21
443.05	5942.62
443.24	5963.68
443.43	6080.71
443.61	6003.47
443.80	6129.86
443.98	5956.66
444.17	5788.14
444.35	5898.15
444.54	6202.42
444.73	6099.44
444.91	5975.39
445.10	6059.65
445.28	6033.90
445.47	6015.18
445.65	5820.91
445.84	6164.97
446.02	6101.78
446.21	6050.28
446.39	6113.48
446.58	6167.31
446.77	6352.21
446.95	6069.01
447.14	6291.36
447.32	6469.24
447.51	6211.78
447.69	6356.90
447.88	6289.02
448.06	6190.72
448.25	6422.43
448.43	6193.06
448.62	6272.64
448.80	6338.17
448.99	6483.28
449.17	6312.42
449.36	6328.81
449.54	6406.05
449.73	6717.34
449.91	6572.22
450.10	6754.79
450.28	6633.08
450.46	6752.45
450.65	6637.76
450.83	6846.07
451.02	6555.84
451.20	6834.36
451.39	6799.26
451.57	6677.55
451.76	6712.66
451.94	6892.88
452.13	6780.53
452.31	6827.34
452.49	6612.01
452.68	6745.42
452.86	6707.98
453.05	6843.73
453.23	6731.38
453.42	6825.00
453.60	6815.64
453.78	6817.98
453.97	6993.52
454.15	6822.66
454.34	7021.61
454.52	7049.69
454.70	7000.54
454.89	7138.63
455.07	7143.32
455.26	7265.02
455.44	7103.53
455.62	7265.02
455.81	7201.83
455.99	7250.98
456.17	7424.18
456.36	7302.47
456.54	7449.93
456.73	7492.05
456.91	7625.47
457.09	7667.60
457.28	7683.98
457.46	7452.27
457.64	7646.53
457.83	7548.23
458.01	7543.55
458.19	7793.98
458.38	7709.72
458.56	7899.31
458.74	7651.21
458.93	7777.60
459.11	7726.11
459.29	7829.09
459.48	7606.74
459.66	7819.73
459.84	7866.54
460.03	8021.02
460.21	7812.71
460.39	8060.80
460.57	8098.25
460.76	8035.06
460.94	8161.45
461.12	8210.60
461.31	8264.43
461.49	8304.22
461.67	8112.30
461.85	8292.52
462.04	8152.09
462.22	8744.24
462.40	8365.07
462.59	8131.02
462.77	8322.94
462.95	8241.03
463.13	8374.44
463.32	8360.39
463.50	8376.78
463.68	8514.87
463.86	8564.02
464.05	8329.97
464.23	8334.65
464.41	8369.76
464.59	8470.40
464.78	8636.58
464.96	8386.14
465.14	8468.06
465.32	8578.06
465.50	8741.90
465.69	8755.94
465.87	8634.24
466.05	8769.99
466.23	8624.87
466.41	8683.39
466.60	9050.85
466.78	8531.25
466.96	8854.25
467.14	8882.33
467.32	8954.89
467.51	8933.82
467.69	8788.71
467.87	8908.08
468.05	8894.04
468.23	8863.61
468.41	8877.65
468.60	9078.94
468.78	8985.32
468.96	9074.26
469.14	9263.84
469.32	9179.58
469.50	9212.35
469.69	9179.58
469.87	9235.75
470.05	9277.88
470.23	9399.59
470.41	9245.12
470.59	9331.72
470.77	9441.72
470.95	9296.61
471.14	9652.37
471.32	9479.17
471.50	9607.90
471.68	9715.56
471.86	9720.24
472.04	9771.74
472.22	10001.11
472.40	9694.50
472.58	9610.24
472.77	9851.31
472.95	9984.73
473.13	10178.99
473.31	10087.71
473.49	9844.29
473.67	9942.60
473.85	10183.67
474.03	10143.88
474.21	10326.44
474.39	10492.62
474.57	10473.90
474.75	10644.76
474.93	10443.47
475.12	10537.09
475.30	10689.23
475.48	10656.46
475.66	10661.14
475.84	10649.44
476.02	10913.92
476.20	10906.90
476.38	10930.30
476.56	11337.56
476.74	11178.40
476.92	11248.61
477.10	11257.98
477.28	11346.92
477.46	11487.35
477.64	11587.99
477.82	11838.43
478.00	11775.24
478.18	11836.09
478.36	12011.63
478.54	11880.56
478.72	12088.87
478.90	12067.80
479.08	12372.07
479.26	12620.17
479.44	12400.16
479.62	12212.92
479.80	12395.48
479.98	12699.75
480.16	12910.40
480.34	12765.28
480.52	12959.55
480.70	12816.77
480.88	13013.38
481.06	13095.30
481.24	13200.62
481.41	13184.24
481.59	13774.05
481.77	13661.71
481.95	13437.02
482.13	13490.85
482.31	13841.93
482.49	14012.79
482.67	14155.56
482.85	14064.28
483.03	14188.33
483.21	14375.57
483.39	14431.74
483.57	14665.80
483.74	14801.55
483.92	15023.90
484.10	14836.66
484.28	15122.20
484.46	15208.80
484.64	15552.86
484.82	15290.72
485.00	15108.16
485.18	15604.35
485.35	15709.68
485.53	15208.80
485.71	15431.15
485.89	15632.44
486.07	15775.21
486.25	15875.85
486.43	16315.87
486.61	16573.33
486.78	16510.14
486.96	16840.15
487.14	16854.20
487.32	16908.03
487.50	16870.58
487.68	17076.55
487.85	17156.13
488.03	17600.83
488.21	17865.31
488.39	17607.85
488.57	17722.54
488.75	17834.88
488.92	18171.92
489.10	18291.29
489.28	18230.43
489.46	18806.20
489.64	18441.08
489.81	19154.94
489.99	18820.25
490.17	19227.50
490.35	19255.59
490.53	19370.27
490.70	19346.87
490.88	19524.75
491.06	19796.25
491.24	19693.27
491.41	19527.09
491.59	19747.10
491.77	19999.88
491.95	19587.94
492.13	20292.44
492.30	20322.87
492.48	20690.34
492.66	20577.99
492.84	20702.04
493.01	21013.33
493.19	21064.82
493.37	21287.17
493.54	21228.66
493.72	21408.88
493.90	21577.40
494.08	21762.30
494.25	21832.52
494.43	21884.01
494.61	22022.10
494.79	22059.55
494.96	22256.15
495.14	22164.87
495.32	22466.80
495.49	22707.88
495.67	22780.43
495.85	22796.82
496.02	22810.86
496.20	23187.69
496.38	23070.66
496.55	23672.18
496.73	23843.04
496.91	23564.51
497.09	23768.14
497.26	23971.77
497.44	23569.19
497.62	23953.04
497.79	24521.79
497.97	23861.76
498.14	24364.98
498.32	24011.56
498.50	24816.70
498.67	24465.62
498.85	24945.43
499.03	24753.51
499.20	25268.42
499.38	24978.20
499.56	24844.79
499.73	25149.06
499.91	25322.26
500.08	25348.00
500.26	25305.87
500.44	25570.35
500.61	25809.09
500.79	25434.60
500.97	25612.48
501.14	25972.92
501.32	25663.97
501.49	26022.08
501.67	26078.25
501.84	26085.27
502.02	26789.77
502.20	26749.98
502.37	26396.56
502.55	26984.04
502.72	26852.97
502.90	26462.10
503.07	26405.92
503.25	27023.83
503.43	27056.59
503.60	26752.32
503.78	27058.93
503.95	26834.24
504.13	27063.61
504.30	27477.89
504.48	27302.35
504.65	27716.62
504.83	27920.25
505.01	27988.13
505.18	27931.95
505.36	28034.94
505.53	27878.12
505.71	28418.78
505.88	28301.76
506.06	27843.01
506.23	28584.96
506.41	28402.40
506.58	28451.55
506.76	28341.55
506.93	28772.21
507.11	28395.38
507.28	28709.01
507.46	28718.37
507.63	28556.88
507.81	29329.25
507.98	28751.14
508.16	29022.64
508.33	29074.13
508.50	29701.40
508.68	29146.69
508.85	29677.99
509.03	29867.58
509.20	29930.77
509.38	29436.92
509.55	30328.66
509.73	30073.54
509.90	29862.90
510.08	30078.22
510.25	29890.98
510.42	30286.53
510.60	30487.82
510.77	30389.52
510.95	30567.40
511.12	30295.89
511.30	31068.27
511.47	31063.59
511.64	31108.06
511.82	31030.82
511.99	30450.37
512.17	31140.83
512.34	31136.15
512.51	31524.68
512.69	31466.16
512.86	31648.72
513.04	31515.31
513.21	31634.68
513.38	31503.61
513.56	31480.21
513.73	31585.53
513.90	31838.31
514.08	31608.93
514.25	31728.30
514.43	32074.70
514.60	32313.44
514.77	31992.78
514.95	32201.09
515.12	32596.64
515.29	32751.12
515.47	32568.55
515.64	32891.55
515.81	32421.10
515.99	32481.95
516.16	32645.79
516.33	32453.87
516.51	32587.28
516.68	32500.68
516.85	32308.76
517.03	32385.99
517.20	32669.20
517.37	32559.19
517.54	33106.88
517.72	32943.04
517.89	32842.40
518.06	33214.54
518.24	32854.10
518.41	32936.02
518.58	33174.75
518.75	33432.21
518.93	33467.32
519.10	33771.59
519.27	33919.04
519.45	33809.04
519.62	34132.03
519.79	34356.72
519.96	33897.98
520.14	34883.34
520.31	33888.62
520.48	34199.91
520.65	34492.47
520.83	34574.39
521.00	34307.57
521.17	34675.04
521.34	34801.43
521.52	34773.34
521.69	34869.30
521.86	34888.03
522.03	34581.42
522.20	35206.34
522.38	35260.17
522.55	35370.18
522.72	34590.78
522.89	35054.20
523.07	35580.82
523.24	35346.77
523.41	35590.19
523.58	35379.54
523.75	35782.11
523.92	35662.74
524.10	36306.39
524.27	35849.99
524.44	35864.03
524.61	35981.06
524.78	35988.08
524.96	36385.97
525.13	36278.30
525.30	36734.71
525.47	36753.43
525.64	36348.52
525.81	36151.91
525.98	36500.65
526.16	36046.59
526.33	36100.42
526.50	36687.90
526.67	36280.64
526.84	36423.42
527.01	36414.05
527.18	36732.37
527.36	36514.70
527.53	36669.17
527.70	37818.38
527.87	37113.87
528.04	37254.31
528.21	37207.50
528.38	37074.09
528.55	37350.27
528.72	37572.62
528.89	37383.04
529.07	37488.36
529.24	37525.81
529.41	37605.39
529.58	37148.98
529.75	37900.29
529.92	37853.48
530.09	37862.85
530.26	38057.11
530.43	37963.49
530.60	38022.00
530.77	38366.06
530.94	37963.49
531.11	37713.05
531.28	38115.62
531.46	38345.00
531.63	38363.72
531.80	38279.46
531.97	38003.28
532.14	38227.97
532.31	38022.00
532.48	38480.75
532.65	38335.63
532.82	38244.35
532.99	38597.77
533.16	38417.55
533.33	38892.68
533.50	38658.63
533.67	38754.59
533.84	38782.68
534.01	38976.94
534.18	39023.75
534.35	39225.04
534.52	38890.34
534.69	38878.64
534.86	39117.37
535.03	39131.42
535.20	38752.25
535.37	39189.93
535.54	39377.17
535.71	39276.53
535.88	39407.60
536.05	39440.37
536.22	39746.98
536.38	39501.22
536.55	39522.29
536.72	39449.73
536.89	39016.73
537.06	39250.78
537.23	39887.41
537.40	39578.46
537.57	39620.59
537.74	39655.70
537.91	40121.46
538.08	40025.50
538.25	39438.03
538.42	40315.73
538.59	40414.03
538.75	40093.38
538.92	39948.26
539.09	40025.50
539.26	40074.65
539.43	40348.50
539.60	40280.62
539.77	39950.60
539.94	40652.76
540.11	40453.82
540.28	40095.72
540.44	40676.17
540.61	40238.49
540.78	40119.12
540.95	40289.98
541.12	40418.71
541.29	40135.51
541.46	40708.94
541.62	40652.76
541.79	41017.89
541.96	40528.72
542.13	41186.41
542.30	40519.35
542.47	41151.30
542.63	40959.38
542.80	41057.68
542.97	41446.21
543.14	41757.50
543.31	41490.68
543.48	41471.95
543.64	41923.68
543.81	41668.56
543.98	41984.53
544.15	41448.55
544.32	42021.98
544.48	42071.13
544.65	42045.38
544.82	41799.63
544.99	41338.54
545.16	41509.40
545.32	41642.81
545.49	42164.75
545.66	42223.26
545.83	41963.46
546.00	42197.52
546.16	42068.79
546.33	41830.05
546.50	42057.09
546.67	42038.36
546.83	41776.22
547.00	42178.79
547.17	41926.02
547.34	41839.42
547.50	42260.71
547.67	42740.52
547.84	42234.97
548.00	42274.76
548.17	42635.20
548.34	42351.99
548.51	42572.00
548.67	43143.09
548.84	42515.83
549.01	42541.58
549.18	42967.55
549.34	42621.16
549.51	42916.06
549.68	42995.64
549.84	42714.78
550.01	42887.98
550.18	42494.77
550.34	42773.29
550.51	42834.14
550.68	42780.31
550.84	42452.64
551.01	43438.00
551.18	42951.17
551.34	43131.39
551.51	42885.64
551.68	43309.27
551.84	43012.02
552.01	42880.95
552.18	42988.62
552.34	43028.41
552.51	43295.23
552.68	42990.96
552.84	43402.89
553.01	43349.06
553.18	43459.07
553.34	43634.61
553.51	43037.77
553.67	43765.68
553.84	43725.89
554.01	43620.56
554.17	44245.49
554.34	43723.55
554.51	43821.85
554.67	43791.42
554.84	43875.68
555.00	43583.12
555.17	43683.76
555.33	44069.95
555.50	43393.53
555.67	44025.48
555.83	44023.14
556.00	43915.47
556.16	43863.98
556.33	44186.97
556.50	44198.68
556.66	44264.21
556.83	43672.06
556.99	44044.20
557.16	44109.74
557.32	44369.54
557.49	44250.17
557.65	43613.54
557.82	44004.41
557.98	43707.16
558.15	43803.13
558.32	44144.84
558.48	43997.39
558.65	44301.66
558.81	43957.60
558.98	44186.97
559.14	44369.54
559.31	44580.18
559.47	44385.92
559.64	44512.31
559.80	44509.97
559.97	44107.40
560.13	44409.32
560.30	44140.16
560.46	44025.48
560.63	44278.25
560.79	44856.37
560.96	44933.60
561.12	44945.31
561.29	44701.89
561.45	44545.08
561.61	44603.59
561.78	44573.16
561.94	44580.18
562.11	44250.17
562.27	44626.99
562.44	44617.63
562.60	44720.62
562.77	44828.28
562.93	44411.67
563.10	44540.39
563.26	44392.94
563.42	45214.47
563.59	44615.29
563.75	44638.70
563.92	45001.48
564.08	44648.06
564.24	45111.49
564.41	45282.34
564.57	44708.91
564.74	44634.02
564.90	45120.85
565.07	44870.41
565.23	44748.70
565.39	44376.56
565.56	45251.92
565.72	44559.12
565.88	44952.33
566.05	44652.74
566.21	44706.57
566.38	44547.42
566.54	44985.10
566.70	45305.75
566.87	45024.89
567.03	44804.88
567.19	45347.88
567.36	45237.87
567.52	45092.76
567.68	45111.49
567.85	44800.19
568.01	45074.04
568.17	45088.08
568.34	45406.39
568.50	44994.46
568.66	44683.17
568.83	45106.80
568.99	45127.87
569.15	45275.32
569.32	45102.12
569.48	44982.76
569.64	45525.76
569.81	45214.47
569.97	45212.13
570.13	45125.53
570.30	45118.51
570.46	44912.54
570.62	44566.14
570.78	44662.10
570.95	44912.54
571.11	45326.81
571.27	45212.13
571.43	45013.18
571.60	45130.21
571.76	45251.92
571.92	45041.27
572.09	44912.54
572.25	45626.40
572.41	45172.34
572.57	45113.83
572.74	45687.26
572.90	45102.12
573.06	45041.27
573.22	45027.23
573.38	45483.63
573.55	45062.33
573.71	45303.41
573.87	45495.33
574.03	45443.84
574.20	45141.91
574.36	45069.36
574.52	45265.96
574.68	45528.10
574.84	45670.87
575.01	45223.83
575.17	45055.31
575.33	44957.01
575.49	45092.76
575.65	45200.43
575.82	45453.20
575.98	45162.98
576.14	45886.20
576.30	45338.52
576.46	44870.41
576.62	45118.51
576.79	45059.99
576.95	45455.54
577.11	45165.32
577.27	45415.76
577.43	45364.26
577.59	45345.54
577.75	45261.28
577.92	44842.32
578.08	45319.79
578.24	45228.51
578.40	45481.29
578.56	45289.37
578.72	44870.41
578.88	45485.97
579.04	45635.77
579.21	45322.13
579.37	45001.48
579.53	45340.86
579.69	45050.63
579.85	45457.88
580.01	45511.72
580.17	45399.37
580.33	45535.12
580.49	45610.02
580.65	45291.71
580.82	45361.92
580.98	45729.39
581.14	45146.59
581.30	45443.84
581.46	45471.93
581.62	45827.69
581.78	45448.52
581.94	45855.78
582.10	45825.35
582.26	45216.81
582.42	45216.81
582.58	45588.95
582.74	45455.54
582.90	45181.70
583.06	45530.44
583.22	45652.15
583.38	45865.14
583.54	45474.27
583.70	45251.92
583.86	45408.73
584.02	45235.53
584.18	45659.17
584.34	45565.55
584.50	45881.52
584.66	45666.19
584.82	45221.49
584.98	45525.76
585.14	45752.79
585.30	45595.98
585.46	45523.42
585.62	44587.21
585.78	45925.99
585.94	45090.42
586.10	45223.83
586.26	45450.86
586.42	45481.29
586.58	45563.21
586.74	45521.08
586.90	44952.33
587.06	45598.32
587.22	45806.62
587.38	45125.53
587.54	45808.96
587.70	45600.66
587.86	45682.58
588.02	45787.90
588.18	45986.85
588.34	45338.52
588.49	45071.70
588.65	45069.36
588.81	45450.86
588.97	44959.35
589.13	45317.45
589.29	45488.31
589.45	45497.67
589.61	45504.70
589.77	45748.11
589.93	45923.65
590.08	45839.39
590.24	45965.78
