SpectraSuite Data File
++++++++++++++++++++++++++++++++++++
Date: Fri Oct 25 10:44:32 EDT 2013
User: price-jones
Dark Spectrum Present: No
Reference Spectrum Present: No
Number of Sampled Component Spectra: 1
Spectrometers: USB2+H05261
Integration Time (usec): 100000 (USB2+H05261)
Spectra Averaged: 1 (USB2+H05261)
Boxcar Smoothing: 0 (USB2+H05261)
Correct for Electrical Dark: No (USB2+H05261)
Strobe/Lamp Enabled: No (USB2+H05261)
Correct for Detector Non-linearity: No (USB2+H05261)
Correct for Stray Light: No (USB2+H05261)
Number of Pixels in Processed Spectrum: 2048
>>>>>Begin Processed Spectral Data<<<<<
365.73	131.07
365.92	131.07
366.12	131.07
366.32	28.09
366.52	32.77
366.72	4.68
366.91	18.72
367.11	37.45
367.31	0.00
367.51	9.36
367.70	0.00
367.90	60.85
368.10	28.09
368.30	79.58
368.49	79.58
368.69	7.02
368.89	53.83
369.09	0.00
369.28	49.15
369.48	4.68
369.68	84.26
369.87	154.48
370.07	53.83
370.27	126.39
370.47	147.45
370.66	339.38
370.86	397.89
371.06	521.94
371.25	521.94
371.45	365.12
371.65	388.53
371.84	437.68
372.04	461.09
372.24	456.40
372.44	512.58
372.63	535.98
372.83	433.00
373.03	491.51
373.22	500.87
373.42	463.43
373.62	517.26
373.81	510.24
374.01	540.66
374.21	564.07
374.40	613.22
374.60	645.99
374.79	594.50
374.99	585.13
375.19	498.53
375.38	669.39
375.58	608.54
375.78	695.14
375.97	578.11
376.17	545.34
376.37	613.22
376.56	580.45
376.76	543.00
376.95	568.75
377.15	699.82
377.35	552.37
377.54	674.07
377.74	578.11
377.93	594.50
378.13	557.05
378.33	568.75
378.52	631.94
378.72	699.82
378.91	636.63
379.11	580.45
379.31	606.20
379.50	624.92
379.70	603.86
379.89	657.69
380.09	690.46
380.28	589.82
380.48	653.01
380.68	713.86
380.87	641.31
381.07	631.94
381.26	704.50
381.46	676.41
381.65	753.65
381.85	695.14
382.04	641.31
382.24	624.92
382.43	655.35
382.63	671.73
382.83	674.07
383.02	791.10
383.22	678.76
383.41	681.10
383.61	669.39
383.80	660.03
384.00	741.95
384.19	779.40
384.39	791.10
384.58	711.52
384.78	774.72
384.97	744.29
385.17	849.61
385.36	685.78
385.56	851.96
385.75	695.14
385.95	765.36
386.14	711.52
386.34	800.46
386.53	828.55
386.72	826.21
386.92	807.48
387.11	798.12
387.31	751.31
387.50	849.61
387.70	959.62
387.89	844.93
388.09	800.46
388.28	793.44
388.48	805.14
388.67	915.15
388.86	936.21
389.06	912.81
389.25	952.60
389.45	842.59
389.64	844.93
389.84	964.30
390.03	901.11
390.22	919.83
390.42	938.55
390.61	870.68
390.81	887.06
391.00	1067.28
391.19	1001.75
391.39	943.24
391.58	1001.75
391.78	903.45
391.97	987.71
392.16	908.13
392.36	987.71
392.55	931.53
392.75	896.43
392.94	999.41
393.13	976.00
393.33	994.73
393.52	973.66
393.71	964.30
393.91	1043.88
394.10	1020.47
394.29	1041.54
394.49	1039.20
394.68	1043.88
394.88	1191.33
395.07	1172.61
395.26	1104.73
395.46	1109.41
395.65	1228.78
395.84	1186.65
396.04	1200.69
396.23	1081.33
396.42	1064.94
396.62	1043.88
396.81	1259.21
397.00	1170.27
397.19	1242.82
397.39	1210.06
397.58	1322.40
397.77	1277.93
397.97	1315.38
398.16	1287.29
398.35	1376.24
398.55	1287.29
398.74	1315.38
398.93	1364.53
399.12	1373.89
399.32	1268.57
399.51	1317.72
399.70	1380.92
399.90	1345.81
400.09	1434.75
400.28	1533.05
400.47	1406.66
400.67	1551.78
400.86	1469.86
401.05	1493.26
401.24	1474.54
401.44	1589.22
401.63	1565.82
401.82	1617.31
402.01	1572.84
402.21	1610.29
402.40	1516.67
402.59	1650.08
402.78	1603.27
402.97	1577.52
403.17	1568.16
403.36	1526.03
403.55	1633.69
403.74	1659.44
403.93	1650.08
404.13	1621.99
404.32	1657.10
404.51	1750.72
404.70	1736.68
404.89	1811.57
405.09	1813.92
405.28	1755.40
405.47	1820.94
405.66	1746.04
405.85	1842.00
406.05	1881.79
406.24	1884.13
406.43	1867.75
406.62	1895.83
406.81	1975.41
407.00	1940.30
407.20	1806.89
407.39	1907.54
407.58	1975.41
407.77	1994.14
407.96	1994.14
408.15	2008.18
408.34	2057.33
408.54	2043.29
408.73	2076.06
408.92	2118.18
409.11	2188.40
409.30	2057.33
409.49	2160.31
409.68	2029.24
409.87	2073.71
410.07	2160.31
410.26	2127.55
410.45	2165.00
410.64	2183.72
410.83	2232.87
411.02	2200.10
411.21	2284.36
411.40	2300.75
411.59	2363.94
411.78	2410.75
411.98	2279.68
412.17	2441.18
412.36	2509.05
412.55	2363.94
412.74	2429.48
412.93	2408.41
413.12	2509.05
413.31	2623.74
413.50	2626.08
413.69	2579.27
413.88	2684.59
414.07	2710.34
414.26	2670.55
414.45	2623.74
414.64	2663.53
414.83	2733.75
415.02	2818.00
415.22	2909.29
415.41	2820.35
415.60	2787.58
415.79	2878.86
415.98	2895.24
416.17	2953.76
416.36	2944.39
416.55	2981.84
416.74	2932.69
416.93	3049.72
417.12	3052.06
417.31	2993.55
417.50	3103.55
417.69	3101.21
417.88	3136.32
418.07	3005.25
418.26	3206.53
418.45	3187.81
418.64	3302.50
418.83	3255.69
419.02	3201.85
419.21	3370.37
419.39	3157.38
419.58	3213.56
419.77	3251.00
419.96	3361.01
420.15	3379.73
420.34	3339.94
420.53	3438.25
420.72	3583.36
420.91	3562.30
421.10	3463.99
421.29	3538.89
421.48	3452.29
421.67	3529.53
421.86	3463.99
422.05	3384.41
422.24	3459.31
422.43	3438.25
422.61	3510.80
422.80	3599.74
422.99	3662.94
423.18	3571.66
423.37	3672.30
423.56	3632.51
423.75	3637.19
423.94	3543.57
424.13	3426.54
424.32	3487.40
424.50	3644.21
424.69	3744.86
424.88	3529.53
425.07	3534.21
425.26	3562.30
425.45	3531.87
425.64	3569.32
425.83	3581.02
426.01	3597.40
426.20	3559.95
426.39	3719.11
426.58	3672.30
426.77	3609.11
426.96	3541.23
427.15	3700.39
427.33	3595.06
427.52	3866.56
427.71	3770.60
427.90	3822.09
428.09	3765.92
428.28	3852.52
428.46	3815.07
428.65	3906.35
428.84	3754.22
429.03	4072.53
429.22	3885.29
429.40	3990.61
429.59	3817.41
429.78	3733.15
429.97	3695.71
430.16	3852.52
430.34	3847.84
430.53	3927.42
430.72	3911.04
430.91	4016.36
431.10	4035.08
431.28	4135.73
431.47	4128.70
431.66	4320.63
431.85	4081.89
432.03	4315.95
432.22	4301.90
432.41	4222.33
432.60	4355.74
432.79	4215.30
432.97	4322.97
433.16	4360.42
433.35	4395.53
433.54	4416.59
433.72	4278.50
433.91	4257.43
434.10	4482.13
434.28	4367.44
434.47	4456.38
434.66	4454.04
434.85	4599.15
435.03	4671.71
435.22	4571.07
435.41	4657.67
435.59	4582.77
435.78	4601.49
435.97	4812.14
436.16	4660.01
436.34	4652.98
436.53	4678.73
436.72	4798.10
436.90	4704.48
437.09	4777.03
437.28	4760.65
437.46	4814.48
437.65	4744.27
437.84	4816.82
438.02	4727.88
438.21	4903.42
438.40	4770.01
438.58	4992.36
438.77	5144.50
438.96	5078.96
439.14	5167.90
439.33	5287.27
439.52	5041.51
439.70	5275.57
439.89	5275.57
440.08	5289.61
440.26	5231.10
440.45	5317.70
440.63	5439.40
440.82	5593.88
441.01	5430.04
441.19	5483.88
441.38	5760.06
441.57	5596.22
441.75	5600.90
441.94	5741.33
442.12	5650.05
442.31	5804.53
442.50	5912.19
442.68	5708.57
442.87	5678.14
443.05	5823.25
443.24	5907.51
443.43	5872.40
443.61	6045.60
443.80	6160.29
443.98	5837.30
444.17	5804.53
444.35	5921.56
444.54	5963.68
444.73	6022.20
444.91	5816.23
445.10	6012.84
445.28	6073.69
445.47	5921.56
445.65	5998.79
445.84	5937.94
446.02	6033.90
446.21	5935.60
446.39	6045.60
446.58	6090.07
446.77	6101.78
446.95	6043.26
447.14	6169.65
447.32	6277.32
447.51	6099.44
447.69	6209.44
447.88	6040.92
448.06	6181.35
448.25	6200.08
448.43	6179.01
448.62	6099.44
448.80	6022.20
448.99	6274.98
449.17	6307.74
449.36	6251.57
449.54	6282.00
449.73	6387.32
449.91	6417.75
450.10	6506.69
450.28	6480.94
450.46	6609.67
450.65	6595.63
450.83	6579.25
451.02	6523.07
451.20	6586.27
451.39	6787.55
451.57	6583.93
451.76	6651.80
451.94	6623.72
452.13	6504.35
452.31	6581.59
452.49	6504.35
452.68	6637.76
452.86	6707.98
453.05	6698.61
453.23	6794.58
453.42	6731.38
453.60	6857.77
453.78	6925.65
453.97	6902.24
454.15	6808.62
454.34	6583.93
454.52	6932.67
454.70	6860.11
454.89	7091.82
455.07	6916.28
455.26	7023.95
455.44	7119.91
455.62	7061.40
455.81	7117.57
455.99	7192.47
456.17	7286.09
456.36	7105.87
456.54	7307.15
456.73	7351.62
456.91	7541.21
457.09	7365.67
457.28	7602.06
457.46	7286.09
457.64	7508.44
457.83	7499.08
458.01	7323.54
458.19	7735.47
458.38	7555.25
458.56	7627.81
458.74	7571.63
458.93	7473.33
459.11	7641.85
459.29	7644.19
459.48	7817.39
459.66	7705.04
459.84	7782.28
460.03	7995.27
460.21	7911.01
460.39	7836.11
460.57	7829.09
460.76	8013.99
460.94	7971.86
461.12	7943.78
461.31	7943.78
461.49	7911.01
461.67	8002.29
461.85	8002.29
462.04	8112.30
462.22	8451.67
462.40	8386.14
462.59	8163.79
462.77	8189.53
462.95	8196.56
463.13	8138.04
463.32	8362.73
463.50	8287.84
463.68	8308.90
463.86	8348.69
464.05	8156.77
464.23	8266.77
464.41	8439.97
464.59	8386.14
464.78	8535.93
464.96	8454.02
465.14	8369.76
465.32	8407.20
465.50	8603.81
465.69	8674.03
465.87	8414.23
466.05	8538.27
466.23	8596.79
466.41	8517.21
466.60	8816.80
466.78	8486.78
466.96	8573.38
467.14	8645.94
467.32	8695.09
467.51	8887.01
467.69	8498.49
467.87	8650.62
468.05	8844.88
468.23	8746.58
468.41	8718.50
468.60	8788.71
468.78	8889.35
468.96	8868.29
469.14	8985.32
469.32	9020.42
469.50	9015.74
469.69	9109.36
469.87	8990.00
470.05	9067.24
470.23	9193.62
470.41	9135.11
470.59	9055.53
470.77	9046.17
470.95	9231.07
471.14	9284.91
471.32	9114.05
471.50	9465.13
471.68	9497.89
471.86	9497.89
472.04	9500.23
472.22	9778.76
472.40	9472.15
472.58	9462.79
472.77	9666.41
472.95	9881.74
473.13	10113.45
473.31	9844.29
473.49	9771.74
473.67	9741.31
473.85	9806.84
474.03	10108.77
474.21	9944.94
474.39	10298.36
474.57	10251.55
474.75	10459.85
474.93	10277.29
475.12	10265.59
475.30	10431.77
475.48	10417.72
475.66	10471.56
475.84	10597.95
476.02	10487.94
476.20	10616.67
476.38	10801.57
476.56	11159.67
476.74	11115.20
476.92	11052.01
477.10	11014.56
477.28	11208.83
477.46	11042.65
477.64	11201.80
477.82	11569.27
478.00	11719.06
478.18	11606.72
478.36	11454.58
478.54	11899.28
478.72	11824.39
478.90	11882.90
479.08	12250.36
479.26	12430.59
479.44	12276.11
479.62	12278.45
479.80	12524.21
479.98	12582.72
480.16	12386.12
480.34	12681.02
480.52	12791.03
480.70	12746.56
480.88	12847.20
481.06	12823.80
481.24	12678.68
481.41	13118.70
481.59	13193.60
481.77	13540.00
481.95	13378.50
482.13	13420.63
482.31	13479.15
482.49	13877.04
482.67	14115.77
482.85	13944.91
483.03	14087.68
483.21	14197.69
483.39	14490.26
483.57	14251.52
483.74	14314.72
483.92	14415.36
484.10	14476.21
484.28	14829.63
484.46	14981.77
484.64	14984.11
484.82	14766.44
485.00	14920.92
485.18	15414.77
485.35	15225.18
485.53	15190.08
485.71	15183.06
485.89	15482.64
486.07	15660.52
486.25	15506.05
486.43	15623.08
486.61	16194.17
486.78	16114.59
486.96	16107.57
487.14	16507.80
487.32	16308.85
487.50	16652.91
487.68	16898.67
487.85	17235.70
488.03	17205.28
488.21	17153.79
488.39	17160.81
488.57	17575.08
488.75	17584.44
488.92	18010.42
489.10	18146.17
489.28	18118.09
489.46	18412.99
489.64	18520.66
489.81	18850.67
489.99	18782.80
490.17	18544.06
490.35	18850.67
490.53	19138.56
490.70	19428.79
490.88	19066.00
491.06	19484.96
491.24	19484.96
491.41	19295.38
491.59	19367.93
491.77	19499.00
491.95	19627.73
492.13	19756.46
492.30	20723.10
492.48	20456.28
492.66	20629.48
492.84	20262.02
493.01	20779.28
493.19	20542.88
493.37	20594.37
493.54	20638.84
493.72	20999.29
493.90	21156.10
494.08	21291.85
494.25	21544.63
494.43	21427.60
494.61	21715.49
494.79	21958.91
494.96	21769.32
495.14	21799.75
495.32	22115.72
495.49	21996.35
495.67	22511.27
495.85	22345.09
496.02	22459.78
496.20	22707.88
496.38	22581.49
496.55	22972.36
496.73	23372.59
496.91	23293.01
497.09	23316.42
497.26	23351.52
497.44	23330.46
497.62	23735.37
497.79	23859.42
497.97	23271.95
498.14	23953.04
498.32	23824.31
498.50	24081.77
498.67	24238.59
498.85	24238.59
499.03	24486.68
499.20	24521.79
499.38	24828.40
499.56	25104.59
499.73	25069.48
499.91	24985.22
500.08	24938.41
500.26	24896.28
500.44	25167.78
500.61	24900.96
500.79	25078.84
500.97	25671.00
501.14	25371.41
501.32	25518.86
501.49	25450.99
501.67	25668.66
501.84	25820.79
502.02	25476.73
502.20	25876.96
502.37	26134.42
502.55	25937.82
502.72	26335.71
502.90	26459.76
503.07	26370.82
503.25	26672.74
503.43	26483.16
503.60	26382.52
503.78	26520.61
503.95	26562.74
504.13	26628.27
504.30	26855.31
504.48	26618.91
504.65	27012.12
504.83	27157.24
505.01	27789.18
505.18	27129.15
505.36	27756.41
505.53	27580.87
505.71	27707.26
505.88	28203.46
506.06	27828.97
506.23	27845.35
506.41	27496.61
506.58	28025.57
506.76	28018.55
506.93	28168.35
507.11	27941.32
507.28	28414.10
507.46	28481.98
507.63	28364.95
507.81	28709.01
507.98	28311.12
508.16	28519.43
508.33	29046.05
508.50	28428.15
508.68	28891.57
508.85	29570.33
509.03	29202.86
509.20	29457.98
509.38	29207.55
509.55	29305.85
509.73	29598.41
509.90	29479.05
510.08	29537.56
510.25	29226.27
510.42	29837.15
510.60	29879.28
510.77	29900.34
510.95	30272.49
511.12	30235.04
511.30	30279.51
511.47	30323.98
511.64	30565.06
511.82	30661.02
511.99	30333.34
512.17	30759.32
512.34	30534.63
512.51	30756.98
512.69	30838.90
512.86	31108.06
513.04	31033.16
513.21	31133.81
513.38	31007.42
513.56	30969.97
513.73	31159.55
513.90	31454.46
514.08	30876.35
514.25	31634.68
514.43	31213.38
514.60	31220.41
514.77	31459.14
514.95	31901.50
515.12	31922.57
515.29	31990.44
515.47	32142.58
515.64	32196.41
515.81	32058.32
515.99	32217.47
516.16	31938.95
516.33	32327.48
516.51	32479.61
516.68	31784.48
516.85	31845.33
517.03	32196.41
517.20	32346.20
517.37	32610.68
517.54	32732.39
517.72	32488.98
517.89	32170.66
518.06	32783.88
518.24	32334.50
518.41	32505.36
518.58	32814.31
518.75	33003.89
518.93	33139.65
519.10	32870.48
519.27	33125.60
519.45	33081.13
519.62	33354.97
519.79	33104.54
519.96	33670.95
520.14	33682.65
520.31	33556.26
520.48	33713.08
520.65	33745.84
520.83	34141.39
521.00	34099.26
521.17	34167.14
521.34	34089.90
521.52	34787.38
521.69	34256.08
521.86	34394.17
522.03	34202.25
522.20	34785.04
522.38	34522.90
522.55	34513.54
522.72	34452.69
522.89	34712.49
523.07	34607.16
523.24	34824.83
523.41	34937.18
523.58	35007.39
523.75	35248.47
523.92	35356.13
524.10	35681.47
524.27	35225.06
524.44	35611.25
524.61	35557.42
524.78	35903.82
524.96	35756.36
525.13	35573.80
525.30	35751.68
525.47	36032.55
525.64	35999.78
525.81	36093.40
525.98	35714.23
526.16	35814.88
526.33	35578.48
526.50	36121.49
526.67	35419.33
526.84	35395.92
527.01	35777.43
527.18	36254.90
527.36	36615.34
527.53	36636.41
527.70	37043.66
527.87	36713.64
528.04	36594.28
528.21	36774.50
528.38	36725.35
528.55	36666.83
528.72	36804.92
528.89	37254.31
529.07	36605.98
529.24	36526.40
529.41	36893.86
529.58	36781.52
529.75	36900.89
529.92	37195.79
530.09	36966.42
530.26	36783.86
530.43	37280.05
530.60	37027.28
530.77	37338.57
530.94	37525.81
531.11	37109.19
531.28	37486.02
531.46	37771.57
531.63	37706.03
531.80	37893.27
531.97	37556.24
532.14	37516.45
532.31	37156.00
532.48	37420.48
532.65	37874.55
532.82	37858.17
532.99	37942.42
533.16	37617.09
533.33	38085.20
533.50	38265.42
533.67	38185.84
533.84	38073.49
534.01	38560.33
534.18	38234.99
534.35	38398.83
534.52	38263.08
534.69	38789.70
534.86	38394.15
535.03	38246.69
535.20	38728.84
535.37	38909.07
535.54	38897.36
535.71	38340.32
535.88	38525.22
536.05	38452.66
536.22	39225.04
536.38	38939.49
536.55	38841.19
536.72	39058.86
536.89	38576.71
537.06	39058.86
537.23	39138.44
537.40	38920.77
537.57	39288.23
537.74	39283.55
537.91	39342.06
538.08	39377.17
538.25	39517.60
538.42	39679.10
538.59	39461.43
538.75	39253.12
538.92	39402.92
539.09	39421.64
539.26	39754.00
539.43	39611.23
539.60	39491.86
539.77	40168.27
539.94	39618.25
540.11	39423.98
540.28	39271.85
540.44	39770.38
540.61	39728.25
540.78	39531.65
540.95	39433.35
541.12	39646.33
541.29	40044.23
541.46	40177.64
541.62	40116.78
541.79	40203.38
541.96	39754.00
542.13	40100.40
542.30	40203.38
542.47	40198.70
542.63	40287.64
542.80	40540.42
542.97	40737.02
543.14	41212.15
543.31	40584.89
543.48	40617.66
543.64	41516.42
543.81	41017.89
543.98	40617.66
544.15	41155.98
544.32	41120.87
544.48	41457.91
544.65	41041.29
544.82	41223.86
544.99	41067.04
545.16	41062.36
545.32	41284.71
545.49	41509.40
545.66	41273.01
545.83	41383.01
546.00	41469.61
546.16	41525.78
546.33	41188.75
546.50	41219.17
546.67	41563.23
546.83	41031.93
547.00	41610.04
547.17	41940.06
547.34	41549.19
547.50	41504.72
547.67	42103.90
547.84	41635.79
548.00	42094.53
548.17	42323.91
548.34	41853.46
548.51	42279.44
548.67	42206.88
548.84	41986.87
549.01	42031.34
549.18	41825.37
549.34	42431.57
549.51	41909.63
549.68	42639.88
549.84	42122.62
550.01	42501.79
550.18	42206.88
550.34	42274.76
550.51	42639.88
550.68	42394.12
550.84	42078.15
551.01	42220.92
551.18	42277.10
551.34	42237.31
551.51	42768.61
551.68	42944.15
551.84	42384.76
552.01	42707.76
552.18	42532.22
552.34	42330.93
552.51	42740.52
552.68	42656.26
552.84	42691.37
553.01	43227.35
553.18	42752.23
553.34	42511.15
553.51	42192.84
553.67	42583.71
553.84	43323.32
554.01	43030.75
554.17	42602.43
554.34	43014.37
554.51	43182.88
554.67	43058.84
554.84	43241.40
555.00	43232.04
555.17	42817.76
555.33	43140.75
555.50	42972.24
555.67	43023.73
555.83	43206.29
556.00	43386.51
556.16	43871.00
556.33	43335.02
556.50	43351.40
556.66	43454.39
556.83	42981.60
556.99	43515.24
557.16	43896.75
557.32	43725.89
557.49	43381.83
557.65	42801.38
557.82	43452.05
557.98	43519.92
558.15	43304.59
558.32	43772.70
558.48	43281.19
558.65	43185.22
558.81	43526.94
558.98	43367.79
559.14	43356.08
559.31	43735.25
559.47	43683.76
559.64	44142.50
559.80	43700.14
559.97	43636.95
560.13	43402.89
560.30	43468.43
560.46	43711.84
560.63	43611.20
560.79	44004.41
560.96	43761.00
561.12	43959.94
561.29	43482.47
561.45	44201.02
561.61	43798.44
561.78	43957.60
561.94	43613.54
562.11	43927.17
562.27	43922.49
562.44	44023.14
562.60	44261.87
562.77	44224.42
562.93	43988.03
563.10	44186.97
563.26	44142.50
563.42	44095.69
563.59	44296.98
563.75	43735.25
563.92	44135.48
564.08	44325.07
564.24	44381.24
564.41	44133.14
564.57	44306.34
564.74	44215.06
564.90	44353.15
565.07	44086.33
565.23	43880.36
565.39	44053.56
565.56	44287.62
565.72	43484.81
565.88	44484.22
566.05	44304.00
566.21	44135.48
566.38	43744.61
566.54	44308.68
566.70	44456.14
566.87	44374.22
567.03	44748.70
567.19	44823.60
567.36	44722.96
567.52	44643.38
567.68	44229.10
567.85	44088.67
568.01	44048.88
568.17	44144.84
568.34	44554.44
568.50	44355.49
568.66	44617.63
568.83	44458.48
568.99	44102.71
569.15	44442.09
569.32	44245.49
569.48	43983.35
569.64	44545.08
569.81	44430.39
569.97	44722.96
570.13	44418.69
570.30	44259.53
570.46	44041.86
570.62	44329.75
570.78	44545.08
570.95	44596.57
571.11	44456.14
571.27	44142.50
571.43	44322.72
571.60	44339.11
571.76	44568.48
571.92	44378.90
572.09	44486.56
572.25	44596.57
572.41	44516.99
572.57	44470.18
572.74	44919.56
572.90	44516.99
573.06	44863.39
573.22	44708.91
573.38	44275.91
573.55	44212.72
573.71	44879.77
573.87	44444.43
574.03	44236.12
574.20	44648.06
574.36	44367.20
574.52	44437.41
574.68	44790.83
574.84	44685.51
575.01	44563.80
575.17	44425.71
575.33	44610.61
575.49	44474.86
575.65	44498.26
575.82	44465.50
575.98	44751.04
576.14	44910.20
576.30	44678.49
576.46	44774.45
576.62	44474.86
576.79	44973.39
576.95	44430.39
577.11	44868.07
577.27	44442.09
577.43	44687.85
577.59	44753.38
577.75	44837.64
577.92	44086.33
578.08	44664.44
578.24	44381.24
578.40	44531.03
578.56	44566.14
578.72	44327.41
578.88	44832.96
579.04	44875.09
579.21	44924.24
579.37	44772.11
579.53	45078.72
579.69	44538.05
579.85	44767.43
580.01	44762.75
580.17	44673.81
580.33	44957.01
580.49	45057.65
580.65	45003.82
580.82	45106.80
580.98	44914.88
581.14	44509.97
581.30	44814.24
581.46	45123.19
581.62	44917.22
581.78	44818.92
581.94	44727.64
582.10	44453.79
582.26	44992.12
582.42	44563.80
582.58	44781.47
582.74	44825.94
582.90	44769.77
583.06	45090.42
583.22	45067.02
583.38	45092.76
583.54	45008.50
583.70	44830.62
583.86	44790.83
584.02	44666.78
584.18	44905.52
584.34	44577.84
584.50	45195.74
584.66	44507.63
584.82	45022.54
584.98	44896.16
585.14	45003.82
585.30	44861.05
585.46	44577.84
585.62	44917.22
585.78	45041.27
585.94	44481.88
586.10	44439.75
586.26	45024.89
586.42	44818.92
586.58	44547.42
586.74	45219.15
586.90	44615.29
587.06	44634.02
587.22	44690.19
587.38	44500.61
587.54	45193.40
587.70	44919.56
587.86	45111.49
588.02	44825.94
588.18	44966.37
588.34	44495.92
588.49	44306.34
588.65	44533.37
588.81	44292.30
588.97	44601.25
589.13	44444.43
589.29	44568.48
589.45	44552.10
589.61	44828.28
589.77	44921.90
589.93	45141.91
590.08	45045.95
590.24	44865.73
