SpectraSuite Data File
++++++++++++++++++++++++++++++++++++
Date: Fri Oct 25 10:47:59 EDT 2013
User: price-jones
Dark Spectrum Present: No
Reference Spectrum Present: No
Number of Sampled Component Spectra: 1
Spectrometers: USB2+H05261
Integration Time (usec): 100000 (USB2+H05261)
Spectra Averaged: 1 (USB2+H05261)
Boxcar Smoothing: 0 (USB2+H05261)
Correct for Electrical Dark: No (USB2+H05261)
Strobe/Lamp Enabled: No (USB2+H05261)
Correct for Detector Non-linearity: No (USB2+H05261)
Correct for Stray Light: No (USB2+H05261)
Number of Pixels in Processed Spectrum: 2048
>>>>>Begin Processed Spectral Data<<<<<
365.73	112.35
365.92	112.35
366.12	112.35
366.32	46.81
366.52	9.36
366.72	95.96
366.91	67.88
367.11	74.90
367.31	23.41
367.51	0.00
367.70	35.11
367.90	0.00
368.10	25.75
368.30	0.00
368.49	0.00
368.69	79.58
368.89	67.88
369.09	84.26
369.28	77.24
369.48	91.28
369.68	98.30
369.87	65.54
370.07	105.32
370.27	180.22
370.47	245.76
370.66	423.64
370.86	407.25
371.06	500.87
371.25	449.38
371.45	477.47
371.65	416.62
371.84	533.64
372.04	386.19
372.24	456.40
372.44	456.40
372.63	465.77
372.83	477.47
373.03	479.81
373.22	533.64
373.42	528.96
373.62	458.74
373.81	526.62
374.01	500.87
374.21	568.75
374.40	470.45
374.60	664.71
374.79	561.73
374.99	505.56
375.19	559.39
375.38	557.05
375.58	575.77
375.78	624.92
375.97	538.32
376.17	676.41
376.37	690.46
376.56	519.60
376.76	531.30
376.95	601.52
377.15	610.88
377.35	610.88
377.54	606.20
377.74	606.20
377.93	517.26
378.13	669.39
378.33	669.39
378.52	568.75
378.72	540.66
378.91	627.26
379.11	599.18
379.31	631.94
379.50	566.41
379.70	645.99
379.89	655.35
380.09	629.60
380.28	739.61
380.48	655.35
380.68	631.94
380.87	653.01
381.07	585.13
381.26	695.14
381.46	702.16
381.65	737.27
381.85	653.01
382.04	650.67
382.24	755.99
382.43	713.86
382.63	664.71
382.83	706.84
383.02	645.99
383.22	755.99
383.41	697.48
383.61	662.37
383.80	723.23
384.00	772.38
384.19	723.23
384.39	816.85
384.58	662.37
384.78	791.10
384.97	734.93
385.17	706.84
385.36	723.23
385.56	758.33
385.75	716.20
385.95	716.20
386.14	821.53
386.34	830.89
386.53	711.52
386.72	753.65
386.92	744.29
387.11	779.40
387.31	880.04
387.50	858.98
387.70	858.98
387.89	763.01
388.09	823.87
388.28	807.48
388.48	784.08
388.67	849.61
388.86	922.17
389.06	837.91
389.25	828.55
389.45	863.66
389.64	851.96
389.84	908.13
390.03	980.68
390.22	992.39
390.42	833.23
390.61	887.06
390.81	922.17
391.00	875.36
391.19	954.94
391.39	957.28
391.58	987.71
391.78	908.13
391.97	945.58
392.16	985.37
392.36	983.02
392.55	1022.81
392.75	1001.75
392.94	933.87
393.13	1020.47
393.33	954.94
393.52	1048.56
393.71	1050.90
393.91	1062.60
394.10	1015.79
394.29	978.34
394.49	1114.10
394.68	1057.92
394.88	1090.69
395.07	1146.86
395.26	1097.71
395.46	1158.57
395.65	1116.44
395.84	1097.71
396.04	1200.69
396.23	1172.61
396.42	1102.39
396.62	1130.48
396.81	1132.82
397.00	1179.63
397.19	1184.31
397.39	1231.12
397.58	1207.72
397.77	1193.67
397.97	1212.40
398.16	1423.05
398.35	1252.19
398.55	1322.40
398.74	1231.12
398.93	1270.91
399.12	1404.32
399.32	1280.27
399.51	1296.66
399.70	1366.87
399.90	1364.53
400.09	1299.00
400.28	1427.73
400.47	1320.06
400.67	1434.75
400.86	1439.43
401.05	1502.62
401.24	1467.52
401.44	1521.35
401.63	1444.11
401.82	1465.18
402.01	1577.52
402.21	1533.05
402.40	1533.05
402.59	1444.11
402.78	1519.01
402.97	1432.41
403.17	1596.25
403.36	1621.99
403.55	1610.29
403.74	1687.53
403.93	1584.54
404.13	1617.31
404.32	1586.88
404.51	1701.57
404.70	1621.99
404.89	1612.63
405.09	1753.06
405.28	1743.70
405.47	1682.85
405.66	1715.61
405.85	1710.93
406.05	1764.76
406.24	1755.40
406.43	1710.93
406.62	1790.51
406.81	1963.71
407.00	1853.70
407.20	1750.72
407.39	1823.28
407.58	1874.77
407.77	1909.88
407.96	1902.86
408.15	2031.58
408.34	1907.54
408.54	2043.29
408.73	1879.45
408.92	2017.54
409.11	2038.61
409.30	2036.27
409.49	1987.11
409.68	1968.39
409.87	1975.41
410.07	2083.08
410.26	2017.54
410.45	2045.63
410.64	2132.23
410.83	2242.23
411.02	2235.21
411.21	2225.85
411.40	2104.14
411.59	2267.98
411.78	2317.13
411.98	2186.06
412.17	2289.04
412.36	2237.55
412.55	2349.90
412.74	2363.94
412.93	2462.24
413.12	2335.85
413.31	2459.90
413.50	2455.22
413.69	2473.95
413.88	2532.46
414.07	2640.12
414.26	2555.86
414.45	2567.57
414.64	2499.69
414.83	2640.12
415.02	2628.42
415.22	2703.32
415.41	2698.64
415.60	2705.66
415.79	2708.00
415.98	2778.22
416.17	2850.77
416.36	2895.24
416.55	2902.26
416.74	2834.39
416.93	2937.37
417.12	2995.89
417.31	2864.82
417.50	2979.50
417.69	3098.87
417.88	3026.31
418.07	2972.48
418.26	3047.38
418.45	3000.57
418.64	3283.77
418.83	3080.14
419.02	3155.04
419.21	3213.56
419.39	3152.70
419.58	3194.83
419.77	3101.21
419.96	3253.34
420.15	3297.81
420.34	3215.90
420.53	3311.86
420.72	3382.07
420.91	3389.10
421.10	3356.33
421.29	3412.50
421.48	3260.37
421.67	3471.01
421.86	3449.95
422.05	3496.76
422.24	3356.33
422.43	3365.69
422.61	3440.59
422.80	3508.46
422.99	3604.42
423.18	3391.44
423.37	3559.95
423.56	3466.33
423.75	3447.61
423.94	3527.19
424.13	3218.24
424.32	3435.91
424.50	3543.57
424.69	3487.40
424.88	3620.81
425.07	3494.42
425.26	3419.52
425.45	3506.12
425.64	3485.06
425.83	3585.70
426.01	3583.36
426.20	3492.08
426.39	3606.77
426.58	3506.12
426.77	3487.40
426.96	3576.34
427.15	3574.00
427.33	3616.13
427.52	3665.28
427.71	3775.28
427.90	3625.49
428.09	3749.54
428.28	3660.60
428.46	3817.41
428.65	3796.35
428.84	3885.29
429.03	3859.54
429.22	3627.83
429.40	3777.62
429.59	3768.26
429.78	3737.84
429.97	3552.93
430.16	3660.60
430.34	3812.73
430.53	3871.25
430.72	3712.09
430.91	3794.01
431.10	3864.22
431.28	3988.27
431.47	4032.74
431.66	4100.62
431.85	3948.48
432.03	4107.64
432.22	4257.43
432.41	4173.18
432.60	4159.13
432.79	4187.22
432.97	4138.07
433.16	4208.28
433.35	4121.68
433.54	4257.43
433.72	4217.65
433.91	4231.69
434.10	4318.29
434.28	4236.37
434.47	4397.87
434.66	4294.88
434.85	4388.50
435.03	4444.68
435.22	4383.82
435.41	4402.55
435.59	4603.83
435.78	4557.02
435.97	4638.94
436.16	4386.16
436.34	4512.55
436.53	4514.89
436.72	4702.14
436.90	4535.96
437.09	4601.49
437.28	4699.80
437.46	4599.15
437.65	4545.32
437.84	4688.09
438.02	4685.75
438.21	4744.27
438.40	4669.37
438.58	4807.46
438.77	4936.19
438.96	4849.59
439.14	4999.38
439.33	4938.53
439.52	5001.72
439.70	5081.30
439.89	5097.69
440.08	5046.20
440.26	5146.84
440.45	5125.77
440.63	5158.54
440.82	5348.12
441.01	5158.54
441.19	5217.05
441.38	5308.34
441.57	5383.23
441.75	5446.43
441.94	5509.62
442.12	5570.48
442.31	5577.50
442.50	5743.67
442.68	5493.24
442.87	5523.66
443.05	5572.82
443.24	5624.31
443.43	5603.24
443.61	5746.02
443.80	5837.30
443.98	5776.44
444.17	5483.88
444.35	5542.39
444.54	5851.34
444.73	5767.08
444.91	5710.91
445.10	5561.11
445.28	5832.62
445.47	5664.10
445.65	5909.85
445.84	5947.30
446.02	5820.91
446.21	5781.12
446.39	5809.21
446.58	5944.96
446.77	6043.26
446.95	5668.78
447.14	5865.38
447.32	5909.85
447.51	5891.13
447.69	5921.56
447.88	5977.73
448.06	5942.62
448.25	5804.53
448.43	5998.79
448.62	6069.01
448.80	5982.41
448.99	5973.05
449.17	5980.07
449.36	6113.48
449.54	6174.33
449.73	6272.64
449.91	6244.55
450.10	6237.53
450.28	6340.51
450.46	6286.68
450.65	6452.86
450.83	6415.41
451.02	6363.92
451.20	6415.41
451.39	6359.24
451.57	6265.61
451.76	6174.33
451.94	6415.41
452.13	6527.75
452.31	6392.00
452.49	6361.58
452.68	6253.91
452.86	6408.39
453.05	6333.49
453.23	6569.88
453.42	6490.31
453.60	6399.02
453.78	6698.61
453.97	6686.91
454.15	6590.95
454.34	6668.19
454.52	6775.85
454.70	6700.95
454.89	6551.16
455.07	6619.04
455.26	6836.70
455.44	6949.05
455.62	6759.47
455.81	6867.13
455.99	6897.56
456.17	7005.22
456.36	6970.12
456.54	7019.27
456.73	7152.68
456.91	7276.73
457.09	7169.06
457.28	7407.80
457.46	7049.69
457.64	7185.44
457.83	7218.21
458.01	7236.94
458.19	7258.00
458.38	7229.91
458.56	7279.07
458.74	7377.37
458.93	7419.50
459.11	7356.30
459.29	7323.54
459.48	7393.75
459.66	7489.71
459.84	7468.65
460.03	7515.46
460.21	7564.61
460.39	7627.81
460.57	7712.07
460.76	7611.42
460.94	7616.10
461.12	7623.12
461.31	7669.94
461.49	7585.68
461.67	7749.51
461.85	7726.11
462.04	7606.74
462.22	8285.50
462.40	8154.43
462.59	8102.93
462.77	7819.73
462.95	8177.83
463.13	8021.02
463.32	8018.68
463.50	7957.82
463.68	8173.15
463.86	7969.52
464.05	8107.62
464.23	8060.80
464.41	8039.74
464.59	7974.21
464.78	8044.42
464.96	8116.98
465.14	8086.55
465.32	8191.88
465.50	8173.15
465.69	8372.10
465.87	8037.40
466.05	8229.32
466.23	8444.65
466.41	8463.38
466.60	8393.16
466.78	8297.20
466.96	8264.43
467.14	8140.38
467.32	8355.71
467.51	8351.03
467.69	8229.32
467.87	8344.01
468.05	8681.05
468.23	8465.72
468.41	8421.25
468.60	8489.12
468.78	8786.37
468.96	8386.14
469.14	8727.86
469.32	8533.59
469.50	8629.56
469.69	8926.80
469.87	8868.29
470.05	8926.80
470.23	8795.73
470.41	8692.75
470.59	8985.32
470.77	8982.98
470.95	8931.48
471.14	9301.29
471.32	8922.12
471.50	9104.68
471.68	9446.40
471.86	9338.74
472.04	9291.93
472.22	9432.36
472.40	9128.09
472.58	9109.36
472.77	9359.80
472.95	9493.21
473.13	9879.40
473.31	9542.36
473.49	9535.34
473.67	9488.53
473.85	9596.20
474.03	9692.16
474.21	9760.03
474.39	10052.60
474.57	9804.50
474.75	9811.53
474.93	10111.11
475.12	10127.50
475.30	10167.29
475.48	10157.92
475.66	9989.41
475.84	9916.85
476.02	10293.68
476.20	10483.26
476.38	10553.48
476.56	10600.29
476.74	10686.89
476.92	10712.63
477.10	10731.36
477.28	11091.80
477.46	10820.30
477.64	10899.87
477.82	11002.86
478.00	11349.26
478.18	11239.25
478.36	11290.74
478.54	11246.27
478.72	11477.99
478.90	11625.44
479.08	11833.75
479.26	11719.06
479.44	11805.66
479.62	11712.04
479.80	12006.95
479.98	12138.02
480.16	12341.64
480.34	12020.99
480.52	12311.22
480.70	12250.36
480.88	12400.16
481.06	12439.95
481.24	12631.87
481.41	12805.07
481.59	13011.04
481.77	12884.65
481.95	13013.38
482.13	13055.51
482.31	12858.90
482.49	13378.50
482.67	13474.46
482.85	13483.83
483.03	13532.98
483.21	13867.67
483.39	13820.86
483.57	13851.29
483.74	13951.93
483.92	13963.64
484.10	14066.62
484.28	13984.70
484.46	14450.47
484.64	14941.98
484.82	14239.82
485.00	14885.81
485.18	14855.38
485.35	15047.30
485.53	14960.70
485.71	14874.10
485.89	15468.60
486.07	15353.91
486.25	15108.16
486.43	15276.68
486.61	15531.80
486.78	15779.89
486.96	15978.84
487.14	15955.43
487.32	16264.38
487.50	16236.30
487.68	16432.90
487.85	16697.38
488.03	16989.95
488.21	16868.24
488.39	16760.58
488.57	17123.36
488.75	17053.14
488.92	17413.59
489.10	17612.53
489.28	17467.42
489.46	17811.48
489.64	17797.43
489.81	18228.09
489.99	18436.40
490.17	18167.24
490.35	18302.99
490.53	18370.86
490.70	18541.72
490.88	18841.31
491.06	19070.68
491.24	18850.67
491.41	18703.22
491.59	19157.28
491.77	18853.02
491.95	19122.18
492.13	19609.01
492.30	19328.14
492.48	19590.28
492.66	19747.10
492.84	19899.23
493.01	19967.11
493.19	20191.80
493.37	20304.15
493.54	20437.56
493.72	20599.05
493.90	20437.56
494.08	20851.83
494.25	20931.41
494.43	20886.94
494.61	21186.53
494.79	21373.77
494.96	21132.70
495.14	21167.80
495.32	21703.79
495.49	21514.20
495.67	21972.95
495.85	21881.67
496.02	22078.27
496.20	22335.73
496.38	22309.99
496.55	22515.95
496.73	22710.22
496.91	22555.74
497.09	22813.20
497.26	22967.68
497.44	22583.83
497.62	22864.69
497.79	23543.45
497.97	23260.24
498.14	23321.10
498.32	23587.92
498.50	23726.01
498.67	23658.14
498.85	23936.66
499.03	24320.51
499.20	23800.91
499.38	23871.12
499.56	24177.73
499.73	24308.80
499.91	24084.11
500.08	24163.69
500.26	24201.14
500.44	24355.61
500.61	24446.90
500.79	24318.17
500.97	24692.65
501.14	25174.80
501.32	25013.31
501.49	24805.00
501.67	25003.94
501.84	25579.71
502.02	25078.84
502.20	25219.27
502.37	25378.43
502.55	25525.88
502.72	25635.89
502.90	25958.88
503.07	25603.12
503.25	25958.88
503.43	25724.83
503.60	26087.61
503.78	26342.73
503.95	25837.17
504.13	26387.20
504.30	26218.68
504.48	26169.53
504.65	26410.60
504.83	26384.86
505.01	26740.62
505.18	26801.47
505.36	27140.85
505.53	27019.14
505.71	27386.61
505.88	27400.65
506.06	27012.12
506.23	27536.40
506.41	26993.40
506.58	27400.65
506.76	27503.64
506.93	27669.81
507.11	27536.40
507.28	27632.36
507.46	27686.20
507.63	27672.15
507.81	28105.15
507.98	27728.33
508.16	27833.65
508.33	28236.22
508.50	27953.02
508.68	28182.39
508.85	28587.30
509.03	28652.84
509.20	28273.67
509.38	29046.05
509.55	28786.25
509.73	28973.49
509.90	29074.13
510.08	28617.73
510.25	29027.32
510.42	29457.98
510.60	29413.51
510.77	29127.97
510.95	29724.80
511.12	29324.57
511.30	29745.87
511.47	29408.83
511.64	29596.07
511.82	29984.60
511.99	30026.73
512.17	30064.18
512.34	30108.65
512.51	29970.56
512.69	30436.33
512.86	30178.87
513.04	30274.83
513.21	30656.34
513.38	30295.89
513.56	30199.93
513.73	30429.30
513.90	30728.89
514.08	30778.04
514.25	30934.86
514.43	30689.10
514.60	30380.15
514.77	30412.92
514.95	31290.62
515.12	31079.97
515.29	30813.15
515.47	31187.64
515.64	31571.49
515.81	31625.32
515.99	31667.45
516.16	31229.77
516.33	31534.04
516.51	31601.91
516.68	31592.55
516.85	31302.32
517.03	31784.48
517.20	31653.40
517.37	31641.70
517.54	32215.13
517.72	31817.24
517.89	31931.93
518.06	32154.28
518.24	32217.47
518.41	31850.01
518.58	32332.16
518.75	31901.50
518.93	32481.95
519.10	32704.31
519.27	32577.92
519.45	32512.38
519.62	32835.38
519.79	32779.20
519.96	32933.68
520.14	33125.60
520.31	33017.94
520.48	32767.50
520.65	32804.95
520.83	33326.89
521.00	33247.31
521.17	33603.07
521.34	33439.23
521.52	33715.42
521.69	33809.04
521.86	33563.28
522.03	33851.17
522.20	33977.56
522.38	33984.58
522.55	34293.53
522.72	33907.34
522.89	34302.89
523.07	34602.48
523.24	34281.83
523.41	34415.24
523.58	34267.78
523.75	34567.37
523.92	34595.46
524.10	34698.44
524.27	34759.30
524.44	34653.97
524.61	34815.47
524.78	34712.49
524.96	34771.00
525.13	35267.19
525.30	35304.64
525.47	35295.28
525.64	35285.92
525.81	35644.02
525.98	35517.63
526.16	35091.65
526.33	35211.02
526.50	35498.91
526.67	34925.47
526.84	35147.82
527.01	35161.87
527.18	35592.53
527.36	35557.42
527.53	35955.31
527.70	36006.80
527.87	36306.39
528.04	35749.34
528.21	35674.45
528.38	35962.33
528.55	36222.13
528.72	36278.30
528.89	36304.05
529.07	36044.25
529.24	36102.76
529.41	36549.81
529.58	36563.85
529.75	36334.48
529.92	36610.66
530.09	36835.35
530.26	36596.62
530.43	36458.52
530.60	36435.12
530.77	36566.19
530.94	37504.74
531.11	36975.78
531.28	37003.87
531.46	37031.96
531.63	37336.23
531.80	37340.91
531.97	37319.84
532.14	37343.25
532.31	36835.35
532.48	37450.91
532.65	37165.37
532.82	37132.60
532.99	37532.83
533.16	37174.73
533.33	37574.96
533.50	37680.28
533.67	37617.09
533.84	37436.87
534.01	38000.94
534.18	37691.99
534.35	38122.65
534.52	37680.28
534.69	38017.32
534.86	38031.36
535.03	37549.21
535.20	38153.07
535.37	38007.96
535.54	38171.80
535.71	38157.75
535.88	38085.20
536.05	38057.11
536.22	38600.12
536.38	38314.57
536.55	38277.12
536.72	38478.41
536.89	38429.26
537.06	38192.86
537.23	38572.03
537.40	38452.66
537.57	38452.66
537.74	38747.57
537.91	38778.00
538.08	39175.89
538.25	39068.22
538.42	38501.81
538.59	38962.90
538.75	38387.13
538.92	38845.87
539.09	39007.37
539.26	38878.64
539.43	39187.59
539.60	39459.09
539.77	38492.45
539.94	39051.84
540.11	39033.11
540.28	39164.18
540.44	38960.56
540.61	38939.49
540.78	39234.40
540.95	39316.32
541.12	39044.82
541.29	39646.33
541.46	39665.06
541.62	39501.22
541.79	40072.31
541.96	39768.04
542.13	39452.07
542.30	39927.20
542.47	39318.66
542.63	39810.17
542.80	39580.80
542.97	40524.04
543.14	40577.87
543.31	40402.33
543.48	40407.01
543.64	40748.73
543.81	40659.79
543.98	40187.00
544.15	40187.00
544.32	40638.72
544.48	40928.95
544.65	40212.74
544.82	40767.45
544.99	40498.29
545.16	40800.22
545.32	40505.31
545.49	41003.85
545.66	41001.50
545.83	41015.55
546.00	41090.44
546.16	40722.98
546.33	41198.11
546.50	40421.05
546.67	40739.36
546.83	40575.53
547.00	40680.85
547.17	40858.73
547.34	41265.99
547.50	41181.73
547.67	41495.36
547.84	41308.11
548.00	41462.59
548.17	41474.29
548.34	41659.20
548.51	41862.82
548.67	41490.68
548.84	41474.29
549.01	41303.43
549.18	41581.96
549.34	41881.55
549.51	41336.20
549.68	41418.12
549.84	41670.90
550.01	41979.85
550.18	41439.18
550.34	41631.11
550.51	41642.81
550.68	41326.84
550.84	41928.36
551.01	41752.82
551.18	41907.29
551.34	41872.18
551.51	41893.25
551.68	41928.36
551.84	42312.20
552.01	41617.07
552.18	41928.36
552.34	41727.07
552.51	42094.53
552.68	42141.35
552.84	42302.84
553.01	42410.51
553.18	42508.81
553.34	42237.31
553.51	42199.86
553.67	42389.44
553.84	42265.39
554.01	43232.04
554.17	42796.70
554.34	42738.18
554.51	42436.25
554.67	42663.28
554.84	42462.00
555.00	42218.58
555.17	42703.07
555.33	42698.39
555.50	42738.18
555.67	42782.65
555.83	43042.45
556.00	42871.59
556.16	42895.00
556.33	42843.51
556.50	42689.03
556.66	42682.01
556.83	42696.05
556.99	43182.88
557.16	43173.52
557.32	42932.45
557.49	42930.11
557.65	42398.80
557.82	42972.24
557.98	43072.88
558.15	42871.59
558.32	43175.86
558.48	42946.49
558.65	43070.54
558.81	43239.06
558.98	43143.09
559.14	43068.20
559.31	42670.31
559.47	43636.95
559.64	43377.15
559.80	43503.54
559.97	43428.64
560.13	43103.31
560.30	43363.11
560.46	42997.98
560.63	43669.72
560.79	43487.15
560.96	43271.82
561.12	43360.76
561.29	43264.80
561.45	43597.16
561.61	43761.00
561.78	43608.86
561.94	43512.90
562.11	43519.92
562.27	43105.65
562.44	43379.49
562.60	43697.80
562.77	43852.28
562.93	43667.37
563.10	44009.09
563.26	43536.30
563.42	44156.55
563.59	43360.76
563.75	43821.85
563.92	43679.08
564.08	43782.06
564.24	44243.15
564.41	43693.12
564.57	43531.62
564.74	43882.70
564.90	43735.25
565.07	44189.31
565.23	43711.84
565.39	43807.81
565.56	44002.07
565.72	43978.67
565.88	43812.49
566.05	44332.09
566.21	43564.39
566.38	43531.62
566.54	44140.16
566.70	44306.34
566.87	44175.27
567.03	43941.22
567.19	44275.91
567.36	44294.64
567.52	44149.53
567.68	44086.33
567.85	43686.10
568.01	44041.86
568.17	43838.23
568.34	43899.09
568.50	44006.75
568.66	43819.51
568.83	44179.95
568.99	44196.34
569.15	44126.12
569.32	44243.15
569.48	43868.66
569.64	44690.19
569.81	44140.16
569.97	44158.89
570.13	44360.17
570.30	44224.42
570.46	43288.21
570.62	43952.92
570.78	43941.22
570.95	44109.74
571.11	44098.03
571.27	44516.99
571.43	44011.43
571.60	44311.02
571.76	44184.63
571.92	43995.05
572.09	44179.95
572.25	44404.64
572.41	44514.65
572.57	44304.00
572.74	44395.28
572.90	44509.97
573.06	44257.19
573.22	44306.34
573.38	44325.07
573.55	43952.92
573.71	44636.36
573.87	44287.62
574.03	43981.01
574.20	44402.30
574.36	44100.37
574.52	44467.84
574.68	44570.82
574.84	44715.93
575.01	43927.17
575.17	44186.97
575.33	44086.33
575.49	43920.15
575.65	44631.68
575.82	44371.88
575.98	44516.99
576.14	44395.28
576.30	44561.46
576.46	44165.91
576.62	44612.95
576.79	44390.60
576.95	43842.92
577.11	44559.12
577.27	44250.17
577.43	44313.36
577.59	44432.73
577.75	44563.80
577.92	44102.71
578.08	43959.94
578.24	43679.08
578.40	44231.44
578.56	44430.39
578.72	44105.06
578.88	44744.02
579.04	44432.73
579.21	44362.51
579.37	44041.86
579.53	44325.07
579.69	44083.99
579.85	44516.99
580.01	44367.20
580.17	44603.59
580.33	44624.65
580.49	44847.00
580.65	44406.98
580.82	44463.16
580.98	44619.97
581.14	44224.42
581.30	44617.63
581.46	44516.99
581.62	44781.47
581.78	44589.55
581.94	44935.95
582.10	44519.33
582.26	44907.86
582.42	44278.25
582.58	44526.35
582.74	44336.77
582.90	44610.61
583.06	44893.82
583.22	44615.29
583.38	44395.28
583.54	44435.07
583.70	44737.00
583.86	44348.47
584.02	44299.32
584.18	44292.30
584.34	44556.78
584.50	44205.70
584.66	44811.90
584.82	44428.05
584.98	44493.58
585.14	44856.37
585.30	44636.36
585.46	44453.79
585.62	44657.42
585.78	44488.90
585.94	44390.60
586.10	44507.63
586.26	44718.28
586.42	44634.02
586.58	44816.58
586.74	44390.60
586.90	44446.77
587.06	44428.05
587.22	44741.68
587.38	44589.55
587.54	44980.42
587.70	45003.82
587.86	44570.82
588.02	44575.50
588.18	44879.77
588.34	44961.69
588.49	44329.75
588.65	44711.25
588.81	44046.54
588.97	44460.82
589.13	44217.40
589.29	44430.39
589.45	44425.71
589.61	44676.15
589.77	45162.98
589.93	44659.76
590.08	44821.26
590.24	44652.74
590.40	44982.76
