SpectraSuite Data File
++++++++++++++++++++++++++++++++++++
Date: Fri Oct 25 11:22:49 EDT 2013
User: price-jones
Dark Spectrum Present: No
Reference Spectrum Present: No
Number of Sampled Component Spectra: 1
Spectrometers: USB2+H05261
Integration Time (usec): 100000 (USB2+H05261)
Spectra Averaged: 1 (USB2+H05261)
Boxcar Smoothing: 0 (USB2+H05261)
Correct for Electrical Dark: No (USB2+H05261)
Strobe/Lamp Enabled: No (USB2+H05261)
Correct for Detector Non-linearity: No (USB2+H05261)
Correct for Stray Light: No (USB2+H05261)
Number of Pixels in Processed Spectrum: 2048
>>>>>Begin Processed Spectral Data<<<<<
365.73	182.56
365.92	182.56
366.12	182.56
366.32	131.07
366.52	156.82
366.72	84.26
366.91	187.24
367.11	138.09
367.31	140.43
367.51	180.22
367.70	117.03
367.90	124.05
368.10	140.43
368.30	166.18
368.49	152.13
368.69	79.58
368.89	166.18
369.09	220.01
369.28	79.58
369.48	168.52
369.68	166.18
369.87	163.84
370.07	142.77
370.27	196.60
370.47	278.52
370.66	472.79
370.86	678.76
371.06	599.18
371.25	653.01
371.45	643.65
371.65	713.86
371.84	653.01
372.04	716.20
372.24	753.65
372.44	671.73
372.63	732.59
372.83	716.20
373.03	695.14
373.22	774.72
373.42	711.52
373.62	819.19
373.81	737.27
374.01	858.98
374.21	760.67
374.40	744.29
374.60	791.10
374.79	868.34
374.99	816.85
375.19	819.19
375.38	863.66
375.58	835.57
375.78	856.64
375.97	809.83
376.17	908.13
376.37	842.59
376.56	983.02
376.76	880.04
376.95	908.13
377.15	858.98
377.35	898.77
377.54	866.00
377.74	880.04
377.93	943.24
378.13	952.60
378.33	905.79
378.52	933.87
378.72	903.45
378.91	915.15
379.11	912.81
379.31	912.81
379.50	952.60
379.70	976.00
379.89	1090.69
380.09	887.06
380.28	950.26
380.48	987.71
380.68	1027.50
380.87	959.62
381.07	992.39
381.26	1011.11
381.46	915.15
381.65	1107.07
381.85	1076.65
382.04	1029.84
382.24	978.34
382.43	1086.01
382.63	1121.12
382.83	1086.01
383.02	1057.92
383.22	1036.86
383.41	1039.20
383.61	1111.75
383.80	1137.50
384.00	1128.14
384.19	1123.46
384.39	1090.69
384.58	1179.63
384.78	1104.73
384.97	1207.72
385.17	1158.57
385.36	1212.40
385.56	1226.44
385.75	1219.42
385.95	1219.42
386.14	1177.29
386.34	1221.76
386.53	1102.39
386.72	1247.51
386.92	1280.27
387.11	1242.82
387.31	1228.78
387.50	1200.69
387.70	1196.01
387.89	1299.00
388.09	1247.51
388.28	1275.59
388.48	1221.76
388.67	1240.48
388.86	1247.51
389.06	1310.70
389.25	1362.19
389.45	1296.66
389.64	1306.02
389.84	1387.94
390.03	1313.04
390.22	1331.76
390.42	1362.19
390.61	1301.34
390.81	1409.00
391.00	1387.94
391.19	1432.41
391.39	1483.90
391.58	1453.47
391.78	1504.96
391.97	1469.86
392.16	1427.73
392.36	1504.96
392.55	1551.78
392.75	1542.41
392.94	1514.33
393.13	1453.47
393.33	1474.54
393.52	1584.54
393.71	1533.05
393.91	1376.24
394.10	1577.52
394.29	1570.50
394.49	1619.65
394.68	1586.88
394.88	1734.34
395.07	1666.46
395.26	1640.72
395.46	1636.03
395.65	1629.01
395.84	1689.87
396.04	1685.19
396.23	1778.81
396.42	1703.91
396.62	1699.23
396.81	1795.19
397.00	1799.87
397.19	1849.02
397.39	1734.34
397.58	1816.26
397.77	1753.06
397.97	1856.04
398.16	1816.26
398.35	1916.90
398.55	1851.36
398.74	1944.99
398.93	2022.22
399.12	1994.14
399.32	1825.62
399.51	1888.81
399.70	1928.60
399.90	1984.77
400.09	2104.14
400.28	2113.50
400.47	2073.71
400.67	2115.84
400.86	2062.01
401.05	2033.93
401.24	1937.96
401.44	2232.87
401.63	2122.87
401.82	2242.23
402.01	2022.22
402.21	2186.06
402.40	2244.57
402.59	2127.55
402.78	2155.63
402.97	2272.66
403.17	2312.45
403.36	2310.11
403.55	2174.36
403.74	2347.56
403.93	2448.20
404.13	2342.88
404.32	2356.92
404.51	2244.57
404.70	2427.14
404.89	2340.54
405.09	2455.22
405.28	2445.86
405.47	2495.01
405.66	2495.01
405.85	2532.46
406.05	2532.46
406.24	2576.93
406.43	2485.65
406.62	2628.42
406.81	2597.99
407.00	2476.29
407.20	2569.91
407.39	2560.55
407.58	2684.59
407.77	2825.03
407.96	2719.70
408.15	2827.37
408.34	2736.09
408.54	2848.43
408.73	2829.71
408.92	2665.87
409.11	2853.11
409.30	2991.20
409.49	2902.26
409.68	2925.67
409.87	2923.33
410.07	3070.78
410.26	3042.70
410.45	2939.71
410.64	3049.72
410.83	3087.17
411.02	3133.98
411.21	3236.96
411.40	3211.22
411.59	3258.03
411.78	3143.34
411.98	3206.53
412.17	3297.81
412.36	3332.92
412.55	3342.28
412.74	3492.08
412.93	3318.88
413.12	3372.71
413.31	3686.34
413.50	3492.08
413.69	3428.88
413.88	3478.04
414.07	3627.83
414.26	3728.47
414.45	3531.87
414.64	3641.87
414.83	3796.35
415.02	3672.30
415.22	3805.71
415.41	3861.88
415.60	3824.44
415.79	4030.40
415.98	4021.04
416.17	4023.38
416.36	4067.85
416.55	3925.08
416.74	3995.29
416.93	4058.49
417.12	4046.79
417.31	4243.39
417.50	4117.00
417.69	4290.20
417.88	4329.99
418.07	4313.61
418.26	4397.87
418.45	4360.42
418.64	4615.54
418.83	4437.66
419.02	4456.38
419.21	4496.17
419.39	4514.89
419.58	4465.74
419.77	4547.66
419.96	4526.60
420.15	4779.37
420.34	4585.11
420.53	4709.16
420.72	4655.33
420.91	4798.10
421.10	4814.48
421.29	4645.96
421.48	4741.93
421.67	4861.29
421.86	4755.97
422.05	4830.87
422.24	4695.11
422.43	5015.77
422.61	4896.40
422.80	4940.87
422.99	5004.07
423.18	5048.54
423.37	5046.20
423.56	5041.51
423.75	4971.30
423.94	4922.15
424.13	4634.26
424.32	4807.46
424.50	4936.19
424.69	5289.61
424.88	5118.75
425.07	4931.51
425.26	4980.66
425.45	5004.07
425.64	4983.00
425.83	5001.72
426.01	5008.75
426.20	5125.77
426.39	4994.70
426.58	5130.45
426.77	5121.09
426.96	5205.35
427.15	5104.71
427.33	5247.48
427.52	5205.35
427.71	5231.10
427.90	5217.05
428.09	5221.74
428.28	5434.72
428.46	5275.57
428.65	5301.31
428.84	5701.54
429.03	5430.04
429.22	5460.47
429.40	5633.67
429.59	5542.39
429.78	5401.96
429.97	5233.44
430.16	5586.86
430.34	5493.24
430.53	5736.65
430.72	5689.84
430.91	5692.18
431.10	5659.42
431.28	5930.92
431.47	5738.99
431.66	5996.45
431.85	5729.63
432.03	5968.37
432.22	5944.96
432.41	5954.32
432.60	5912.19
432.79	6033.90
432.97	6132.20
433.16	5989.43
433.35	5982.41
433.54	6136.88
433.72	6181.35
433.91	6073.69
434.10	6193.06
434.28	6003.47
434.47	6242.21
434.66	6242.21
434.85	6272.64
435.03	6387.32
435.22	6354.55
435.41	6422.43
435.59	6384.98
435.78	6658.82
435.97	6588.61
436.16	6438.81
436.34	6560.52
436.53	6609.67
436.72	6656.48
436.90	6590.95
437.09	6817.98
437.28	6572.22
437.46	6771.17
437.65	6846.07
437.84	6675.21
438.02	6803.94
438.21	6696.27
438.40	6679.89
438.58	7255.66
438.77	7190.13
438.96	7016.93
439.14	7103.53
439.33	7241.62
439.52	7405.46
439.70	7290.77
439.89	7178.42
440.08	7391.41
440.26	7478.01
440.45	7332.90
440.63	7576.31
440.82	7585.68
441.01	7480.35
441.19	7754.19
441.38	7648.87
441.57	7819.73
441.75	7737.81
441.94	7960.16
442.12	8006.97
442.31	8042.08
442.50	7974.21
442.68	7964.84
442.87	8170.81
443.05	8177.83
443.24	8070.17
443.43	8187.19
443.61	8170.81
443.80	8339.33
443.98	8016.33
444.17	7901.65
444.35	8442.31
444.54	8348.69
444.73	8423.59
444.91	8334.65
445.10	8449.33
445.28	8503.17
445.47	8329.97
445.65	8458.70
445.84	8531.25
446.02	8505.51
446.21	8351.03
446.39	8465.72
446.58	8610.83
446.77	8582.74
446.95	8444.65
447.14	8554.66
447.32	8704.45
447.51	8465.72
447.69	8421.25
447.88	8641.26
448.06	8395.50
448.25	8505.51
448.43	8629.56
448.62	8491.46
448.80	8479.76
448.99	8655.30
449.17	8833.18
449.36	8702.11
449.54	8795.73
449.73	9067.24
449.91	9088.30
450.10	8987.66
450.28	9055.53
450.46	8964.25
450.65	9132.77
450.83	9100.00
451.02	9062.55
451.20	9275.54
451.39	9261.50
451.57	9046.17
451.76	9219.37
451.94	9415.98
452.13	9451.08
452.31	9486.19
452.49	9158.52
452.68	9320.01
452.86	9317.67
453.05	9394.91
453.23	9624.28
453.42	9481.51
453.60	9303.63
453.78	9514.28
453.97	9469.81
454.15	9423.00
454.34	9764.72
454.52	9713.22
454.70	9675.77
454.89	9916.85
455.07	10001.11
455.26	9792.80
455.44	9886.42
455.62	9966.00
455.81	9977.70
455.99	10319.42
456.17	9905.15
456.36	10253.89
456.54	10214.10
456.73	10195.37
456.91	10541.77
457.09	10434.11
457.28	10497.30
457.46	10375.59
457.64	10647.10
457.83	10406.02
458.01	10410.70
458.19	10724.33
458.38	10438.79
458.56	10787.53
458.74	10972.43
458.93	10874.13
459.11	10778.17
459.29	10841.36
459.48	10820.30
459.66	10850.72
459.84	10991.16
460.03	11257.98
460.21	11019.24
460.39	10902.22
460.57	11213.51
460.76	11204.14
460.94	11110.52
461.12	11389.05
461.31	11225.21
461.49	11117.54
461.67	11260.32
461.85	11576.29
462.04	11274.36
462.22	11644.17
462.40	11784.60
462.59	11604.38
462.77	11667.57
462.95	11868.86
463.13	11716.72
463.32	11616.08
463.50	11887.58
463.68	11873.54
463.86	11587.99
464.05	11686.29
464.23	11676.93
464.41	12093.55
464.59	11597.35
464.78	12191.85
464.96	11845.45
465.14	12016.31
465.32	12156.74
465.50	12292.49
465.69	12271.43
465.87	12414.20
466.05	12222.28
466.23	12318.24
466.41	12559.31
466.60	12592.08
466.78	12187.17
466.96	12121.63
467.14	12301.86
467.32	12737.20
467.51	12547.61
467.69	12060.78
467.87	12559.31
468.05	12807.41
468.23	12514.84
468.41	12524.21
468.60	12807.41
468.78	12774.64
468.96	12624.85
469.14	13121.04
469.32	12943.16
469.50	12676.34
469.69	13144.45
469.87	13301.26
470.05	13385.52
470.23	13135.09
470.41	13280.20
470.59	13263.82
470.77	13394.89
470.95	13640.64
471.14	13556.38
471.32	13139.77
471.50	13638.30
471.68	13486.17
471.86	13809.16
472.04	13710.86
472.22	14197.69
472.40	13706.18
472.58	13837.25
472.77	14115.77
472.95	13968.32
473.13	14691.54
473.31	14134.50
473.49	14345.14
473.67	14328.76
473.85	14270.25
474.03	14707.93
474.21	14684.52
474.39	14848.36
474.57	14696.22
474.75	14906.87
474.93	15098.80
475.12	15159.65
475.30	15276.68
475.48	15033.26
475.66	15545.84
475.84	15166.67
476.02	15370.30
476.20	15447.54
476.38	15772.87
476.56	16105.23
476.74	16140.33
476.92	15957.77
477.10	15899.26
477.28	16182.46
477.46	16184.80
477.64	16575.67
477.82	16793.34
478.00	17128.04
478.18	16959.52
478.36	17116.34
478.54	17287.20
478.72	17303.58
478.90	17165.49
479.08	17741.26
479.26	17481.46
479.44	17706.15
479.62	17944.89
479.80	18167.24
479.98	18452.78
480.16	18764.07
480.34	18670.45
480.52	18862.38
480.70	18719.60
480.88	18705.56
481.06	18848.33
481.24	18965.36
481.41	19445.17
481.59	19548.15
481.77	19765.82
481.95	19702.63
482.13	19798.59
482.31	19915.62
482.49	20535.86
482.67	20322.87
482.85	20695.02
483.03	20835.45
483.21	20767.57
483.39	21039.08
483.57	21256.75
483.74	21135.04
483.92	21818.47
484.10	21436.97
484.28	21916.78
484.46	22277.22
484.64	22431.69
484.82	21956.57
485.00	22328.71
485.18	22841.29
485.35	23145.56
485.53	22817.88
485.71	23129.17
485.89	23630.05
486.07	23316.42
486.25	23735.37
486.43	23655.79
486.61	23936.66
486.78	24198.80
486.96	24254.97
487.14	24304.12
487.32	24772.23
487.50	25163.10
487.68	25294.17
487.85	25642.91
488.03	25816.11
488.21	26031.44
488.39	25991.65
488.57	26286.56
488.75	26300.60
488.92	26684.45
489.10	26778.07
489.28	26831.90
489.46	27461.51
489.64	27337.46
489.81	28020.89
489.99	27805.56
490.17	27861.74
490.35	28491.34
490.53	28112.17
490.70	28926.68
490.88	28247.93
491.06	28886.89
491.24	28786.25
491.41	28994.56
491.59	29324.57
491.77	29167.76
491.95	29694.38
492.13	30167.16
492.30	30096.95
492.48	30167.16
492.66	30436.33
492.84	30787.41
493.01	30869.33
493.19	30955.93
493.37	31234.45
493.54	31393.61
493.72	31618.30
493.90	31864.05
494.08	31985.76
494.25	32659.84
494.43	32334.50
494.61	32634.09
494.79	32769.84
494.96	32786.22
495.14	33200.50
495.32	33509.45
495.49	33303.48
495.67	33689.67
495.85	33921.38
496.02	34043.09
496.20	33958.83
496.38	34705.46
496.55	34202.25
496.73	35204.00
496.91	34738.23
497.09	35014.41
497.26	35569.12
497.44	35178.25
497.62	35295.28
497.79	36210.43
497.97	35501.25
498.14	36346.18
498.32	36442.14
498.50	36589.59
498.67	37003.87
498.85	36526.40
499.03	37102.17
499.20	37209.84
499.38	37249.63
499.56	37366.65
499.73	37525.81
499.91	37624.11
500.08	37773.91
500.26	37713.05
500.44	37848.80
500.61	38054.77
500.79	38031.36
500.97	38480.75
501.14	38738.21
501.32	38754.59
501.49	38679.69
501.67	38721.82
501.84	38766.29
502.02	38988.64
502.20	39192.27
502.37	39538.67
502.55	39313.98
502.72	40053.59
502.90	39641.65
503.07	39878.05
503.25	40332.11
503.43	40177.64
503.60	40964.06
503.78	40341.47
503.95	40519.35
504.13	40772.13
504.30	41120.87
504.48	40973.42
504.65	40776.81
504.83	41219.17
505.01	41706.01
505.18	41659.20
505.36	42057.09
505.53	41375.99
505.71	41556.21
505.88	41949.42
506.06	41872.18
506.23	42277.10
506.41	42342.63
506.58	42412.85
506.76	42380.08
506.93	42768.61
507.11	42560.30
507.28	43012.02
507.46	43185.22
507.63	42682.01
507.81	43388.85
507.98	42965.21
508.16	43711.84
508.33	43632.27
508.50	43779.72
508.68	43929.51
508.85	44016.11
509.03	44048.88
509.20	44376.56
509.38	44385.92
509.55	44720.62
509.73	44865.73
509.90	45013.18
510.08	44704.23
510.25	44732.32
510.42	44980.42
510.60	45050.63
510.77	45537.46
510.95	46066.42
511.12	45326.81
511.30	45474.27
511.47	45848.75
511.64	45766.84
511.82	45825.35
511.99	45918.97
512.17	46167.07
512.34	46054.72
512.51	46789.65
512.69	46529.85
512.86	46593.04
513.04	46848.16
513.21	46801.35
513.38	46890.29
513.56	46780.29
513.73	46955.83
513.90	47423.93
514.08	47433.30
514.25	47707.14
514.43	47515.22
514.60	47845.23
514.77	47833.53
514.95	47751.61
515.12	48062.90
515.29	48098.01
515.47	48093.33
515.64	48652.72
515.81	48774.42
515.99	48502.92
516.16	48526.33
516.33	48612.93
516.51	49064.65
516.68	48802.51
516.85	48868.05
517.03	49188.70
517.20	48884.43
517.37	48706.55
517.54	49188.70
517.72	49191.04
517.89	49261.26
518.06	49347.86
518.24	49523.40
518.41	49675.53
518.58	49598.29
518.75	49301.04
518.93	49925.97
519.10	49860.43
519.27	49783.19
519.45	49925.97
519.62	50373.01
519.79	50141.30
519.96	50071.08
520.14	50225.56
520.31	50267.69
520.48	50747.50
520.65	50321.52
520.83	50588.34
521.00	50864.52
521.17	50621.11
521.34	50717.07
521.52	51136.02
521.69	51452.00
521.86	51285.82
522.03	51562.00
522.20	51384.12
522.38	51922.44
522.55	51730.52
522.72	51351.35
522.89	51819.46
523.07	51798.40
523.24	51695.41
523.41	51849.89
523.58	51742.22
523.75	52299.27
523.92	52126.07
524.10	52013.73
524.27	52341.40
524.44	52067.56
524.61	52147.14
524.78	52505.24
524.96	52425.66
525.13	52650.35
525.30	52701.84
525.47	52779.08
525.64	52673.76
525.81	52699.50
525.98	52917.17
526.16	52755.68
526.33	53092.71
526.50	53310.38
526.67	52793.12
526.84	53104.41
527.01	53242.51
527.18	53258.89
527.36	53212.08
527.53	53294.00
527.70	53577.20
527.87	53537.41
528.04	53188.67
528.21	53579.54
528.38	53464.86
528.55	53829.98
528.72	53602.95
528.89	53530.39
529.07	53364.21
529.24	53886.15
529.41	53829.98
529.58	53890.83
529.75	53834.66
529.92	54010.20
530.09	54103.82
530.26	54120.21
530.43	54195.10
530.60	54064.03
530.77	53942.33
530.94	54349.58
531.11	54241.92
531.28	54209.15
531.46	54365.96
531.63	54422.14
531.80	54422.14
531.97	54784.92
532.14	54445.54
532.31	54508.74
532.48	54777.90
532.65	54817.69
532.82	54688.96
532.99	54859.82
533.16	54719.38
533.33	55152.38
533.50	55128.98
533.67	55091.53
533.84	54941.74
534.01	54990.89
534.18	55114.94
534.35	55707.09
534.52	55117.28
534.69	55260.05
534.86	55583.04
535.03	55374.73
535.20	55260.05
535.37	55227.28
535.54	55234.30
535.71	55299.84
535.88	55512.83
536.05	55505.80
536.22	55702.41
536.38	55983.27
536.55	55915.40
536.72	55901.36
536.89	55695.39
537.06	55884.97
537.23	56147.11
537.40	55800.71
537.57	55831.14
537.74	56053.49
537.91	56191.58
538.08	56231.37
538.25	55842.84
538.42	55934.12
538.59	56420.95
538.75	56238.39
538.92	56193.92
539.09	56484.15
539.26	56360.10
539.43	56254.78
539.60	56317.97
539.77	56329.67
539.94	56484.15
540.11	56545.00
540.28	56818.84
540.44	56762.67
540.61	56554.36
540.78	56680.75
540.95	56549.68
541.12	56465.42
541.29	56512.23
541.46	56736.93
541.62	56715.86
541.79	56860.97
541.96	56472.45
542.13	56680.75
542.30	57041.20
542.47	56970.98
542.63	57045.88
542.80	57071.62
542.97	57293.97
543.14	57312.70
543.31	57153.54
543.48	57406.32
543.64	57565.48
543.81	57708.25
543.98	57628.67
544.15	57558.45
544.32	57549.09
544.48	57549.09
544.65	57523.35
544.82	57523.35
544.99	57446.11
545.16	57748.04
545.32	57485.90
545.49	57949.32
545.66	57982.09
545.83	58010.18
546.00	57874.43
546.16	57869.75
546.33	57733.99
546.50	57684.84
546.67	57769.10
546.83	57670.80
547.00	57888.47
547.17	58007.84
547.34	57946.98
547.50	58277.00
547.67	58204.44
547.84	58061.67
548.00	58155.29
548.17	58349.56
548.34	58375.30
548.51	58319.13
548.67	58497.01
548.84	58291.04
549.01	58197.42
549.18	58092.10
549.34	58518.07
549.51	58590.63
549.68	58651.48
549.84	58515.73
550.01	58574.25
550.18	58489.99
550.34	58674.89
550.51	58532.12
550.68	58548.50
550.84	58403.39
551.01	58911.28
551.18	58656.17
551.34	58969.80
551.51	58728.72
551.68	58747.45
551.84	58745.11
552.01	58775.53
552.18	58843.41
552.34	58684.25
552.51	58960.44
552.68	58623.40
552.84	58829.37
553.01	59037.67
553.18	59070.44
553.34	58866.81
553.51	58808.30
553.67	59007.25
553.84	59201.51
554.01	59100.87
554.17	59068.10
554.34	59100.87
554.51	59089.16
554.67	59276.41
554.84	59236.62
555.00	59128.95
555.17	59171.08
555.33	59372.37
555.50	59133.63
555.67	59222.58
555.83	59224.92
556.00	59241.30
556.16	59461.31
556.33	59646.21
556.50	59465.99
556.66	59444.93
556.83	59231.94
556.99	59568.97
557.16	59646.21
557.32	59718.77
557.49	59784.30
557.65	59650.89
557.82	59625.15
557.98	59611.10
558.15	59536.21
558.32	59704.73
558.48	59447.27
558.65	59641.53
558.81	59728.13
558.98	59777.28
559.14	59798.35
559.31	60055.81
559.47	59784.30
559.64	59767.92
559.80	59908.35
559.97	60016.02
560.13	59826.43
560.30	59840.48
560.46	59849.84
560.63	59838.14
560.79	60037.08
560.96	59941.12
561.12	60030.06
561.29	59763.24
561.45	60205.60
561.61	60069.85
561.78	60090.91
561.94	59985.59
562.11	60058.15
562.27	59976.23
562.44	60149.43
562.60	60219.64
562.77	60259.43
562.93	59784.30
563.10	60067.51
563.26	60123.68
563.42	60264.11
563.59	60170.49
563.75	60243.05
563.92	60023.04
564.08	60257.09
564.24	60266.45
564.41	60257.09
564.57	60458.38
564.74	60360.08
564.90	60425.61
565.07	60376.46
565.23	60240.71
565.39	60292.20
565.56	60439.65
565.72	60252.41
565.88	60240.71
566.05	60207.94
566.21	60383.48
566.38	60463.06
566.54	60367.10
566.70	60350.71
566.87	60582.43
567.03	60521.57
567.19	60645.62
567.36	60587.11
567.52	60383.48
567.68	60722.86
567.85	60624.56
568.01	60463.06
568.17	60420.93
568.34	60563.70
568.50	60617.53
568.66	60453.70
568.83	60404.55
568.99	60528.59
569.15	60626.90
569.32	60652.64
569.48	60509.87
569.64	60629.24
569.81	60463.06
569.97	60537.96
570.13	60687.75
570.30	60589.45
570.46	60580.09
570.62	60779.03
570.78	60832.86
570.95	60544.98
571.11	60669.03
571.27	60662.00
571.43	60711.16
571.60	60928.83
571.76	60800.10
571.92	60701.79
572.09	60926.49
572.25	60549.66
572.41	60767.33
572.57	60949.89
572.74	61006.06
572.90	60853.93
573.06	60884.36
573.22	60753.29
573.38	60818.82
573.55	60779.03
573.71	61024.79
573.87	60793.07
574.03	60589.45
574.20	60690.09
574.36	60699.45
574.52	60842.23
574.68	60605.83
574.84	60837.54
575.01	60987.34
575.17	60975.64
575.33	60835.20
575.49	60835.20
575.65	61057.56
575.82	61144.16
575.98	61080.96
576.14	61153.52
576.30	61151.18
576.46	60891.38
576.62	60940.53
576.79	60898.40
576.95	60683.07
577.11	60994.36
577.27	60982.66
577.43	60977.98
577.59	60903.08
577.75	60975.64
577.92	60900.74
578.08	61024.79
578.24	61197.99
578.40	61197.99
578.56	61066.92
578.72	61073.94
578.88	61031.81
579.04	61111.39
579.21	61066.92
579.37	61207.35
579.53	61188.63
579.69	60858.61
579.85	61153.52
580.01	61073.94
580.17	60982.66
580.33	61038.83
580.49	61116.07
580.65	61244.80
580.82	61104.37
580.98	60985.00
581.14	60970.96
581.30	61076.28
581.46	61020.11
581.62	61169.90
581.78	61205.01
581.94	61291.61
582.10	60952.23
582.26	61137.13
582.42	60999.04
582.58	61080.96
582.74	60823.50
582.90	61139.47
583.06	61139.47
583.22	60989.68
583.38	60945.21
583.54	61233.10
583.70	61148.84
583.86	61240.12
584.02	61052.87
584.18	61083.30
584.34	61300.97
584.50	61132.45
584.66	61029.47
584.82	61034.15
584.98	61137.13
585.14	61083.30
585.30	61062.24
585.46	61041.17
585.62	61066.92
585.78	61389.91
585.94	60992.02
586.10	61216.71
586.26	61027.13
586.42	61310.33
586.58	61205.01
586.74	61043.51
586.90	61099.68
587.06	61099.68
587.22	61340.76
587.38	61146.50
587.54	61354.80
587.70	61436.72
587.86	61251.82
588.02	61155.86
588.18	61312.67
588.34	61425.02
588.49	61172.24
