SpectraSuite Data File
++++++++++++++++++++++++++++++++++++
Date: Fri Oct 25 11:24:06 EDT 2013
User: price-jones
Dark Spectrum Present: No
Reference Spectrum Present: No
Number of Sampled Component Spectra: 1
Spectrometers: USB2+H05261
Integration Time (usec): 100000 (USB2+H05261)
Spectra Averaged: 1 (USB2+H05261)
Boxcar Smoothing: 0 (USB2+H05261)
Correct for Electrical Dark: No (USB2+H05261)
Strobe/Lamp Enabled: No (USB2+H05261)
Correct for Detector Non-linearity: No (USB2+H05261)
Correct for Stray Light: No (USB2+H05261)
Number of Pixels in Processed Spectrum: 2048
>>>>>Begin Processed Spectral Data<<<<<
365.73	308.95
365.92	308.95
366.12	308.95
366.32	112.35
366.52	102.98
366.72	191.92
366.91	98.30
367.11	67.88
367.31	112.35
367.51	135.75
367.70	95.96
367.90	170.86
368.10	156.82
368.30	152.13
368.49	175.54
368.69	88.94
368.89	161.50
369.09	173.20
369.28	128.73
369.48	91.28
369.68	187.24
369.87	147.45
370.07	259.80
370.27	201.29
370.47	313.63
370.66	535.98
370.86	594.50
371.06	660.03
371.25	667.05
371.45	641.31
371.65	681.10
371.84	692.80
372.04	678.76
372.24	692.80
372.44	718.54
372.63	634.29
372.83	732.59
373.03	727.91
373.22	676.41
373.42	784.08
373.62	798.12
373.81	713.86
374.01	816.85
374.21	851.96
374.40	828.55
374.60	894.08
374.79	903.45
374.99	723.23
375.19	826.21
375.38	809.83
375.58	840.25
375.78	891.74
375.97	915.15
376.17	959.62
376.37	828.55
376.56	896.43
376.76	823.87
376.95	870.68
377.15	968.98
377.35	816.85
377.54	877.70
377.74	861.32
377.93	950.26
378.13	938.55
378.33	905.79
378.52	889.40
378.72	917.49
378.91	938.55
379.11	992.39
379.31	889.40
379.50	903.45
379.70	990.05
379.89	1015.79
380.09	1081.33
380.28	1015.79
380.48	929.19
380.68	976.00
380.87	957.28
381.07	1001.75
381.26	1032.18
381.46	1109.41
381.65	1001.75
381.85	1088.35
382.04	1036.86
382.24	1057.92
382.43	1067.28
382.63	1114.10
382.83	1039.20
383.02	1109.41
383.22	1179.63
383.41	1093.03
383.61	1130.48
383.80	1074.31
384.00	1086.01
384.19	1078.99
384.39	1109.41
384.58	1165.59
384.78	1160.91
384.97	1170.27
385.17	1203.04
385.36	1163.25
385.56	1146.86
385.75	1123.46
385.95	1247.51
386.14	1214.74
386.34	1228.78
386.53	1170.27
386.72	1167.93
386.92	1221.76
387.11	1238.14
387.31	1275.59
387.50	1203.04
387.70	1266.23
387.89	1341.13
388.09	1266.23
388.28	1322.40
388.48	1310.70
388.67	1362.19
388.86	1289.64
389.06	1219.42
389.25	1343.47
389.45	1364.53
389.64	1338.79
389.84	1397.30
390.03	1352.83
390.22	1409.00
390.42	1423.05
390.61	1313.04
390.81	1413.68
391.00	1390.28
391.19	1469.86
391.39	1420.71
391.58	1486.24
391.78	1493.26
391.97	1383.26
392.16	1385.60
392.36	1469.86
392.55	1481.56
392.75	1446.45
392.94	1605.61
393.13	1572.84
393.33	1434.75
393.52	1643.06
393.71	1661.78
393.91	1596.25
394.10	1556.46
394.29	1490.92
394.49	1586.88
394.68	1607.95
394.88	1540.07
395.07	1584.54
395.26	1621.99
395.46	1727.32
395.65	1673.48
395.84	1652.42
396.04	1799.87
396.23	1898.17
396.42	1720.29
396.62	1792.85
396.81	1809.23
397.00	1715.61
397.19	1734.34
397.39	1802.21
397.58	1820.94
397.77	1830.30
397.97	1832.64
398.16	1839.66
398.35	1834.98
398.55	1919.24
398.74	1961.37
398.93	1947.33
399.12	1930.94
399.32	1839.66
399.51	1914.56
399.70	1942.64
399.90	1872.43
400.09	1987.11
400.28	2033.93
400.47	2031.58
400.67	2113.50
400.86	2099.46
401.05	2097.12
401.24	2122.87
401.44	2120.53
401.63	2076.06
401.82	2179.04
402.01	2221.17
402.21	2176.70
402.40	2246.91
402.59	2267.98
402.78	2160.31
402.97	2181.38
403.17	2356.92
403.36	2265.64
403.55	2204.78
403.74	2286.70
403.93	2335.85
404.13	2300.75
404.32	2387.35
404.51	2375.64
404.70	2406.07
404.89	2448.20
405.09	2415.43
405.28	2471.61
405.47	2504.37
405.66	2612.04
405.85	2539.48
406.05	2476.29
406.24	2665.87
406.43	2567.57
406.62	2572.25
406.81	2796.94
407.00	2544.16
407.20	2661.19
407.39	2654.17
407.58	2670.55
407.77	2696.30
407.96	2820.35
408.15	2754.81
408.34	2698.64
408.54	2803.96
408.73	2764.17
408.92	2832.05
409.11	2869.50
409.30	2862.48
409.49	2841.41
409.68	2881.20
409.87	2972.48
410.07	2963.12
410.26	3119.93
410.45	3045.04
410.64	3150.36
410.83	3101.21
411.02	3148.02
411.21	3101.21
411.40	3033.33
411.59	3253.34
411.78	3166.74
411.98	3164.40
412.17	3255.69
412.36	3218.24
412.55	3522.51
412.74	3344.63
412.93	3433.57
413.12	3468.67
413.31	3496.76
413.50	3447.61
413.69	3449.95
413.88	3515.48
414.07	3665.28
414.26	3604.42
414.45	3569.32
414.64	3602.08
414.83	3758.90
415.02	3894.65
415.22	3899.33
415.41	3808.05
415.60	3733.15
415.79	3850.18
415.98	3969.55
416.17	4032.74
416.36	3896.99
416.55	4049.13
416.74	4117.00
416.93	4049.13
417.12	4109.98
417.31	4189.56
417.50	4196.58
417.69	4313.61
417.88	4325.31
418.07	4297.22
418.26	4348.72
418.45	4397.87
418.64	4542.98
418.83	4332.33
419.02	4301.90
419.21	4468.08
419.39	4496.17
419.58	4465.74
419.77	4554.68
419.96	4535.96
420.15	4610.86
420.34	4514.89
420.53	4526.60
420.72	4856.61
420.91	4772.35
421.10	4655.33
421.29	4992.36
421.48	4734.90
421.67	4753.63
421.86	4821.50
422.05	4997.04
422.24	4615.54
422.43	4968.96
422.61	4961.94
422.80	4954.91
422.99	4954.91
423.18	4936.19
423.37	5050.88
423.56	5006.41
423.75	4992.36
423.94	4994.70
424.13	4755.97
424.32	4753.63
424.50	4945.55
424.69	4947.89
424.88	5029.81
425.07	4835.55
425.26	4847.25
425.45	4950.23
425.64	4926.83
425.83	5036.83
426.01	5048.54
426.20	5001.72
426.39	5114.07
426.58	5029.81
426.77	4964.28
426.96	5039.17
427.15	5191.31
427.33	5259.18
427.52	5174.92
427.71	5338.76
427.90	5186.63
428.09	5268.55
428.28	5341.10
428.46	5434.72
428.65	5430.04
428.84	5479.19
429.03	5434.72
429.22	5357.49
429.40	5486.22
429.59	5556.43
429.78	5359.83
429.97	5282.59
430.16	5533.03
430.34	5558.77
430.53	5689.84
430.72	5692.18
430.91	5572.82
431.10	5614.95
431.28	5680.48
431.47	5668.78
431.66	5708.57
431.85	5811.55
432.03	5863.04
432.22	5841.98
432.41	5895.81
432.60	5921.56
432.79	5839.64
432.97	6167.31
433.16	6122.84
433.35	5959.00
433.54	6167.31
433.72	6090.07
433.91	6171.99
434.10	6328.81
434.28	6228.17
434.47	6221.14
434.66	6368.60
434.85	6209.44
435.03	6480.94
435.22	6427.11
435.41	6539.46
435.59	6431.79
435.78	6504.35
435.97	6476.26
436.16	6530.09
436.34	6450.52
436.53	6661.16
436.72	6801.60
436.90	6410.73
437.09	6607.33
437.28	6539.46
437.46	6537.12
437.65	6609.67
437.84	6808.62
438.02	6712.66
438.21	6899.90
438.40	6604.99
438.58	6918.62
438.77	7007.56
438.96	6813.30
439.14	6979.48
439.33	7318.86
439.52	7332.90
439.70	7215.87
439.89	7281.41
440.08	7375.03
440.26	7400.77
440.45	7307.15
440.63	7276.73
440.82	7616.10
441.01	7569.29
441.19	7529.50
441.38	7609.08
441.57	7885.26
441.75	7775.26
441.94	8142.72
442.12	8030.38
442.31	8138.04
442.50	7934.42
442.68	8028.04
442.87	8100.59
443.05	8091.23
443.24	8173.15
443.43	8306.56
443.61	8212.94
443.80	8519.55
443.98	8189.53
444.17	7838.45
444.35	8205.92
444.54	8463.38
444.73	8402.52
444.91	8325.29
445.10	8297.20
445.28	8442.31
445.47	8351.03
445.65	8325.29
445.84	8599.13
446.02	8730.20
446.21	8341.67
446.39	8269.11
446.58	8461.04
446.77	8706.79
446.95	8379.12
447.14	8566.36
447.32	8615.51
447.51	8517.21
447.69	8503.17
447.88	8479.76
448.06	8760.63
448.25	8638.92
448.43	8671.68
448.62	8603.81
448.80	8435.29
448.99	8706.79
449.17	8863.61
449.36	8734.88
449.54	8802.75
449.73	8952.55
449.91	9217.03
450.10	8943.19
450.28	8982.98
450.46	8978.30
450.65	9144.47
450.83	9060.21
451.02	9027.45
451.20	9312.99
451.39	9015.74
451.57	9022.77
451.76	9144.47
451.94	9275.54
452.13	9202.99
452.31	9205.33
452.49	9165.54
452.68	9352.78
452.86	9425.34
453.05	9312.99
453.23	9708.54
453.42	9385.55
453.60	9338.74
453.78	9659.39
453.97	9654.71
454.15	9432.36
454.34	9540.02
454.52	9699.18
454.70	9865.36
454.89	9701.52
455.07	9722.59
455.26	9902.81
455.44	9991.75
455.62	9687.48
455.81	10029.20
455.99	9966.00
456.17	10125.16
456.36	10204.74
456.54	10289.00
456.73	10251.55
456.91	10597.95
457.09	10490.28
457.28	10635.39
457.46	10300.70
457.64	10544.11
457.83	10614.33
458.01	10452.83
458.19	10939.66
458.38	10602.63
458.56	10932.64
458.74	10677.52
458.93	10787.53
459.11	10775.83
459.29	10593.26
459.48	10855.40
459.66	10698.59
459.84	10932.64
460.03	11257.98
460.21	10916.26
460.39	11110.52
460.57	11192.44
460.76	11014.56
460.94	11077.76
461.12	11131.59
461.31	11110.52
461.49	11316.49
461.67	11124.57
461.85	11496.71
462.04	11309.47
462.22	11527.14
462.40	11683.95
462.59	11529.48
462.77	11634.80
462.95	11660.55
463.13	11602.04
463.32	11562.25
463.50	11885.24
463.68	11990.56
463.86	11887.58
464.05	11681.61
464.23	11618.42
464.41	12238.66
464.59	11754.17
464.78	12154.40
464.96	12049.08
465.14	11932.05
465.32	12114.61
465.50	12168.45
465.69	12131.00
465.87	12386.12
466.05	12093.55
466.23	12196.53
466.41	12229.30
466.60	12425.90
466.78	12131.00
466.96	12418.88
467.14	12395.48
467.32	12374.41
467.51	12585.06
467.69	12315.90
467.87	12421.22
468.05	12674.00
468.23	12566.34
468.41	12507.82
468.60	12671.66
468.78	12812.09
468.96	12580.38
469.14	12807.41
469.32	12947.84
469.50	12823.80
469.69	13043.81
469.87	12837.84
470.05	13041.46
470.23	13240.41
470.41	13011.04
470.59	13532.98
470.77	13069.55
470.95	13334.03
471.14	13434.68
471.32	13329.35
471.50	13694.47
471.68	13661.71
471.86	13661.71
472.04	13666.39
472.22	14242.16
472.40	13687.45
472.58	13916.83
472.77	13907.46
472.95	13973.00
473.13	14485.58
473.31	14230.46
473.49	14221.10
473.67	14001.08
473.85	14359.19
474.03	14391.95
474.21	14747.72
474.39	14768.78
474.57	14761.76
474.75	14979.43
474.93	14871.76
475.12	15166.67
475.30	15267.31
475.48	14979.43
475.66	15337.53
475.84	15077.73
476.02	15456.90
476.20	15349.23
476.38	15712.02
476.56	16095.86
476.74	16121.61
476.92	15889.90
477.10	15892.24
477.28	16229.27
477.46	16341.62
477.64	16325.24
477.82	16383.75
478.00	17081.23
478.18	17008.67
478.36	16936.12
478.54	17287.20
478.72	17371.46
478.90	17235.70
479.08	17797.43
479.26	17640.62
479.44	17530.61
479.62	17762.33
479.80	18019.78
479.98	18059.57
480.16	18490.23
480.34	18157.88
480.52	18988.77
480.70	18574.49
480.88	18588.53
481.06	18768.76
481.24	18836.63
481.41	19173.67
481.59	19653.48
481.77	19297.72
481.95	19477.94
482.13	19681.56
482.31	20044.35
482.49	20189.46
482.67	20318.19
482.85	20395.43
483.03	20833.11
483.21	21027.37
483.39	21118.65
483.57	20898.64
483.74	21116.31
483.92	21474.42
484.10	21158.44
484.28	21865.28
484.46	21994.01
484.64	22347.44
484.82	22242.11
485.00	22328.71
485.18	22728.94
485.35	23201.73
485.53	23171.30
485.71	22787.46
485.89	23573.88
486.07	23234.50
486.25	23524.72
486.43	23487.28
486.61	23784.52
486.78	24116.88
486.96	24290.08
487.14	25039.05
487.32	24500.73
487.50	25249.70
487.68	24634.14
487.85	25521.20
488.03	25736.53
488.21	26103.99
488.39	26026.76
488.57	26272.51
488.75	26366.13
488.92	26314.64
489.10	26366.13
489.28	26962.97
489.46	27115.11
489.64	27126.81
489.81	27749.39
489.99	27859.40
490.17	27793.86
490.35	28292.40
490.53	28074.73
490.70	28208.14
490.88	28128.56
491.06	28802.63
491.24	28858.81
491.41	29102.22
491.59	29275.42
491.77	29408.83
491.95	29607.78
492.13	29905.02
492.30	30394.20
492.48	30029.07
492.66	30305.26
492.84	30115.67
493.01	30682.08
493.19	30691.44
493.37	30939.54
493.54	31622.98
493.72	31456.80
493.90	31421.69
494.08	31758.73
494.25	32325.14
494.43	32133.21
494.61	32505.36
494.79	32645.79
494.96	32622.39
495.14	32638.77
495.32	33474.34
495.49	33500.09
495.67	33010.92
495.85	33839.47
496.02	33926.07
496.20	33785.63
496.38	33963.51
496.55	33916.70
496.73	34745.25
496.91	34469.07
497.09	34630.57
497.26	35325.71
497.44	34862.28
497.62	35201.66
497.79	36250.22
497.97	35580.82
498.14	36018.50
498.32	36591.94
498.50	36392.99
498.67	36732.37
498.85	36451.50
499.03	36931.31
499.20	36966.42
499.38	37076.43
499.56	37230.90
499.73	37570.28
499.91	37570.28
500.08	37357.29
500.26	37361.97
500.44	37635.81
500.61	37773.91
500.79	37401.76
500.97	37895.61
501.14	38824.81
501.32	39105.67
501.49	38567.35
501.67	38562.67
501.84	38962.90
502.02	38981.62
502.20	39461.43
502.37	39590.16
502.55	39438.03
502.72	39468.45
502.90	39749.32
503.07	39260.15
503.25	39864.00
503.43	39803.15
503.60	40299.34
503.78	40879.80
503.95	40081.67
504.13	40844.69
504.30	40608.29
504.48	40507.65
504.65	40669.15
504.83	41160.66
505.01	41844.10
505.18	41450.89
505.36	41474.29
505.53	41429.82
505.71	41600.68
505.88	42202.20
506.06	41350.24
506.23	42134.32
506.41	41867.50
506.58	42230.29
506.76	42394.12
506.93	42684.35
507.11	42550.94
507.28	42766.27
507.46	42749.88
507.63	42813.08
507.81	43320.98
507.98	43145.44
508.16	43201.61
508.33	43601.84
508.50	43922.49
508.68	43636.95
508.85	44140.16
509.03	43665.03
509.20	44069.95
509.38	44910.20
509.55	44306.34
509.73	44158.89
509.90	45008.50
510.08	44601.25
510.25	45165.32
510.42	44701.89
510.60	44781.47
510.77	45345.54
510.95	45076.38
511.12	45640.45
511.30	45272.98
511.47	45633.42
511.64	45689.60
511.82	45682.58
511.99	45890.88
512.17	45682.58
512.34	46340.27
512.51	46543.89
512.69	46836.46
512.86	46595.38
513.04	46719.43
513.21	46719.43
513.38	46831.78
513.56	47110.30
513.73	46759.22
513.90	47033.07
514.08	46946.47
514.25	47143.07
514.43	47136.05
514.60	47339.68
514.77	47421.59
514.95	47952.90
515.12	47662.67
515.29	48002.05
515.47	48252.48
515.64	48418.66
515.81	47927.15
515.99	48615.27
516.16	48669.10
516.33	48390.58
516.51	49055.29
516.68	48722.93
516.85	48690.16
517.03	49366.58
517.20	48753.36
517.37	49029.54
517.54	49263.60
517.72	49347.86
517.89	49329.13
518.06	49385.30
518.24	49333.81
518.41	49256.57
518.58	49558.50
518.75	49544.46
518.93	49579.57
519.10	49467.22
519.27	49490.63
519.45	49935.33
519.62	49921.29
519.79	49607.65
519.96	50054.70
520.14	50396.42
520.31	49996.18
520.48	50555.57
520.65	50309.82
520.83	50719.41
521.00	50522.80
521.17	50597.70
521.34	50459.61
521.52	51241.35
521.69	51082.19
521.86	50955.80
522.03	51461.36
522.20	51423.91
522.38	51765.63
522.55	51339.65
522.72	51421.57
522.89	51456.68
523.07	51515.19
523.24	51660.30
523.41	52062.88
523.58	51456.68
523.75	52313.31
523.92	51955.21
524.10	52325.02
524.27	52018.41
524.44	51922.44
524.61	51807.76
524.78	52409.28
524.96	52514.60
525.13	52128.41
525.30	52444.38
525.47	52296.93
525.64	52470.13
525.81	52762.70
525.98	52776.74
526.16	52783.76
526.33	52556.73
526.50	52959.30
526.67	52872.70
526.84	53041.22
527.01	53076.33
527.18	52699.50
527.36	53010.79
527.53	53216.76
527.70	53240.17
527.87	53673.16
528.04	53450.81
528.21	53546.78
528.38	53600.61
528.55	53762.11
528.72	53848.71
528.89	53631.04
529.07	53572.52
529.24	53684.87
529.41	53471.88
529.58	53694.23
529.75	53827.64
529.92	53827.64
530.09	53820.62
530.26	53918.92
530.43	54007.86
530.60	54080.42
530.77	53860.41
530.94	54267.66
531.11	54035.95
531.28	54120.21
531.46	54562.57
531.63	54459.58
531.80	54375.33
531.97	54422.14
532.14	54915.99
532.31	54639.81
532.48	54597.68
532.65	54813.01
532.82	54520.44
532.99	54859.82
533.16	54815.35
533.33	54827.05
533.50	54780.24
533.67	54878.54
533.84	54717.04
534.01	54972.16
534.18	55068.12
534.35	55276.43
534.52	55136.00
534.69	55316.22
534.86	55395.80
535.03	55147.70
535.20	55573.68
535.37	55407.50
535.54	55337.29
535.71	55164.09
535.88	55498.78
536.05	55674.32
536.22	55683.69
536.38	55746.88
536.55	55648.58
536.72	55714.11
536.89	55554.96
537.06	55803.05
537.23	55737.52
537.40	55664.96
537.57	55786.67
537.74	55814.76
537.91	55990.30
538.08	56025.40
538.25	56123.71
538.42	55702.41
538.59	56245.41
538.75	56062.85
538.92	56095.62
539.09	56435.00
539.26	56062.85
539.43	56327.33
539.60	56261.80
539.77	56158.81
539.94	56486.49
540.11	56353.08
540.28	56530.96
540.44	56442.02
540.61	56430.32
540.78	56535.64
540.95	56697.14
541.12	56203.28
541.29	56671.39
541.46	56638.62
541.62	56629.26
541.79	56846.93
541.96	56657.35
542.13	56706.50
542.30	56671.39
542.47	56889.06
542.63	56898.42
542.80	56992.04
542.97	57080.98
543.14	57387.60
543.31	57160.56
543.48	57146.52
543.64	57315.04
543.81	57623.99
543.98	57532.71
544.15	57251.84
544.32	57521.01
544.48	57806.55
544.65	57654.42
544.82	57521.01
544.99	57343.12
545.16	57572.50
545.32	57354.83
545.49	57691.86
545.66	57888.47
545.83	57738.68
546.00	57808.89
546.16	57677.82
546.33	57836.98
546.50	57460.15
546.67	57804.21
546.83	57729.31
547.00	57946.98
547.17	57811.23
547.34	57656.76
547.50	57979.75
547.67	58082.73
547.84	58031.24
548.00	58216.14
548.17	58361.26
548.34	58000.82
548.51	58314.45
548.67	58295.72
548.84	58066.35
549.01	58323.81
549.18	58241.89
549.34	58272.32
549.51	58358.92
549.68	58323.81
549.84	58466.58
550.01	58356.58
550.18	58464.24
550.34	58574.25
550.51	58677.23
550.68	58501.69
550.84	58272.32
551.01	58515.73
551.18	58625.74
551.34	58691.27
551.51	58719.36
551.68	58731.06
551.84	58574.25
552.01	58527.44
552.18	58791.92
552.34	58700.64
552.51	58557.86
552.68	58543.82
552.84	58798.94
553.01	58749.79
553.18	58913.62
553.34	58979.16
553.51	58925.33
553.67	58946.39
553.84	58948.73
554.01	59152.36
554.17	59107.89
554.34	59133.63
554.51	59107.89
554.67	59231.94
554.84	59070.44
555.00	59032.99
555.17	59072.78
555.33	59032.99
555.50	58946.39
555.67	58981.50
555.83	59021.29
556.00	59178.10
556.16	59398.12
556.33	59299.81
556.50	59306.83
556.66	59365.35
556.83	59152.36
556.99	59278.75
557.16	59618.13
557.32	59667.28
557.49	59678.98
557.65	59238.96
557.82	59515.14
557.98	59566.63
558.15	59608.76
558.32	59700.04
558.48	59437.90
558.65	59477.69
558.81	59667.28
558.98	59678.98
559.14	59686.00
559.31	59653.23
559.47	59622.81
559.64	59863.88
559.80	59742.17
559.97	59866.22
560.13	59526.84
560.30	59725.79
560.46	59863.88
560.63	59898.99
560.79	59845.16
560.96	60006.65
561.12	60016.02
561.29	59884.95
561.45	59931.76
561.61	60072.19
561.78	59910.69
561.94	59927.08
562.11	59887.29
562.27	59803.03
562.44	60058.15
562.60	60142.41
562.77	60144.75
562.93	59863.88
563.10	60172.83
563.26	59819.41
563.42	60219.64
563.59	60182.19
563.75	60004.31
563.92	60107.30
564.08	60121.34
564.24	60212.62
564.41	60111.98
564.57	60200.92
564.74	60147.09
564.90	60020.70
565.07	60296.88
565.23	60107.30
565.39	60315.61
565.56	60191.56
565.72	60158.79
565.88	60058.15
566.05	60317.95
566.21	60320.29
566.38	60257.09
566.54	60282.84
566.70	60556.68
566.87	60339.01
567.03	60278.16
567.19	60582.43
567.36	60327.31
567.52	60310.92
567.68	60514.55
567.85	60350.71
568.01	60535.62
568.17	60275.82
568.34	60446.68
568.50	60533.28
568.66	60383.48
568.83	60472.42
568.99	60449.02
569.15	60324.97
569.32	60530.93
569.48	60432.63
569.64	60654.98
569.81	60395.18
569.97	60406.89
570.13	60491.15
570.30	60420.93
570.46	60526.25
570.62	60540.30
570.78	60622.22
570.95	60678.39
571.11	60526.25
571.27	60542.64
571.43	60573.06
571.60	60678.39
571.76	60521.57
571.92	60722.86
572.09	60797.76
572.25	60788.39
572.41	60701.79
572.57	60533.28
572.74	60865.63
572.90	60701.79
573.06	60863.29
573.22	60643.28
573.38	60664.35
573.55	60790.73
573.71	60867.97
573.87	60795.42
574.03	60697.11
574.20	60666.69
574.36	60729.88
574.52	60872.65
574.68	60760.31
574.84	60949.89
575.01	60788.39
575.17	60896.06
575.33	60828.18
575.49	60687.75
575.65	60729.88
575.82	61095.00
575.98	60741.58
576.14	60966.27
576.30	60793.07
576.46	60830.52
576.62	60837.54
576.79	60645.62
576.95	60676.05
577.11	60882.02
577.27	60779.03
577.43	60870.31
577.59	60657.32
577.75	60804.78
577.92	60638.60
578.08	60872.65
578.24	61010.74
578.40	61085.64
578.56	60959.25
578.72	61020.11
578.88	61087.98
579.04	60856.27
579.21	60982.66
579.37	61043.51
579.53	61125.43
579.69	60788.39
579.85	60814.14
580.01	60767.33
580.17	60959.25
580.33	60874.99
580.49	61120.75
580.65	61099.68
580.82	60856.27
580.98	60818.82
581.14	60994.36
581.30	61043.51
581.46	60772.01
581.62	60905.42
581.78	60954.57
581.94	61132.45
582.10	60996.70
582.26	61034.15
582.42	60863.29
582.58	61031.81
582.74	60935.85
582.90	61071.60
583.06	61013.08
583.22	60879.67
583.38	61205.01
583.54	60987.34
583.70	61015.43
583.86	61087.98
584.02	61052.87
584.18	61347.78
584.34	61057.56
584.50	60999.04
584.66	60992.02
584.82	60783.71
584.98	61261.18
585.14	60832.86
585.30	60987.34
585.46	61139.47
585.62	61027.13
585.78	61249.48
585.94	60917.12
586.10	60963.93
586.26	61064.58
586.42	61350.12
586.58	61151.18
586.74	61195.65
586.90	60907.76
587.06	60966.27
587.22	61176.92
587.38	61179.26
587.54	61127.77
587.70	61310.33
587.86	61146.50
588.02	60980.32
588.18	61303.31
588.34	61055.21
588.49	61289.27
