SpectraSuite Data File
++++++++++++++++++++++++++++++++++++
Date: Fri Oct 25 11:34:44 EDT 2013
User: price-jones
Dark Spectrum Present: No
Reference Spectrum Present: No
Number of Sampled Component Spectra: 1
Spectrometers: USB2+H05261
Integration Time (usec): 100000 (USB2+H05261)
Spectra Averaged: 1 (USB2+H05261)
Boxcar Smoothing: 0 (USB2+H05261)
Correct for Electrical Dark: No (USB2+H05261)
Strobe/Lamp Enabled: No (USB2+H05261)
Correct for Detector Non-linearity: No (USB2+H05261)
Correct for Stray Light: No (USB2+H05261)
Number of Pixels in Processed Spectrum: 2048
>>>>>Begin Processed Spectral Data<<<<<
365.73	334.70
365.92	334.70
366.12	334.70
366.32	205.97
366.52	234.05
366.72	271.50
366.91	119.37
367.11	203.63
367.31	117.03
367.51	173.20
367.70	177.88
367.90	159.16
368.10	198.95
368.30	159.16
368.49	126.39
368.69	205.97
368.89	184.90
369.09	194.26
369.28	177.88
369.48	184.90
369.68	217.67
369.87	238.73
370.07	212.99
370.27	334.70
370.47	339.38
370.66	482.15
370.86	463.43
371.06	524.28
371.25	643.65
371.45	535.98
371.65	617.90
371.84	580.45
372.04	582.79
372.24	538.32
372.44	617.90
372.63	578.11
372.83	589.82
373.03	629.60
373.22	571.09
373.42	695.14
373.62	683.44
373.81	573.43
374.01	606.20
374.21	620.24
374.40	589.82
374.60	615.56
374.79	608.54
374.99	573.43
375.19	655.35
375.38	608.54
375.58	683.44
375.78	669.39
375.97	662.37
376.17	727.91
376.37	683.44
376.56	622.58
376.76	671.73
376.95	660.03
377.15	718.54
377.35	641.31
377.54	580.45
377.74	631.94
377.93	702.16
378.13	734.93
378.33	695.14
378.52	706.84
378.72	660.03
378.91	660.03
379.11	624.92
379.31	667.05
379.50	702.16
379.70	755.99
379.89	746.63
380.09	662.37
380.28	657.69
380.48	653.01
380.68	688.12
380.87	716.20
381.07	737.27
381.26	723.23
381.46	791.10
381.65	786.42
381.85	695.14
382.04	720.88
382.24	835.57
382.43	833.23
382.63	770.04
382.83	734.93
383.02	784.08
383.22	795.78
383.41	746.63
383.61	835.57
383.80	798.12
384.00	788.76
384.19	746.63
384.39	814.51
384.58	830.89
384.78	774.72
384.97	741.95
385.17	812.17
385.36	830.89
385.56	856.64
385.75	779.40
385.95	833.23
386.14	802.80
386.34	868.34
386.53	856.64
386.72	814.51
386.92	896.43
387.11	737.27
387.31	861.32
387.50	777.06
387.70	891.74
387.89	851.96
388.09	891.74
388.28	915.15
388.48	856.64
388.67	931.53
388.86	922.17
389.06	802.80
389.25	873.02
389.45	950.26
389.64	898.77
389.84	917.49
390.03	901.11
390.22	987.71
390.42	905.79
390.61	910.47
390.81	947.92
391.00	908.13
391.19	966.64
391.39	957.28
391.58	957.28
391.78	954.94
391.97	950.26
392.16	987.71
392.36	1013.45
392.55	959.62
392.75	945.58
392.94	1128.14
393.13	1041.54
393.33	1053.24
393.52	1074.31
393.71	1104.73
393.91	1097.71
394.10	1078.99
394.29	1046.22
394.49	1053.24
394.68	1109.41
394.88	1104.73
395.07	1095.37
395.26	1071.97
395.46	1130.48
395.65	1191.33
395.84	1041.54
396.04	1128.14
396.23	1174.95
396.42	1156.22
396.62	1196.01
396.81	1142.18
397.00	1160.91
397.19	1238.14
397.39	1163.25
397.58	1104.73
397.77	1116.44
397.97	1130.48
398.16	1203.04
398.35	1231.12
398.55	1172.61
398.74	1247.51
398.93	1273.25
399.12	1245.16
399.32	1280.27
399.51	1167.93
399.70	1280.27
399.90	1177.29
400.09	1315.38
400.28	1362.19
400.47	1291.98
400.67	1313.04
400.86	1291.98
401.05	1413.68
401.24	1352.83
401.44	1413.68
401.63	1432.41
401.82	1329.42
402.01	1366.87
402.21	1362.19
402.40	1437.09
402.59	1441.77
402.78	1458.15
402.97	1453.47
403.17	1488.58
403.36	1481.56
403.55	1504.96
403.74	1530.71
403.93	1549.43
404.13	1542.41
404.32	1537.73
404.51	1577.52
404.70	1556.46
404.89	1537.73
405.09	1652.42
405.28	1666.46
405.47	1472.20
405.66	1636.03
405.85	1706.25
406.05	1591.56
406.24	1621.99
406.43	1685.19
406.62	1685.19
406.81	1717.95
407.00	1647.74
407.20	1680.50
407.39	1689.87
407.58	1762.42
407.77	1724.97
407.96	1799.87
408.15	1811.57
408.34	1844.34
408.54	1820.94
408.73	1743.70
408.92	1867.75
409.11	1928.60
409.30	1813.92
409.49	1919.24
409.68	1921.58
409.87	1959.03
410.07	1961.37
410.26	2005.84
410.45	1961.37
410.64	1916.90
410.83	2005.84
411.02	1973.07
411.21	2071.37
411.40	2052.65
411.59	2008.18
411.78	2080.74
411.98	2211.81
412.17	2165.00
412.36	2193.08
412.55	2211.81
412.74	2275.00
412.93	2246.91
413.12	2146.27
413.31	2298.41
413.50	2377.98
413.69	2352.24
413.88	2307.77
414.07	2242.23
414.26	2366.28
414.45	2415.43
414.64	2541.82
414.83	2445.86
415.02	2424.80
415.22	2523.10
415.41	2485.65
415.60	2443.52
415.79	2487.99
415.98	2693.96
416.17	2572.25
416.36	2546.50
416.55	2527.78
416.74	2588.63
416.93	2644.81
417.12	2679.91
417.31	2731.41
417.50	2745.45
417.69	2759.49
417.88	2836.73
418.07	2729.06
418.26	2686.94
418.45	2991.20
418.64	2899.92
418.83	2991.20
419.02	2890.56
419.21	3042.70
419.39	2911.63
419.58	2963.12
419.77	2883.54
419.96	2867.16
420.15	3035.67
420.34	2942.05
420.53	3035.67
420.72	2972.48
420.91	3038.02
421.10	3117.59
421.29	3133.98
421.48	3026.31
421.67	3047.38
421.86	3136.32
422.05	3126.96
422.24	3117.59
422.43	3206.53
422.61	3241.64
422.80	3255.69
422.99	3117.59
423.18	3332.92
423.37	3272.07
423.56	3321.22
423.75	3246.32
423.94	3119.93
424.13	2904.60
424.32	3152.70
424.50	3267.39
424.69	3297.81
424.88	3339.94
425.07	3152.70
425.26	3192.49
425.45	3262.71
425.64	3302.50
425.83	3325.90
426.01	3356.33
426.20	3300.16
426.39	3192.49
426.58	3358.67
426.77	3356.33
426.96	3325.90
427.15	3442.93
427.33	3440.59
427.52	3384.41
427.71	3403.14
427.90	3358.67
428.09	3396.12
428.28	3492.08
428.46	3440.59
428.65	3625.49
428.84	3566.98
429.03	3644.21
429.22	3595.06
429.40	3590.38
429.59	3613.79
429.78	3618.47
429.97	3403.14
430.16	3693.37
430.34	3782.31
430.53	3698.05
430.72	3559.95
430.91	3672.30
431.10	3623.15
431.28	3740.18
431.47	3756.56
431.66	3719.11
431.85	3747.20
432.03	3843.16
432.22	3899.33
432.41	3929.76
432.60	3840.82
432.79	3789.33
432.97	3770.60
433.16	3894.65
433.35	3822.09
433.54	4060.83
433.72	4016.36
433.91	4051.47
434.10	4021.04
434.28	4032.74
434.47	4051.47
434.66	4046.79
434.85	4086.58
435.03	4198.92
435.22	4021.04
435.41	4147.43
435.59	4189.56
435.78	4182.54
435.97	4021.04
436.16	4187.22
436.34	4086.58
436.53	4203.60
436.72	4402.55
436.90	4187.22
437.09	4320.63
437.28	4311.27
437.46	4234.03
437.65	4465.74
437.84	4292.54
438.02	4369.78
438.21	4362.76
438.40	4203.60
438.58	4430.63
438.77	4589.79
438.96	4517.23
439.14	4568.73
439.33	4613.20
439.52	4788.74
439.70	4774.69
439.89	4662.35
440.08	4861.29
440.26	4807.46
440.45	4767.67
440.63	4746.61
440.82	4971.30
441.01	4809.80
441.19	4903.42
441.38	5050.88
441.57	5137.48
441.75	4929.17
441.94	5191.31
442.12	5188.97
442.31	5125.77
442.50	5095.35
442.68	5226.42
442.87	5116.41
443.05	5083.64
443.24	5195.99
443.43	5282.59
443.61	5242.80
443.80	5411.32
443.98	5167.90
444.17	5107.05
444.35	5266.21
444.54	5434.72
444.73	5343.44
444.91	5394.93
445.10	5317.70
445.28	5352.81
445.47	5238.12
445.65	5427.70
445.84	5397.28
446.02	5423.02
446.21	5596.22
446.39	5308.34
446.58	5554.09
446.77	5425.36
446.95	5336.42
447.14	5411.32
447.32	5380.89
447.51	5551.75
447.69	5423.02
447.88	5504.94
448.06	5355.15
448.25	5647.71
448.43	5504.94
448.62	5493.24
448.80	5481.53
448.99	5610.26
449.17	5551.75
449.36	5619.63
449.54	5710.91
449.73	5661.76
449.91	5820.91
450.10	5762.40
450.28	5830.27
450.46	5888.79
450.65	5717.93
450.83	5692.18
451.02	5816.23
451.20	5811.55
451.39	5888.79
451.57	5837.30
451.76	5879.43
451.94	5933.26
452.13	6010.50
452.31	5991.77
452.49	5891.13
452.68	5937.94
452.86	5970.71
453.05	5921.56
453.23	6054.97
453.42	6092.41
453.60	6099.44
453.78	5959.00
453.97	6111.14
454.15	5954.32
454.34	5994.11
454.52	6176.67
454.70	6064.33
454.89	6331.15
455.07	6239.87
455.26	6349.87
455.44	6473.92
455.62	6347.53
455.81	6429.45
455.99	6239.87
456.17	6509.03
456.36	6452.86
456.54	6312.42
456.73	6520.73
456.91	6834.36
457.09	6668.19
457.28	6843.73
457.46	6649.46
457.64	6771.17
457.83	6604.99
458.01	6595.63
458.19	6930.33
458.38	6696.27
458.56	6782.87
458.74	6832.02
458.93	6700.95
459.11	6916.28
459.29	6759.47
459.48	6719.68
459.66	6876.49
459.84	6871.81
460.03	6932.67
460.21	6899.90
460.39	6817.98
460.57	7101.19
460.76	7000.54
460.94	7037.99
461.12	6967.77
461.31	7140.97
461.49	7110.55
461.67	7103.53
461.85	7218.21
462.04	7084.80
462.22	7461.63
462.40	7435.88
462.59	7375.03
462.77	7288.43
462.95	7398.43
463.13	7255.66
463.32	7398.43
463.50	7311.83
463.68	7426.52
463.86	7470.99
464.05	7368.01
464.23	7316.51
464.41	7627.81
464.59	7440.56
464.78	7557.59
464.96	7438.22
465.14	7524.82
465.32	7478.01
465.50	7548.23
465.69	7651.21
465.87	7730.79
466.05	7716.75
466.23	7852.50
466.41	7688.66
466.60	7705.04
466.78	7845.48
466.96	7548.23
467.14	7801.01
467.32	7967.18
467.51	7866.54
467.69	7616.10
467.87	7765.90
468.05	8028.04
468.23	7866.54
468.41	7747.17
468.60	8053.78
468.78	7985.91
468.96	7644.19
469.14	8058.46
469.32	8060.80
469.50	7836.11
469.69	8058.46
469.87	8336.99
470.05	8301.88
470.23	8231.66
470.41	8264.43
470.59	8430.61
470.77	8201.24
470.95	8407.20
471.14	8692.75
471.32	8278.47
471.50	8613.17
471.68	8475.08
471.86	8599.13
472.04	8758.28
472.22	8931.48
472.40	8739.56
472.58	8720.84
472.77	8898.72
472.95	8875.31
473.13	9327.03
473.31	8919.78
473.49	8837.86
473.67	8744.24
473.85	9053.19
474.03	9205.33
474.21	9151.49
474.39	9320.01
474.57	9268.52
474.75	9439.38
474.93	9280.22
475.12	9277.88
475.30	9383.21
475.48	9423.00
475.66	9411.29
475.84	9724.93
476.02	9867.70
476.20	9614.92
476.38	9837.27
476.56	9834.93
476.74	9930.89
476.92	9837.27
477.10	9877.06
477.28	10190.69
477.46	9872.38
477.64	10251.55
477.82	10469.22
478.00	10513.69
478.18	10516.03
478.36	10675.18
478.54	10771.15
478.72	10600.29
478.90	10923.28
479.08	10981.79
479.26	11169.04
479.44	11073.07
479.62	11290.74
479.80	11112.86
479.98	11370.32
480.16	11407.77
480.34	11384.37
480.52	11529.48
480.70	11662.89
480.88	11543.52
481.06	11529.48
481.24	11557.57
481.41	11810.34
481.59	12123.98
481.77	12070.14
481.95	12004.61
482.13	11976.52
482.31	12266.75
482.49	12676.34
482.67	12477.40
482.85	12521.87
483.03	12943.16
483.21	12776.98
483.39	13099.98
483.57	12971.25
483.74	13158.49
483.92	13048.49
484.10	13282.54
484.28	13504.89
484.46	13633.62
484.64	13855.97
484.82	13720.22
485.00	13804.48
485.18	14087.68
485.35	14321.74
485.53	14054.92
485.71	14345.14
485.89	14476.21
486.07	14370.89
486.25	14581.54
486.43	14609.62
486.61	14963.04
486.78	14923.26
486.96	15044.96
487.14	15351.57
487.32	15201.78
487.50	15272.00
487.68	15344.55
487.85	15815.00
488.03	15815.00
488.21	16084.16
488.39	16187.14
488.57	15939.05
488.75	16283.11
488.92	16685.68
489.10	16526.52
489.28	16369.71
489.46	16739.51
489.64	16840.15
489.81	16940.80
489.99	16835.47
490.17	17301.24
490.35	17282.52
490.53	17474.44
490.70	17614.87
490.88	17624.23
491.06	17877.01
491.24	17987.02
491.41	18200.01
491.59	17884.03
491.77	18204.69
491.95	18108.72
492.13	18394.27
492.30	18349.80
492.48	18476.19
492.66	18298.31
492.84	18845.99
493.01	18771.10
493.19	18824.93
493.37	18951.32
493.54	19040.26
493.72	19456.87
493.90	19370.27
494.08	19480.28
494.25	19597.31
494.43	19777.53
494.61	20123.93
494.79	20023.28
494.96	20154.35
495.14	20189.46
495.32	20645.87
495.49	20442.24
495.67	20517.14
495.85	20528.84
496.02	20865.88
496.20	21144.40
496.38	20879.92
496.55	20872.90
496.73	21689.74
496.91	21226.32
497.09	21448.67
497.26	21563.36
497.44	21855.92
497.62	21795.07
497.79	22225.73
497.97	21907.41
498.14	22003.38
498.32	22242.11
498.50	22366.16
498.67	22434.03
498.85	22389.56
499.03	22773.41
499.20	22384.88
499.38	22862.35
499.56	22766.39
499.73	23178.33
499.91	23136.20
500.08	23473.23
500.26	22892.78
500.44	23510.68
500.61	23400.68
500.79	23421.74
500.97	23618.35
501.14	23946.02
501.32	23711.97
501.49	23854.74
501.67	23583.24
501.84	24210.50
502.02	23878.15
502.20	24065.39
502.37	24142.63
502.55	24137.94
502.72	24416.47
502.90	24570.94
503.07	24489.03
503.25	24409.45
503.43	24599.03
503.60	24603.71
503.78	25008.62
503.95	24678.61
504.13	25048.41
504.30	25415.88
504.48	24915.00
504.65	25167.78
504.83	25146.72
505.01	25598.44
505.18	25640.57
505.36	25891.01
505.53	25563.33
505.71	25923.77
505.88	25933.14
506.06	25818.45
506.23	26157.83
506.41	26312.30
506.58	26244.43
506.76	26387.20
506.93	26410.60
507.11	26328.69
507.28	26260.81
507.46	26380.18
507.63	26831.90
507.81	26925.52
507.98	26686.79
508.16	26808.50
508.33	26593.17
508.50	27318.73
508.68	27145.53
508.85	27309.37
509.03	27058.93
509.20	27367.88
509.38	27428.74
509.55	27321.07
509.73	27517.68
509.90	27697.90
510.08	27751.73
510.25	27777.48
510.42	27969.40
510.60	27728.33
510.77	28250.27
510.95	27936.63
511.12	28315.80
511.30	28226.86
511.47	28486.66
511.64	28142.60
511.82	28430.49
511.99	28400.06
512.17	28662.20
512.34	28505.38
512.51	29139.67
512.69	28765.18
512.86	29111.58
513.04	29476.71
513.21	29523.52
513.38	29319.89
513.56	29083.50
513.73	29249.67
513.90	29722.46
514.08	28980.51
514.25	29535.22
514.43	29865.24
514.60	29722.46
514.77	29792.68
514.95	29860.55
515.12	29708.42
515.29	29706.08
515.47	29993.97
515.64	29862.90
515.81	30045.46
515.99	30169.51
516.16	30576.76
516.33	30387.18
516.51	30520.59
516.68	30338.02
516.85	30265.47
517.03	30944.22
517.20	30817.83
517.37	31110.40
517.54	30960.61
517.72	30768.68
517.89	31154.87
518.06	31178.28
518.24	31178.28
518.41	31290.62
518.58	31644.04
518.75	30988.69
518.93	31290.62
519.10	30991.03
519.27	31395.95
519.45	31772.77
519.62	31824.26
519.79	31758.73
519.96	32074.70
520.14	31527.02
520.31	31576.17
520.48	31999.80
520.65	32144.92
520.83	32329.82
521.00	32393.01
521.17	32210.45
521.34	32299.39
521.52	32694.94
521.69	32453.87
521.86	32355.57
522.03	32685.58
522.20	32966.45
522.38	33195.82
522.55	32835.38
522.72	33188.80
522.89	33102.20
523.07	33553.92
523.24	33151.35
523.41	33425.19
523.58	33617.11
523.75	33483.70
523.92	33371.36
524.10	33701.37
524.27	33493.07
524.44	33514.13
524.61	33977.56
524.78	33703.71
524.96	33773.93
525.13	33759.89
525.30	34085.22
525.47	34195.23
525.64	33900.32
525.81	33830.10
525.98	34377.79
526.16	33813.72
526.33	34064.16
526.50	34143.74
526.67	34178.84
526.84	34539.29
527.01	34581.42
527.18	34560.35
527.36	34705.46
527.53	34864.62
527.70	34979.31
527.87	34738.23
528.04	34855.26
528.21	34822.49
528.38	34747.59
528.55	34892.71
528.72	34890.37
528.89	35068.25
529.07	34948.88
529.24	35049.52
529.41	35414.65
529.58	35522.31
529.75	35037.82
529.92	35063.57
530.09	35358.47
530.26	35552.74
530.43	35789.13
530.60	35234.42
530.77	35508.27
530.94	35304.64
531.11	35604.23
531.28	35796.15
531.46	35562.10
531.63	35615.93
531.80	35920.20
531.97	35679.13
532.14	36156.60
532.31	36271.28
532.48	36158.94
532.65	36189.36
532.82	36364.90
532.99	36102.76
533.16	36484.27
533.33	36460.87
533.50	36697.26
533.67	36428.10
533.84	36191.70
534.01	36437.46
534.18	36304.05
534.35	37195.79
534.52	36957.06
534.69	37181.75
534.86	37013.23
535.03	36676.19
535.20	37223.88
535.37	36989.83
535.54	36938.33
535.71	36980.46
535.88	37406.44
536.05	37273.03
536.22	37429.85
536.38	37558.58
536.55	37635.81
536.72	37570.28
536.89	37106.85
537.06	37486.02
537.23	38188.18
537.40	37408.78
537.57	37317.50
537.74	37722.41
537.91	37935.40
538.08	37977.53
538.25	37539.85
538.42	37682.62
538.59	37837.10
538.75	38326.27
538.92	37827.74
539.09	37928.38
539.26	38003.28
539.43	38265.42
539.60	37982.21
539.77	38288.82
539.94	38471.39
540.11	38115.62
540.28	38895.02
540.44	38651.61
540.61	38380.10
540.78	38394.15
540.95	38749.91
541.12	38260.74
541.29	37989.24
541.46	38492.45
541.62	38946.51
541.79	39089.29
541.96	38824.81
542.13	38410.53
542.30	38576.71
542.47	39091.63
542.63	39047.16
542.80	39484.84
542.97	39241.42
543.14	39388.88
543.31	39648.68
543.48	39531.65
543.64	39463.77
543.81	40072.31
543.98	39758.68
544.15	39885.07
544.32	39524.63
544.48	39978.69
544.65	39463.77
544.82	39889.75
544.99	39732.93
545.16	39789.11
545.32	39768.04
545.49	39840.60
545.66	40591.91
545.83	39894.43
546.00	40100.40
546.16	40245.51
546.33	39894.43
546.50	39922.52
546.67	40397.65
546.83	39971.67
547.00	40109.76
547.17	39971.67
547.34	39826.56
547.50	40388.28
547.67	40924.27
547.84	40329.77
548.00	40170.61
548.17	41090.44
548.34	40203.38
548.51	41350.24
548.67	41102.15
548.84	40720.64
549.01	40676.17
549.18	40840.01
549.34	40924.27
549.51	41010.87
549.68	41420.46
549.84	41116.19
550.01	41268.33
550.18	40744.05
550.34	40914.90
550.51	41200.45
550.68	41090.44
550.84	41165.34
551.01	41254.28
551.18	41088.10
551.34	41258.96
551.51	41542.17
551.68	41301.09
551.84	41099.81
552.01	41345.56
552.18	41132.57
552.34	40989.80
552.51	41862.82
552.68	41422.80
552.84	41368.97
553.01	41799.63
553.18	41799.63
553.34	41745.80
553.51	41050.66
553.67	42059.43
553.84	41755.16
554.01	41841.76
554.17	42029.00
554.34	42031.34
554.51	42066.45
554.67	41968.15
554.84	41883.89
555.00	42183.48
555.17	41968.15
555.33	42167.09
555.50	41762.18
555.67	42103.90
555.83	42249.01
556.00	42167.09
556.16	42532.22
556.33	42375.40
556.50	42511.15
556.66	42490.09
556.83	42202.20
556.99	42784.99
557.16	42485.40
557.32	42426.89
557.49	43065.86
557.65	42583.71
557.82	42225.60
557.98	42614.13
558.15	42817.76
558.32	42705.41
558.48	42480.72
558.65	42752.23
558.81	42616.47
558.98	42745.20
559.14	42389.44
559.31	42761.59
559.47	42672.65
559.64	42909.04
559.80	42478.38
559.97	42347.31
560.13	42759.25
560.30	42700.73
560.46	42981.60
560.63	43430.98
560.79	42974.58
560.96	43082.24
561.12	42794.36
561.29	43236.72
561.45	43086.92
561.61	43005.00
561.78	43026.07
561.94	42864.57
562.11	43070.54
562.27	42890.32
562.44	42815.42
562.60	43356.08
562.77	43199.27
562.93	42997.98
563.10	43641.63
563.26	43555.03
563.42	43555.03
563.59	42913.72
563.75	43470.77
563.92	43138.41
564.08	43407.58
564.24	43550.35
564.41	43409.92
564.57	43255.44
564.74	43517.58
564.90	43707.16
565.07	43236.72
565.23	43454.39
565.39	43856.96
565.56	43910.79
565.72	43749.29
565.88	43700.14
566.05	43840.57
566.21	43868.66
566.38	43739.93
566.54	44025.48
566.70	43936.54
566.87	44102.71
567.03	43625.25
567.19	44133.14
567.36	43945.90
567.52	43489.49
567.68	43803.13
567.85	43856.96
568.01	44142.50
568.17	43796.10
568.34	43859.30
568.50	43868.66
568.66	43686.10
568.83	43784.40
568.99	43756.32
569.15	43948.24
569.32	44266.55
569.48	43480.13
569.64	43887.39
569.81	43992.71
569.97	43959.94
570.13	43966.96
570.30	43522.26
570.46	44481.88
570.62	44048.88
570.78	43966.96
570.95	44048.88
571.11	44069.95
571.27	43737.59
571.43	43852.28
571.60	43978.67
571.76	44437.41
571.92	44339.11
572.09	43669.72
572.25	44116.76
572.41	43852.28
572.57	44304.00
572.74	44926.58
572.90	44236.12
573.06	44268.89
573.22	44332.09
573.38	44573.16
573.55	43952.92
573.71	44790.83
573.87	44350.81
574.03	44446.77
574.20	44315.70
574.36	44423.37
574.52	44285.28
574.68	44280.60
574.84	44851.69
575.01	44486.56
575.17	44201.02
575.33	44135.48
575.49	44161.23
575.65	44334.43
575.82	44708.91
575.98	44217.40
576.14	44486.56
576.30	44580.18
576.46	44863.39
576.62	44371.88
576.79	44203.36
576.95	44016.11
577.11	44177.61
577.27	44285.28
577.43	44516.99
577.59	44346.13
577.75	44481.88
577.92	44210.38
578.08	44545.08
578.24	44545.08
578.40	44313.36
578.56	45015.52
578.72	44243.15
578.88	44832.96
579.04	44451.45
579.21	44713.59
579.37	44252.51
579.53	44957.01
579.69	44367.20
579.85	44631.68
580.01	44500.61
580.17	44507.63
580.33	44795.51
580.49	44828.28
580.65	44676.15
580.82	44224.42
580.98	44437.41
581.14	44123.78
581.30	44376.56
581.46	44486.56
581.62	43920.15
581.78	44540.39
581.94	44540.39
582.10	44699.55
582.26	44591.89
582.42	44767.43
582.58	44252.51
582.74	44573.16
582.90	44715.93
583.06	44926.58
583.22	44444.43
583.38	44795.51
583.54	44739.34
583.70	44795.51
583.86	44753.38
584.02	44650.40
584.18	45034.25
584.34	44863.39
584.50	44863.39
584.66	44900.84
584.82	44919.56
584.98	45102.12
585.14	44889.13
585.30	44353.15
585.46	45008.50
585.62	45031.91
585.78	45104.46
585.94	44397.62
586.10	44683.17
586.26	44968.71
586.42	44905.52
586.58	45134.89
586.74	44732.32
586.90	44486.56
587.06	44512.31
587.22	44659.76
587.38	44961.69
587.54	45085.74
587.70	45099.78
587.86	44786.15
588.02	45041.27
588.18	44753.38
588.34	44926.58
588.49	44839.98
588.65	44839.98
588.81	44561.46
588.97	45277.66
589.13	44919.56
589.29	44610.61
589.45	45312.77
589.61	45186.38
589.77	45010.84
589.93	45317.45
590.08	45317.45
590.24	44875.09
