SpectraSuite Data File
++++++++++++++++++++++++++++++++++++
Date: Fri Oct 25 10:48:20 EDT 2013
User: price-jones
Dark Spectrum Present: No
Reference Spectrum Present: No
Number of Sampled Component Spectra: 1
Spectrometers: USB2+H05261
Integration Time (usec): 100000 (USB2+H05261)
Spectra Averaged: 1 (USB2+H05261)
Boxcar Smoothing: 0 (USB2+H05261)
Correct for Electrical Dark: No (USB2+H05261)
Strobe/Lamp Enabled: No (USB2+H05261)
Correct for Detector Non-linearity: No (USB2+H05261)
Correct for Stray Light: No (USB2+H05261)
Number of Pixels in Processed Spectrum: 2048
>>>>>Begin Processed Spectral Data<<<<<
365.73	152.13
365.92	152.13
366.12	152.13
366.32	79.58
366.52	16.38
366.72	49.15
366.91	2.34
367.11	23.41
367.31	7.02
367.51	32.77
367.70	7.02
367.90	124.05
368.10	91.28
368.30	0.00
368.49	37.45
368.69	126.39
368.89	67.88
369.09	126.39
369.28	35.11
369.48	32.77
369.68	131.07
369.87	184.90
370.07	156.82
370.27	154.48
370.47	222.35
370.66	512.58
370.86	496.19
371.06	519.60
371.25	547.69
371.45	496.19
371.65	524.28
371.84	552.37
372.04	503.22
372.24	543.00
372.44	491.51
372.63	425.98
372.83	573.43
373.03	512.58
373.22	482.15
373.42	629.60
373.62	545.34
373.81	552.37
374.01	638.97
374.21	624.92
374.40	601.52
374.60	601.52
374.79	610.88
374.99	585.13
375.19	573.43
375.38	657.69
375.58	594.50
375.78	606.20
375.97	610.88
376.17	636.63
376.37	718.54
376.56	706.84
376.76	732.59
376.95	638.97
377.15	793.44
377.35	650.67
377.54	725.57
377.74	620.24
377.93	748.97
378.13	711.52
378.33	674.07
378.52	732.59
378.72	704.50
378.91	730.25
379.11	678.76
379.31	622.58
379.50	751.31
379.70	727.91
379.89	774.72
380.09	676.41
380.28	692.80
380.48	746.63
380.68	699.82
380.87	681.10
381.07	704.50
381.26	730.25
381.46	725.57
381.65	821.53
381.85	711.52
382.04	713.86
382.24	784.08
382.43	734.93
382.63	716.20
382.83	746.63
383.02	741.95
383.22	779.40
383.41	779.40
383.61	791.10
383.80	884.72
384.00	847.27
384.19	777.06
384.39	861.32
384.58	856.64
384.78	873.02
384.97	781.74
385.17	772.38
385.36	819.19
385.56	746.63
385.75	936.21
385.95	877.70
386.14	898.77
386.34	884.72
386.53	938.55
386.72	884.72
386.92	947.92
387.11	889.40
387.31	877.70
387.50	908.13
387.70	961.96
387.89	954.94
388.09	905.79
388.28	915.15
388.48	1008.77
388.67	990.05
388.86	1048.56
389.06	936.21
389.25	1053.24
389.45	1067.28
389.64	976.00
389.84	1018.13
390.03	1018.13
390.22	1071.97
390.42	1118.78
390.61	1039.20
390.81	1055.58
391.00	1107.07
391.19	1053.24
391.39	1149.20
391.58	1111.75
391.78	1191.33
391.97	1144.52
392.16	1125.80
392.36	1142.18
392.55	1041.54
392.75	1029.84
392.94	1018.13
393.13	1053.24
393.33	1018.13
393.52	1029.84
393.71	1149.20
393.91	1139.84
394.10	1170.27
394.29	1118.78
394.49	1254.53
394.68	1238.14
394.88	1303.68
395.07	1270.91
395.26	1273.25
395.46	1383.26
395.65	1329.42
395.84	1369.21
396.04	1306.02
396.23	1289.64
396.42	1252.19
396.62	1186.65
396.81	1299.00
397.00	1306.02
397.19	1315.38
397.39	1411.34
397.58	1483.90
397.77	1483.90
397.97	1472.20
398.16	1549.43
398.35	1568.16
398.55	1549.43
398.74	1563.48
398.93	1650.08
399.12	1526.03
399.32	1533.05
399.51	1680.50
399.70	1722.63
399.90	1708.59
400.09	1720.29
400.28	1689.87
400.47	1678.16
400.67	1797.53
400.86	1696.89
401.05	1788.17
401.24	1771.79
401.44	1914.56
401.63	1867.75
401.82	1853.70
402.01	1722.63
402.21	1806.89
402.40	1851.36
402.59	1928.60
402.78	1842.00
402.97	1902.86
403.17	1877.11
403.36	1970.73
403.55	1909.88
403.74	1928.60
403.93	1921.58
404.13	1893.49
404.32	1944.99
404.51	1963.71
404.70	2001.16
404.89	2073.71
405.09	2134.57
405.28	1963.71
405.47	2120.53
405.66	2092.44
405.85	2022.22
406.05	1944.99
406.24	2090.10
406.43	2069.03
406.62	2179.04
406.81	2272.66
407.00	2188.40
407.20	2183.72
407.39	2197.76
407.58	2289.04
407.77	2370.96
407.96	2422.45
408.15	2307.77
408.34	2279.68
408.54	2375.64
408.73	2253.94
408.92	2422.45
409.11	2546.50
409.30	2424.80
409.49	2476.29
409.68	2377.98
409.87	2366.28
410.07	2452.88
410.26	2445.86
410.45	2537.14
410.64	2532.46
410.83	2630.76
411.02	2665.87
411.21	2654.17
411.40	2794.60
411.59	2705.66
411.78	2822.69
411.98	2820.35
412.17	2726.72
412.36	2808.64
412.55	2766.51
412.74	2916.31
412.93	2930.35
413.12	2834.39
413.31	3000.57
413.50	3019.29
413.69	2944.39
413.88	3038.02
414.07	3059.08
414.26	3119.93
414.45	3047.38
414.64	3075.46
414.83	3124.62
415.02	3197.17
415.22	3232.28
415.41	3213.56
415.60	3290.79
415.79	3239.30
415.98	3571.66
416.17	3248.66
416.36	3346.97
416.55	3353.99
416.74	3517.83
416.93	3478.04
417.12	3442.93
417.31	3529.53
417.50	3452.29
417.69	3602.08
417.88	3679.32
418.07	3461.65
418.26	3669.96
418.45	3595.06
418.64	3740.18
418.83	3826.78
419.02	3730.81
419.21	3779.97
419.39	3833.80
419.58	3721.45
419.77	3803.37
419.96	3845.50
420.15	3822.09
420.34	3857.20
420.53	4025.72
420.72	4102.96
420.91	3995.29
421.10	3873.59
421.29	4070.19
421.48	3960.19
421.67	3939.12
421.86	4011.68
422.05	3896.99
422.24	3957.85
422.43	4067.85
422.61	3981.25
422.80	4035.08
422.99	4124.02
423.18	4102.96
423.37	4196.58
423.56	4105.30
423.75	4084.23
423.94	4009.34
424.13	3843.16
424.32	3861.88
424.50	4252.75
424.69	4219.99
424.88	4058.49
425.07	4032.74
425.26	4142.75
425.45	4203.60
425.64	4184.88
425.83	4292.54
426.01	4329.99
426.20	4423.61
426.39	4271.48
426.58	4016.36
426.77	4072.53
426.96	4107.64
427.15	4222.33
427.33	4203.60
427.52	4124.02
427.71	4477.44
427.90	4290.20
428.09	4355.74
428.28	4402.55
428.46	4222.33
428.65	4367.44
428.84	4484.47
429.03	4428.29
429.22	4416.59
429.40	4334.67
429.59	4440.00
429.78	3927.42
429.97	4088.92
430.16	4217.65
430.34	4196.58
430.53	4489.15
430.72	4381.48
430.91	4449.36
431.10	4664.69
431.28	4851.93
431.47	4823.84
431.66	4798.10
431.85	4624.90
432.03	4786.40
432.22	4917.47
432.41	4732.56
432.60	4933.85
432.79	4854.27
432.97	4947.89
433.16	4898.74
433.35	4753.63
433.54	4954.91
433.72	4919.81
433.91	4954.91
434.10	4908.10
434.28	4971.30
434.47	5013.43
434.66	5081.30
434.85	5210.03
435.03	5207.69
435.22	4990.02
435.41	5198.33
435.59	5359.83
435.78	5387.91
435.97	5406.64
436.16	5427.70
436.34	5369.19
436.53	5348.12
436.72	5364.51
436.90	5308.34
437.09	5247.48
437.28	5348.12
437.46	5392.59
437.65	5483.88
437.84	5345.78
438.02	5259.18
438.21	5401.96
438.40	5254.50
438.58	5626.65
438.77	5729.63
438.96	5493.24
439.14	5788.14
439.33	5860.70
439.52	5748.36
439.70	5834.96
439.89	5870.06
440.08	5980.07
440.26	6069.01
440.45	6008.16
440.63	6251.57
440.82	6263.27
441.01	6209.44
441.19	6384.98
441.38	6429.45
441.57	6410.73
441.75	6349.87
441.94	6427.11
442.12	6537.12
442.31	6534.78
442.50	6560.52
442.68	6567.54
442.87	6733.72
443.05	6597.97
443.24	6663.51
443.43	6654.14
443.61	6792.23
443.80	6904.58
443.98	6619.04
444.17	6560.52
444.35	6937.35
444.54	6876.49
444.73	6899.90
444.91	6958.41
445.10	6813.30
445.28	6843.73
445.47	6588.61
445.65	6841.39
445.84	6668.19
446.02	6963.09
446.21	6860.11
446.39	6965.43
446.58	6862.45
446.77	7035.65
446.95	6768.83
447.14	6906.92
447.32	7030.97
447.51	6853.09
447.69	6916.28
447.88	6974.80
448.06	7026.29
448.25	7045.01
448.43	6998.20
448.62	6897.56
448.80	6993.52
448.99	7176.08
449.17	7119.91
449.36	7016.93
449.54	7124.59
449.73	7414.82
449.91	7478.01
450.10	7405.46
450.28	7646.53
450.46	7461.63
450.65	7538.87
450.83	7452.27
451.02	7428.86
451.20	7592.70
451.39	7534.18
451.57	7503.76
451.76	7431.20
451.94	7473.33
452.13	7786.96
452.31	7719.09
452.49	7426.52
452.68	7496.74
452.86	7426.52
453.05	7653.55
453.23	7681.64
453.42	7639.51
453.60	7438.22
453.78	7796.32
453.97	7634.83
454.15	7765.90
454.34	7747.17
454.52	7803.35
454.70	7789.30
454.89	7866.54
455.07	7777.60
455.26	7903.99
455.44	8004.63
455.62	7915.69
455.81	8196.56
455.99	8212.94
456.17	8131.02
456.36	8091.23
456.54	8273.79
456.73	8224.64
456.91	8594.45
457.09	8489.12
457.28	8484.44
457.46	8423.59
457.64	8353.37
457.83	8344.01
458.01	8212.94
458.19	8540.61
458.38	8486.78
458.56	8711.47
458.74	8697.43
458.93	8456.36
459.11	8692.75
459.29	8741.90
459.48	8779.35
459.66	8854.25
459.84	8945.53
460.03	8891.70
460.21	8777.01
460.39	8929.14
460.57	8856.59
460.76	8929.14
460.94	8936.17
461.12	8861.27
461.31	9083.62
461.49	9025.11
461.67	9104.68
461.85	9345.76
462.04	9125.75
462.22	9603.22
462.40	9441.72
462.59	9207.67
462.77	9142.13
462.95	9366.82
463.13	9303.63
463.32	9231.07
463.50	9338.74
463.68	9425.34
463.86	9383.21
464.05	9095.32
464.23	9572.79
464.41	9320.01
464.59	9266.18
464.78	9460.45
464.96	9476.83
465.14	9423.00
465.32	9666.41
465.50	9568.11
465.69	9799.82
465.87	9675.77
466.05	9722.59
466.23	9509.60
466.41	9444.06
466.60	9907.49
466.78	9540.02
466.96	9654.71
467.14	9437.04
467.32	9762.37
467.51	9909.83
467.69	9362.14
467.87	9738.97
468.05	9989.41
468.23	9888.76
468.41	9699.18
468.60	10003.45
468.78	10052.60
468.96	10010.47
469.14	10106.43
469.32	10113.45
469.50	9788.12
469.69	10195.37
469.87	10134.52
470.05	10120.48
470.23	10258.57
470.41	10073.67
470.59	10284.31
470.77	10209.42
470.95	10525.39
471.14	10665.82
471.32	10492.62
471.50	10663.48
471.68	10630.71
471.86	10888.17
472.04	10946.69
472.22	11030.94
472.40	10527.73
472.58	10944.34
472.77	10899.87
472.95	11023.92
473.13	11332.87
473.31	10881.15
473.49	10853.06
473.67	11124.57
473.85	11236.91
474.03	11304.79
474.21	11335.21
474.39	11428.84
474.57	11529.48
474.75	11522.46
474.93	11840.77
475.12	11695.66
475.30	11744.81
475.48	11812.68
475.66	11520.12
475.84	11648.85
476.02	11990.56
476.20	11880.56
476.38	12123.98
476.56	12306.54
476.74	12379.09
476.92	12088.87
477.10	12222.28
477.28	12608.47
477.46	12470.37
477.64	12753.58
477.82	13151.47
478.00	13008.70
478.18	13088.28
478.36	13212.32
478.54	13439.36
478.72	13116.36
478.90	13659.37
479.08	13741.29
479.26	13738.94
479.44	13848.95
479.62	13743.63
479.80	13678.09
479.98	13998.74
480.16	14127.47
480.34	13895.76
480.52	14300.67
480.70	14476.21
480.88	14251.52
481.06	14586.22
481.24	14576.86
481.41	14876.44
481.59	15262.63
481.77	15117.52
481.95	15192.42
482.13	15328.17
482.31	15286.04
482.49	15379.66
482.67	15400.72
482.85	15679.25
483.03	15695.63
483.21	15812.66
483.39	16240.98
483.57	15990.54
483.74	16116.93
483.92	16423.54
484.10	16311.19
484.28	16152.04
484.46	16947.82
484.64	16978.25
484.82	16624.83
485.00	16718.45
485.18	16877.60
485.35	17174.85
485.53	16524.18
485.71	16844.84
485.89	17144.42
486.07	16964.20
486.25	17135.06
486.43	17429.97
486.61	17703.81
486.78	17994.04
486.96	18260.86
487.14	18405.97
487.32	18396.61
487.50	18637.69
487.68	18906.85
487.85	19213.46
488.03	19295.38
488.21	19449.85
488.39	19370.27
488.57	19398.36
488.75	19417.08
488.92	19690.93
489.10	19810.29
489.28	20135.63
489.46	20580.33
489.64	20645.87
489.81	21029.71
489.99	21069.50
490.17	20957.16
490.35	21214.62
490.53	21212.28
490.70	21305.90
490.88	21336.32
491.06	21680.38
491.24	21586.76
491.41	21490.80
491.59	21556.33
491.77	21699.11
491.95	21752.94
492.13	21876.99
492.30	22398.93
492.48	22614.26
492.66	22593.19
492.84	22551.06
493.01	23068.32
493.19	22932.57
493.37	23204.07
493.54	23356.21
493.72	23253.22
493.90	23391.31
494.08	23754.10
494.25	24283.06
494.43	23990.49
494.61	24278.38
494.79	24472.64
494.96	24140.29
495.14	24479.66
495.32	24641.16
495.49	24800.32
495.67	24863.51
495.85	25113.95
496.02	25266.08
496.20	25406.52
496.38	25223.95
496.55	25340.98
496.73	26202.30
496.91	25841.85
497.09	26019.74
497.26	26129.74
497.44	25685.04
497.62	25993.99
497.79	26513.59
497.97	26047.82
498.14	26274.85
498.32	26991.06
498.50	26747.64
498.67	27250.86
498.85	26981.70
499.03	27080.00
499.20	27068.30
499.38	27367.88
499.56	27541.08
499.73	27421.72
499.91	27548.11
500.08	27611.30
500.26	27267.24
500.44	27594.92
500.61	27716.62
500.79	27543.42
500.97	27786.84
501.14	27995.15
501.32	28311.12
501.49	28243.24
501.67	28320.48
501.84	28416.44
502.02	28329.84
502.20	28811.99
502.37	28830.72
502.55	28886.89
502.72	29036.69
502.90	29017.96
503.07	28865.83
503.25	28954.77
503.43	29174.78
503.60	29097.54
503.78	29530.54
503.95	29633.52
504.13	29713.10
504.30	29860.55
504.48	29717.78
504.65	30539.31
504.83	30181.21
505.01	29844.17
505.18	30590.80
505.36	30621.23
505.53	30649.32
505.71	31035.50
505.88	30852.94
506.06	30930.18
506.23	31047.21
506.41	30705.49
506.58	30988.69
506.76	30918.48
506.93	31005.08
507.11	31117.42
507.28	31386.58
507.46	31005.08
507.63	31091.68
507.81	31194.66
507.98	30862.30
508.16	31447.44
508.33	31613.62
508.50	31824.26
508.68	32126.19
508.85	32126.19
509.03	32203.43
509.20	32046.62
509.38	32301.73
509.55	32615.37
509.73	32488.98
509.90	32477.27
510.08	32343.86
510.25	32753.46
510.42	32907.93
510.60	33041.34
510.77	33305.82
510.95	33378.38
511.12	32800.27
511.30	33333.91
511.47	33565.62
511.64	33813.72
511.82	33556.26
511.99	33479.02
512.17	33776.27
512.34	33223.90
512.51	33759.89
512.69	33879.25
512.86	34258.42
513.04	34560.35
513.21	34075.86
513.38	33816.06
513.56	33949.47
513.73	33764.57
513.90	34436.30
514.08	34270.12
514.25	34125.01
514.43	34342.68
514.60	34593.12
514.77	34616.52
514.95	34597.80
515.12	34815.47
515.29	34979.31
515.47	35400.60
515.64	35150.17
515.81	35079.95
515.99	34848.24
516.16	35093.99
516.33	34635.25
516.51	35079.95
516.68	34377.79
516.85	34471.41
517.03	34494.82
517.20	35187.61
517.37	35255.49
517.54	35934.24
517.72	35204.00
517.89	35372.52
518.06	35386.56
518.24	35526.99
518.41	35761.05
518.58	35777.43
518.75	35632.32
518.93	36278.30
519.10	35990.42
519.27	35934.24
519.45	36418.74
519.62	36699.60
519.79	36507.68
519.96	36694.92
520.14	36678.54
520.31	36348.52
520.48	36844.71
520.65	36659.81
520.83	37116.22
521.00	37228.56
521.17	37174.73
521.34	37326.86
521.52	37479.00
521.69	37083.45
521.86	37652.20
522.03	37303.46
522.20	37614.75
522.38	37713.05
522.55	37418.14
522.72	37638.15
522.89	37509.43
523.07	37720.07
523.24	37710.71
523.41	38263.08
523.58	37954.13
523.75	38508.83
523.92	38635.22
524.10	38480.75
524.27	38660.97
524.44	38649.27
524.61	38520.54
524.78	38675.01
524.96	38876.30
525.13	39133.76
525.30	39435.69
525.47	39299.94
525.64	39037.80
525.81	39023.75
525.98	38810.76
526.16	38494.79
526.33	38110.94
526.50	38937.15
526.67	38473.73
526.84	38663.31
527.01	38717.14
527.18	39061.20
527.36	39468.45
527.53	39346.75
527.70	39634.63
527.87	39651.02
528.04	39934.22
528.21	39803.15
528.38	39819.53
528.55	39950.60
528.72	40524.04
528.89	40219.77
529.07	40355.52
529.24	39988.05
529.41	40341.47
529.58	40006.78
529.75	40304.02
529.92	40577.87
530.09	40533.40
530.26	40744.05
530.43	40458.50
530.60	40226.79
530.77	40872.78
530.94	41008.53
531.11	40289.98
531.28	40746.39
531.46	40945.33
531.63	40961.72
531.80	40512.33
531.97	40690.21
532.14	40809.58
532.31	40629.36
532.48	40552.12
532.65	41069.38
532.82	41097.47
532.99	41237.90
533.16	41165.34
533.33	40964.06
533.50	41450.89
533.67	41188.75
533.84	41254.28
534.01	41148.96
534.18	41273.01
534.35	41633.45
534.52	41249.60
534.69	41874.52
534.86	42139.00
535.03	41528.13
535.20	41897.93
535.37	42305.18
535.54	42911.38
535.71	42129.64
535.88	41911.97
536.05	42155.39
536.22	42272.42
536.38	42274.76
536.55	42143.69
536.72	42515.83
536.89	41963.46
537.06	42054.75
537.23	42518.17
537.40	42263.05
537.57	42377.74
537.74	42117.94
537.91	42824.78
538.08	42817.76
538.25	42089.85
538.42	42780.31
538.59	42937.13
538.75	42288.80
538.92	42705.41
539.09	42883.30
539.26	42740.52
539.43	42705.41
539.60	42960.53
539.77	42824.78
539.94	43084.58
540.11	42803.72
540.28	42689.03
540.44	42808.40
540.61	42899.68
540.78	42431.57
540.95	43182.88
541.12	42522.85
541.29	43414.60
541.46	43320.98
541.62	43299.91
541.79	43033.09
541.96	43285.87
542.13	43260.12
542.30	43442.68
542.47	43700.14
542.63	43154.80
542.80	43344.38
542.97	43480.13
543.14	44392.94
543.31	44182.29
543.48	43854.62
543.64	44432.73
543.81	44589.55
543.98	44135.48
544.15	44002.07
544.32	44605.93
544.48	44378.90
544.65	44484.22
544.82	44177.61
544.99	44065.27
545.16	44465.50
545.32	44350.81
545.49	44432.73
545.66	44500.61
545.83	44699.55
546.00	45186.38
546.16	44907.86
546.33	44409.32
546.50	44149.53
546.67	44573.16
546.83	44107.40
547.00	44573.16
547.17	44655.08
547.34	44374.22
547.50	44725.30
547.67	45200.43
547.84	44734.66
548.00	45029.57
548.17	44985.10
548.34	44582.52
548.51	44498.26
548.67	44954.67
548.84	45511.72
549.01	45329.16
549.18	45088.08
549.34	45394.69
549.51	44945.31
549.68	45191.06
549.84	45476.61
550.01	44987.44
550.18	44992.12
550.34	45275.32
550.51	44989.78
550.68	45642.79
550.84	44924.24
551.01	45415.76
551.18	45392.35
551.34	45319.79
551.51	45525.76
551.68	45380.65
551.84	46134.30
552.01	45542.14
552.18	45691.94
552.34	45102.12
552.51	45750.45
552.68	45759.81
552.84	45785.56
553.01	45879.18
553.18	45677.90
553.34	45968.12
553.51	45268.30
553.67	45979.82
553.84	46101.53
554.01	46078.13
554.17	46384.74
554.34	46543.89
554.51	46263.03
554.67	46380.06
554.84	45975.14
555.00	45771.52
555.17	45940.04
555.33	46401.12
555.50	45961.10
555.67	46358.99
555.83	46265.37
556.00	46148.34
556.16	46941.78
556.33	46174.09
556.50	46157.70
556.66	46431.55
556.83	46174.09
556.99	46621.13
557.16	46349.63
557.32	46583.68
557.49	46625.81
557.65	46272.39
557.82	46436.23
557.98	46593.04
558.15	46674.96
558.32	46265.37
558.48	46361.33
558.65	46403.46
558.81	46202.18
558.98	46328.56
559.14	46237.28
559.31	46473.68
559.47	46377.72
559.64	46841.14
559.80	47063.49
559.97	46806.03
560.13	46649.22
560.30	46450.27
560.46	46817.74
560.63	46635.17
560.79	46742.84
560.96	46703.05
561.12	46733.48
561.29	46897.31
561.45	46822.42
561.61	46841.14
561.78	46581.34
561.94	46604.75
562.11	47239.03
562.27	47096.26
562.44	46850.50
562.60	46787.31
562.77	47433.30
562.93	47136.05
563.10	46965.19
563.26	46698.37
563.42	47061.15
563.59	46976.89
563.75	46782.63
563.92	47136.05
564.08	46906.68
564.24	47138.39
564.41	46897.31
564.57	47229.67
564.74	47040.09
564.90	47021.36
565.07	46878.59
565.23	46969.87
565.39	46801.35
565.56	47248.39
565.72	46775.61
565.88	47105.62
566.05	46836.46
566.21	46939.44
566.38	47196.90
566.54	47114.98
566.70	47524.58
566.87	47360.74
567.03	47264.78
567.19	47508.19
567.36	47435.64
567.52	46983.91
567.68	47508.19
567.85	46969.87
568.01	47075.19
568.17	47000.30
568.34	47178.18
568.50	47122.01
568.66	47435.64
568.83	46909.02
568.99	46820.08
569.15	47164.14
569.32	47283.50
569.48	47199.24
569.64	47065.83
569.81	47428.62
569.97	46579.00
570.13	47026.04
570.30	46948.81
570.46	47033.07
570.62	46806.03
570.78	47253.08
570.95	47033.07
571.11	47367.76
571.27	46941.78
571.43	47098.60
571.60	47232.01
571.76	47182.86
571.92	47384.15
572.09	47063.49
572.25	46904.34
572.41	47075.19
572.57	46974.55
572.74	48170.57
572.90	47196.90
573.06	47292.86
573.22	47456.70
573.38	47105.62
573.55	47077.54
573.71	47566.71
573.87	47353.72
574.03	46976.89
574.20	47515.22
574.36	46962.85
574.52	47442.66
574.68	47131.37
574.84	47435.64
575.01	47489.47
575.17	47442.66
575.33	47072.85
575.49	47217.97
575.65	47203.92
575.82	47026.04
575.98	47189.88
576.14	47533.94
576.30	47704.80
576.46	47290.52
576.62	47306.91
576.79	46784.97
576.95	46923.06
577.11	46953.49
577.27	47463.72
577.43	47489.47
577.59	47477.77
577.75	47110.30
577.92	47021.36
578.08	46951.15
578.24	46848.16
578.40	47220.31
578.56	47342.02
578.72	47164.14
578.88	47393.51
579.04	47566.71
579.21	46932.42
579.37	47047.11
579.53	47297.55
579.69	47468.40
579.85	47765.65
580.01	47526.92
580.17	47632.24
580.33	47653.31
580.49	47498.83
580.65	47571.39
580.82	47620.54
580.98	47445.00
581.14	46969.87
581.30	47468.40
581.46	47655.65
581.62	47566.71
581.78	47243.71
581.94	47452.02
582.10	47576.07
582.26	47807.78
582.42	47533.94
582.58	47845.23
582.74	47679.05
582.90	47643.94
583.06	47665.01
583.22	47711.82
583.38	47615.86
583.54	47812.46
583.70	47636.92
583.86	47824.17
584.02	46995.62
584.18	47452.02
584.34	47435.64
584.50	47178.18
584.66	47639.26
584.82	47473.09
584.98	47695.44
585.14	47599.47
585.30	47632.24
585.46	47648.63
585.62	47091.58
585.78	47470.75
585.94	47468.40
586.10	47524.58
586.26	47189.88
586.42	47501.17
586.58	48076.94
586.74	47557.35
586.90	47660.33
587.06	47234.35
587.22	47430.96
587.38	47283.50
587.54	47690.76
587.70	47779.70
587.86	47821.83
588.02	47590.11
588.18	47421.59
588.34	47033.07
588.49	47014.34
588.65	46766.24
588.81	47030.72
588.97	47370.10
589.13	47072.85
589.29	47227.33
589.45	46806.03
589.61	47239.03
589.77	47447.34
