SpectraSuite Data File
++++++++++++++++++++++++++++++++++++
Date: Fri Oct 25 11:34:24 EDT 2013
User: price-jones
Dark Spectrum Present: No
Reference Spectrum Present: No
Number of Sampled Component Spectra: 1
Spectrometers: USB2+H05261
Integration Time (usec): 100000 (USB2+H05261)
Spectra Averaged: 1 (USB2+H05261)
Boxcar Smoothing: 0 (USB2+H05261)
Correct for Electrical Dark: No (USB2+H05261)
Strobe/Lamp Enabled: No (USB2+H05261)
Correct for Detector Non-linearity: No (USB2+H05261)
Correct for Stray Light: No (USB2+H05261)
Number of Pixels in Processed Spectrum: 2048
>>>>>Begin Processed Spectral Data<<<<<
365.73	287.89
365.92	287.89
366.12	287.89
366.32	222.35
366.52	156.82
366.72	238.73
366.91	271.50
367.11	119.37
367.31	175.54
367.51	156.82
367.70	152.13
367.90	154.48
368.10	138.09
368.30	203.63
368.49	154.48
368.69	187.24
368.89	224.69
369.09	227.03
369.28	229.37
369.48	250.44
369.68	217.67
369.87	212.99
370.07	299.59
370.27	238.73
370.47	320.65
370.66	451.72
370.86	505.56
371.06	524.28
371.25	456.40
371.45	465.77
371.65	538.32
371.84	479.81
372.04	578.11
372.24	540.66
372.44	550.03
372.63	641.31
372.83	585.13
373.03	634.29
373.22	587.47
373.42	624.92
373.62	493.85
373.81	622.58
374.01	634.29
374.21	692.80
374.40	643.65
374.60	676.41
374.79	667.05
374.99	662.37
375.19	636.63
375.38	690.46
375.58	650.67
375.78	641.31
375.97	627.26
376.17	603.86
376.37	627.26
376.56	664.71
376.76	629.60
376.95	648.33
377.15	713.86
377.35	657.69
377.54	685.78
377.74	610.88
377.93	690.46
378.13	690.46
378.33	753.65
378.52	634.29
378.72	706.84
378.91	674.07
379.11	713.86
379.31	727.91
379.50	786.42
379.70	753.65
379.89	704.50
380.09	695.14
380.28	608.54
380.48	624.92
380.68	664.71
380.87	699.82
381.07	741.95
381.26	826.21
381.46	760.67
381.65	791.10
381.85	695.14
382.04	753.65
382.24	711.52
382.43	819.19
382.63	758.33
382.83	706.84
383.02	805.14
383.22	723.23
383.41	795.78
383.61	774.72
383.80	835.57
384.00	847.27
384.19	751.31
384.39	807.48
384.58	763.01
384.78	835.57
384.97	835.57
385.17	784.08
385.36	826.21
385.56	887.06
385.75	830.89
385.95	910.47
386.14	866.00
386.34	950.26
386.53	844.93
386.72	795.78
386.92	819.19
387.11	933.87
387.31	915.15
387.50	940.90
387.70	894.08
387.89	884.72
388.09	887.06
388.28	849.61
388.48	823.87
388.67	983.02
388.86	910.47
389.06	877.70
389.25	957.28
389.45	940.90
389.64	924.51
389.84	1008.77
390.03	922.17
390.22	919.83
390.42	983.02
390.61	924.51
390.81	940.90
391.00	903.45
391.19	1015.79
391.39	896.43
391.58	861.32
391.78	1013.45
391.97	985.37
392.16	1043.88
392.36	1027.50
392.55	1093.03
392.75	1114.10
392.94	1039.20
393.13	1111.75
393.33	1011.11
393.52	1078.99
393.71	1093.03
393.91	1055.58
394.10	1088.35
394.29	1090.69
394.49	1022.81
394.68	1097.71
394.88	1170.27
395.07	1053.24
395.26	1057.92
395.46	1102.39
395.65	1165.59
395.84	1172.61
396.04	1214.74
396.23	1069.62
396.42	1093.03
396.62	1109.41
396.81	1193.67
397.00	1235.80
397.19	1188.99
397.39	1128.14
397.58	1242.82
397.77	1196.01
397.97	1256.87
398.16	1242.82
398.35	1254.53
398.55	1198.35
398.74	1207.72
398.93	1345.81
399.12	1193.67
399.32	1249.85
399.51	1287.29
399.70	1217.08
399.90	1245.16
400.09	1313.04
400.28	1369.21
400.47	1303.68
400.67	1390.28
400.86	1394.96
401.05	1448.79
401.24	1493.26
401.44	1439.43
401.63	1394.96
401.82	1376.24
402.01	1336.45
402.21	1418.36
402.40	1451.13
402.59	1413.68
402.78	1371.55
402.97	1404.32
403.17	1465.18
403.36	1472.20
403.55	1462.83
403.74	1509.65
403.93	1516.67
404.13	1593.90
404.32	1593.90
404.51	1577.52
404.70	1650.08
404.89	1551.78
405.09	1600.93
405.28	1715.61
405.47	1636.03
405.66	1636.03
405.85	1631.35
406.05	1678.16
406.24	1748.38
406.43	1626.67
406.62	1743.70
406.81	1860.73
407.00	1722.63
407.20	1624.33
407.39	1851.36
407.58	1760.08
407.77	1895.83
407.96	1778.81
408.15	1907.54
408.34	1783.49
408.54	1825.62
408.73	1909.88
408.92	1809.23
409.11	1926.26
409.30	1823.28
409.49	1886.47
409.68	1933.28
409.87	1926.26
410.07	1907.54
410.26	1956.69
410.45	2054.99
410.64	2026.90
410.83	2083.08
411.02	2050.31
411.21	2153.29
411.40	2111.16
411.59	2132.23
411.78	2305.43
411.98	2136.91
412.17	2153.29
412.36	2146.27
412.55	2186.06
412.74	2223.51
412.93	2345.22
413.12	2193.08
413.31	2319.47
413.50	2246.91
413.69	2347.56
413.88	2307.77
414.07	2441.18
414.26	2385.01
414.45	2373.30
414.64	2413.09
414.83	2525.44
415.02	2558.21
415.22	2464.58
415.41	2480.97
415.60	2558.21
415.79	2579.27
415.98	2619.06
416.17	2607.36
416.36	2605.02
416.55	2658.85
416.74	2703.32
416.93	2686.94
417.12	2654.17
417.31	2822.69
417.50	2675.23
417.69	2981.84
417.88	2820.35
418.07	2860.13
418.26	2874.18
418.45	2799.28
418.64	3084.83
418.83	2904.60
419.02	2883.54
419.21	2953.76
419.39	3047.38
419.58	2981.84
419.77	2986.52
419.96	3038.02
420.15	3040.36
420.34	2974.82
420.53	3136.32
420.72	3300.16
420.91	3105.89
421.10	3126.96
421.29	3073.12
421.48	3126.96
421.67	3155.04
421.86	3208.87
422.05	3117.59
422.24	3255.69
422.43	3346.97
422.61	3199.51
422.80	3321.22
422.99	3346.97
423.18	3180.79
423.37	3227.60
423.56	3337.60
423.75	3243.98
423.94	3126.96
424.13	3122.27
424.32	3162.06
424.50	3304.84
424.69	3522.51
424.88	3410.16
425.07	3363.35
425.26	3265.05
425.45	3344.63
425.64	3269.73
425.83	3260.37
426.01	3321.22
426.20	3222.92
426.39	3396.12
426.58	3265.05
426.77	3323.56
426.96	3379.73
427.15	3379.73
427.33	3403.14
427.52	3428.88
427.71	3468.67
427.90	3396.12
428.09	3428.88
428.28	3559.95
428.46	3646.55
428.65	3393.78
428.84	3712.09
429.03	3672.30
429.22	3440.59
429.40	3534.21
429.59	3585.70
429.78	3571.66
429.97	3482.72
430.16	3611.45
430.34	3808.05
430.53	3609.11
430.72	3721.45
430.91	3815.07
431.10	3660.60
431.28	3735.50
431.47	3882.95
431.66	3997.64
431.85	3763.58
432.03	3936.78
432.22	4002.32
432.41	3901.67
432.60	3997.64
432.79	3939.12
432.97	4016.36
433.16	3922.74
433.35	4032.74
433.54	4058.49
433.72	4060.83
433.91	4011.68
434.10	4046.79
434.28	3920.40
434.47	3964.87
434.66	4133.39
434.85	4152.11
435.03	4140.41
435.22	4142.75
435.41	4301.90
435.59	4264.46
435.78	4215.30
435.97	4241.05
436.16	4245.73
436.34	4077.21
436.53	4313.61
436.72	4402.55
436.90	4236.37
437.09	4514.89
437.28	4191.90
437.46	4290.20
437.65	4451.70
437.84	4355.74
438.02	4418.93
438.21	4475.10
438.40	4297.22
438.58	4800.44
438.77	4554.68
438.96	4472.76
439.14	4772.35
439.33	4545.32
439.52	4781.71
439.70	4702.14
439.89	4798.10
440.08	4910.44
440.26	4844.91
440.45	4634.26
440.63	4919.81
440.82	4959.60
441.01	5076.62
441.19	4966.62
441.38	5158.54
441.57	5053.22
441.75	5151.52
441.94	5085.98
442.12	5174.92
442.31	5226.42
442.50	5310.68
442.68	5118.75
442.87	5254.50
443.05	5284.93
443.24	5378.55
443.43	5298.97
443.61	5240.46
443.80	5523.66
443.98	5083.64
444.17	5107.05
444.35	5331.74
444.54	5451.11
444.73	5423.02
444.91	5479.19
445.10	5563.45
445.28	5397.28
445.47	5432.38
445.65	5462.81
445.84	5364.51
446.02	5612.60
446.21	5380.89
446.39	5547.07
446.58	5657.07
446.77	5589.20
446.95	5331.74
447.14	5547.07
447.32	5556.43
447.51	5411.32
447.69	5589.20
447.88	5664.10
448.06	5533.03
448.25	5486.22
448.43	5535.37
448.62	5528.35
448.80	5654.73
448.99	5783.46
449.17	5647.71
449.36	5598.56
449.54	5839.64
449.73	5823.25
449.91	5954.32
450.10	5762.40
450.28	6019.86
450.46	5834.96
450.65	6001.13
450.83	5851.34
451.02	5954.32
451.20	5977.73
451.39	5839.64
451.57	5951.98
451.76	6045.60
451.94	5991.77
452.13	6040.92
452.31	5959.00
452.49	6015.18
452.68	6235.19
452.86	5841.98
453.05	6167.31
453.23	6108.80
453.42	6207.10
453.60	6282.00
453.78	6342.85
453.97	6106.46
454.15	6120.50
454.34	6232.85
454.52	6305.40
454.70	6092.41
454.89	6366.26
455.07	6370.94
455.26	6434.13
455.44	6565.20
455.62	6394.34
455.81	6352.21
455.99	6452.86
456.17	6604.99
456.36	6333.49
456.54	6509.03
456.73	6558.18
456.91	6827.34
457.09	6761.81
457.28	6775.85
457.46	6569.88
457.64	6923.30
457.83	6883.52
458.01	6766.49
458.19	7131.61
458.38	6937.35
458.56	6853.09
458.74	7087.14
458.93	6839.05
459.11	6911.60
459.29	6946.71
459.48	6911.60
459.66	7037.99
459.84	7028.63
460.03	7089.48
460.21	7105.87
460.39	7126.93
460.57	7197.15
460.76	7199.49
460.94	7066.08
461.12	7267.36
461.31	7192.47
461.49	7314.17
461.67	7105.87
461.85	7342.26
462.04	7379.71
462.22	7810.37
462.40	7583.34
462.59	7604.40
462.77	7396.09
462.95	7503.76
463.13	7658.23
463.32	7489.71
463.50	7623.12
463.68	7604.40
463.86	7637.17
464.05	7466.31
464.23	7632.49
464.41	7674.62
464.59	7618.44
464.78	7915.69
464.96	7712.07
465.14	7578.65
465.32	7798.66
465.50	7761.22
465.69	7854.84
465.87	7681.64
466.05	7871.22
466.23	7892.29
466.41	7808.03
466.60	7969.52
466.78	7915.69
466.96	7960.16
467.14	7962.50
467.32	7918.03
467.51	7974.21
467.69	7936.76
467.87	8030.38
468.05	7946.12
468.23	7967.18
468.41	8053.78
468.60	8077.19
468.78	8044.42
468.96	8229.32
469.14	8084.21
469.32	8311.24
469.50	8028.04
469.69	8423.59
469.87	8334.65
470.05	8276.13
470.23	8503.17
470.41	8477.42
470.59	8573.38
470.77	8327.63
470.95	8568.70
471.14	8514.87
471.32	8517.21
471.50	8683.39
471.68	8571.04
471.86	8695.09
472.04	8685.73
472.22	8931.48
472.40	8898.72
472.58	8875.31
472.77	8896.38
472.95	9018.08
473.13	9387.89
473.31	9085.96
473.49	9048.51
473.67	8982.98
473.85	9188.94
474.03	9586.83
474.21	9577.47
474.39	9350.44
474.57	9509.60
474.75	9605.56
474.93	9427.68
475.12	9628.96
475.30	9418.32
475.48	9654.71
475.66	9760.03
475.84	9577.47
476.02	9837.27
476.20	9825.57
476.38	10040.90
476.56	10293.68
476.74	9984.73
476.92	10106.43
477.10	9989.41
477.28	10209.42
477.46	10352.19
477.64	10251.55
477.82	10354.53
478.00	10810.93
478.18	10485.60
478.36	10787.53
478.54	10883.49
478.72	11021.58
478.90	11035.63
479.08	11089.46
479.26	11162.01
479.44	11363.30
479.62	11421.81
479.80	11676.93
479.98	11428.84
480.16	11868.86
480.34	11899.28
480.52	11829.07
480.70	11735.45
480.88	11775.24
481.06	11859.49
481.24	11969.50
481.41	12145.04
481.59	12116.95
481.77	12547.61
481.95	12114.61
482.13	12432.93
482.31	12554.63
482.49	12769.96
482.67	12786.35
482.85	13273.18
483.03	12980.61
483.21	13071.89
483.39	13315.31
483.57	13018.06
483.74	13334.03
483.92	13460.42
484.10	13495.53
484.28	13692.13
484.46	14083.00
484.64	13954.27
484.82	13940.23
485.00	14242.16
485.18	14204.71
485.35	14590.90
485.53	14565.15
485.71	14546.43
485.89	14633.03
486.07	14820.27
486.25	14916.23
486.43	15063.69
486.61	15112.84
486.78	15136.24
486.96	15218.16
487.14	15220.50
487.32	15660.52
487.50	15695.63
487.68	15768.19
487.85	15882.88
488.03	15875.85
488.21	16425.88
488.39	16322.90
488.57	16507.80
488.75	16411.84
488.92	16629.51
489.10	17015.69
489.28	16947.82
489.46	17114.00
489.64	17137.40
489.81	17514.23
489.99	17565.72
490.17	17420.61
490.35	17659.34
490.53	17839.56
490.70	17982.34
490.88	17961.27
491.06	18300.65
491.24	18363.84
491.41	18663.43
491.59	18286.61
491.77	18583.85
491.95	18635.35
492.13	18796.84
492.30	18934.93
492.48	18941.96
492.66	19115.16
492.84	19218.14
493.01	19236.86
493.19	19428.79
493.37	19534.11
493.54	19463.90
493.72	19702.63
493.90	19967.11
494.08	20042.01
494.25	20182.44
494.43	20414.15
494.61	20350.96
494.79	20367.34
494.96	20538.20
495.14	20493.73
495.32	21128.02
495.49	20926.73
495.67	21071.84
495.85	21376.11
496.02	21113.97
496.20	21467.39
496.38	21455.69
496.55	21326.96
496.73	21755.28
496.91	21869.97
497.09	22040.82
497.26	22281.90
497.44	22099.34
497.62	22363.82
497.79	22412.97
497.97	22525.32
498.14	22450.42
498.32	22583.83
498.50	22808.52
498.67	23058.96
498.85	22967.68
499.03	23197.05
499.20	22878.74
499.38	23110.45
499.56	23461.53
499.73	23435.78
499.91	23573.88
500.08	23662.82
500.26	23604.30
500.44	24034.96
500.61	24063.05
500.79	23831.33
500.97	24215.18
501.14	24180.07
501.32	24762.87
501.49	24435.19
501.67	24381.36
501.84	24624.78
502.02	24545.20
502.20	24622.44
502.37	24709.04
502.55	24760.53
502.72	24746.48
502.90	24961.81
503.07	24959.47
503.25	24917.34
503.43	24994.58
503.60	25371.41
503.78	25268.42
503.95	25296.51
504.13	25570.35
504.30	25495.46
504.48	25823.13
504.65	25638.23
504.83	25921.43
505.01	26284.22
505.18	25837.17
505.36	26338.05
505.53	26050.16
505.71	26436.35
505.88	26522.95
506.06	26185.91
506.23	26426.99
506.41	26391.88
506.58	26588.49
506.76	26916.16
506.93	26829.56
507.11	27147.87
507.28	26834.24
507.46	27108.08
507.63	27042.55
507.81	27307.03
507.98	26958.29
508.16	27360.86
508.33	27447.46
508.50	27658.11
508.68	27627.68
508.85	27840.67
509.03	27545.76
509.20	28025.57
509.38	28098.13
509.55	28332.18
509.73	28287.71
509.90	28187.07
510.08	28271.33
510.25	28374.31
510.42	28151.96
510.60	28807.31
510.77	28739.44
510.95	28718.37
511.12	28554.54
511.30	29048.39
511.47	28957.11
511.64	28709.01
511.82	29144.35
511.99	29198.18
512.17	29277.76
512.34	29399.47
512.51	29982.26
512.69	29553.94
512.86	29687.36
513.04	29865.24
513.21	29577.35
513.38	30059.50
513.56	30043.12
513.73	29682.67
513.90	29720.12
514.08	29895.66
514.25	29923.75
514.43	30445.69
514.60	30441.01
514.77	30246.74
514.95	30263.13
515.12	30586.12
515.29	30803.79
515.47	30796.77
515.64	30778.04
515.81	30553.35
515.99	31124.44
516.16	31131.47
516.33	30916.14
516.51	31314.03
516.68	30817.83
516.85	31323.39
517.03	31309.35
517.20	31725.96
517.37	31147.85
517.54	31674.47
517.72	31566.81
517.89	31606.59
518.06	31278.92
518.24	31756.39
518.41	31564.46
518.58	31707.24
518.75	31651.06
518.93	31978.74
519.10	32084.06
519.27	32088.74
519.45	32268.97
519.62	32449.19
519.79	32088.74
519.96	32208.11
520.14	32486.64
520.31	32601.32
520.48	32687.92
520.65	32779.20
520.83	32840.06
521.00	32992.19
521.17	33235.61
521.34	33244.97
521.52	32959.42
521.69	33266.03
521.86	33518.81
522.03	33291.78
522.20	33949.47
522.38	33809.04
522.55	33579.67
522.72	33605.41
522.89	33326.89
523.07	34017.35
523.24	33862.87
523.41	33961.17
523.58	33963.51
523.75	33900.32
523.92	34085.22
524.10	33986.92
524.27	33947.13
524.44	34293.53
524.61	34579.07
524.78	34511.20
524.96	34590.78
525.13	34541.63
525.30	34829.51
525.47	34841.21
525.64	34668.02
525.81	34609.50
525.98	35044.84
526.16	35016.75
526.33	34658.65
526.50	35463.80
526.67	34803.77
526.84	35498.91
527.01	35180.59
527.18	35072.93
527.36	35108.04
527.53	35241.45
527.70	35931.90
527.87	35974.03
528.04	35555.08
528.21	35817.22
528.38	35744.66
528.55	35578.48
528.72	35501.25
528.89	35669.76
529.07	35838.28
529.24	35885.09
529.41	36187.02
529.58	35775.09
529.75	35894.46
529.92	36299.37
530.09	35819.56
530.26	36404.69
530.43	36378.95
530.60	36051.27
530.77	36147.23
530.94	36070.00
531.11	36037.23
531.28	36397.67
531.46	36828.33
531.63	36573.21
531.80	36627.04
531.97	36645.77
532.14	36514.70
532.31	36376.61
532.48	37022.59
532.65	37181.75
532.82	37071.75
532.99	36781.52
533.16	37017.91
533.33	36727.69
533.50	37317.50
533.67	37345.59
533.84	37247.29
534.01	37216.86
534.18	37394.74
534.35	37961.15
534.52	37525.81
534.69	37944.76
534.86	38045.41
535.03	37701.35
535.20	37610.07
535.37	37701.35
535.54	37888.59
535.71	37909.66
535.88	37951.79
536.05	37839.44
536.22	38267.76
536.38	38019.66
536.55	38136.69
536.72	37893.27
536.89	38270.10
537.06	38384.79
537.23	38562.67
537.40	38146.05
537.57	38328.61
537.74	38113.28
537.91	38740.55
538.08	38085.20
538.25	38443.30
538.42	38763.95
538.59	39002.69
538.75	38396.49
538.92	38799.06
539.09	39299.94
539.26	38827.15
539.43	38820.13
539.60	39302.28
539.77	38885.66
539.94	39409.94
540.11	38953.54
540.28	39131.42
540.44	38857.57
540.61	39264.83
540.78	39091.63
540.95	39302.28
541.12	39281.21
541.29	39388.88
541.46	39709.53
541.62	39239.08
541.79	39826.56
541.96	38911.41
542.13	39346.75
542.30	39646.33
542.47	39655.70
542.63	39768.04
542.80	40079.33
542.97	39828.90
543.14	40229.13
543.31	40311.05
543.48	40023.16
543.64	40107.42
543.81	40081.67
543.98	40453.82
544.15	40470.20
544.32	40339.13
544.48	40753.41
544.65	40495.95
544.82	40992.14
544.99	40533.40
545.16	40491.27
545.32	40491.27
545.49	40725.32
545.66	41141.94
545.83	40802.56
546.00	40865.75
546.16	41017.89
546.33	40500.63
546.50	40875.12
546.67	41303.43
546.83	41036.61
547.00	40643.40
547.17	40821.28
547.34	40816.60
547.50	41448.55
547.67	41432.16
547.84	41186.41
548.00	41406.42
548.17	41675.58
548.34	41603.02
548.51	41867.50
548.67	41968.15
548.84	41738.77
549.01	41769.20
549.18	41420.46
549.34	41698.98
549.51	41553.87
549.68	41851.12
549.84	41326.84
550.01	41963.46
550.18	41628.77
550.34	41588.98
550.51	42291.14
550.68	41879.21
550.84	42232.63
551.01	42382.42
551.18	41883.89
551.34	42066.45
551.51	42536.90
551.68	41631.11
551.84	41741.11
552.01	42012.62
552.18	42204.54
552.34	42412.85
552.51	42258.37
552.68	42213.90
552.84	42164.75
553.01	42220.92
553.18	42586.05
553.34	42356.67
553.51	42462.00
553.67	42340.29
553.84	42616.47
554.01	42923.08
554.17	42623.50
554.34	42403.49
554.51	42604.77
554.67	42878.61
554.84	42738.18
555.00	43065.86
555.17	42930.11
555.33	43044.79
555.50	42829.46
555.67	43328.00
555.83	42953.51
556.00	43234.38
556.16	43435.66
556.33	43592.48
556.50	43061.18
556.66	42862.23
556.83	42951.17
556.99	43459.07
557.16	43803.13
557.32	43777.38
557.49	43856.96
557.65	42906.70
557.82	43335.02
557.98	43533.96
558.15	43386.51
558.32	43660.35
558.48	42979.26
558.65	43629.93
558.81	43529.28
558.98	43639.29
559.14	43192.25
559.31	43246.08
559.47	43700.14
559.64	43761.00
559.80	43562.05
559.97	44205.70
560.13	43569.07
560.30	43047.13
560.46	43847.60
560.63	44264.21
560.79	44093.35
560.96	44170.59
561.12	43885.04
561.29	44081.65
561.45	43842.92
561.61	44018.46
561.78	43854.62
561.94	43765.68
562.11	43840.57
562.27	43966.96
562.44	44032.50
562.60	44444.43
562.77	44142.50
562.93	43735.25
563.10	44147.18
563.26	43990.37
563.42	44418.69
563.59	44130.80
563.75	44428.05
563.92	44238.47
564.08	43985.69
564.24	44685.51
564.41	44093.35
564.57	44196.34
564.74	44631.68
564.90	44402.30
565.07	44257.19
565.23	44411.67
565.39	44210.38
565.56	44790.83
565.72	44577.84
565.88	44332.09
566.05	44507.63
566.21	44699.55
566.38	44158.89
566.54	44509.97
566.70	44776.79
566.87	44690.19
567.03	44140.16
567.19	44947.65
567.36	44776.79
567.52	44715.93
567.68	44746.36
567.85	44842.32
568.01	44863.39
568.17	44659.76
568.34	44774.45
568.50	44538.05
568.66	44521.67
568.83	44706.57
568.99	44287.62
569.15	44767.43
569.32	44500.61
569.48	44612.95
569.64	44926.58
569.81	44500.61
569.97	45031.91
570.13	44966.37
570.30	44797.85
570.46	44538.05
570.62	44868.07
570.78	45125.53
570.95	44825.94
571.11	45036.59
571.27	45191.06
571.43	44987.44
571.60	45130.21
571.76	44645.72
571.92	44865.73
572.09	44903.18
572.25	44935.95
572.41	44898.50
572.57	45162.98
572.74	45336.18
572.90	44996.80
573.06	45291.71
573.22	45284.68
573.38	45205.11
573.55	44870.41
573.71	45303.41
573.87	45595.98
574.03	44966.37
574.20	45467.25
574.36	45612.36
574.52	45661.51
574.68	45146.59
574.84	45158.30
575.01	45031.91
575.17	45263.62
575.33	45134.89
575.49	45017.86
575.65	45390.01
575.82	45144.25
575.98	44992.12
576.14	45361.92
576.30	45656.83
576.46	45837.05
576.62	45205.11
576.79	45130.21
576.95	44804.88
577.11	45174.68
577.27	45427.46
577.43	45167.66
577.59	45352.56
577.75	45280.00
577.92	45443.84
578.08	45610.02
578.24	45464.91
578.40	45713.00
578.56	45591.30
578.72	45640.45
578.88	45663.85
579.04	45265.96
579.21	45579.59
579.37	45249.58
579.53	45631.08
579.69	45280.00
579.85	45287.03
580.01	45170.00
580.17	45453.20
580.33	45539.80
580.49	45581.93
580.65	45607.68
580.82	45574.91
580.98	45361.92
581.14	45296.39
581.30	45340.86
581.46	45223.83
581.62	45469.59
581.78	45570.23
581.94	45205.11
582.10	45427.46
582.26	45598.32
582.42	45521.08
582.58	45174.68
582.74	45642.79
582.90	45872.16
583.06	45495.33
583.22	45455.54
583.38	45305.75
583.54	45315.11
583.70	45237.87
583.86	45911.95
584.02	45478.95
584.18	46293.46
584.34	45991.53
584.50	45993.87
584.66	45890.88
584.82	45785.56
584.98	45925.99
585.14	45652.15
585.30	45478.95
585.46	45755.13
585.62	45443.84
585.78	45727.05
585.94	44971.05
586.10	45539.80
586.26	45745.77
586.42	45631.08
586.58	45340.86
586.74	45911.95
586.90	45193.40
587.06	45378.31
587.22	46012.59
587.38	45635.77
587.54	45830.03
587.70	46019.61
587.86	45734.07
588.02	45911.95
588.18	45755.13
588.34	45212.13
588.49	45659.17
588.65	45656.83
588.81	46096.85
588.97	46089.83
589.13	46071.10
589.29	45612.36
589.45	46473.68
589.61	45647.47
589.77	46082.81
589.93	46003.23
590.08	45851.09
