SpectraSuite Data File
++++++++++++++++++++++++++++++++++++
Date: Fri Oct 25 10:47:24 EDT 2013
User: price-jones
Dark Spectrum Present: No
Reference Spectrum Present: No
Number of Sampled Component Spectra: 1
Spectrometers: USB2+H05261
Integration Time (usec): 100000 (USB2+H05261)
Spectra Averaged: 1 (USB2+H05261)
Boxcar Smoothing: 0 (USB2+H05261)
Correct for Electrical Dark: No (USB2+H05261)
Strobe/Lamp Enabled: No (USB2+H05261)
Correct for Detector Non-linearity: No (USB2+H05261)
Correct for Stray Light: No (USB2+H05261)
Number of Pixels in Processed Spectrum: 2048
>>>>>Begin Processed Spectral Data<<<<<
365.73	124.05
365.92	124.05
366.12	124.05
366.32	30.43
366.52	44.47
366.72	65.54
366.91	56.17
367.11	0.00
367.31	28.09
367.51	84.26
367.70	28.09
367.90	81.92
368.10	98.30
368.30	58.51
368.49	30.43
368.69	100.64
368.89	51.49
369.09	51.49
369.28	74.90
369.48	72.56
369.68	126.39
369.87	117.03
370.07	51.49
370.27	133.41
370.47	222.35
370.66	341.72
370.86	390.87
371.06	517.26
371.25	397.89
371.45	468.11
371.65	503.22
371.84	430.66
372.04	491.51
372.24	482.15
372.44	437.68
372.63	496.19
372.83	521.94
373.03	461.09
373.22	517.26
373.42	538.32
373.62	526.62
373.81	538.32
374.01	526.62
374.21	528.96
374.40	580.45
374.60	615.56
374.79	491.51
374.99	578.11
375.19	568.75
375.38	660.03
375.58	634.29
375.78	603.86
375.97	599.18
376.17	624.92
376.37	575.77
376.56	550.03
376.76	650.67
376.95	599.18
377.15	582.79
377.35	631.94
377.54	594.50
377.74	552.37
377.93	596.84
378.13	601.52
378.33	674.07
378.52	624.92
378.72	638.97
378.91	678.76
379.11	638.97
379.31	582.79
379.50	667.05
379.70	732.59
379.89	608.54
380.09	582.79
380.28	641.31
380.48	655.35
380.68	606.20
380.87	645.99
381.07	615.56
381.26	784.08
381.46	674.07
381.65	587.47
381.85	617.90
382.04	664.71
382.24	697.48
382.43	699.82
382.63	638.97
382.83	645.99
383.02	655.35
383.22	697.48
383.41	702.16
383.61	763.01
383.80	732.59
384.00	725.57
384.19	788.76
384.39	723.23
384.58	791.10
384.78	798.12
384.97	753.65
385.17	770.04
385.36	791.10
385.56	814.51
385.75	744.29
385.95	826.21
386.14	730.25
386.34	812.17
386.53	767.70
386.72	849.61
386.92	741.95
387.11	854.30
387.31	760.67
387.50	830.89
387.70	854.30
387.89	805.14
388.09	891.74
388.28	903.45
388.48	791.10
388.67	924.51
388.86	854.30
389.06	830.89
389.25	830.89
389.45	882.38
389.64	898.77
389.84	870.68
390.03	938.55
390.22	915.15
390.42	931.53
390.61	919.83
390.81	922.17
391.00	950.26
391.19	959.62
391.39	887.06
391.58	901.11
391.78	1011.11
391.97	978.34
392.16	964.30
392.36	1011.11
392.55	1022.81
392.75	919.83
392.94	954.94
393.13	950.26
393.33	987.71
393.52	1020.47
393.71	1078.99
393.91	1069.62
394.10	1015.79
394.29	1116.44
394.49	971.32
394.68	1048.56
394.88	1135.16
395.07	1111.75
395.26	1193.67
395.46	1198.35
395.65	1137.50
395.84	1036.86
396.04	1207.72
396.23	1135.16
396.42	1142.18
396.62	1174.95
396.81	1050.90
397.00	1022.81
397.19	1214.74
397.39	1188.99
397.58	1203.04
397.77	1186.65
397.97	1266.23
398.16	1231.12
398.35	1369.21
398.55	1345.81
398.74	1348.15
398.93	1350.49
399.12	1277.93
399.32	1256.87
399.51	1406.66
399.70	1446.45
399.90	1432.41
400.09	1401.98
400.28	1444.11
400.47	1401.98
400.67	1472.20
400.86	1416.02
401.05	1446.45
401.24	1455.81
401.44	1533.05
401.63	1420.71
401.82	1409.00
402.01	1476.88
402.21	1542.41
402.40	1472.20
402.59	1500.28
402.78	1511.99
402.97	1549.43
403.17	1654.76
403.36	1598.59
403.55	1586.88
403.74	1708.59
403.93	1675.82
404.13	1703.91
404.32	1661.78
404.51	1685.19
404.70	1685.19
404.89	1664.12
405.09	1694.55
405.28	1739.02
405.47	1692.21
405.66	1788.17
405.85	1825.62
406.05	1657.10
406.24	1778.81
406.43	1678.16
406.62	1874.77
406.81	1928.60
407.00	1942.64
407.20	1846.68
407.39	1846.68
407.58	1820.94
407.77	1935.62
407.96	2036.27
408.15	2015.20
408.34	2118.18
408.54	2024.56
408.73	1994.14
408.92	1954.35
409.11	1949.67
409.30	1923.92
409.49	2071.37
409.68	2026.90
409.87	2076.06
410.07	2057.33
410.26	2127.55
410.45	2085.42
410.64	2179.04
410.83	2190.74
411.02	2209.47
411.21	2401.39
411.40	2279.68
411.59	2368.62
411.78	2338.20
411.98	2331.17
412.17	2377.98
412.36	2305.43
412.55	2340.54
412.74	2347.56
412.93	2567.57
413.12	2473.95
413.31	2546.50
413.50	2413.09
413.69	2576.93
413.88	2534.80
414.07	2640.12
414.26	2502.03
414.45	2675.23
414.64	2700.98
414.83	2633.10
415.02	2773.53
415.22	2801.62
415.41	2738.43
415.60	2778.22
415.79	2918.65
415.98	2946.73
416.17	2944.39
416.36	2932.69
416.55	2888.22
416.74	2928.01
416.93	2972.48
417.12	3009.93
417.31	2951.42
417.50	3042.70
417.69	3112.91
417.88	3070.78
418.07	3042.70
418.26	3155.04
418.45	3129.30
418.64	3164.40
418.83	3302.50
419.02	3215.90
419.21	3141.00
419.39	3218.24
419.58	3227.60
419.77	3155.04
419.96	3288.45
420.15	3356.33
420.34	3265.05
420.53	3311.86
420.72	3468.67
420.91	3314.20
421.10	3323.56
421.29	3435.91
421.48	3304.84
421.67	3503.78
421.86	3428.88
422.05	3433.57
422.24	3487.40
422.43	3557.61
422.61	3398.46
422.80	3428.88
422.99	3571.66
423.18	3578.68
423.37	3571.66
423.56	3527.19
423.75	3581.02
423.94	3375.05
424.13	3361.01
424.32	3325.90
424.50	3618.47
424.69	3555.27
424.88	3627.83
425.07	3499.10
425.26	3440.59
425.45	3536.55
425.64	3513.14
425.83	3618.47
426.01	3644.21
426.20	3566.98
426.39	3588.04
426.58	3606.77
426.77	3583.36
426.96	3613.79
427.15	3667.62
427.33	3669.96
427.52	3623.15
427.71	3831.46
427.90	3698.05
428.09	3791.67
428.28	3829.12
428.46	3840.82
428.65	3801.03
428.84	3747.20
429.03	3836.14
429.22	3667.62
429.40	3791.67
429.59	3946.14
429.78	3648.90
429.97	3520.17
430.16	3772.94
430.34	3749.54
430.53	3878.27
430.72	3976.57
430.91	3833.80
431.10	3967.21
431.28	3983.59
431.47	4140.41
431.66	4320.63
431.85	4016.36
432.03	4142.75
432.22	4308.93
432.41	4133.39
432.60	4175.52
432.79	4180.20
432.97	4355.74
433.16	4245.73
433.35	4191.90
433.54	4355.74
433.72	4269.14
433.91	4329.99
434.10	4327.65
434.28	4339.35
434.47	4318.29
434.66	4409.57
434.85	4440.00
435.03	4603.83
435.22	4437.66
435.41	4557.02
435.59	4519.57
435.78	4636.60
435.97	4486.81
436.16	4660.01
436.34	4578.09
436.53	4704.48
436.72	4671.71
436.90	4730.22
437.09	4606.17
437.28	4643.62
437.46	4688.09
437.65	4695.11
437.84	4741.93
438.02	4706.82
438.21	4664.69
438.40	4676.39
438.58	4739.58
438.77	4912.78
438.96	4870.65
439.14	5039.17
439.33	5069.60
439.52	4992.36
439.70	5121.09
439.89	5128.11
440.08	5226.42
440.26	5359.83
440.45	5121.09
440.63	5294.29
440.82	5378.55
441.01	5369.19
441.19	5348.12
441.38	5320.04
441.57	5542.39
441.75	5430.04
441.94	5612.60
442.12	5582.18
442.31	5841.98
442.50	5645.37
442.68	5682.82
442.87	5425.36
443.05	5755.38
443.24	5902.83
443.43	5748.36
443.61	5844.32
443.80	5804.53
443.98	5619.63
444.17	5528.35
444.35	5844.32
444.54	5912.19
444.73	5902.83
444.91	5853.68
445.10	5870.06
445.28	5853.68
445.47	5790.49
445.65	5682.82
445.84	5996.45
446.02	5841.98
446.21	5881.77
446.39	5769.42
446.58	6113.48
446.77	6071.35
446.95	5792.83
447.14	6085.39
447.32	6054.97
447.51	5959.00
447.69	5963.68
447.88	5994.11
448.06	6012.84
448.25	6061.99
448.43	5970.71
448.62	6176.67
448.80	6052.63
448.99	6155.61
449.17	6251.57
449.36	6134.54
449.54	6335.83
449.73	6134.54
449.91	6436.47
450.10	6403.71
450.28	6494.99
450.46	6408.39
450.65	6497.33
450.83	6464.56
451.02	6457.54
451.20	6602.65
451.39	6579.25
451.57	6473.92
451.76	6471.58
451.94	6403.71
452.13	6544.14
452.31	6560.52
452.49	6303.06
452.68	6511.37
452.86	6476.26
453.05	6490.31
453.23	6562.86
453.42	6651.80
453.60	6647.12
453.78	6656.48
453.97	6637.76
454.15	6633.08
454.34	6651.80
454.52	6663.51
454.70	6871.81
454.89	6759.47
455.07	6794.58
455.26	6909.26
455.44	6857.77
455.62	6981.82
455.81	6832.02
455.99	7096.50
456.17	7019.27
456.36	6956.07
456.54	7075.44
456.73	7148.00
456.91	7452.27
457.09	7112.89
457.28	7461.63
457.46	7180.76
457.64	7220.55
457.83	7396.09
458.01	7307.15
458.19	7466.31
458.38	7419.50
458.56	7405.46
458.74	7463.97
458.93	7363.33
459.11	7637.17
459.29	7405.46
459.48	7433.54
459.66	7414.82
459.84	7478.01
460.03	7740.15
460.21	7810.37
460.39	7627.81
460.57	7768.24
460.76	7698.02
460.94	7721.43
461.12	7751.85
461.31	7941.44
461.49	7852.50
461.67	7674.62
461.85	7838.45
462.04	7978.89
462.22	8327.63
462.40	8025.70
462.59	8203.58
462.77	8039.74
462.95	7920.37
463.13	8079.53
463.32	8018.68
463.50	8255.07
463.68	7976.55
463.86	8280.82
464.05	8056.12
464.23	8173.15
464.41	8072.51
464.59	8021.02
464.78	8367.42
464.96	8250.39
465.14	8166.13
465.32	8222.30
465.50	8285.50
465.69	8512.53
465.87	8388.48
466.05	8454.02
466.23	8400.18
466.41	8451.67
466.60	8643.60
466.78	8283.16
466.96	8390.82
467.14	8510.19
467.32	8702.11
467.51	8624.87
467.69	8320.60
467.87	8535.93
468.05	8514.87
468.23	8470.40
468.41	8575.72
468.60	8746.58
468.78	8580.40
468.96	8603.81
469.14	8744.24
469.32	8891.70
469.50	8725.52
469.69	8854.25
469.87	8968.93
470.05	9027.45
470.23	8971.27
470.41	8837.86
470.59	9048.51
470.77	8961.91
470.95	9170.22
471.14	9226.39
471.32	9177.24
471.50	9437.04
471.68	9373.85
471.86	9357.46
472.04	9238.09
472.22	9399.59
472.40	9261.50
472.58	9621.94
472.77	9483.85
472.95	9584.49
473.13	9839.61
473.31	9699.18
473.49	9586.83
473.67	9600.88
473.85	9834.93
474.03	9874.72
474.21	9916.85
474.39	9970.68
474.57	10108.77
474.75	10052.60
474.93	10429.43
475.12	9902.81
475.30	10186.01
475.48	10256.23
475.66	10324.10
475.84	10253.89
476.02	10368.57
476.20	10345.17
476.38	10548.79
476.56	10745.40
476.74	10710.29
476.92	10782.85
477.10	10661.14
477.28	11002.86
477.46	10736.04
477.64	10857.75
477.82	11192.44
478.00	11290.74
478.18	11527.14
478.36	11489.69
478.54	11662.89
478.72	11534.16
478.90	11669.91
479.08	12044.40
479.26	12023.33
479.44	11936.73
479.62	12013.97
479.80	12271.43
479.98	12517.18
480.16	12582.72
480.34	12215.26
480.52	12580.38
480.70	12608.47
480.88	12458.67
481.06	12587.40
481.24	12755.92
481.41	13132.75
481.59	13036.78
481.77	13172.54
481.95	13231.05
482.13	13144.45
482.31	13174.88
482.49	13429.99
482.67	13750.65
482.85	13563.40
483.03	13912.14
483.21	13874.70
483.39	14132.15
483.57	14239.82
483.74	14274.93
483.92	14003.43
484.10	14190.67
484.28	14436.42
484.46	14855.38
484.64	14944.32
484.82	14609.62
485.00	14787.50
485.18	15119.86
485.35	15136.24
485.53	14963.04
485.71	15192.42
485.89	15454.56
486.07	15431.15
486.25	15274.34
486.43	15653.50
486.61	15669.89
486.78	15981.18
486.96	16039.69
487.14	16184.80
487.32	16376.73
487.50	16676.32
487.68	16554.61
487.85	16844.84
488.03	16954.84
488.21	17174.85
488.39	16898.67
488.57	17238.05
488.75	17259.11
488.92	17549.34
489.10	17710.83
489.28	17687.43
489.46	17717.86
489.64	17928.50
489.81	18251.50
489.99	18401.29
490.17	18319.37
490.35	18883.44
490.53	18686.84
490.70	19103.45
490.88	19166.65
491.06	18948.98
491.24	19143.24
491.41	19168.99
491.59	19337.51
491.77	19328.14
491.95	19428.79
492.13	19728.38
492.30	19775.19
492.48	19702.63
492.66	19955.41
492.84	19861.79
493.01	20250.32
493.19	20226.91
493.37	20479.69
493.54	20655.23
493.72	20620.12
493.90	20676.29
494.08	21036.74
494.25	21338.66
494.43	21390.16
494.61	21294.19
494.79	21287.17
494.96	21514.20
495.14	21383.13
495.32	21827.84
495.49	21654.64
495.67	22127.42
495.85	22071.25
496.02	22132.11
496.20	22429.35
496.38	22806.18
496.55	22279.56
496.73	23112.79
496.91	22483.19
497.09	22838.95
497.26	23229.82
497.44	22831.93
497.62	23253.22
497.79	23555.15
497.97	23264.92
498.14	23484.94
498.32	23805.59
498.50	23630.05
498.67	23946.02
498.85	24067.73
499.03	24343.91
499.20	24163.69
499.38	24100.50
499.56	24746.48
499.73	24383.70
499.91	24765.21
500.08	24580.31
500.26	24795.64
500.44	24727.76
500.61	24737.12
500.79	24727.76
500.97	24830.74
501.14	25511.84
501.32	25350.34
501.49	25242.68
501.67	25212.25
501.84	25488.43
502.02	25469.71
502.20	25706.10
502.37	25766.96
502.55	25802.07
502.72	25734.19
502.90	25949.52
503.07	26094.63
503.25	26022.08
503.43	26080.59
503.60	26188.25
503.78	26246.77
503.95	26188.25
504.13	26415.29
504.30	26586.15
504.48	26829.56
504.65	26766.37
504.83	27204.05
505.01	27297.67
505.18	26895.10
505.36	27353.84
505.53	27257.88
505.71	27704.92
505.88	27515.34
506.06	27201.71
506.23	27426.40
506.41	27281.28
506.58	27606.62
506.76	27950.68
506.93	28304.10
507.11	27807.90
507.28	27981.10
507.46	27702.58
507.63	28142.60
507.81	28067.70
507.98	28051.32
508.16	28266.65
508.33	28615.39
508.50	28524.11
508.68	28875.19
508.85	29032.00
509.03	28683.27
509.20	28643.48
509.38	29046.05
509.55	29254.36
509.73	29223.93
509.90	29324.57
510.08	29095.20
510.25	29436.92
510.42	29612.46
510.60	29034.35
510.77	29425.22
510.95	29851.19
511.12	29546.92
511.30	29816.08
511.47	30562.72
511.64	30045.46
511.82	30099.29
511.99	29855.87
512.17	30403.56
512.34	30146.10
512.51	30630.59
512.69	30499.52
512.86	30515.90
513.04	30611.87
513.21	31040.18
513.38	30920.82
513.56	30899.75
513.73	30644.63
513.90	30962.95
514.08	31241.47
514.25	31056.57
514.43	31222.75
514.60	31005.08
514.77	31496.59
514.95	31515.31
515.12	31370.20
515.29	31494.25
515.47	31690.85
515.64	31608.93
515.81	31674.47
515.99	31606.59
516.16	31763.41
516.33	31693.19
516.51	31786.82
516.68	31580.85
516.85	31508.29
517.03	32067.68
517.20	31985.76
517.37	31934.27
517.54	32147.26
517.72	32304.07
517.89	32067.68
518.06	32240.88
518.24	32409.40
518.41	32283.01
518.58	32400.04
518.75	32531.11
518.93	32510.04
519.10	32856.44
519.27	32929.00
519.45	32992.19
519.62	33043.68
519.79	33315.19
519.96	33263.69
520.14	34029.05
520.31	32877.51
520.48	33209.86
520.65	33500.09
520.83	33549.24
521.00	33551.58
521.17	34139.05
521.34	33703.71
521.52	33923.72
521.69	34136.71
521.86	34099.26
522.03	33862.87
522.20	34305.23
522.38	34199.91
522.55	34305.23
522.72	34000.96
522.89	34548.65
523.07	34265.44
523.24	34125.01
523.41	34590.78
523.58	34431.62
523.75	34932.50
523.92	35042.50
524.10	35339.75
524.27	34766.32
524.44	34738.23
524.61	35229.74
524.78	35089.31
524.96	35187.61
525.13	35218.04
525.30	35798.49
525.47	35311.66
525.64	35662.74
525.81	35456.78
525.98	35159.53
526.16	35234.42
526.33	35283.58
526.50	35749.34
526.67	35248.47
526.84	35592.53
527.01	35473.16
527.18	36041.91
527.36	36301.71
527.53	36135.53
527.70	36760.45
527.87	36208.09
528.04	35810.20
528.21	36414.05
528.38	36084.04
528.55	36418.74
528.72	36524.06
528.89	36753.43
529.07	36559.17
529.24	36334.48
529.41	36622.36
529.58	36573.21
529.75	36683.22
529.92	37043.66
530.09	37106.85
530.26	37216.86
530.43	37144.30
530.60	36788.54
530.77	37015.57
530.94	37567.94
531.11	37298.78
531.28	37394.74
531.46	37347.93
531.63	37397.08
531.80	37476.66
531.97	37347.93
532.14	37537.51
532.31	37043.66
532.48	37392.40
532.65	38089.88
532.82	37722.41
532.99	37565.60
533.16	37315.16
533.33	37647.52
533.50	38206.90
533.67	37799.65
533.84	37881.57
534.01	37958.81
534.18	37986.89
534.35	38298.19
534.52	37872.21
534.69	38440.96
534.86	38061.79
535.03	38155.41
535.20	38761.61
535.37	38733.53
535.54	38703.10
535.71	38700.76
535.88	38246.69
536.05	38536.92
536.22	38326.27
536.38	38539.26
536.55	38469.04
536.72	38731.18
536.89	38101.58
537.06	38735.87
537.23	38541.60
537.40	38483.09
537.57	38658.63
537.74	39042.48
537.91	39349.09
538.08	39234.40
538.25	39133.76
538.42	38876.30
538.59	39012.05
538.75	38845.87
538.92	39714.21
539.09	39906.13
539.26	39351.43
539.43	39145.46
539.60	39643.99
539.77	39007.37
539.94	39618.25
540.11	39555.05
540.28	39332.70
540.44	39824.22
540.61	39714.21
540.78	39475.48
540.95	39564.42
541.12	39660.38
541.29	39538.67
541.46	40126.14
541.62	40009.12
541.79	40060.61
541.96	39466.11
542.13	39672.08
542.30	40313.39
542.47	39761.02
542.63	40170.61
542.80	40069.97
542.97	40552.12
543.14	40783.83
543.31	41029.59
543.48	40554.46
543.64	40921.93
543.81	40950.01
543.98	41090.44
544.15	40748.73
544.32	40744.05
544.48	41053.00
544.65	40872.78
544.82	40868.09
544.99	40680.85
545.16	41249.60
545.32	40474.88
545.49	41804.31
545.66	40896.18
545.83	41043.63
546.00	41244.92
546.16	40980.44
546.33	41132.57
546.50	41057.68
546.67	41188.75
546.83	40772.13
547.00	41134.92
547.17	41132.57
547.34	41078.74
547.50	41750.48
547.67	41443.87
547.84	41429.82
548.00	41619.41
548.17	41860.48
548.34	41853.46
548.51	41750.48
548.67	42033.68
548.84	41879.21
549.01	41621.75
549.18	41392.37
549.34	41640.47
549.51	41935.38
549.68	42050.06
549.84	42202.20
550.01	42237.31
550.18	41853.46
550.34	42354.33
550.51	41982.19
550.68	41586.64
550.84	41633.45
551.01	41947.08
551.18	42277.10
551.34	42249.01
551.51	42183.48
551.68	42522.85
551.84	42160.07
552.01	42202.20
552.18	42344.97
552.34	42026.66
552.51	42188.16
552.68	42227.95
552.84	42176.45
553.01	42761.59
553.18	42831.80
553.34	42770.95
553.51	42436.25
553.67	42560.30
553.84	42909.04
554.01	42679.67
554.17	42792.01
554.34	42911.38
554.51	43122.03
554.67	43274.16
554.84	43007.34
555.00	42873.93
555.17	42529.87
555.33	43002.66
555.50	42628.18
555.67	42990.96
555.83	43248.42
556.00	43016.71
556.16	43861.64
556.33	43337.36
556.50	43217.99
556.66	43351.40
556.83	43194.59
556.99	43262.46
557.16	43164.16
557.32	42979.26
557.49	43316.29
557.65	42691.37
557.82	42817.76
557.98	42976.92
558.15	43246.08
558.32	43112.67
558.48	43440.34
558.65	43746.95
558.81	43775.04
558.98	43292.89
559.14	43344.38
559.31	43374.81
559.47	43555.03
559.64	43882.70
559.80	43381.83
559.97	43217.99
560.13	43199.27
560.30	43428.64
560.46	43786.74
560.63	43887.39
560.79	43639.29
560.96	43618.22
561.12	43538.65
561.29	43548.01
561.45	43414.60
561.61	43456.73
561.78	43690.78
561.94	43601.84
562.11	43672.06
562.27	43604.18
562.44	43796.10
562.60	44327.41
562.77	44076.97
562.93	43765.68
563.10	43470.77
563.26	43641.63
563.42	43782.06
563.59	44196.34
563.75	44224.42
563.92	44044.20
564.08	44037.18
564.24	44016.11
564.41	44350.81
564.57	44058.24
564.74	44091.01
564.90	44392.94
565.07	44341.45
565.23	43807.81
565.39	44086.33
565.56	44156.55
565.72	43934.20
565.88	44058.24
566.05	44243.15
566.21	44100.37
566.38	43868.66
566.54	43896.75
566.70	43913.13
566.87	44250.17
567.03	44128.46
567.19	44184.63
567.36	44383.58
567.52	44079.31
567.68	44502.95
567.85	44102.71
568.01	44121.44
568.17	44238.47
568.34	44233.78
568.50	44296.98
568.66	44313.36
568.83	44390.60
568.99	43908.45
569.15	44191.65
569.32	44229.10
569.48	44137.82
569.64	44538.05
569.81	44444.43
569.97	44346.13
570.13	44425.71
570.30	44065.27
570.46	44313.36
570.62	43716.53
570.78	44079.31
570.95	44156.55
571.11	44254.85
571.27	44327.41
571.43	44486.56
571.60	44254.85
571.76	44236.12
571.92	44685.51
572.09	44325.07
572.25	44243.15
572.41	44254.85
572.57	44348.47
572.74	45043.61
572.90	44437.41
573.06	44570.82
573.22	44875.09
573.38	44704.23
573.55	44128.46
573.71	44844.66
573.87	44559.12
574.03	44250.17
574.20	44594.23
574.36	44086.33
574.52	44884.45
574.68	44830.62
574.84	44959.35
575.01	44381.24
575.17	44636.36
575.33	44327.41
575.49	44009.09
575.65	45329.16
575.82	44847.00
575.98	44524.01
576.14	44807.22
576.30	44748.70
576.46	44285.28
576.62	44332.09
576.79	44582.52
576.95	44088.67
577.11	44514.65
577.27	44608.27
577.43	44940.63
577.59	44474.86
577.75	44554.44
577.92	44168.25
578.08	44568.48
578.24	44222.08
578.40	44706.57
578.56	44577.84
578.72	44823.60
578.88	44973.39
579.04	44769.77
579.21	44456.14
579.37	44397.62
579.53	44254.85
579.69	44385.92
579.85	44507.63
580.01	45160.64
580.17	44849.35
580.33	44940.63
580.49	44851.69
580.65	44818.92
580.82	44556.78
580.98	44650.40
581.14	44926.58
581.30	44701.89
581.46	44699.55
581.62	44369.54
581.78	44664.44
581.94	45158.30
582.10	44954.67
582.26	45067.02
582.42	44935.95
582.58	44947.65
582.74	44315.70
582.90	44928.92
583.06	44825.94
583.22	45202.77
583.38	44818.92
583.54	44793.17
583.70	44584.86
583.86	44755.72
584.02	43835.89
584.18	44849.35
584.34	44818.92
584.50	44823.60
584.66	44680.83
584.82	44411.67
584.98	45170.00
585.14	45071.70
585.30	44596.57
585.46	44776.79
585.62	44477.20
585.78	44378.90
585.94	44676.15
586.10	44636.36
586.26	44587.21
586.42	44900.84
586.58	45155.96
586.74	44800.19
586.90	45116.17
587.06	44573.16
587.22	45331.50
587.38	44531.03
587.54	45106.80
587.70	45059.99
587.86	45167.66
588.02	45249.58
588.18	45013.18
588.34	44584.86
588.49	44463.16
588.65	44570.82
588.81	44570.82
588.97	44694.87
589.13	44219.74
589.29	44844.66
589.45	44538.05
589.61	44821.26
589.77	45469.59
589.93	44811.90
590.08	44877.43
590.24	45535.12
