SpectraSuite Data File
++++++++++++++++++++++++++++++++++++
Date: Fri Oct 25 11:34:18 EDT 2013
User: price-jones
Dark Spectrum Present: No
Reference Spectrum Present: No
Number of Sampled Component Spectra: 1
Spectrometers: USB2+H05261
Integration Time (usec): 100000 (USB2+H05261)
Spectra Averaged: 1 (USB2+H05261)
Boxcar Smoothing: 0 (USB2+H05261)
Correct for Electrical Dark: No (USB2+H05261)
Strobe/Lamp Enabled: No (USB2+H05261)
Correct for Detector Non-linearity: No (USB2+H05261)
Correct for Stray Light: No (USB2+H05261)
Number of Pixels in Processed Spectrum: 2048
>>>>>Begin Processed Spectral Data<<<<<
365.73	294.91
365.92	294.91
366.12	294.91
366.32	299.59
366.52	168.52
366.72	194.26
366.91	234.05
367.11	147.45
367.31	105.32
367.51	182.56
367.70	212.99
367.90	142.77
368.10	121.71
368.30	180.22
368.49	147.45
368.69	184.90
368.89	159.16
369.09	201.29
369.28	203.63
369.48	220.01
369.68	248.10
369.87	250.44
370.07	280.86
370.27	287.89
370.47	320.65
370.66	454.06
370.86	425.98
371.06	521.94
371.25	587.47
371.45	571.09
371.65	489.17
371.84	547.69
372.04	573.43
372.24	580.45
372.44	552.37
372.63	568.75
372.83	589.82
373.03	582.79
373.22	528.96
373.42	620.24
373.62	592.16
373.81	655.35
374.01	617.90
374.21	585.13
374.40	571.09
374.60	692.80
374.79	643.65
374.99	641.31
375.19	596.84
375.38	685.78
375.58	643.65
375.78	770.04
375.97	634.29
376.17	662.37
376.37	720.88
376.56	627.26
376.76	624.92
376.95	695.14
377.15	760.67
377.35	725.57
377.54	641.31
377.74	692.80
377.93	615.56
378.13	653.01
378.33	636.63
378.52	704.50
378.72	681.10
378.91	655.35
379.11	610.88
379.31	706.84
379.50	641.31
379.70	777.06
379.89	650.67
380.09	758.33
380.28	753.65
380.48	690.46
380.68	638.97
380.87	709.18
381.07	730.25
381.26	788.76
381.46	746.63
381.65	730.25
381.85	753.65
382.04	711.52
382.24	812.17
382.43	791.10
382.63	741.95
382.83	746.63
383.02	812.17
383.22	807.48
383.41	777.06
383.61	767.70
383.80	795.78
384.00	734.93
384.19	777.06
384.39	819.19
384.58	823.87
384.78	816.85
384.97	830.89
385.17	760.67
385.36	774.72
385.56	866.00
385.75	844.93
385.95	774.72
386.14	858.98
386.34	744.29
386.53	887.06
386.72	842.59
386.92	809.83
387.11	798.12
387.31	915.15
387.50	875.36
387.70	812.17
387.89	861.32
388.09	861.32
388.28	821.53
388.48	954.94
388.67	954.94
388.86	973.66
389.06	922.17
389.25	961.96
389.45	891.74
389.64	800.46
389.84	940.90
390.03	978.34
390.22	1034.52
390.42	931.53
390.61	990.05
390.81	957.28
391.00	896.43
391.19	1078.99
391.39	947.92
391.58	940.90
391.78	915.15
391.97	1015.79
392.16	1032.18
392.36	1020.47
392.55	961.96
392.75	1022.81
392.94	1022.81
393.13	985.37
393.33	1036.86
393.52	1032.18
393.71	1069.62
393.91	1086.01
394.10	1018.13
394.29	1067.28
394.49	1025.15
394.68	1076.65
394.88	1102.39
395.07	1123.46
395.26	1004.09
395.46	1153.88
395.65	1086.01
395.84	1118.78
396.04	1170.27
396.23	1170.27
396.42	1109.41
396.62	1151.54
396.81	1245.16
397.00	1125.80
397.19	1247.51
397.39	1156.22
397.58	1252.19
397.77	1172.61
397.97	1228.78
398.16	1186.65
398.35	1294.32
398.55	1247.51
398.74	1259.21
398.93	1240.48
399.12	1359.85
399.32	1249.85
399.51	1303.68
399.70	1306.02
399.90	1252.19
400.09	1291.98
400.28	1394.96
400.47	1317.72
400.67	1406.66
400.86	1322.40
401.05	1320.06
401.24	1378.58
401.44	1409.00
401.63	1364.53
401.82	1390.28
402.01	1411.34
402.21	1458.15
402.40	1416.02
402.59	1516.67
402.78	1472.20
402.97	1500.28
403.17	1530.71
403.36	1432.41
403.55	1519.01
403.74	1589.22
403.93	1540.07
404.13	1563.48
404.32	1584.54
404.51	1572.84
404.70	1547.09
404.89	1607.95
405.09	1626.67
405.28	1631.35
405.47	1722.63
405.66	1626.67
405.85	1629.01
406.05	1710.93
406.24	1661.78
406.43	1671.14
406.62	1708.59
406.81	1856.04
407.00	1750.72
407.20	1755.40
407.39	1708.59
407.58	1755.40
407.77	1724.97
407.96	1823.28
408.15	1842.00
408.34	1846.68
408.54	1799.87
408.73	1849.02
408.92	1973.07
409.11	2045.63
409.30	1900.52
409.49	1893.49
409.68	1853.70
409.87	2015.20
410.07	1952.01
410.26	2076.06
410.45	1977.75
410.64	2001.16
410.83	2085.42
411.02	2001.16
411.21	2153.29
411.40	2087.76
411.59	2157.97
411.78	2127.55
411.98	2157.97
412.17	2172.02
412.36	2319.47
412.55	2305.43
412.74	2293.72
412.93	2441.18
413.12	2143.93
413.31	2401.39
413.50	2291.38
413.69	2340.54
413.88	2415.43
414.07	2415.43
414.26	2480.97
414.45	2490.33
414.64	2368.62
414.83	2464.58
415.02	2586.29
415.22	2541.82
415.41	2478.63
415.60	2506.71
415.79	2553.52
415.98	2612.04
416.17	2677.57
416.36	2609.70
416.55	2668.21
416.74	2785.24
416.93	2839.07
417.12	2693.96
417.31	2766.51
417.50	2827.37
417.69	2972.48
417.88	2888.22
418.07	2803.96
418.26	2810.98
418.45	2860.13
418.64	3019.29
418.83	3035.67
419.02	2970.14
419.21	2951.42
419.39	3096.53
419.58	3124.62
419.77	2885.88
419.96	3143.34
420.15	3052.06
420.34	3094.19
420.53	2981.84
420.72	3190.15
420.91	3122.27
421.10	3124.62
421.29	3192.49
421.48	3176.11
421.67	3220.58
421.86	3094.19
422.05	3080.14
422.24	3124.62
422.43	3199.51
422.61	3332.92
422.80	3421.86
422.99	3290.79
423.18	3265.05
423.37	3269.73
423.56	3398.46
423.75	3335.26
423.94	3314.20
424.13	3070.78
424.32	3208.87
424.50	3318.88
424.69	3368.03
424.88	3412.50
425.07	3337.60
425.26	3288.45
425.45	3361.01
425.64	3370.37
425.83	3267.39
426.01	3466.33
426.20	3309.52
426.39	3342.28
426.58	3417.18
426.77	3365.69
426.96	3421.86
427.15	3531.87
427.33	3543.57
427.52	3389.10
427.71	3466.33
427.90	3494.42
428.09	3510.80
428.28	3550.59
428.46	3538.89
428.65	3492.08
428.84	3618.47
429.03	3822.09
429.22	3691.02
429.40	3581.02
429.59	3702.73
429.78	3478.04
429.97	3550.59
430.16	3662.94
430.34	3768.26
430.53	3805.71
430.72	3772.94
430.91	3845.50
431.10	3737.84
431.28	3786.99
431.47	3868.91
431.66	3948.48
431.85	3875.93
432.03	3852.52
432.22	4035.08
432.41	3899.33
432.60	3985.93
432.79	3957.85
432.97	3960.19
433.16	3934.44
433.35	3896.99
433.54	4021.04
433.72	3978.91
433.91	4046.79
434.10	4109.98
434.28	4049.13
434.47	4105.30
434.66	4077.21
434.85	4112.32
435.03	4224.67
435.22	4109.98
435.41	4292.54
435.59	4222.33
435.78	4266.80
435.97	4227.01
436.16	4173.18
436.34	4245.73
436.53	4276.16
436.72	4402.55
436.90	4262.12
437.09	4447.02
437.28	4383.82
437.46	4442.34
437.65	4535.96
437.84	4533.62
438.02	4306.59
438.21	4461.06
438.40	4435.32
438.58	4547.66
438.77	4491.49
438.96	4601.49
439.14	4608.51
439.33	4669.37
439.52	4882.36
439.70	4718.52
439.89	4882.36
440.08	4868.31
440.26	4875.34
440.45	4910.44
440.63	5039.17
440.82	4936.19
441.01	4903.42
441.19	5018.11
441.38	4929.17
441.57	5022.79
441.75	5125.77
441.94	5195.99
442.12	5198.33
442.31	5376.21
442.50	5315.36
442.68	5352.81
442.87	5240.46
443.05	5366.85
443.24	5376.21
443.43	5413.66
443.61	5483.88
443.80	5533.03
443.98	5266.21
444.17	5123.43
444.35	5357.49
444.54	5572.82
444.73	5448.77
444.91	5313.02
445.10	5427.70
445.28	5462.81
445.47	5390.25
445.65	5465.15
445.84	5481.53
446.02	5741.33
446.21	5472.17
446.39	5547.07
446.58	5589.20
446.77	5565.79
446.95	5308.34
447.14	5668.78
447.32	5626.65
447.51	5607.92
447.69	5495.58
447.88	5507.28
448.06	5497.92
448.25	5764.74
448.43	5717.93
448.62	5514.30
448.80	5434.72
448.99	5722.61
449.17	5743.67
449.36	5619.63
449.54	5715.59
449.73	5844.32
449.91	6001.13
450.10	5841.98
450.28	5994.11
450.46	6141.57
450.65	6066.67
450.83	5844.32
451.02	5834.96
451.20	5989.43
451.39	6036.24
451.57	6005.81
451.76	5912.19
451.94	6076.03
452.13	6211.78
452.31	6047.94
452.49	6052.63
452.68	6146.25
452.86	6108.80
453.05	6167.31
453.23	6310.08
453.42	6179.01
453.60	6033.90
453.78	6197.74
453.97	6136.88
454.15	6253.91
454.34	6239.87
454.52	6342.85
454.70	6417.75
454.89	6415.41
455.07	6399.02
455.26	6523.07
455.44	6476.26
455.62	6492.65
455.81	6394.34
455.99	6530.09
456.17	6621.38
456.36	6644.78
456.54	6633.08
456.73	6635.42
456.91	6750.10
457.09	6970.12
457.28	6853.09
457.46	6869.47
457.64	6925.65
457.83	6810.96
458.01	6534.78
458.19	7030.97
458.38	6909.26
458.56	6815.64
458.74	7052.03
458.93	7091.82
459.11	7098.84
459.29	6925.65
459.48	7009.90
459.66	7049.69
459.84	6932.67
460.03	7286.09
460.21	7194.81
460.39	7162.04
460.57	7192.47
460.76	7180.76
460.94	7255.66
461.12	7487.37
461.31	7325.88
461.49	7241.62
461.67	7206.51
461.85	7510.78
462.04	7372.69
462.22	7723.77
462.40	7475.67
462.59	7534.18
462.77	7433.54
462.95	7461.63
463.13	7466.31
463.32	7609.08
463.50	7693.34
463.68	7702.70
463.86	7658.23
464.05	7658.23
464.23	7611.42
464.41	7831.43
464.59	7424.18
464.78	7817.39
464.96	7538.87
465.14	7648.87
465.32	7892.29
465.50	7777.60
465.69	7815.05
465.87	7803.35
466.05	7707.38
466.23	8006.97
466.41	7901.65
466.60	8016.33
466.78	7978.89
466.96	8016.33
467.14	7960.16
467.32	7983.57
467.51	8168.47
467.69	7889.95
467.87	7990.59
468.05	8037.40
468.23	8241.03
468.41	7971.86
468.60	8234.00
468.78	8264.43
468.96	7941.44
469.14	8372.10
469.32	8280.82
469.50	8133.36
469.69	8512.53
469.87	8470.40
470.05	8454.02
470.23	8582.74
470.41	8545.30
470.59	8446.99
470.77	8540.61
470.95	8636.58
471.14	8816.80
471.32	8201.24
471.50	8760.63
471.68	8816.80
471.86	8879.99
472.04	8905.74
472.22	9043.83
472.40	8936.17
472.58	8865.95
472.77	9078.94
472.95	9317.67
473.13	9397.25
473.31	9158.52
473.49	9100.00
473.67	9071.92
473.85	9362.14
474.03	9341.08
474.21	9268.52
474.39	9439.38
474.57	9497.89
474.75	9647.69
474.93	9825.57
475.12	9624.28
475.30	9769.40
475.48	9640.67
475.66	9664.07
475.84	9764.72
476.02	9886.42
476.20	9839.61
476.38	9893.44
476.56	10289.00
476.74	10289.00
476.92	10279.63
477.10	10003.45
477.28	10272.61
477.46	10321.76
477.64	10509.01
477.82	10551.14
478.00	10803.91
478.18	10794.55
478.36	10925.62
478.54	11073.07
478.72	11054.35
478.90	11037.97
479.08	11211.17
479.26	11286.06
479.44	11323.51
479.62	11389.05
479.80	11143.29
479.98	11707.36
480.16	11562.25
480.34	11932.05
480.52	11779.92
480.70	11864.18
480.88	11798.64
481.06	11969.50
481.24	12133.34
481.41	12065.46
481.59	12442.29
481.77	12306.54
481.95	12573.36
482.13	12430.59
482.31	12531.23
482.49	12854.22
482.67	12833.16
482.85	13207.64
483.03	13284.88
483.21	13228.71
483.39	13350.42
483.57	13434.68
483.74	13474.46
483.92	13479.15
484.10	13771.71
484.28	13785.76
484.46	14129.81
484.64	14183.65
484.82	14090.02
485.00	14284.29
485.18	14511.32
485.35	14300.67
485.53	14611.96
485.71	14583.88
485.89	15002.83
486.07	14867.08
486.25	15028.58
486.43	15225.18
486.61	15012.20
486.78	15112.84
486.96	15403.07
487.14	15466.26
487.32	15728.40
487.50	15723.72
487.68	15784.57
487.85	16091.18
488.03	16269.06
488.21	16468.01
488.39	16568.65
488.57	16767.60
488.75	16917.39
488.92	16734.83
489.10	17186.55
489.28	16812.07
489.46	17474.44
489.64	17011.01
489.81	17521.25
489.99	17441.67
490.17	17441.67
490.35	17631.26
490.53	17862.97
490.70	18008.08
490.88	17991.70
491.06	18185.96
491.24	18146.17
491.41	18253.84
491.59	18305.33
491.77	18630.66
491.95	18883.44
492.13	18429.38
492.30	19094.09
492.48	19005.15
492.66	19234.52
492.84	19456.87
493.01	19438.15
493.19	19414.74
493.37	19634.75
493.54	19852.42
493.72	20049.03
493.90	19974.13
494.08	20189.46
494.25	20290.10
494.43	19971.79
494.61	20477.35
494.79	20587.35
494.96	20596.71
495.14	20772.25
495.32	20877.58
495.49	21172.49
495.67	20908.01
495.85	21621.87
496.02	21682.72
496.20	21537.61
496.38	21720.17
496.55	21776.34
496.73	22094.66
496.91	21752.94
497.09	22185.94
497.26	22087.64
497.44	22274.88
497.62	22340.41
497.79	22572.13
497.97	22328.71
498.14	22927.89
498.32	23040.23
498.50	22958.31
498.67	23363.23
498.85	23002.78
499.03	23543.45
499.20	23300.03
499.38	23421.74
499.56	23651.11
499.73	23435.78
499.91	23917.93
500.08	24208.16
500.26	23997.51
500.44	23751.76
500.61	24215.18
500.79	24079.43
500.97	24329.87
501.14	24489.03
501.32	24465.62
501.49	24334.55
501.67	24584.99
501.84	24793.29
502.02	24603.71
502.20	24753.51
502.37	24849.47
502.55	25064.80
502.72	24931.39
502.90	24996.92
503.07	25238.00
503.25	25252.04
503.43	25310.55
503.60	25497.80
503.78	25563.33
503.95	25324.60
504.13	25181.82
504.30	25958.88
504.48	26059.52
504.65	26167.19
504.83	26132.08
505.01	25923.77
505.18	26438.69
505.36	26586.15
505.53	26431.67
505.71	26485.50
505.88	26539.33
506.06	26459.76
506.23	26993.40
506.41	26595.51
506.58	26792.11
506.76	26581.46
506.93	27412.35
507.11	27274.26
507.28	27882.80
507.46	27346.82
507.63	27700.24
507.81	27697.90
507.98	27044.89
508.16	27271.92
508.33	27775.14
508.50	27693.22
508.68	27541.08
508.85	27861.74
509.03	27997.49
509.20	27854.72
509.38	28283.03
509.55	28271.33
509.73	28554.54
509.90	28308.78
510.08	28051.32
510.25	28680.92
510.42	28435.17
510.60	29118.60
510.77	29008.60
510.95	28989.88
511.12	29039.03
511.30	28711.35
511.47	29125.63
511.64	29139.67
511.82	29170.10
511.99	29315.21
512.17	29383.09
512.34	29132.65
512.51	29792.68
512.69	29406.49
512.86	29827.79
513.04	29984.60
513.21	30129.72
513.38	30235.04
513.56	30136.74
513.73	30094.61
513.90	30160.14
514.08	30000.99
514.25	30775.70
514.43	30242.06
514.60	30967.63
514.77	30698.47
514.95	30909.11
515.12	30518.25
515.29	30642.29
515.47	31269.56
515.64	31189.98
515.81	31342.11
515.99	31126.78
516.16	31051.89
516.33	31407.65
516.51	31424.03
516.68	30953.58
516.85	31498.93
517.03	31740.00
517.20	31524.68
517.37	31634.68
517.54	31768.09
517.72	31737.66
517.89	31981.08
518.06	31960.02
518.24	31866.39
518.41	31885.12
518.58	31744.69
518.75	32004.49
518.93	32563.87
519.10	32308.76
519.27	32081.72
519.45	32360.25
519.62	32896.23
519.79	32275.99
519.96	32666.86
520.14	32755.80
520.31	32346.20
520.48	32854.10
520.65	33163.05
520.83	33177.09
521.00	33282.42
521.17	33017.94
521.34	33280.08
521.52	33240.29
521.69	33282.42
521.86	33394.76
522.03	33748.18
522.20	34075.86
522.38	34012.66
522.55	33937.77
522.72	33727.12
522.89	33937.77
523.07	34038.41
523.24	33970.54
523.41	33916.70
523.58	33874.57
523.75	34246.72
523.92	34110.97
524.10	34370.77
524.27	34707.80
524.44	34328.64
524.61	34696.10
524.78	34588.44
524.96	34712.49
525.13	34775.68
525.30	34998.03
525.47	35253.15
525.64	34735.89
525.81	35222.72
525.98	35147.82
526.16	34955.90
526.33	35009.73
526.50	35651.04
526.67	35063.57
526.84	35007.39
527.01	35115.06
527.18	35009.73
527.36	35428.69
527.53	35644.02
527.70	35845.30
527.87	36229.15
528.04	35398.26
528.21	35847.64
528.38	36051.27
528.55	36165.96
528.72	36362.56
528.89	36112.13
529.07	36224.47
529.24	35962.33
529.41	36236.17
529.58	36336.82
529.75	36465.55
529.92	36486.61
530.09	36411.71
530.26	36535.76
530.43	36753.43
530.60	36046.59
530.77	36608.32
530.94	36519.38
531.11	36945.36
531.28	37099.83
531.46	36519.38
531.63	36886.84
531.80	36797.90
531.97	37097.49
532.14	37008.55
532.31	36973.44
532.48	36833.01
532.65	37479.00
532.82	37111.53
532.99	37226.22
533.16	36975.78
533.33	37537.51
533.50	37195.79
533.67	37689.65
533.84	37436.87
534.01	37858.17
534.18	37371.33
534.35	37785.61
534.52	37385.38
534.69	38326.27
534.86	37986.89
535.03	38047.75
535.20	38141.37
535.37	37890.93
535.54	37984.55
535.71	37879.23
535.88	38103.92
536.05	38120.31
536.22	38265.42
536.38	38408.19
536.55	38099.24
536.72	38064.13
536.89	38223.29
537.06	38375.42
537.23	38672.67
537.40	38665.65
537.57	38225.63
537.74	38637.56
537.91	38836.51
538.08	39192.27
538.25	38389.47
538.42	38408.19
538.59	39304.62
538.75	39072.90
538.92	39426.32
539.09	39690.80
539.26	38698.42
539.43	39070.56
539.60	39388.88
539.77	39026.09
539.94	39402.92
540.11	39161.84
540.28	39496.54
540.44	39669.74
540.61	39969.33
540.78	39510.58
540.95	39381.85
541.12	39180.57
541.29	39620.59
541.46	39543.35
541.62	39868.69
541.79	40170.61
541.96	39445.05
542.13	39311.64
542.30	39936.56
542.47	39728.25
542.63	39819.53
542.80	40350.84
542.97	40486.59
543.14	40477.22
543.31	40219.77
543.48	40315.73
543.64	40765.11
543.81	40542.76
543.98	40540.42
544.15	40259.55
544.32	40407.01
544.48	40823.62
544.65	41144.28
544.82	41050.66
544.99	41003.85
545.16	40680.85
545.32	40863.41
545.49	41797.29
545.66	41305.77
545.83	41338.54
546.00	41179.39
546.16	41303.43
546.33	41153.64
546.50	41155.98
546.67	41455.57
546.83	40786.18
547.00	41029.59
547.17	40957.03
547.34	41184.07
547.50	41605.36
547.67	41691.96
547.84	41572.60
548.00	42204.54
548.17	41944.74
548.34	41731.75
548.51	41961.12
548.67	41869.84
548.84	41490.68
549.01	41755.16
549.18	41656.85
549.34	41748.14
549.51	41989.21
549.68	41825.37
549.84	42080.49
550.01	42005.59
550.18	41687.28
550.34	42160.07
550.51	42241.99
550.68	42314.55
550.84	42314.55
551.01	42293.48
551.18	42342.63
551.34	42354.33
551.51	42557.96
551.68	42803.72
551.84	42340.29
552.01	42181.13
552.18	42443.27
552.34	42384.76
552.51	42689.03
552.68	42529.87
552.84	42777.97
553.01	43100.97
553.18	42576.69
553.34	42878.61
553.51	42649.24
553.67	42789.67
553.84	43065.86
554.01	43077.56
554.17	42892.66
554.34	42794.36
554.51	42876.27
554.67	43562.05
554.84	43524.60
555.00	42925.42
555.17	43344.38
555.33	43161.82
555.50	43042.45
555.67	43384.17
555.83	43405.23
556.00	43482.47
556.16	43746.95
556.33	43758.66
556.50	43849.94
556.66	43068.20
556.83	43522.26
556.99	43826.53
557.16	43845.26
557.32	43473.11
557.49	44016.11
557.65	43487.15
557.82	43587.80
557.98	43962.28
558.15	43557.37
558.32	43849.94
558.48	43821.85
558.65	43922.49
558.81	43882.70
558.98	43622.90
559.14	43475.45
559.31	43281.19
559.47	44016.11
559.64	43950.58
559.80	43519.92
559.97	44140.16
560.13	43594.82
560.30	44023.14
560.46	44285.28
560.63	44381.24
560.79	44362.51
560.96	44280.60
561.12	44296.98
561.29	44123.78
561.45	44069.95
561.61	44154.21
561.78	44495.92
561.94	44507.63
562.11	44247.83
562.27	44198.68
562.44	44500.61
562.60	44938.29
562.77	44399.96
562.93	44147.18
563.10	44968.71
563.26	44566.14
563.42	44729.98
563.59	44650.40
563.75	44399.96
563.92	44268.89
564.08	44437.41
564.24	44687.85
564.41	44755.72
564.57	44158.89
564.74	44755.72
564.90	44442.09
565.07	44687.85
565.23	44786.15
565.39	44706.57
565.56	44966.37
565.72	44914.88
565.88	44896.16
566.05	44327.41
566.21	44346.13
566.38	44657.42
566.54	44999.14
566.70	44472.52
566.87	44643.38
567.03	44875.09
567.19	45022.54
567.36	44676.15
567.52	44818.92
567.68	45338.52
567.85	44996.80
568.01	44989.78
568.17	45001.48
568.34	44938.29
568.50	44823.60
568.66	44650.40
568.83	45113.83
568.99	45254.26
569.15	45359.58
569.32	44961.69
569.48	44828.28
569.64	45366.60
569.81	45244.90
569.97	45242.56
570.13	45361.92
570.30	44889.13
570.46	44863.39
570.62	45528.10
570.78	45319.79
570.95	45418.10
571.11	45553.85
571.27	45017.86
571.43	44933.60
571.60	45394.69
571.76	45221.49
571.92	44987.44
572.09	45198.09
572.25	44816.58
572.41	44870.41
572.57	45137.23
572.74	45532.78
572.90	45310.43
573.06	45422.78
573.22	45474.27
573.38	45511.72
573.55	45743.43
573.71	45455.54
573.87	45773.86
574.03	45242.56
574.20	45851.09
574.36	45612.36
574.52	45294.05
574.68	45488.31
574.84	45923.65
575.01	46054.72
575.17	45823.01
575.33	45434.48
575.49	45600.66
575.65	45694.28
575.82	45380.65
575.98	45666.19
576.14	45677.90
576.30	45858.12
576.46	45787.90
576.62	45638.11
576.79	45612.36
576.95	44968.71
577.11	45600.66
577.27	45727.05
577.43	45523.42
577.59	45659.17
577.75	45420.44
577.92	45209.79
578.08	45532.78
578.24	45457.88
578.40	45815.99
578.56	45956.42
578.72	45801.94
578.88	45951.74
579.04	45532.78
579.21	45474.27
579.37	45893.22
579.53	45933.01
579.69	45687.26
579.85	46127.28
580.01	45848.75
580.17	45553.85
580.33	45418.10
580.49	45818.33
580.65	45757.47
580.82	45867.48
580.98	45951.74
581.14	45642.79
581.30	45937.69
581.46	45574.91
581.62	45855.78
581.78	45879.18
581.94	45528.10
582.10	45631.08
582.26	45830.03
582.42	45603.00
582.58	46110.89
582.74	45654.49
582.90	45579.59
583.06	45925.99
583.22	45759.81
583.38	45900.25
583.54	45731.73
583.70	45865.14
583.86	45986.85
584.02	45610.02
584.18	46199.83
584.34	46064.08
584.50	46131.96
584.66	45844.07
584.82	46003.23
584.98	46064.08
585.14	46225.58
585.30	45694.28
585.46	46150.68
585.62	45853.44
585.78	46192.81
585.94	45422.78
586.10	46010.25
586.26	45495.33
586.42	46120.26
586.58	45771.52
586.74	45727.05
586.90	45785.56
587.06	45806.62
587.22	46071.10
587.38	45645.13
587.54	46014.93
587.70	46351.97
587.86	46237.28
588.02	45834.71
588.18	45848.75
588.34	45841.73
588.49	46452.61
588.65	45970.46
588.81	46094.51
588.97	46003.23
589.13	45680.24
589.29	46082.81
589.45	46099.19
589.61	46443.25
589.77	46300.48
589.93	46124.94
590.08	46326.22
