SpectraSuite Data File
++++++++++++++++++++++++++++++++++++
Date: Fri Oct 25 10:43:53 EDT 2013
User: price-jones
Dark Spectrum Present: No
Reference Spectrum Present: No
Number of Sampled Component Spectra: 1
Spectrometers: USB2+H05261
Integration Time (usec): 100000 (USB2+H05261)
Spectra Averaged: 1 (USB2+H05261)
Boxcar Smoothing: 0 (USB2+H05261)
Correct for Electrical Dark: No (USB2+H05261)
Strobe/Lamp Enabled: No (USB2+H05261)
Correct for Detector Non-linearity: No (USB2+H05261)
Correct for Stray Light: No (USB2+H05261)
Number of Pixels in Processed Spectrum: 2048
>>>>>Begin Processed Spectral Data<<<<<
365.73	131.07
365.92	131.07
366.12	131.07
366.32	60.85
366.52	79.58
366.72	79.58
366.91	0.00
367.11	16.38
367.31	18.72
367.51	0.00
367.70	98.30
367.90	53.83
368.10	58.51
368.30	86.60
368.49	2.34
368.69	56.17
368.89	0.00
369.09	16.38
369.28	65.54
369.48	14.04
369.68	88.94
369.87	100.64
370.07	30.43
370.27	117.03
370.47	170.86
370.66	369.80
370.86	416.62
371.06	416.62
371.25	454.06
371.45	454.06
371.65	486.83
371.84	543.00
372.04	486.83
372.24	486.83
372.44	491.51
372.63	449.38
372.83	514.92
373.03	538.32
373.22	470.45
373.42	437.68
373.62	561.73
373.81	580.45
374.01	571.09
374.21	580.45
374.40	599.18
374.60	608.54
374.79	634.29
374.99	589.82
375.19	613.22
375.38	568.75
375.58	620.24
375.78	643.65
375.97	613.22
376.17	627.26
376.37	613.22
376.56	636.63
376.76	648.33
376.95	624.92
377.15	664.71
377.35	648.33
377.54	662.37
377.74	746.63
377.93	692.80
378.13	744.29
378.33	737.27
378.52	704.50
378.72	671.73
378.91	585.13
379.11	592.16
379.31	645.99
379.50	683.44
379.70	667.05
379.89	713.86
380.09	711.52
380.28	730.25
380.48	674.07
380.68	676.41
380.87	638.97
381.07	720.88
381.26	688.12
381.46	716.20
381.65	744.29
381.85	676.41
382.04	711.52
382.24	802.80
382.43	674.07
382.63	662.37
382.83	770.04
383.02	718.54
383.22	779.40
383.41	795.78
383.61	798.12
383.80	814.51
384.00	767.70
384.19	784.08
384.39	760.67
384.58	784.08
384.78	800.46
384.97	784.08
385.17	723.23
385.36	889.40
385.56	863.66
385.75	774.72
385.95	903.45
386.14	840.25
386.34	915.15
386.53	819.19
386.72	861.32
386.92	875.36
387.11	866.00
387.31	943.24
387.50	873.02
387.70	936.21
387.89	938.55
388.09	922.17
388.28	854.30
388.48	924.51
388.67	894.08
388.86	940.90
389.06	950.26
389.25	938.55
389.45	950.26
389.64	1027.50
389.84	1034.52
390.03	1018.13
390.22	1093.03
390.42	1097.71
390.61	990.05
390.81	1027.50
391.00	1109.41
391.19	1139.84
391.39	1097.71
391.58	1062.60
391.78	1142.18
391.97	1086.01
392.16	1081.33
392.36	1170.27
392.55	1071.97
392.75	1025.15
392.94	1043.88
393.13	1074.31
393.33	990.05
393.52	1083.67
393.71	1167.93
393.91	1142.18
394.10	1125.80
394.29	1181.97
394.49	1263.89
394.68	1205.38
394.88	1380.92
395.07	1303.68
395.26	1322.40
395.46	1284.95
395.65	1268.57
395.84	1249.85
396.04	1287.29
396.23	1207.72
396.42	1254.53
396.62	1268.57
396.81	1317.72
397.00	1205.38
397.19	1306.02
397.39	1315.38
397.58	1416.02
397.77	1474.54
397.97	1486.24
398.16	1481.56
398.35	1511.99
398.55	1392.62
398.74	1479.22
398.93	1474.54
399.12	1551.78
399.32	1619.65
399.51	1582.20
399.70	1617.31
399.90	1629.01
400.09	1703.91
400.28	1640.72
400.47	1643.06
400.67	1710.93
400.86	1675.82
401.05	1682.85
401.24	1781.15
401.44	1823.28
401.63	1774.13
401.82	1825.62
402.01	1839.66
402.21	1806.89
402.40	1778.81
402.59	1856.04
402.78	1750.72
402.97	1739.02
403.17	1919.24
403.36	1923.92
403.55	1916.90
403.74	1952.01
403.93	1966.05
404.13	2040.95
404.32	1905.20
404.51	1975.41
404.70	2022.22
404.89	1991.80
405.09	2052.65
405.28	2024.56
405.47	2059.67
405.66	1977.75
405.85	2026.90
406.05	2019.88
406.24	2078.40
406.43	2125.21
406.62	2197.76
406.81	2157.97
407.00	2202.44
407.20	2157.97
407.39	2155.63
407.58	2181.38
407.77	2377.98
407.96	2258.62
408.15	2324.15
408.34	2361.60
408.54	2434.16
408.73	2342.88
408.92	2487.99
409.11	2387.35
409.30	2354.58
409.49	2396.71
409.68	2382.67
409.87	2277.34
410.07	2452.88
410.26	2476.29
410.45	2434.16
410.64	2523.10
410.83	2555.86
411.02	2663.53
411.21	2693.96
411.40	2705.66
411.59	2724.38
411.78	2775.88
411.98	2827.37
412.17	2834.39
412.36	2855.45
412.55	2780.56
412.74	2860.13
412.93	2820.35
413.12	2834.39
413.31	3019.29
413.50	2909.29
413.69	3023.97
413.88	3061.42
414.07	3066.10
414.26	3236.96
414.45	3155.04
414.64	3094.19
414.83	3166.74
415.02	3295.47
415.22	3169.09
415.41	3166.74
415.60	3335.26
415.79	3276.75
415.98	3239.30
416.17	3442.93
416.36	3417.18
416.55	3248.66
416.74	3438.25
416.93	3382.07
417.12	3400.80
417.31	3433.57
417.50	3623.15
417.69	3655.92
417.88	3541.23
418.07	3478.04
418.26	3562.30
418.45	3665.28
418.64	3772.94
418.83	3728.47
419.02	3660.60
419.21	3693.37
419.39	3854.86
419.58	3728.47
419.77	3674.64
419.96	3749.54
420.15	3957.85
420.34	3843.16
420.53	3833.80
420.72	3934.44
420.91	3929.76
421.10	4095.94
421.29	4098.28
421.48	3950.82
421.67	4037.42
421.86	3955.51
422.05	3953.16
422.24	3929.76
422.43	3901.67
422.61	3957.85
422.80	4093.60
422.99	3915.72
423.18	4088.92
423.37	4248.07
423.56	4007.00
423.75	3971.89
423.94	4074.87
424.13	3911.04
424.32	3997.64
424.50	4079.55
424.69	4175.52
424.88	4121.68
425.07	4140.41
425.26	4039.76
425.45	4058.49
425.64	4140.41
425.83	4060.83
426.01	4217.65
426.20	4198.92
426.39	4140.41
426.58	4142.75
426.77	4018.70
426.96	4131.05
427.15	4194.24
427.33	4170.83
427.52	4259.78
427.71	4416.59
427.90	4182.54
428.09	4304.25
428.28	4372.12
428.46	4344.03
428.65	4255.09
428.84	4404.89
429.03	4475.10
429.22	4283.18
429.40	4248.07
429.59	4360.42
429.78	4109.98
429.97	3995.29
430.16	4147.43
430.34	4187.22
430.53	4238.71
430.72	4278.50
430.91	4411.91
431.10	4540.64
431.28	4681.07
431.47	4641.28
431.66	4870.65
431.85	4800.44
432.03	4725.54
432.22	4910.44
432.41	4767.67
432.60	4765.33
432.79	4957.25
432.97	5001.72
433.16	5015.77
433.35	4950.23
433.54	4854.27
433.72	5074.28
433.91	4774.69
434.10	4915.12
434.28	4966.62
434.47	4973.64
434.66	4980.66
434.85	5245.14
435.03	5107.05
435.22	5184.29
435.41	5296.63
435.59	5219.39
435.78	5116.41
435.97	5448.77
436.16	5355.15
436.34	5240.46
436.53	5331.74
436.72	5518.98
436.90	5247.48
437.09	5378.55
437.28	5322.38
437.46	5352.81
437.65	5465.15
437.84	5362.17
438.02	5317.70
438.21	5467.49
438.40	5441.75
438.58	5467.49
438.77	5497.92
438.96	5703.89
439.14	5863.04
439.33	5863.04
439.52	5703.89
439.70	5879.43
439.89	5947.30
440.08	5998.79
440.26	5902.83
440.45	6010.50
440.63	6113.48
440.82	6136.88
441.01	6134.54
441.19	6085.39
441.38	6246.89
441.57	6333.49
441.75	6431.79
441.94	6518.39
442.12	6691.59
442.31	6642.44
442.50	6520.73
442.68	6436.47
442.87	6616.69
443.05	6679.89
443.24	6761.81
443.43	6588.61
443.61	6722.02
443.80	7105.87
443.98	6689.25
444.17	6523.07
444.35	6630.74
444.54	6995.86
444.73	6984.16
444.91	6731.38
445.10	6764.15
445.28	6619.04
445.47	6595.63
445.65	6614.35
445.84	6822.66
446.02	6871.81
446.21	6731.38
446.39	6876.49
446.58	6836.70
446.77	6974.80
446.95	6855.43
447.14	7187.79
447.32	7082.46
447.51	6927.99
447.69	6864.79
447.88	7033.31
448.06	7077.78
448.25	6904.58
448.43	7098.84
448.62	6864.79
448.80	7311.83
448.99	7131.61
449.17	7014.59
449.36	6946.71
449.54	7433.54
449.73	7386.73
449.91	7379.71
450.10	7414.82
450.28	7618.44
450.46	7468.65
450.65	7365.67
450.83	7407.80
451.02	7520.14
451.20	7421.84
451.39	7634.83
451.57	7480.35
451.76	7431.20
451.94	7705.04
452.13	7583.34
452.31	7559.93
452.49	7356.30
452.68	7674.62
452.86	7672.28
453.05	7592.70
453.23	7683.98
453.42	7407.80
453.60	7667.60
453.78	7857.18
453.97	7625.47
454.15	7623.12
454.34	7728.45
454.52	7763.56
454.70	7686.32
454.89	8025.70
455.07	7871.22
455.26	7922.71
455.44	7889.95
455.62	8002.29
455.81	8044.42
455.99	8006.97
456.17	8128.68
456.36	8016.33
456.54	8346.35
456.73	8252.73
456.91	8386.14
457.09	8402.52
457.28	8566.36
457.46	8451.67
457.64	8482.10
457.83	8636.58
458.01	8170.81
458.19	8702.11
458.38	8521.89
458.56	8437.63
458.74	8435.29
458.93	8566.36
459.11	8667.00
459.29	8519.55
459.48	8650.62
459.66	8503.17
459.84	8812.12
460.03	9060.21
460.21	8826.16
460.39	8844.88
460.57	9071.92
460.76	8945.53
460.94	8854.25
461.12	8926.80
461.31	9130.43
461.49	9088.30
461.67	9085.96
461.85	9160.86
462.04	9008.72
462.22	9369.16
462.40	9383.21
462.59	9277.88
462.77	9137.45
462.95	9345.76
463.13	9188.94
463.32	9322.35
463.50	9364.48
463.68	9348.10
463.86	9525.98
464.05	9167.88
464.23	9301.29
464.41	9621.94
464.59	9261.50
464.78	9563.43
464.96	9537.68
465.14	9188.94
465.32	9610.24
465.50	9645.35
465.69	9640.67
465.87	9635.99
466.05	9544.70
466.23	9500.23
466.41	9551.73
466.60	9942.60
466.78	9476.83
466.96	9528.32
467.14	9572.79
467.32	9853.66
467.51	9783.44
467.69	9591.52
467.87	9856.00
468.05	9839.61
468.23	9879.40
468.41	9877.06
468.60	9872.38
468.78	10057.28
468.96	9872.38
469.14	10132.18
469.32	10200.05
469.50	9675.77
469.69	10083.03
469.87	10258.57
470.05	10300.70
470.23	10045.58
470.41	10223.46
470.59	10429.43
470.77	10136.86
470.95	10195.37
471.14	10525.39
471.32	10310.06
471.50	10497.30
471.68	10661.14
471.86	10417.72
472.04	10789.87
472.22	10951.37
472.40	10789.87
472.58	10729.02
472.77	10761.78
472.95	11014.56
473.13	11356.28
473.31	10977.11
473.49	10885.83
473.67	11225.21
473.85	11131.59
474.03	11492.03
474.21	11222.87
474.39	11398.41
474.57	11536.50
474.75	11419.47
474.93	11590.33
475.12	11651.19
475.30	11707.36
475.48	11618.42
475.66	11815.02
475.84	11800.98
476.02	11719.06
476.20	11681.61
476.38	11758.85
476.56	12315.90
476.74	12161.42
476.92	12276.11
477.10	12334.62
477.28	12622.51
477.46	12564.00
477.64	12690.38
477.82	12858.90
478.00	13125.72
478.18	12973.59
478.36	12891.67
478.54	13029.76
478.72	13357.44
478.90	13472.12
479.08	13607.87
479.26	13245.09
479.44	13668.73
479.62	13675.75
479.80	13633.62
479.98	13832.57
480.16	14099.39
480.34	14361.53
480.52	14185.99
480.70	14373.23
480.88	14218.75
481.06	14464.51
481.24	14616.65
481.41	14782.82
481.59	14785.16
481.77	15012.20
481.95	14892.83
482.13	15239.23
482.31	15061.35
482.49	15594.99
482.67	15417.11
482.85	15510.73
483.03	15683.93
483.21	16004.58
483.39	15847.77
483.57	15805.64
483.74	15716.70
483.92	16390.77
484.10	15941.39
484.28	16570.99
484.46	16762.92
484.64	16837.81
484.82	16575.67
485.00	16727.81
485.18	16933.78
485.35	17055.48
485.53	17081.23
485.71	16578.01
485.89	16968.88
486.07	16868.24
486.25	17303.58
486.43	17224.00
486.61	17331.67
486.78	18071.28
486.96	17851.27
487.14	18340.44
487.32	18527.68
487.50	18356.82
487.68	18675.13
487.85	18808.54
488.03	19168.99
488.21	19199.41
488.39	19014.51
488.57	19168.99
488.75	19119.84
488.92	19859.45
489.10	20058.39
489.28	20056.05
489.46	20545.22
489.64	20610.76
489.81	20484.37
489.99	20765.23
490.17	20966.52
490.35	21022.69
490.53	20910.35
490.70	21392.50
490.88	21387.82
491.06	21654.64
491.24	21654.64
491.41	21376.11
491.59	21689.74
491.77	21813.79
491.95	21958.91
492.13	22005.72
492.30	22321.69
492.48	22581.49
492.66	22504.25
492.84	22522.98
493.01	22370.84
493.19	22740.64
493.37	22883.42
493.54	22890.44
493.72	23087.04
493.90	23297.69
494.08	23711.97
494.25	23906.23
494.43	24011.56
494.61	24416.47
494.79	24519.45
494.96	24070.07
495.14	24233.91
495.32	24627.12
495.49	24470.30
495.67	24669.25
495.85	24767.55
496.02	25062.46
496.20	25238.00
496.38	25235.66
496.55	25252.04
496.73	26316.98
496.91	25685.04
497.09	26216.34
497.26	26232.72
497.44	26005.69
497.62	25963.56
497.79	26389.54
497.97	25797.38
498.14	26328.69
498.32	26511.25
498.50	26293.58
498.67	26892.76
498.85	26939.57
499.03	26902.12
499.20	27089.36
499.38	27021.48
499.56	27180.64
499.73	27700.24
499.91	27606.62
500.08	27583.21
500.26	27302.35
500.44	27587.89
500.61	27344.48
500.79	27402.99
500.97	27372.57
501.14	27599.60
501.32	27843.01
501.49	28126.22
501.67	27674.49
501.84	28095.79
502.02	28329.84
502.20	28723.05
502.37	28835.40
502.55	28765.18
502.72	29125.63
502.90	28807.31
503.07	28783.91
503.25	29083.50
503.43	28886.89
503.60	28636.45
503.78	28774.55
503.95	29230.95
504.13	29677.99
504.30	29668.63
504.48	29266.06
504.65	29408.83
504.83	29647.57
505.01	30192.91
505.18	30211.64
505.36	30204.61
505.53	30356.75
505.71	30558.03
505.88	30813.15
506.06	30565.06
506.23	31140.83
506.41	30511.22
506.58	30672.72
506.76	30478.46
506.93	31019.12
507.11	30742.94
507.28	31136.15
507.46	30913.80
507.63	30740.60
507.81	31335.09
507.98	30728.89
508.16	31157.21
508.33	31548.08
508.50	31821.92
508.68	31367.86
508.85	32362.59
509.03	31875.76
509.20	32023.21
509.38	32208.11
509.55	32535.79
509.73	32364.93
509.90	32091.09
510.08	32233.86
510.25	32533.45
510.42	32858.78
510.60	32980.49
510.77	32940.70
510.95	32718.35
511.12	32549.83
511.30	33214.54
511.47	33289.44
511.64	33582.01
511.82	33256.67
511.99	33120.92
512.17	33542.22
512.34	33591.37
512.51	33387.74
512.69	33930.75
512.86	33839.47
513.04	33996.28
513.21	33638.18
513.38	33638.18
513.56	33890.96
513.73	33984.58
513.90	34096.92
514.08	33818.40
514.25	33968.19
514.43	34000.96
514.60	34169.48
514.77	34202.25
514.95	34567.37
515.12	34181.18
515.29	34866.96
515.47	35000.37
515.64	34969.94
515.81	34836.53
515.99	34749.93
516.16	34771.00
516.33	34494.82
516.51	34656.31
516.68	34298.21
516.85	34202.25
517.03	34478.43
517.20	34803.77
517.37	35438.05
517.54	35154.85
517.72	35063.57
517.89	34684.40
518.06	35264.85
518.24	34754.61
518.41	35543.38
518.58	35431.03
518.75	35576.14
518.93	36002.12
519.10	35728.28
519.27	35454.44
519.45	36180.00
519.62	36561.51
519.79	35990.42
519.96	36385.97
520.14	36194.04
520.31	35976.37
520.48	36203.41
520.65	36470.23
520.83	36879.82
521.00	36982.80
521.17	36858.76
521.34	37034.30
521.52	37397.08
521.69	36994.51
521.86	37497.72
522.03	37296.44
522.20	37294.10
522.38	37584.32
522.55	37266.01
522.72	37350.27
522.89	37488.36
523.07	37928.38
523.24	37565.60
523.41	37809.01
523.58	37886.25
523.75	38527.56
523.92	38139.03
524.10	38190.52
524.27	38813.10
524.44	38295.85
524.61	38349.68
524.78	38515.86
524.96	38424.57
525.13	38415.21
525.30	38724.16
525.47	38665.65
525.64	38986.30
525.81	38586.07
525.98	38330.95
526.16	38597.77
526.33	38202.22
526.50	38567.35
526.67	38106.26
526.84	38504.15
527.01	38455.00
527.18	38794.38
527.36	39164.18
527.53	38983.96
527.70	39321.00
527.87	39431.01
528.04	39435.69
528.21	39541.01
528.38	39393.56
528.55	39739.96
528.72	39683.78
528.89	40196.36
529.07	39962.31
529.24	39454.41
529.41	39945.92
529.58	39927.20
529.75	39597.18
529.92	39856.98
530.09	40172.96
530.26	40123.80
530.43	40203.38
530.60	39824.22
530.77	40430.41
530.94	40383.60
531.11	40648.08
531.28	40304.02
531.46	40641.06
531.63	40596.59
531.80	40685.53
531.97	40554.46
532.14	40360.20
532.31	40147.21
532.48	40198.70
532.65	40502.97
532.82	40662.13
532.99	40893.84
533.16	40835.33
533.33	40842.35
533.50	41043.63
533.67	40849.37
533.84	41209.81
534.01	41324.50
534.18	41097.47
534.35	41085.76
534.52	41750.48
534.69	41535.15
534.86	41261.30
535.03	41251.94
535.20	41907.29
535.37	42045.38
535.54	42019.64
535.71	41303.43
535.88	41736.43
536.05	42017.30
536.22	41722.39
536.38	41729.41
536.55	41647.49
536.72	41787.92
536.89	41490.68
537.06	41720.05
537.23	42141.35
537.40	41897.93
537.57	42426.89
537.74	42162.41
537.91	42478.38
538.08	42265.39
538.25	42337.95
538.42	42333.27
538.59	42241.99
538.75	42181.13
538.92	42642.22
539.09	42197.52
539.26	42237.31
539.43	42258.37
539.60	42527.53
539.77	42447.96
539.94	42401.14
540.11	42094.53
540.28	42777.97
540.44	42384.76
540.61	42012.62
540.78	42249.01
540.95	42995.64
541.12	42990.96
541.29	42656.26
541.46	43049.47
541.62	42981.60
541.79	43098.62
541.96	42700.73
542.13	42904.36
542.30	43206.29
542.47	42866.91
542.63	42866.91
542.80	43295.23
542.97	43330.34
543.14	43791.42
543.31	43351.40
543.48	43440.34
543.64	43721.21
543.81	43995.05
543.98	43777.38
544.15	43709.50
544.32	44098.03
544.48	44023.14
544.65	43934.20
544.82	44444.43
544.99	43388.85
545.16	43688.44
545.32	43920.15
545.49	43875.68
545.66	44463.16
545.83	44608.27
546.00	44339.11
546.16	44158.89
546.33	43910.79
546.50	43592.48
546.67	44446.77
546.83	43882.70
547.00	43929.51
547.17	44268.89
547.34	43622.90
547.50	43969.30
547.67	44528.69
547.84	44421.03
548.00	44910.20
548.17	44982.76
548.34	44664.44
548.51	45539.80
548.67	44699.55
548.84	44999.14
549.01	44898.50
549.18	44566.14
549.34	44442.09
549.51	44790.83
549.68	44795.51
549.84	44996.80
550.01	44704.23
550.18	44678.49
550.34	44879.77
550.51	44769.77
550.68	44790.83
550.84	44816.58
551.01	44947.65
551.18	45202.77
551.34	45034.25
551.51	45378.31
551.68	45132.55
551.84	45780.88
552.01	45284.68
552.18	45291.71
552.34	45226.17
552.51	45343.20
552.68	45401.71
552.84	45390.01
553.01	45130.21
553.18	45235.53
553.34	45151.27
553.51	45619.38
553.67	45474.27
553.84	45933.01
554.01	45801.94
554.17	45902.59
554.34	46038.34
554.51	45577.25
554.67	45724.71
554.84	45743.43
555.00	45811.31
555.17	45710.66
555.33	45626.40
555.50	45780.88
555.67	45532.78
555.83	45670.87
556.00	45528.10
556.16	45900.25
556.33	45329.16
556.50	45708.32
556.66	45979.82
556.83	45373.63
556.99	45832.37
557.16	46017.27
557.32	45839.39
557.49	46546.23
557.65	45724.71
557.82	46167.07
557.98	45977.48
558.15	45689.60
558.32	46288.77
558.48	45591.30
558.65	45787.90
558.81	45860.46
558.98	45954.08
559.14	46246.65
559.31	45694.28
559.47	46321.54
559.64	46131.96
559.80	46131.96
559.97	46349.63
560.13	45961.10
560.30	46298.14
560.46	46277.07
560.63	46178.77
560.79	46628.15
560.96	46731.14
561.12	46054.72
561.29	46368.35
561.45	46380.06
561.61	45954.08
561.78	45705.98
561.94	46293.46
562.11	46305.16
562.27	46263.03
562.44	46431.55
562.60	46824.76
562.77	46536.87
562.93	46298.14
563.10	46225.58
563.26	46040.68
563.42	46225.58
563.59	46052.38
563.75	46834.12
563.92	46419.84
564.08	46597.73
564.24	46836.46
564.41	46562.62
564.57	46459.63
564.74	46295.80
564.90	46700.71
565.07	46918.38
565.23	46660.92
565.39	46354.31
565.56	46218.56
565.72	45993.87
565.88	46447.93
566.05	46887.95
566.21	46361.33
566.38	46707.73
566.54	46312.18
566.70	47079.88
566.87	46644.54
567.03	46700.71
567.19	47161.79
567.36	46684.33
567.52	46733.48
567.68	46791.99
567.85	46782.63
568.01	46864.55
568.17	47061.15
568.34	46880.93
568.50	46604.75
568.66	46293.46
568.83	46705.39
568.99	46232.60
569.15	46422.19
569.32	46567.30
569.48	46454.95
569.64	47103.28
569.81	46714.75
569.97	46642.20
570.13	46911.36
570.30	46089.83
570.46	46485.38
570.62	46389.42
570.78	46431.55
570.95	46614.11
571.11	46536.87
571.27	46611.77
571.43	46527.51
571.60	46976.89
571.76	47129.03
571.92	46925.40
572.09	46897.31
572.25	46909.02
572.41	47054.13
572.57	47206.26
572.74	47199.24
572.90	46918.38
573.06	46932.42
573.22	46986.25
573.38	47114.98
573.55	46571.98
573.71	46927.74
573.87	46876.25
574.03	47105.62
574.20	47040.09
574.36	46799.01
574.52	46862.21
574.68	47236.69
574.84	46951.15
575.01	46976.89
575.17	46721.77
575.33	46522.83
575.49	47068.17
575.65	47040.09
575.82	47313.93
575.98	46869.23
576.14	47019.02
576.30	46862.21
576.46	46904.34
576.62	46724.11
576.79	46770.93
576.95	46454.95
577.11	46834.12
577.27	46822.42
577.43	46511.13
577.59	46539.21
577.75	46696.03
577.92	46167.07
578.08	46658.58
578.24	46735.82
578.40	47002.64
578.56	47058.81
578.72	47035.41
578.88	47009.66
579.04	47255.42
579.21	46902.00
579.37	46738.16
579.53	47288.18
579.69	46726.46
579.85	46768.58
580.01	47100.94
580.17	46766.24
580.33	47093.92
580.49	46974.55
580.65	46803.69
580.82	47000.30
580.98	46623.47
581.14	46625.81
581.30	47016.68
581.46	46754.54
581.62	47086.90
581.78	47021.36
581.94	46948.81
582.10	46972.21
582.26	47178.18
582.42	47107.96
582.58	47168.82
582.74	46766.24
582.90	46934.76
583.06	47182.86
583.22	46986.25
583.38	47217.97
583.54	46990.94
583.70	46628.15
583.86	46857.52
584.02	46925.40
584.18	46810.71
584.34	46878.59
584.50	46927.74
584.66	46784.97
584.82	46902.00
584.98	46656.24
585.14	47222.65
585.30	46920.72
585.46	46876.25
585.62	46562.62
585.78	47019.02
585.94	46536.87
586.10	46691.35
586.26	46806.03
586.42	47253.08
586.58	47276.48
586.74	47304.57
586.90	46918.38
587.06	46841.14
587.22	46667.94
587.38	46843.48
587.54	47033.07
587.70	47182.86
587.86	46890.29
588.02	46920.72
588.18	47154.77
588.34	46822.42
588.49	46604.75
588.65	46368.35
588.81	46466.66
588.97	46564.96
589.13	46653.90
589.29	46623.47
589.45	46859.87
589.61	46667.94
589.77	46857.52
