SpectraSuite Data File
++++++++++++++++++++++++++++++++++++
Date: Fri Oct 25 11:26:37 EDT 2013
User: price-jones
Dark Spectrum Present: No
Reference Spectrum Present: No
Number of Sampled Component Spectra: 1
Spectrometers: USB2+H05261
Integration Time (usec): 100000 (USB2+H05261)
Spectra Averaged: 1 (USB2+H05261)
Boxcar Smoothing: 0 (USB2+H05261)
Correct for Electrical Dark: No (USB2+H05261)
Strobe/Lamp Enabled: No (USB2+H05261)
Correct for Detector Non-linearity: No (USB2+H05261)
Correct for Stray Light: No (USB2+H05261)
Number of Pixels in Processed Spectrum: 2048
>>>>>Begin Processed Spectral Data<<<<<
365.73	238.73
365.92	238.73
366.12	238.73
366.32	177.88
366.52	145.11
366.72	182.56
366.91	191.92
367.11	117.03
367.31	184.90
367.51	173.20
367.70	142.77
367.90	119.37
368.10	126.39
368.30	159.16
368.49	175.54
368.69	191.92
368.89	154.48
369.09	145.11
369.28	161.50
369.48	191.92
369.68	208.31
369.87	203.63
370.07	166.18
370.27	299.59
370.47	472.79
370.66	638.97
370.86	660.03
371.06	620.24
371.25	648.33
371.45	713.86
371.65	718.54
371.84	685.78
372.04	692.80
372.24	667.05
372.44	678.76
372.63	816.85
372.83	716.20
373.03	802.80
373.22	765.36
373.42	763.01
373.62	791.10
373.81	828.55
374.01	833.23
374.21	837.91
374.40	840.25
374.60	898.77
374.79	896.43
374.99	807.48
375.19	814.51
375.38	816.85
375.58	873.02
375.78	847.27
375.97	826.21
376.17	884.72
376.37	833.23
376.56	903.45
376.76	772.38
376.95	884.72
377.15	873.02
377.35	926.85
377.54	917.49
377.74	910.47
377.93	894.08
378.13	945.58
378.33	891.74
378.52	830.89
378.72	945.58
378.91	992.39
379.11	929.19
379.31	901.11
379.50	910.47
379.70	971.32
379.89	1043.88
380.09	926.85
380.28	917.49
380.48	1083.67
380.68	994.73
380.87	1109.41
381.07	1036.86
381.26	1114.10
381.46	999.41
381.65	983.02
381.85	954.94
382.04	1078.99
382.24	1121.12
382.43	1076.65
382.63	1081.33
382.83	1179.63
383.02	1170.27
383.22	1233.46
383.41	1048.56
383.61	1128.14
383.80	1177.29
384.00	1181.97
384.19	1078.99
384.39	1093.03
384.58	1090.69
384.78	1221.76
384.97	1210.06
385.17	1184.31
385.36	1081.33
385.56	1219.42
385.75	1179.63
385.95	1240.48
386.14	1203.04
386.34	1280.27
386.53	1273.25
386.72	1207.72
386.92	1270.91
387.11	1228.78
387.31	1252.19
387.50	1254.53
387.70	1282.61
387.89	1163.25
388.09	1254.53
388.28	1315.38
388.48	1270.91
388.67	1277.93
388.86	1362.19
389.06	1334.11
389.25	1310.70
389.45	1324.74
389.64	1327.08
389.84	1371.55
390.03	1387.94
390.22	1385.60
390.42	1401.98
390.61	1397.30
390.81	1383.26
391.00	1437.09
391.19	1490.92
391.39	1458.15
391.58	1465.18
391.78	1497.94
391.97	1514.33
392.16	1502.62
392.36	1523.69
392.55	1530.71
392.75	1530.71
392.94	1563.48
393.13	1586.88
393.33	1582.20
393.52	1519.01
393.71	1603.27
393.91	1495.60
394.10	1509.65
394.29	1575.18
394.49	1645.40
394.68	1673.48
394.88	1596.25
395.07	1673.48
395.26	1741.36
395.46	1713.27
395.65	1631.35
395.84	1661.78
396.04	1792.85
396.23	1706.25
396.42	1771.79
396.62	1813.92
396.81	1905.20
397.00	1797.53
397.19	1792.85
397.39	1842.00
397.58	1909.88
397.77	1776.47
397.97	1813.92
398.16	1865.41
398.35	1898.17
398.55	1905.20
398.74	1860.73
398.93	1930.94
399.12	1844.34
399.32	1956.69
399.51	1895.83
399.70	2066.69
399.90	1940.30
400.09	1982.43
400.28	1940.30
400.47	2015.20
400.67	2101.80
400.86	2085.42
401.05	2064.35
401.24	2139.25
401.44	2174.36
401.63	2066.69
401.82	2085.42
402.01	2111.16
402.21	2162.66
402.40	2221.17
402.59	2207.13
402.78	2160.31
402.97	2249.25
403.17	2214.15
403.36	2282.02
403.55	2335.85
403.74	2478.63
403.93	2345.22
404.13	2359.26
404.32	2368.62
404.51	2385.01
404.70	2464.58
404.89	2420.11
405.09	2492.67
405.28	2495.01
405.47	2392.03
405.66	2530.12
405.85	2466.92
406.05	2462.24
406.24	2572.25
406.43	2637.78
406.62	2633.10
406.81	2677.57
407.00	2520.76
407.20	2628.42
407.39	2607.36
407.58	2792.26
407.77	2705.66
407.96	2778.22
408.15	2771.19
408.34	2668.21
408.54	2764.17
408.73	2871.84
408.92	2888.22
409.11	2930.35
409.30	2925.67
409.49	2958.44
409.68	2890.56
409.87	2899.92
410.07	2916.31
410.26	3012.27
410.45	3054.40
410.64	3073.12
410.83	3073.12
411.02	3005.25
411.21	3105.89
411.40	3166.74
411.59	3358.67
411.78	3204.19
411.98	3108.23
412.17	3342.28
412.36	3379.73
412.55	3393.78
412.74	3417.18
412.93	3421.86
413.12	3468.67
413.31	3550.59
413.50	3473.36
413.69	3496.76
413.88	3742.52
414.07	3627.83
414.26	3653.58
414.45	3686.34
414.64	3676.98
414.83	3742.52
415.02	3742.52
415.22	3831.46
415.41	3908.69
415.60	3913.38
415.79	3901.67
415.98	3990.61
416.17	3808.05
416.36	4025.72
416.55	4060.83
416.74	4138.07
416.93	4072.53
417.12	4091.26
417.31	4175.52
417.50	4215.30
417.69	4386.16
417.88	4341.69
418.07	4131.05
418.26	4311.27
418.45	4245.73
418.64	4418.93
418.83	4397.87
419.02	4505.53
419.21	4435.32
419.39	4594.47
419.58	4411.91
419.77	4435.32
419.96	4823.84
420.15	4596.81
420.34	4524.26
420.53	4688.09
420.72	4660.01
420.91	4837.89
421.10	4585.11
421.29	4809.80
421.48	4641.28
421.67	4664.69
421.86	4861.29
422.05	4840.23
422.24	4882.36
422.43	4805.12
422.61	4975.98
422.80	4929.17
422.99	4992.36
423.18	4926.83
423.37	4980.66
423.56	5020.45
423.75	4908.10
423.94	4863.63
424.13	4645.96
424.32	4643.62
424.50	4990.02
424.69	5088.32
424.88	5139.82
425.07	4910.44
425.26	4947.89
425.45	5067.26
425.64	5057.90
425.83	5029.81
426.01	5151.52
426.20	5100.03
426.39	5090.67
426.58	5046.20
426.77	5008.75
426.96	5132.79
427.15	5067.26
427.33	5181.95
427.52	5198.33
427.71	5268.55
427.90	5128.11
428.09	5364.51
428.28	5289.61
428.46	5315.36
428.65	5305.99
428.84	5640.69
429.03	5523.66
429.22	5390.25
429.40	5369.19
429.59	5488.56
429.78	5392.59
429.97	5245.14
430.16	5488.56
430.34	5626.65
430.53	5682.82
430.72	5706.23
430.91	5701.54
431.10	5706.23
431.28	5710.91
431.47	5837.30
431.66	5977.73
431.85	5851.34
432.03	5942.62
432.22	6146.25
432.41	5980.07
432.60	5987.09
432.79	5935.60
432.97	6169.65
433.16	5942.62
433.35	5954.32
433.54	6176.67
433.72	6083.05
433.91	6115.82
434.10	6108.80
434.28	6197.74
434.47	6071.35
434.66	6377.96
434.85	6431.79
435.03	6244.55
435.22	6279.66
435.41	6609.67
435.59	6406.05
435.78	6511.37
435.97	6403.71
436.16	6654.14
436.34	6438.81
436.53	6590.95
436.72	6661.16
436.90	6427.11
437.09	6810.96
437.28	6672.87
437.46	6710.32
437.65	6743.08
437.84	6754.79
438.02	6883.52
438.21	6796.92
438.40	6642.44
438.58	6960.75
438.77	7091.82
438.96	6698.61
439.14	6944.37
439.33	7176.08
439.52	7220.55
439.70	7199.49
439.89	7482.69
440.08	7204.17
440.26	7358.64
440.45	7248.64
440.63	7363.33
440.82	7695.68
441.01	7531.84
441.19	7801.01
441.38	7744.83
441.57	7707.38
441.75	7843.14
441.94	7796.32
442.12	7971.86
442.31	7948.46
442.50	8152.09
442.68	7922.71
442.87	8189.53
443.05	7983.57
443.24	8138.04
443.43	8236.35
443.61	8252.73
443.80	8549.98
443.98	8131.02
444.17	7852.50
444.35	8234.00
444.54	8400.18
444.73	8294.86
444.91	8390.82
445.10	8346.35
445.28	8355.71
445.47	8472.74
445.65	8397.84
445.84	8386.14
446.02	8491.46
446.21	8430.61
446.39	8451.67
446.58	8294.86
446.77	8468.06
446.95	8400.18
447.14	8423.59
447.32	8641.26
447.51	8376.78
447.69	8519.55
447.88	8615.51
448.06	8793.39
448.25	8479.76
448.43	8634.24
448.62	8765.31
448.80	8599.13
448.99	8741.90
449.17	8802.75
449.36	8837.86
449.54	8805.10
449.73	8784.03
449.91	8990.00
450.10	9015.74
450.28	9123.41
450.46	9100.00
450.65	8877.65
450.83	9027.45
451.02	9151.49
451.20	9245.12
451.39	9226.39
451.57	9135.11
451.76	9116.39
451.94	9259.16
452.13	9226.39
452.31	9287.25
452.49	9146.81
452.68	9327.03
452.86	9554.07
453.05	9434.70
453.23	9423.00
453.42	9383.21
453.60	9504.92
453.78	9708.54
453.97	9554.07
454.15	9671.09
454.34	9591.52
454.52	9699.18
454.70	9792.80
454.89	9874.72
455.07	9675.77
455.26	9811.53
455.44	10031.54
455.62	9863.02
455.81	9891.10
455.99	10101.75
456.17	9886.42
456.36	10251.55
456.54	10300.70
456.73	10272.61
456.91	10530.07
457.09	10506.66
457.28	10633.05
457.46	10190.69
457.64	10726.68
457.83	10602.63
458.01	10525.39
458.19	10747.74
458.38	10501.98
458.56	10539.43
458.74	10736.04
458.93	10782.85
459.11	10916.26
459.29	10726.68
459.48	11012.22
459.66	10963.07
459.84	10850.72
460.03	11077.76
460.21	11026.26
460.39	11037.97
460.57	10871.79
460.76	11194.78
460.94	11328.19
461.12	11323.51
461.31	11171.38
461.49	11267.34
461.67	11281.38
461.85	11286.06
462.04	11377.34
462.22	11571.61
462.40	11524.80
462.59	11468.62
462.77	11501.39
462.95	11681.61
463.13	11611.40
463.32	11803.32
463.50	11765.87
463.68	11943.75
463.86	11901.62
464.05	11941.41
464.23	11784.60
464.41	11810.34
464.59	11871.20
464.78	12138.02
464.96	12159.08
465.14	11756.51
465.32	11939.07
465.50	12091.21
465.69	12383.77
465.87	12182.49
466.05	12018.65
466.23	12100.57
466.41	12084.19
466.60	12456.33
466.78	12304.20
466.96	12383.77
467.14	12177.81
467.32	12123.98
467.51	12479.74
467.69	12175.47
467.87	12755.92
468.05	12650.60
468.23	12233.98
468.41	12669.32
468.60	12692.73
468.78	12886.99
468.96	12484.42
469.14	12917.42
469.32	12945.50
469.50	12475.06
469.69	12872.95
469.87	13235.73
470.05	13228.71
470.23	13224.03
470.41	13165.51
470.59	13420.63
470.77	13231.05
470.95	13404.25
471.14	13554.04
471.32	13252.11
471.50	13668.73
471.68	13535.32
471.86	13760.01
472.04	13841.93
472.22	14052.58
472.40	13792.78
472.58	13933.21
472.77	13827.88
472.95	14097.05
473.13	14590.90
473.31	14183.65
473.49	14108.75
473.67	14389.61
473.85	14394.29
474.03	14583.88
474.21	14630.69
474.39	14761.76
474.57	15000.49
474.75	14864.74
474.93	15080.07
475.12	14934.96
475.30	14979.43
475.48	14920.92
475.66	15080.07
475.84	15260.29
476.02	15573.92
476.20	15449.88
476.38	15805.64
476.56	15967.13
476.74	15943.73
476.92	15953.09
477.10	15925.00
477.28	16126.29
477.46	16283.11
477.64	16240.98
477.82	16519.50
478.00	16798.02
478.18	16580.36
478.36	16964.20
478.54	17238.05
478.72	17495.50
478.90	17378.48
479.08	17792.75
479.26	17928.50
479.44	17771.69
479.62	18003.40
479.80	17937.87
479.98	18387.25
480.16	18745.35
480.34	18523.00
480.52	18679.82
480.70	18705.56
480.88	18597.90
481.06	18841.31
481.24	19129.20
481.41	19147.92
481.59	19243.88
481.77	19709.65
481.95	19686.25
482.13	19988.18
482.31	19822.00
482.49	19990.52
482.67	20142.65
482.85	20819.07
483.03	20816.72
483.21	20884.60
483.39	20959.50
483.57	20741.83
483.74	21720.17
483.92	21584.42
484.10	21462.71
484.28	21862.94
484.46	22012.74
484.64	22548.72
484.82	22169.55
485.00	22295.94
485.18	23166.62
485.35	22911.50
485.53	22991.08
485.71	23220.45
485.89	23550.47
486.07	23566.85
486.25	23616.01
486.43	23552.81
486.61	24065.39
486.78	24191.78
486.96	24360.30
487.14	24718.40
487.32	24683.29
487.50	24863.51
487.68	25006.28
487.85	25518.86
488.03	25458.01
488.21	25790.36
488.39	26319.32
488.57	25844.20
488.75	26431.67
488.92	26373.16
489.10	26817.86
489.28	26595.51
489.46	27351.50
489.64	27248.52
489.81	27873.44
489.99	27751.73
490.17	27913.23
490.35	28315.80
490.53	28079.41
490.70	28533.47
490.88	28339.21
491.06	28858.81
491.24	28809.65
491.41	28975.83
491.59	29263.72
491.77	29654.59
491.95	29780.98
492.13	29326.91
492.30	29886.30
492.48	30455.05
492.66	30038.44
492.84	30565.06
493.01	30668.04
493.19	30778.04
493.37	31044.87
493.54	31187.64
493.72	31679.15
493.90	31990.44
494.08	31732.98
494.25	32109.81
494.43	32034.91
494.61	32573.24
494.79	32627.07
494.96	32369.61
495.14	32957.08
495.32	33127.94
495.49	33432.21
495.67	33031.98
495.85	33869.89
496.02	34033.73
496.20	34218.63
496.38	34019.69
496.55	34183.52
496.73	35234.42
496.91	34932.50
497.09	34923.13
497.26	35002.71
497.44	34974.63
497.62	35564.44
497.79	36095.74
497.97	36091.06
498.14	36327.45
498.32	36114.47
498.50	36119.15
498.67	36662.15
498.85	36884.50
499.03	37287.07
499.20	37116.22
499.38	36816.63
499.56	36891.52
499.73	37177.07
499.91	36989.83
500.08	37497.72
500.26	37521.13
500.44	37809.01
500.61	37766.88
500.79	38225.63
500.97	38396.49
501.14	38513.52
501.32	38604.80
501.49	38792.04
501.67	38829.49
501.84	38960.56
502.02	38693.74
502.20	38981.62
502.37	39370.15
502.55	38923.11
502.72	39718.89
502.90	39742.30
503.07	39775.06
503.25	39842.94
503.43	39728.25
503.60	40020.82
503.78	40502.97
503.95	40236.15
504.13	40713.62
504.30	40776.81
504.48	40631.70
504.65	41139.60
504.83	41291.73
505.01	41659.20
505.18	40793.20
505.36	41825.37
505.53	41319.82
505.71	41518.76
505.88	41954.10
506.06	41797.29
506.23	42148.37
506.41	41773.88
506.58	42239.65
506.76	42380.08
506.93	42710.10
507.11	42204.54
507.28	42763.93
507.46	43084.58
507.63	43119.69
507.81	43442.68
507.98	42925.42
508.16	43494.18
508.33	43386.51
508.50	43667.37
508.68	43625.25
508.85	44311.02
509.03	43997.39
509.20	43983.35
509.38	44608.27
509.55	44655.08
509.73	44587.21
509.90	44350.81
510.08	44486.56
510.25	44727.64
510.42	44954.67
510.60	45270.64
510.77	45277.66
510.95	45820.67
511.12	45022.54
511.30	45155.96
511.47	45429.80
511.64	45584.27
511.82	46316.86
511.99	45507.04
512.17	45916.63
512.34	46253.67
512.51	46431.55
512.69	46583.68
512.86	46550.91
513.04	46731.14
513.21	46550.91
513.38	46871.57
513.56	46873.91
513.73	46522.83
513.90	47332.65
514.08	47367.76
514.25	47374.78
514.43	47232.01
514.60	47585.43
514.77	47737.57
514.95	47913.11
515.12	47718.84
515.29	47590.11
515.47	47873.32
515.64	47917.79
515.81	48275.89
515.99	48278.23
516.16	48409.30
516.33	48437.39
516.51	48587.18
516.68	48470.15
516.85	48498.24
517.03	49118.48
517.20	49017.84
517.37	48676.12
517.54	48896.13
517.72	48987.41
517.89	49158.27
518.06	49221.47
518.24	49235.51
518.41	49319.77
518.58	49375.94
518.75	49404.03
518.93	49446.16
519.10	49577.23
519.27	49940.01
519.45	49528.08
519.62	49907.24
519.79	50237.26
519.96	49729.36
520.14	50356.63
520.31	50080.44
520.48	50614.08
520.65	50543.87
520.83	50590.68
521.00	50787.28
521.17	50569.61
521.34	50726.43
521.52	51037.72
521.69	50464.29
521.86	51100.92
522.03	51398.16
522.20	51550.30
522.38	51894.36
522.55	51393.48
522.72	51456.68
522.89	51175.81
523.07	51646.26
523.24	51306.88
523.41	52009.04
523.58	51356.03
523.75	52034.79
523.92	51887.34
524.10	52013.73
524.27	52280.55
524.44	52245.44
524.61	52317.99
524.78	52140.11
524.96	52315.65
525.13	52343.74
525.30	52364.81
525.47	52540.35
525.64	52589.50
525.81	52561.41
525.98	52921.85
526.16	52610.56
526.33	52807.17
526.50	52741.63
526.67	52907.81
526.84	52870.36
527.01	52903.13
527.18	53146.54
527.36	52837.59
527.53	53254.21
527.70	53387.62
527.87	53279.96
528.04	53137.18
528.21	53490.60
528.38	53439.11
528.55	53558.48
528.72	53312.72
528.89	53333.79
529.07	53474.22
529.24	53581.88
529.41	53741.04
529.58	53865.09
529.75	53457.84
529.92	54096.80
530.09	53869.77
530.26	54075.74
530.43	54195.10
530.60	53855.73
530.77	53759.76
530.94	54555.55
531.11	54064.03
531.28	54225.53
531.46	54464.27
531.63	54227.87
531.80	54405.75
531.97	54478.31
532.14	54520.44
532.31	54522.78
532.48	54604.70
532.65	55086.85
532.82	54522.78
532.99	54784.92
533.16	54782.58
533.33	55079.83
533.50	54958.12
533.67	54925.35
533.84	54621.08
534.01	54993.23
534.18	54836.41
534.35	55325.58
534.52	55487.08
534.69	55096.21
534.86	55325.58
535.03	55086.85
535.20	55290.48
535.37	55414.52
535.54	55552.62
535.71	55533.89
535.88	55416.86
536.05	55405.16
536.22	55592.40
536.38	55702.41
536.55	55494.10
536.72	55592.40
536.89	55580.70
537.06	55583.04
537.23	55863.91
537.40	55594.74
537.57	55924.76
537.74	55863.91
537.91	56025.40
538.08	55767.94
538.25	55784.33
538.42	56016.04
538.59	56175.20
538.75	55987.95
538.92	56285.20
539.09	56200.94
539.26	56165.84
539.43	56292.22
539.60	56177.54
539.77	56535.64
539.94	56411.59
540.11	56273.50
540.28	56577.77
540.44	56652.67
540.61	56530.96
540.78	56619.90
540.95	56582.45
541.12	56605.86
541.29	56465.42
541.46	56528.62
541.62	56975.66
541.79	56748.63
541.96	56273.50
542.13	56687.78
542.30	56786.08
542.47	56933.53
542.63	56743.95
542.80	56828.21
542.97	57050.56
543.14	57251.84
543.31	57244.82
543.48	57403.98
543.64	57558.45
543.81	57602.92
543.98	57429.72
544.15	57261.21
544.32	57495.26
544.48	57780.81
544.65	57403.98
544.82	57504.62
544.99	57621.65
545.16	57504.62
545.32	57457.81
545.49	57701.23
545.66	57939.96
545.83	57677.82
546.00	57785.49
546.16	57680.16
546.33	57663.78
546.50	57680.16
546.67	57733.99
546.83	57605.26
547.00	57689.52
547.17	57829.96
547.34	57860.38
547.50	58272.32
547.67	58141.25
547.84	58101.46
548.00	58319.13
548.17	58307.43
548.34	58248.91
548.51	58295.72
548.67	58286.36
548.84	58110.82
549.01	58120.18
549.18	58300.40
549.34	58347.21
549.51	58316.79
549.68	58564.88
549.84	58319.13
550.01	58431.47
550.18	58370.62
550.34	58387.00
550.51	58590.63
550.68	58466.58
550.84	58363.60
551.01	58527.44
551.18	58660.85
551.34	58443.18
551.51	58714.68
551.68	58700.64
551.84	58763.83
552.01	58646.80
552.18	58798.94
552.34	58569.57
552.51	58777.87
552.68	58489.99
552.84	58665.53
553.01	58990.86
553.18	58960.44
553.34	58876.18
553.51	58838.73
553.67	58887.88
553.84	59175.76
554.01	59079.80
554.17	59075.12
554.34	59068.10
554.51	58997.88
554.67	59077.46
554.84	59028.31
555.00	59215.55
555.17	58979.16
555.33	59299.81
555.50	58857.45
555.67	59051.72
555.83	59157.04
556.00	59264.70
556.16	59274.07
556.33	59414.50
556.50	59327.90
556.66	59269.39
556.83	59091.51
556.99	59386.41
557.16	59611.10
557.32	59491.74
557.49	59653.23
557.65	59395.77
557.82	59547.91
557.98	59421.52
558.15	59508.12
558.32	59751.54
558.48	59473.01
558.65	59723.45
558.81	59594.72
558.98	59465.99
559.14	59594.72
559.31	59587.70
559.47	59749.20
559.64	59798.35
559.80	59854.52
559.97	59896.65
560.13	59805.37
560.30	59695.36
560.46	59842.82
560.63	59849.84
560.79	59971.55
560.96	59856.86
561.12	59821.75
561.29	60027.72
561.45	59891.97
561.61	59810.05
561.78	59756.22
561.94	59746.86
562.11	59847.50
562.27	59962.18
562.44	59866.22
562.60	60240.71
562.77	59955.16
562.93	59842.82
563.10	60083.89
563.26	59987.93
563.42	60236.03
563.59	60046.44
563.75	60018.36
563.92	60090.91
564.08	60088.57
564.24	60186.88
564.41	60142.41
564.57	60067.51
564.74	60322.63
564.90	60111.98
565.07	60135.38
565.23	60226.66
565.39	60292.20
565.56	60016.02
565.72	60170.49
565.88	60278.16
566.05	60037.08
566.21	60198.58
566.38	60266.45
566.54	60355.39
566.70	60294.54
566.87	60301.56
567.03	60193.90
567.19	60285.18
567.36	60240.71
567.52	60434.97
567.68	60521.57
567.85	60537.96
568.01	60472.42
568.17	60470.08
568.34	60467.74
568.50	60381.14
568.66	60533.28
568.83	60406.89
568.99	60275.82
569.15	60500.51
569.32	60402.21
569.48	60437.31
569.64	60626.90
569.81	60624.56
569.97	60334.33
570.13	60540.30
570.30	60374.12
570.46	60491.15
570.62	60339.01
570.78	60603.49
570.95	60486.46
571.11	60671.37
571.27	60589.45
571.43	60657.32
571.60	60610.51
571.76	60711.16
571.92	60669.03
572.09	60409.23
572.25	60521.57
572.41	60507.53
572.57	60636.26
572.74	60846.91
572.90	60678.39
573.06	60680.73
573.22	60570.72
573.38	60540.30
573.55	60774.35
573.71	60750.94
573.87	60720.52
574.03	60542.64
574.20	60729.88
574.36	60680.73
574.52	60823.50
574.68	60846.91
574.84	60690.09
575.01	60767.33
575.17	60762.65
575.33	60683.07
575.49	60727.54
575.65	60949.89
575.82	60844.57
575.98	60830.52
576.14	60966.27
576.30	60928.83
576.46	60549.66
576.62	60935.85
576.79	60865.63
576.95	60605.83
577.11	60872.65
577.27	60828.18
577.43	60872.65
577.59	60657.32
577.75	60821.16
577.92	60729.88
578.08	60776.69
578.24	60863.29
578.40	60973.30
578.56	61221.39
578.72	60860.95
578.88	61066.92
579.04	61043.51
579.21	60977.98
579.37	61153.52
579.53	61045.85
579.69	60678.39
579.85	60949.89
580.01	60896.06
580.17	60809.46
580.33	61036.49
580.49	61076.28
580.65	61095.00
580.82	61022.45
580.98	60896.06
581.14	60879.67
581.30	60874.99
581.46	60921.80
581.62	61031.81
581.78	60910.10
581.94	60877.33
582.10	61057.56
582.26	61064.58
582.42	60722.86
582.58	60891.38
582.74	61015.43
582.90	61106.71
583.06	60846.91
583.22	61008.40
583.38	60956.91
583.54	60935.85
583.70	61113.73
583.86	61188.63
584.02	60910.10
584.18	61228.41
584.34	61050.53
584.50	61020.11
584.66	60720.52
584.82	60989.68
584.98	61193.31
585.14	61193.31
585.30	60741.58
585.46	61137.13
585.62	61102.03
585.78	61066.92
585.94	61008.40
586.10	61043.51
586.26	61137.13
586.42	61006.06
586.58	61176.92
586.74	61188.63
586.90	61076.28
587.06	61087.98
587.22	61097.34
587.38	61008.40
587.54	61090.32
587.70	61172.24
587.86	61193.31
588.02	60938.19
588.18	61345.44
588.34	61031.81
588.49	61123.09
