SpectraSuite Data File
++++++++++++++++++++++++++++++++++++
Date: Fri Oct 25 10:48:05 EDT 2013
User: price-jones
Dark Spectrum Present: No
Reference Spectrum Present: No
Number of Sampled Component Spectra: 1
Spectrometers: USB2+H05261
Integration Time (usec): 100000 (USB2+H05261)
Spectra Averaged: 1 (USB2+H05261)
Boxcar Smoothing: 0 (USB2+H05261)
Correct for Electrical Dark: No (USB2+H05261)
Strobe/Lamp Enabled: No (USB2+H05261)
Correct for Detector Non-linearity: No (USB2+H05261)
Correct for Stray Light: No (USB2+H05261)
Number of Pixels in Processed Spectrum: 2048
>>>>>Begin Processed Spectral Data<<<<<
365.73	131.07
365.92	131.07
366.12	131.07
366.32	58.51
366.52	35.11
366.72	142.77
366.91	0.00
367.11	4.68
367.31	60.85
367.51	0.00
367.70	0.00
367.90	39.79
368.10	42.13
368.30	0.00
368.49	42.13
368.69	25.75
368.89	79.58
369.09	21.06
369.28	93.62
369.48	32.77
369.68	105.32
369.87	91.28
370.07	95.96
370.27	168.52
370.47	175.54
370.66	393.21
370.86	489.17
371.06	456.40
371.25	442.36
371.45	482.15
371.65	407.25
371.84	463.43
372.04	458.74
372.24	524.28
372.44	479.81
372.63	444.70
372.83	430.66
373.03	454.06
373.22	578.11
373.42	552.37
373.62	533.64
373.81	533.64
374.01	594.50
374.21	557.05
374.40	524.28
374.60	564.07
374.79	594.50
374.99	552.37
375.19	575.77
375.38	538.32
375.58	465.77
375.78	547.69
375.97	519.60
376.17	580.45
376.37	491.51
376.56	561.73
376.76	559.39
376.95	638.97
377.15	575.77
377.35	645.99
377.54	606.20
377.74	662.37
377.93	594.50
378.13	678.76
378.33	662.37
378.52	540.66
378.72	695.14
378.91	543.00
379.11	547.69
379.31	615.56
379.50	617.90
379.70	667.05
379.89	636.63
380.09	706.84
380.28	683.44
380.48	690.46
380.68	688.12
380.87	758.33
381.07	657.69
381.26	643.65
381.46	580.45
381.65	624.92
381.85	627.26
382.04	596.84
382.24	692.80
382.43	667.05
382.63	601.52
382.83	758.33
383.02	690.46
383.22	709.18
383.41	648.33
383.61	723.23
383.80	788.76
384.00	643.65
384.19	795.78
384.39	753.65
384.58	746.63
384.78	704.50
384.97	763.01
385.17	755.99
385.36	741.95
385.56	746.63
385.75	739.61
385.95	842.59
386.14	704.50
386.34	835.57
386.53	767.70
386.72	781.74
386.92	791.10
387.11	760.67
387.31	866.00
387.50	767.70
387.70	765.36
387.89	751.31
388.09	786.42
388.28	873.02
388.48	837.91
388.67	870.68
388.86	812.17
389.06	842.59
389.25	875.36
389.45	849.61
389.64	856.64
389.84	919.83
390.03	938.55
390.22	990.05
390.42	873.02
390.61	940.90
390.81	917.49
391.00	898.77
391.19	851.96
391.39	1008.77
391.58	1004.09
391.78	945.58
391.97	915.15
392.16	973.66
392.36	1013.45
392.55	957.28
392.75	957.28
392.94	929.19
393.13	999.41
393.33	1069.62
393.52	971.32
393.71	1050.90
393.91	980.68
394.10	990.05
394.29	1025.15
394.49	1020.47
394.68	1165.59
394.88	992.39
395.07	1111.75
395.26	1137.50
395.46	1006.43
395.65	1142.18
395.84	1163.25
396.04	1205.38
396.23	1086.01
396.42	1109.41
396.62	971.32
396.81	1121.12
397.00	1191.33
397.19	1184.31
397.39	1191.33
397.58	1132.82
397.77	1282.61
397.97	1186.65
398.16	1196.01
398.35	1294.32
398.55	1350.49
398.74	1224.10
398.93	1458.15
399.12	1301.34
399.32	1210.06
399.51	1263.89
399.70	1376.24
399.90	1315.38
400.09	1352.83
400.28	1394.96
400.47	1416.02
400.67	1460.49
400.86	1444.11
401.05	1530.71
401.24	1455.81
401.44	1462.83
401.63	1439.43
401.82	1446.45
402.01	1418.36
402.21	1500.28
402.40	1544.75
402.59	1561.14
402.78	1430.07
402.97	1509.65
403.17	1418.36
403.36	1437.09
403.55	1504.96
403.74	1586.88
403.93	1551.78
404.13	1626.67
404.32	1570.50
404.51	1577.52
404.70	1654.76
404.89	1710.93
405.09	1710.93
405.28	1675.82
405.47	1591.56
405.66	1774.13
405.85	1769.44
406.05	1776.47
406.24	1717.95
406.43	1715.61
406.62	1799.87
406.81	1813.92
407.00	1863.07
407.20	1760.08
407.39	1795.19
407.58	1827.96
407.77	1893.49
407.96	1851.36
408.15	1830.30
408.34	1870.09
408.54	1961.37
408.73	1935.62
408.92	2022.22
409.11	2036.27
409.30	2001.16
409.49	1959.03
409.68	1935.62
409.87	1973.07
410.07	2141.59
410.26	2087.76
410.45	2064.35
410.64	2162.66
410.83	2190.74
411.02	2113.50
411.21	2218.83
411.40	2190.74
411.59	2012.86
411.78	2146.27
411.98	2300.75
412.17	2333.51
412.36	2424.80
412.55	2375.64
412.74	2399.05
412.93	2413.09
413.12	2368.62
413.31	2523.10
413.50	2502.03
413.69	2560.55
413.88	2457.56
414.07	2445.86
414.26	2553.52
414.45	2614.38
414.64	2588.63
414.83	2504.37
415.02	2658.85
415.22	2729.06
415.41	2736.09
415.60	2733.75
415.79	2789.92
415.98	2715.02
416.17	2815.66
416.36	2782.90
416.55	2904.60
416.74	2932.69
416.93	2822.69
417.12	2899.92
417.31	2932.69
417.50	2939.71
417.69	3028.65
417.88	3016.95
418.07	2937.37
418.26	3131.64
418.45	3091.85
418.64	3206.53
418.83	2942.05
419.02	3110.57
419.21	3119.93
419.39	3213.56
419.58	3070.78
419.77	3176.11
419.96	3236.96
420.15	3162.06
420.34	3019.29
420.53	3243.98
420.72	3307.18
420.91	3220.58
421.10	3314.20
421.29	3377.39
421.48	3297.81
421.67	3442.93
421.86	3361.01
422.05	3323.56
422.24	3452.29
422.43	3461.65
422.61	3325.90
422.80	3506.12
422.99	3377.39
423.18	3463.99
423.37	3468.67
423.56	3454.63
423.75	3302.50
423.94	3293.13
424.13	3279.09
424.32	3368.03
424.50	3513.14
424.69	3564.64
424.88	3522.51
425.07	3403.14
425.26	3428.88
425.45	3384.41
425.64	3407.82
425.83	3389.10
426.01	3517.83
426.20	3520.17
426.39	3632.51
426.58	3471.01
426.77	3559.95
426.96	3433.57
427.15	3648.90
427.33	3639.53
427.52	3534.21
427.71	3595.06
427.90	3616.13
428.09	3667.62
428.28	3658.26
428.46	3831.46
428.65	3791.67
428.84	3850.18
429.03	3826.78
429.22	3597.40
429.40	3868.91
429.59	3873.59
429.78	3597.40
429.97	3557.61
430.16	3676.98
430.34	3744.86
430.53	3878.27
430.72	3840.82
430.91	3894.65
431.10	3845.50
431.28	4079.55
431.47	4060.83
431.66	4131.05
431.85	3866.56
432.03	4170.83
432.22	4175.52
432.41	4107.64
432.60	4203.60
432.79	4131.05
432.97	4196.58
433.16	4049.13
433.35	4189.56
433.54	4227.01
433.72	4126.36
433.91	4126.36
434.10	4210.62
434.28	4224.67
434.47	4381.48
434.66	4365.10
434.85	4311.27
435.03	4334.67
435.22	4395.53
435.41	4533.62
435.59	4468.08
435.78	4447.02
435.97	4472.76
436.16	4538.30
436.34	4484.47
436.53	4655.33
436.72	4648.30
436.90	4524.26
437.09	4674.05
437.28	4470.42
437.46	4507.87
437.65	4550.00
437.84	4645.96
438.02	4697.46
438.21	4638.94
438.40	4568.73
438.58	4847.25
438.77	4571.07
438.96	4826.18
439.14	5081.30
439.33	4964.28
439.52	5163.22
439.70	4873.00
439.89	4994.70
440.08	4954.91
440.26	5179.61
440.45	5076.62
440.63	5324.72
440.82	5123.43
441.01	5193.65
441.19	5245.14
441.38	5369.19
441.57	5369.19
441.75	5387.91
441.94	5352.81
442.12	5437.06
442.31	5537.71
442.50	5596.22
442.68	5544.73
442.87	5636.01
443.05	5549.41
443.24	5650.05
443.43	5586.86
443.61	5652.39
443.80	5748.36
443.98	5584.52
444.17	5540.05
444.35	5776.44
444.54	5856.02
444.73	5678.14
444.91	5633.67
445.10	5816.23
445.28	5785.80
445.47	5736.65
445.65	5659.42
445.84	5783.46
446.02	5837.30
446.21	5736.65
446.39	5795.17
446.58	5884.11
446.77	5788.14
446.95	5757.72
447.14	5668.78
447.32	5947.30
447.51	5877.09
447.69	5865.38
447.88	5863.04
448.06	5781.12
448.25	5699.20
448.43	5706.23
448.62	5797.51
448.80	5813.89
448.99	5891.13
449.17	5762.40
449.36	6008.16
449.54	6043.26
449.73	6169.65
449.91	6251.57
450.10	6204.76
450.28	6366.26
450.46	6181.35
450.65	6303.06
450.83	6349.87
451.02	6253.91
451.20	6249.23
451.39	6473.92
451.57	6401.37
451.76	6392.00
451.94	6424.77
452.13	6415.41
452.31	6129.86
452.49	6190.72
452.68	6422.43
452.86	6246.89
453.05	6361.58
453.23	6377.96
453.42	6342.85
453.60	6399.02
453.78	6497.33
453.97	6370.94
454.15	6445.84
454.34	6436.47
454.52	6562.86
454.70	6555.84
454.89	6715.00
455.07	6925.65
455.26	6726.70
455.44	6771.17
455.62	6740.74
455.81	6806.28
455.99	6878.83
456.17	6998.20
456.36	6757.13
456.54	6939.69
456.73	7030.97
456.91	7258.00
457.09	7108.21
457.28	7431.20
457.46	7131.61
457.64	7253.32
457.83	7204.17
458.01	6953.73
458.19	7363.33
458.38	7115.23
458.56	7445.24
458.74	7438.22
458.93	7173.74
459.11	7375.03
459.29	7300.13
459.48	7269.70
459.66	7356.30
459.84	7424.18
460.03	7461.63
460.21	7393.75
460.39	7538.87
460.57	7335.24
460.76	7480.35
460.94	7665.25
461.12	7655.89
461.31	7595.04
461.49	7681.64
461.67	7847.82
461.85	7997.61
462.04	7510.78
462.22	8276.13
462.40	7826.75
462.59	7875.90
462.77	7733.13
462.95	7859.52
463.13	7896.97
463.32	7950.80
463.50	7889.95
463.68	7913.35
463.86	7995.27
464.05	7922.71
464.23	7838.45
464.41	8105.28
464.59	7992.93
464.78	8194.22
464.96	8278.47
465.14	7941.44
465.32	8236.35
465.50	8091.23
465.69	8320.60
465.87	8234.00
466.05	8189.53
466.23	8266.77
466.41	8430.61
466.60	8512.53
466.78	8278.47
466.96	8205.92
467.14	8383.80
467.32	8161.45
467.51	8493.80
467.69	8173.15
467.87	8393.16
468.05	8585.08
468.23	8299.54
468.41	8336.99
468.60	8528.91
468.78	8444.65
468.96	8430.61
469.14	8645.94
469.32	8589.77
469.50	8346.35
469.69	8762.97
469.87	8898.72
470.05	8744.24
470.23	8835.52
470.41	8767.65
470.59	8872.97
470.77	8769.99
470.95	9013.40
471.14	8985.32
471.32	8777.01
471.50	9132.77
471.68	8805.10
471.86	9043.83
472.04	9160.86
472.22	9390.23
472.40	9221.71
472.58	9385.55
472.77	9273.20
472.95	9085.96
473.13	9724.93
473.31	9420.66
473.49	9605.56
473.67	9474.49
473.85	9624.28
474.03	9753.01
474.21	9825.57
474.39	9818.55
474.57	9834.93
474.75	9991.75
474.93	9947.28
475.12	10040.90
475.30	10139.20
475.48	9991.75
475.66	9980.04
475.84	10052.60
476.02	10377.94
476.20	10293.68
476.38	10359.21
476.56	10806.25
476.74	10623.69
476.92	10661.14
477.10	10363.89
477.28	10794.55
477.46	10642.42
477.64	10846.04
477.82	10878.81
478.00	11112.86
478.18	11112.86
478.36	11363.30
478.54	11456.92
478.72	11398.41
478.90	11810.34
479.08	11550.54
479.26	11445.22
479.44	11723.74
479.62	11702.68
479.80	11920.35
479.98	11918.01
480.16	12187.17
480.34	11843.11
480.52	12086.53
480.70	12388.46
480.88	12219.94
481.06	12322.92
481.24	12336.96
481.41	12732.51
481.59	12889.33
481.77	13088.28
481.95	12678.68
482.13	13055.51
482.31	12821.45
482.49	13652.34
482.67	13268.50
482.85	13305.95
483.03	13502.55
483.21	13731.92
483.39	13535.32
483.57	13778.73
483.74	13886.40
483.92	13811.50
484.10	13998.74
484.28	14382.59
484.46	14406.00
484.64	14450.47
484.82	14295.99
485.00	14562.81
485.18	14963.04
485.35	14981.77
485.53	14771.12
485.71	14768.78
485.89	15112.84
486.07	14963.04
486.25	15377.32
486.43	15391.36
486.61	15580.95
486.78	15527.11
486.96	15747.12
487.14	15805.64
487.32	15700.31
487.50	16222.25
487.68	16526.52
487.85	16673.98
488.03	16901.01
488.21	16652.91
488.39	16858.88
488.57	16847.18
488.75	16858.88
488.92	17392.52
489.10	17458.06
489.28	17736.58
489.46	17523.59
489.64	17769.35
489.81	17975.31
489.99	18106.38
490.17	18427.04
490.35	18242.14
490.53	18368.52
490.70	18623.64
490.88	18558.11
491.06	18764.07
491.24	18665.77
491.41	19042.60
491.59	18995.79
491.77	18719.60
491.95	19239.20
492.13	19176.01
492.30	19623.05
492.48	19433.47
492.66	19644.12
492.84	19585.60
493.01	19695.61
493.19	19805.61
493.37	20451.60
493.54	20098.18
493.72	20493.73
493.90	20372.02
494.08	20542.88
494.25	21078.86
494.43	20833.11
494.61	21186.53
494.79	21268.45
494.96	21177.17
495.14	21212.28
495.32	21268.45
495.49	21434.63
495.67	21642.93
495.85	21874.65
496.02	21881.67
496.20	22274.88
496.38	21919.12
496.55	22246.79
496.73	22661.07
496.91	22244.45
497.09	22665.75
497.26	22464.46
497.44	22958.31
497.62	23019.17
497.79	23332.80
497.97	22946.61
498.14	23119.81
498.32	23309.40
498.50	23346.84
498.67	23784.52
498.85	23454.51
499.03	23590.26
499.20	23796.23
499.38	23791.55
499.56	23913.25
499.73	23779.84
499.91	24510.09
500.08	24322.85
500.26	24177.73
500.44	24247.95
500.61	24631.80
500.79	24250.29
500.97	24477.32
501.14	24872.87
501.32	24769.89
501.49	24938.41
501.67	24872.87
501.84	25153.74
502.02	25170.12
502.20	25291.83
502.37	25582.06
502.55	25481.41
502.72	25593.76
502.90	25523.54
503.07	25467.37
503.25	26160.17
503.43	25699.08
503.60	25851.22
503.78	26115.70
503.95	26120.38
504.13	26106.34
504.30	26485.50
504.48	26654.02
504.65	26204.64
504.83	26415.29
505.01	26888.07
505.18	26654.02
505.36	26588.49
505.53	26867.01
505.71	26859.99
505.88	27051.91
506.06	26916.16
506.23	27089.36
506.41	27030.85
506.58	26960.63
506.76	27466.19
506.93	27410.01
507.11	27468.53
507.28	27723.65
507.46	27669.81
507.63	27768.12
507.81	28175.37
507.98	27711.94
508.16	27733.01
508.33	28102.81
508.50	28070.04
508.68	28322.82
508.85	28851.78
509.03	28411.76
509.20	28432.83
509.38	28788.59
509.55	28568.58
509.73	28456.23
509.90	28701.99
510.08	28725.39
510.25	28882.21
510.42	29036.69
510.60	29223.93
510.77	29219.25
510.95	29240.31
511.12	29083.50
511.30	29284.78
511.47	29727.14
511.64	29813.74
511.82	29647.57
511.99	29472.03
512.17	30197.59
512.34	29759.91
512.51	29968.22
512.69	29928.43
512.86	30132.06
513.04	30253.76
513.21	30398.88
513.38	30206.95
513.56	30508.88
513.73	30223.34
513.90	30333.34
514.08	30466.75
514.25	30529.95
514.43	30415.26
514.60	30581.44
514.77	30595.48
514.95	30951.24
515.12	30831.88
515.29	31042.53
515.47	31409.99
515.64	31594.89
515.81	31250.83
515.99	31168.91
516.16	31381.90
516.33	31257.85
516.51	31590.21
516.68	31697.88
516.85	31044.87
517.03	31498.93
517.20	31903.84
517.37	31667.45
517.54	31718.94
517.72	31583.19
517.89	31536.38
518.06	31779.79
518.24	31646.38
518.41	31819.58
518.58	32020.87
518.75	32254.92
518.93	32477.27
519.10	32732.39
519.27	32755.80
519.45	32304.07
519.62	32720.69
519.79	32739.41
519.96	32971.13
520.14	32802.61
520.31	32704.31
520.48	33060.07
520.65	33127.94
520.83	33722.44
521.00	33535.20
521.17	33017.94
521.34	33703.71
521.52	33507.11
521.69	33209.86
521.86	33713.08
522.03	33603.07
522.20	33626.48
522.38	33830.10
522.55	33797.34
522.72	34129.69
522.89	33963.51
523.07	33986.92
523.24	33979.90
523.41	33886.28
523.58	33837.12
523.75	34115.65
523.92	34848.24
524.10	34850.58
524.27	34436.30
524.44	34679.72
524.61	34377.79
524.78	34740.57
524.96	34827.17
525.13	34731.21
525.30	34909.09
525.47	35152.51
525.64	35335.07
525.81	35337.41
525.98	35037.82
526.16	35164.21
526.33	34796.74
526.50	35316.34
526.67	35337.41
526.84	35131.44
527.01	35019.10
527.18	35353.79
527.36	35147.82
527.53	35917.86
527.70	35606.57
527.87	35625.29
528.04	35730.62
528.21	36175.32
528.38	35873.39
528.55	36350.86
528.72	36100.42
528.89	36322.77
529.07	36278.30
529.24	35988.08
529.41	36547.47
529.58	36168.30
529.75	35971.69
529.92	36655.13
530.09	36500.65
530.26	36294.69
530.43	36301.71
530.60	36116.81
530.77	36336.82
530.94	36910.25
531.11	36573.21
531.28	36673.85
531.46	36825.99
531.63	37069.40
531.80	36453.84
531.97	36460.87
532.14	36793.22
532.31	36907.91
532.48	37191.11
532.65	37144.30
532.82	36996.85
532.99	37387.72
533.16	37223.88
533.33	37258.99
533.50	37722.41
533.67	37867.53
533.84	37298.78
534.01	37432.19
534.18	37848.80
534.35	37834.76
534.52	37305.80
534.69	37413.46
534.86	37715.39
535.03	37790.29
535.20	38237.33
535.37	38459.68
535.54	38071.15
535.71	38174.14
535.88	37928.38
536.05	38141.37
536.22	37851.14
536.38	38726.50
536.55	38508.83
536.72	38429.26
536.89	38003.28
537.06	38242.01
537.23	38398.83
537.40	38501.81
537.57	38497.13
537.74	38492.45
537.91	39103.33
538.08	38492.45
538.25	38614.16
538.42	38548.62
538.59	38698.42
538.75	38593.09
538.92	39185.25
539.09	38878.64
539.26	38892.68
539.43	38976.94
539.60	39021.41
539.77	39220.36
539.94	38927.79
540.11	39353.77
540.28	38787.36
540.44	39250.78
540.61	39538.67
540.78	39122.05
540.95	39173.55
541.12	38951.20
541.29	39133.76
541.46	39232.06
541.62	39267.17
541.79	39452.07
541.96	39182.91
542.13	39360.79
542.30	39386.54
542.47	39611.23
542.63	39484.84
542.80	39903.79
542.97	40273.60
543.14	40287.64
543.31	40133.17
543.48	40086.36
543.64	40531.06
543.81	40409.35
543.98	40130.83
544.15	40634.04
544.32	40451.48
544.48	41013.21
544.65	40397.65
544.82	40486.59
544.99	40531.06
545.16	40388.28
545.32	40421.05
545.49	41195.77
545.66	40816.60
545.83	40793.20
546.00	40975.76
546.16	40697.24
546.33	40500.63
546.50	40390.62
546.67	40502.97
546.83	40222.11
547.00	40727.66
547.17	40898.52
547.34	41064.70
547.50	40732.34
547.67	41106.83
547.84	41261.30
548.00	41404.08
548.17	40980.44
548.34	41202.79
548.51	41603.02
548.67	41481.31
548.84	41532.81
549.01	41565.57
549.18	41390.03
549.34	41467.27
549.51	41624.09
549.68	41869.84
549.84	41497.70
550.01	41713.03
550.18	41654.51
550.34	41298.75
550.51	41797.29
550.68	41626.43
550.84	41434.50
551.01	41614.72
551.18	41736.43
551.34	41563.23
551.51	41668.56
551.68	41614.72
551.84	42190.50
552.01	41794.95
552.18	41890.91
552.34	41848.78
552.51	41628.77
552.68	41645.15
552.84	42462.00
553.01	42443.27
553.18	42429.23
553.34	42237.31
553.51	41940.06
553.67	42160.07
553.84	42389.44
554.01	42335.61
554.17	42171.77
554.34	42600.09
554.51	42295.82
554.67	42775.63
554.84	42373.06
555.00	42110.92
555.17	42110.92
555.33	42609.45
555.50	42651.58
555.67	42368.38
555.83	42831.80
556.00	42787.33
556.16	43056.50
556.33	42887.98
556.50	42754.57
556.66	42562.64
556.83	42452.64
556.99	42452.64
557.16	42995.64
557.32	43044.79
557.49	43161.82
557.65	42464.34
557.82	43082.24
557.98	42780.31
558.15	43089.26
558.32	42902.02
558.48	42784.99
558.65	43374.81
558.81	42831.80
558.98	43145.44
559.14	43019.05
559.31	42747.54
559.47	42986.28
559.64	43948.24
559.80	43285.87
559.97	43084.58
560.13	43070.54
560.30	42705.41
560.46	43508.22
560.63	43438.00
560.79	43405.23
560.96	43491.83
561.12	43239.06
561.29	43208.63
561.45	43379.49
561.61	43562.05
561.78	43461.41
561.94	43384.17
562.11	43302.25
562.27	43068.20
562.44	43510.56
562.60	43583.12
562.77	43775.04
562.93	43454.39
563.10	43395.87
563.26	43571.41
563.42	43667.37
563.59	42946.49
563.75	43674.40
563.92	43751.63
564.08	43627.59
564.24	43924.83
564.41	43871.00
564.57	43599.50
564.74	43910.79
564.90	43906.11
565.07	43496.52
565.23	43679.08
565.39	44142.50
565.56	43852.28
565.72	43737.59
565.88	43381.83
566.05	43859.30
566.21	43922.49
566.38	44027.82
566.54	43700.14
566.70	43866.32
566.87	44172.93
567.03	43742.27
567.19	44760.40
567.36	44006.75
567.52	43463.75
567.68	44285.28
567.85	44025.48
568.01	44271.23
568.17	43636.95
568.34	43821.85
568.50	43908.45
568.66	43606.52
568.83	43941.22
568.99	43737.59
569.15	43934.20
569.32	44088.67
569.48	43372.47
569.64	44151.87
569.81	44116.76
569.97	44264.21
570.13	43681.42
570.30	43562.05
570.46	43849.94
570.62	43517.58
570.78	43880.36
570.95	44032.50
571.11	44807.22
571.27	43873.34
571.43	43901.43
571.60	44030.16
571.76	43908.45
571.92	44100.37
572.09	43903.77
572.25	44493.58
572.41	44006.75
572.57	43770.36
572.74	44823.60
572.90	44039.52
573.06	44308.68
573.22	44690.19
573.38	44126.12
573.55	43852.28
573.71	44282.94
573.87	44140.16
574.03	43941.22
574.20	43964.62
574.36	44191.65
574.52	43871.00
574.68	44381.24
574.84	44027.82
575.01	44535.71
575.17	44133.14
575.33	43730.57
575.49	43922.49
575.65	44320.38
575.82	44570.82
575.98	44268.89
576.14	44662.10
576.30	44577.84
576.46	43894.41
576.62	44203.36
576.79	44828.28
576.95	44311.02
577.11	44259.53
577.27	44046.54
577.43	44830.62
577.59	44339.11
577.75	44313.36
577.92	44128.46
578.08	44149.53
578.24	44140.16
578.40	44069.95
578.56	43852.28
578.72	44266.55
578.88	44231.44
579.04	44088.67
579.21	44060.58
579.37	44098.03
579.53	44392.94
579.69	44170.59
579.85	44498.26
580.01	44516.99
580.17	44587.21
580.33	44692.53
580.49	44755.72
580.65	44451.45
580.82	44617.63
580.98	44582.52
581.14	44332.09
581.30	44643.38
581.46	44507.63
581.62	44598.91
581.78	44311.02
581.94	44767.43
582.10	44439.75
582.26	44318.04
582.42	44367.20
582.58	44041.86
582.74	44538.05
582.90	44196.34
583.06	44800.19
583.22	44540.39
583.38	45020.20
583.54	44605.93
583.70	44172.93
583.86	44423.37
584.02	43931.86
584.18	44596.57
584.34	44746.36
584.50	44495.92
584.66	44240.81
584.82	44556.78
584.98	44538.05
585.14	45001.48
585.30	44055.90
585.46	44594.23
585.62	44250.17
585.78	44673.81
585.94	44236.12
586.10	44201.02
586.26	44554.44
586.42	44383.58
586.58	44959.35
586.74	44605.93
586.90	44282.94
587.06	44306.34
587.22	44509.97
587.38	44182.29
587.54	44481.88
587.70	44601.25
587.86	44360.17
588.02	44552.10
588.18	44484.22
588.34	44442.09
588.49	44327.41
588.65	44109.74
588.81	43943.56
588.97	44385.92
589.13	44776.79
589.29	44027.82
589.45	44362.51
589.61	44772.11
589.77	44959.35
589.93	44634.02
590.08	44940.63
590.24	44917.22
590.40	45212.13
