SpectraSuite Data File
++++++++++++++++++++++++++++++++++++
Date: Fri Oct 25 11:26:42 EDT 2013
User: price-jones
Dark Spectrum Present: No
Reference Spectrum Present: No
Number of Sampled Component Spectra: 1
Spectrometers: USB2+H05261
Integration Time (usec): 100000 (USB2+H05261)
Spectra Averaged: 1 (USB2+H05261)
Boxcar Smoothing: 0 (USB2+H05261)
Correct for Electrical Dark: No (USB2+H05261)
Strobe/Lamp Enabled: No (USB2+H05261)
Correct for Detector Non-linearity: No (USB2+H05261)
Correct for Stray Light: No (USB2+H05261)
Number of Pixels in Processed Spectrum: 2048
>>>>>Begin Processed Spectral Data<<<<<
365.73	212.99
365.92	212.99
366.12	212.99
366.32	175.54
366.52	182.56
366.72	117.03
366.91	145.11
367.11	114.69
367.31	88.94
367.51	170.86
367.70	124.05
367.90	126.39
368.10	168.52
368.30	196.60
368.49	131.07
368.69	102.98
368.89	145.11
369.09	170.86
369.28	231.71
369.48	145.11
369.68	177.88
369.87	231.71
370.07	276.18
370.27	264.48
370.47	416.62
370.66	627.26
370.86	650.67
371.06	692.80
371.25	737.27
371.45	706.84
371.65	699.82
371.84	725.57
372.04	657.69
372.24	720.88
372.44	793.44
372.63	753.65
372.83	711.52
373.03	767.70
373.22	748.97
373.42	795.78
373.62	856.64
373.81	835.57
374.01	849.61
374.21	919.83
374.40	802.80
374.60	851.96
374.79	788.76
374.99	812.17
375.19	880.04
375.38	938.55
375.58	936.21
375.78	866.00
375.97	837.91
376.17	901.11
376.37	905.79
376.56	866.00
376.76	849.61
376.95	915.15
377.15	968.98
377.35	929.19
377.54	964.30
377.74	910.47
377.93	926.85
378.13	901.11
378.33	950.26
378.52	971.32
378.72	1027.50
378.91	917.49
379.11	903.45
379.31	973.66
379.50	992.39
379.70	999.41
379.89	990.05
380.09	978.34
380.28	936.21
380.48	959.62
380.68	959.62
380.87	1060.26
381.07	1020.47
381.26	1053.24
381.46	1086.01
381.65	1039.20
381.85	1018.13
382.04	1055.58
382.24	1149.20
382.43	1039.20
382.63	964.30
382.83	1116.44
383.02	1205.38
383.22	1001.75
383.41	1149.20
383.61	1102.39
383.80	1203.04
384.00	1081.33
384.19	1165.59
384.39	1156.22
384.58	1158.57
384.78	1181.97
384.97	1214.74
385.17	1284.95
385.36	1210.06
385.56	1205.38
385.75	1121.12
385.95	1200.69
386.14	1263.89
386.34	1233.46
386.53	1247.51
386.72	1219.42
386.92	1315.38
387.11	1249.85
387.31	1219.42
387.50	1245.16
387.70	1252.19
387.89	1287.29
388.09	1219.42
388.28	1277.93
388.48	1369.21
388.67	1294.32
388.86	1336.45
389.06	1355.17
389.25	1364.53
389.45	1308.36
389.64	1390.28
389.84	1476.88
390.03	1432.41
390.22	1467.52
390.42	1331.76
390.61	1345.81
390.81	1378.58
391.00	1350.49
391.19	1495.60
391.39	1535.39
391.58	1427.73
391.78	1474.54
391.97	1409.00
392.16	1451.13
392.36	1551.78
392.55	1535.39
392.75	1537.73
392.94	1568.16
393.13	1565.82
393.33	1607.95
393.52	1619.65
393.71	1699.23
393.91	1519.01
394.10	1565.82
394.29	1652.42
394.49	1572.84
394.68	1652.42
394.88	1647.74
395.07	1666.46
395.26	1598.59
395.46	1741.36
395.65	1727.32
395.84	1816.26
396.04	1764.76
396.23	1863.07
396.42	1739.02
396.62	1795.19
396.81	1785.83
397.00	1804.55
397.19	1769.44
397.39	1818.60
397.58	1806.89
397.77	1760.08
397.97	1966.05
398.16	1909.88
398.35	1830.30
398.55	1846.68
398.74	1886.47
398.93	1947.33
399.12	1968.39
399.32	1937.96
399.51	1919.24
399.70	2015.20
399.90	2012.86
400.09	1987.11
400.28	2024.56
400.47	2019.88
400.67	2146.27
400.86	2066.69
401.05	2094.78
401.24	2064.35
401.44	2193.08
401.63	2150.95
401.82	2193.08
402.01	2221.17
402.21	2165.00
402.40	2296.07
402.59	2282.02
402.78	2162.66
402.97	2284.36
403.17	2347.56
403.36	2277.34
403.55	2324.15
403.74	2429.48
403.93	2291.38
404.13	2413.09
404.32	2312.45
404.51	2317.13
404.70	2476.29
404.89	2361.60
405.09	2464.58
405.28	2401.39
405.47	2499.69
405.66	2593.31
405.85	2502.03
406.05	2602.68
406.24	2567.57
406.43	2593.31
406.62	2590.97
406.81	2644.81
407.00	2715.02
407.20	2609.70
407.39	2736.09
407.58	2829.71
407.77	2803.96
407.96	2857.79
408.15	2848.43
408.34	2724.38
408.54	2775.88
408.73	2745.45
408.92	2724.38
409.11	2869.50
409.30	2995.89
409.49	2993.55
409.68	2883.54
409.87	3012.27
410.07	3040.36
410.26	2967.80
410.45	2956.10
410.64	3063.76
410.83	3033.33
411.02	3096.53
411.21	3159.72
411.40	3243.98
411.59	3241.64
411.78	3239.30
411.98	3213.56
412.17	3253.34
412.36	3290.79
412.55	3243.98
412.74	3510.80
412.93	3440.59
413.12	3496.76
413.31	3585.70
413.50	3449.95
413.69	3627.83
413.88	3644.21
414.07	3632.51
414.26	3719.11
414.45	3688.68
414.64	3763.58
414.83	3845.50
415.02	3817.41
415.22	3901.67
415.41	3939.12
415.60	3845.50
415.79	3920.40
415.98	3978.91
416.17	4194.24
416.36	4056.15
416.55	3995.29
416.74	4053.81
416.93	4133.39
417.12	4053.81
417.31	4194.24
417.50	4219.99
417.69	4280.84
417.88	4341.69
418.07	4332.33
418.26	4376.80
418.45	4306.59
418.64	4540.64
418.83	4404.89
419.02	4397.87
419.21	4531.28
419.39	4734.90
419.58	4550.00
419.77	4393.19
419.96	4636.60
420.15	4704.48
420.34	4498.51
420.53	4594.47
420.72	4798.10
420.91	4739.58
421.10	4723.20
421.29	4793.42
421.48	4683.41
421.67	4765.33
421.86	4662.35
422.05	4807.46
422.24	4856.61
422.43	5020.45
422.61	5018.11
422.80	5046.20
422.99	4882.36
423.18	4968.96
423.37	5048.54
423.56	4936.19
423.75	5001.72
423.94	5078.96
424.13	4758.31
424.32	4779.37
424.50	5053.22
424.69	5172.58
424.88	5200.67
425.07	4952.57
425.26	5008.75
425.45	5025.13
425.64	5029.81
425.83	5123.43
426.01	5217.05
426.20	5055.56
426.39	5095.35
426.58	5100.03
426.77	5097.69
426.96	5252.16
427.15	5343.44
427.33	5193.65
427.52	5158.54
427.71	5303.65
427.90	5238.12
428.09	5441.75
428.28	5308.34
428.46	5399.62
428.65	5453.45
428.84	5483.88
429.03	5561.11
429.22	5507.28
429.40	5575.16
429.59	5626.65
429.78	5322.38
429.97	5350.46
430.16	5453.45
430.34	5682.82
430.53	5570.48
430.72	5776.44
430.91	5631.33
431.10	5755.38
431.28	5743.67
431.47	5785.80
431.66	5959.00
431.85	5830.27
432.03	5980.07
432.22	5991.77
432.41	5975.39
432.60	5844.32
432.79	5907.51
432.97	6125.18
433.16	6012.84
433.35	6008.16
433.54	6122.84
433.72	6052.63
433.91	6108.80
434.10	6015.18
434.28	6256.25
434.47	6164.97
434.66	6342.85
434.85	6237.53
435.03	6403.71
435.22	6525.41
435.41	6586.27
435.59	6331.15
435.78	6579.25
435.97	6466.90
436.16	6436.47
436.34	6567.54
436.53	6626.06
436.72	6586.27
436.90	6588.61
437.09	6621.38
437.28	6548.82
437.46	6792.23
437.65	6588.61
437.84	6822.66
438.02	6944.37
438.21	6705.63
438.40	6740.74
438.58	6981.82
438.77	6958.41
438.96	7089.48
439.14	7180.76
439.33	7178.42
439.52	7421.84
439.70	7234.60
439.89	7372.69
440.08	7297.79
440.26	7445.24
440.45	7353.96
440.63	7641.85
440.82	7669.94
441.01	7754.19
441.19	7480.35
441.38	7726.11
441.57	7845.48
441.75	7920.37
441.94	7929.74
442.12	8023.36
442.31	8060.80
442.50	8028.04
442.68	7871.22
442.87	7918.03
443.05	8257.41
443.24	7976.55
443.43	8084.21
443.61	8102.93
443.80	8322.94
443.98	8145.06
444.17	7749.51
444.35	8311.24
444.54	8505.51
444.73	8332.31
444.91	8615.51
445.10	8439.97
445.28	8397.84
445.47	8313.58
445.65	8458.70
445.84	8418.91
446.02	8681.05
446.21	8528.91
446.39	8568.70
446.58	8400.18
446.77	8594.45
446.95	8374.44
447.14	8535.93
447.32	8500.83
447.51	8395.50
447.69	8538.27
447.88	8620.19
448.06	8458.70
448.25	8786.37
448.43	8645.94
448.62	8603.81
448.80	8643.60
448.99	8613.17
449.17	8884.67
449.36	8624.87
449.54	8877.65
449.73	9142.13
449.91	8875.31
450.10	9057.87
450.28	9100.00
450.46	9167.88
450.65	9151.49
450.83	9121.07
451.02	9137.45
451.20	9198.31
451.39	9256.82
451.57	9104.68
451.76	9184.26
451.94	9376.19
452.13	9397.25
452.31	9298.95
452.49	9142.13
452.68	9554.07
452.86	9193.62
453.05	9509.60
453.23	9654.71
453.42	9359.80
453.60	9540.02
453.78	9600.88
453.97	9563.43
454.15	9680.46
454.34	9490.87
454.52	9748.33
454.70	9813.87
454.89	9783.44
455.07	9884.08
455.26	9951.96
455.44	9905.15
455.62	9919.19
455.81	9834.93
455.99	10122.82
456.17	9989.41
456.36	10132.18
456.54	10169.63
456.73	10317.08
456.91	10394.32
457.09	10455.17
457.28	10478.58
457.46	10434.11
457.64	10579.22
457.83	10630.71
458.01	10569.86
458.19	11002.86
458.38	10356.87
458.56	10829.66
458.74	10757.10
458.93	10712.63
459.11	10626.03
459.29	10731.36
459.48	10731.36
459.66	10995.84
459.84	10768.80
460.03	11084.78
460.21	11042.65
460.39	11075.42
460.57	11281.38
460.76	11311.81
460.94	11480.33
461.12	11363.30
461.31	11187.76
461.49	11199.46
461.67	11337.56
461.85	11461.60
462.04	11358.62
462.22	11571.61
462.40	11545.86
462.59	11585.65
462.77	11520.12
462.95	11569.27
463.13	11405.43
463.32	11667.57
463.50	12053.76
463.68	11833.75
463.86	12173.13
464.05	11882.90
464.23	11786.94
464.41	12013.97
464.59	11655.87
464.78	11946.09
464.96	12030.35
465.14	12025.67
465.32	11934.39
465.50	12037.38
465.69	12180.15
465.87	12322.92
466.05	12271.43
466.23	12428.24
466.41	12149.72
466.60	12400.16
466.78	12255.04
466.96	12404.84
467.14	12212.92
467.32	12568.68
467.51	12739.54
467.69	12156.74
467.87	12439.95
468.05	12655.28
468.23	12608.47
468.41	12542.93
468.60	12821.45
468.78	12877.63
468.96	12650.60
469.14	12917.42
469.32	13217.01
469.50	12823.80
469.69	12966.57
469.87	12798.05
470.05	13158.49
470.23	13139.77
470.41	13352.76
470.59	13530.64
470.77	13427.65
470.95	13315.31
471.14	13575.11
471.32	13247.43
471.50	13493.19
471.68	13696.82
471.86	13774.05
472.04	13790.44
472.22	13930.87
472.40	13827.88
472.58	13645.32
472.77	13858.31
472.95	14230.46
473.13	14890.49
473.31	14312.38
473.49	14160.24
473.67	13973.00
473.85	14310.04
474.03	14721.97
474.21	14862.40
474.39	14829.63
474.57	14775.80
474.75	14792.19
474.93	15262.63
475.12	15073.05
475.30	15377.32
475.48	15105.82
475.66	15190.08
475.84	15246.25
476.02	15559.88
476.20	15674.57
476.38	15749.46
476.56	15882.88
476.74	15957.77
476.92	16123.95
477.10	16053.73
477.28	16154.38
477.46	16299.49
477.64	16463.33
477.82	16599.08
478.00	16851.86
478.18	16835.47
478.36	17018.04
478.54	17156.13
478.72	17387.84
478.90	17589.13
479.08	17666.36
479.26	17689.77
479.44	17902.76
479.62	17933.18
479.80	18373.21
479.98	18087.66
480.16	18780.46
480.34	18565.13
480.52	18443.42
480.70	18658.75
480.88	18375.55
481.06	18785.14
481.24	19028.56
481.41	19286.01
481.59	19566.88
481.77	19850.08
481.95	19501.34
482.13	20182.44
482.31	20016.26
482.49	20283.08
482.67	20336.91
482.85	20432.88
483.03	20636.50
483.21	20929.07
483.39	21284.83
483.57	20898.64
483.74	20947.79
483.92	21303.56
484.10	21305.90
484.28	21947.20
484.46	22120.40
484.64	22356.80
484.82	22223.39
485.00	22450.42
485.18	23021.51
485.35	22939.59
485.53	22993.42
485.71	23215.77
485.89	23412.38
486.07	23461.53
486.25	23576.22
486.43	23782.18
486.61	23906.23
486.78	24243.27
486.96	24379.02
487.14	24601.37
487.32	24886.92
487.50	24800.32
487.68	25303.53
487.85	25755.26
488.03	25813.77
488.21	25816.11
488.39	25886.32
488.57	26139.10
488.75	26188.25
488.92	26602.53
489.10	26630.62
489.28	26920.84
489.46	27386.61
489.64	27168.94
489.81	27981.10
489.99	27875.78
490.17	27899.19
490.35	28561.56
490.53	28580.28
490.70	28584.96
490.88	28566.24
491.06	29179.46
491.24	29057.75
491.41	29263.72
491.59	29338.62
491.77	29802.04
491.95	29797.36
492.13	29853.53
492.30	29907.37
492.48	30181.21
492.66	30099.29
492.84	30677.40
493.01	30689.10
493.19	30796.77
493.37	31700.22
493.54	31087.00
493.72	31503.61
493.90	31456.80
494.08	32016.19
494.25	32226.84
494.43	32194.07
494.61	32711.33
494.79	32882.19
494.96	32573.24
495.14	33039.00
495.32	33151.35
495.49	33287.10
495.67	33401.79
495.85	33652.22
496.02	34132.03
496.20	34244.38
496.38	34139.05
496.55	33572.64
496.73	35257.83
496.91	34550.99
497.09	34834.19
497.26	35189.95
497.44	34998.03
497.62	35842.96
497.79	35875.73
497.97	35805.52
498.14	36264.26
498.32	36009.14
498.50	36219.79
498.67	36725.35
498.85	36849.39
499.03	37202.82
499.20	36577.89
499.38	36971.10
499.56	37137.28
499.73	37270.69
499.91	37722.41
500.08	37797.31
500.26	37488.36
500.44	37930.72
500.61	37991.58
500.79	38312.23
500.97	38368.40
501.14	38667.99
501.32	38181.16
501.49	38703.10
501.67	39014.39
501.84	39721.23
502.02	38770.97
502.20	39274.19
502.37	39431.01
502.55	39318.66
502.72	39440.37
502.90	39922.52
503.07	39395.90
503.25	40053.59
503.43	39814.85
503.60	40336.79
503.78	40264.24
503.95	40502.97
504.13	40517.01
504.30	40896.18
504.48	40823.62
504.65	40868.09
504.83	41214.49
505.01	41591.32
505.18	41163.00
505.36	41591.32
505.53	41221.52
505.71	41984.53
505.88	42251.35
506.06	41476.63
506.23	42012.62
506.41	42036.02
506.58	42380.08
506.76	42298.16
506.93	42981.60
507.11	42520.51
507.28	42906.70
507.46	43154.80
507.63	43051.81
507.81	43475.45
507.98	43000.32
508.16	43512.90
508.33	43468.43
508.50	43746.95
508.68	43402.89
508.85	44573.16
509.03	44318.04
509.20	43992.71
509.38	44378.90
509.55	44648.06
509.73	44615.29
509.90	44952.33
510.08	44601.25
510.25	44847.00
510.42	44678.49
510.60	45287.03
510.77	45134.89
510.95	45460.23
511.12	45247.24
511.30	45352.56
511.47	45492.99
511.64	45867.48
511.82	46059.40
511.99	45837.05
512.17	46164.73
512.34	46005.57
512.51	46326.22
512.69	46569.64
512.86	46138.98
513.04	46752.20
513.21	46848.16
513.38	47093.92
513.56	47243.71
513.73	46880.93
513.90	47536.28
514.08	46719.43
514.25	47468.40
514.43	47824.17
514.60	47704.80
514.77	47695.44
514.95	47903.74
515.12	47522.24
515.29	47817.14
515.47	48280.57
515.64	48404.62
515.81	47906.08
515.99	48296.95
516.16	48559.09
516.33	48577.82
516.51	48360.15
516.68	49195.72
516.85	48835.28
517.03	48882.09
517.20	49483.61
517.37	48673.78
517.54	48966.35
517.72	49188.70
517.89	49312.75
518.06	49153.59
518.24	49659.15
518.41	49324.45
518.58	49488.29
518.75	49563.18
518.93	49523.40
519.10	49471.90
519.27	49893.20
519.45	49780.85
519.62	50211.51
519.79	50408.12
519.96	50216.19
520.14	50688.98
520.31	49961.08
520.48	50518.12
520.65	50277.05
520.83	50600.04
521.00	50768.56
521.17	50803.67
521.34	50635.15
521.52	50836.44
521.69	51103.26
521.86	51061.13
522.03	51274.12
522.20	51236.67
522.38	51444.98
522.55	51496.47
522.72	51428.59
522.89	51702.43
523.07	51789.03
523.24	51660.30
523.41	51709.46
523.58	51384.12
523.75	51952.87
523.92	51688.39
524.10	52055.85
524.27	52453.75
524.44	52048.83
524.61	52285.23
524.78	52444.38
524.96	52589.50
525.13	52348.42
525.30	52612.90
525.47	52519.28
525.64	52786.10
525.81	52762.70
525.98	52921.85
526.16	52568.43
526.33	52776.74
526.50	53027.18
526.67	52961.64
526.84	53165.27
527.01	52975.69
527.18	52926.53
527.36	53141.86
527.53	53081.01
527.70	53380.60
527.87	53474.22
528.04	53102.07
528.21	53396.98
528.38	53663.80
528.55	53794.87
528.72	53202.72
528.89	53516.35
529.07	53544.44
529.24	53635.72
529.41	53799.55
529.58	54124.89
529.75	53918.92
529.92	53954.03
530.09	53932.96
530.26	54010.20
530.43	53951.69
530.60	54035.95
530.77	53956.37
530.94	54316.81
531.11	53925.94
531.28	54410.43
531.46	54508.74
531.63	54342.56
531.80	54096.80
531.97	54829.39
532.14	54574.27
532.31	54611.72
532.48	54815.35
532.65	54817.69
532.82	54485.33
532.99	54887.90
533.16	54703.00
533.33	55035.36
533.50	55206.22
533.67	54990.89
533.84	54880.88
534.01	55213.24
534.18	55150.04
534.35	55398.14
534.52	55100.89
534.69	55330.26
534.86	55143.02
535.03	55164.09
535.20	55587.72
535.37	55590.06
535.54	55732.84
535.71	55306.86
535.88	55442.61
536.05	55543.25
536.22	55962.21
536.38	55526.87
536.55	55786.67
536.72	55646.24
536.89	55697.73
537.06	55601.77
537.23	56013.70
537.40	55526.87
537.57	56016.04
537.74	55789.01
537.91	56240.73
538.08	56027.74
538.25	55765.60
538.42	56030.08
538.59	56229.03
538.75	55987.95
538.92	56135.41
539.09	56535.64
539.26	56231.37
539.43	56247.75
539.60	56317.97
539.77	56411.59
539.94	56643.30
540.11	56537.98
540.28	56685.43
540.44	56652.67
540.61	56491.17
540.78	56533.30
540.95	56519.26
541.12	56739.27
541.29	56552.02
541.46	56704.16
541.62	56577.77
541.79	56851.61
541.96	56509.89
542.13	56491.17
542.30	56750.97
542.47	57181.63
542.63	57158.22
542.80	56903.10
542.97	57261.21
543.14	57219.08
543.31	57279.93
543.48	57373.55
543.64	57499.94
543.81	57572.50
543.98	57457.81
544.15	57483.56
544.32	57462.49
544.48	57626.33
544.65	57326.74
544.82	57551.43
544.99	57301.00
545.16	57623.99
545.32	57656.76
545.49	57811.23
545.66	57996.13
545.83	57385.25
546.00	57897.83
546.16	57851.02
546.33	57565.48
546.50	57733.99
546.67	57909.53
546.83	57698.89
547.00	57822.93
547.17	57638.03
547.34	57893.15
547.50	57879.11
547.67	58375.30
547.84	58199.76
548.00	58162.31
548.17	58365.94
548.34	58113.16
548.51	58452.54
548.67	58422.11
548.84	58365.94
549.01	58178.70
549.18	58197.42
549.34	58408.07
549.51	58461.90
549.68	58642.12
549.84	58443.18
550.01	58560.20
550.18	58433.81
550.34	58564.88
550.51	58618.72
550.68	58375.30
550.84	58403.39
551.01	58611.70
551.18	58782.55
551.34	58567.23
551.51	58897.24
551.68	58782.55
551.84	58857.45
552.01	58637.44
552.18	58665.53
552.34	58520.41
552.51	58906.60
552.68	58543.82
552.84	59086.82
553.01	58894.90
553.18	59009.59
553.34	58922.99
553.51	58632.76
553.67	58993.20
553.84	59295.13
554.01	59248.32
554.17	59143.00
554.34	59187.47
554.51	59070.44
554.67	59147.68
554.84	59042.35
555.00	59107.89
555.17	59365.35
555.33	59344.28
555.50	59168.74
555.67	59171.08
555.83	59138.32
556.00	59311.52
556.16	59494.08
556.33	59440.24
556.50	59334.92
556.66	59393.43
556.83	59299.81
556.99	59353.65
557.16	59461.31
557.32	59653.23
557.49	59781.96
557.65	59426.20
557.82	59468.33
557.98	59313.86
558.15	59707.07
558.32	59580.68
558.48	59475.35
558.65	59592.38
558.81	59683.66
558.98	59566.63
559.14	59676.64
559.31	59777.28
559.47	59629.83
559.64	59510.46
559.80	59824.09
559.97	59845.16
560.13	59842.82
560.30	59716.43
560.46	59884.95
560.63	59943.46
560.79	59906.01
560.96	60102.62
561.12	60041.76
561.29	59891.97
561.45	60079.21
561.61	59760.90
561.78	59962.18
561.94	59898.99
562.11	59826.43
562.27	59969.21
562.44	60128.36
562.60	60107.30
562.77	60236.03
562.93	59999.63
563.10	60074.53
563.26	59973.89
563.42	60395.18
563.59	60023.04
563.75	60111.98
563.92	60001.97
564.08	60191.56
564.24	60198.58
564.41	60320.29
564.57	60072.19
564.74	60217.30
564.90	60280.50
565.07	60369.44
565.23	60142.41
565.39	60289.86
565.56	60432.63
565.72	60292.20
565.88	60346.03
566.05	60278.16
566.21	60329.65
566.38	60392.84
566.54	60472.42
566.70	60495.83
566.87	60477.10
567.03	60257.09
567.19	60369.44
567.36	60259.43
567.52	60390.50
567.68	60493.49
567.85	60451.36
568.01	60654.98
568.17	60446.68
568.34	60629.24
568.50	60591.79
568.66	60287.52
568.83	60598.81
568.99	60528.59
569.15	60617.53
569.32	60678.39
569.48	60542.64
569.64	60509.87
569.81	60526.25
569.97	60315.61
570.13	60451.36
570.30	60533.28
570.46	60669.03
570.62	60453.70
570.78	60446.68
570.95	60591.79
571.11	60671.37
571.27	60512.21
571.43	60767.33
571.60	60767.33
571.76	60755.63
571.92	60659.66
572.09	60711.16
572.25	60662.00
572.41	60650.30
572.57	60662.00
572.74	60947.55
572.90	60402.21
573.06	60776.69
573.22	60837.54
573.38	60694.77
573.55	60867.97
573.71	60755.63
573.87	60856.27
574.03	60636.26
574.20	60856.27
574.36	60793.07
574.52	60882.02
574.68	60842.23
574.84	60851.59
575.01	60788.39
575.17	60987.34
575.33	60772.01
575.49	60659.66
575.65	60727.54
575.82	60832.86
575.98	60734.56
576.14	60996.70
576.30	60844.57
576.46	60928.83
576.62	60739.24
576.79	60828.18
576.95	60718.18
577.11	60842.23
577.27	60992.02
577.43	60755.63
577.59	60769.67
577.75	60970.96
577.92	60645.62
578.08	60891.38
578.24	60919.46
578.40	61071.60
578.56	60949.89
578.72	60748.60
578.88	61104.37
579.04	61029.47
579.21	60954.57
579.37	61090.32
579.53	61118.41
579.69	60996.70
579.85	60809.46
580.01	60872.65
580.17	61013.08
580.33	61038.83
580.49	61085.64
580.65	61010.74
580.82	60985.00
580.98	60893.72
581.14	60837.54
581.30	61190.97
581.46	61078.62
581.62	61235.44
581.78	60931.17
581.94	61275.22
582.10	60849.25
582.26	61015.43
582.42	60807.12
582.58	60839.89
582.74	61090.32
582.90	61059.90
583.06	61066.92
583.22	61027.13
583.38	61017.77
583.54	61207.35
583.70	61071.60
583.86	61073.94
584.02	60935.85
584.18	61200.33
584.34	61052.87
584.50	61034.15
584.66	60764.99
584.82	60966.27
584.98	61392.25
585.14	61181.60
585.30	61085.64
585.46	61045.85
585.62	61020.11
585.78	61139.47
585.94	60846.91
586.10	61127.77
586.26	61221.39
586.42	61038.83
586.58	61165.22
586.74	60985.00
586.90	61174.58
587.06	61111.39
587.22	61212.03
587.38	60977.98
587.54	61312.67
587.70	61305.65
587.86	61083.30
588.02	61221.39
588.18	61251.82
588.34	61076.28
588.49	61186.28
