SpectraSuite Data File
++++++++++++++++++++++++++++++++++++
Date: Fri Oct 25 10:48:08 EDT 2013
User: price-jones
Dark Spectrum Present: No
Reference Spectrum Present: No
Number of Sampled Component Spectra: 1
Spectrometers: USB2+H05261
Integration Time (usec): 100000 (USB2+H05261)
Spectra Averaged: 1 (USB2+H05261)
Boxcar Smoothing: 0 (USB2+H05261)
Correct for Electrical Dark: No (USB2+H05261)
Strobe/Lamp Enabled: No (USB2+H05261)
Correct for Detector Non-linearity: No (USB2+H05261)
Correct for Stray Light: No (USB2+H05261)
Number of Pixels in Processed Spectrum: 2048
>>>>>Begin Processed Spectral Data<<<<<
365.73	142.77
365.92	142.77
366.12	142.77
366.32	56.17
366.52	84.26
366.72	77.24
366.91	0.00
367.11	70.22
367.31	53.83
367.51	16.38
367.70	105.32
367.90	67.88
368.10	49.15
368.30	28.09
368.49	77.24
368.69	37.45
368.89	39.79
369.09	91.28
369.28	112.35
369.48	72.56
369.68	142.77
369.87	154.48
370.07	49.15
370.27	105.32
370.47	224.69
370.66	320.65
370.86	346.40
371.06	362.78
371.25	493.85
371.45	477.47
371.65	482.15
371.84	447.04
372.04	514.92
372.24	528.96
372.44	463.43
372.63	521.94
372.83	472.79
373.03	550.03
373.22	573.43
373.42	535.98
373.62	479.81
373.81	493.85
374.01	564.07
374.21	594.50
374.40	465.77
374.60	475.13
374.79	507.90
374.99	585.13
375.19	528.96
375.38	627.26
375.58	564.07
375.78	606.20
375.97	601.52
376.17	653.01
376.37	601.52
376.56	634.29
376.76	638.97
376.95	566.41
377.15	578.11
377.35	613.22
377.54	655.35
377.74	517.26
377.93	638.97
378.13	643.65
378.33	596.84
378.52	716.20
378.72	622.58
378.91	545.34
379.11	664.71
379.31	559.39
379.50	660.03
379.70	744.29
379.89	662.37
380.09	613.22
380.28	683.44
380.48	631.94
380.68	662.37
380.87	622.58
381.07	690.46
381.26	645.99
381.46	608.54
381.65	685.78
381.85	615.56
382.04	655.35
382.24	690.46
382.43	688.12
382.63	688.12
382.83	716.20
383.02	734.93
383.22	664.71
383.41	739.61
383.61	709.18
383.80	713.86
384.00	683.44
384.19	716.20
384.39	732.59
384.58	770.04
384.78	695.14
384.97	770.04
385.17	779.40
385.36	758.33
385.56	674.07
385.75	786.42
385.95	699.82
386.14	786.42
386.34	770.04
386.53	758.33
386.72	774.72
386.92	800.46
387.11	793.44
387.31	866.00
387.50	774.72
387.70	882.38
387.89	826.21
388.09	795.78
388.28	854.30
388.48	793.44
388.67	786.42
388.86	875.36
389.06	821.53
389.25	809.83
389.45	858.98
389.64	830.89
389.84	905.79
390.03	908.13
390.22	873.02
390.42	884.72
390.61	908.13
390.81	912.81
391.00	945.58
391.19	912.81
391.39	938.55
391.58	933.87
391.78	954.94
391.97	985.37
392.16	966.64
392.36	957.28
392.55	957.28
392.75	990.05
392.94	936.21
393.13	978.34
393.33	971.32
393.52	903.45
393.71	990.05
393.91	1041.54
394.10	999.41
394.29	1055.58
394.49	976.00
394.68	999.41
394.88	1053.24
395.07	1090.69
395.26	1074.31
395.46	1062.60
395.65	1144.52
395.84	1100.05
396.04	1167.93
396.23	1114.10
396.42	1177.29
396.62	1076.65
396.81	1064.94
397.00	1090.69
397.19	1109.41
397.39	1177.29
397.58	1259.21
397.77	1177.29
397.97	1252.19
398.16	1224.10
398.35	1270.91
398.55	1235.80
398.74	1273.25
398.93	1341.13
399.12	1331.76
399.32	1240.48
399.51	1280.27
399.70	1306.02
399.90	1413.68
400.09	1357.51
400.28	1460.49
400.47	1439.43
400.67	1446.45
400.86	1427.73
401.05	1369.21
401.24	1394.96
401.44	1486.24
401.63	1472.20
401.82	1549.43
402.01	1544.75
402.21	1437.09
402.40	1493.26
402.59	1479.22
402.78	1439.43
402.97	1500.28
403.17	1514.33
403.36	1507.30
403.55	1575.18
403.74	1614.97
403.93	1551.78
404.13	1755.40
404.32	1636.03
404.51	1680.50
404.70	1650.08
404.89	1657.10
405.09	1706.25
405.28	1682.85
405.47	1540.07
405.66	1839.66
405.85	1715.61
406.05	1736.68
406.24	1743.70
406.43	1689.87
406.62	1900.52
406.81	1816.26
407.00	1895.83
407.20	1732.00
407.39	1764.76
407.58	1881.79
407.77	1949.67
407.96	1886.47
408.15	1888.81
408.34	1844.34
408.54	1984.77
408.73	1984.77
408.92	1895.83
409.11	1982.43
409.30	1975.41
409.49	2092.44
409.68	1991.80
409.87	1947.33
410.07	2012.86
410.26	2054.99
410.45	2148.61
410.64	2204.78
410.83	2080.74
411.02	2106.48
411.21	2160.31
411.40	2216.49
411.59	2165.00
411.78	2298.41
411.98	2291.38
412.17	2251.60
412.36	2310.11
412.55	2256.28
412.74	2399.05
412.93	2406.07
413.12	2258.62
413.31	2455.22
413.50	2462.24
413.69	2490.33
413.88	2658.85
414.07	2436.50
414.26	2555.86
414.45	2492.67
414.64	2546.50
414.83	2619.06
415.02	2586.29
415.22	2698.64
415.41	2722.04
415.60	2597.99
415.79	2895.24
415.98	2747.79
416.17	2869.50
416.36	2799.28
416.55	2925.67
416.74	2836.73
416.93	2918.65
417.12	2810.98
417.31	2860.13
417.50	2939.71
417.69	2991.20
417.88	2986.52
418.07	2967.80
418.26	3012.27
418.45	3059.08
418.64	3159.72
418.83	3150.36
419.02	3162.06
419.21	3023.97
419.39	3066.10
419.58	3152.70
419.77	3103.55
419.96	3178.45
420.15	3180.79
420.34	3234.62
420.53	3321.22
420.72	3269.73
420.91	3129.30
421.10	3356.33
421.29	3365.69
421.48	3281.43
421.67	3412.50
421.86	3449.95
422.05	3454.63
422.24	3279.09
422.43	3412.50
422.61	3372.71
422.80	3461.65
422.99	3379.73
423.18	3473.36
423.37	3428.88
423.56	3517.83
423.75	3527.19
423.94	3412.50
424.13	3304.84
424.32	3424.20
424.50	3473.36
424.69	3562.30
424.88	3524.85
425.07	3487.40
425.26	3339.94
425.45	3363.35
425.64	3463.99
425.83	3578.68
426.01	3473.36
426.20	3468.67
426.39	3606.77
426.58	3431.23
426.77	3536.55
426.96	3604.42
427.15	3471.01
427.33	3634.85
427.52	3515.48
427.71	3648.90
427.90	3536.55
428.09	3494.42
428.28	3604.42
428.46	3702.73
428.65	3637.19
428.84	3833.80
429.03	3871.25
429.22	3667.62
429.40	3698.05
429.59	3749.54
429.78	3637.19
429.97	3576.34
430.16	3737.84
430.34	3660.60
430.53	3927.42
430.72	3822.09
430.91	3918.06
431.10	3976.57
431.28	4011.68
431.47	4014.02
431.66	4009.34
431.85	4016.36
432.03	4046.79
432.22	4081.89
432.41	4028.06
432.60	3988.27
432.79	4100.62
432.97	4238.71
433.16	4269.14
433.35	4224.67
433.54	4210.62
433.72	4285.52
433.91	4109.98
434.10	4280.84
434.28	4138.07
434.47	4292.54
434.66	4346.37
434.85	4369.78
435.03	4337.01
435.22	4486.81
435.41	4603.83
435.59	4524.26
435.78	4479.79
435.97	4521.92
436.16	4444.68
436.34	4465.74
436.53	4496.17
436.72	4667.03
436.90	4393.19
437.09	4578.09
437.28	4458.72
437.46	4550.00
437.65	4608.51
437.84	4594.47
438.02	4550.00
438.21	4699.80
438.40	4638.94
438.58	4880.02
438.77	4777.03
438.96	4849.59
439.14	4889.38
439.33	4943.21
439.52	4898.74
439.70	4957.25
439.89	5034.49
440.08	4983.00
440.26	5081.30
440.45	4905.76
440.63	5125.77
440.82	5210.03
441.01	5334.08
441.19	5268.55
441.38	5448.77
441.57	5296.63
441.75	5483.88
441.94	5467.49
442.12	5598.56
442.31	5593.88
442.50	5666.44
442.68	5530.69
442.87	5488.56
443.05	5614.95
443.24	5680.48
443.43	5760.06
443.61	5664.10
443.80	5645.37
443.98	5535.37
444.17	5540.05
444.35	5785.80
444.54	5788.14
444.73	5563.45
444.91	5659.42
445.10	5816.23
445.28	5851.34
445.47	5762.40
445.65	5577.50
445.84	5755.38
446.02	5841.98
446.21	5818.57
446.39	5804.53
446.58	5919.21
446.77	5790.49
446.95	5762.40
447.14	5884.11
447.32	5947.30
447.51	5809.21
447.69	5816.23
447.88	5963.68
448.06	5820.91
448.25	5916.87
448.43	6043.26
448.62	5724.95
448.80	5895.81
448.99	5991.77
449.17	5832.62
449.36	5977.73
449.54	6237.53
449.73	6115.82
449.91	6143.91
450.10	6328.81
450.28	6307.74
450.46	6312.42
450.65	6469.24
450.83	6392.00
451.02	6204.76
451.20	6331.15
451.39	6270.30
451.57	6214.12
451.76	6324.13
451.94	6260.93
452.13	6317.11
452.31	6342.85
452.49	6179.01
452.68	6384.98
452.86	6401.37
453.05	6335.83
453.23	6441.15
453.42	6448.18
453.60	6389.66
453.78	6569.88
453.97	6417.75
454.15	6506.69
454.34	6417.75
454.52	6502.01
454.70	6731.38
454.89	6773.51
455.07	6761.81
455.26	6799.26
455.44	6899.90
455.62	6712.66
455.81	6707.98
455.99	6813.30
456.17	6932.67
456.36	6967.77
456.54	6876.49
456.73	6949.05
456.91	7005.22
457.09	7037.99
457.28	7061.40
457.46	7185.44
457.64	7267.36
457.83	7176.08
458.01	7059.06
458.19	7332.90
458.38	7307.15
458.56	7316.51
458.74	7405.46
458.93	7080.12
459.11	7220.55
459.29	7318.86
459.48	7286.09
459.66	7276.73
459.84	7478.01
460.03	7775.26
460.21	7262.68
460.39	7510.78
460.57	7555.25
460.76	7681.64
460.94	7808.03
461.12	7770.58
461.31	7803.35
461.49	7543.55
461.67	7801.01
461.85	7833.77
462.04	7805.69
462.22	8161.45
462.40	7936.76
462.59	8013.99
462.77	7768.24
462.95	7770.58
463.13	7779.94
463.32	7765.90
463.50	7873.56
463.68	8013.99
463.86	7999.95
464.05	7985.91
464.23	7918.03
464.41	8173.15
464.59	7808.03
464.78	8229.32
464.96	8093.57
465.14	7957.82
465.32	8044.42
465.50	8315.92
465.69	8142.72
465.87	8262.09
466.05	8182.51
466.23	8166.13
466.41	8166.13
466.60	8386.14
466.78	8170.81
466.96	8243.37
467.14	8231.66
467.32	8388.48
467.51	8468.06
467.69	8177.83
467.87	8189.53
468.05	8451.67
468.23	8376.78
468.41	8351.03
468.60	8472.74
468.78	8777.01
468.96	8444.65
469.14	8526.57
469.32	8791.05
469.50	8383.80
469.69	8648.28
469.87	8872.97
470.05	8692.75
470.23	8723.18
470.41	8814.46
470.59	8823.82
470.77	8809.78
470.95	9008.72
471.14	9083.62
471.32	8931.48
471.50	9221.71
471.68	9034.47
471.86	8971.27
472.04	9242.78
472.22	9413.63
472.40	9046.17
472.58	9177.24
472.77	9479.17
472.95	9434.70
473.13	9710.88
473.31	9483.85
473.49	9397.25
473.67	9451.08
473.85	9598.54
474.03	9694.50
474.21	9619.60
474.39	9764.72
474.57	9951.96
474.75	9830.25
474.93	9886.42
475.12	9809.19
475.30	10141.54
475.48	10132.18
475.66	9886.42
475.84	10043.24
476.02	10361.55
476.20	10228.14
476.38	10391.98
476.56	10626.03
476.74	10593.26
476.92	10574.54
477.10	10649.44
477.28	10827.32
477.46	10899.87
477.64	10946.69
477.82	11082.44
478.00	11063.71
478.18	11087.12
478.36	11250.96
478.54	11424.15
478.72	11428.84
478.90	11545.86
479.08	11590.33
479.26	11698.00
479.44	11800.98
479.62	11868.86
479.80	11726.08
479.98	11861.84
480.16	12102.91
480.34	11950.78
480.52	12313.56
480.70	12241.00
480.88	12135.68
481.06	12510.16
481.24	12545.27
481.41	12821.45
481.59	12875.29
481.77	12648.26
481.95	12863.58
482.13	13186.58
482.31	12917.42
482.49	13163.17
482.67	13348.08
482.85	13600.85
483.03	13769.37
483.21	13877.04
483.39	13877.04
483.57	13813.84
483.74	14097.05
483.92	14211.73
484.10	14204.71
484.28	14345.14
484.46	14520.68
484.64	14799.21
484.82	14431.74
485.00	14616.65
485.18	14850.70
485.35	15094.11
485.53	14745.38
485.71	14918.57
485.89	15255.61
486.07	14998.15
486.25	15269.66
486.43	15279.02
486.61	15496.69
486.78	15847.77
486.96	15941.39
487.14	16039.69
487.32	16105.23
487.50	16226.93
487.68	16468.01
487.85	16472.69
488.03	16872.92
488.21	16538.23
488.39	16924.41
488.57	16723.13
488.75	17289.54
488.92	17383.16
489.10	17532.95
489.28	17600.83
489.46	17963.61
489.64	17673.39
489.81	18120.43
489.99	18200.01
490.17	18230.43
490.35	18527.68
490.53	18331.08
490.70	18918.55
490.88	18747.69
491.06	18438.74
491.24	19044.94
491.41	18649.39
491.59	19255.59
491.77	18916.21
491.95	19269.63
492.13	19417.08
492.30	19377.30
492.48	19793.91
492.66	19950.73
492.84	19967.11
493.01	19896.89
493.19	19623.05
493.37	20269.04
493.54	20060.73
493.72	20524.16
493.90	20451.60
494.08	20505.43
494.25	21069.50
494.43	21046.10
494.61	20959.50
494.79	21043.76
494.96	20863.54
495.14	21256.75
495.32	21341.00
495.49	21579.74
495.67	21432.29
495.85	22005.72
496.02	21935.50
496.20	21965.93
496.38	21937.84
496.55	22260.84
496.73	22780.43
496.91	22490.21
497.09	22581.49
497.26	22497.23
497.44	22670.43
497.62	23058.96
497.79	23096.41
497.97	22836.61
498.14	23091.73
498.32	23131.51
498.50	24098.16
498.67	23620.69
498.85	23772.82
499.03	23754.10
499.20	23686.22
499.38	24166.03
499.56	23859.42
499.73	24020.92
499.91	23978.79
500.08	24318.17
500.26	24226.89
500.44	24313.48
500.61	24503.07
500.79	24226.89
500.97	24556.90
501.14	25263.74
501.32	24868.19
501.49	25008.62
501.67	25006.28
501.84	25006.28
502.02	25411.20
502.20	25238.00
502.37	25483.75
502.55	25425.24
502.72	25348.00
502.90	25535.24
503.07	25565.67
503.25	25603.12
503.43	25568.01
503.60	26024.42
503.78	26209.32
503.95	25958.88
504.13	26153.15
504.30	26108.68
504.48	26155.49
504.65	26324.01
504.83	26689.13
505.01	27007.44
505.18	26319.32
505.36	26937.23
505.53	26448.05
505.71	26761.69
505.88	27058.93
506.06	27056.59
506.23	26780.41
506.41	26972.33
506.58	27239.15
506.76	27517.68
506.93	27613.64
507.11	27461.51
507.28	27580.87
507.46	27646.41
507.63	27264.90
507.81	27936.63
507.98	27674.49
508.16	27817.27
508.33	28006.85
508.50	27974.08
508.68	28194.09
508.85	28077.07
509.03	28680.92
509.20	28552.20
509.38	28545.17
509.55	28844.76
509.73	28678.58
509.90	29039.03
510.08	28671.56
510.25	28683.27
510.42	28919.66
510.60	29191.16
510.77	29127.97
510.95	29427.56
511.12	29413.51
511.30	29582.03
511.47	29715.44
511.64	29916.73
511.82	29942.47
511.99	29596.07
512.17	29993.97
512.34	29523.52
512.51	29898.00
512.69	30155.46
512.86	29806.72
513.04	30431.65
513.21	30092.27
513.38	30316.96
513.56	30075.88
513.73	30408.24
513.90	30462.07
514.08	30410.58
514.25	30654.00
514.43	30494.84
514.60	30689.10
514.77	30628.25
514.95	30934.86
515.12	31157.21
515.29	31271.90
515.47	31147.85
515.64	31435.74
515.81	31033.16
515.99	31344.45
516.16	31419.35
516.33	31608.93
516.51	31578.51
516.68	31030.82
516.85	30899.75
517.03	31239.13
517.20	31454.46
517.37	31676.81
517.54	31999.80
517.72	32121.51
517.89	32079.38
518.06	31981.08
518.24	32116.83
518.41	32105.13
518.58	32187.05
518.75	31934.27
518.93	32563.87
519.10	31798.52
519.27	32940.70
519.45	32587.28
519.62	32861.12
519.79	32987.51
519.96	32865.80
520.14	32807.29
520.31	33022.62
520.48	33219.22
520.65	33053.05
520.83	33401.79
521.00	33624.14
521.17	33490.73
521.34	33205.18
521.52	33654.56
521.69	33586.69
521.86	33256.67
522.03	33717.76
522.20	34036.07
522.38	33790.31
522.55	33855.85
522.72	34188.21
522.89	33872.23
523.07	33708.40
523.24	33823.08
523.41	33806.70
523.58	33937.77
523.75	34338.00
523.92	34419.92
524.10	34632.91
524.27	34450.35
524.44	34700.78
524.61	34672.70
524.78	34581.42
524.96	34822.49
525.13	34747.59
525.30	35667.42
525.47	35655.72
525.64	35131.44
525.81	35065.91
525.98	34953.56
526.16	35058.88
526.33	35187.61
526.50	34916.11
526.67	34986.33
526.84	35571.46
527.01	34998.03
527.18	35391.24
527.36	35601.89
527.53	35847.64
527.70	35948.29
527.87	36168.30
528.04	35913.18
528.21	35447.41
528.38	35810.20
528.55	35901.48
528.72	36116.81
528.89	36046.59
529.07	36128.51
529.24	36294.69
529.41	36392.99
529.58	35934.24
529.75	36254.90
529.92	36325.11
530.09	36254.90
530.26	36226.81
530.43	36528.74
530.60	36353.20
530.77	36453.84
530.94	36718.32
531.11	36355.54
531.28	36776.84
531.46	36650.45
531.63	36870.46
531.80	36697.26
531.97	36891.52
532.14	36987.49
532.31	36512.36
532.48	37240.26
532.65	37167.71
532.82	37420.48
532.99	37448.57
533.16	37233.24
533.33	37254.31
533.50	37507.08
533.67	37790.29
533.84	37476.66
534.01	37394.74
534.18	37443.89
534.35	37902.64
534.52	37661.56
534.69	37694.33
534.86	37872.21
535.03	37717.73
535.20	38110.94
535.37	38080.52
535.54	38405.85
535.71	37923.70
535.88	38162.43
536.05	38183.50
536.22	38080.52
536.38	38415.21
536.55	38557.99
536.72	38405.85
536.89	38342.66
537.06	38483.09
537.23	38754.59
537.40	38377.76
537.57	38579.05
537.74	38773.31
537.91	38759.27
538.08	38696.08
538.25	38700.76
538.42	38593.09
538.59	38876.30
538.75	38195.20
538.92	38698.42
539.09	39187.59
539.26	39084.61
539.43	39007.37
539.60	39030.77
539.77	39182.91
539.94	38902.04
540.11	39098.65
540.28	38611.82
540.44	38988.64
540.61	38918.43
540.78	38976.94
540.95	39119.71
541.12	38998.01
541.29	39033.11
541.46	39480.16
541.62	39625.27
541.79	39917.84
541.96	39159.50
542.13	39594.84
542.30	39627.61
542.47	39924.86
542.63	39531.65
542.80	39835.92
542.97	40273.60
543.14	40023.16
543.31	40247.85
543.48	40151.89
543.64	40605.95
543.81	40404.67
543.98	40416.37
544.15	40341.47
544.32	40715.96
544.48	40765.11
544.65	40346.15
544.82	40570.85
544.99	40170.61
545.16	40652.76
545.32	40409.35
545.49	40463.18
545.66	40488.93
545.83	41071.72
546.00	40886.82
546.16	40992.14
546.33	40491.27
546.50	40512.33
546.67	40847.03
546.83	40247.85
547.00	40968.74
547.17	40776.81
547.34	40755.75
547.50	41207.47
547.67	41443.87
547.84	41394.71
548.00	41275.35
548.17	41251.94
548.34	41434.50
548.51	41305.77
548.67	41261.30
548.84	41373.65
549.01	40804.90
549.18	41797.29
549.34	41329.18
549.51	41869.84
549.68	42061.77
549.84	42043.04
550.01	41670.90
550.18	41453.23
550.34	41336.20
550.51	41790.27
550.68	41930.70
550.84	41577.28
551.01	41839.42
551.18	41900.27
551.34	41645.15
551.51	42071.13
551.68	41935.38
551.84	42260.71
552.01	41839.42
552.18	41596.00
552.34	41720.05
552.51	42110.92
552.68	41869.84
552.84	42508.81
553.01	42277.10
553.18	41949.42
553.34	42110.92
553.51	42188.16
553.67	42349.65
553.84	42653.92
554.01	42410.51
554.17	42731.16
554.34	42443.27
554.51	42403.49
554.67	42408.17
554.84	42227.95
555.00	41895.59
555.17	41911.97
555.33	42686.69
555.50	42288.80
555.67	42604.77
555.83	42632.86
556.00	42958.19
556.16	42878.61
556.33	42356.67
556.50	42557.96
556.66	43131.39
556.83	42621.16
556.99	42890.32
557.16	43016.71
557.32	42829.46
557.49	42712.44
557.65	42136.66
557.82	42972.24
557.98	42855.21
558.15	42880.95
558.32	43077.56
558.48	42801.38
558.65	42607.11
558.81	42925.42
558.98	42773.29
559.14	43061.18
559.31	42923.08
559.47	43381.83
559.64	42944.15
559.80	43583.12
559.97	43316.29
560.13	43019.05
560.30	43131.39
560.46	43320.98
560.63	43107.99
560.79	43356.08
560.96	43791.42
561.12	43267.14
561.29	43487.15
561.45	43227.35
561.61	43526.94
561.78	43732.91
561.94	43201.61
562.11	43770.36
562.27	42932.45
562.44	43337.36
562.60	43817.17
562.77	43679.08
562.93	43629.93
563.10	43569.07
563.26	43264.80
563.42	43627.59
563.59	43569.07
563.75	43297.57
563.92	43702.48
564.08	43339.70
564.24	43842.92
564.41	43749.29
564.57	43880.36
564.74	43498.86
564.90	43913.13
565.07	43508.22
565.23	43583.12
565.39	43704.82
565.56	44037.18
565.72	43564.39
565.88	43779.72
566.05	43693.12
566.21	43775.04
566.38	43826.53
566.54	43819.51
566.70	43763.34
566.87	44327.41
567.03	44196.34
567.19	44074.63
567.36	44126.12
567.52	43704.82
567.68	43971.64
567.85	44002.07
568.01	43562.05
568.17	43948.24
568.34	44055.90
568.50	43665.03
568.66	43969.30
568.83	43620.56
568.99	44076.97
569.15	43658.01
569.32	43672.06
569.48	43981.01
569.64	44254.85
569.81	44189.31
569.97	43842.92
570.13	44107.40
570.30	44020.80
570.46	43590.14
570.62	43871.00
570.78	43861.64
570.95	43906.11
571.11	44238.47
571.27	43356.08
571.43	44037.18
571.60	44072.29
571.76	44161.23
571.92	43793.76
572.09	44271.23
572.25	44016.11
572.41	44245.49
572.57	44105.06
572.74	44886.79
572.90	43988.03
573.06	44451.45
573.22	44521.67
573.38	44114.42
573.55	44086.33
573.71	44208.04
573.87	44292.30
574.03	43491.83
574.20	44238.47
574.36	43875.68
574.52	44439.75
574.68	44259.53
574.84	44374.22
575.01	44346.13
575.17	44282.94
575.33	44142.50
575.49	44133.14
575.65	44301.66
575.82	44605.93
575.98	44095.69
576.14	44594.23
576.30	44542.74
576.46	44306.34
576.62	44041.86
576.79	44009.09
576.95	43751.63
577.11	44406.98
577.27	44409.32
577.43	44430.39
577.59	44135.48
577.75	44369.54
577.92	44119.10
578.08	43978.67
578.24	44098.03
578.40	44336.77
578.56	44088.67
578.72	44282.94
578.88	44964.03
579.04	44809.56
579.21	44554.44
579.37	44453.79
579.53	44493.58
579.69	43695.46
579.85	44540.39
580.01	44416.35
580.17	44596.57
580.33	44341.45
580.49	44308.68
580.65	44933.60
580.82	44788.49
580.98	44446.77
581.14	44107.40
581.30	44561.46
581.46	44858.71
581.62	44900.84
581.78	44179.95
581.94	44825.94
582.10	44357.83
582.26	44842.32
582.42	44360.17
582.58	44507.63
582.74	44135.48
582.90	44449.11
583.06	44472.52
583.22	44631.68
583.38	44769.77
583.54	44390.60
583.70	44273.57
583.86	44591.89
584.02	44013.77
584.18	44500.61
584.34	44524.01
584.50	44823.60
584.66	44325.07
584.82	44554.44
584.98	44863.39
585.14	44563.80
585.30	44615.29
585.46	44411.67
585.62	44524.01
585.78	44341.45
585.94	44421.03
586.10	44568.48
586.26	44507.63
586.42	44495.92
586.58	44921.90
586.74	44676.15
586.90	44762.75
587.06	44428.05
587.22	44329.75
587.38	44250.17
587.54	44582.52
587.70	45174.68
587.86	44842.32
588.02	44678.49
588.18	44687.85
588.34	44626.99
588.49	44545.08
588.65	44479.54
588.81	44622.31
588.97	45008.50
589.13	44191.65
589.29	44603.59
589.45	44526.35
589.61	45017.86
589.77	44957.01
589.93	44692.53
590.08	44741.68
590.24	44746.36
590.40	44524.01
