SpectraSuite Data File
++++++++++++++++++++++++++++++++++++
Date: Fri Oct 25 11:26:04 EDT 2013
User: price-jones
Dark Spectrum Present: No
Reference Spectrum Present: No
Number of Sampled Component Spectra: 1
Spectrometers: USB2+H05261
Integration Time (usec): 100000 (USB2+H05261)
Spectra Averaged: 1 (USB2+H05261)
Boxcar Smoothing: 0 (USB2+H05261)
Correct for Electrical Dark: No (USB2+H05261)
Strobe/Lamp Enabled: No (USB2+H05261)
Correct for Detector Non-linearity: No (USB2+H05261)
Correct for Stray Light: No (USB2+H05261)
Number of Pixels in Processed Spectrum: 2048
>>>>>Begin Processed Spectral Data<<<<<
365.73	234.05
365.92	234.05
366.12	234.05
366.32	182.56
366.52	138.09
366.72	163.84
366.91	124.05
367.11	117.03
367.31	60.85
367.51	102.98
367.70	173.20
367.90	163.84
368.10	147.45
368.30	138.09
368.49	124.05
368.69	140.43
368.89	191.92
369.09	163.84
369.28	184.90
369.48	159.16
369.68	215.33
369.87	161.50
370.07	208.31
370.27	262.14
370.47	280.86
370.66	641.31
370.86	636.63
371.06	744.29
371.25	732.59
371.45	627.26
371.65	739.61
371.84	660.03
372.04	765.36
372.24	741.95
372.44	732.59
372.63	774.72
372.83	767.70
373.03	851.96
373.22	837.91
373.42	678.76
373.62	851.96
373.81	758.33
374.01	835.57
374.21	795.78
374.40	805.14
374.60	816.85
374.79	798.12
374.99	922.17
375.19	833.23
375.38	922.17
375.58	861.32
375.78	849.61
375.97	866.00
376.17	917.49
376.37	887.06
376.56	844.93
376.76	926.85
376.95	866.00
377.15	908.13
377.35	866.00
377.54	880.04
377.74	954.94
377.93	997.07
378.13	952.60
378.33	924.51
378.52	929.19
378.72	994.73
378.91	912.81
379.11	887.06
379.31	903.45
379.50	1027.50
379.70	990.05
379.89	952.60
380.09	1011.11
380.28	959.62
380.48	1041.54
380.68	1008.77
380.87	1104.73
381.07	957.28
381.26	1111.75
381.46	992.39
381.65	1004.09
381.85	1153.88
382.04	1039.20
382.24	1039.20
382.43	1086.01
382.63	1027.50
382.83	1114.10
383.02	1067.28
383.22	1083.67
383.41	1174.95
383.61	1165.59
383.80	1184.31
384.00	1043.88
384.19	1158.57
384.39	1144.52
384.58	1247.51
384.78	1181.97
384.97	1266.23
385.17	1121.12
385.36	1200.69
385.56	1153.88
385.75	1153.88
385.95	1266.23
386.14	1181.97
386.34	1163.25
386.53	1259.21
386.72	1193.67
386.92	1247.51
387.11	1188.99
387.31	1210.06
387.50	1256.87
387.70	1252.19
387.89	1263.89
388.09	1240.48
388.28	1252.19
388.48	1240.48
388.67	1369.21
388.86	1320.06
389.06	1299.00
389.25	1401.98
389.45	1277.93
389.64	1259.21
389.84	1430.07
390.03	1385.60
390.22	1383.26
390.42	1287.29
390.61	1460.49
390.81	1432.41
391.00	1460.49
391.19	1460.49
391.39	1490.92
391.58	1413.68
391.78	1434.75
391.97	1420.71
392.16	1500.28
392.36	1423.05
392.55	1490.92
392.75	1526.03
392.94	1561.14
393.13	1401.98
393.33	1638.38
393.52	1514.33
393.71	1554.12
393.91	1579.86
394.10	1547.09
394.29	1591.56
394.49	1579.86
394.68	1720.29
394.88	1612.63
395.07	1636.03
395.26	1598.59
395.46	1621.99
395.65	1685.19
395.84	1703.91
396.04	1806.89
396.23	1762.42
396.42	1729.66
396.62	1727.32
396.81	1774.13
397.00	1804.55
397.19	1790.51
397.39	1774.13
397.58	1755.40
397.77	1863.07
397.97	1891.15
398.16	1891.15
398.35	1858.39
398.55	1893.49
398.74	1893.49
398.93	1975.41
399.12	1858.39
399.32	1884.13
399.51	1984.77
399.70	1916.90
399.90	1975.41
400.09	2040.95
400.28	2078.40
400.47	2052.65
400.67	1984.77
400.86	2057.33
401.05	2040.95
401.24	2167.34
401.44	2036.27
401.63	2106.48
401.82	2033.93
402.01	2062.01
402.21	2186.06
402.40	2253.94
402.59	2146.27
402.78	2193.08
402.97	2197.76
403.17	2249.25
403.36	2228.19
403.55	2253.94
403.74	2300.75
403.93	2260.96
404.13	2282.02
404.32	2328.83
404.51	2368.62
404.70	2401.39
404.89	2342.88
405.09	2487.99
405.28	2569.91
405.47	2546.50
405.66	2579.27
405.85	2560.55
406.05	2455.22
406.24	2509.05
406.43	2539.48
406.62	2581.61
406.81	2630.76
407.00	2633.10
407.20	2572.25
407.39	2684.59
407.58	2719.70
407.77	2717.36
407.96	2609.70
408.15	2815.66
408.34	2647.15
408.54	2803.96
408.73	2853.11
408.92	2848.43
409.11	2906.95
409.30	2920.99
409.49	2916.31
409.68	2832.05
409.87	2892.90
410.07	2869.50
410.26	2960.78
410.45	2906.95
410.64	2843.75
410.83	3035.67
411.02	3199.51
411.21	3141.00
411.40	3080.14
411.59	3290.79
411.78	3211.22
411.98	3241.64
412.17	3276.75
412.36	3241.64
412.55	3337.60
412.74	3363.35
412.93	3440.59
413.12	3426.54
413.31	3459.31
413.50	3515.48
413.69	3524.85
413.88	3562.30
414.07	3531.87
414.26	3581.02
414.45	3719.11
414.64	3667.62
414.83	3770.60
415.02	3662.94
415.22	3838.48
415.41	3786.99
415.60	3943.80
415.79	4002.32
415.98	3960.19
416.17	3995.29
416.36	4081.89
416.55	4107.64
416.74	3908.69
416.93	3913.38
417.12	4170.83
417.31	4079.55
417.50	4105.30
417.69	4334.67
417.88	4315.95
418.07	4348.72
418.26	4264.46
418.45	4341.69
418.64	4454.04
418.83	4404.89
419.02	4456.38
419.21	4496.17
419.39	4594.47
419.58	4449.36
419.77	4383.82
419.96	4514.89
420.15	4575.75
420.34	4552.34
420.53	4624.90
420.72	4791.08
420.91	4676.39
421.10	4837.89
421.29	4730.22
421.48	4692.77
421.67	4746.61
421.86	4812.14
422.05	4840.23
422.24	4648.30
422.43	4798.10
422.61	5069.60
422.80	5039.17
422.99	4781.71
423.18	4887.04
423.37	4889.38
423.56	4821.50
423.75	5081.30
423.94	4882.36
424.13	4564.04
424.32	4748.95
424.50	5067.26
424.69	5050.88
424.88	4966.62
425.07	5057.90
425.26	4990.02
425.45	4908.10
425.64	4983.00
425.83	4828.53
426.01	5100.03
426.20	5100.03
426.39	5076.62
426.58	4947.89
426.77	5036.83
426.96	5114.07
427.15	5036.83
427.33	5207.69
427.52	4980.66
427.71	5219.39
427.90	5268.55
428.09	5336.42
428.28	5446.43
428.46	5483.88
428.65	5399.62
428.84	5451.11
429.03	5558.77
429.22	5497.92
429.40	5455.79
429.59	5383.23
429.78	5359.83
429.97	5317.70
430.16	5530.69
430.34	5579.84
430.53	5727.29
430.72	5682.82
430.91	5537.71
431.10	5743.67
431.28	5694.52
431.47	5902.83
431.66	5870.06
431.85	5804.53
432.03	6106.46
432.22	5844.32
432.41	5982.41
432.60	5982.41
432.79	5942.62
432.97	6211.78
433.16	5987.09
433.35	5984.75
433.54	6216.46
433.72	6026.88
433.91	6230.51
434.10	6232.85
434.28	6012.84
434.47	6284.34
434.66	6153.27
434.85	6239.87
435.03	6239.87
435.22	6340.51
435.41	6457.54
435.59	6565.20
435.78	6490.31
435.97	6338.17
436.16	6417.75
436.34	6408.39
436.53	6616.69
436.72	6743.08
436.90	6483.28
437.09	6539.46
437.28	6384.98
437.46	6548.82
437.65	6532.44
437.84	6780.53
438.02	6593.29
438.21	6787.55
438.40	6633.08
438.58	6855.43
438.77	7122.25
438.96	6988.84
439.14	6998.20
439.33	7173.74
439.52	7229.91
439.70	7262.68
439.89	7403.11
440.08	7393.75
440.26	7485.03
440.45	7318.86
440.63	7482.69
440.82	7665.25
441.01	7520.14
441.19	7494.40
441.38	7761.22
441.57	7765.90
441.75	7531.84
441.94	7922.71
442.12	8177.83
442.31	8109.96
442.50	8025.70
442.68	8025.70
442.87	7992.93
443.05	8133.36
443.24	8177.83
443.43	8046.76
443.61	8166.13
443.80	8564.02
443.98	7985.91
444.17	7903.99
444.35	8325.29
444.54	8437.63
444.73	8404.86
444.91	8332.31
445.10	8156.77
445.28	8435.29
445.47	8409.54
445.65	8241.03
445.84	8273.79
446.02	8669.34
446.21	8255.07
446.39	8407.20
446.58	8601.47
446.77	8451.67
446.95	8369.76
447.14	8439.97
447.32	8484.44
447.51	8535.93
447.69	8386.14
447.88	8479.76
448.06	8540.61
448.25	8608.49
448.43	8751.26
448.62	8547.64
448.80	8580.40
448.99	8641.26
449.17	8765.31
449.36	8552.32
449.54	8741.90
449.73	8784.03
449.91	8968.93
450.10	9022.77
450.28	9011.06
450.46	9011.06
450.65	9018.08
450.83	9172.56
451.02	9041.49
451.20	9153.84
451.39	9418.32
451.57	9102.34
451.76	9118.73
451.94	9362.14
452.13	9275.54
452.31	9530.66
452.49	9167.88
452.68	9352.78
452.86	9261.50
453.05	9411.29
453.23	9617.26
453.42	9315.33
453.60	9249.80
453.78	9390.23
453.97	9497.89
454.15	9563.43
454.34	9495.55
454.52	9720.24
454.70	9650.03
454.89	9895.78
455.07	9827.91
455.26	9624.28
455.44	9930.89
455.62	9809.19
455.81	9944.94
455.99	10017.49
456.17	9984.73
456.36	10061.96
456.54	10188.35
456.73	10059.62
456.91	10516.03
457.09	10347.51
457.28	10700.93
457.46	10246.87
457.64	10665.82
457.83	10724.33
458.01	10583.90
458.19	10757.10
458.38	10452.83
458.56	10504.32
458.74	10937.32
458.93	10750.08
459.11	10822.64
459.29	10871.79
459.48	10813.28
459.66	10750.08
459.84	10796.89
460.03	10977.11
460.21	11089.46
460.39	10974.77
460.57	11094.14
460.76	11108.18
460.94	11133.93
461.12	11171.38
461.31	11421.81
461.49	11475.65
461.67	11213.51
461.85	11321.17
462.04	11262.66
462.22	11744.81
462.40	11541.18
462.59	11503.73
462.77	11213.51
462.95	11634.80
463.13	11595.01
463.32	11674.59
463.50	11686.29
463.68	11817.36
463.86	11733.11
464.05	11669.91
464.23	11676.93
464.41	11936.73
464.59	11810.34
464.78	12219.94
464.96	11988.22
465.14	11864.18
465.32	11871.20
465.50	12168.45
465.69	12079.50
465.87	12341.64
466.05	12107.59
466.23	12217.60
466.41	12444.63
466.60	12482.08
466.78	11971.84
466.96	12023.33
467.14	12079.50
467.32	12575.70
467.51	12549.95
467.69	12177.81
467.87	12699.75
468.05	12685.70
468.23	12372.07
468.41	12444.63
468.60	12566.34
468.78	12648.26
468.96	12561.66
469.14	12798.05
469.32	12985.29
469.50	12659.96
469.69	12732.51
469.87	13004.02
470.05	13099.98
470.23	13256.79
470.41	13177.22
470.59	13312.97
470.77	13130.41
470.95	13280.20
471.14	13458.08
471.32	13172.54
471.50	13680.43
471.68	13706.18
471.86	13593.83
472.04	13635.96
472.22	13961.30
472.40	13570.43
472.58	13818.52
472.77	14003.43
472.95	13984.70
473.13	14544.09
473.31	13956.61
473.49	14244.50
473.67	14410.68
473.85	14157.90
474.03	14558.13
474.21	14574.52
474.39	14548.77
474.57	14569.83
474.75	14850.70
474.93	15105.82
475.12	14764.10
475.30	15241.57
475.48	14827.29
475.66	15159.65
475.84	15171.35
476.02	15398.38
476.20	15236.89
476.38	15555.20
476.56	15871.17
476.74	15929.69
476.92	15857.13
477.10	15726.06
477.28	16149.70
477.46	16271.40
477.64	16329.92
477.82	16592.06
478.00	17156.13
478.18	16769.94
478.36	16919.73
478.54	17301.24
478.72	16992.29
478.90	17238.05
479.08	17427.63
479.26	17652.32
479.44	17764.67
479.62	17776.37
479.80	18029.15
479.98	18473.85
480.16	18621.30
480.34	18375.55
480.52	18504.28
480.70	18656.41
480.88	18597.90
481.06	18618.96
481.24	18761.73
481.41	19056.64
481.59	19412.40
481.77	19564.54
481.95	19726.04
482.13	19700.29
482.31	19625.39
482.49	20109.88
482.67	20327.55
482.85	20624.80
483.03	20540.54
483.21	20922.05
483.39	20870.56
483.57	20725.44
483.74	21343.35
483.92	21268.45
484.10	21179.51
484.28	21324.62
484.46	21820.81
484.64	22387.22
484.82	21884.01
485.00	22319.35
485.18	22778.09
485.35	22714.90
485.53	23012.15
485.71	22785.12
485.89	23346.84
486.07	23796.23
486.25	23379.61
486.43	23761.12
486.61	24116.88
486.78	24215.18
486.96	23943.68
487.14	24673.93
487.32	24184.76
487.50	24844.79
487.68	24882.24
487.85	25053.09
488.03	25397.15
488.21	25883.98
488.39	25722.49
488.57	25762.28
488.75	25799.73
488.92	26199.96
489.10	26597.85
489.28	26574.44
489.46	27122.13
489.64	26916.16
489.81	27721.30
489.99	27667.47
490.17	27714.28
490.35	28056.00
490.53	28006.85
490.70	28292.40
490.88	28170.69
491.06	28732.42
491.24	28807.31
491.41	29160.73
491.59	29144.35
491.77	29582.03
491.95	29343.30
492.13	29816.08
492.30	29858.21
492.48	29991.62
492.66	29832.47
492.84	30469.09
493.01	30881.03
493.19	30794.43
493.37	31234.45
493.54	31145.51
493.72	31409.99
493.90	31573.83
494.08	31587.87
494.25	31988.10
494.43	32203.43
494.61	32027.89
494.79	32465.57
494.96	32371.95
495.14	32659.84
495.32	33095.18
495.49	33013.26
495.67	32964.10
495.85	33486.04
496.02	33897.98
496.20	33876.91
496.38	34036.07
496.55	34218.63
496.73	34726.53
496.91	34256.08
497.09	34653.97
497.26	34859.94
497.44	34857.60
497.62	35344.43
497.79	35721.26
497.97	35597.21
498.14	35793.81
498.32	36009.14
498.50	36126.17
498.67	36498.31
498.85	36456.18
499.03	36683.22
499.20	37046.00
499.38	36591.94
499.56	37490.70
499.73	37106.85
499.91	37490.70
500.08	37848.80
500.26	37127.92
500.44	37383.04
500.61	37352.61
500.79	37216.86
500.97	37619.43
501.14	38581.39
501.32	38244.35
501.49	38239.67
501.67	38686.71
501.84	39236.74
502.02	38841.19
502.20	38904.38
502.37	39171.21
502.55	39321.00
502.72	39559.73
502.90	39372.49
503.07	39325.68
503.25	39842.94
503.43	40081.67
503.60	39955.29
503.78	40074.65
503.95	40229.13
504.13	40512.33
504.30	40891.50
504.48	40882.14
504.65	40624.68
504.83	41352.58
505.01	41043.63
505.18	41397.06
505.36	41682.60
505.53	41130.23
505.71	41354.93
505.88	41731.75
506.06	41420.46
506.23	41855.80
506.41	41612.38
506.58	42040.70
506.76	42314.55
506.93	42340.29
507.11	42330.93
507.28	42466.68
507.46	42747.54
507.63	42836.48
507.81	43604.18
507.98	42698.39
508.16	43295.23
508.33	43400.55
508.50	43337.36
508.68	43775.04
508.85	43583.12
509.03	43599.50
509.20	43812.49
509.38	43943.56
509.55	44385.92
509.73	44435.07
509.90	44367.20
510.08	44446.77
510.25	44563.80
510.42	44729.98
510.60	45237.87
510.77	45177.02
510.95	45371.28
511.12	44954.67
511.30	45181.70
511.47	45228.51
511.64	45750.45
511.82	45867.48
511.99	45879.18
512.17	46085.15
512.34	45813.65
512.51	46195.15
512.69	46323.88
512.86	46232.60
513.04	46623.47
513.21	46588.36
513.38	46836.46
513.56	47079.88
513.73	46349.63
513.90	47019.02
514.08	47004.98
514.25	46953.49
514.43	47400.53
514.60	47449.68
514.77	47224.99
514.95	47782.04
515.12	47227.33
515.29	47674.37
515.47	47632.24
515.64	47915.45
515.81	47454.36
515.99	48315.68
516.16	48275.89
516.33	48257.17
516.51	48472.49
516.68	48287.59
516.85	48397.60
517.03	48715.91
517.20	48699.53
517.37	48980.39
517.54	48690.16
517.72	49441.48
517.89	49139.55
518.06	49315.09
518.24	49265.94
518.41	49024.86
518.58	49296.36
518.75	49200.40
518.93	49483.61
519.10	49404.03
519.27	49420.41
519.45	49612.34
519.62	49944.69
519.79	50017.25
519.96	49820.64
520.14	50167.04
520.31	50450.25
520.48	50277.05
520.65	50281.73
520.83	50417.48
521.00	50946.44
521.17	50590.68
521.34	50506.42
521.52	50740.47
521.69	50651.53
521.86	51061.13
522.03	51311.56
522.20	51089.21
522.38	51433.27
522.55	51243.69
522.72	51175.81
522.89	51257.73
523.07	51901.38
523.24	51578.39
523.41	51655.62
523.58	51306.88
523.75	51625.20
523.92	51711.80
524.10	52053.51
524.27	52102.67
524.44	51934.15
524.61	52250.12
524.78	52252.46
524.96	52065.22
525.13	52236.08
525.30	52310.97
525.47	52603.54
525.64	52278.21
525.81	52559.07
525.98	52631.63
526.16	52498.22
526.33	52722.91
526.50	52910.15
526.67	52505.24
526.84	52708.86
527.01	52839.93
527.18	52821.21
527.36	52863.34
527.53	53165.27
527.70	53195.70
527.87	53415.71
528.04	53247.19
528.21	53396.98
528.38	53422.73
528.55	53446.13
528.72	53488.26
528.89	53535.07
529.07	53312.72
529.24	53359.53
529.41	53565.50
529.58	53663.80
529.75	53462.52
529.92	53961.05
530.09	53947.01
530.26	53860.41
530.43	53902.54
530.60	53605.29
530.77	53886.15
530.94	53982.12
531.11	53984.46
531.28	54218.51
531.46	54035.95
531.63	54134.25
531.80	54274.68
531.97	54211.49
532.14	54284.04
532.31	54143.61
532.48	54361.28
532.65	54532.14
532.82	54651.51
532.99	54773.22
533.16	54480.65
533.33	54724.07
533.50	54880.88
533.67	54913.65
533.84	54604.70
534.01	54876.20
534.18	54773.22
534.35	55393.46
534.52	55100.89
534.69	55185.15
534.86	55379.42
535.03	54939.39
535.20	55309.20
535.37	55325.58
535.54	55257.71
535.71	55348.99
535.88	55386.44
536.05	55627.51
536.22	55444.95
536.38	55564.32
536.55	55606.45
536.72	55583.04
536.89	55697.73
537.06	55538.57
537.23	55557.30
537.40	55587.72
537.57	55817.10
537.74	55711.77
537.91	56252.44
538.08	55941.14
538.25	55789.01
538.42	55938.80
538.59	56278.18
538.75	55800.71
538.92	56104.98
539.09	56200.94
539.26	55976.25
539.43	56041.79
539.60	56357.76
539.77	56067.53
539.94	56484.15
540.11	56222.01
540.28	56191.58
540.44	56303.93
540.61	56601.18
540.78	56566.07
540.95	56427.98
541.12	56502.87
541.29	56179.88
541.46	56568.41
541.62	56397.55
541.79	56498.19
541.96	56339.04
542.13	56439.68
542.30	56598.83
542.47	56999.07
542.63	56898.42
542.80	56931.19
542.97	57291.63
543.14	57160.56
543.31	57186.31
543.48	57219.08
543.64	57429.72
543.81	57422.70
543.98	57403.98
544.15	57471.85
544.32	57382.91
544.48	57595.90
544.65	57490.58
544.82	57579.52
544.99	57378.23
545.16	57443.77
545.32	57579.52
545.49	57844.00
545.66	57853.36
545.83	57598.24
546.00	57748.04
546.16	57530.37
546.33	57586.54
546.50	57401.64
546.67	57666.12
546.83	57361.85
547.00	57605.26
547.17	57806.55
547.34	57939.96
547.50	58033.58
547.67	57942.30
547.84	57998.48
548.00	58087.42
548.17	58143.59
548.34	58059.33
548.51	58286.36
548.67	58326.15
548.84	58120.18
549.01	57867.40
549.18	58316.79
549.34	58038.26
549.51	58321.47
549.68	58555.52
549.84	58164.65
550.01	58244.23
550.18	58351.90
550.34	58288.70
550.51	58312.11
550.68	58473.60
550.84	58148.27
551.01	58681.91
551.18	58461.90
551.34	58237.21
551.51	58578.93
551.68	58412.75
551.84	58461.90
552.01	58391.68
552.18	58436.16
552.34	58616.38
552.51	58731.06
552.68	58670.21
552.84	58934.69
553.01	58890.22
553.18	58850.43
553.34	58805.96
553.51	58644.46
553.67	58845.75
553.84	58899.58
554.01	58866.81
554.17	58953.41
554.34	58941.71
554.51	58958.09
554.67	58948.73
554.84	58805.96
555.00	58859.79
555.17	58841.07
555.33	58988.52
555.50	58883.20
555.67	58885.54
555.83	59054.06
556.00	59248.32
556.16	59290.45
556.33	59194.49
556.50	59135.98
556.66	59416.84
556.83	59164.06
556.99	59536.21
557.16	59334.92
557.32	59458.97
557.49	59599.40
557.65	59175.76
557.82	59508.12
557.98	59220.23
558.15	59561.95
558.32	59348.96
558.48	59255.34
558.65	59454.29
558.81	59339.60
558.98	59379.39
559.14	59451.95
559.31	59648.55
559.47	59854.52
559.64	59863.88
559.80	59601.74
559.97	59718.77
560.13	59568.97
560.30	59648.55
560.46	59737.49
560.63	59791.33
560.79	59674.30
560.96	59842.82
561.12	59898.99
561.29	59938.78
561.45	59985.59
561.61	59959.84
561.78	59840.48
561.94	59842.82
562.11	59845.16
562.27	59763.24
562.44	59934.10
562.60	60013.68
562.77	60114.32
562.93	60023.04
563.10	60088.57
563.26	59938.78
563.42	60079.21
563.59	59952.82
563.75	60013.68
563.92	60104.96
564.08	60102.62
564.24	60023.04
564.41	60121.34
564.57	60231.35
564.74	60140.07
564.90	60137.72
565.07	60168.15
565.23	60151.77
565.39	60055.81
565.56	60198.58
565.72	59896.65
565.88	60243.05
566.05	60044.10
566.21	60163.47
566.38	60221.98
566.54	60282.84
566.70	60271.14
566.87	60477.10
567.03	60257.09
567.19	60449.02
567.36	60413.91
567.52	60425.61
567.68	60577.75
567.85	60205.60
568.01	60432.63
568.17	60182.19
568.34	60355.39
568.50	60301.56
568.66	60261.77
568.83	60371.78
568.99	60090.91
569.15	60362.42
569.32	60430.29
569.48	60423.27
569.64	60425.61
569.81	60303.90
569.97	60317.95
570.13	60549.66
570.30	60350.71
570.46	60308.58
570.62	60353.05
570.78	60322.63
570.95	60444.33
571.11	60561.36
571.27	60633.92
571.43	60591.79
571.60	60664.35
571.76	60568.38
571.92	60587.11
572.09	60652.64
572.25	60622.22
572.41	60427.95
572.57	60697.11
572.74	60769.67
572.90	60554.34
573.06	60645.62
573.22	60549.66
573.38	60697.11
573.55	60725.20
573.71	60739.24
573.87	60631.58
574.03	60427.95
574.20	60645.62
574.36	60509.87
574.52	60743.92
574.68	60825.84
574.84	60837.54
575.01	60755.63
575.17	60896.06
575.33	60685.41
575.49	60662.00
575.65	60788.39
575.82	60907.76
575.98	60720.52
576.14	60928.83
576.30	60804.78
576.46	60519.23
576.62	60842.23
576.79	60837.54
576.95	60413.91
577.11	60603.49
577.27	60755.63
577.43	60886.70
577.59	60755.63
577.75	60821.16
577.92	60708.82
578.08	60624.56
578.24	60711.16
578.40	60926.49
578.56	60921.80
578.72	60739.24
578.88	60914.78
579.04	60947.55
579.21	60853.93
579.37	61146.50
579.53	61015.43
579.69	60612.85
579.85	60832.86
580.01	60814.14
580.17	60676.05
580.33	60917.12
580.49	60877.33
580.65	60940.53
580.82	60814.14
580.98	60762.65
581.14	60886.70
581.30	61048.19
581.46	60844.57
581.62	60814.14
581.78	60804.78
581.94	60900.74
582.10	60748.60
582.26	60764.99
582.42	60938.19
582.58	60970.96
582.74	61017.77
582.90	61034.15
583.06	60809.46
583.22	60755.63
583.38	60872.65
583.54	60931.17
583.70	60739.24
583.86	60931.17
584.02	60872.65
584.18	61109.05
584.34	60896.06
584.50	61137.13
584.66	60924.14
584.82	60729.88
584.98	61029.47
585.14	61036.49
585.30	60830.52
585.46	60942.87
585.62	60776.69
585.78	61134.79
585.94	60877.33
586.10	61071.60
586.26	61010.74
586.42	61160.54
586.58	61038.83
586.74	60999.04
586.90	60914.78
587.06	60879.67
587.22	61050.53
587.38	61010.74
587.54	61216.71
587.70	61020.11
587.86	60970.96
588.02	61013.08
588.18	61048.19
588.34	61022.45
588.49	61120.75
