SpectraSuite Data File
++++++++++++++++++++++++++++++++++++
Date: Fri Oct 25 10:43:49 EDT 2013
User: price-jones
Dark Spectrum Present: No
Reference Spectrum Present: No
Number of Sampled Component Spectra: 1
Spectrometers: USB2+H05261
Integration Time (usec): 100000 (USB2+H05261)
Spectra Averaged: 1 (USB2+H05261)
Boxcar Smoothing: 0 (USB2+H05261)
Correct for Electrical Dark: No (USB2+H05261)
Strobe/Lamp Enabled: No (USB2+H05261)
Correct for Detector Non-linearity: No (USB2+H05261)
Correct for Stray Light: No (USB2+H05261)
Number of Pixels in Processed Spectrum: 2048
>>>>>Begin Processed Spectral Data<<<<<
365.73	156.82
365.92	156.82
366.12	156.82
366.32	58.51
366.52	0.00
366.72	0.00
366.91	0.00
367.11	14.04
367.31	49.15
367.51	0.00
367.70	28.09
367.90	79.58
368.10	18.72
368.30	0.00
368.49	0.00
368.69	14.04
368.89	32.77
369.09	30.43
369.28	21.06
369.48	9.36
369.68	74.90
369.87	79.58
370.07	93.62
370.27	138.09
370.47	201.29
370.66	271.50
370.86	449.38
371.06	332.36
371.25	451.72
371.45	397.89
371.65	468.11
371.84	444.70
372.04	503.22
372.24	437.68
372.44	479.81
372.63	531.30
372.83	606.20
373.03	552.37
373.22	463.43
373.42	519.60
373.62	566.41
373.81	510.24
374.01	568.75
374.21	573.43
374.40	489.17
374.60	550.03
374.79	587.47
374.99	568.75
375.19	524.28
375.38	566.41
375.58	624.92
375.78	575.77
375.97	552.37
376.17	660.03
376.37	660.03
376.56	578.11
376.76	620.24
376.95	608.54
377.15	662.37
377.35	697.48
377.54	688.12
377.74	608.54
377.93	627.26
378.13	528.96
378.33	688.12
378.52	657.69
378.72	699.82
378.91	615.56
379.11	594.50
379.31	685.78
379.50	643.65
379.70	636.63
379.89	596.84
380.09	669.39
380.28	580.45
380.48	716.20
380.68	660.03
380.87	727.91
381.07	760.67
381.26	758.33
381.46	732.59
381.65	744.29
381.85	690.46
382.04	704.50
382.24	676.41
382.43	685.78
382.63	636.63
382.83	667.05
383.02	741.95
383.22	772.38
383.41	702.16
383.61	690.46
383.80	755.99
384.00	744.29
384.19	791.10
384.39	805.14
384.58	784.08
384.78	936.21
384.97	826.21
385.17	805.14
385.36	755.99
385.56	821.53
385.75	828.55
385.95	823.87
386.14	814.51
386.34	784.08
386.53	837.91
386.72	823.87
386.92	791.10
387.11	858.98
387.31	844.93
387.50	868.34
387.70	779.40
387.89	875.36
388.09	866.00
388.28	842.59
388.48	826.21
388.67	912.81
388.86	861.32
389.06	940.90
389.25	954.94
389.45	1057.92
389.64	933.87
389.84	957.28
390.03	1041.54
390.22	1055.58
390.42	994.73
390.61	1022.81
390.81	973.66
391.00	1004.09
391.19	1032.18
391.39	1078.99
391.58	919.83
391.78	1116.44
391.97	1074.31
392.16	1067.28
392.36	1111.75
392.55	985.37
392.75	940.90
392.94	922.17
393.13	882.38
393.33	987.71
393.52	997.07
393.71	1151.54
393.91	1158.57
394.10	1146.86
394.29	1191.33
394.49	1153.88
394.68	1217.08
394.88	1174.95
395.07	1270.91
395.26	1242.82
395.46	1203.04
395.65	1203.04
395.84	1224.10
396.04	1217.08
396.23	1203.04
396.42	1219.42
396.62	1130.48
396.81	1130.48
397.00	1296.66
397.19	1249.85
397.39	1320.06
397.58	1390.28
397.77	1275.59
397.97	1383.26
398.16	1401.98
398.35	1448.79
398.55	1378.58
398.74	1465.18
398.93	1563.48
399.12	1437.09
399.32	1460.49
399.51	1493.26
399.70	1526.03
399.90	1568.16
400.09	1570.50
400.28	1603.27
400.47	1540.07
400.67	1629.01
400.86	1624.33
401.05	1624.33
401.24	1696.89
401.44	1727.32
401.63	1771.79
401.82	1640.72
402.01	1689.87
402.21	1717.95
402.40	1699.23
402.59	1724.97
402.78	1720.29
402.97	1797.53
403.17	1783.49
403.36	1806.89
403.55	1820.94
403.74	1783.49
403.93	1928.60
404.13	1823.28
404.32	1748.38
404.51	1902.86
404.70	1935.62
404.89	1959.03
405.09	1944.99
405.28	2001.16
405.47	1930.94
405.66	2057.33
405.85	1884.13
406.05	1902.86
406.24	1888.81
406.43	1968.39
406.62	2066.69
406.81	2094.78
407.00	1987.11
407.20	2136.91
407.39	2092.44
407.58	2094.78
407.77	2193.08
407.96	2200.10
408.15	2225.85
408.34	2165.00
408.54	2246.91
408.73	2176.70
408.92	2230.53
409.11	2289.04
409.30	2160.31
409.49	2298.41
409.68	2115.84
409.87	2258.62
410.07	2277.34
410.26	2377.98
410.45	2303.09
410.64	2333.51
410.83	2457.56
411.02	2462.24
411.21	2722.04
411.40	2513.74
411.59	2649.49
411.78	2644.81
411.98	2619.06
412.17	2675.23
412.36	2637.78
412.55	2668.21
412.74	2712.68
412.93	2708.00
413.12	2654.17
413.31	2998.23
413.50	2722.04
413.69	2782.90
413.88	2839.07
414.07	2874.18
414.26	3009.93
414.45	2860.13
414.64	2876.52
414.83	2939.71
415.02	3012.27
415.22	3096.53
415.41	3119.93
415.60	3148.02
415.79	3145.68
415.98	3290.79
416.17	3213.56
416.36	3194.83
416.55	3115.25
416.74	3253.34
416.93	3098.87
417.12	3166.74
417.31	3300.16
417.50	3351.65
417.69	3501.44
417.88	3389.10
418.07	3414.84
418.26	3384.41
418.45	3515.48
418.64	3585.70
418.83	3557.61
419.02	3515.48
419.21	3595.06
419.39	3658.26
419.58	3494.42
419.77	3527.19
419.96	3548.25
420.15	3695.71
420.34	3653.58
420.53	3786.99
420.72	3660.60
420.91	3822.09
421.10	3955.51
421.29	3810.39
421.48	3782.31
421.67	3892.31
421.86	3850.18
422.05	3854.86
422.24	3798.69
422.43	3819.75
422.61	3801.03
422.80	3803.37
422.99	3971.89
423.18	4102.96
423.37	3911.04
423.56	3878.27
423.75	3927.42
423.94	3751.88
424.13	3679.32
424.32	3819.75
424.50	3885.29
424.69	3911.04
424.88	3941.46
425.07	3843.16
425.26	3854.86
425.45	3861.88
425.64	3934.44
425.83	3929.76
426.01	4095.94
426.20	3983.59
426.39	3999.98
426.58	3875.93
426.77	3843.16
426.96	3953.16
427.15	4070.19
427.33	4159.13
427.52	4124.02
427.71	4138.07
427.90	4245.73
428.09	4212.96
428.28	4105.30
428.46	3927.42
428.65	4079.55
428.84	4234.03
429.03	4322.97
429.22	4086.58
429.40	4046.79
429.59	4028.06
429.78	3939.12
429.97	3840.82
430.16	3983.59
430.34	3967.21
430.53	4145.09
430.72	4133.39
430.91	4266.80
431.10	4182.54
431.28	4528.94
431.47	4688.09
431.66	4723.20
431.85	4503.19
432.03	4620.22
432.22	4702.14
432.41	4664.69
432.60	4667.03
432.79	4678.73
432.97	4774.69
433.16	4617.88
433.35	4748.95
433.54	4770.01
433.72	4669.37
433.91	4573.41
434.10	4734.90
434.28	4732.56
434.47	4809.80
434.66	4795.76
434.85	4938.53
435.03	5050.88
435.22	4985.34
435.41	5195.99
435.59	5039.17
435.78	4947.89
435.97	5130.45
436.16	5074.28
436.34	5156.20
436.53	5249.82
436.72	5359.83
436.90	4997.04
437.09	5303.65
437.28	5100.03
437.46	5123.43
437.65	5270.89
437.84	5067.26
438.02	5240.46
438.21	5135.14
438.40	5083.64
438.58	5226.42
438.77	5203.01
438.96	5350.46
439.14	5528.35
439.33	5614.95
439.52	5654.73
439.70	5572.82
439.89	5701.54
440.08	5743.67
440.26	5493.24
440.45	5809.21
440.63	5802.19
440.82	5994.11
441.01	5907.51
441.19	6085.39
441.38	6071.35
441.57	6097.10
441.75	6162.63
441.94	6328.81
442.12	6204.76
442.31	6202.42
442.50	6232.85
442.68	6422.43
442.87	6434.13
443.05	6303.06
443.24	6251.57
443.43	6352.21
443.61	6347.53
443.80	6672.87
443.98	6509.03
444.17	6207.10
444.35	6464.56
444.54	6387.32
444.73	6644.78
444.91	6518.39
445.10	6530.09
445.28	6293.70
445.47	6328.81
445.65	6359.24
445.84	6459.88
446.02	6569.88
446.21	6661.16
446.39	6595.63
446.58	6483.28
446.77	6504.35
446.95	6567.54
447.14	6672.87
447.32	6743.08
447.51	6523.07
447.69	6551.16
447.88	6682.23
448.06	6726.70
448.25	6740.74
448.43	6689.25
448.62	6686.91
448.80	6733.72
448.99	6850.75
449.17	6829.68
449.36	6843.73
449.54	6874.15
449.73	6916.28
449.91	7068.42
450.10	6984.16
450.28	7169.06
450.46	7180.76
450.65	7070.76
450.83	7276.73
451.02	7103.53
451.20	7180.76
451.39	7227.57
451.57	7262.68
451.76	7059.06
451.94	7239.28
452.13	7229.91
452.31	7227.57
452.49	7098.84
452.68	7033.31
452.86	7253.32
453.05	7211.19
453.23	7215.87
453.42	7192.47
453.60	7410.14
453.78	7368.01
453.97	7234.60
454.15	7330.56
454.34	7227.57
454.52	7499.08
454.70	7630.15
454.89	7709.72
455.07	7623.12
455.26	7569.29
455.44	7723.77
455.62	7737.81
455.81	7527.16
455.99	7932.08
456.17	7777.60
456.36	7683.98
456.54	7805.69
456.73	7999.95
456.91	8060.80
457.09	7908.67
457.28	8234.00
457.46	7934.42
457.64	8173.15
457.83	8093.57
458.01	8035.06
458.19	8236.35
458.38	8013.99
458.56	8128.68
458.74	7955.48
458.93	8224.64
459.11	8149.75
459.29	8149.75
459.48	8341.67
459.66	8203.58
459.84	8245.71
460.03	8409.54
460.21	8496.14
460.39	8568.70
460.57	8580.40
460.76	8521.89
460.94	8601.47
461.12	8617.85
461.31	8812.12
461.49	8683.39
461.67	8631.90
461.85	8681.05
462.04	8751.26
462.22	8915.10
462.40	9036.81
462.59	8894.04
462.77	8671.68
462.95	8854.25
463.13	8791.05
463.32	8931.48
463.50	8898.72
463.68	9001.70
463.86	8809.78
464.05	8819.14
464.23	8840.20
464.41	8968.93
464.59	9001.70
464.78	9149.15
464.96	8980.64
465.14	9029.79
465.32	9252.14
465.50	9303.63
465.69	9156.18
465.87	9296.61
466.05	9172.56
466.23	9205.33
466.41	9348.10
466.60	9376.19
466.78	8975.95
466.96	9163.20
467.14	9177.24
467.32	9289.59
467.51	9334.06
467.69	9128.09
467.87	9540.02
468.05	9551.73
468.23	9481.51
468.41	9568.11
468.60	9540.02
468.78	9502.58
468.96	9497.89
469.14	9767.06
469.32	9839.61
469.50	9315.33
469.69	9860.68
469.87	9881.74
470.05	9753.01
470.23	9734.29
470.41	9640.67
470.59	9989.41
470.77	9811.53
470.95	9954.30
471.14	10036.22
471.32	9788.12
471.50	10494.96
471.68	9923.87
471.86	10221.12
472.04	10408.36
472.22	10607.31
472.40	10340.49
472.58	10281.97
472.77	10296.02
472.95	10621.35
473.13	10703.27
473.31	10469.22
473.49	10621.35
473.67	10368.57
473.85	10588.58
474.03	10920.94
474.21	10934.98
474.39	10946.69
474.57	11173.72
474.75	11349.26
474.93	11349.26
475.12	10946.69
475.30	11262.66
475.48	11335.21
475.66	11384.37
475.84	11129.25
476.02	11330.53
476.20	11276.70
476.38	11520.12
476.56	11880.56
476.74	11873.54
476.92	11789.28
477.10	11978.86
477.28	12037.38
477.46	12091.21
477.64	12114.61
477.82	12222.28
478.00	12451.65
478.18	12580.38
478.36	12662.30
478.54	12943.16
478.72	12559.31
478.90	12830.82
479.08	12966.57
479.26	13130.41
479.44	12966.57
479.62	13114.02
479.80	13256.79
479.98	13610.22
480.16	13635.96
480.34	13650.00
480.52	13614.90
480.70	13713.20
480.88	13591.49
481.06	13584.47
481.24	14108.75
481.41	14054.92
481.59	14413.02
481.77	14616.65
481.95	14537.07
482.13	14354.51
482.31	14565.15
482.49	14860.06
482.67	14857.72
482.85	15084.75
483.03	14848.36
483.21	15150.29
483.39	15192.42
483.57	15318.81
483.74	15480.30
483.92	15524.77
484.10	15358.60
484.28	15784.57
484.46	15953.09
484.64	16336.94
484.82	15981.18
485.00	16046.71
485.18	16226.93
485.35	16430.56
485.53	16086.50
485.71	16154.38
485.89	16475.03
486.07	16208.21
486.25	16751.21
486.43	16835.47
486.61	17099.95
486.78	17268.47
486.96	17224.00
487.14	17708.49
487.32	17376.14
487.50	17893.40
487.68	18312.35
487.85	18157.88
488.03	18459.81
488.21	18611.94
488.39	18450.44
488.57	18583.85
488.75	18483.21
488.92	18909.19
489.10	19316.44
489.28	19180.69
489.46	19587.94
489.64	19463.90
489.81	19824.34
489.99	20182.44
490.17	20133.29
490.35	20542.88
490.53	20308.83
490.70	20568.63
490.88	20357.98
491.06	20601.40
491.24	20788.64
491.41	20673.95
491.59	20680.97
491.77	20739.49
491.95	21170.15
492.13	21273.13
492.30	21729.53
492.48	21708.47
492.66	21820.81
492.84	21933.16
493.01	22293.60
493.19	22190.62
493.37	22136.79
493.54	22136.79
493.72	22757.03
493.90	22806.18
494.08	22724.26
494.25	22778.09
494.43	23068.32
494.61	23183.01
494.79	23316.42
494.96	23522.38
495.14	23283.65
495.32	23573.88
495.49	23924.96
495.67	23843.04
495.85	23922.62
496.02	23974.11
496.20	24098.16
496.38	24030.28
496.55	24205.82
496.73	24877.55
496.91	24486.68
497.09	24971.18
497.26	24840.11
497.44	24781.59
497.62	24971.18
497.79	25287.15
497.97	24896.28
498.14	25523.54
498.32	25549.29
498.50	25757.60
498.67	26150.81
498.85	26167.19
499.03	25823.13
499.20	25996.33
499.38	26171.87
499.56	26040.80
499.73	26508.91
499.91	26623.59
500.08	26237.41
500.26	26204.64
500.44	26478.48
500.61	26759.34
500.79	26405.92
500.97	26628.27
501.14	26998.08
501.32	26778.07
501.49	26974.67
501.67	26792.11
501.84	27138.51
502.02	27353.84
502.20	27852.38
502.37	27667.47
502.55	27583.21
502.72	28065.36
502.90	28112.17
503.07	27819.61
503.25	28081.75
503.43	28112.17
503.60	28191.75
503.78	27805.56
503.95	28175.37
504.13	28514.75
504.30	28657.52
504.48	28570.92
504.65	28739.44
504.83	29123.29
505.01	28758.16
505.18	29001.58
505.36	29460.32
505.53	29441.60
505.71	29474.37
505.88	29633.52
506.06	29593.73
506.23	30178.87
506.41	29247.33
506.58	29343.30
506.76	29820.77
506.93	29867.58
507.11	29823.11
507.28	29743.53
507.46	29675.65
507.63	29888.64
507.81	30183.55
507.98	30075.88
508.16	30604.84
508.33	30380.15
508.50	30497.18
508.68	30813.15
508.85	30806.13
509.03	30607.19
509.20	30656.34
509.38	31211.04
509.55	31271.90
509.73	31054.23
509.90	31484.89
510.08	31110.40
510.25	31175.94
510.42	31517.65
510.60	31730.64
510.77	31613.62
510.95	31627.66
511.12	31763.41
511.30	32156.62
511.47	32233.86
511.64	32238.54
511.82	32493.66
511.99	31875.76
512.17	32388.33
512.34	32538.13
512.51	32615.37
512.69	32837.72
512.86	32486.64
513.04	32842.40
513.21	32339.18
513.38	32510.04
513.56	32730.05
513.73	32872.82
513.90	32629.41
514.08	32905.59
514.25	33081.13
514.43	33118.58
514.60	33469.66
514.77	33472.00
514.95	33586.69
515.12	33472.00
515.29	33249.65
515.47	34024.37
515.64	33649.88
515.81	33603.07
515.99	33652.22
516.16	33654.56
516.33	33116.24
516.51	33532.86
516.68	33046.02
516.85	32701.96
517.03	33710.74
517.20	33944.79
517.37	34026.71
517.54	34405.88
517.72	33919.04
517.89	33427.53
518.06	33951.81
518.24	34429.28
518.41	34267.78
518.58	34595.46
518.75	34691.42
518.93	34672.70
519.10	34550.99
519.27	34859.94
519.45	35192.30
519.62	34841.21
519.79	35351.45
519.96	35297.62
520.14	35543.38
520.31	35093.99
520.48	35311.66
520.65	35541.03
520.83	35857.01
521.00	36025.53
521.17	35606.57
521.34	36196.38
521.52	36278.30
521.69	36308.73
521.86	36467.89
522.03	36325.11
522.20	36058.29
522.38	36388.31
522.55	36573.21
522.72	36470.23
522.89	36002.12
523.07	36273.62
523.24	36634.06
523.41	36910.25
523.58	36886.84
523.75	37057.70
523.92	37020.25
524.10	36718.32
524.27	37645.18
524.44	37062.38
524.61	37638.15
524.78	37174.73
524.96	37223.88
525.13	37589.00
525.30	37909.66
525.47	37684.97
525.64	37331.54
525.81	37741.14
525.98	37563.26
526.16	37043.66
526.33	36893.86
526.50	37205.16
526.67	36676.19
526.84	37322.18
527.01	37413.46
527.18	37661.56
527.36	38094.56
527.53	38153.07
527.70	38204.56
527.87	38604.80
528.04	38045.41
528.21	38485.43
528.38	38345.00
528.55	38501.81
528.72	38773.31
528.89	39012.05
529.07	38557.99
529.24	38260.74
529.41	38813.10
529.58	39070.56
529.75	38569.69
529.92	38682.03
530.09	38581.39
530.26	38986.30
530.43	38794.38
530.60	39016.73
530.77	38859.91
530.94	39433.35
531.11	39435.69
531.28	39604.20
531.46	39667.40
531.63	39236.74
531.80	39302.28
531.97	39075.24
532.14	39541.01
532.31	39056.52
532.48	39079.92
532.65	39974.01
532.82	39297.59
532.99	39412.28
533.16	39550.37
533.33	39606.55
533.50	39882.73
533.67	39887.41
533.84	39812.51
534.01	40467.86
534.18	39564.42
534.35	40446.80
534.52	40119.12
534.69	40130.83
534.86	40409.35
535.03	40678.51
535.20	40416.37
535.37	40708.94
535.54	40849.37
535.71	40500.63
535.88	40577.87
536.05	40332.11
536.22	40779.15
536.38	40531.06
536.55	40547.44
536.72	40533.40
536.89	40364.88
537.06	40264.24
537.23	40928.95
537.40	40456.16
537.57	40612.98
537.74	41106.83
537.91	41429.82
538.08	40746.39
538.25	41029.59
538.42	41364.29
538.59	41619.41
538.75	40687.87
538.92	41277.69
539.09	41359.61
539.26	41404.08
539.43	40884.48
539.60	41057.68
539.77	41118.53
539.94	40989.80
540.11	41188.75
540.28	41177.04
540.44	41450.89
540.61	41090.44
540.78	40802.56
540.95	41275.35
541.12	41385.35
541.29	41778.56
541.46	41357.27
541.62	41881.55
541.79	42244.33
541.96	41614.72
542.13	41612.38
542.30	42087.51
542.47	41703.67
542.63	41790.27
542.80	42209.22
542.97	42162.41
543.14	42628.18
543.31	42602.43
543.48	42775.63
543.64	42862.23
543.81	42663.28
543.98	42604.77
544.15	42553.28
544.32	42780.31
544.48	43250.76
544.65	42672.65
544.82	42653.92
544.99	43051.81
545.16	42738.18
545.32	42909.04
545.49	43316.29
545.66	42976.92
545.83	43494.18
546.00	43274.16
546.16	42988.62
546.33	42990.96
546.50	42696.05
546.67	42913.72
546.83	42855.21
547.00	42930.11
547.17	42997.98
547.34	43082.24
547.50	42892.66
547.67	43587.80
547.84	43182.88
548.00	43742.27
548.17	43463.75
548.34	43679.08
548.51	43641.63
548.67	43742.27
548.84	43540.99
549.01	43363.11
549.18	43662.69
549.34	43882.70
549.51	43721.21
549.68	44182.29
549.84	43592.48
550.01	43775.04
550.18	43543.33
550.34	43356.08
550.51	43840.57
550.68	43786.74
550.84	43653.33
551.01	44154.21
551.18	43753.97
551.34	43948.24
551.51	44404.64
551.68	44325.07
551.84	44205.70
552.01	44016.11
552.18	44388.26
552.34	44144.84
552.51	43854.62
552.68	43896.75
552.84	44367.20
553.01	44729.98
553.18	44257.19
553.34	44444.43
553.51	44266.55
553.67	44414.01
553.84	44954.67
554.01	44458.48
554.17	44804.88
554.34	44528.69
554.51	44776.79
554.67	44891.48
554.84	44495.92
555.00	44278.25
555.17	44266.55
555.33	44858.71
555.50	44444.43
555.67	44360.17
555.83	44421.03
556.00	44603.59
556.16	45354.90
556.33	44631.68
556.50	44985.10
556.66	44872.75
556.83	44563.80
556.99	44940.63
557.16	44830.62
557.32	44973.39
557.49	44975.73
557.65	44439.75
557.82	44842.32
557.98	44662.10
558.15	44673.81
558.32	44919.56
558.48	44645.72
558.65	44790.83
558.81	44861.05
558.98	44776.79
559.14	44624.65
559.31	44872.75
559.47	45280.00
559.64	44842.32
559.80	45277.66
559.97	45399.37
560.13	44802.53
560.30	45361.92
560.46	45191.06
560.63	45345.54
560.79	45443.84
560.96	45975.14
561.12	45116.17
561.29	44825.94
561.45	45385.33
561.61	45343.20
561.78	45155.96
561.94	45081.06
562.11	45357.24
562.27	44779.13
562.44	45432.14
562.60	45450.86
562.77	45483.63
562.93	45354.90
563.10	45764.49
563.26	45221.49
563.42	45457.88
563.59	45172.34
563.75	45380.65
563.92	45663.85
564.08	45247.24
564.24	45977.48
564.41	45710.66
564.57	45675.55
564.74	45614.70
564.90	45624.06
565.07	45776.20
565.23	45446.18
565.39	45535.12
565.56	45539.80
565.72	45200.43
565.88	45588.95
566.05	45930.67
566.21	45490.65
566.38	45336.18
566.54	45787.90
566.70	45677.90
566.87	45890.88
567.03	46019.61
567.19	46164.73
567.36	45745.77
567.52	45970.46
567.68	45666.19
567.85	45787.90
568.01	45722.37
568.17	45490.65
568.34	45900.25
568.50	45408.73
568.66	45684.92
568.83	45392.35
568.99	45642.79
569.15	45787.90
569.32	45668.53
569.48	45991.53
569.64	45724.71
569.81	45209.79
569.97	45581.93
570.13	45881.52
570.30	45649.81
570.46	45736.41
570.62	45797.26
570.78	45478.95
570.95	45476.61
571.11	45652.15
571.27	45558.53
571.43	45556.19
571.60	45972.80
571.76	46101.53
571.92	45776.20
572.09	45862.80
572.25	45619.38
572.41	46026.63
572.57	45769.18
572.74	46326.22
572.90	46461.97
573.06	46246.65
573.22	45989.19
573.38	45958.76
573.55	45532.78
573.71	46134.30
573.87	45820.67
574.03	45792.58
574.20	46216.22
574.36	45984.51
574.52	46138.98
574.68	45956.42
574.84	45888.54
575.01	45794.92
575.17	46167.07
575.33	45404.05
575.49	46021.95
575.65	46033.66
575.82	45727.05
575.98	45874.50
576.14	45827.69
576.30	45794.92
576.46	46293.46
576.62	45954.08
576.79	45703.64
576.95	45811.31
577.11	45846.41
577.27	46230.26
577.43	45762.15
577.59	45528.10
577.75	45736.41
577.92	45446.18
578.08	45425.12
578.24	45567.89
578.40	45972.80
578.56	45815.99
578.72	46040.68
578.88	46160.05
579.04	46005.57
579.21	45701.30
579.37	46143.66
579.53	46031.32
579.69	45701.30
579.85	46014.93
580.01	46134.30
580.17	46047.70
580.33	46010.25
580.49	46220.90
580.65	45923.65
580.82	45839.39
580.98	46033.66
581.14	45956.42
581.30	46316.86
581.46	46059.40
581.62	46043.02
581.78	45705.98
581.94	46461.97
582.10	46171.75
582.26	46131.96
582.42	46122.60
582.58	46351.97
582.74	45713.00
582.90	46387.08
583.06	46597.73
583.22	46157.70
583.38	46391.76
583.54	46569.64
583.70	46202.18
583.86	46096.85
584.02	45684.92
584.18	46483.04
584.34	46260.69
584.50	45989.19
584.66	46007.91
584.82	45897.91
584.98	46066.42
585.14	46115.58
585.30	45815.99
585.46	45947.06
585.62	45897.91
585.78	46110.89
585.94	45928.33
586.10	46162.39
586.26	45677.90
586.42	46560.28
586.58	46576.66
586.74	46218.56
586.90	45830.03
587.06	46321.54
587.22	46384.74
587.38	45923.65
587.54	45944.72
587.70	46237.28
587.86	46120.26
588.02	46138.98
588.18	46248.99
588.34	45837.05
588.49	45586.61
588.65	45221.49
588.81	45212.13
588.97	45783.22
589.13	45155.96
589.29	45876.84
589.45	45844.07
589.61	46014.93
589.77	46131.96
589.93	46101.53
590.08	46415.16
