SpectraSuite Data File
++++++++++++++++++++++++++++++++++++
Date: Fri Oct 25 11:24:06 EDT 2013
User: price-jones
Dark Spectrum Present: No
Reference Spectrum Present: No
Number of Sampled Component Spectra: 1
Spectrometers: USB2+H05261
Integration Time (usec): 100000 (USB2+H05261)
Spectra Averaged: 1 (USB2+H05261)
Boxcar Smoothing: 0 (USB2+H05261)
Correct for Electrical Dark: No (USB2+H05261)
Strobe/Lamp Enabled: No (USB2+H05261)
Correct for Detector Non-linearity: No (USB2+H05261)
Correct for Stray Light: No (USB2+H05261)
Number of Pixels in Processed Spectrum: 2048
>>>>>Begin Processed Spectral Data<<<<<
365.73	280.86
365.92	280.86
366.12	280.86
366.32	133.41
366.52	112.35
366.72	180.22
366.91	110.01
367.11	117.03
367.31	121.71
367.51	119.37
367.70	126.39
367.90	159.16
368.10	135.75
368.30	163.84
368.49	98.30
368.69	187.24
368.89	184.90
369.09	72.56
369.28	105.32
369.48	126.39
369.68	229.37
369.87	224.69
370.07	196.60
370.27	229.37
370.47	337.04
370.66	610.88
370.86	681.10
371.06	688.12
371.25	627.26
371.45	671.73
371.65	655.35
371.84	685.78
372.04	681.10
372.24	716.20
372.44	723.23
372.63	723.23
372.83	779.40
373.03	718.54
373.22	695.14
373.42	765.36
373.62	805.14
373.81	805.14
374.01	755.99
374.21	830.89
374.40	858.98
374.60	837.91
374.79	746.63
374.99	723.23
375.19	880.04
375.38	788.76
375.58	861.32
375.78	788.76
375.97	922.17
376.17	830.89
376.37	807.48
376.56	807.48
376.76	863.66
376.95	945.58
377.15	931.53
377.35	903.45
377.54	976.00
377.74	901.11
377.93	844.93
378.13	1006.43
378.33	912.81
378.52	933.87
378.72	875.36
378.91	950.26
379.11	936.21
379.31	908.13
379.50	910.47
379.70	954.94
379.89	936.21
380.09	987.71
380.28	933.87
380.48	1046.22
380.68	943.24
380.87	968.98
381.07	1006.43
381.26	1057.92
381.46	999.41
381.65	1057.92
381.85	1048.56
382.04	1020.47
382.24	1053.24
382.43	1057.92
382.63	1048.56
382.83	1069.62
383.02	1022.81
383.22	1053.24
383.41	1135.16
383.61	1163.25
383.80	1102.39
384.00	1025.15
384.19	1078.99
384.39	1050.90
384.58	1118.78
384.78	1163.25
384.97	1100.05
385.17	1151.54
385.36	1118.78
385.56	1137.50
385.75	1149.20
385.95	1160.91
386.14	1231.12
386.34	1224.10
386.53	1228.78
386.72	1165.59
386.92	1160.91
387.11	1268.57
387.31	1203.04
387.50	1270.91
387.70	1181.97
387.89	1256.87
388.09	1212.40
388.28	1299.00
388.48	1228.78
388.67	1334.11
388.86	1376.24
389.06	1256.87
389.25	1359.85
389.45	1437.09
389.64	1289.64
389.84	1390.28
390.03	1282.61
390.22	1462.83
390.42	1385.60
390.61	1369.21
390.81	1397.30
391.00	1462.83
391.19	1469.86
391.39	1448.79
391.58	1455.81
391.78	1453.47
391.97	1547.09
392.16	1495.60
392.36	1483.90
392.55	1483.90
392.75	1533.05
392.94	1488.58
393.13	1488.58
393.33	1519.01
393.52	1586.88
393.71	1507.30
393.91	1579.86
394.10	1643.06
394.29	1631.35
394.49	1624.33
394.68	1547.09
394.88	1598.59
395.07	1640.72
395.26	1626.67
395.46	1598.59
395.65	1666.46
395.84	1696.89
396.04	1736.68
396.23	1809.23
396.42	1694.55
396.62	1823.28
396.81	1717.95
397.00	1851.36
397.19	1818.60
397.39	1647.74
397.58	1825.62
397.77	1839.66
397.97	1877.11
398.16	1799.87
398.35	1942.64
398.55	1802.21
398.74	1928.60
398.93	1937.96
399.12	2101.80
399.32	1872.43
399.51	1914.56
399.70	2005.84
399.90	1919.24
400.09	1973.07
400.28	2054.99
400.47	2120.53
400.67	2125.21
400.86	2038.61
401.05	2047.97
401.24	2012.86
401.44	2080.74
401.63	2094.78
401.82	2125.21
402.01	2120.53
402.21	1984.77
402.40	2239.89
402.59	2181.38
402.78	2132.23
402.97	2239.89
403.17	2279.68
403.36	2218.83
403.55	2354.58
403.74	2303.09
403.93	2375.64
404.13	2317.13
404.32	2312.45
404.51	2478.63
404.70	2424.80
404.89	2342.88
405.09	2396.71
405.28	2429.48
405.47	2530.12
405.66	2443.52
405.85	2497.35
406.05	2576.93
406.24	2642.46
406.43	2656.51
406.62	2717.36
406.81	2633.10
407.00	2745.45
407.20	2567.57
407.39	2677.57
407.58	2693.96
407.77	2944.39
407.96	2696.30
408.15	2712.68
408.34	2738.43
408.54	2778.22
408.73	2778.22
408.92	2726.72
409.11	2832.05
409.30	2932.69
409.49	2913.97
409.68	3038.02
409.87	2888.22
410.07	2998.23
410.26	2988.86
410.45	3009.93
410.64	3112.91
410.83	3019.29
411.02	3110.57
411.21	3112.91
411.40	3080.14
411.59	3246.32
411.78	3131.64
411.98	3248.66
412.17	3126.96
412.36	3262.71
412.55	3375.05
412.74	3335.26
412.93	3510.80
413.12	3297.81
413.31	3590.38
413.50	3482.72
413.69	3372.71
413.88	3576.34
414.07	3618.47
414.26	3705.07
414.45	3644.21
414.64	3672.30
414.83	3775.28
415.02	3721.45
415.22	3873.59
415.41	3847.84
415.60	3929.76
415.79	3796.35
415.98	3943.80
416.17	4049.13
416.36	3981.25
416.55	4042.11
416.74	4081.89
416.93	4156.79
417.12	4049.13
417.31	4091.26
417.50	4170.83
417.69	4212.96
417.88	4304.25
418.07	4238.71
418.26	4196.58
418.45	4320.63
418.64	4486.81
418.83	4524.26
419.02	4369.78
419.21	4519.57
419.39	4662.35
419.58	4470.42
419.77	4367.44
419.96	4564.04
420.15	4697.46
420.34	4578.09
420.53	4664.69
420.72	4737.24
420.91	4718.52
421.10	4812.14
421.29	4812.14
421.48	4629.58
421.67	4854.27
421.86	4858.95
422.05	4741.93
422.24	4851.93
422.43	4884.70
422.61	4947.89
422.80	4908.10
422.99	4943.21
423.18	4898.74
423.37	5074.28
423.56	5022.79
423.75	5036.83
423.94	4737.24
424.13	4528.94
424.32	4922.15
424.50	4994.70
424.69	4919.81
424.88	5097.69
425.07	5076.62
425.26	5057.90
425.45	5004.07
425.64	4964.28
425.83	5018.11
426.01	5020.45
426.20	5062.58
426.39	5167.90
426.58	5064.92
426.77	5156.20
426.96	5085.98
427.15	5170.24
427.33	5226.42
427.52	5167.90
427.71	5198.33
427.90	5210.03
428.09	5203.01
428.28	5465.15
428.46	5284.93
428.65	5322.38
428.84	5392.59
429.03	5467.49
429.22	5467.49
429.40	5551.75
429.59	5547.07
429.78	5448.77
429.97	5214.71
430.16	5568.13
430.34	5701.54
430.53	5687.50
430.72	5647.71
430.91	5682.82
431.10	5621.97
431.28	5593.88
431.47	5570.48
431.66	5863.04
431.85	5870.06
432.03	5928.58
432.22	5954.32
432.41	5863.04
432.60	5870.06
432.79	6171.99
432.97	5944.96
433.16	6211.78
433.35	6057.31
433.54	6132.20
433.72	6169.65
433.91	6174.33
434.10	6106.46
434.28	6141.57
434.47	6310.08
434.66	6251.57
434.85	6363.92
435.03	6284.34
435.22	6277.32
435.41	6392.00
435.59	6497.33
435.78	6494.99
435.97	6492.65
436.16	6581.59
436.34	6553.50
436.53	6476.26
436.72	6537.12
436.90	6455.20
437.09	6792.23
437.28	6516.05
437.46	6612.01
437.65	6682.23
437.84	6778.19
438.02	6759.47
438.21	6890.54
438.40	6778.19
438.58	6963.09
438.77	7063.74
438.96	7037.99
439.14	7066.08
439.33	7396.09
439.52	7241.62
439.70	7222.89
439.89	7393.75
440.08	7428.86
440.26	7126.93
440.45	7316.51
440.63	7541.21
440.82	7726.11
441.01	7578.65
441.19	7634.83
441.38	7618.44
441.57	7646.53
441.75	7836.11
441.94	8023.36
442.12	8072.51
442.31	8147.40
442.50	8053.78
442.68	8030.38
442.87	7983.57
443.05	8140.38
443.24	8243.37
443.43	8280.82
443.61	8400.18
443.80	8336.99
443.98	8116.98
444.17	7756.54
444.35	8325.29
444.54	8404.86
444.73	8149.75
444.91	8180.17
445.10	8432.95
445.28	8292.52
445.47	8266.77
445.65	8262.09
445.84	8381.46
446.02	8657.64
446.21	8470.40
446.39	8538.27
446.58	8629.56
446.77	8477.42
446.95	8311.24
447.14	8451.67
447.32	8690.41
447.51	8496.14
447.69	8465.72
447.88	8505.51
448.06	8423.59
448.25	8732.54
448.43	8688.07
448.62	8449.33
448.80	8664.66
448.99	8744.24
449.17	8723.18
449.36	8624.87
449.54	8905.74
449.73	8887.01
449.91	9064.89
450.10	8849.57
450.28	9202.99
450.46	9160.86
450.65	9022.77
450.83	8924.46
451.02	9006.38
451.20	9364.48
451.39	9011.06
451.57	9001.70
451.76	9015.74
451.94	9273.20
452.13	9294.27
452.31	9207.67
452.49	9153.84
452.68	9563.43
452.86	9324.69
453.05	9528.32
453.23	9523.64
453.42	9425.34
453.60	9423.00
453.78	9647.69
453.97	9406.61
454.15	9444.06
454.34	9502.58
454.52	9706.20
454.70	9687.48
454.89	9736.63
455.07	9804.50
455.26	9958.98
455.44	9846.63
455.62	9762.37
455.81	9970.68
455.99	10057.28
456.17	10071.33
456.36	10024.51
456.54	10155.58
456.73	10452.83
456.91	10518.37
457.09	10436.45
457.28	10492.62
457.46	10656.46
457.64	10544.11
457.83	10588.58
458.01	10597.95
458.19	10658.80
458.38	10452.83
458.56	10764.12
458.74	10626.03
458.93	10956.05
459.11	10778.17
459.29	10867.11
459.48	10857.75
459.66	10822.64
459.84	11136.27
460.03	11183.08
460.21	11112.86
460.39	11066.05
460.57	10946.69
460.76	11162.01
460.94	11253.30
461.12	11375.00
461.31	11213.51
461.49	11105.84
461.67	11194.78
461.85	11595.01
462.04	11321.17
462.22	11637.14
462.40	11784.60
462.59	11412.45
462.77	11789.28
462.95	11735.45
463.13	11452.24
463.32	11559.91
463.50	11597.35
463.68	11894.60
463.86	11808.00
464.05	11644.17
464.23	11541.18
464.41	11950.78
464.59	11768.21
464.78	11988.22
464.96	12030.35
465.14	11960.14
465.32	12051.42
465.50	12259.73
465.69	12084.19
465.87	12170.79
466.05	12236.32
466.23	12217.60
466.41	12402.50
466.60	12695.07
466.78	12114.61
466.96	12217.60
467.14	12500.80
467.32	12278.45
467.51	12449.31
467.69	12390.80
467.87	12601.44
468.05	12746.56
468.23	12458.67
468.41	12306.54
468.60	12732.51
468.78	12767.62
468.96	12580.38
469.14	12875.29
469.32	12905.71
469.50	12739.54
469.69	13275.52
469.87	13001.68
470.05	13280.20
470.23	13385.52
470.41	13296.58
470.59	13319.99
470.77	13301.26
470.95	13317.65
471.14	13547.02
471.32	13359.78
471.50	13675.75
471.68	13504.89
471.86	13891.08
472.04	13745.97
472.22	14010.45
472.40	13603.19
472.58	13813.84
472.77	14090.02
472.95	14480.89
473.13	14658.78
473.31	14101.73
473.49	14384.93
473.67	14169.60
473.85	14427.06
474.03	14658.78
474.21	14747.72
474.39	14920.92
474.57	14750.06
474.75	14829.63
474.93	14958.36
475.12	15143.27
475.30	15159.65
475.48	15250.93
475.66	15283.70
475.84	15007.52
476.02	15534.14
476.20	15527.11
476.38	15854.79
476.56	15971.82
476.74	15964.79
476.92	15836.06
477.10	16035.01
477.28	16262.04
477.46	16259.70
477.64	16362.69
477.82	16657.59
478.00	16826.11
478.18	16720.79
478.36	17144.42
478.54	17270.81
478.72	17238.05
478.90	17137.40
479.08	17394.86
479.26	17584.44
479.44	17802.11
479.62	18057.23
479.80	18073.62
479.98	18015.10
480.16	18597.90
480.34	18136.81
480.52	18820.25
480.70	18778.12
480.88	18567.47
481.06	18974.72
481.24	18831.95
481.41	19351.55
481.59	19470.92
481.77	19735.40
481.95	19506.02
482.13	19817.32
482.31	19527.09
482.49	20247.97
482.67	20297.13
482.85	20554.58
483.03	20615.44
483.21	21018.01
483.39	20989.92
483.57	20931.41
483.74	21050.78
483.92	21170.15
484.10	21687.40
484.28	21797.41
484.46	22209.34
484.64	22642.34
484.82	21813.79
485.00	22522.98
485.18	22838.95
485.35	23220.45
485.53	22785.12
485.71	23023.85
485.89	23482.59
486.07	23351.52
486.25	23616.01
486.43	23740.05
486.61	24065.39
486.78	24287.74
486.96	24102.84
487.14	24671.59
487.32	24844.79
487.50	24823.72
487.68	24905.64
487.85	25383.11
488.03	25359.70
488.21	26099.31
488.39	25970.58
488.57	26265.49
488.75	26335.71
488.92	26431.67
489.10	26845.94
489.28	26834.24
489.46	27295.33
489.64	27150.21
489.81	27653.43
489.99	27838.33
490.17	27810.25
490.35	28123.88
490.53	28395.38
490.70	28479.64
490.88	28315.80
491.06	28467.94
491.24	28947.75
491.41	29022.64
491.59	29577.35
491.77	29268.40
491.95	29598.41
492.13	29972.90
492.30	30466.75
492.48	30115.67
492.66	30471.43
492.84	30405.90
493.01	30850.60
493.19	31136.15
493.37	31414.67
493.54	31194.66
493.72	31732.98
493.90	31428.71
494.08	31709.58
494.25	32456.21
494.43	31974.06
494.61	32308.76
494.79	32643.45
494.96	32692.60
495.14	33078.79
495.32	33357.32
495.49	33132.62
495.67	33546.90
495.85	33467.32
496.02	34066.50
496.20	34347.36
496.38	34630.57
496.55	34256.08
496.73	34965.26
496.91	34759.30
497.09	34937.18
497.26	34951.22
497.44	34932.50
497.62	35211.02
497.79	36243.20
497.97	35356.13
498.14	35864.03
498.32	36257.24
498.50	36088.72
498.67	36938.33
498.85	36629.38
499.03	36851.73
499.20	36505.34
499.38	37296.44
499.56	37223.88
499.73	37085.79
499.91	37422.83
500.08	37776.25
500.26	37991.58
500.44	38007.96
500.61	38195.20
500.79	37883.91
500.97	38204.56
501.14	38892.68
501.32	38799.06
501.49	38911.41
501.67	38719.48
501.84	39126.74
502.02	38754.59
502.20	39075.24
502.37	39700.17
502.55	39440.37
502.72	39990.39
502.90	39988.05
503.07	39501.22
503.25	39992.73
503.43	39945.92
503.60	40364.88
503.78	40437.44
503.95	40376.58
504.13	40776.81
504.30	40809.58
504.48	40615.32
504.65	40790.86
504.83	41179.39
505.01	41209.81
505.18	41411.10
505.36	41879.21
505.53	41441.53
505.71	42000.91
505.88	42300.50
506.06	41703.67
506.23	42005.59
506.41	42059.43
506.58	42333.27
506.76	42602.43
506.93	42623.50
507.11	42466.68
507.28	42485.40
507.46	42848.19
507.63	43100.97
507.81	43227.35
507.98	43320.98
508.16	43290.55
508.33	43536.30
508.50	43342.04
508.68	43732.91
508.85	44006.75
509.03	43819.51
509.20	44355.49
509.38	44521.67
509.55	44699.55
509.73	44531.03
509.90	44601.25
510.08	44935.95
510.25	45172.34
510.42	44868.07
510.60	45170.00
510.77	45745.77
510.95	45687.26
511.12	45055.31
511.30	45551.51
511.47	45902.59
511.64	45497.67
511.82	45942.38
511.99	45600.66
512.17	46307.50
512.34	45792.58
512.51	46543.89
512.69	46843.48
512.86	46326.22
513.04	47054.13
513.21	46806.03
513.38	47143.07
513.56	47171.16
513.73	46852.84
513.90	47004.98
514.08	47086.90
514.25	47136.05
514.43	47760.97
514.60	47765.65
514.77	47372.44
514.95	47667.35
515.12	47782.04
515.29	47571.39
515.47	48051.20
515.64	48421.00
515.81	48170.57
515.99	48418.66
516.16	48318.02
516.33	48769.74
516.51	48849.32
516.68	48898.47
516.85	48638.67
517.03	49240.19
517.20	49340.83
517.37	49034.22
517.54	48877.41
517.72	48919.54
517.89	49029.54
518.06	49432.11
518.24	49298.70
518.41	49315.09
518.58	49872.14
518.75	49425.09
518.93	50136.62
519.10	49279.98
519.27	49890.86
519.45	49886.18
519.62	50106.19
519.79	50321.52
519.96	50005.55
520.14	50361.31
520.31	50431.52
520.48	50768.56
520.65	50499.40
520.83	50681.96
521.00	50993.25
521.17	50768.56
521.34	50866.86
521.52	51208.58
521.69	51042.40
521.86	51234.33
522.03	51292.84
522.20	51716.48
522.38	51660.30
522.55	51810.10
522.72	51349.01
522.89	51515.19
523.07	51774.99
523.24	51613.49
523.41	51533.92
523.58	51716.48
523.75	52112.03
523.92	52020.75
524.10	51854.57
524.27	52130.75
524.44	52149.48
524.61	52453.75
524.78	52472.47
524.96	52383.53
525.13	52589.50
525.30	52458.43
525.47	52486.51
525.64	52947.60
525.81	52559.07
525.98	52919.51
526.16	52622.26
526.33	52711.20
526.50	52978.03
526.67	53015.47
526.84	53097.39
527.01	53127.82
527.18	52905.47
527.36	53137.18
527.53	52959.30
527.70	53315.06
527.87	53315.06
528.04	53256.55
528.21	53612.31
528.38	53406.34
528.55	53731.68
528.72	53588.91
528.89	53481.24
529.07	53511.67
529.24	53411.02
529.41	53909.56
529.58	53755.08
529.75	53921.26
529.92	54094.46
530.09	54321.49
530.26	53942.33
530.43	54047.65
530.60	53909.56
530.77	54162.34
530.94	54124.89
531.11	54272.34
531.28	54110.85
531.46	54557.89
531.63	54099.14
531.80	54440.86
531.97	54438.52
532.14	54628.10
532.31	54695.98
532.48	54501.71
532.65	54855.14
532.82	54684.28
532.99	54721.72
533.16	54550.87
533.33	55171.11
533.50	54934.71
533.67	55042.38
533.84	54693.64
534.01	55098.55
534.18	55224.94
534.35	55201.53
534.52	55351.33
534.69	55117.28
534.86	55547.93
535.03	55044.72
535.20	55208.56
535.37	55334.95
535.54	55430.91
535.71	55210.90
535.88	55323.24
536.05	55363.03
536.22	55896.67
536.38	55667.30
536.55	55629.85
536.72	55664.96
536.89	55751.56
537.06	55583.04
537.23	55941.14
537.40	55594.74
537.57	55763.26
537.74	55903.70
537.91	56067.53
538.08	56219.67
538.25	55763.26
538.42	56067.53
538.59	56240.73
538.75	56023.06
538.92	55969.23
539.09	56409.25
539.26	56266.48
539.43	56271.16
539.60	56175.20
539.77	56112.00
539.94	56584.79
540.11	56308.61
540.28	56264.14
540.44	56264.14
540.61	56463.08
540.78	56783.74
540.95	56346.06
541.12	56678.41
541.29	56704.16
541.46	56741.61
541.62	56765.01
541.79	57073.96
541.96	56652.67
542.13	56652.67
542.30	56938.21
542.47	57003.75
542.63	56889.06
542.80	57120.77
542.97	57057.58
543.14	57406.32
543.31	57071.62
543.48	57190.99
543.64	57848.68
543.81	57366.53
543.98	57422.70
544.15	57635.69
544.32	57528.03
544.48	57832.30
544.65	57345.47
544.82	57705.91
544.99	57162.90
545.16	57481.22
545.32	57432.07
545.49	57825.28
545.66	57717.61
545.83	57726.97
546.00	57778.46
546.16	57925.92
546.33	57680.16
546.50	57731.65
546.67	57647.39
546.83	57621.65
547.00	57897.83
547.17	57956.35
547.34	57741.02
547.50	58031.24
547.67	58365.94
547.84	58162.31
548.00	58307.43
548.17	58344.87
548.34	58148.27
548.51	58300.40
548.67	58431.47
548.84	58468.92
549.01	58354.24
549.18	58316.79
549.34	58408.07
549.51	58267.64
549.68	58576.59
549.84	58389.34
550.01	58461.90
550.18	58370.62
550.34	58609.35
550.51	58827.02
550.68	58478.28
550.84	58183.38
551.01	58553.18
551.18	58557.86
551.34	58679.57
551.51	58665.53
551.68	58674.89
551.84	58724.04
552.01	58639.78
552.18	58773.19
552.34	58766.17
552.51	58897.24
552.68	58599.99
552.84	59028.31
553.01	59126.61
553.18	58930.01
553.34	58770.85
553.51	58721.70
553.67	58904.26
553.84	59086.82
554.01	59016.61
554.17	59220.23
554.34	59121.93
554.51	59051.72
554.67	59047.04
554.84	59267.05
555.00	58993.20
555.17	59182.79
555.33	59215.55
555.50	59131.29
555.67	59042.35
555.83	58836.39
556.00	59150.02
556.16	59496.42
556.33	59278.75
556.50	59220.23
556.66	59311.52
556.83	59264.70
556.99	59437.90
557.16	59580.68
557.32	59578.34
557.49	59723.45
557.65	59440.24
557.82	59606.42
557.98	59496.42
558.15	59477.69
558.32	59536.21
558.48	59449.61
558.65	59508.12
558.81	59536.21
558.98	59388.75
559.14	59643.87
559.31	59805.37
559.47	59849.84
559.64	59838.14
559.80	59819.41
559.97	59763.24
560.13	59625.15
560.30	59702.38
560.46	60001.97
560.63	60025.38
560.79	59810.05
560.96	60095.60
561.12	59901.33
561.29	59847.50
561.45	60095.60
561.61	59786.64
561.78	59917.71
561.94	59959.84
562.11	59973.89
562.27	59999.63
562.44	59948.14
562.60	60088.57
562.77	59929.42
562.93	59735.15
563.10	59999.63
563.26	59952.82
563.42	60449.02
563.59	60198.58
563.75	60093.25
563.92	60189.22
564.08	60133.04
564.24	60465.40
564.41	60221.98
564.57	60121.34
564.74	60317.95
564.90	59915.37
565.07	60097.94
565.23	60252.41
565.39	60278.16
565.56	60418.59
565.72	60280.50
565.88	60280.50
566.05	60179.85
566.21	60285.18
566.38	60301.56
566.54	60240.71
566.70	60528.59
566.87	60388.16
567.03	60346.03
567.19	60486.46
567.36	60561.36
567.52	60313.26
567.68	60720.52
567.85	60383.48
568.01	60591.79
568.17	60500.51
568.34	60521.57
568.50	60601.15
568.66	60374.12
568.83	60549.66
568.99	60509.87
569.15	60444.33
569.32	60481.78
569.48	60561.36
569.64	60652.64
569.81	60467.74
569.97	60346.03
570.13	60582.43
570.30	60474.76
570.46	60617.53
570.62	60706.47
570.78	60566.04
570.95	60523.91
571.11	60699.45
571.27	60636.26
571.43	60624.56
571.60	60790.73
571.76	60750.94
571.92	60706.47
572.09	60619.88
572.25	60760.31
572.41	60582.43
572.57	60673.71
572.74	61001.38
572.90	60680.73
573.06	60992.02
573.22	60926.49
573.38	60657.32
573.55	60690.09
573.71	61052.87
573.87	60762.65
574.03	60832.86
574.20	60757.97
574.36	60720.52
574.52	60760.31
574.68	60828.18
574.84	61034.15
575.01	60968.61
575.17	60781.37
575.33	60603.49
575.49	60886.70
575.65	60774.35
575.82	60893.72
575.98	60987.34
576.14	61118.41
576.30	60996.70
576.46	60966.27
576.62	60711.16
576.79	60963.93
576.95	60456.04
577.11	60896.06
577.27	61003.72
577.43	61017.77
577.59	60898.40
577.75	60856.27
577.92	60860.95
578.08	60970.96
578.24	60706.47
578.40	60992.02
578.56	61059.90
578.72	60996.70
578.88	61176.92
579.04	61020.11
579.21	61123.09
579.37	61008.40
579.53	61029.47
579.69	60938.19
579.85	60767.33
580.01	60966.27
580.17	60933.51
580.33	60926.49
580.49	61034.15
580.65	61120.75
580.82	60891.38
580.98	60921.80
581.14	60893.72
581.30	61165.22
581.46	60793.07
581.62	61123.09
581.78	60966.27
581.94	60963.93
582.10	61275.22
582.26	61059.90
582.42	60884.36
582.58	61029.47
582.74	61190.97
582.90	61001.38
583.06	61134.79
583.22	61027.13
583.38	61078.62
583.54	60970.96
583.70	60954.57
583.86	61244.80
584.02	60924.14
584.18	61205.01
584.34	61099.68
584.50	61066.92
584.66	60802.44
584.82	60879.67
584.98	61212.03
585.14	61202.67
585.30	61106.71
585.46	61013.08
585.62	61162.88
585.78	61420.34
585.94	61106.71
586.10	61104.37
586.26	60987.34
586.42	61139.47
586.58	61207.35
586.74	61106.71
586.90	61137.13
587.06	61151.18
587.22	61207.35
587.38	61045.85
587.54	61249.48
587.70	61396.93
587.86	61188.63
588.02	61165.22
588.18	61235.44
588.34	61216.71
588.49	61155.86
