SpectraSuite Data File
++++++++++++++++++++++++++++++++++++
Date: Fri Oct 25 11:34:32 EDT 2013
User: price-jones
Dark Spectrum Present: No
Reference Spectrum Present: No
Number of Sampled Component Spectra: 1
Spectrometers: USB2+H05261
Integration Time (usec): 100000 (USB2+H05261)
Spectra Averaged: 1 (USB2+H05261)
Boxcar Smoothing: 0 (USB2+H05261)
Correct for Electrical Dark: No (USB2+H05261)
Strobe/Lamp Enabled: No (USB2+H05261)
Correct for Detector Non-linearity: No (USB2+H05261)
Correct for Stray Light: No (USB2+H05261)
Number of Pixels in Processed Spectrum: 2048
>>>>>Begin Processed Spectral Data<<<<<
365.73	224.69
365.92	224.69
366.12	224.69
366.32	177.88
366.52	138.09
366.72	128.73
366.91	126.39
367.11	133.41
367.31	210.65
367.51	184.90
367.70	93.62
367.90	152.13
368.10	142.77
368.30	224.69
368.49	196.60
368.69	187.24
368.89	182.56
369.09	196.60
369.28	215.33
369.48	227.03
369.68	215.33
369.87	264.48
370.07	236.39
370.27	334.70
370.47	332.36
370.66	437.68
370.86	489.17
371.06	594.50
371.25	573.43
371.45	517.26
371.65	559.39
371.84	547.69
372.04	538.32
372.24	517.26
372.44	559.39
372.63	610.88
372.83	587.47
373.03	589.82
373.22	578.11
373.42	571.09
373.62	557.05
373.81	648.33
374.01	685.78
374.21	627.26
374.40	692.80
374.60	641.31
374.79	564.07
374.99	683.44
375.19	725.57
375.38	624.92
375.58	620.24
375.78	688.12
375.97	662.37
376.17	720.88
376.37	667.05
376.56	650.67
376.76	664.71
376.95	716.20
377.15	695.14
377.35	671.73
377.54	741.95
377.74	692.80
377.93	641.31
378.13	688.12
378.33	645.99
378.52	690.46
378.72	671.73
378.91	727.91
379.11	636.63
379.31	711.52
379.50	704.50
379.70	741.95
379.89	779.40
380.09	746.63
380.28	704.50
380.48	711.52
380.68	816.85
380.87	734.93
381.07	760.67
381.26	746.63
381.46	788.76
381.65	671.73
381.85	692.80
382.04	699.82
382.24	739.61
382.43	795.78
382.63	774.72
382.83	709.18
383.02	856.64
383.22	744.29
383.41	734.93
383.61	840.25
383.80	870.68
384.00	802.80
384.19	727.91
384.39	809.83
384.58	795.78
384.78	816.85
384.97	779.40
385.17	802.80
385.36	748.97
385.56	847.27
385.75	711.52
385.95	837.91
386.14	802.80
386.34	786.42
386.53	858.98
386.72	877.70
386.92	929.19
387.11	795.78
387.31	800.46
387.50	809.83
387.70	866.00
387.89	870.68
388.09	854.30
388.28	891.74
388.48	880.04
388.67	830.89
388.86	884.72
389.06	877.70
389.25	866.00
389.45	987.71
389.64	866.00
389.84	891.74
390.03	936.21
390.22	931.53
390.42	959.62
390.61	903.45
390.81	964.30
391.00	957.28
391.19	1001.75
391.39	929.19
391.58	1055.58
391.78	919.83
391.97	968.98
392.16	1013.45
392.36	1062.60
392.55	987.71
392.75	1076.65
392.94	1036.86
393.13	1057.92
393.33	987.71
393.52	1006.43
393.71	1086.01
393.91	1132.82
394.10	1071.97
394.29	1081.33
394.49	1095.37
394.68	990.05
394.88	1078.99
395.07	1205.38
395.26	1067.28
395.46	1135.16
395.65	1088.35
395.84	1107.07
396.04	1135.16
396.23	1100.05
396.42	1146.86
396.62	1158.57
396.81	1259.21
397.00	1121.12
397.19	1198.35
397.39	1181.97
397.58	1249.85
397.77	1172.61
397.97	1261.55
398.16	1179.63
398.35	1196.01
398.55	1245.16
398.74	1242.82
398.93	1270.91
399.12	1233.46
399.32	1277.93
399.51	1313.04
399.70	1306.02
399.90	1226.44
400.09	1273.25
400.28	1376.24
400.47	1306.02
400.67	1392.62
400.86	1350.49
401.05	1387.94
401.24	1406.66
401.44	1343.47
401.63	1357.51
401.82	1385.60
402.01	1504.96
402.21	1437.09
402.40	1432.41
402.59	1423.05
402.78	1530.71
402.97	1481.56
403.17	1383.26
403.36	1502.62
403.55	1502.62
403.74	1497.94
403.93	1486.24
404.13	1563.48
404.32	1425.39
404.51	1516.67
404.70	1710.93
404.89	1624.33
405.09	1596.25
405.28	1603.27
405.47	1647.74
405.66	1694.55
405.85	1760.08
406.05	1647.74
406.24	1626.67
406.43	1636.03
406.62	1729.66
406.81	1654.76
407.00	1640.72
407.20	1668.80
407.39	1790.51
407.58	1764.76
407.77	1750.72
407.96	1834.98
408.15	1710.93
408.34	1685.19
408.54	1930.94
408.73	1888.81
408.92	1893.49
409.11	1966.05
409.30	2010.52
409.49	1886.47
409.68	1996.48
409.87	1991.80
410.07	1996.48
410.26	2111.16
410.45	2033.93
410.64	2040.95
410.83	1984.77
411.02	2050.31
411.21	2090.10
411.40	2078.40
411.59	2108.82
411.78	1970.73
411.98	2165.00
412.17	2155.63
412.36	2127.55
412.55	2104.14
412.74	2209.47
412.93	2232.87
413.12	2263.30
413.31	2361.60
413.50	2286.70
413.69	2162.66
413.88	2286.70
414.07	2349.90
414.26	2422.45
414.45	2420.11
414.64	2448.20
414.83	2555.86
415.02	2490.33
415.22	2464.58
415.41	2509.05
415.60	2504.37
415.79	2581.61
415.98	2642.46
416.17	2597.99
416.36	2752.47
416.55	2752.47
416.74	2726.72
416.93	2590.97
417.12	2663.53
417.31	2768.85
417.50	2796.94
417.69	2787.58
417.88	2712.68
418.07	2743.11
418.26	2864.82
418.45	2869.50
418.64	2970.14
418.83	2974.82
419.02	3040.36
419.21	2942.05
419.39	3059.08
419.58	3052.06
419.77	2904.60
419.96	3047.38
420.15	3040.36
420.34	3066.10
420.53	3112.91
420.72	3101.21
420.91	3096.53
421.10	3169.09
421.29	3159.72
421.48	3068.44
421.67	3194.83
421.86	3232.28
422.05	3150.36
422.24	3243.98
422.43	3194.83
422.61	3316.54
422.80	3384.41
422.99	3213.56
423.18	3304.84
423.37	3330.58
423.56	3286.11
423.75	3220.58
423.94	3260.37
424.13	3122.27
424.32	3047.38
424.50	3283.77
424.69	3384.41
424.88	3316.54
425.07	3262.71
425.26	3232.28
425.45	3316.54
425.64	3269.73
425.83	3279.09
426.01	3337.60
426.20	3344.63
426.39	3517.83
426.58	3361.01
426.77	3293.13
426.96	3478.04
427.15	3311.86
427.33	3581.02
427.52	3456.97
427.71	3475.70
427.90	3536.55
428.09	3487.40
428.28	3471.01
428.46	3543.57
428.65	3501.44
428.84	3569.32
429.03	3681.66
429.22	3534.21
429.40	3583.36
429.59	3653.58
429.78	3541.23
429.97	3611.45
430.16	3585.70
430.34	3688.68
430.53	3618.47
430.72	3721.45
430.91	3716.77
431.10	3627.83
431.28	3751.88
431.47	3843.16
431.66	3927.42
431.85	3791.67
432.03	3878.27
432.22	3852.52
432.41	3852.52
432.60	3819.75
432.79	3918.06
432.97	3971.89
433.16	4004.66
433.35	4016.36
433.54	3964.87
433.72	3929.76
433.91	3974.23
434.10	4044.45
434.28	4002.32
434.47	3969.55
434.66	4138.07
434.85	4102.96
435.03	4166.15
435.22	4102.96
435.41	4138.07
435.59	4264.46
435.78	4219.99
435.97	4215.30
436.16	4231.69
436.34	4184.88
436.53	4271.48
436.72	4353.40
436.90	4159.13
437.09	4339.35
437.28	4166.15
437.46	4367.44
437.65	4432.97
437.84	4475.10
438.02	4430.63
438.21	4386.16
438.40	4355.74
438.58	4437.66
438.77	4692.77
438.96	4510.21
439.14	4669.37
439.33	4739.58
439.52	4706.82
439.70	4585.11
439.89	4903.42
440.08	4802.78
440.26	4943.21
440.45	4936.19
440.63	5036.83
440.82	5046.20
441.01	4751.29
441.19	4798.10
441.38	5006.41
441.57	5034.49
441.75	5125.77
441.94	5069.60
442.12	5137.48
442.31	5275.57
442.50	5280.25
442.68	5259.18
442.87	5191.31
443.05	5345.78
443.24	5268.55
443.43	5259.18
443.61	5453.45
443.80	5460.47
443.98	5275.57
444.17	5137.48
444.35	5430.04
444.54	5451.11
444.73	5446.43
444.91	5378.55
445.10	5275.57
445.28	5451.11
445.47	5397.28
445.65	5411.32
445.84	5540.05
446.02	5439.40
446.21	5380.89
446.39	5568.13
446.58	5584.52
446.77	5462.81
446.95	5390.25
447.14	5488.56
447.32	5593.88
447.51	5589.20
447.69	5434.72
447.88	5488.56
448.06	5504.94
448.25	5596.22
448.43	5502.60
448.62	5551.75
448.80	5481.53
448.99	5645.37
449.17	5825.59
449.36	5607.92
449.54	5816.23
449.73	5881.77
449.91	5795.17
450.10	5961.34
450.28	5973.05
450.46	5827.93
450.65	5982.41
450.83	5820.91
451.02	5959.00
451.20	6019.86
451.39	5863.04
451.57	6003.47
451.76	5839.64
451.94	5895.81
452.13	5966.03
452.31	5942.62
452.49	5909.85
452.68	5921.56
452.86	5921.56
453.05	6160.29
453.23	6008.16
453.42	6113.48
453.60	5987.09
453.78	6270.30
453.97	6368.60
454.15	6045.60
454.34	6078.37
454.52	6246.89
454.70	6279.66
454.89	6366.26
455.07	6345.19
455.26	6324.13
455.44	6420.09
455.62	6417.75
455.81	6267.95
455.99	6565.20
456.17	6445.84
456.36	6471.58
456.54	6565.20
456.73	6619.04
456.91	6785.21
457.09	6731.38
457.28	6785.21
457.46	6649.46
457.64	6642.44
457.83	6848.41
458.01	6590.95
458.19	6836.70
458.38	6743.08
458.56	6726.70
458.74	6817.98
458.93	6827.34
459.11	6920.96
459.29	6820.32
459.48	6691.59
459.66	6986.50
459.84	7108.21
460.03	7082.46
460.21	7037.99
460.39	7143.32
460.57	7021.61
460.76	7124.59
460.94	7208.85
461.12	7286.09
461.31	7307.15
461.49	7180.76
461.67	7236.94
461.85	7356.30
462.04	7236.94
462.22	7789.30
462.40	7517.80
462.59	7220.55
462.77	7316.51
462.95	7396.09
463.13	7419.50
463.32	7461.63
463.50	7592.70
463.68	7611.42
463.86	7548.23
464.05	7611.42
464.23	7485.03
464.41	7573.97
464.59	7379.71
464.78	7758.88
464.96	7548.23
465.14	7573.97
465.32	7487.37
465.50	7765.90
465.69	7812.71
465.87	7775.26
466.05	7679.30
466.23	7801.01
466.41	7707.38
466.60	7995.27
466.78	7625.47
466.96	7861.86
467.14	8021.02
467.32	7730.79
467.51	7964.84
467.69	7768.24
467.87	8091.23
468.05	8044.42
468.23	7957.82
468.41	7840.79
468.60	7868.88
468.78	8147.40
468.96	7899.31
469.14	8222.30
469.32	8243.37
469.50	8198.90
469.69	8210.60
469.87	8273.79
470.05	8161.45
470.23	8210.60
470.41	8313.58
470.59	8493.80
470.77	8287.84
470.95	8493.80
471.14	8730.20
471.32	8461.04
471.50	8690.41
471.68	8748.92
471.86	8870.63
472.04	8620.19
472.22	8877.65
472.40	8596.79
472.58	8940.85
472.77	9011.06
472.95	8966.59
473.13	9151.49
473.31	8847.22
473.49	8908.08
473.67	9027.45
473.85	9158.52
474.03	9123.41
474.21	9434.70
474.39	9315.33
474.57	9296.61
474.75	9397.25
474.93	9565.77
475.12	9511.94
475.30	9507.26
475.48	9472.15
475.66	9694.50
475.84	9579.81
476.02	9809.19
476.20	9778.76
476.38	9963.66
476.56	10263.25
476.74	10143.88
476.92	10078.35
477.10	10174.31
477.28	10183.67
477.46	9991.75
477.64	10216.44
477.82	10677.52
478.00	10537.09
478.18	10396.66
478.36	10677.52
478.54	10775.83
478.72	10714.97
478.90	11133.93
479.08	11037.97
479.26	11129.25
479.44	11112.86
479.62	11220.53
479.80	11028.60
479.98	11419.47
480.16	11602.04
480.34	11365.64
480.52	11466.28
480.70	11824.39
480.88	11571.61
481.06	11721.40
481.24	11894.60
481.41	12142.70
481.59	12173.13
481.77	12161.42
481.95	12329.94
482.13	12315.90
482.31	12273.77
482.49	12744.22
482.67	12748.90
482.85	12746.56
483.03	12798.05
483.21	12760.60
483.39	12968.91
483.57	13355.10
483.74	13214.66
483.92	13406.59
484.10	13411.27
484.28	13657.03
484.46	13860.65
484.64	14324.08
484.82	13731.92
485.00	14036.19
485.18	14083.00
485.35	14410.68
485.53	14270.25
485.71	14541.75
485.89	14370.89
486.07	14413.02
486.25	14635.37
486.43	14775.80
486.61	14792.19
486.78	14885.81
486.96	15016.88
487.14	15459.24
487.32	15548.18
487.50	15510.73
487.68	15662.86
487.85	15627.76
488.03	15868.83
488.21	16030.33
488.39	16152.04
488.57	16152.04
488.75	16339.28
488.92	16781.64
489.10	16769.94
489.28	16681.00
489.46	16996.97
489.64	16783.98
489.81	17139.74
489.99	17167.83
490.17	17404.22
490.35	17451.03
490.53	17406.56
490.70	17680.41
490.88	17802.11
491.06	17998.72
491.24	18047.87
491.41	18200.01
491.59	18338.10
491.77	18284.26
491.95	18581.51
492.13	18326.39
492.30	18710.24
492.48	18628.32
492.66	18691.52
492.84	18834.29
493.01	19232.18
493.19	18869.40
493.37	19419.42
493.54	19325.80
493.72	19674.54
493.90	19496.66
494.08	19798.59
494.25	20074.77
494.43	19943.70
494.61	19913.28
494.79	20283.08
494.96	20098.18
495.14	20624.80
495.32	20210.53
495.49	20900.98
495.67	20835.45
495.85	20863.54
496.02	21259.09
496.20	21303.56
496.38	21474.42
496.55	21530.59
496.73	21996.35
496.91	21813.79
497.09	21694.43
497.26	21687.40
497.44	21778.68
497.62	22221.05
497.79	22078.27
497.97	22228.07
498.14	22321.69
498.32	22431.69
498.50	22721.92
498.67	22820.22
498.85	22597.87
499.03	22864.69
499.20	22970.02
499.38	23339.82
499.56	23271.95
499.73	23112.79
499.91	23108.11
500.08	23520.04
500.26	23243.86
500.44	23616.01
500.61	23620.69
500.79	23562.17
500.97	23901.55
501.14	23997.51
501.32	23765.80
501.49	23985.81
501.67	24215.18
501.84	24552.22
502.02	24290.08
502.20	24568.60
502.37	24320.51
502.55	24425.83
502.72	24482.00
502.90	24910.32
503.07	24732.44
503.25	25181.82
503.43	24975.86
503.60	25146.72
503.78	24999.26
503.95	25207.57
504.13	25125.65
504.30	25621.84
504.48	25355.02
504.65	25291.83
504.83	25649.93
505.01	25731.85
505.18	25481.41
505.36	26031.44
505.53	26005.69
505.71	26010.37
505.88	26111.02
506.06	25970.58
506.23	26120.38
506.41	26153.15
506.58	26501.89
506.76	26532.31
506.93	27204.05
507.11	26712.53
507.28	26799.13
507.46	26780.41
507.63	26838.92
507.81	27077.66
507.98	26824.88
508.16	27115.11
508.33	27365.54
508.50	27501.29
508.68	27569.17
508.85	27578.53
509.03	27051.91
509.20	27445.12
509.38	28100.47
509.55	28173.03
509.73	27988.13
509.90	27936.63
510.08	28325.16
510.25	28128.56
510.42	27934.29
510.60	28177.71
510.77	28638.80
510.95	28840.08
511.12	28376.66
511.30	27927.27
511.47	28596.67
511.64	28922.00
511.82	28746.46
511.99	28397.72
512.17	28687.95
512.34	28868.17
512.51	29177.12
512.69	29483.73
512.86	29205.20
513.04	29284.78
513.21	29635.86
513.38	29682.67
513.56	29755.23
513.73	29642.88
513.90	29752.89
514.08	29570.33
514.25	30118.01
514.43	29893.32
514.60	30096.95
514.77	30190.57
514.95	30314.62
515.12	30078.22
515.29	30401.22
515.47	30094.61
515.64	30843.58
515.81	30602.50
515.99	30654.00
516.16	30955.93
516.33	30855.28
516.51	31014.44
516.68	30485.48
516.85	31047.21
517.03	31323.39
517.20	31227.43
517.37	30969.97
517.54	31222.75
517.72	31335.09
517.89	31379.56
518.06	31842.99
518.24	31236.79
518.41	31335.09
518.58	31466.16
518.75	31541.06
518.93	31697.88
519.10	31695.53
519.27	31632.34
519.45	31377.22
519.62	32327.48
519.79	31950.65
519.96	31985.76
520.14	31740.00
520.31	32233.86
520.48	32273.65
520.65	32084.06
520.83	32828.35
521.00	32802.61
521.17	32758.14
521.34	32753.46
521.52	33277.74
521.69	32723.03
521.86	33181.77
522.03	33113.90
522.20	33132.62
522.38	33118.58
522.55	33399.44
522.72	33638.18
522.89	33106.88
523.07	33769.25
523.24	33479.02
523.41	33308.16
523.58	33876.91
523.75	33773.93
523.92	33525.83
524.10	33869.89
524.27	33947.13
524.44	33881.60
524.61	34291.19
524.78	34136.71
524.96	34499.50
525.13	34206.93
525.30	34466.73
525.47	34553.33
525.64	34281.83
525.81	34284.17
525.98	34541.63
526.16	34518.22
526.33	34574.39
526.50	34824.83
526.67	34422.26
526.84	34836.53
527.01	34932.50
527.18	34958.24
527.36	34803.77
527.53	35084.63
527.70	35321.02
527.87	35526.99
528.04	34923.13
528.21	35543.38
528.38	35253.15
528.55	35707.21
528.72	35583.16
528.89	35323.36
529.07	35196.98
529.24	35178.25
529.41	35711.89
529.58	35639.34
529.75	35672.10
529.92	36032.55
530.09	35821.90
530.26	35704.87
530.43	36030.21
530.60	35880.41
530.77	35852.33
530.94	36189.36
531.11	35889.77
531.28	35887.43
531.46	36451.50
531.63	36257.24
531.80	36610.66
531.97	36498.31
532.14	36416.40
532.31	36177.66
532.48	36765.14
532.65	36769.82
532.82	36610.66
532.99	36793.22
533.16	36329.80
533.33	37053.02
533.50	37193.45
533.67	37055.36
533.84	36882.16
534.01	37118.56
534.18	37401.76
534.35	37296.44
534.52	37219.20
534.69	37682.62
534.86	37509.43
535.03	37319.84
535.20	37666.24
535.37	37483.68
535.54	37825.40
535.71	38054.77
535.88	37699.01
536.05	37544.53
536.22	37724.75
536.38	37832.42
536.55	38031.36
536.72	38132.01
536.89	37584.32
537.06	38106.26
537.23	38272.44
537.40	38157.75
537.57	37462.61
537.74	37823.06
537.91	38733.53
538.08	38455.00
538.25	38239.67
538.42	38433.94
538.59	38520.54
538.75	38363.72
538.92	38522.88
539.09	38794.38
539.26	38380.10
539.43	38623.52
539.60	38579.05
539.77	38880.98
539.94	38684.37
540.11	39037.80
540.28	38899.70
540.44	38876.30
540.61	39058.86
540.78	38616.50
540.95	38990.98
541.12	38817.78
541.29	38850.55
541.46	39033.11
541.62	39086.95
541.79	39185.25
541.96	39044.82
542.13	38946.51
542.30	39108.01
542.47	39480.16
542.63	39438.03
542.80	39571.44
542.97	39983.37
543.14	40084.01
543.31	39934.22
543.48	39618.25
543.64	39966.99
543.81	40175.30
543.98	40030.18
544.15	39826.56
544.32	40109.76
544.48	40704.26
544.65	40259.55
544.82	40407.01
544.99	40006.78
545.16	40205.72
545.32	40470.20
545.49	40781.49
545.66	40893.84
545.83	40587.23
546.00	40425.73
546.16	40601.27
546.33	40851.71
546.50	40657.45
546.67	40669.15
546.83	40348.50
547.00	40423.39
547.17	40627.02
547.34	40748.73
547.50	40842.35
547.67	41415.78
547.84	40671.49
548.00	40795.54
548.17	41317.48
548.34	41326.84
548.51	41228.54
548.67	41397.06
548.84	41116.19
549.01	41270.67
549.18	41432.16
549.34	41516.42
549.51	41443.87
549.68	41443.87
549.84	41614.72
550.01	41509.40
550.18	41329.18
550.34	41530.47
550.51	42007.94
550.68	41645.15
550.84	41291.73
551.01	41581.96
551.18	41706.01
551.34	41790.27
551.51	41832.39
551.68	41897.93
551.84	41497.70
552.01	41801.97
552.18	41741.11
552.34	41764.52
552.51	42148.37
552.68	42234.97
552.84	41844.10
553.01	41893.25
553.18	42012.62
553.34	42192.84
553.51	41928.36
553.67	41998.57
553.84	42775.63
554.01	42017.30
554.17	42113.26
554.34	42607.11
554.51	42139.00
554.67	42677.33
554.84	42572.00
555.00	42550.94
555.17	42541.58
555.33	42513.49
555.50	42595.41
555.67	42628.18
555.83	42696.05
556.00	42328.59
556.16	43264.80
556.33	42920.74
556.50	42747.54
556.66	42892.66
556.83	42667.97
556.99	42782.65
557.16	43019.05
557.32	43068.20
557.49	43133.73
557.65	42897.34
557.82	43065.86
557.98	42918.40
558.15	43297.57
558.32	43091.60
558.48	42948.83
558.65	43335.02
558.81	43271.82
558.98	43000.32
559.14	42937.13
559.31	42955.85
559.47	43192.25
559.64	43152.46
559.80	43384.17
559.97	43058.84
560.13	42925.42
560.30	43269.48
560.46	43374.81
560.63	43758.66
560.79	43714.19
560.96	43672.06
561.12	43491.83
561.29	43681.42
561.45	43885.04
561.61	43739.93
561.78	43910.79
561.94	43538.65
562.11	43632.27
562.27	43817.17
562.44	43449.70
562.60	43964.62
562.77	43494.18
562.93	43531.62
563.10	43882.70
563.26	43358.42
563.42	44367.20
563.59	43812.49
563.75	44030.16
563.92	43983.35
564.08	43627.59
564.24	44229.10
564.41	43814.83
564.57	43578.43
564.74	43920.15
564.90	44091.01
565.07	43924.83
565.23	43812.49
565.39	43922.49
565.56	44247.83
565.72	43817.17
565.88	44278.25
566.05	44172.93
566.21	43948.24
566.38	44194.00
566.54	44027.82
566.70	44156.55
566.87	44385.92
567.03	43653.33
567.19	44130.80
567.36	44076.97
567.52	44308.68
567.68	44624.65
567.85	44196.34
568.01	44177.61
568.17	43828.87
568.34	44287.62
568.50	44172.93
568.66	44149.53
568.83	44289.96
568.99	44271.23
569.15	44238.47
569.32	44392.94
569.48	44392.94
569.64	44708.91
569.81	44830.62
569.97	45097.44
570.13	44687.85
570.30	44212.72
570.46	44847.00
570.62	44233.78
570.78	44126.12
570.95	44662.10
571.11	44622.31
571.27	44910.20
571.43	44474.86
571.60	44516.99
571.76	44432.73
571.92	44566.14
572.09	44516.99
572.25	44376.56
572.41	44154.21
572.57	44657.42
572.74	44847.00
572.90	44650.40
573.06	44921.90
573.22	44938.29
573.38	44772.11
573.55	45034.25
573.71	45038.93
573.87	44608.27
574.03	44772.11
574.20	44952.33
574.36	44634.02
574.52	45078.72
574.68	44924.24
574.84	44949.99
575.01	44769.77
575.17	45102.12
575.33	45167.66
575.49	44282.94
575.65	44971.05
575.82	44704.23
575.98	44748.70
576.14	45317.45
576.30	44790.83
576.46	44648.06
576.62	45263.62
576.79	44926.58
576.95	44868.07
577.11	45034.25
577.27	45116.17
577.43	44870.41
577.59	45198.09
577.75	44772.11
577.92	44416.35
578.08	45020.20
578.24	45212.13
578.40	44898.50
578.56	45404.05
578.72	44957.01
578.88	45015.52
579.04	45404.05
579.21	44706.57
579.37	44584.86
579.53	45291.71
579.69	45258.94
579.85	45254.26
580.01	44814.24
580.17	45024.89
580.33	45029.57
580.49	45429.80
580.65	44985.10
580.82	44896.16
580.98	45015.52
581.14	44814.24
581.30	44807.22
581.46	45200.43
581.62	44725.30
581.78	45151.27
581.94	45490.65
582.10	45141.91
582.26	45427.46
582.42	45301.07
582.58	45132.55
582.74	45478.95
582.90	45560.87
583.06	45165.32
583.22	45003.82
583.38	45415.76
583.54	45387.67
583.70	45507.04
583.86	45167.66
584.02	45081.06
584.18	45565.55
584.34	45333.84
584.50	45642.79
584.66	45544.48
584.82	45448.52
584.98	45467.25
585.14	45357.24
585.30	45188.72
585.46	45263.62
585.62	45024.89
585.78	44947.65
585.94	45130.21
586.10	45130.21
586.26	44781.47
586.42	45659.17
586.58	45315.11
586.74	45130.21
586.90	45331.50
587.06	45338.52
587.22	45488.31
587.38	45003.82
587.54	45521.08
587.70	45794.92
587.86	45319.79
588.02	45385.33
588.18	45380.65
588.34	45151.27
588.49	45446.18
588.65	45146.59
588.81	45514.06
588.97	45642.79
589.13	45333.84
589.29	45729.39
589.45	45457.88
589.61	45563.21
589.77	45764.49
589.93	45675.55
590.08	46021.95
