SpectraSuite Data File
++++++++++++++++++++++++++++++++++++
Date: Fri Oct 25 11:25:07 EDT 2013
User: price-jones
Dark Spectrum Present: No
Reference Spectrum Present: No
Number of Sampled Component Spectra: 1
Spectrometers: USB2+H05261
Integration Time (usec): 100000 (USB2+H05261)
Spectra Averaged: 1 (USB2+H05261)
Boxcar Smoothing: 0 (USB2+H05261)
Correct for Electrical Dark: No (USB2+H05261)
Strobe/Lamp Enabled: No (USB2+H05261)
Correct for Detector Non-linearity: No (USB2+H05261)
Correct for Stray Light: No (USB2+H05261)
Number of Pixels in Processed Spectrum: 2048
>>>>>Begin Processed Spectral Data<<<<<
365.73	210.65
365.92	210.65
366.12	210.65
366.32	133.41
366.52	107.66
366.72	88.94
366.91	77.24
367.11	117.03
367.31	156.82
367.51	100.64
367.70	77.24
367.90	156.82
368.10	196.60
368.30	117.03
368.49	182.56
368.69	154.48
368.89	194.26
369.09	184.90
369.28	74.90
369.48	126.39
369.68	203.63
369.87	203.63
370.07	227.03
370.27	252.78
370.47	278.52
370.66	596.84
370.86	629.60
371.06	592.16
371.25	657.69
371.45	697.48
371.65	596.84
371.84	706.84
372.04	720.88
372.24	674.07
372.44	704.50
372.63	774.72
372.83	723.23
373.03	734.93
373.22	774.72
373.42	741.95
373.62	727.91
373.81	856.64
374.01	833.23
374.21	798.12
374.40	711.52
374.60	837.91
374.79	802.80
374.99	840.25
375.19	896.43
375.38	793.44
375.58	854.30
375.78	844.93
375.97	835.57
376.17	866.00
376.37	889.40
376.56	884.72
376.76	887.06
376.95	856.64
377.15	851.96
377.35	851.96
377.54	959.62
377.74	950.26
377.93	887.06
378.13	807.48
378.33	863.66
378.52	863.66
378.72	940.90
378.91	999.41
379.11	915.15
379.31	873.02
379.50	870.68
379.70	938.55
379.89	978.34
380.09	954.94
380.28	945.58
380.48	997.07
380.68	976.00
380.87	983.02
381.07	1027.50
381.26	1006.43
381.46	954.94
381.65	1036.86
381.85	1083.67
382.04	1025.15
382.24	1039.20
382.43	1013.45
382.63	1020.47
382.83	1034.52
383.02	1069.62
383.22	1046.22
383.41	1107.07
383.61	1015.79
383.80	1188.99
384.00	1039.20
384.19	1205.38
384.39	1078.99
384.58	1118.78
384.78	1100.05
384.97	1142.18
385.17	1170.27
385.36	1128.14
385.56	1240.48
385.75	1179.63
385.95	1149.20
386.14	1205.38
386.34	1254.53
386.53	1329.42
386.72	1125.80
386.92	1247.51
387.11	1259.21
387.31	1249.85
387.50	1219.42
387.70	1313.04
387.89	1366.87
388.09	1198.35
388.28	1313.04
388.48	1289.64
388.67	1357.51
388.86	1329.42
389.06	1259.21
389.25	1371.55
389.45	1270.91
389.64	1329.42
389.84	1341.13
390.03	1387.94
390.22	1362.19
390.42	1359.85
390.61	1458.15
390.81	1357.51
391.00	1373.89
391.19	1434.75
391.39	1493.26
391.58	1371.55
391.78	1425.39
391.97	1490.92
392.16	1572.84
392.36	1451.13
392.55	1530.71
392.75	1416.02
392.94	1523.69
393.13	1540.07
393.33	1511.99
393.52	1488.58
393.71	1572.84
393.91	1586.88
394.10	1636.03
394.29	1645.40
394.49	1556.46
394.68	1586.88
394.88	1638.38
395.07	1748.38
395.26	1680.50
395.46	1710.93
395.65	1755.40
395.84	1708.59
396.04	1820.94
396.23	1764.76
396.42	1746.04
396.62	1710.93
396.81	1926.26
397.00	1675.82
397.19	1757.74
397.39	1797.53
397.58	1870.09
397.77	1769.44
397.97	1860.73
398.16	1774.13
398.35	1907.54
398.55	1846.68
398.74	1973.07
398.93	1860.73
399.12	1839.66
399.32	1947.33
399.51	1839.66
399.70	1989.46
399.90	2059.67
400.09	1994.14
400.28	2165.00
400.47	2045.63
400.67	2064.35
400.86	1982.43
401.05	2064.35
401.24	2113.50
401.44	2115.84
401.63	2143.93
401.82	2186.06
402.01	2031.58
402.21	2099.46
402.40	2076.06
402.59	2097.12
402.78	2134.57
402.97	2263.30
403.17	2258.62
403.36	2251.60
403.55	2289.04
403.74	2310.11
403.93	2300.75
404.13	2478.63
404.32	2237.55
404.51	2422.45
404.70	2296.07
404.89	2361.60
405.09	2541.82
405.28	2492.67
405.47	2555.86
405.66	2516.08
405.85	2487.99
406.05	2527.78
406.24	2530.12
406.43	2532.46
406.62	2588.63
406.81	2656.51
407.00	2588.63
407.20	2607.36
407.39	2614.38
407.58	2743.11
407.77	2693.96
407.96	2717.36
408.15	2717.36
408.34	2712.68
408.54	2698.64
408.73	2717.36
408.92	2832.05
409.11	2829.71
409.30	2803.96
409.49	2902.26
409.68	2979.50
409.87	2853.11
410.07	2930.35
410.26	2993.55
410.45	2991.20
410.64	3066.10
410.83	3002.91
411.02	3056.74
411.21	3183.13
411.40	3040.36
411.59	3302.50
411.78	3178.45
411.98	3192.49
412.17	3194.83
412.36	3300.16
412.55	3377.39
412.74	3466.33
412.93	3431.23
413.12	3363.35
413.31	3475.70
413.50	3557.61
413.69	3496.76
413.88	3492.08
414.07	3517.83
414.26	3520.17
414.45	3578.68
414.64	3588.04
414.83	3665.28
415.02	3829.12
415.22	3810.39
415.41	3861.88
415.60	3845.50
415.79	3927.42
415.98	3852.52
416.17	4051.47
416.36	4021.04
416.55	3969.55
416.74	4049.13
416.93	3929.76
417.12	4145.09
417.31	4093.60
417.50	4299.56
417.69	4243.39
417.88	4311.27
418.07	4369.78
418.26	4257.43
418.45	4414.25
418.64	4470.42
418.83	4374.46
419.02	4500.85
419.21	4575.75
419.39	4585.11
419.58	4444.68
419.77	4484.47
419.96	4451.70
420.15	4741.93
420.34	4634.26
420.53	4575.75
420.72	4765.33
420.91	4638.94
421.10	4641.28
421.29	4819.16
421.48	4571.07
421.67	4784.06
421.86	4641.28
422.05	4711.50
422.24	4816.82
422.43	4863.63
422.61	4805.12
422.80	4873.00
422.99	4882.36
423.18	4858.95
423.37	4983.00
423.56	5036.83
423.75	5020.45
423.94	4887.04
424.13	4716.18
424.32	4784.06
424.50	4987.68
424.69	5041.51
424.88	4999.38
425.07	5020.45
425.26	4980.66
425.45	5006.41
425.64	4891.72
425.83	4894.06
426.01	4940.87
426.20	4999.38
426.39	5053.22
426.58	5006.41
426.77	5046.20
426.96	5198.33
427.15	5128.11
427.33	5142.16
427.52	5071.94
427.71	5315.36
427.90	5343.44
428.09	5303.65
428.28	5179.61
428.46	5390.25
428.65	5355.15
428.84	5565.79
429.03	5514.30
429.22	5338.76
429.40	5526.00
429.59	5554.09
429.78	5291.95
429.97	5263.86
430.16	5310.68
430.34	5692.18
430.53	5645.37
430.72	5537.71
430.91	5607.92
431.10	5570.48
431.28	5837.30
431.47	5696.86
431.66	6019.86
431.85	5741.33
432.03	6106.46
432.22	5959.00
432.41	5743.67
432.60	5802.19
432.79	5851.34
432.97	6127.52
433.16	5851.34
433.35	5788.14
433.54	6167.31
433.72	6132.20
433.91	6132.20
434.10	6204.76
434.28	6073.69
434.47	6120.50
434.66	6136.88
434.85	6438.81
435.03	6305.40
435.22	6155.61
435.41	6494.99
435.59	6389.66
435.78	6331.15
435.97	6443.49
436.16	6389.66
436.34	6408.39
436.53	6387.32
436.72	6546.48
436.90	6394.34
437.09	6633.08
437.28	6333.49
437.46	6670.53
437.65	6455.20
437.84	6693.93
438.02	6869.47
438.21	6729.04
438.40	6684.57
438.58	6988.84
438.77	7162.04
438.96	6932.67
439.14	7225.23
439.33	7040.33
439.52	7234.60
439.70	7314.17
439.89	7344.60
440.08	7372.69
440.26	7459.29
440.45	7318.86
440.63	7468.65
440.82	7667.60
441.01	7365.67
441.19	7442.90
441.38	7609.08
441.57	7845.48
441.75	7651.21
441.94	7971.86
442.12	7941.44
442.31	7871.22
442.50	7955.48
442.68	8037.40
442.87	8002.29
443.05	8131.02
443.24	8121.66
443.43	7976.55
443.61	8322.94
443.80	8266.77
443.98	8124.00
444.17	7911.01
444.35	8243.37
444.54	8458.70
444.73	8329.97
444.91	8369.76
445.10	8205.92
445.28	8348.69
445.47	8163.79
445.65	8271.45
445.84	8243.37
446.02	8376.78
446.21	8348.69
446.39	8355.71
446.58	8486.78
446.77	8465.72
446.95	8336.99
447.14	8493.80
447.32	8713.81
447.51	8372.10
447.69	8395.50
447.88	8367.42
448.06	8430.61
448.25	8344.01
448.43	8727.86
448.62	8381.46
448.80	8624.87
448.99	8566.36
449.17	8786.37
449.36	8557.00
449.54	8779.35
449.73	9092.98
449.91	9029.79
450.10	8982.98
450.28	8870.63
450.46	9111.71
450.65	9041.49
450.83	8889.35
451.02	8957.23
451.20	9217.03
451.39	9210.01
451.57	9158.52
451.76	8936.17
451.94	9193.62
452.13	9217.03
452.31	9476.83
452.49	9069.58
452.68	9334.06
452.86	9355.12
453.05	9380.87
453.23	9540.02
453.42	9404.27
453.60	9348.10
453.78	9495.55
453.97	9376.19
454.15	9593.86
454.34	9245.12
454.52	9570.45
454.70	9671.09
454.89	9610.24
455.07	9921.53
455.26	9675.77
455.44	9816.21
455.62	9872.38
455.81	9951.96
455.99	9996.43
456.17	10200.05
456.36	10078.35
456.54	10076.01
456.73	10277.29
456.91	10335.81
457.09	10310.06
457.28	10373.25
457.46	10352.19
457.64	10560.50
457.83	10623.69
458.01	10328.78
458.19	10602.63
458.38	10560.50
458.56	10630.71
458.74	10703.27
458.93	10670.50
459.11	10766.46
459.29	10773.49
459.48	10782.85
459.66	10745.40
459.84	10956.05
460.03	10773.49
460.21	10906.90
460.39	11255.64
460.57	10846.04
460.76	11323.51
460.94	11211.17
461.12	11152.65
461.31	11054.35
461.49	11325.85
461.67	11248.61
461.85	11536.50
462.04	11595.01
462.22	11730.76
462.40	11452.24
462.59	11454.58
462.77	11243.93
462.95	11784.60
463.13	11398.41
463.32	11508.41
463.50	11819.71
463.68	11667.57
463.86	11974.18
464.05	11344.58
464.23	11838.43
464.41	11786.94
464.59	11564.59
464.78	12112.27
464.96	12138.02
465.14	11777.58
465.32	12030.35
465.50	12191.85
465.69	12046.74
465.87	11908.65
466.05	12018.65
466.23	12140.36
466.41	12292.49
466.60	12566.34
466.78	12472.71
466.96	12079.50
467.14	12131.00
467.32	12491.44
467.51	12493.78
467.69	12210.57
467.87	12435.27
468.05	12807.41
468.23	12334.62
468.41	12500.80
468.60	12416.54
468.78	12959.55
468.96	12273.77
469.14	12884.65
469.32	12702.09
469.50	12578.04
469.69	12812.09
469.87	13214.66
470.05	13153.81
470.23	12898.69
470.41	13153.81
470.59	13261.48
470.77	13401.91
470.95	13184.24
471.14	13369.14
471.32	13263.82
471.50	13448.72
471.68	13657.03
471.86	13610.22
472.04	13593.83
472.22	13989.38
472.40	13511.91
472.58	13825.54
472.77	13745.97
472.95	14181.31
473.13	14466.85
473.31	13879.38
473.49	14466.85
473.67	14066.62
473.85	14434.08
474.03	14527.71
474.21	14352.16
474.39	14719.63
474.57	14523.02
474.75	14663.46
474.93	14963.04
475.12	14813.25
475.30	15096.46
475.48	15070.71
475.66	15372.64
475.84	15290.72
476.02	15206.46
476.20	15421.79
476.38	15627.76
476.56	16042.03
476.74	16140.33
476.92	15840.75
477.10	15882.88
477.28	16051.39
477.46	16100.55
477.64	16140.33
477.82	16407.16
478.00	16978.25
478.18	16800.37
478.36	16793.34
478.54	17221.66
478.72	17224.00
478.90	17591.47
479.08	17570.40
479.26	17635.94
479.44	17474.44
479.62	17987.02
479.80	18061.91
479.98	18293.63
480.16	18342.78
480.34	18094.68
480.52	18462.15
480.70	18335.76
480.88	18307.67
481.06	18576.83
481.24	18874.08
481.41	18995.79
481.59	19206.44
481.77	19456.87
481.95	19407.72
482.13	19798.59
482.31	19655.82
482.49	20472.67
482.67	20423.51
482.85	20182.44
483.03	20247.97
483.21	20727.78
483.39	20805.02
483.57	20381.38
483.74	20975.88
483.92	21493.14
484.10	21099.93
484.28	21652.30
484.46	21921.46
484.64	22150.83
484.82	21680.38
485.00	22272.54
485.18	22675.11
485.35	22740.64
485.53	22476.16
485.71	23161.94
485.89	23571.54
486.07	22878.74
486.25	23597.28
486.43	23648.77
486.61	23974.11
486.78	23969.43
486.96	24465.62
487.14	24482.00
487.32	24498.39
487.50	24687.97
487.68	24945.43
487.85	25326.94
488.03	25249.70
488.21	25661.63
488.39	25429.92
488.57	26071.23
488.75	25848.88
488.92	26691.47
489.10	26590.83
489.28	26609.55
489.46	27321.07
489.64	27269.58
489.81	27697.90
489.99	27424.06
490.17	27442.78
490.35	28128.56
490.53	28114.52
490.70	28566.24
490.88	28336.87
491.06	28734.76
491.24	28507.72
491.41	29043.71
491.59	29198.18
491.77	29333.93
491.95	29523.52
492.13	29579.69
492.30	29717.78
492.48	29858.21
492.66	30260.79
492.84	30321.64
493.01	30670.38
493.19	30534.63
493.37	31159.55
493.54	31056.57
493.72	31491.91
493.90	31440.42
494.08	31761.07
494.25	31782.13
494.43	31873.42
494.61	32552.17
494.79	32226.84
494.96	32432.80
495.14	32622.39
495.32	33139.65
495.49	33036.66
495.67	32907.93
495.85	33270.72
496.02	33724.78
496.20	33979.90
496.38	34291.19
496.55	34223.31
496.73	34670.36
496.91	34316.93
497.09	34866.96
497.26	34728.87
497.44	34663.33
497.62	35283.58
497.79	35505.93
497.97	35136.12
498.14	35730.62
498.32	36177.66
498.50	36458.52
498.67	36636.41
498.85	36517.04
499.03	36989.83
499.20	36708.96
499.38	36605.98
499.56	36474.91
499.73	37165.37
499.91	37195.79
500.08	37422.83
500.26	37521.13
500.44	37743.48
500.61	37656.88
500.79	37581.98
500.97	37904.98
501.14	38459.68
501.32	38012.64
501.49	38139.03
501.67	38501.81
501.84	39056.52
502.02	38719.48
502.20	39145.46
502.37	39569.10
502.55	39201.63
502.72	39339.72
502.90	39470.79
503.07	39562.08
503.25	39669.74
503.43	39931.88
503.60	39906.13
503.78	40203.38
503.95	40112.10
504.13	40692.55
504.30	40498.29
504.48	40395.31
504.65	40720.64
504.83	41113.85
505.01	41055.34
505.18	41060.02
505.36	41446.21
505.53	41223.86
505.71	41427.48
505.88	41375.99
506.06	41235.56
506.23	42110.92
506.41	41724.73
506.58	42183.48
506.76	41940.06
506.93	42452.64
507.11	42230.29
507.28	42625.84
507.46	42576.69
507.63	42595.41
507.81	43220.33
507.98	42745.20
508.16	42939.47
508.33	43290.55
508.50	43608.86
508.68	43482.47
508.85	43871.00
509.03	43709.50
509.20	43901.43
509.38	44486.56
509.55	43983.35
509.73	44381.24
509.90	44538.05
510.08	44259.53
510.25	44081.65
510.42	44713.59
510.60	44584.86
510.77	45055.31
510.95	45598.32
511.12	44870.41
511.30	45027.23
511.47	45340.86
511.64	45586.61
511.82	45485.97
511.99	45612.36
512.17	46134.30
512.34	45937.69
512.51	46127.28
512.69	46085.15
512.86	46405.80
513.04	46309.84
513.21	46471.34
513.38	46550.91
513.56	46836.46
513.73	46742.84
513.90	46836.46
514.08	46679.64
514.25	47192.22
514.43	46986.25
514.60	47688.42
514.77	47283.50
514.95	47608.84
515.12	47143.07
515.29	47599.47
515.47	47941.19
515.64	47735.23
515.81	48030.13
515.99	48163.54
516.16	48289.93
516.33	48090.99
516.51	48332.06
516.68	48432.71
516.85	48172.91
517.03	48910.17
517.20	49017.84
517.37	48376.53
517.54	48598.88
517.72	48844.64
517.89	48891.45
518.06	48933.58
518.24	48835.28
518.41	49198.06
518.58	49507.01
518.75	48989.75
518.93	49542.12
519.10	49645.10
519.27	49661.49
519.45	49698.94
519.62	49855.75
519.79	50000.86
519.96	49958.73
520.14	49956.39
520.31	50099.17
520.48	50480.67
520.65	50422.16
520.83	50595.36
521.00	50541.53
521.17	50054.70
521.34	50263.00
521.52	50586.00
521.69	50569.61
521.86	50422.16
522.03	51129.00
522.20	51044.74
522.38	51367.74
522.55	51267.09
522.72	50904.31
522.89	51704.77
523.07	51587.75
523.24	51096.24
523.41	51744.56
523.58	51192.20
523.75	51650.94
523.92	51796.06
524.10	51742.22
524.27	52191.61
524.44	51980.96
524.61	51812.44
524.78	51943.51
524.96	51934.15
525.13	52086.28
525.30	52060.54
525.47	52420.98
525.64	52353.10
525.81	52640.99
525.98	52694.82
526.16	52282.89
526.33	52671.42
526.50	52959.30
526.67	52659.71
526.84	52479.49
527.01	52720.57
527.18	52853.98
527.36	52921.85
527.53	52807.17
527.70	53621.67
527.87	53188.67
528.04	53272.93
528.21	53193.36
528.38	53263.57
528.55	53544.44
528.72	53579.54
528.89	53221.44
529.07	53450.81
529.24	53621.67
529.41	53490.60
529.58	53602.95
529.75	53719.98
529.92	54021.90
530.09	53787.85
530.26	53654.44
530.43	54068.72
530.60	53666.14
530.77	53956.37
530.94	53874.45
531.11	54019.56
531.28	54206.81
531.46	54038.29
531.63	54096.80
531.80	54244.26
531.97	54391.71
532.14	54370.64
532.31	54326.17
532.48	54321.49
532.65	54485.33
532.82	54487.67
532.99	54504.06
533.16	54436.18
533.33	54695.98
533.50	54855.14
533.67	54618.74
533.84	54717.04
534.01	54873.86
534.18	54705.34
534.35	55114.94
534.52	54972.16
534.69	54976.84
534.86	55171.11
535.03	55215.58
535.20	54906.63
535.37	55290.48
535.54	55253.03
535.71	55281.11
535.88	55276.43
536.05	55416.86
536.22	55695.39
536.38	55498.78
536.55	55372.39
536.72	55519.85
536.89	55536.23
537.06	55271.75
537.23	55473.04
537.40	55231.96
537.57	55749.22
537.74	55538.57
537.91	56011.36
538.08	55882.63
538.25	55660.28
538.42	55901.36
538.59	56161.15
538.75	55800.71
538.92	56147.11
539.09	56081.58
539.26	55985.61
539.43	56196.26
539.60	55955.19
539.77	56203.28
539.94	56451.38
540.11	56100.30
540.28	56530.96
540.44	56449.04
540.61	56334.35
540.78	56196.26
540.95	56439.68
541.12	56353.08
541.29	56315.63
541.46	56378.82
541.62	56488.83
541.79	56601.18
541.96	56362.44
542.13	56486.49
542.30	56608.20
542.47	56706.50
542.63	56809.48
542.80	56786.08
542.97	56821.19
543.14	57198.01
543.31	57148.86
543.48	57289.29
543.64	57293.97
543.81	57174.61
543.98	57078.64
544.15	57263.55
544.32	57490.58
544.48	57553.77
544.65	57298.65
544.82	57305.68
544.99	57223.76
545.16	57584.20
545.32	57298.65
545.49	57659.10
545.66	57694.21
545.83	57785.49
546.00	57743.36
546.16	57759.74
546.33	57439.09
546.50	57322.06
546.67	57556.11
546.83	57408.66
547.00	57558.45
547.17	57607.61
547.34	57862.72
547.50	57844.00
547.67	58087.42
547.84	57895.49
548.00	57984.43
548.17	58085.07
548.34	57895.49
548.51	57984.43
548.67	58166.99
548.84	58113.16
549.01	58157.63
549.18	58131.89
549.34	58321.47
549.51	58269.98
549.68	58248.91
549.84	58185.72
550.01	58298.06
550.18	58164.65
550.34	58485.31
550.51	58335.51
550.68	58291.04
550.84	58354.24
551.01	58482.97
551.18	58497.01
551.34	58389.34
551.51	58410.41
551.68	58642.12
551.84	58468.92
552.01	58431.47
552.18	58489.99
552.34	58429.13
552.51	58759.15
552.68	58445.52
552.84	58436.16
553.01	58965.12
553.18	58759.15
553.34	58609.35
553.51	58752.13
553.67	58740.42
553.84	58908.94
554.01	58773.19
554.17	58939.37
554.34	58908.94
554.51	59140.66
554.67	58948.73
554.84	58756.81
555.00	58969.80
555.17	59140.66
555.33	59044.69
555.50	58766.17
555.67	58934.69
555.83	59154.70
556.00	59054.06
556.16	59082.14
556.33	59082.14
556.50	59348.96
556.66	59393.43
556.83	59042.35
556.99	59391.09
557.16	59498.76
557.32	59360.67
557.49	59503.44
557.65	59208.53
557.82	59318.54
557.98	59295.13
558.15	59477.69
558.32	59414.50
558.48	59433.22
558.65	59608.76
558.81	59416.84
558.98	59583.02
559.14	59561.95
559.31	59573.66
559.47	59475.35
559.64	59662.60
559.80	59805.37
559.97	59788.98
560.13	59662.60
560.30	59756.22
560.46	59667.28
560.63	59751.54
560.79	59618.13
560.96	59952.82
561.12	59793.67
561.29	59751.54
561.45	59721.11
561.61	59831.11
561.78	59838.14
561.94	59796.01
562.11	59901.33
562.27	59870.90
562.44	59936.44
562.60	59945.80
562.77	59934.10
562.93	59758.56
563.10	60116.66
563.26	59866.22
563.42	60278.16
563.59	59924.74
563.75	59917.71
563.92	60009.00
564.08	59976.23
564.24	60041.76
564.41	60027.72
564.57	60081.55
564.74	60238.37
564.90	60156.45
565.07	59913.03
565.23	60051.12
565.39	60030.06
565.56	60236.03
565.72	60013.68
565.88	60067.51
566.05	60006.65
566.21	60245.39
566.38	60170.49
566.54	60280.50
566.70	60308.58
566.87	60418.59
567.03	60027.72
567.19	60303.90
567.36	60196.24
567.52	60533.28
567.68	60360.08
567.85	60341.35
568.01	60271.14
568.17	60163.47
568.34	60200.92
568.50	60114.32
568.66	60367.10
568.83	60547.32
568.99	60114.32
569.15	60250.07
569.32	60301.56
569.48	60395.18
569.64	60507.53
569.81	60346.03
569.97	60229.01
570.13	60430.29
570.30	60282.84
570.46	60537.96
570.62	60446.68
570.78	60264.11
570.95	60413.91
571.11	60512.21
571.27	60500.51
571.43	60324.97
571.60	60441.99
571.76	60596.47
571.92	60547.32
572.09	60509.87
572.25	60381.14
572.41	60676.05
572.57	60500.51
572.74	60523.91
572.90	60617.53
573.06	60523.91
573.22	60523.91
573.38	60542.64
573.55	60467.74
573.71	60619.88
573.87	60846.91
574.03	60463.06
574.20	60809.46
574.36	60540.30
574.52	60582.43
574.68	60633.92
574.84	60807.12
575.01	60830.52
575.17	60769.67
575.33	60587.11
575.49	60636.26
575.65	60507.53
575.82	60542.64
575.98	60715.84
576.14	60924.14
576.30	61160.54
576.46	60575.40
576.62	60554.34
576.79	60750.94
576.95	60575.40
577.11	60900.74
577.27	60757.97
577.43	60823.50
577.59	60582.43
577.75	60624.56
577.92	60573.06
578.08	60886.70
578.24	60802.44
578.40	60912.44
578.56	60952.23
578.72	60774.35
578.88	60947.55
579.04	60973.30
579.21	60816.48
579.37	60926.49
579.53	61050.53
579.69	60690.09
579.85	60537.96
580.01	60788.39
580.17	60636.26
580.33	61029.47
580.49	61001.38
580.65	60949.89
580.82	60835.20
580.98	60999.04
581.14	60645.62
581.30	60893.72
581.46	60963.93
581.62	60858.61
581.78	60807.12
581.94	61017.77
582.10	60769.67
582.26	60919.46
582.42	60769.67
582.58	60947.55
582.74	60912.44
582.90	60788.39
583.06	60863.29
583.22	60828.18
583.38	60917.12
583.54	60898.40
583.70	61048.19
583.86	60910.10
584.02	60898.40
584.18	61066.92
584.34	61083.30
584.50	61006.06
584.66	60889.04
584.82	60776.69
584.98	60942.87
585.14	61207.35
585.30	60905.42
585.46	60961.59
585.62	61167.56
585.78	61052.87
585.94	61045.85
586.10	60973.30
586.26	60935.85
586.42	61155.86
586.58	61073.94
586.74	61066.92
586.90	61183.94
587.06	60905.42
587.22	60996.70
587.38	60959.25
587.54	61212.03
587.70	61275.22
587.86	61104.37
588.02	61073.94
588.18	61296.29
588.34	60846.91
588.49	60907.76
