SpectraSuite Data File
++++++++++++++++++++++++++++++++++++
Date: Fri Oct 25 10:43:43 EDT 2013
User: price-jones
Dark Spectrum Present: No
Reference Spectrum Present: No
Number of Sampled Component Spectra: 1
Spectrometers: USB2+H05261
Integration Time (usec): 100000 (USB2+H05261)
Spectra Averaged: 1 (USB2+H05261)
Boxcar Smoothing: 0 (USB2+H05261)
Correct for Electrical Dark: No (USB2+H05261)
Strobe/Lamp Enabled: No (USB2+H05261)
Correct for Detector Non-linearity: No (USB2+H05261)
Correct for Stray Light: No (USB2+H05261)
Number of Pixels in Processed Spectrum: 2048
>>>>>Begin Processed Spectral Data<<<<<
365.73	187.24
365.92	187.24
366.12	187.24
366.32	32.77
366.52	60.85
366.72	93.62
366.91	7.02
367.11	0.00
367.31	21.06
367.51	18.72
367.70	0.00
367.90	58.51
368.10	56.17
368.30	0.00
368.49	0.00
368.69	86.60
368.89	86.60
369.09	42.13
369.28	46.81
369.48	70.22
369.68	98.30
369.87	133.41
370.07	21.06
370.27	140.43
370.47	196.60
370.66	381.51
370.86	386.19
371.06	369.80
371.25	447.04
371.45	472.79
371.65	479.81
371.84	393.21
372.04	454.06
372.24	411.93
372.44	486.83
372.63	535.98
372.83	428.32
373.03	442.36
373.22	484.49
373.42	589.82
373.62	505.56
373.81	521.94
374.01	573.43
374.21	519.60
374.40	538.32
374.60	629.60
374.79	599.18
374.99	531.30
375.19	610.88
375.38	599.18
375.58	601.52
375.78	638.97
375.97	608.54
376.17	578.11
376.37	559.39
376.56	610.88
376.76	613.22
376.95	606.20
377.15	671.73
377.35	655.35
377.54	664.71
377.74	634.29
377.93	727.91
378.13	603.86
378.33	653.01
378.52	664.71
378.72	667.05
378.91	678.76
379.11	648.33
379.31	587.47
379.50	610.88
379.70	664.71
379.89	709.18
380.09	692.80
380.28	727.91
380.48	755.99
380.68	660.03
380.87	723.23
381.07	653.01
381.26	657.69
381.46	741.95
381.65	737.27
381.85	657.69
382.04	645.99
382.24	739.61
382.43	690.46
382.63	636.63
382.83	667.05
383.02	763.01
383.22	692.80
383.41	671.73
383.61	683.44
383.80	821.53
384.00	741.95
384.19	688.12
384.39	908.13
384.58	924.51
384.78	809.83
384.97	856.64
385.17	800.46
385.36	765.36
385.56	744.29
385.75	744.29
385.95	816.85
386.14	880.04
386.34	833.23
386.53	882.38
386.72	837.91
386.92	875.36
387.11	910.47
387.31	894.08
387.50	788.76
387.70	915.15
387.89	793.44
388.09	856.64
388.28	870.68
388.48	833.23
388.67	952.60
388.86	896.43
389.06	919.83
389.25	957.28
389.45	1088.35
389.64	915.15
389.84	933.87
390.03	992.39
390.22	1015.79
390.42	1027.50
390.61	915.15
390.81	990.05
391.00	1043.88
391.19	1027.50
391.39	1050.90
391.58	1088.35
391.78	1095.37
391.97	1067.28
392.16	1125.80
392.36	1090.69
392.55	945.58
392.75	1039.20
392.94	1050.90
393.13	966.64
393.33	1032.18
393.52	1036.86
393.71	1069.62
393.91	1151.54
394.10	1076.65
394.29	1069.62
394.49	1172.61
394.68	1193.67
394.88	1156.22
395.07	1249.85
395.26	1231.12
395.46	1226.44
395.65	1266.23
395.84	1263.89
396.04	1205.38
396.23	1170.27
396.42	1167.93
396.62	1146.86
396.81	1153.88
397.00	1153.88
397.19	1313.04
397.39	1397.30
397.58	1362.19
397.77	1385.60
397.97	1483.90
398.16	1479.22
398.35	1519.01
398.55	1519.01
398.74	1495.60
398.93	1591.56
399.12	1563.48
399.32	1425.39
399.51	1474.54
399.70	1530.71
399.90	1507.30
400.09	1511.99
400.28	1636.03
400.47	1568.16
400.67	1682.85
400.86	1671.14
401.05	1708.59
401.24	1732.00
401.44	1696.89
401.63	1769.44
401.82	1795.19
402.01	1643.06
402.21	1715.61
402.40	1802.21
402.59	1727.32
402.78	1708.59
402.97	1703.91
403.17	1790.51
403.36	1741.36
403.55	1739.02
403.74	1877.11
403.93	1858.39
404.13	1952.01
404.32	1811.57
404.51	1837.32
404.70	1905.20
404.89	1933.28
405.09	1998.82
405.28	1954.35
405.47	1944.99
405.66	2076.06
405.85	1970.73
406.05	2064.35
406.24	1935.62
406.43	1975.41
406.62	2087.76
406.81	2237.55
407.00	2169.68
407.20	2092.44
407.39	2101.80
407.58	2111.16
407.77	2265.64
407.96	2141.59
408.15	2165.00
408.34	2251.60
408.54	2429.48
408.73	2340.54
408.92	2253.94
409.11	2291.38
409.30	2345.22
409.49	2275.00
409.68	2272.66
409.87	2303.09
410.07	2277.34
410.26	2286.70
410.45	2375.64
410.64	2415.43
410.83	2600.34
411.02	2495.01
411.21	2553.52
411.40	2675.23
411.59	2502.03
411.78	2525.44
411.98	2593.31
412.17	2558.21
412.36	2614.38
412.55	2628.42
412.74	2729.06
412.93	2703.32
413.12	2649.49
413.31	2750.13
413.50	2771.19
413.69	2839.07
413.88	2883.54
414.07	2956.10
414.26	2991.20
414.45	2930.35
414.64	2853.11
414.83	3054.40
415.02	2902.26
415.22	2988.86
415.41	3021.63
415.60	3171.43
415.79	3084.83
415.98	3272.07
416.17	3330.58
416.36	3190.15
416.55	3438.25
416.74	3213.56
416.93	3178.45
417.12	3232.28
417.31	3197.17
417.50	3314.20
417.69	3372.71
417.88	3358.67
418.07	3318.88
418.26	3407.82
418.45	3506.12
418.64	3520.17
418.83	3634.85
419.02	3513.14
419.21	3599.74
419.39	3719.11
419.58	3599.74
419.77	3566.98
419.96	3709.75
420.15	3684.00
420.34	3730.81
420.53	3709.75
420.72	3878.27
420.91	3899.33
421.10	3716.77
421.29	3801.03
421.48	3623.15
421.67	3772.94
421.86	3749.54
422.05	3871.25
422.24	3777.62
422.43	3660.60
422.61	3801.03
422.80	4004.66
422.99	3878.27
423.18	3948.48
423.37	3939.12
423.56	3831.46
423.75	3840.82
423.94	3824.44
424.13	3691.02
424.32	3758.90
424.50	4044.45
424.69	3997.64
424.88	4025.72
425.07	3875.93
425.26	3789.33
425.45	3770.60
425.64	3971.89
425.83	3929.76
426.01	4053.81
426.20	4004.66
426.39	4091.26
426.58	3939.12
426.77	3974.23
426.96	3995.29
427.15	3929.76
427.33	4095.94
427.52	4032.74
427.71	4077.21
427.90	4093.60
428.09	3969.55
428.28	4191.90
428.46	4177.86
428.65	4063.17
428.84	4255.09
429.03	4182.54
429.22	4053.81
429.40	4234.03
429.59	4205.94
429.78	4018.70
429.97	3981.25
430.16	4072.53
430.34	4194.24
430.53	4236.37
430.72	4049.13
430.91	4231.69
431.10	4299.56
431.28	4507.87
431.47	4547.66
431.66	4868.31
431.85	4606.17
432.03	4542.98
432.22	4643.62
432.41	4571.07
432.60	4734.90
432.79	4681.07
432.97	4922.15
433.16	4800.44
433.35	4620.22
433.54	4545.32
433.72	4667.03
433.91	4594.47
434.10	4821.50
434.28	4809.80
434.47	4851.93
434.66	4858.95
434.85	4894.06
435.03	5067.26
435.22	4840.23
435.41	5135.14
435.59	5085.98
435.78	4971.30
435.97	5158.54
436.16	5085.98
436.34	5060.24
436.53	5158.54
436.72	5210.03
436.90	5167.90
437.09	5254.50
437.28	5151.52
437.46	5287.27
437.65	5167.90
437.84	5193.65
438.02	5085.98
438.21	5200.67
438.40	5160.88
438.58	5273.23
438.77	5378.55
438.96	5305.99
439.14	5633.67
439.33	5603.24
439.52	5511.96
439.70	5612.60
439.89	5530.69
440.08	5675.80
440.26	5799.85
440.45	5703.89
440.63	5799.85
440.82	5991.77
441.01	5937.94
441.19	5804.53
441.38	6038.58
441.57	6197.74
441.75	6232.85
441.94	6274.98
442.12	6293.70
442.31	6436.47
442.50	6258.59
442.68	6291.36
442.87	6202.42
443.05	6387.32
443.24	6462.22
443.43	6485.62
443.61	6366.26
443.80	6593.29
443.98	6370.94
444.17	6270.30
444.35	6586.27
444.54	6595.63
444.73	6609.67
444.91	6368.60
445.10	6387.32
445.28	6258.59
445.47	6307.74
445.65	6296.04
445.84	6382.64
446.02	6401.37
446.21	6684.57
446.39	6551.16
446.58	6607.33
446.77	6583.93
446.95	6459.88
447.14	6792.23
447.32	6850.75
447.51	6649.46
447.69	6665.85
447.88	6820.32
448.06	6647.12
448.25	6810.96
448.43	6909.26
448.62	6773.51
448.80	6780.53
448.99	6787.55
449.17	6843.73
449.36	6895.22
449.54	6944.37
449.73	7033.31
449.91	6853.09
450.10	7068.42
450.28	7248.64
450.46	7166.72
450.65	7351.62
450.83	7007.56
451.02	7148.00
451.20	7138.63
451.39	7023.95
451.57	7213.53
451.76	7248.64
451.94	7091.82
452.13	7431.20
452.31	7133.95
452.49	7091.82
452.68	7070.76
452.86	7087.14
453.05	7236.94
453.23	7368.01
453.42	7300.13
453.60	7309.49
453.78	7435.88
453.97	7379.71
454.15	7435.88
454.34	7365.67
454.52	7536.52
454.70	7644.19
454.89	7485.03
455.07	7566.95
455.26	7683.98
455.44	7793.98
455.62	7754.19
455.81	7784.62
455.99	7641.85
456.17	7878.24
456.36	7868.88
456.54	7829.09
456.73	7854.84
456.91	7955.48
457.09	8021.02
457.28	8259.75
457.46	7976.55
457.64	8114.64
457.83	8018.68
458.01	8004.63
458.19	8243.37
458.38	8037.40
458.56	8308.90
458.74	8241.03
458.93	8163.79
459.11	8292.52
459.29	8315.92
459.48	8219.96
459.66	8250.39
459.84	8411.89
460.03	8613.17
460.21	8503.17
460.39	8533.59
460.57	8507.85
460.76	8643.60
460.94	8533.59
461.12	8662.32
461.31	8505.51
461.49	8702.11
461.67	8568.70
461.85	8777.01
462.04	8664.66
462.22	9200.65
462.40	8943.19
462.59	8868.29
462.77	8940.85
462.95	8922.12
463.13	8774.67
463.32	8842.54
463.50	8938.51
463.68	8971.27
463.86	9128.09
464.05	8926.80
464.23	8971.27
464.41	9069.58
464.59	8978.30
464.78	9352.78
464.96	8990.00
465.14	8896.38
465.32	9137.45
465.50	9207.67
465.69	9394.91
465.87	9048.51
466.05	9287.25
466.23	9259.16
466.41	9055.53
466.60	9322.35
466.78	9221.71
466.96	9125.75
467.14	9104.68
467.32	9514.28
467.51	9469.81
467.69	9277.88
467.87	9413.63
468.05	9563.43
468.23	9441.72
468.41	9575.13
468.60	9373.85
468.78	9453.42
468.96	9453.42
469.14	9848.97
469.32	9643.01
469.50	9631.30
469.69	9977.70
469.87	9881.74
470.05	9841.95
470.23	9858.34
470.41	9685.14
470.59	9980.04
470.77	9755.35
470.95	10104.09
471.14	10104.09
471.32	9956.64
471.50	10279.63
471.68	10401.34
471.86	10413.04
472.04	10377.94
472.22	10757.10
472.40	10223.46
472.58	10228.14
472.77	10408.36
472.95	10572.20
473.13	10810.93
473.31	10696.25
473.49	10619.01
473.67	10768.80
473.85	10682.20
474.03	11101.16
474.21	11101.16
474.39	11124.57
474.57	10967.75
474.75	11283.72
474.93	11351.60
475.12	11061.37
475.30	11108.18
475.48	11023.92
475.66	11363.30
475.84	11276.70
476.02	11370.32
476.20	11391.39
476.38	11517.78
476.56	12189.51
476.74	11779.92
476.92	11885.24
477.10	11992.90
477.28	11999.93
477.46	11908.65
477.64	12159.08
477.82	12360.37
478.00	12592.08
478.18	12484.42
478.36	12528.89
478.54	12482.08
478.72	12720.81
478.90	12816.77
479.08	13158.49
479.26	13289.56
479.44	13123.38
479.62	13294.24
479.80	13469.78
479.98	13247.43
480.16	13558.72
480.34	13851.29
480.52	13811.50
480.70	13540.00
480.88	13425.31
481.06	13769.37
481.24	13783.41
481.41	14251.52
481.59	14059.60
481.77	14132.15
481.95	14249.18
482.13	14384.93
482.31	14476.21
482.49	14738.35
482.67	14771.12
482.85	15075.39
483.03	15138.58
483.21	15428.81
483.39	15529.45
483.57	15417.11
483.74	15562.22
483.92	15882.88
484.10	15520.09
484.28	16002.24
484.46	16114.59
484.64	16276.09
484.82	16046.71
485.00	16018.63
485.18	16229.27
485.35	16416.52
485.53	16421.20
485.71	16121.61
485.89	16334.60
486.07	16491.41
486.25	16727.81
486.43	16744.19
486.61	17085.91
486.78	17118.68
486.96	17472.10
487.14	17507.21
487.32	17703.81
487.50	18057.23
487.68	18305.33
487.85	18469.17
488.03	18485.55
488.21	18466.83
488.39	18436.40
488.57	18675.13
488.75	18420.02
488.92	19005.15
489.10	19138.56
489.28	19176.01
489.46	19623.05
489.64	19864.13
489.81	20046.69
489.99	20421.17
490.17	20292.44
490.35	20500.75
490.53	20123.93
490.70	20456.28
490.88	20418.83
491.06	20606.08
491.24	20783.96
491.41	20556.93
491.59	20692.68
491.77	21006.31
491.95	21235.68
492.13	21362.07
492.30	21734.21
492.48	21364.41
492.66	21565.70
492.84	21858.26
493.01	22143.81
493.19	22162.53
493.37	22263.18
493.54	22401.27
493.72	22384.88
493.90	22497.23
494.08	22712.56
494.25	23365.57
494.43	23260.24
494.61	23447.49
494.79	23459.19
494.96	23477.91
495.14	23328.12
495.32	23658.14
495.49	23388.97
495.67	24196.46
495.85	23990.49
496.02	24353.27
496.20	24720.74
496.38	24357.96
496.55	24252.63
496.73	25088.20
496.91	24746.48
497.09	24765.21
497.26	24959.47
497.44	24966.49
497.62	25252.04
497.79	25067.14
497.97	25003.94
498.14	25394.81
498.32	25504.82
498.50	25591.42
498.67	25757.60
498.85	25813.77
499.03	25825.47
499.20	26340.39
499.38	26026.76
499.56	26319.32
499.73	26293.58
499.91	26562.74
500.08	26544.02
500.26	26031.44
500.44	26822.54
500.61	26567.42
500.79	26525.29
500.97	26815.52
501.14	27040.21
501.32	27098.72
501.49	27391.29
501.67	27239.15
501.84	27325.75
502.02	27503.64
502.20	27461.51
502.37	27742.37
502.55	27686.20
502.72	27920.25
502.90	28151.96
503.07	27875.78
503.25	28297.08
503.43	28116.86
503.60	27971.74
503.78	28173.03
503.95	28147.28
504.13	28416.44
504.30	28739.44
504.48	28512.41
504.65	28912.64
504.83	29280.10
505.01	29240.31
505.18	28835.40
505.36	29521.18
505.53	29266.06
505.71	29474.37
505.88	29497.77
506.06	29425.22
506.23	29766.93
506.41	29556.28
506.58	29949.50
506.76	29846.51
506.93	29940.13
507.11	30293.55
507.28	29811.40
507.46	29898.00
507.63	29790.34
507.81	29998.65
507.98	30057.16
508.16	30239.72
508.33	30609.53
508.50	30712.51
508.68	30569.74
508.85	30738.26
509.03	30986.35
509.20	30672.72
509.38	31023.80
509.55	31044.87
509.73	31314.03
509.90	31236.79
510.08	31145.51
510.25	31182.96
510.42	31243.81
510.60	31573.83
510.77	32098.11
510.95	32023.21
511.12	31770.43
511.30	32053.64
511.47	32067.68
511.64	31997.46
511.82	32247.90
511.99	32463.23
512.17	32603.66
512.34	32004.49
512.51	32486.64
512.69	32744.09
512.86	32992.19
513.04	32961.76
513.21	32891.55
513.38	32507.70
513.56	32889.21
513.73	32662.18
513.90	32767.50
514.08	32737.07
514.25	33146.67
514.43	33223.90
514.60	33305.82
514.77	33081.13
514.95	33729.46
515.12	33532.86
515.29	33656.90
515.47	33642.86
515.64	33998.62
515.81	34326.30
515.99	34164.80
516.16	34220.97
516.33	33544.56
516.51	33766.91
516.68	33076.45
516.85	33324.55
517.03	33530.51
517.20	33844.15
517.37	34593.12
517.54	34146.08
517.72	34286.51
517.89	34352.04
518.06	34092.24
518.24	34022.03
518.41	34195.23
518.58	34508.86
518.75	34525.24
518.93	34824.83
519.10	34862.28
519.27	35021.44
519.45	35030.80
519.62	35688.49
519.79	35264.85
519.96	35658.06
520.14	35601.89
520.31	34923.13
520.48	35159.53
520.65	35854.67
520.83	35957.65
521.00	35892.12
521.17	36004.46
521.34	35847.64
521.52	36100.42
521.69	35999.78
521.86	36144.89
522.03	35948.29
522.20	36821.31
522.38	36463.21
522.55	36650.45
522.72	36098.08
522.89	36292.35
523.07	36575.55
523.24	36486.61
523.41	37329.20
523.58	37170.05
523.75	37490.70
523.92	37450.91
524.10	36769.82
524.27	37500.06
524.44	37010.89
524.61	37528.15
524.78	37483.68
524.96	37179.41
525.13	37471.98
525.30	37621.77
525.47	38064.13
525.64	37263.67
525.81	37518.79
525.98	37710.71
526.16	37237.92
526.33	37195.79
526.50	36884.50
526.67	37174.73
526.84	37247.29
527.01	37326.86
527.18	37989.24
527.36	38295.85
527.53	38171.80
527.70	38387.13
527.87	38302.87
528.04	38054.77
528.21	38518.20
528.38	38349.68
528.55	38946.51
528.72	38707.78
528.89	38857.57
529.07	38925.45
529.24	39271.85
529.41	38665.65
529.58	39201.63
529.75	38443.30
529.92	39112.69
530.09	38937.15
530.26	39208.65
530.43	39772.72
530.60	38988.64
530.77	39147.80
530.94	39386.54
531.11	39721.23
531.28	39393.56
531.46	39416.96
531.63	39765.70
531.80	39580.80
531.97	39431.01
532.14	39152.48
532.31	38958.22
532.48	39489.52
532.65	39599.52
532.82	39817.19
532.99	39903.79
533.16	39161.84
533.33	39810.17
533.50	40299.34
533.67	40065.29
533.84	39840.60
534.01	40278.28
534.18	40203.38
534.35	40486.59
534.52	39950.60
534.69	40133.17
534.86	40467.86
535.03	40222.11
535.20	40783.83
535.37	41088.10
535.54	40823.62
535.71	40823.62
535.88	40657.45
536.05	40961.72
536.22	40697.24
536.38	40664.47
536.55	40760.43
536.72	41001.50
536.89	40418.71
537.06	40868.09
537.23	41237.90
537.40	40825.96
537.57	41092.79
537.74	41174.70
537.91	41591.32
538.08	41261.30
538.25	40931.29
538.42	41265.99
538.59	41095.13
538.75	41326.84
538.92	41312.80
539.09	41153.64
539.26	41558.55
539.43	41900.27
539.60	41633.45
539.77	41326.84
539.94	41757.50
540.11	41163.00
540.28	41387.69
540.44	41624.09
540.61	41315.14
540.78	41521.10
540.95	41354.93
541.12	41645.15
541.29	41474.29
541.46	41991.55
541.62	41628.77
541.79	41773.88
541.96	42082.83
542.13	41886.23
542.30	41902.61
542.47	42408.17
542.63	42199.86
542.80	42134.32
542.97	42883.30
543.14	42663.28
543.31	42426.89
543.48	42920.74
543.64	42906.70
543.81	42623.50
543.98	42995.64
544.15	42939.47
544.32	43210.97
544.48	43459.07
544.65	42852.87
544.82	42876.27
544.99	42527.53
545.16	42909.04
545.32	42403.49
545.49	43274.16
545.66	43320.98
545.83	43012.02
546.00	43269.48
546.16	43133.73
546.33	43585.46
546.50	42885.64
546.67	43264.80
546.83	43068.20
547.00	43159.48
547.17	43173.52
547.34	43161.82
547.50	43311.61
547.67	42939.47
547.84	43243.74
548.00	43880.36
548.17	43608.86
548.34	43758.66
548.51	43725.89
548.67	43985.69
548.84	43709.50
549.01	43821.85
549.18	43744.61
549.34	43784.40
549.51	43693.12
549.68	43730.57
549.84	44289.96
550.01	44261.87
550.18	43618.22
550.34	43885.04
550.51	43861.64
550.68	43873.34
550.84	43306.93
551.01	43992.71
551.18	44201.02
551.34	43931.86
551.51	44208.04
551.68	44222.08
551.84	44285.28
552.01	44030.16
552.18	44240.81
552.34	44250.17
552.51	43997.39
552.68	44580.18
552.84	44479.54
553.01	44217.40
553.18	44233.78
553.34	44334.43
553.51	44114.42
553.67	44435.07
553.84	44863.39
554.01	44509.97
554.17	45034.25
554.34	44755.72
554.51	44194.00
554.67	44921.90
554.84	44465.50
555.00	44575.50
555.17	44538.05
555.33	44776.79
555.50	45202.77
555.67	44910.20
555.83	44657.42
556.00	44575.50
556.16	45336.18
556.33	44980.42
556.50	45027.23
556.66	45179.36
556.83	44832.96
556.99	45315.11
557.16	45404.05
557.32	44704.23
557.49	45345.54
557.65	44835.30
557.82	45305.75
557.98	45031.91
558.15	45043.61
558.32	44978.07
558.48	45029.57
558.65	44608.27
558.81	45083.40
558.98	45256.60
559.14	45013.18
559.31	45006.16
559.47	44765.09
559.64	45111.49
559.80	45394.69
559.97	45209.79
560.13	45265.96
560.30	45237.87
560.46	45364.26
560.63	45471.93
560.79	45331.50
560.96	45474.27
561.12	45371.28
561.29	45198.09
561.45	45209.79
561.61	45595.98
561.78	45230.85
561.94	45326.81
562.11	45357.24
562.27	45310.43
562.44	45647.47
562.60	45525.76
562.77	45570.23
562.93	45387.67
563.10	45766.84
563.26	45308.09
563.42	45823.01
563.59	45188.72
563.75	45560.87
563.92	45848.75
564.08	45593.64
564.24	45923.65
564.41	45495.33
564.57	45500.01
564.74	45595.98
564.90	45413.41
565.07	45780.88
565.23	45815.99
565.39	45492.99
565.56	45930.67
565.72	45067.02
565.88	45469.59
566.05	45521.08
566.21	45553.85
566.38	46036.00
566.54	45823.01
566.70	45806.62
566.87	45848.75
567.03	45916.63
567.19	46155.36
567.36	46019.61
567.52	45584.27
567.68	46157.70
567.85	45649.81
568.01	45640.45
568.17	45801.94
568.34	46138.98
568.50	45694.28
568.66	45977.48
568.83	45858.12
568.99	45748.11
569.15	45340.86
569.32	45663.85
569.48	45846.41
569.64	45755.13
569.81	45301.07
569.97	45904.93
570.13	45820.67
570.30	45542.14
570.46	45235.53
570.62	45731.73
570.78	45443.84
570.95	45621.72
571.11	45968.12
571.27	45832.37
571.43	46021.95
571.60	45834.71
571.76	45755.13
571.92	45853.44
572.09	45998.55
572.25	45717.68
572.41	46120.26
572.57	45755.13
572.74	46199.83
572.90	45869.82
573.06	46099.19
573.22	45900.25
573.38	46279.41
573.55	45940.04
573.71	45951.74
573.87	46220.90
574.03	45958.76
574.20	45986.85
574.36	45925.99
574.52	45844.07
574.68	46445.59
574.84	46087.49
575.01	45612.36
575.17	45696.62
575.33	46256.01
575.49	45717.68
575.65	46447.93
575.82	46361.33
575.98	46073.45
576.14	45956.42
576.30	46274.73
576.46	46171.75
576.62	45799.60
576.79	45621.72
576.95	45659.17
577.11	45729.39
577.27	46445.59
577.43	46026.63
577.59	46040.68
577.75	45933.01
577.92	45991.53
578.08	45558.53
578.24	45593.64
578.40	45930.67
578.56	46061.74
578.72	46010.25
578.88	46155.36
579.04	46007.91
579.21	45865.14
579.37	45897.91
579.53	46141.32
579.69	45869.82
579.85	46188.13
580.01	46122.60
580.17	45918.97
580.33	46021.95
580.49	46263.03
580.65	46277.07
580.82	46071.10
580.98	45928.33
581.14	45940.04
581.30	46052.38
581.46	46312.18
581.62	45986.85
581.78	46073.45
581.94	46382.40
582.10	45933.01
582.26	46522.83
582.42	46270.05
582.58	46234.94
582.74	45610.02
582.90	46471.34
583.06	46770.93
583.22	46358.99
583.38	46335.59
583.54	45963.44
583.70	46637.51
583.86	46284.09
584.02	45954.08
584.18	46373.03
584.34	46033.66
584.50	46440.91
584.66	45993.87
584.82	46202.18
584.98	46234.94
585.14	45914.29
585.30	46356.65
585.46	45975.14
585.62	45886.20
585.78	46171.75
585.94	45600.66
586.10	45813.65
586.26	46007.91
586.42	46419.84
586.58	46351.97
586.74	46117.92
586.90	45640.45
587.06	46288.77
587.22	45986.85
587.38	46234.94
587.54	46431.55
587.70	46396.44
587.86	46263.03
588.02	45879.18
588.18	45904.93
588.34	46195.15
588.49	45682.58
588.65	45645.13
588.81	45483.63
588.97	45876.84
589.13	45745.77
589.29	45825.35
589.45	46096.85
589.61	45874.50
589.77	46550.91
589.93	46099.19
