SpectraSuite Data File
++++++++++++++++++++++++++++++++++++
Date: Fri Oct 25 10:43:21 EDT 2013
User: price-jones
Dark Spectrum Present: No
Reference Spectrum Present: No
Number of Sampled Component Spectra: 1
Spectrometers: USB2+H05261
Integration Time (usec): 100000 (USB2+H05261)
Spectra Averaged: 1 (USB2+H05261)
Boxcar Smoothing: 0 (USB2+H05261)
Correct for Electrical Dark: No (USB2+H05261)
Strobe/Lamp Enabled: No (USB2+H05261)
Correct for Detector Non-linearity: No (USB2+H05261)
Correct for Stray Light: No (USB2+H05261)
Number of Pixels in Processed Spectrum: 2048
>>>>>Begin Processed Spectral Data<<<<<
365.73	79.58
365.92	79.58
366.12	79.58
366.32	0.00
366.52	0.00
366.72	37.45
366.91	0.00
367.11	53.83
367.31	93.62
367.51	0.00
367.70	0.00
367.90	107.66
368.10	51.49
368.30	0.00
368.49	86.60
368.69	79.58
368.89	63.19
369.09	0.00
369.28	9.36
369.48	46.81
369.68	100.64
369.87	107.66
370.07	156.82
370.27	149.79
370.47	182.56
370.66	360.44
370.86	393.21
371.06	444.70
371.25	510.24
371.45	496.19
371.65	433.00
371.84	547.69
372.04	489.17
372.24	458.74
372.44	526.62
372.63	468.11
372.83	524.28
373.03	458.74
373.22	498.53
373.42	482.15
373.62	575.77
373.81	526.62
374.01	603.86
374.21	552.37
374.40	557.05
374.60	543.00
374.79	580.45
374.99	573.43
375.19	540.66
375.38	587.47
375.58	634.29
375.78	596.84
375.97	603.86
376.17	667.05
376.37	575.77
376.56	638.97
376.76	596.84
376.95	521.94
377.15	653.01
377.35	596.84
377.54	606.20
377.74	678.76
377.93	695.14
378.13	690.46
378.33	681.10
378.52	650.67
378.72	641.31
378.91	678.76
379.11	653.01
379.31	695.14
379.50	636.63
379.70	737.27
379.89	653.01
380.09	725.57
380.28	627.26
380.48	753.65
380.68	690.46
380.87	638.97
381.07	746.63
381.26	777.06
381.46	711.52
381.65	699.82
381.85	699.82
382.04	671.73
382.24	657.69
382.43	650.67
382.63	688.12
382.83	692.80
383.02	692.80
383.22	725.57
383.41	805.14
383.61	746.63
383.80	734.93
384.00	805.14
384.19	861.32
384.39	746.63
384.58	866.00
384.78	816.85
384.97	793.44
385.17	770.04
385.36	889.40
385.56	826.21
385.75	847.27
385.95	814.51
386.14	957.28
386.34	835.57
386.53	915.15
386.72	844.93
386.92	936.21
387.11	795.78
387.31	802.80
387.50	861.32
387.70	858.98
387.89	908.13
388.09	833.23
388.28	814.51
388.48	896.43
388.67	961.96
388.86	933.87
389.06	882.38
389.25	940.90
389.45	961.96
389.64	947.92
389.84	961.96
390.03	1095.37
390.22	1004.09
390.42	1020.47
390.61	999.41
390.81	983.02
391.00	997.07
391.19	1043.88
391.39	1013.45
391.58	1062.60
391.78	1111.75
391.97	1093.03
392.16	1071.97
392.36	1088.35
392.55	1046.22
392.75	952.60
392.94	1032.18
393.13	1006.43
393.33	1053.24
393.52	973.66
393.71	1097.71
393.91	1081.33
394.10	1132.82
394.29	1198.35
394.49	1167.93
394.68	1224.10
394.88	1217.08
395.07	1235.80
395.26	1200.69
395.46	1172.61
395.65	1184.31
395.84	1315.38
396.04	1294.32
396.23	1186.65
396.42	1193.67
396.62	1184.31
396.81	1228.78
397.00	1226.44
397.19	1210.06
397.39	1303.68
397.58	1420.71
397.77	1444.11
397.97	1404.32
398.16	1444.11
398.35	1521.35
398.55	1364.53
398.74	1509.65
398.93	1537.73
399.12	1547.09
399.32	1490.92
399.51	1535.39
399.70	1554.12
399.90	1561.14
400.09	1636.03
400.28	1591.56
400.47	1636.03
400.67	1706.25
400.86	1600.93
401.05	1753.06
401.24	1701.57
401.44	1706.25
401.63	1713.27
401.82	1774.13
402.01	1753.06
402.21	1778.81
402.40	1774.13
402.59	1715.61
402.78	1743.70
402.97	1844.34
403.17	1769.44
403.36	1886.47
403.55	1912.22
403.74	1785.83
403.93	1940.30
404.13	1827.96
404.32	1898.17
404.51	1877.11
404.70	1991.80
404.89	1874.77
405.09	1902.86
405.28	2019.88
405.47	2026.90
405.66	1975.41
405.85	1977.75
406.05	2054.99
406.24	2005.84
406.43	2087.76
406.62	2118.18
406.81	2176.70
407.00	1959.03
407.20	2026.90
407.39	2066.69
407.58	2172.02
407.77	2129.89
407.96	2169.68
408.15	2204.78
408.34	2293.72
408.54	2216.49
408.73	2359.26
408.92	2284.36
409.11	2190.74
409.30	2408.41
409.49	2214.15
409.68	2328.83
409.87	2256.28
410.07	2338.20
410.26	2366.28
410.45	2429.48
410.64	2438.84
410.83	2483.31
411.02	2548.84
411.21	2523.10
411.40	2572.25
411.59	2583.95
411.78	2686.94
411.98	2581.61
412.17	2583.95
412.36	2708.00
412.55	2789.92
412.74	2778.22
412.93	2654.17
413.12	2712.68
413.31	2902.26
413.50	2834.39
413.69	2946.73
413.88	2970.14
414.07	2977.16
414.26	3014.61
414.45	2855.45
414.64	2913.97
414.83	3260.37
415.02	3229.94
415.22	3096.53
415.41	3105.89
415.60	3068.44
415.79	3211.22
415.98	3325.90
416.17	3241.64
416.36	3206.53
416.55	3302.50
416.74	3213.56
416.93	3389.10
417.12	3187.81
417.31	3246.32
417.50	3253.34
417.69	3515.48
417.88	3492.08
418.07	3379.73
418.26	3473.36
418.45	3454.63
418.64	3623.15
418.83	3534.21
419.02	3597.40
419.21	3609.11
419.39	3597.40
419.58	3606.77
419.77	3538.89
419.96	3672.30
420.15	3676.98
420.34	3686.34
420.53	3679.32
420.72	3808.05
420.91	3906.35
421.10	3840.82
421.29	3857.20
421.48	3850.18
421.67	3784.65
421.86	3730.81
422.05	3843.16
422.24	3911.04
422.43	3819.75
422.61	3850.18
422.80	4002.32
422.99	4018.70
423.18	3969.55
423.37	3988.27
423.56	3899.33
423.75	3941.46
423.94	3808.05
424.13	3723.79
424.32	3772.94
424.50	4065.51
424.69	4051.47
424.88	3988.27
425.07	3953.16
425.26	3840.82
425.45	3878.27
425.64	3929.76
425.83	3889.97
426.01	4074.87
426.20	3957.85
426.39	4102.96
426.58	3990.61
426.77	3974.23
426.96	4037.42
427.15	3962.53
427.33	3995.29
427.52	4095.94
427.71	4035.08
427.90	4074.87
428.09	4121.68
428.28	4208.28
428.46	4205.94
428.65	4135.73
428.84	4320.63
429.03	4367.44
429.22	4117.00
429.40	4191.90
429.59	4205.94
429.78	3974.23
429.97	3955.51
430.16	3943.80
430.34	4046.79
430.53	4138.07
430.72	4175.52
430.91	4222.33
431.10	4301.90
431.28	4620.22
431.47	4631.92
431.66	4671.71
431.85	4627.24
432.03	4617.88
432.22	4718.52
432.41	4589.79
432.60	4643.62
432.79	4737.24
432.97	4819.16
433.16	4739.58
433.35	4798.10
433.54	4692.77
433.72	4660.01
433.91	4596.81
434.10	4851.93
434.28	4896.40
434.47	4854.27
434.66	4863.63
434.85	5036.83
435.03	4865.97
435.22	4880.02
435.41	5109.39
435.59	5135.14
435.78	5067.26
435.97	5231.10
436.16	5060.24
436.34	5245.14
436.53	5088.32
436.72	5186.63
436.90	5093.01
437.09	5188.97
437.28	5100.03
437.46	5160.88
437.65	5184.29
437.84	5179.61
438.02	5137.48
438.21	5261.52
438.40	5275.57
438.58	5310.68
438.77	5434.72
438.96	5544.73
439.14	5692.18
439.33	5717.93
439.52	5703.89
439.70	5678.14
439.89	5710.91
440.08	5703.89
440.26	5710.91
440.45	5668.78
440.63	5914.53
440.82	6087.73
441.01	5760.06
441.19	5921.56
441.38	6204.76
441.57	6162.63
441.75	6190.72
441.94	6242.21
442.12	6146.25
442.31	6249.23
442.50	6239.87
442.68	6511.37
442.87	6244.55
443.05	6363.92
443.24	6502.01
443.43	6429.45
443.61	6553.50
443.80	6576.91
443.98	6459.88
444.17	6291.36
444.35	6462.22
444.54	6707.98
444.73	6574.56
444.91	6473.92
445.10	6532.44
445.28	6424.77
445.47	6314.77
445.65	6422.43
445.84	6328.81
446.02	6576.91
446.21	6600.31
446.39	6499.67
446.58	6658.82
446.77	6745.42
446.95	6628.40
447.14	6719.68
447.32	6796.92
447.51	6562.86
447.69	6731.38
447.88	6647.12
448.06	6647.12
448.25	6743.08
448.43	6740.74
448.62	6815.64
448.80	6682.23
448.99	6885.86
449.17	6846.07
449.36	6808.62
449.54	6920.96
449.73	7059.06
449.91	7108.21
450.10	7183.10
450.28	7346.94
450.46	7035.65
450.65	7332.90
450.83	7346.94
451.02	7250.98
451.20	7410.14
451.39	7379.71
451.57	7222.89
451.76	7255.66
451.94	7321.20
452.13	7290.77
452.31	7218.21
452.49	7122.25
452.68	7148.00
452.86	7232.26
453.05	7309.49
453.23	7440.56
453.42	7194.81
453.60	7419.50
453.78	7613.76
453.97	7370.35
454.15	7478.01
454.34	7370.35
454.52	7590.36
454.70	7501.42
454.89	7375.03
455.07	7538.87
455.26	7705.04
455.44	7627.81
455.62	7840.79
455.81	7784.62
455.99	7939.10
456.17	7864.20
456.36	7925.05
456.54	8013.99
456.73	8091.23
456.91	8327.63
457.09	8194.22
457.28	8210.60
457.46	8032.72
457.64	8116.98
457.83	7995.27
458.01	8105.28
458.19	8505.51
458.38	8166.13
458.56	8194.22
458.74	8215.28
458.93	8210.60
459.11	8243.37
459.29	8273.79
459.48	8336.99
459.66	8505.51
459.84	8472.74
460.03	8610.83
460.21	8437.63
460.39	8582.74
460.57	8503.17
460.76	8414.23
460.94	8854.25
461.12	8734.88
461.31	8603.81
461.49	8788.71
461.67	8830.84
461.85	8905.74
462.04	8868.29
462.22	9465.13
462.40	8971.27
462.59	8945.53
462.77	8884.67
462.95	8805.10
463.13	8919.78
463.32	8863.61
463.50	9060.21
463.68	8938.51
463.86	9027.45
464.05	8854.25
464.23	8826.16
464.41	9135.11
464.59	9046.17
464.78	9317.67
464.96	9022.77
465.14	9095.32
465.32	9224.05
465.50	9348.10
465.69	9139.79
465.87	9362.14
466.05	9289.59
466.23	9151.49
466.41	9200.65
466.60	9320.01
466.78	9352.78
466.96	9219.37
467.14	9554.07
467.32	9284.91
467.51	9352.78
467.69	9397.25
467.87	9533.00
468.05	9383.21
468.23	9298.95
468.41	9404.27
468.60	9687.48
468.78	9624.28
468.96	9633.64
469.14	9774.08
469.32	9877.06
469.50	9495.55
469.69	9783.44
469.87	9783.44
470.05	9844.29
470.23	9832.59
470.41	9804.50
470.59	9984.73
470.77	9921.53
470.95	10059.62
471.14	10029.20
471.32	9832.59
471.50	10071.33
471.68	10480.92
471.86	10370.91
472.04	10427.09
472.22	10619.01
472.40	10249.21
472.58	10277.29
472.77	10431.77
472.95	10523.05
473.13	11012.22
473.31	10501.98
473.49	10916.26
473.67	10555.82
473.85	10890.51
474.03	10981.79
474.21	11049.67
474.39	11084.78
474.57	10846.04
474.75	11108.18
474.93	11463.94
475.12	11035.63
475.30	11346.92
475.48	11108.18
475.66	11419.47
475.84	11295.43
476.02	11538.84
476.20	11468.62
476.38	11520.12
476.56	12018.65
476.74	11903.96
476.92	11840.77
477.10	11714.38
477.28	12025.67
477.46	12016.31
477.64	12325.26
477.82	12306.54
478.00	12411.86
478.18	12514.84
478.36	12758.26
478.54	12643.57
478.72	13055.51
478.90	12973.59
479.08	13090.62
479.26	13224.03
479.44	13334.03
479.62	13177.22
479.80	13378.50
479.98	13422.97
480.16	13970.66
480.34	13444.04
480.52	13895.76
480.70	13757.67
480.88	13734.26
481.06	13757.67
481.24	14001.08
481.41	14057.26
481.59	14424.72
481.77	14427.06
481.95	14796.87
482.13	14824.95
482.31	14567.49
482.49	14951.34
482.67	14827.29
482.85	15225.18
483.03	15454.56
483.21	15243.91
483.39	15328.17
483.57	15508.39
483.74	15770.53
483.92	15459.24
484.10	15452.22
484.28	16163.74
484.46	15915.64
484.64	16362.69
484.82	16142.67
485.00	16175.44
485.18	16465.67
485.35	16739.51
485.53	16332.26
485.71	16222.25
485.89	16470.35
486.07	16578.01
486.25	16805.05
486.43	16769.94
486.61	16961.86
486.78	17097.61
486.96	17334.01
487.14	17701.47
487.32	17881.69
487.50	18075.96
487.68	18235.11
487.85	18698.54
488.03	18450.44
488.21	18497.25
488.39	18525.34
488.57	18743.01
488.75	18515.98
488.92	19171.33
489.10	19491.98
489.28	19424.11
489.46	19335.17
489.64	20006.90
489.81	20402.45
489.99	20147.33
490.17	20514.80
490.35	20692.68
490.53	20552.24
490.70	20725.44
490.88	20287.76
491.06	21186.53
491.24	20954.82
491.41	20613.10
491.59	20751.19
491.77	20748.85
491.95	20711.40
492.13	21364.41
492.30	21874.65
492.48	21736.56
492.66	21951.88
492.84	22008.06
493.01	22017.42
493.19	21949.54
493.37	22338.07
493.54	22801.50
493.72	22595.53
493.90	22389.56
494.08	23110.45
494.25	23218.11
494.43	23206.41
494.61	23515.36
494.79	23278.97
494.96	23475.57
495.14	23353.87
495.32	24034.96
495.49	23861.76
495.67	23924.96
495.85	24283.06
496.02	24144.97
496.20	24156.67
496.38	24423.49
496.55	24783.93
496.73	24961.81
496.91	24624.78
497.09	24774.57
497.26	25102.25
497.44	25202.89
497.62	25041.39
497.79	25486.09
497.97	25142.03
498.14	25617.16
498.32	25855.90
498.50	25769.30
498.67	25979.95
498.85	26263.15
499.03	26581.46
499.20	26216.34
499.38	26462.10
499.56	26434.01
499.73	26408.26
499.91	26450.39
500.08	26478.48
500.26	26113.36
500.44	26567.42
500.61	26923.18
500.79	26654.02
500.97	27007.44
501.14	27482.57
501.32	26799.13
501.49	27393.63
501.67	26981.70
501.84	27337.46
502.02	27229.79
502.20	27791.52
502.37	28084.09
502.55	27976.42
502.72	28238.56
502.90	27948.34
503.07	27517.68
503.25	27910.89
503.43	28388.36
503.60	28140.26
503.78	28233.88
503.95	28311.12
504.13	28315.80
504.30	28826.04
504.48	28535.81
504.65	29067.11
504.83	28760.50
505.01	29046.05
505.18	29446.28
505.36	29663.95
505.53	29394.79
505.71	29745.87
505.88	29902.68
506.06	29956.52
506.23	29219.25
506.41	29612.46
506.58	29830.13
506.76	29895.66
506.93	30113.33
507.11	30256.11
507.28	29970.56
507.46	30162.48
507.63	29961.20
507.81	30298.23
507.98	29748.21
508.16	30221.00
508.33	30548.67
508.50	30803.79
508.68	30848.26
508.85	31292.96
509.03	31056.57
509.20	31274.24
509.38	31398.29
509.55	31442.76
509.73	31285.94
509.90	31419.35
510.08	31229.77
510.25	31648.72
510.42	31653.40
510.60	31541.06
510.77	31981.08
510.95	32491.32
511.12	32013.85
511.30	32051.30
511.47	32416.42
511.64	32598.98
511.82	32428.12
511.99	32039.59
512.17	32910.27
512.34	32397.70
512.51	32809.63
512.69	32570.90
512.86	32655.15
513.04	32954.74
513.21	32985.17
513.38	32496.00
513.56	32713.67
513.73	32905.59
513.90	32701.96
514.08	32847.08
514.25	33277.74
514.43	33324.55
514.60	33195.82
514.77	33216.88
514.95	33464.98
515.12	33446.26
515.29	33914.36
515.47	33780.95
515.64	33993.94
515.81	34068.84
515.99	33977.56
516.16	33654.56
516.33	33535.20
516.51	34033.73
516.68	33392.42
516.85	33315.19
517.03	33425.19
517.20	33682.65
517.37	33883.94
517.54	34937.18
517.72	34174.16
517.89	33844.15
518.06	33876.91
518.24	34270.12
518.41	34345.02
518.58	34775.68
518.75	34569.71
518.93	34679.72
519.10	34525.24
519.27	34944.20
519.45	35009.73
519.62	35592.53
519.79	35639.34
519.96	35318.68
520.14	35426.35
520.31	34904.41
520.48	35260.17
520.65	35613.59
520.83	36304.05
521.00	35730.62
521.17	35910.84
521.34	36486.61
521.52	35962.33
521.69	36231.49
521.86	35690.83
522.03	36584.91
522.20	36177.66
522.38	36524.06
522.55	36610.66
522.72	36577.89
522.89	36605.98
523.07	36510.02
523.24	36795.56
523.41	36744.07
523.58	37104.51
523.75	37254.31
523.92	36645.77
524.10	37216.86
524.27	36994.51
524.44	36954.72
524.61	37179.41
524.78	37371.33
524.96	37713.05
525.13	37736.46
525.30	37841.78
525.47	37893.27
525.64	37589.00
525.81	37607.73
525.98	37528.15
526.16	37415.80
526.33	37347.93
526.50	37574.96
526.67	36950.04
526.84	37415.80
527.01	37521.13
527.18	37809.01
527.36	37954.13
527.53	37982.21
527.70	38548.62
527.87	38459.68
528.04	38234.99
528.21	38139.03
528.38	38607.14
528.55	38623.52
528.72	38710.12
528.89	39098.65
529.07	38742.89
529.24	38738.21
529.41	39072.90
529.58	38609.48
529.75	38925.45
529.92	39126.74
530.09	38972.26
530.26	39255.46
530.43	39105.67
530.60	38899.70
530.77	38983.96
530.94	39484.84
531.11	39257.81
531.28	39580.80
531.46	39391.22
531.63	39583.14
531.80	39555.05
531.97	39643.99
532.14	39576.12
532.31	39278.87
532.48	39643.99
532.65	39580.80
532.82	39828.90
532.99	40219.77
533.16	39615.91
533.33	39718.89
533.50	40292.32
533.67	40123.80
533.84	39754.00
534.01	40130.83
534.18	39952.94
534.35	40381.26
534.52	40311.05
534.69	40109.76
534.86	40730.00
535.03	40306.37
535.20	40753.41
535.37	41060.02
535.54	40423.39
535.71	40774.47
535.88	40367.22
536.05	40320.41
536.22	40924.27
536.38	40676.17
536.55	40360.20
536.72	40430.41
536.89	40355.52
537.06	40807.24
537.23	41200.45
537.40	40945.33
537.57	41024.91
537.74	41116.19
537.91	41666.22
538.08	41549.19
538.25	40898.52
538.42	41359.61
538.59	41221.52
538.75	40985.12
538.92	41132.57
539.09	41308.11
539.26	41322.16
539.43	41511.74
539.60	41209.81
539.77	41422.80
539.94	41453.23
540.11	41523.44
540.28	41521.10
540.44	41581.96
540.61	41762.18
540.78	41605.36
540.95	41558.55
541.12	41790.27
541.29	41387.69
541.46	41993.89
541.62	42089.85
541.79	42115.60
541.96	41691.96
542.13	41841.76
542.30	42342.63
542.47	42129.64
542.63	42047.72
542.80	42068.79
542.97	42433.91
543.14	42380.08
543.31	42181.13
543.48	42548.60
543.64	43199.27
543.81	42637.54
543.98	42511.15
544.15	43016.71
544.32	42972.24
544.48	43398.21
544.65	43077.56
544.82	42770.95
544.99	42246.67
545.16	42792.01
545.32	42438.59
545.49	43379.49
545.66	43339.70
545.83	43433.32
546.00	43147.78
546.16	43384.17
546.33	42721.80
546.50	42806.06
546.67	43056.50
546.83	43105.65
547.00	42979.26
547.17	43313.95
547.34	43292.89
547.50	43075.22
547.67	43126.71
547.84	43807.81
548.00	43723.55
548.17	43810.15
548.34	43683.76
548.51	43618.22
548.67	43597.16
548.84	43629.93
549.01	43222.67
549.18	43676.74
549.34	43660.35
549.51	44037.18
549.68	43590.14
549.84	44306.34
550.01	44231.44
550.18	43739.93
550.34	43871.00
550.51	43761.00
550.68	43969.30
550.84	43746.95
551.01	44144.84
551.18	43456.73
551.34	43824.19
551.51	43807.81
551.68	44355.49
551.84	44219.74
552.01	44025.48
552.18	44294.64
552.34	43892.07
552.51	44308.68
552.68	44362.51
552.84	44545.08
553.01	44430.39
553.18	44261.87
553.34	44201.02
553.51	44268.89
553.67	44666.78
553.84	44779.13
554.01	44858.71
554.17	44905.52
554.34	44474.86
554.51	44987.44
554.67	44999.14
554.84	44224.42
555.00	44271.23
555.17	44488.90
555.33	44739.34
555.50	44863.39
555.67	44893.82
555.83	44603.59
556.00	44720.62
556.16	44804.88
556.33	44718.28
556.50	45071.70
556.66	44662.10
556.83	44542.74
556.99	44360.17
557.16	45177.02
557.32	44949.99
557.49	45380.65
557.65	44552.10
557.82	44657.42
557.98	44704.23
558.15	44952.33
558.32	45420.44
558.48	44818.92
558.65	45324.47
558.81	44631.68
558.98	45141.91
559.14	45034.25
559.31	45008.50
559.47	44961.69
559.64	45256.60
559.80	45326.81
559.97	45261.28
560.13	44526.35
560.30	45324.47
560.46	45254.26
560.63	45280.00
560.79	45502.35
560.96	45399.37
561.12	45174.68
561.29	45083.40
561.45	45235.53
561.61	45181.70
561.78	45382.99
561.94	45308.09
562.11	45352.56
562.27	45343.20
562.44	45483.63
562.60	45455.54
562.77	45464.91
562.93	45205.11
563.10	45631.08
563.26	45408.73
563.42	45436.82
563.59	45776.20
563.75	45691.94
563.92	45635.77
564.08	45326.81
564.24	45811.31
564.41	45326.81
564.57	45401.71
564.74	45296.39
564.90	45523.42
565.07	45832.37
565.23	45654.49
565.39	45797.26
565.56	45823.01
565.72	45312.77
565.88	45696.62
566.05	45408.73
566.21	45490.65
566.38	45364.26
566.54	45956.42
566.70	45839.39
566.87	45694.28
567.03	45640.45
567.19	46167.07
567.36	46160.05
567.52	45610.02
567.68	45635.77
567.85	45284.68
568.01	46075.79
568.17	45848.75
568.34	45996.21
568.50	45750.45
568.66	45581.93
568.83	45942.38
568.99	45385.33
569.15	46010.25
569.32	45689.60
569.48	45429.80
569.64	45930.67
569.81	45741.09
569.97	46036.00
570.13	45729.39
570.30	45542.14
570.46	45577.25
570.62	45261.28
570.78	45504.70
570.95	45572.57
571.11	45687.26
571.27	45638.11
571.43	45659.17
571.60	46021.95
571.76	45411.07
571.92	45823.01
572.09	46080.47
572.25	46358.99
572.41	46073.45
572.57	45750.45
572.74	46354.31
572.90	45972.80
573.06	46288.77
573.22	46230.26
573.38	45874.50
573.55	45659.17
573.71	46515.81
573.87	46122.60
574.03	45691.94
574.20	45797.26
574.36	45750.45
574.52	45940.04
574.68	46003.23
574.84	45998.55
575.01	45595.98
575.17	45806.62
575.33	45422.78
575.49	45841.73
575.65	45839.39
575.82	46026.63
575.98	45867.48
576.14	46134.30
576.30	46295.80
576.46	45909.61
576.62	45645.13
576.79	46087.49
576.95	45954.08
577.11	46398.78
577.27	46061.74
577.43	45811.31
577.59	45904.93
577.75	45785.56
577.92	45563.21
578.08	45581.93
578.24	45682.58
578.40	45811.31
578.56	45808.96
578.72	45425.12
578.88	46028.98
579.04	46146.00
579.21	46019.61
579.37	46089.83
579.53	45975.14
579.69	45542.14
579.85	45724.71
580.01	45930.67
580.17	45935.35
580.33	46195.15
580.49	46188.13
580.65	46045.36
580.82	46010.25
580.98	46059.40
581.14	46174.09
581.30	46099.19
581.46	45975.14
581.62	45801.94
581.78	45958.76
581.94	46567.30
582.10	46288.77
582.26	46209.20
582.42	46246.65
582.58	45862.80
582.74	45801.94
582.90	46052.38
583.06	46038.34
583.22	45947.06
583.38	46319.20
583.54	46267.71
583.70	45872.16
583.86	46103.87
584.02	45497.67
584.18	45979.82
584.34	46071.10
584.50	46146.00
584.66	46155.36
584.82	46178.77
584.98	46061.74
585.14	46274.73
585.30	46136.64
585.46	46160.05
585.62	45579.59
585.78	46150.68
585.94	46134.30
586.10	46082.81
586.26	45867.48
586.42	46050.04
586.58	46419.84
586.74	46155.36
586.90	45991.53
587.06	46033.66
587.22	46171.75
587.38	45844.07
587.54	45998.55
587.70	46461.97
587.86	46204.52
588.02	45947.06
588.18	46188.13
588.34	45968.12
588.49	45654.49
588.65	45635.77
588.81	45478.95
588.97	45993.87
589.13	45577.25
589.29	45717.68
589.45	46225.58
589.61	46010.25
589.77	46405.80
589.93	46047.70
590.08	46492.40
