SpectraSuite Data File
++++++++++++++++++++++++++++++++++++
Date: Fri Oct 25 10:43:36 EDT 2013
User: price-jones
Dark Spectrum Present: No
Reference Spectrum Present: No
Number of Sampled Component Spectra: 1
Spectrometers: USB2+H05261
Integration Time (usec): 100000 (USB2+H05261)
Spectra Averaged: 1 (USB2+H05261)
Boxcar Smoothing: 0 (USB2+H05261)
Correct for Electrical Dark: No (USB2+H05261)
Strobe/Lamp Enabled: No (USB2+H05261)
Correct for Detector Non-linearity: No (USB2+H05261)
Correct for Stray Light: No (USB2+H05261)
Number of Pixels in Processed Spectrum: 2048
>>>>>Begin Processed Spectral Data<<<<<
365.73	58.51
365.92	58.51
366.12	58.51
366.32	88.94
366.52	32.77
366.72	107.66
366.91	0.00
367.11	7.02
367.31	14.04
367.51	16.38
367.70	0.00
367.90	35.11
368.10	67.88
368.30	53.83
368.49	58.51
368.69	35.11
368.89	9.36
369.09	18.72
369.28	107.66
369.48	53.83
369.68	72.56
369.87	63.19
370.07	121.71
370.27	145.11
370.47	159.16
370.66	355.76
370.86	500.87
371.06	402.57
371.25	486.83
371.45	437.68
371.65	470.45
371.84	454.06
372.04	440.02
372.24	442.36
372.44	367.46
372.63	489.17
372.83	484.49
373.03	519.60
373.22	491.51
373.42	517.26
373.62	575.77
373.81	610.88
374.01	540.66
374.21	615.56
374.40	566.41
374.60	559.39
374.79	566.41
374.99	580.45
375.19	613.22
375.38	601.52
375.58	643.65
375.78	554.71
375.97	592.16
376.17	634.29
376.37	606.20
376.56	592.16
376.76	650.67
376.95	615.56
377.15	608.54
377.35	559.39
377.54	709.18
377.74	655.35
377.93	720.88
378.13	690.46
378.33	748.97
378.52	613.22
378.72	690.46
378.91	711.52
379.11	662.37
379.31	559.39
379.50	678.76
379.70	676.41
379.89	638.97
380.09	734.93
380.28	676.41
380.48	702.16
380.68	650.67
380.87	699.82
381.07	667.05
381.26	746.63
381.46	667.05
381.65	746.63
381.85	732.59
382.04	664.71
382.24	716.20
382.43	770.04
382.63	688.12
382.83	690.46
383.02	711.52
383.22	821.53
383.41	774.72
383.61	751.31
383.80	833.23
384.00	805.14
384.19	748.97
384.39	814.51
384.58	767.70
384.78	840.25
384.97	777.06
385.17	774.72
385.36	805.14
385.56	805.14
385.75	854.30
385.95	847.27
386.14	837.91
386.34	830.89
386.53	830.89
386.72	840.25
386.92	877.70
387.11	861.32
387.31	788.76
387.50	849.61
387.70	896.43
387.89	915.15
388.09	802.80
388.28	891.74
388.48	901.11
388.67	875.36
388.86	877.70
389.06	880.04
389.25	938.55
389.45	915.15
389.64	933.87
389.84	1018.13
390.03	1064.94
390.22	999.41
390.42	992.39
390.61	1036.86
390.81	1078.99
391.00	1086.01
391.19	1036.86
391.39	1029.84
391.58	1053.24
391.78	1100.05
391.97	1212.40
392.16	1046.22
392.36	1020.47
392.55	1083.67
392.75	961.96
392.94	959.62
393.13	1050.90
393.33	1025.15
393.52	1076.65
393.71	1107.07
393.91	1025.15
394.10	1090.69
394.29	1132.82
394.49	1210.06
394.68	1247.51
394.88	1252.19
395.07	1219.42
395.26	1210.06
395.46	1214.74
395.65	1200.69
395.84	1256.87
396.04	1193.67
396.23	1198.35
396.42	1212.40
396.62	1116.44
396.81	1200.69
397.00	1210.06
397.19	1303.68
397.39	1331.76
397.58	1394.96
397.77	1383.26
397.97	1507.30
398.16	1373.89
398.35	1378.58
398.55	1486.24
398.74	1434.75
398.93	1647.74
399.12	1526.03
399.32	1511.99
399.51	1535.39
399.70	1631.35
399.90	1629.01
400.09	1614.97
400.28	1530.71
400.47	1685.19
400.67	1673.48
400.86	1643.06
401.05	1732.00
401.24	1636.03
401.44	1666.46
401.63	1699.23
401.82	1701.57
402.01	1795.19
402.21	1724.97
402.40	1736.68
402.59	1755.40
402.78	1891.15
402.97	1722.63
403.17	1827.96
403.36	1926.26
403.55	1823.28
403.74	1900.52
403.93	1809.23
404.13	1881.79
404.32	1900.52
404.51	1947.33
404.70	1956.69
404.89	1994.14
405.09	1865.41
405.28	1996.48
405.47	1975.41
405.66	2040.95
405.85	2010.52
406.05	2008.18
406.24	2120.53
406.43	2108.82
406.62	2101.80
406.81	2099.46
407.00	2106.48
407.20	2071.37
407.39	2134.57
407.58	2087.76
407.77	2193.08
407.96	2256.28
408.15	2349.90
408.34	2111.16
408.54	2321.81
408.73	2296.07
408.92	2272.66
409.11	2354.58
409.30	2296.07
409.49	2307.77
409.68	2270.32
409.87	2193.08
410.07	2518.42
410.26	2462.24
410.45	2459.90
410.64	2382.67
410.83	2593.31
411.02	2661.19
411.21	2583.95
411.40	2607.36
411.59	2607.36
411.78	2616.72
411.98	2677.57
412.17	2626.08
412.36	2700.98
412.55	2832.05
412.74	2745.45
412.93	2700.98
413.12	2740.77
413.31	2892.90
413.50	2860.13
413.69	2885.88
413.88	2956.10
414.07	2970.14
414.26	2951.42
414.45	3000.57
414.64	2953.76
414.83	3164.40
415.02	3040.36
415.22	3138.66
415.41	3110.57
415.60	3375.05
415.79	3166.74
415.98	3314.20
416.17	3246.32
416.36	3414.84
416.55	3300.16
416.74	3358.67
416.93	3363.35
417.12	3346.97
417.31	3412.50
417.50	3461.65
417.69	3541.23
417.88	3513.14
418.07	3471.01
418.26	3431.23
418.45	3496.76
418.64	3620.81
418.83	3639.53
419.02	3602.08
419.21	3716.77
419.39	3634.85
419.58	3583.36
419.77	3506.12
419.96	3691.02
420.15	3845.50
420.34	3728.47
420.53	3777.62
420.72	3904.01
420.91	3920.40
421.10	4021.04
421.29	4060.83
421.48	3927.42
421.67	3922.74
421.86	3815.07
422.05	3824.44
422.24	3882.95
422.43	3822.09
422.61	3985.93
422.80	3887.63
422.99	4037.42
423.18	3988.27
423.37	4124.02
423.56	3960.19
423.75	3992.95
423.94	3955.51
424.13	3742.52
424.32	3861.88
424.50	4049.13
424.69	4149.77
424.88	4124.02
425.07	4023.38
425.26	4035.08
425.45	4102.96
425.64	4025.72
425.83	4074.87
426.01	4039.76
426.20	4161.47
426.39	4035.08
426.58	4163.81
426.77	4095.94
426.96	3969.55
427.15	3880.61
427.33	4011.68
427.52	4060.83
427.71	4231.69
427.90	4135.73
428.09	4287.86
428.28	4065.51
428.46	4229.35
428.65	4217.65
428.84	4322.97
429.03	4273.82
429.22	4152.11
429.40	4142.75
429.59	4189.56
429.78	3960.19
429.97	4023.38
430.16	4128.70
430.34	4135.73
430.53	4201.26
430.72	4322.97
430.91	4287.86
431.10	4348.72
431.28	4620.22
431.47	4674.05
431.66	4641.28
431.85	4585.11
432.03	4542.98
432.22	4770.01
432.41	4758.31
432.60	4837.89
432.79	4840.23
432.97	4760.65
433.16	4940.87
433.35	4671.71
433.54	4774.69
433.72	4884.70
433.91	4709.16
434.10	4821.50
434.28	4868.31
434.47	4997.04
434.66	4908.10
434.85	5022.79
435.03	5214.71
435.22	5095.35
435.41	5139.82
435.59	5210.03
435.78	5188.97
435.97	5158.54
436.16	5280.25
436.34	5284.93
436.53	5163.22
436.72	5387.91
436.90	5135.14
437.09	5334.08
437.28	5163.22
437.46	5287.27
437.65	5210.03
437.84	5301.31
438.02	5163.22
438.21	5310.68
438.40	5301.31
438.58	5418.34
438.77	5530.69
438.96	5455.79
439.14	5579.84
439.33	5647.71
439.52	5748.36
439.70	5818.57
439.89	5668.78
440.08	5970.71
440.26	5921.56
440.45	5827.93
440.63	5926.24
440.82	5970.71
441.01	6022.20
441.19	5951.98
441.38	6090.07
441.57	6164.97
441.75	6153.27
441.94	6333.49
442.12	6296.04
442.31	6448.18
442.50	6307.74
442.68	6471.58
442.87	6303.06
443.05	6506.69
443.24	6394.34
443.43	6576.91
443.61	6757.13
443.80	6937.35
443.98	6450.52
444.17	6459.88
444.35	6661.16
444.54	6633.08
444.73	6478.60
444.91	6689.25
445.10	6576.91
445.28	6565.20
445.47	6621.38
445.65	6506.69
445.84	6651.80
446.02	6745.42
446.21	6729.04
446.39	6633.08
446.58	6724.36
446.77	6799.26
446.95	6457.54
447.14	6696.27
447.32	6857.77
447.51	6757.13
447.69	6696.27
447.88	6740.74
448.06	6726.70
448.25	6752.45
448.43	6686.91
448.62	6918.62
448.80	6621.38
448.99	7105.87
449.17	6909.26
449.36	6799.26
449.54	7180.76
449.73	7133.95
449.91	7222.89
450.10	7346.94
450.28	7297.79
450.46	7316.51
450.65	7349.28
450.83	7421.84
451.02	7316.51
451.20	7342.26
451.39	7449.93
451.57	7236.94
451.76	7353.96
451.94	7075.44
452.13	7590.36
452.31	7243.96
452.49	7201.83
452.68	7325.88
452.86	7459.29
453.05	7164.38
453.23	7541.21
453.42	7386.73
453.60	7405.46
453.78	7618.44
453.97	7389.07
454.15	7396.09
454.34	7517.80
454.52	7688.66
454.70	7669.94
454.89	7541.21
455.07	7866.54
455.26	7885.26
455.44	7985.91
455.62	7885.26
455.81	7822.07
455.99	7908.67
456.17	7964.84
456.36	7833.77
456.54	8142.72
456.73	8147.40
456.91	8299.54
457.09	8030.38
457.28	8315.92
457.46	8173.15
457.64	8236.35
457.83	8344.01
458.01	8280.82
458.19	8308.90
458.38	8187.19
458.56	8301.88
458.74	8257.41
458.93	8287.84
459.11	8435.29
459.29	8503.17
459.48	8381.46
459.66	8271.45
459.84	8667.00
460.03	8734.88
460.21	8482.10
460.39	8629.56
460.57	8554.66
460.76	8669.34
460.94	8657.64
461.12	8727.86
461.31	8711.47
461.49	8840.20
461.67	8723.18
461.85	9064.89
462.04	8854.25
462.22	9591.52
462.40	9104.68
462.59	9074.26
462.77	8929.14
462.95	9195.96
463.13	9039.15
463.32	9198.31
463.50	9074.26
463.68	9018.08
463.86	9266.18
464.05	9034.47
464.23	9270.86
464.41	9149.15
464.59	9085.96
464.78	9399.59
464.96	9280.22
465.14	9198.31
465.32	9591.52
465.50	9184.26
465.69	9514.28
465.87	9231.07
466.05	9458.10
466.23	9256.82
466.41	9479.17
466.60	9324.69
466.78	9310.65
466.96	9383.21
467.14	9486.19
467.32	9404.27
467.51	9549.39
467.69	9341.08
467.87	9624.28
468.05	9755.35
468.23	9502.58
468.41	9652.37
468.60	9877.06
468.78	9692.16
468.96	9607.90
469.14	9731.95
469.32	9935.57
469.50	9706.20
469.69	9867.70
469.87	9867.70
470.05	10001.11
470.23	10052.60
470.41	9973.02
470.59	9893.44
470.77	9944.94
470.95	9991.75
471.14	10382.62
471.32	10015.15
471.50	10401.34
471.68	10256.23
471.86	10375.59
472.04	10583.90
472.22	10689.23
472.40	10408.36
472.58	10565.18
472.77	10623.69
472.95	10642.42
473.13	10918.60
473.31	10607.31
473.49	10829.66
473.67	10946.69
473.85	10874.13
474.03	11131.59
474.21	11136.27
474.39	11234.57
474.57	11222.87
474.75	11056.69
474.93	11379.68
475.12	11477.99
475.30	11510.75
475.48	11346.92
475.66	11634.80
475.84	11543.52
476.02	11513.10
476.20	11602.04
476.38	11925.03
476.56	12308.88
476.74	11913.33
476.92	11761.19
477.10	11957.80
477.28	12226.96
477.46	12414.20
477.64	12343.99
477.82	12524.21
478.00	12723.15
478.18	12547.61
478.36	12564.00
478.54	12816.77
478.72	13046.15
478.90	13322.33
479.08	13331.69
479.26	13493.19
479.44	13500.21
479.62	13542.34
479.80	13605.53
479.98	13453.40
480.16	13774.05
480.34	13633.62
480.52	13973.00
480.70	13818.52
480.88	13912.14
481.06	14342.80
481.24	14017.47
481.41	14501.96
481.59	14630.69
481.77	14483.24
481.95	14665.80
482.13	14953.68
482.31	14885.81
482.49	15042.62
482.67	15126.88
482.85	15173.69
483.03	15386.68
483.21	15466.26
483.39	15543.50
483.57	15496.69
483.74	15714.36
483.92	15712.02
484.10	15573.92
484.28	16018.63
484.46	16512.48
484.64	16610.78
484.82	16353.32
485.00	16285.45
485.18	16470.35
485.35	17025.06
485.53	16217.57
485.71	16259.70
485.89	16493.76
486.07	16411.84
486.25	16774.62
486.43	16898.67
486.61	17479.12
486.78	17329.33
486.96	17572.74
487.14	17860.63
487.32	18162.56
487.50	18331.08
487.68	18459.81
487.85	18712.58
488.03	18609.60
488.21	19051.96
488.39	18876.42
488.57	18946.64
488.75	18972.38
488.92	19435.81
489.10	19421.77
489.28	19702.63
489.46	20250.32
489.64	19611.35
489.81	20587.35
489.99	20175.42
490.17	20388.41
490.35	20692.68
490.53	20755.87
490.70	20699.70
490.88	20723.10
491.06	21158.44
491.24	20896.30
491.41	21015.67
491.59	21341.00
491.77	21057.80
491.95	21254.40
492.13	21439.31
492.30	21659.32
492.48	22089.98
492.66	22054.87
492.84	22237.43
493.01	22604.89
493.19	22288.92
493.37	22319.35
493.54	22050.19
493.72	22726.60
493.90	23190.03
494.08	23211.09
494.25	23293.01
494.43	23571.54
494.61	23969.43
494.79	23882.83
494.96	23510.68
495.14	23695.58
495.32	23924.96
495.49	23950.70
495.67	24259.65
495.85	24362.64
496.02	24519.45
496.20	24453.92
496.38	24889.26
496.55	24936.07
496.73	25476.73
496.91	24786.27
497.09	25273.10
497.26	25387.79
497.44	25418.22
497.62	25467.37
497.79	25738.87
497.97	25411.20
498.14	25378.43
498.32	26139.10
498.50	25720.15
498.67	26274.85
498.85	25928.45
499.03	26831.90
499.20	26623.59
499.38	26799.13
499.56	26333.37
499.73	26761.69
499.91	26574.44
500.08	26909.14
500.26	26359.11
500.44	26960.63
500.61	26937.23
500.79	26799.13
500.97	27503.64
501.14	27529.38
501.32	27229.79
501.49	27344.48
501.67	27391.29
501.84	27899.19
502.02	27747.05
502.20	27978.76
502.37	28233.88
502.55	27894.50
502.72	28301.76
502.90	28444.53
503.07	28194.09
503.25	28224.52
503.43	28573.26
503.60	28180.05
503.78	28662.20
503.95	28339.21
504.13	29008.60
504.30	28924.34
504.48	29132.65
504.65	29057.75
504.83	29324.57
505.01	29467.34
505.18	29422.87
505.36	29804.38
505.53	29771.61
505.71	29846.51
505.88	29661.61
506.06	29450.96
506.23	29890.98
506.41	29830.13
506.58	30274.83
506.76	30389.52
506.93	30160.14
507.11	30375.47
507.28	30118.01
507.46	30223.34
507.63	30352.07
507.81	30625.91
507.98	30403.56
508.16	30848.26
508.33	30866.98
508.50	31281.26
508.68	31344.45
508.85	31166.57
509.03	31351.48
509.20	31578.51
509.38	31409.99
509.55	31398.29
509.73	31653.40
509.90	31842.99
510.08	31854.69
510.25	31810.22
510.42	31625.32
510.60	32378.97
510.77	32350.88
510.95	32496.00
511.12	32212.79
511.30	32322.80
511.47	32891.55
511.64	32844.74
511.82	32870.48
511.99	32472.59
512.17	33039.00
512.34	32638.77
512.51	33043.68
512.69	33081.13
512.86	33069.43
513.04	33137.30
513.21	33050.70
513.38	33081.13
513.56	33249.65
513.73	33184.12
513.90	32975.81
514.08	33319.87
514.25	33710.74
514.43	33102.20
514.60	33603.07
514.77	33785.63
514.95	34197.57
515.12	33876.91
515.29	33834.78
515.47	34206.93
515.64	34326.30
515.81	33930.75
515.99	34403.53
516.16	33680.31
516.33	33462.64
516.51	34099.26
516.68	33380.72
516.85	33734.14
517.03	33689.67
517.20	34314.59
517.37	34345.02
517.54	35035.48
517.72	34330.98
517.89	33876.91
518.06	34181.18
518.24	34574.39
518.41	34429.28
518.58	34925.47
518.75	34876.32
518.93	35101.01
519.10	35285.92
519.27	35330.39
519.45	35634.66
519.62	35456.78
519.79	35690.83
519.96	35660.40
520.14	35967.01
520.31	35398.26
520.48	36105.10
520.65	35599.55
520.83	36306.39
521.00	36306.39
521.17	36058.29
521.34	36584.91
521.52	36521.72
521.69	36753.43
521.86	36622.36
522.03	36411.71
522.20	36685.56
522.38	37088.13
522.55	36692.58
522.72	36133.19
522.89	36631.72
523.07	37383.04
523.24	36514.70
523.41	37329.20
523.58	37383.04
523.75	37652.20
523.92	37392.40
524.10	37535.17
524.27	37294.10
524.44	37675.60
524.61	37708.37
524.78	37731.78
524.96	37844.12
525.13	37656.88
525.30	38164.78
525.47	38321.59
525.64	37820.72
525.81	38157.75
525.98	38087.54
526.16	37703.69
526.33	37413.46
526.50	38007.96
526.67	37722.41
526.84	37827.74
527.01	37467.30
527.18	37968.17
527.36	38644.59
527.53	38408.19
527.70	39075.24
527.87	38817.78
528.04	38024.34
528.21	38834.17
528.38	38471.39
528.55	39377.17
528.72	39276.53
528.89	39145.46
529.07	39229.72
529.24	38843.53
529.41	39473.13
529.58	39182.91
529.75	39599.52
529.92	39119.71
530.09	39679.10
530.26	39814.85
530.43	40109.76
530.60	39316.32
530.77	39571.44
530.94	39700.17
531.11	39789.11
531.28	39697.83
531.46	39559.73
531.63	39866.34
531.80	39648.68
531.97	39847.62
532.14	39882.73
532.31	39629.95
532.48	39538.67
532.65	40360.20
532.82	40128.48
532.99	40273.60
533.16	40044.23
533.33	40112.10
533.50	40507.65
533.67	40088.70
533.84	39709.53
534.01	40264.24
534.18	39892.09
534.35	40772.13
534.52	40355.52
534.69	40809.58
534.86	40746.39
535.03	40924.27
535.20	41085.76
535.37	41249.60
535.54	41399.40
535.71	41060.02
535.88	40966.40
536.05	40952.35
536.22	41406.42
536.38	40746.39
536.55	41469.61
536.72	41045.97
536.89	40655.11
537.06	41120.87
537.23	41357.27
537.40	41394.71
537.57	41635.79
537.74	41872.18
537.91	41895.59
538.08	41682.60
538.25	41481.31
538.42	41603.02
538.59	42057.09
538.75	41682.60
538.92	41706.01
539.09	41909.63
539.26	41706.01
539.43	41631.11
539.60	42047.72
539.77	41677.92
539.94	41771.54
540.11	41528.13
540.28	42021.98
540.44	41701.32
540.61	41837.08
540.78	41626.43
540.95	42195.18
541.12	42007.94
541.29	42389.44
541.46	42295.82
541.62	42014.96
541.79	42476.04
541.96	41769.20
542.13	42010.28
542.30	42188.16
542.47	42464.34
542.63	42476.04
542.80	42618.81
542.97	42707.76
543.14	42553.28
543.31	42906.70
543.48	43019.05
543.64	43229.69
543.81	43276.51
543.98	42958.19
544.15	43143.09
544.32	43320.98
544.48	43494.18
544.65	43360.76
544.82	43498.86
544.99	43107.99
545.16	43360.76
545.32	43557.37
545.49	43540.99
545.66	43592.48
545.83	43477.79
546.00	43367.79
546.16	43363.11
546.33	43590.14
546.50	43292.89
546.67	43910.79
546.83	43402.89
547.00	43365.45
547.17	43615.88
547.34	43519.92
547.50	43140.75
547.67	43536.30
547.84	44086.33
548.00	44060.58
548.17	43840.57
548.34	44058.24
548.51	44289.96
548.67	44404.64
548.84	44247.83
549.01	43704.82
549.18	43854.62
549.34	44306.34
549.51	44500.61
549.68	44266.55
549.84	44369.54
550.01	44208.04
550.18	43976.33
550.34	44451.45
550.51	44559.12
550.68	44357.83
550.84	43892.07
551.01	44332.09
551.18	44479.54
551.34	44842.32
551.51	44444.43
551.68	44563.80
551.84	44481.88
552.01	44552.10
552.18	44861.05
552.34	44006.75
552.51	44172.93
552.68	44842.32
552.84	44442.09
553.01	44645.72
553.18	45034.25
553.34	45123.19
553.51	44734.66
553.67	44999.14
553.84	45085.74
554.01	44732.32
554.17	45207.45
554.34	45172.34
554.51	44669.12
554.67	45354.90
554.84	45471.93
555.00	45336.18
555.17	44985.10
555.33	45074.04
555.50	45006.16
555.67	45029.57
555.83	44854.03
556.00	44566.14
556.16	45661.51
556.33	45345.54
556.50	45401.71
556.66	45923.65
556.83	44535.71
556.99	45230.85
557.16	45668.53
557.32	45240.21
557.49	45525.76
557.65	45095.10
557.82	45340.86
557.98	45408.73
558.15	45191.06
558.32	45394.69
558.48	45118.51
558.65	45200.43
558.81	45429.80
558.98	44992.12
559.14	45638.11
559.31	45272.98
559.47	45013.18
559.64	46028.98
559.80	45450.86
559.97	45483.63
560.13	44989.78
560.30	45394.69
560.46	45230.85
560.63	46021.95
560.79	45713.00
560.96	45984.51
561.12	45471.93
561.29	45748.11
561.45	45804.28
561.61	45713.00
561.78	45750.45
561.94	45661.51
562.11	45319.79
562.27	45336.18
562.44	45869.82
562.60	45911.95
562.77	45584.27
562.93	46096.85
563.10	46050.04
563.26	45998.55
563.42	46040.68
563.59	45794.92
563.75	46017.27
563.92	45813.65
564.08	46045.36
564.24	46548.57
564.41	46127.28
564.57	45649.81
564.74	46204.52
564.90	45652.15
565.07	46150.68
565.23	46211.54
565.39	45656.83
565.56	46068.76
565.72	45701.30
565.88	46199.83
566.05	45783.22
566.21	45563.21
566.38	45982.16
566.54	46417.50
566.70	46115.58
566.87	46138.98
567.03	46206.86
567.19	46775.61
567.36	46192.81
567.52	46117.92
567.68	46038.34
567.85	45909.61
568.01	46061.74
568.17	45918.97
568.34	46120.26
568.50	46057.06
568.66	46120.26
568.83	46277.07
568.99	45925.99
569.15	46094.51
569.32	45860.46
569.48	45984.51
569.64	46684.33
569.81	46309.84
569.97	45984.51
570.13	46192.81
570.30	45956.42
570.46	45783.22
570.62	45743.43
570.78	45729.39
570.95	46005.57
571.11	45918.97
571.27	45982.16
571.43	46220.90
571.60	46000.89
571.76	45914.29
571.92	46024.29
572.09	46483.04
572.25	46092.17
572.41	46340.27
572.57	46726.46
572.74	46347.29
572.90	46515.81
573.06	46326.22
573.22	46197.49
573.38	46368.35
573.55	46433.89
573.71	46525.17
573.87	46548.57
574.03	46075.79
574.20	46309.84
574.36	46508.79
574.52	46401.12
574.68	46234.94
574.84	46403.46
575.01	46087.49
575.17	46422.19
575.33	46241.96
575.49	46071.10
575.65	46272.39
575.82	46557.94
575.98	45741.09
576.14	46731.14
576.30	46108.55
576.46	46403.46
576.62	46480.70
576.79	46078.13
576.95	46101.53
577.11	46251.33
577.27	46476.02
577.43	46071.10
577.59	46157.70
577.75	46265.37
577.92	45909.61
578.08	46099.19
578.24	46216.22
578.40	46454.95
578.56	46546.23
578.72	46408.14
578.88	46892.63
579.04	46885.61
579.21	46155.36
579.37	46321.54
579.53	46337.93
579.69	45895.56
579.85	46225.58
580.01	46354.31
580.17	46230.26
580.33	46351.97
580.49	46174.09
580.65	46101.53
580.82	46499.42
580.98	46356.65
581.14	46171.75
581.30	46316.86
581.46	46153.02
581.62	46122.60
581.78	46445.59
581.94	46852.84
582.10	46485.38
582.26	46712.41
582.42	46461.97
582.58	46354.31
582.74	46443.25
582.90	46555.60
583.06	46735.82
583.22	46604.75
583.38	46646.88
583.54	46342.61
583.70	46082.81
583.86	46485.38
584.02	46075.79
584.18	46380.06
584.34	46298.14
584.50	46087.49
584.66	46754.54
584.82	46412.82
584.98	46305.16
585.14	47004.98
585.30	46237.28
585.46	46375.37
585.62	46263.03
585.78	46689.01
585.94	45769.18
586.10	46518.15
586.26	46197.49
586.42	46497.08
586.58	46887.95
586.74	46351.97
586.90	46057.06
587.06	46263.03
587.22	46698.37
587.38	46326.22
587.54	46410.48
587.70	46649.22
587.86	46752.20
588.02	46298.14
588.18	46581.34
588.34	45982.16
588.49	45567.89
588.65	45736.41
588.81	46155.36
588.97	46267.71
589.13	45972.80
589.29	45818.33
589.45	46061.74
589.61	46274.73
589.77	46138.98
589.93	46319.20
