SpectraSuite Data File
++++++++++++++++++++++++++++++++++++
Date: Fri Oct 25 10:44:40 EDT 2013
User: price-jones
Dark Spectrum Present: No
Reference Spectrum Present: No
Number of Sampled Component Spectra: 1
Spectrometers: USB2+H05261
Integration Time (usec): 100000 (USB2+H05261)
Spectra Averaged: 1 (USB2+H05261)
Boxcar Smoothing: 0 (USB2+H05261)
Correct for Electrical Dark: No (USB2+H05261)
Strobe/Lamp Enabled: No (USB2+H05261)
Correct for Detector Non-linearity: No (USB2+H05261)
Correct for Stray Light: No (USB2+H05261)
Number of Pixels in Processed Spectrum: 2048
>>>>>Begin Processed Spectral Data<<<<<
365.73	53.83
365.92	53.83
366.12	53.83
366.32	23.41
366.52	0.00
366.72	121.71
366.91	21.06
367.11	0.00
367.31	0.00
367.51	88.94
367.70	2.34
367.90	32.77
368.10	9.36
368.30	7.02
368.49	25.75
368.69	110.01
368.89	74.90
369.09	39.79
369.28	30.43
369.48	21.06
369.68	46.81
369.87	88.94
370.07	105.32
370.27	128.73
370.47	166.18
370.66	376.83
370.86	447.04
371.06	395.55
371.25	414.27
371.45	447.04
371.65	498.53
371.84	423.64
372.04	442.36
372.24	491.51
372.44	468.11
372.63	557.05
372.83	505.56
373.03	500.87
373.22	437.68
373.42	493.85
373.62	489.17
373.81	524.28
374.01	498.53
374.21	557.05
374.40	543.00
374.60	489.17
374.79	524.28
374.99	552.37
375.19	613.22
375.38	599.18
375.58	587.47
375.78	533.64
375.97	489.17
376.17	671.73
376.37	510.24
376.56	589.82
376.76	561.73
376.95	521.94
377.15	559.39
377.35	613.22
377.54	624.92
377.74	552.37
377.93	620.24
378.13	615.56
378.33	624.92
378.52	594.50
378.72	601.52
378.91	610.88
379.11	624.92
379.31	636.63
379.50	622.58
379.70	622.58
379.89	594.50
380.09	608.54
380.28	622.58
380.48	631.94
380.68	631.94
380.87	702.16
381.07	655.35
381.26	725.57
381.46	608.54
381.65	608.54
381.85	575.77
382.04	657.69
382.24	697.48
382.43	622.58
382.63	657.69
382.83	669.39
383.02	624.92
383.22	704.50
383.41	645.99
383.61	802.80
383.80	727.91
384.00	788.76
384.19	725.57
384.39	786.42
384.58	732.59
384.78	770.04
384.97	807.48
385.17	671.73
385.36	767.70
385.56	709.18
385.75	781.74
385.95	779.40
386.14	788.76
386.34	833.23
386.53	755.99
386.72	840.25
386.92	849.61
387.11	704.50
387.31	798.12
387.50	858.98
387.70	786.42
387.89	802.80
388.09	781.74
388.28	720.88
388.48	849.61
388.67	901.11
388.86	896.43
389.06	926.85
389.25	847.27
389.45	894.08
389.64	826.21
389.84	917.49
390.03	887.06
390.22	919.83
390.42	894.08
390.61	880.04
390.81	943.24
391.00	912.81
391.19	870.68
391.39	908.13
391.58	959.62
391.78	894.08
391.97	931.53
392.16	926.85
392.36	994.73
392.55	987.71
392.75	950.26
392.94	905.79
393.13	933.87
393.33	992.39
393.52	973.66
393.71	992.39
393.91	959.62
394.10	994.73
394.29	1034.52
394.49	1048.56
394.68	1083.67
394.88	1144.52
395.07	1137.50
395.26	1158.57
395.46	1074.31
395.65	1036.86
395.84	1062.60
396.04	1179.63
396.23	1067.28
396.42	1086.01
396.62	1109.41
396.81	1191.33
397.00	1163.25
397.19	1249.85
397.39	1165.59
397.58	1252.19
397.77	1219.42
397.97	1273.25
398.16	1221.76
398.35	1294.32
398.55	1341.13
398.74	1341.13
398.93	1287.29
399.12	1371.55
399.32	1362.19
399.51	1329.42
399.70	1437.09
399.90	1301.34
400.09	1376.24
400.28	1446.45
400.47	1418.36
400.67	1474.54
400.86	1416.02
401.05	1458.15
401.24	1418.36
401.44	1488.58
401.63	1423.05
401.82	1523.69
402.01	1530.71
402.21	1509.65
402.40	1533.05
402.59	1490.92
402.78	1511.99
402.97	1556.46
403.17	1460.49
403.36	1610.29
403.55	1558.80
403.74	1598.59
403.93	1575.18
404.13	1568.16
404.32	1647.74
404.51	1694.55
404.70	1675.82
404.89	1629.01
405.09	1767.10
405.28	1668.80
405.47	1776.47
405.66	1788.17
405.85	1809.23
406.05	1720.29
406.24	1743.70
406.43	1650.08
406.62	1799.87
406.81	1860.73
407.00	1820.94
407.20	1916.90
407.39	1804.55
407.58	1909.88
407.77	1970.73
407.96	1947.33
408.15	1916.90
408.34	1865.41
408.54	1970.73
408.73	1989.46
408.92	2209.47
409.11	2038.61
409.30	2186.06
409.49	1930.94
409.68	2026.90
409.87	1998.82
410.07	2057.33
410.26	2019.88
410.45	2160.31
410.64	2181.38
410.83	2188.40
411.02	2176.70
411.21	2253.94
411.40	2333.51
411.59	2328.83
411.78	2279.68
411.98	2251.60
412.17	2289.04
412.36	2314.79
412.55	2403.73
412.74	2457.56
412.93	2401.39
413.12	2373.30
413.31	2567.57
413.50	2506.71
413.69	2520.76
413.88	2539.48
414.07	2682.25
414.26	2649.49
414.45	2616.72
414.64	2595.65
414.83	2647.15
415.02	2857.79
415.22	2825.03
415.41	2782.90
415.60	2747.79
415.79	2745.45
415.98	2780.56
416.17	2871.84
416.36	2897.58
416.55	2897.58
416.74	2792.26
416.93	2890.56
417.12	2932.69
417.31	2829.71
417.50	2956.10
417.69	2937.37
417.88	3091.85
418.07	3033.33
418.26	3166.74
418.45	3208.87
418.64	3178.45
418.83	3211.22
419.02	3098.87
419.21	3199.51
419.39	3197.17
419.58	3035.67
419.77	3150.36
419.96	3321.22
420.15	3330.58
420.34	3232.28
420.53	3365.69
420.72	3435.91
420.91	3433.57
421.10	3321.22
421.29	3461.65
421.48	3382.07
421.67	3428.88
421.86	3368.03
422.05	3384.41
422.24	3414.84
422.43	3424.20
422.61	3456.97
422.80	3384.41
422.99	3342.28
423.18	3449.95
423.37	3562.30
423.56	3496.76
423.75	3433.57
423.94	3527.19
424.13	3211.22
424.32	3368.03
424.50	3581.02
424.69	3679.32
424.88	3742.52
425.07	3442.93
425.26	3576.34
425.45	3524.85
425.64	3583.36
425.83	3520.17
426.01	3627.83
426.20	3581.02
426.39	3637.19
426.58	3499.10
426.77	3503.78
426.96	3616.13
427.15	3552.93
427.33	3728.47
427.52	3620.81
427.71	3749.54
427.90	3763.58
428.09	3854.86
428.28	3763.58
428.46	3824.44
428.65	3810.39
428.84	3911.04
429.03	3784.65
429.22	3763.58
429.40	3679.32
429.59	3824.44
429.78	3679.32
429.97	3618.47
430.16	3765.92
430.34	3889.97
430.53	3946.14
430.72	3918.06
430.91	3880.61
431.10	3866.56
431.28	4187.22
431.47	4107.64
431.66	3990.61
431.85	3960.19
432.03	4081.89
432.22	4189.56
432.41	4177.86
432.60	4175.52
432.79	4189.56
432.97	4294.88
433.16	4346.37
433.35	4187.22
433.54	4198.92
433.72	4156.79
433.91	4231.69
434.10	4292.54
434.28	4454.04
434.47	4383.82
434.66	4435.32
434.85	4442.34
435.03	4533.62
435.22	4416.59
435.41	4573.41
435.59	4510.21
435.78	4561.70
435.97	4603.83
436.16	4456.38
436.34	4559.36
436.53	4571.07
436.72	4816.82
436.90	4606.17
437.09	4748.95
437.28	4498.51
437.46	4720.86
437.65	4655.33
437.84	4936.19
438.02	4746.61
438.21	4580.43
438.40	4685.75
438.58	4915.12
438.77	4903.42
438.96	4973.64
439.14	5039.17
439.33	5057.90
439.52	4933.85
439.70	5085.98
439.89	5078.96
440.08	5177.26
440.26	5210.03
440.45	5200.67
440.63	5270.89
440.82	5273.23
441.01	5430.04
441.19	5280.25
441.38	5495.58
441.57	5334.08
441.75	5558.77
441.94	5612.60
442.12	5706.23
442.31	5593.88
442.50	5659.42
442.68	5418.34
442.87	5738.99
443.05	5598.56
443.24	5769.42
443.43	5657.07
443.61	5795.17
443.80	6162.63
443.98	5647.71
444.17	5511.96
444.35	5823.25
444.54	5933.26
444.73	5727.29
444.91	5942.62
445.10	5921.56
445.28	5771.76
445.47	5816.23
445.65	5767.08
445.84	5774.10
446.02	5806.87
446.21	6038.58
446.39	5898.15
446.58	6029.22
446.77	5982.41
446.95	5867.72
447.14	5966.03
447.32	5849.00
447.51	6029.22
447.69	5774.10
447.88	6106.46
448.06	5893.47
448.25	6033.90
448.43	5989.43
448.62	6071.35
448.80	6040.92
448.99	6111.14
449.17	6122.84
449.36	6085.39
449.54	6125.18
449.73	6296.04
449.91	6099.44
450.10	6382.64
450.28	6415.41
450.46	6621.38
450.65	6511.37
450.83	6450.52
451.02	6251.57
451.20	6368.60
451.39	6321.79
451.57	6370.94
451.76	6384.98
451.94	6434.13
452.13	6579.25
452.31	6363.92
452.49	6347.53
452.68	6464.56
452.86	6296.04
453.05	6527.75
453.23	6417.75
453.42	6420.09
453.60	6511.37
453.78	6644.78
453.97	6607.33
454.15	6726.70
454.34	6434.13
454.52	6764.15
454.70	6693.93
454.89	6761.81
455.07	6815.64
455.26	7077.78
455.44	7148.00
455.62	6817.98
455.81	6782.87
455.99	6988.84
456.17	6993.52
456.36	6895.22
456.54	6949.05
456.73	7061.40
456.91	7229.91
457.09	7171.40
457.28	7255.66
457.46	7255.66
457.64	7220.55
457.83	7101.19
458.01	7173.74
458.19	7426.52
458.38	7124.59
458.56	7384.39
458.74	7358.64
458.93	7386.73
459.11	7728.45
459.29	7529.50
459.48	7400.77
459.66	7452.27
459.84	7611.42
460.03	7829.09
460.21	7688.66
460.39	7728.45
460.57	7637.17
460.76	7707.38
460.94	7854.84
461.12	7950.80
461.31	7775.26
461.49	7864.20
461.67	7789.30
461.85	7906.33
462.04	7770.58
462.22	8135.70
462.40	7946.12
462.59	8105.28
462.77	8100.59
462.95	7971.86
463.13	8086.55
463.32	8030.38
463.50	8028.04
463.68	8109.96
463.86	8180.17
464.05	7793.98
464.23	8135.70
464.41	8531.25
464.59	7866.54
464.78	8212.94
464.96	8205.92
465.14	8131.02
465.32	8355.71
465.50	8259.75
465.69	8367.42
465.87	8344.01
466.05	8468.06
466.23	8381.46
466.41	8421.25
466.60	8500.83
466.78	8238.69
466.96	8231.66
467.14	8496.14
467.32	8428.27
467.51	8505.51
467.69	8388.48
467.87	8472.74
468.05	8528.91
468.23	8681.05
468.41	8514.87
468.60	8671.68
468.78	8727.86
468.96	8617.85
469.14	8606.15
469.32	8793.39
469.50	8566.36
469.69	8702.11
469.87	8758.28
470.05	8990.00
470.23	8898.72
470.41	8887.01
470.59	8940.85
470.77	8781.69
470.95	8966.59
471.14	9142.13
471.32	8992.34
471.50	9240.44
471.68	9350.44
471.86	9151.49
472.04	9104.68
472.22	9504.92
472.40	9252.14
472.58	9486.19
472.77	9399.59
472.95	9509.60
473.13	9760.03
473.31	9521.30
473.49	9397.25
473.67	9385.55
473.85	9657.05
474.03	9790.46
474.21	9818.55
474.39	9961.32
474.57	10038.56
474.75	10190.69
474.93	10305.38
475.12	10087.71
475.30	10195.37
475.48	10068.98
475.66	10459.85
475.84	10284.31
476.02	10569.86
476.20	10537.09
476.38	10619.01
476.56	10721.99
476.74	10834.34
476.92	10562.84
477.10	10698.59
477.28	10862.43
477.46	10813.28
477.64	11108.18
477.82	11059.03
478.00	11602.04
478.18	11555.22
478.36	11279.04
478.54	11482.67
478.72	11431.18
478.90	11655.87
479.08	11705.02
479.26	11918.01
479.44	11943.75
479.62	11896.94
479.80	11983.54
479.98	12189.51
480.16	12346.33
480.34	12219.94
480.52	12381.43
480.70	12587.40
480.88	12444.63
481.06	12566.34
481.24	12559.31
481.41	12751.24
481.59	13046.15
481.77	13195.94
481.95	12952.52
482.13	13437.02
482.31	13275.52
482.49	13486.17
482.67	13245.09
482.85	13799.80
483.03	13947.25
483.21	13879.38
483.39	13867.67
483.57	13954.27
483.74	14204.71
483.92	14209.39
484.10	13916.83
484.28	14389.61
484.46	14562.81
484.64	15009.86
484.82	14441.11
485.00	14867.08
485.18	15096.46
485.35	15087.09
485.53	14965.39
485.71	15037.94
485.89	15346.89
486.07	15119.86
486.25	15178.37
486.43	15627.76
486.61	15616.05
486.78	15901.60
486.96	16027.99
487.14	16060.76
487.32	16205.87
487.50	16360.34
487.68	16372.05
487.85	17184.21
488.03	16872.92
488.21	16879.94
488.39	17174.85
488.57	17266.13
488.75	17106.98
488.92	17291.88
489.10	17500.19
489.28	17572.74
489.46	17841.90
489.64	17872.33
489.81	18031.49
489.99	18412.99
490.17	18075.96
490.35	18576.83
490.53	18513.64
490.70	18635.35
490.88	18850.67
491.06	18906.85
491.24	19126.86
491.41	18984.09
491.59	18836.63
491.77	19047.28
491.95	19501.34
492.13	19332.82
492.30	19660.50
492.48	19861.79
492.66	20102.86
492.84	19854.76
493.01	20350.96
493.19	20147.33
493.37	20713.74
493.54	20751.19
493.72	20444.58
493.90	20854.17
494.08	20592.03
494.25	21099.93
494.43	21010.99
494.61	21280.15
494.79	21341.00
494.96	21282.49
495.14	21605.49
495.32	21633.57
495.49	21818.47
495.67	22127.42
495.85	21935.50
496.02	22452.76
496.20	22494.89
496.38	22132.11
496.55	22335.73
496.73	22867.03
496.91	22492.55
497.09	23019.17
497.26	22836.61
497.44	22766.39
497.62	23105.77
497.79	23337.48
497.97	23082.36
498.14	23585.58
498.32	23594.94
498.50	23601.96
498.67	23618.35
498.85	23882.83
499.03	23974.11
499.20	23880.49
499.38	23969.43
499.56	24079.43
499.73	24170.71
499.91	24423.49
500.08	24521.79
500.26	24353.27
500.44	24486.68
500.61	24702.01
500.79	24404.77
500.97	24807.34
501.14	25209.91
501.32	25076.50
501.49	25209.91
501.67	25090.54
501.84	25027.35
502.02	25338.64
502.20	25525.88
502.37	25823.13
502.55	25240.34
502.72	25907.39
502.90	25734.19
503.07	25958.88
503.25	26256.13
503.43	25881.64
503.60	26096.97
503.78	25841.85
503.95	25970.58
504.13	26424.65
504.30	26370.82
504.48	26485.50
504.65	26644.66
504.83	26654.02
505.01	26948.93
505.18	27309.37
505.36	26885.73
505.53	26939.57
505.71	27346.82
505.88	26899.78
506.06	27087.02
506.23	27292.99
506.41	27482.57
506.58	27470.87
506.76	27779.82
506.93	27615.98
507.11	27613.64
507.28	27878.12
507.46	27721.30
507.63	27321.07
507.81	27843.01
507.98	27899.19
508.16	28540.49
508.33	28168.35
508.50	28425.81
508.68	28828.38
508.85	28744.12
509.03	28734.76
509.20	28648.16
509.38	28556.88
509.55	29015.62
509.73	29497.77
509.90	29017.96
510.08	28945.41
510.25	28753.48
510.42	29333.93
510.60	29582.03
510.77	29268.40
510.95	29666.29
511.12	29455.64
511.30	29710.76
511.47	29907.37
511.64	29851.19
511.82	29881.62
511.99	29851.19
512.17	30057.16
512.34	30155.46
512.51	30366.11
512.69	30366.11
512.86	30312.28
513.04	30948.90
513.21	30532.29
513.38	30422.28
513.56	30799.11
513.73	30698.47
513.90	30689.10
514.08	30272.49
514.25	30916.14
514.43	30829.54
514.60	31126.78
514.77	30824.86
514.95	30981.67
515.12	31065.93
515.29	31253.17
515.47	31763.41
515.64	31417.01
515.81	31445.10
515.99	31164.23
516.16	31517.65
516.33	31796.18
516.51	31508.29
516.68	31555.10
516.85	31302.32
517.03	31765.75
517.20	31550.42
517.37	31730.64
517.54	32058.32
517.72	32161.30
517.89	31847.67
518.06	31990.44
518.24	31868.73
518.41	32339.18
518.58	32313.44
518.75	32388.33
518.93	32638.77
519.10	32570.90
519.27	32173.00
519.45	32720.69
519.62	32875.16
519.79	33102.20
519.96	32905.59
520.14	33347.95
520.31	32957.08
520.48	33097.52
520.65	32739.41
520.83	33626.48
521.00	33624.14
521.17	33769.25
521.34	33827.76
521.52	33507.11
521.69	33928.41
521.86	34220.97
522.03	33837.12
522.20	33895.64
522.38	34160.12
522.55	34120.33
522.72	34223.31
522.89	34122.67
523.07	34082.88
523.24	33954.15
523.41	34139.05
523.58	34361.40
523.75	34848.24
523.92	34658.65
524.10	35086.97
524.27	34986.33
524.44	34412.90
524.61	34843.56
524.78	35351.45
524.96	35112.72
525.13	35398.26
525.30	35091.65
525.47	35754.02
525.64	35264.85
525.81	34808.45
525.98	35274.21
526.16	35150.17
526.33	35503.59
526.50	35566.78
526.67	35047.18
526.84	34710.14
527.01	35007.39
527.18	35063.57
527.36	35761.05
527.53	35665.08
527.70	35999.78
527.87	35852.33
528.04	35702.53
528.21	36037.23
528.38	36182.34
528.55	36187.02
528.72	36198.73
528.89	36690.24
529.07	36128.51
529.24	36081.70
529.41	36465.55
529.58	36177.66
529.75	36357.88
529.92	36699.60
530.09	36620.02
530.26	36772.16
530.43	37240.26
530.60	36577.89
530.77	36280.64
530.94	37228.56
531.11	36994.51
531.28	37266.01
531.46	37099.83
531.63	36889.18
531.80	36910.25
531.97	36898.55
532.14	36882.16
532.31	36835.35
532.48	37036.64
532.65	37773.91
532.82	37521.13
532.99	37528.15
533.16	37163.03
533.33	37525.81
533.50	37738.80
533.67	37965.83
533.84	37486.02
534.01	37553.90
534.18	37542.19
534.35	38050.09
534.52	38036.05
534.69	37930.72
534.86	37727.10
535.03	38007.96
535.20	38396.49
535.37	38398.83
535.54	38293.50
535.71	38017.32
535.88	38298.19
536.05	38408.19
536.22	37951.79
536.38	38412.87
536.55	38040.73
536.72	38267.76
536.89	38258.40
537.06	38511.17
537.23	38579.05
537.40	38590.75
537.57	38637.56
537.74	38981.62
537.91	39175.89
538.08	38780.34
538.25	38520.54
538.42	38492.45
538.59	39175.89
538.75	38455.00
538.92	38918.43
539.09	38895.02
539.26	39016.73
539.43	39255.46
539.60	38890.34
539.77	39021.41
539.94	39358.45
540.11	38979.28
540.28	39541.01
540.44	39388.88
540.61	39154.82
540.78	39227.38
540.95	39470.79
541.12	39171.21
541.29	39412.28
541.46	39288.23
541.62	39321.00
541.79	39552.71
541.96	38969.92
542.13	39845.28
542.30	39402.92
542.47	39873.37
542.63	39962.31
542.80	39826.56
542.97	40006.78
543.14	40369.56
543.31	40271.26
543.48	40495.95
543.64	40807.24
543.81	40685.53
543.98	40397.65
544.15	40350.84
544.32	40446.80
544.48	41132.57
544.65	40875.12
544.82	40634.04
544.99	40582.55
545.16	40807.24
545.32	40196.36
545.49	41432.16
545.66	41088.10
545.83	40933.63
546.00	41425.14
546.16	40753.41
546.33	41071.72
546.50	40533.40
546.67	40882.14
546.83	40760.43
547.00	41048.32
547.17	41214.49
547.34	40875.12
547.50	41282.37
547.67	41170.02
547.84	41216.83
548.00	41081.08
548.17	41570.25
548.34	41383.01
548.51	41584.30
548.67	41298.75
548.84	41722.39
549.01	41537.49
549.18	41698.98
549.34	41858.14
549.51	41918.99
549.68	41904.95
549.84	41558.55
550.01	42206.88
550.18	41607.70
550.34	41467.27
550.51	42038.36
550.68	41918.99
550.84	41448.55
551.01	41785.58
551.18	41961.12
551.34	41867.50
551.51	42085.17
551.68	42197.52
551.84	42115.60
552.01	41984.53
552.18	42169.43
552.34	42043.04
552.51	41841.76
552.68	41989.21
552.84	42068.79
553.01	42696.05
553.18	42164.75
553.34	41949.42
553.51	42146.03
553.67	42602.43
553.84	42539.24
554.01	42625.84
554.17	42309.86
554.34	42869.25
554.51	42450.30
554.67	42827.12
554.84	42497.11
555.00	42281.78
555.17	42602.43
555.33	42546.26
555.50	42834.14
555.67	42188.16
555.83	42916.06
556.00	42422.21
556.16	43194.59
556.33	43100.97
556.50	42333.27
556.66	42911.38
556.83	42754.57
556.99	43232.04
557.16	43021.39
557.32	43164.16
557.49	42621.16
557.65	42656.26
557.82	42887.98
557.98	42909.04
558.15	43065.86
558.32	43124.37
558.48	42712.44
558.65	42799.04
558.81	42841.17
558.98	42838.83
559.14	42909.04
559.31	42724.14
559.47	43484.81
559.64	43391.19
559.80	43508.22
559.97	43339.70
560.13	43388.85
560.30	43051.81
560.46	43157.14
560.63	43292.89
560.79	43592.48
560.96	43501.20
561.12	43632.27
561.29	43732.91
561.45	43758.66
561.61	43508.22
561.78	43323.32
561.94	43313.95
562.11	43196.93
562.27	43557.37
562.44	43901.43
562.60	43618.22
562.77	43395.87
562.93	43320.98
563.10	43391.19
563.26	43196.93
563.42	43629.93
563.59	43227.35
563.75	43323.32
563.92	43922.49
564.08	43744.61
564.24	44116.76
564.41	43927.17
564.57	43349.06
564.74	43203.95
564.90	43440.34
565.07	43948.24
565.23	43730.57
565.39	43629.93
565.56	43447.36
565.72	43597.16
565.88	43587.80
566.05	43892.07
566.21	43786.74
566.38	43695.46
566.54	43646.31
566.70	44107.40
566.87	43899.09
567.03	44011.43
567.19	43950.58
567.36	43901.43
567.52	43634.61
567.68	44179.95
567.85	43833.55
568.01	43725.89
568.17	43838.23
568.34	43632.27
568.50	43990.37
568.66	43590.14
568.83	43819.51
568.99	43688.44
569.15	43718.87
569.32	43634.61
569.48	43613.54
569.64	44100.37
569.81	44247.83
569.97	43861.64
570.13	44243.15
570.30	44217.40
570.46	43826.53
570.62	43878.02
570.78	43761.00
570.95	43658.01
571.11	44463.16
571.27	43812.49
571.43	43878.02
571.60	44519.33
571.76	43517.58
571.92	43910.79
572.09	44395.28
572.25	43702.48
572.41	44091.01
572.57	44460.82
572.74	44566.14
572.90	44266.55
573.06	44093.35
573.22	43934.20
573.38	44449.11
573.55	43498.86
573.71	44355.49
573.87	44336.77
574.03	43643.97
574.20	43737.59
574.36	44144.84
574.52	43894.41
574.68	44343.79
574.84	44243.15
575.01	44020.80
575.17	44210.38
575.33	43955.26
575.49	43962.28
575.65	44388.26
575.82	44638.70
575.98	44563.80
576.14	44486.56
576.30	44226.76
576.46	44512.31
576.62	44322.72
576.79	44105.06
576.95	44233.78
577.11	44091.01
577.27	44278.25
577.43	44296.98
577.59	44596.57
577.75	44165.91
577.92	43798.44
578.08	44233.78
578.24	43868.66
578.40	43880.36
578.56	43871.00
578.72	44692.53
578.88	44091.01
579.04	44605.93
579.21	44240.81
579.37	43999.73
579.53	44107.40
579.69	43498.86
579.85	44184.63
580.01	44807.22
580.17	43861.64
580.33	44493.58
580.49	44208.04
580.65	44619.97
580.82	44423.37
580.98	44360.17
581.14	44406.98
581.30	44751.04
581.46	44311.02
581.62	44931.26
581.78	44409.32
581.94	45022.54
582.10	44226.76
582.26	44519.33
582.42	44304.00
582.58	44399.96
582.74	44526.35
582.90	44615.29
583.06	44402.30
583.22	44301.66
583.38	44809.56
583.54	44758.06
583.70	44364.85
583.86	44760.40
584.02	44311.02
584.18	44369.54
584.34	44053.56
584.50	44488.90
584.66	44278.25
584.82	44451.45
584.98	44411.67
585.14	44692.53
585.30	44329.75
585.46	44685.51
585.62	44282.94
585.78	44676.15
585.94	44081.65
586.10	44563.80
586.26	44163.57
586.42	44428.05
586.58	44477.20
586.74	44912.54
586.90	44411.67
587.06	44329.75
587.22	44577.84
587.38	43943.56
587.54	44332.09
587.70	44458.48
587.86	44575.50
588.02	44612.95
588.18	44568.48
588.34	44182.29
588.49	44334.43
588.65	44137.82
588.81	44257.19
588.97	44376.56
589.13	43903.77
589.29	43856.96
589.45	44500.61
589.61	44877.43
589.77	44388.26
589.93	44612.95
590.08	44657.42
590.24	44711.25
590.40	44601.25
