SpectraSuite Data File
++++++++++++++++++++++++++++++++++++
Date: Fri Oct 25 10:46:57 EDT 2013
User: price-jones
Dark Spectrum Present: No
Reference Spectrum Present: No
Number of Sampled Component Spectra: 1
Spectrometers: USB2+H05261
Integration Time (usec): 100000 (USB2+H05261)
Spectra Averaged: 1 (USB2+H05261)
Boxcar Smoothing: 0 (USB2+H05261)
Correct for Electrical Dark: No (USB2+H05261)
Strobe/Lamp Enabled: No (USB2+H05261)
Correct for Detector Non-linearity: No (USB2+H05261)
Correct for Stray Light: No (USB2+H05261)
Number of Pixels in Processed Spectrum: 2048
>>>>>Begin Processed Spectral Data<<<<<
365.73	133.41
365.92	133.41
366.12	133.41
366.32	25.75
366.52	42.13
366.72	70.22
366.91	9.36
367.11	0.00
367.31	0.00
367.51	0.00
367.70	35.11
367.90	7.02
368.10	0.00
368.30	49.15
368.49	14.04
368.69	60.85
368.89	44.47
369.09	60.85
369.28	23.41
369.48	65.54
369.68	79.58
369.87	170.86
370.07	58.51
370.27	156.82
370.47	203.63
370.66	393.21
370.86	404.91
371.06	397.89
371.25	456.40
371.45	451.72
371.65	540.66
371.84	461.09
372.04	400.23
372.24	554.71
372.44	582.79
372.63	456.40
372.83	468.11
373.03	512.58
373.22	451.72
373.42	447.04
373.62	575.77
373.81	517.26
374.01	615.56
374.21	575.77
374.40	543.00
374.60	592.16
374.79	575.77
374.99	634.29
375.19	613.22
375.38	643.65
375.58	620.24
375.78	601.52
375.97	723.23
376.17	645.99
376.37	594.50
376.56	571.09
376.76	627.26
376.95	603.86
377.15	657.69
377.35	683.44
377.54	641.31
377.74	638.97
377.93	620.24
378.13	617.90
378.33	692.80
378.52	580.45
378.72	624.92
378.91	624.92
379.11	634.29
379.31	718.54
379.50	667.05
379.70	725.57
379.89	669.39
380.09	599.18
380.28	720.88
380.48	655.35
380.68	650.67
380.87	641.31
381.07	697.48
381.26	704.50
381.46	671.73
381.65	655.35
381.85	734.93
382.04	706.84
382.24	795.78
382.43	718.54
382.63	795.78
382.83	734.93
383.02	737.27
383.22	781.74
383.41	704.50
383.61	746.63
383.80	753.65
384.00	798.12
384.19	805.14
384.39	730.25
384.58	784.08
384.78	805.14
384.97	814.51
385.17	786.42
385.36	821.53
385.56	816.85
385.75	737.27
385.95	807.48
386.14	842.59
386.34	835.57
386.53	781.74
386.72	718.54
386.92	854.30
387.11	877.70
387.31	875.36
387.50	940.90
387.70	777.06
387.89	889.40
388.09	896.43
388.28	807.48
388.48	959.62
388.67	933.87
388.86	901.11
389.06	901.11
389.25	943.24
389.45	908.13
389.64	1046.22
389.84	1039.20
390.03	952.60
390.22	971.32
390.42	957.28
390.61	1013.45
390.81	1013.45
391.00	1027.50
391.19	1102.39
391.39	987.71
391.58	1006.43
391.78	1107.07
391.97	1053.24
392.16	1011.11
392.36	1029.84
392.55	985.37
392.75	1107.07
392.94	987.71
393.13	1025.15
393.33	954.94
393.52	1057.92
393.71	1109.41
393.91	1048.56
394.10	1074.31
394.29	1060.26
394.49	1114.10
394.68	1160.91
394.88	1181.97
395.07	1200.69
395.26	1179.63
395.46	1109.41
395.65	1217.08
395.84	1240.48
396.04	1242.82
396.23	1116.44
396.42	1130.48
396.62	1095.37
396.81	1219.42
397.00	1266.23
397.19	1266.23
397.39	1299.00
397.58	1270.91
397.77	1444.11
397.97	1446.45
398.16	1341.13
398.35	1355.17
398.55	1401.98
398.74	1413.68
398.93	1486.24
399.12	1455.81
399.32	1497.94
399.51	1427.73
399.70	1589.22
399.90	1544.75
400.09	1474.54
400.28	1413.68
400.47	1483.90
400.67	1575.18
400.86	1598.59
401.05	1647.74
401.24	1607.95
401.44	1612.63
401.63	1661.78
401.82	1584.54
402.01	1621.99
402.21	1710.93
402.40	1675.82
402.59	1638.38
402.78	1619.65
402.97	1708.59
403.17	1699.23
403.36	1640.72
403.55	1631.35
403.74	1799.87
403.93	1788.17
404.13	1844.34
404.32	1839.66
404.51	1806.89
404.70	1933.28
404.89	1884.13
405.09	1827.96
405.28	1898.17
405.47	1940.30
405.66	1832.64
405.85	1881.79
406.05	1888.81
406.24	2003.50
406.43	2019.88
406.62	2033.93
406.81	2157.97
407.00	1963.71
407.20	2083.08
407.39	1994.14
407.58	2078.40
407.77	2052.65
407.96	2132.23
408.15	2108.82
408.34	2193.08
408.54	2165.00
408.73	2139.25
408.92	2085.42
409.11	2160.31
409.30	2221.17
409.49	2181.38
409.68	2132.23
409.87	2291.38
410.07	2319.47
410.26	2275.00
410.45	2349.90
410.64	2363.94
410.83	2326.49
411.02	2504.37
411.21	2424.80
411.40	2452.88
411.59	2483.31
411.78	2429.48
411.98	2495.01
412.17	2560.55
412.36	2569.91
412.55	2656.51
412.74	2679.91
412.93	2663.53
413.12	2583.95
413.31	2736.09
413.50	2754.81
413.69	2691.62
413.88	2869.50
414.07	2876.52
414.26	2902.26
414.45	2792.26
414.64	2803.96
414.83	2883.54
415.02	2916.31
415.22	2956.10
415.41	3091.85
415.60	2958.44
415.79	3047.38
415.98	3112.91
416.17	3117.59
416.36	3136.32
416.55	3145.68
416.74	3178.45
416.93	3260.37
417.12	3073.12
417.31	3218.24
417.50	3227.60
417.69	3473.36
417.88	3279.09
418.07	3307.18
418.26	3353.99
418.45	3368.03
418.64	3489.74
418.83	3545.91
419.02	3548.25
419.21	3501.44
419.39	3574.00
419.58	3431.23
419.77	3557.61
419.96	3534.21
420.15	3623.15
420.34	3667.62
420.53	3627.83
420.72	3719.11
420.91	3744.86
421.10	3700.39
421.29	3669.96
421.48	3597.40
421.67	3772.94
421.86	3660.60
422.05	3796.35
422.24	3700.39
422.43	3714.43
422.61	3791.67
422.80	3751.88
422.99	3789.33
423.18	3779.97
423.37	4011.68
423.56	3831.46
423.75	3861.88
423.94	3674.64
424.13	3522.51
424.32	3662.94
424.50	4032.74
424.69	3845.50
424.88	3904.01
425.07	3712.09
425.26	3911.04
425.45	3922.74
425.64	3838.48
425.83	3957.85
426.01	3918.06
426.20	3918.06
426.39	3847.84
426.58	3655.92
426.77	3948.48
426.96	3854.86
427.15	3826.78
427.33	3873.59
427.52	3927.42
427.71	3969.55
427.90	4109.98
428.09	3934.44
428.28	3906.35
428.46	4042.11
428.65	4074.87
428.84	4180.20
429.03	4224.67
429.22	3934.44
429.40	4159.13
429.59	4032.74
429.78	4004.66
429.97	3971.89
430.16	4016.36
430.34	4100.62
430.53	4039.76
430.72	4182.54
430.91	4114.66
431.10	4262.12
431.28	4386.16
431.47	4372.12
431.66	4393.19
431.85	4306.59
432.03	4622.56
432.22	4622.56
432.41	4554.68
432.60	4528.94
432.79	4606.17
432.97	4430.63
433.16	4526.60
433.35	4540.64
433.54	4599.15
433.72	4540.64
433.91	4542.98
434.10	4678.73
434.28	4638.94
434.47	4816.82
434.66	4671.71
434.85	4898.74
435.03	4781.71
435.22	4723.20
435.41	4905.76
435.59	4931.51
435.78	5022.79
435.97	5097.69
436.16	4966.62
436.34	5008.75
436.53	5167.90
436.72	5111.73
436.90	4971.30
437.09	5083.64
437.28	4873.00
437.46	5041.51
437.65	4990.02
437.84	5085.98
438.02	4983.00
438.21	5022.79
438.40	5029.81
438.58	5345.78
438.77	5298.97
438.96	5177.26
439.14	5516.64
439.33	5341.10
439.52	5497.92
439.70	5542.39
439.89	5582.18
440.08	5572.82
440.26	5619.63
440.45	5458.13
440.63	5715.59
440.82	5886.45
441.01	5657.07
441.19	5757.72
441.38	5944.96
441.57	5746.02
441.75	6101.78
441.94	6085.39
442.12	6190.72
442.31	6136.88
442.50	6113.48
442.68	6050.28
442.87	6176.67
443.05	6069.01
443.24	6249.23
443.43	6160.29
443.61	6104.12
443.80	6258.59
443.98	6289.02
444.17	6001.13
444.35	6195.40
444.54	6305.40
444.73	6361.58
444.91	6389.66
445.10	6270.30
445.28	6249.23
445.47	6260.93
445.65	6310.08
445.84	6324.13
446.02	6413.07
446.21	6387.32
446.39	6448.18
446.58	6576.91
446.77	6441.15
446.95	6382.64
447.14	6354.55
447.32	6583.93
447.51	6562.86
447.69	6455.20
447.88	6537.12
448.06	6509.03
448.25	6445.84
448.43	6541.80
448.62	6574.56
448.80	6516.05
448.99	6693.93
449.17	6771.17
449.36	6593.29
449.54	6614.35
449.73	6932.67
449.91	6813.30
450.10	6832.02
450.28	7180.76
450.46	6991.18
450.65	7054.37
450.83	6757.13
451.02	6715.00
451.20	7239.28
451.39	6958.41
451.57	6963.09
451.76	7087.14
451.94	7049.69
452.13	6981.82
452.31	7012.24
452.49	6932.67
452.68	6984.16
452.86	7094.16
453.05	7250.98
453.23	7136.29
453.42	7176.08
453.60	6960.75
453.78	7234.60
453.97	7131.61
454.15	7283.75
454.34	7185.44
454.52	7372.69
454.70	7391.41
454.89	7410.14
455.07	7482.69
455.26	7243.96
455.44	7449.93
455.62	7543.55
455.81	7382.05
455.99	7531.84
456.17	7527.16
456.36	7616.10
456.54	7653.55
456.73	7735.47
456.91	8028.04
457.09	7831.43
457.28	7826.75
457.46	7875.90
457.64	7824.41
457.83	8025.70
458.01	7763.56
458.19	8100.59
458.38	7948.46
458.56	8044.42
458.74	7929.74
458.93	7885.26
459.11	8037.40
459.29	8184.85
459.48	8152.09
459.66	8060.80
459.84	8156.77
460.03	8138.04
460.21	8458.70
460.39	8241.03
460.57	8393.16
460.76	8446.99
460.94	8344.01
461.12	8182.51
461.31	8367.42
461.49	8449.33
461.67	8336.99
461.85	8477.42
462.04	8564.02
462.22	9013.40
462.40	8610.83
462.59	8662.32
462.77	8669.34
462.95	8566.36
463.13	8622.53
463.32	8645.94
463.50	8629.56
463.68	8585.08
463.86	8702.11
464.05	8830.84
464.23	8617.85
464.41	8926.80
464.59	8713.81
464.78	8954.89
464.96	8959.57
465.14	8982.98
465.32	8678.71
465.50	9142.13
465.69	9078.94
465.87	8964.25
466.05	8844.88
466.23	8891.70
466.41	9018.08
466.60	8985.32
466.78	8933.82
466.96	9170.22
467.14	9074.26
467.32	9224.05
467.51	9305.97
467.69	8997.02
467.87	9165.54
468.05	9202.99
468.23	9254.48
468.41	9132.77
468.60	9149.15
468.78	9352.78
468.96	9252.14
469.14	9305.97
469.32	9540.02
469.50	9575.13
469.69	9593.86
469.87	9383.21
470.05	9650.03
470.23	9635.99
470.41	9579.81
470.59	9671.09
470.77	9537.68
470.95	9699.18
471.14	9781.10
471.32	9757.69
471.50	9865.36
471.68	10115.80
471.86	10223.46
472.04	10303.04
472.22	10230.48
472.40	10061.96
472.58	10225.80
472.77	10104.09
472.95	10422.41
473.13	10422.41
473.31	10246.87
473.49	10204.74
473.67	10457.51
473.85	10443.47
474.03	10532.41
474.21	10768.80
474.39	10824.98
474.57	10752.42
474.75	10942.00
474.93	11169.04
475.12	11009.88
475.30	10918.60
475.48	10897.53
475.66	11136.27
475.84	11044.99
476.02	11192.44
476.20	11187.76
476.38	11466.28
476.56	11564.59
476.74	11190.10
476.92	11466.28
477.10	11709.70
477.28	11812.68
477.46	11761.19
477.64	11971.84
477.82	11913.33
478.00	12325.26
478.18	12212.92
478.36	12336.96
478.54	12519.53
478.72	12428.24
478.90	12393.14
479.08	12781.67
479.26	12767.62
479.44	12884.65
479.62	12980.61
479.80	13036.78
479.98	13118.70
480.16	13364.46
480.34	13053.17
480.52	13209.98
480.70	13399.57
480.88	13036.78
481.06	13593.83
481.24	13633.62
481.41	13790.44
481.59	14068.96
481.77	14146.20
481.95	13970.66
482.13	14225.78
482.31	14111.09
482.49	14527.71
482.67	14537.07
482.85	14675.16
483.03	14724.31
483.21	14904.53
483.39	14871.76
483.57	14897.51
483.74	15133.90
483.92	15035.60
484.10	15669.89
484.28	15576.27
484.46	15578.61
484.64	16086.50
484.82	15637.12
485.00	15969.48
485.18	16219.91
485.35	16393.11
485.53	16098.20
485.71	15836.06
485.89	15981.18
486.07	15845.43
486.25	16215.23
486.43	16362.69
486.61	16734.83
486.78	16978.25
486.96	17289.54
487.14	17411.25
487.32	17025.06
487.50	17446.35
487.68	17771.69
487.85	18085.32
488.03	18052.55
488.21	18349.80
488.39	18012.76
488.57	18396.61
488.75	18480.87
488.92	18642.37
489.10	18995.79
489.28	19082.39
489.46	19321.12
489.64	18995.79
489.81	19730.72
489.99	19487.30
490.17	19845.40
490.35	20025.62
490.53	19873.49
490.70	19896.89
490.88	20004.56
491.06	20175.42
491.24	20245.63
491.41	20535.86
491.59	20201.16
491.77	20594.37
491.95	20814.38
492.13	21184.19
492.30	21050.78
492.48	21172.49
492.66	21652.30
492.84	21371.43
493.01	21834.86
493.19	21680.38
493.37	21710.81
493.54	21766.98
493.72	22171.89
493.90	21935.50
494.08	22391.91
494.25	22679.79
494.43	22970.02
494.61	23012.15
494.79	23014.49
494.96	22689.15
495.14	22974.70
495.32	23131.51
495.49	23281.31
495.67	23283.65
495.85	23365.57
496.02	23924.96
496.20	23920.28
496.38	23934.32
496.55	23953.04
496.73	24404.77
496.91	24243.27
497.09	24081.77
497.26	24596.69
497.44	24379.02
497.62	24657.54
497.79	24947.77
497.97	24580.31
498.14	24847.13
498.32	25050.75
498.50	24905.64
498.67	25392.47
498.85	25563.33
499.03	25834.83
499.20	25685.04
499.38	25724.83
499.56	26064.21
499.73	25706.10
499.91	26005.69
500.08	26078.25
500.26	26085.27
500.44	25947.18
500.61	26459.76
500.79	26167.19
500.97	26408.26
501.14	27180.64
501.32	26862.33
501.49	26925.52
501.67	26600.19
501.84	27063.61
502.02	27049.57
502.20	27285.97
502.37	27424.06
502.55	27580.87
502.72	27454.48
502.90	27693.22
503.07	27424.06
503.25	27395.97
503.43	27880.46
503.60	27740.03
503.78	28018.55
503.95	27683.86
504.13	27763.43
504.30	28411.76
504.48	28318.14
504.65	28905.62
504.83	28542.83
505.01	28535.81
505.18	28348.57
505.36	28774.55
505.53	28783.91
505.71	29329.25
505.88	29242.65
506.06	29090.52
506.23	29120.95
506.41	28823.70
506.58	29364.36
506.76	29326.91
506.93	29514.16
507.11	29706.08
507.28	29329.25
507.46	29734.17
507.63	29425.22
507.81	29771.61
507.98	29216.91
508.16	29799.70
508.33	30087.59
508.50	29916.73
508.68	30213.98
508.85	30494.84
509.03	30506.54
509.20	30604.84
509.38	30810.81
509.55	30469.09
509.73	30803.79
509.90	30899.75
510.08	30829.54
510.25	30911.46
510.42	30759.32
510.60	31021.46
510.77	31026.14
510.95	31274.24
511.12	31323.39
511.30	31529.36
511.47	31924.91
511.64	32273.65
511.82	31892.14
511.99	31487.23
512.17	31981.08
512.34	31772.77
512.51	32376.63
512.69	32243.22
512.86	32243.22
513.04	32287.69
513.21	32158.96
513.38	32423.44
513.56	32264.28
513.73	32034.91
513.90	32826.01
514.08	32395.35
514.25	32699.62
514.43	32753.46
514.60	33029.64
514.77	32730.05
514.95	32762.82
515.12	33090.49
515.29	33298.80
515.47	33558.60
515.64	33298.80
515.81	33242.63
515.99	33212.20
516.16	33771.59
516.33	32938.36
516.51	33362.00
516.68	33036.66
516.85	33095.18
517.03	33282.42
517.20	33259.01
517.37	33778.61
517.54	33989.26
517.72	33687.33
517.89	33977.56
518.06	33958.83
518.24	33954.15
518.41	33324.55
518.58	34085.22
518.75	33869.89
518.93	34946.54
519.10	34157.78
519.27	34345.02
519.45	34831.85
519.62	34885.68
519.79	34890.37
519.96	35145.48
520.14	34932.50
520.31	34632.91
520.48	34796.74
520.65	34916.11
520.83	35421.67
521.00	35466.14
521.17	35051.86
521.34	35367.84
521.52	35615.93
521.69	35480.18
521.86	35770.41
522.03	35913.18
522.20	35751.68
522.38	36109.78
522.55	36084.04
522.72	35770.41
522.89	35590.19
523.07	36212.77
523.24	35875.73
523.41	36102.76
523.58	36432.78
523.75	37184.09
523.92	36692.58
524.10	37130.26
524.27	36390.65
524.44	37006.21
524.61	36779.18
524.78	36910.25
524.96	37174.73
525.13	37523.47
525.30	37280.05
525.47	37537.51
525.64	37153.66
525.81	37237.92
525.98	36877.48
526.16	37280.05
526.33	36704.28
526.50	37347.93
526.67	36858.76
526.84	37053.02
527.01	37071.75
527.18	37532.83
527.36	37666.24
527.53	38057.11
527.70	37904.98
527.87	38040.73
528.04	38178.82
528.21	38085.20
528.38	37935.40
528.55	38157.75
528.72	38377.76
528.89	38653.95
529.07	38181.16
529.24	38026.68
529.41	38246.69
529.58	38230.31
529.75	38057.11
529.92	38550.96
530.09	38628.20
530.26	38731.18
530.43	38670.33
530.60	38506.49
530.77	38604.80
530.94	39115.03
531.11	38738.21
531.28	39108.01
531.46	39232.06
531.63	39323.34
531.80	39225.04
531.97	39096.31
532.14	39143.12
532.31	38527.56
532.48	39065.88
532.65	39622.93
532.82	39138.44
532.99	39608.89
533.16	39213.34
533.33	39356.11
533.50	39583.14
533.67	39676.76
533.84	39505.90
534.01	39440.37
534.18	39676.76
534.35	40076.99
534.52	39618.25
534.69	40147.21
534.86	39744.64
535.03	39725.91
535.20	39864.00
535.37	40559.14
535.54	40519.35
535.71	40170.61
535.88	40076.99
536.05	40048.91
536.22	40119.12
536.38	40507.65
536.55	40245.51
536.72	40289.98
536.89	40236.15
537.06	40144.87
537.23	40528.72
537.40	40664.47
537.57	40608.29
537.74	40980.44
537.91	41677.92
538.08	40816.60
538.25	40610.64
538.42	40926.61
538.59	40790.86
538.75	40832.99
538.92	41081.08
539.09	40854.05
539.26	41088.10
539.43	41130.23
539.60	41242.58
539.77	40797.88
539.94	41319.82
540.11	40772.13
540.28	41338.54
540.44	41249.60
540.61	40999.16
540.78	41308.11
540.95	40992.14
541.12	40961.72
541.29	41017.89
541.46	40840.01
541.62	41933.04
541.79	41682.60
541.96	41270.67
542.13	41467.27
542.30	41706.01
542.47	41935.38
542.63	41687.28
542.80	41776.22
542.97	42241.99
543.14	42803.72
543.31	42157.73
543.48	42431.57
543.64	42600.09
543.81	42323.91
543.98	42740.52
544.15	42508.81
544.32	42410.51
544.48	42946.49
544.65	42532.22
544.82	42658.60
544.99	42384.76
545.16	42405.83
545.32	42499.45
545.49	43243.74
545.66	42649.24
545.83	42689.03
546.00	42899.68
546.16	43079.90
546.33	42796.70
546.50	42609.45
546.67	42691.37
546.83	42295.82
547.00	42934.79
547.17	42705.41
547.34	42890.32
547.50	42997.98
547.67	43407.58
547.84	43049.47
548.00	43079.90
548.17	43606.52
548.34	43206.29
548.51	43700.14
548.67	43758.66
548.84	43199.27
549.01	43639.29
549.18	43585.46
549.34	43475.45
549.51	43503.54
549.68	43430.98
549.84	43845.26
550.01	43903.77
550.18	43489.49
550.34	44062.93
550.51	43540.99
550.68	43145.44
550.84	43318.64
551.01	43952.92
551.18	43615.88
551.34	43992.71
551.51	43693.12
551.68	43503.54
551.84	43981.01
552.01	44107.40
552.18	44191.65
552.34	43655.67
552.51	43889.73
552.68	43728.23
552.84	44126.12
553.01	44535.71
553.18	43945.90
553.34	44030.16
553.51	43796.10
553.67	44421.03
553.84	44746.36
554.01	44399.96
554.17	44402.30
554.34	44371.88
554.51	44353.15
554.67	44765.09
554.84	44491.24
555.00	44409.32
555.17	44678.49
555.33	44411.67
555.50	44355.49
555.67	44163.57
555.83	44381.24
556.00	44643.38
556.16	44868.07
556.33	44547.42
556.50	44465.50
556.66	44748.70
556.83	44828.28
556.99	44783.81
557.16	45008.50
557.32	44608.27
557.49	44760.40
557.65	44715.93
557.82	44769.77
557.98	44680.83
558.15	44659.76
558.32	44692.53
558.48	44481.88
558.65	45298.73
558.81	44540.39
558.98	45043.61
559.14	44786.15
559.31	45055.31
559.47	44987.44
559.64	45380.65
559.80	45277.66
559.97	45081.06
560.13	44912.54
560.30	44652.74
560.46	44842.32
560.63	44985.10
560.79	44996.80
560.96	45420.44
561.12	45010.84
561.29	45310.43
561.45	45296.39
561.61	45102.12
561.78	44985.10
561.94	45179.36
562.11	45399.37
562.27	45027.23
562.44	45024.89
562.60	45518.74
562.77	45691.94
562.93	45038.93
563.10	45525.76
563.26	45221.49
563.42	45708.32
563.59	45584.27
563.75	45223.83
563.92	45633.42
564.08	45879.18
564.24	45691.94
564.41	45876.84
564.57	45137.23
564.74	45270.64
564.90	45614.70
565.07	45848.75
565.23	45656.83
565.39	45174.68
565.56	45649.81
565.72	44893.82
565.88	45291.71
566.05	45799.60
566.21	45272.98
566.38	45406.39
566.54	45478.95
566.70	45972.80
566.87	45928.33
567.03	45794.92
567.19	46012.59
567.36	45595.98
567.52	45918.97
567.68	45963.44
567.85	45226.17
568.01	45717.68
568.17	45368.94
568.34	45883.86
568.50	45787.90
568.66	45738.75
568.83	45975.14
568.99	45684.92
569.15	45354.90
569.32	45511.72
569.48	45560.87
569.64	46234.94
569.81	46113.23
569.97	45893.22
570.13	45844.07
570.30	45390.01
570.46	45404.05
570.62	45572.57
570.78	45310.43
570.95	45385.33
571.11	45654.49
571.27	45771.52
571.43	45736.41
571.60	46012.59
571.76	45694.28
571.92	45911.95
572.09	45741.09
572.25	45581.93
572.41	45272.98
572.57	46073.45
572.74	46295.80
572.90	45918.97
573.06	45825.35
573.22	45804.28
573.38	45944.72
573.55	45825.35
573.71	45848.75
573.87	45874.50
574.03	45656.83
574.20	45792.58
574.36	45954.08
574.52	45977.48
574.68	45755.13
574.84	46174.09
575.01	46110.89
575.17	45893.22
575.33	45507.04
575.49	45972.80
575.65	46054.72
575.82	46256.01
575.98	46071.10
576.14	46443.25
576.30	45996.21
576.46	45862.80
576.62	45947.06
576.79	45811.31
576.95	45862.80
577.11	46178.77
577.27	45984.51
577.43	46546.23
577.59	45958.76
577.75	46087.49
577.92	45296.39
578.08	45680.24
578.24	45233.19
578.40	45872.16
578.56	46251.33
578.72	45532.78
578.88	45951.74
579.04	46047.70
579.21	45502.35
579.37	45787.90
579.53	46258.35
579.69	46005.57
579.85	45911.95
580.01	45900.25
580.17	45925.99
580.33	46195.15
580.49	46319.20
580.65	46106.21
580.82	45942.38
580.98	45783.22
581.14	46103.87
581.30	46052.38
581.46	45918.97
581.62	46220.90
581.78	46157.70
581.94	46426.87
582.10	46136.64
582.26	45958.76
582.42	45759.81
582.58	45785.56
582.74	46054.72
582.90	45886.20
583.06	46298.14
583.22	46815.40
583.38	46476.02
583.54	46256.01
583.70	46075.79
583.86	46354.31
584.02	45993.87
584.18	46241.96
584.34	46478.36
584.50	46298.14
584.66	46040.68
584.82	45750.45
584.98	46389.42
585.14	46431.55
585.30	46267.71
585.46	46122.60
585.62	46014.93
585.78	46127.28
585.94	45734.07
586.10	45991.53
586.26	45710.66
586.42	46199.83
586.58	46321.54
586.74	46473.68
586.90	46012.59
587.06	45858.12
587.22	45841.73
587.38	45792.58
587.54	46043.02
587.70	46244.30
587.86	45935.35
588.02	46073.45
588.18	46211.54
588.34	46270.05
588.49	45935.35
588.65	45270.64
588.81	45766.84
588.97	45921.31
589.13	45443.84
589.29	45933.01
589.45	46595.38
589.61	46337.93
589.77	46405.80
589.93	45778.54
590.08	46082.81
