SpectraSuite Data File
++++++++++++++++++++++++++++++++++++
Date: Fri Oct 25 11:34:00 EDT 2013
User: price-jones
Dark Spectrum Present: No
Reference Spectrum Present: No
Number of Sampled Component Spectra: 1
Spectrometers: USB2+H05261
Integration Time (usec): 100000 (USB2+H05261)
Spectra Averaged: 1 (USB2+H05261)
Boxcar Smoothing: 0 (USB2+H05261)
Correct for Electrical Dark: No (USB2+H05261)
Strobe/Lamp Enabled: No (USB2+H05261)
Correct for Detector Non-linearity: No (USB2+H05261)
Correct for Stray Light: No (USB2+H05261)
Number of Pixels in Processed Spectrum: 2048
>>>>>Begin Processed Spectral Data<<<<<
365.73	271.50
365.92	271.50
366.12	271.50
366.32	215.33
366.52	163.84
366.72	149.79
366.91	177.88
367.11	170.86
367.31	124.05
367.51	187.24
367.70	217.67
367.90	215.33
368.10	154.48
368.30	175.54
368.49	161.50
368.69	252.78
368.89	222.35
369.09	131.07
369.28	170.86
369.48	248.10
369.68	234.05
369.87	243.42
370.07	234.05
370.27	287.89
370.47	355.76
370.66	519.60
370.86	526.62
371.06	512.58
371.25	547.69
371.45	596.84
371.65	519.60
371.84	505.56
372.04	573.43
372.24	552.37
372.44	578.11
372.63	624.92
372.83	601.52
373.03	636.63
373.22	566.41
373.42	629.60
373.62	660.03
373.81	599.18
374.01	655.35
374.21	594.50
374.40	566.41
374.60	620.24
374.79	624.92
374.99	657.69
375.19	610.88
375.38	610.88
375.58	650.67
375.78	641.31
375.97	692.80
376.17	734.93
376.37	613.22
376.56	678.76
376.76	657.69
376.95	613.22
377.15	774.72
377.35	671.73
377.54	669.39
377.74	695.14
377.93	688.12
378.13	713.86
378.33	720.88
378.52	699.82
378.72	765.36
378.91	823.87
379.11	777.06
379.31	695.14
379.50	660.03
379.70	802.80
379.89	753.65
380.09	751.31
380.28	695.14
380.48	798.12
380.68	755.99
380.87	772.38
381.07	690.46
381.26	737.27
381.46	777.06
381.65	746.63
381.85	674.07
382.04	807.48
382.24	765.36
382.43	816.85
382.63	713.86
382.83	770.04
383.02	786.42
383.22	774.72
383.41	784.08
383.61	788.76
383.80	870.68
384.00	758.33
384.19	800.46
384.39	772.38
384.58	873.02
384.78	784.08
384.97	833.23
385.17	901.11
385.36	870.68
385.56	798.12
385.75	835.57
385.95	821.53
386.14	861.32
386.34	858.98
386.53	866.00
386.72	910.47
386.92	821.53
387.11	922.17
387.31	908.13
387.50	875.36
387.70	863.66
387.89	889.40
388.09	938.55
388.28	835.57
388.48	882.38
388.67	868.34
388.86	877.70
389.06	896.43
389.25	985.37
389.45	940.90
389.64	915.15
389.84	971.32
390.03	1025.15
390.22	917.49
390.42	999.41
390.61	936.21
390.81	966.64
391.00	924.51
391.19	1011.11
391.39	933.87
391.58	973.66
391.78	1055.58
391.97	1013.45
392.16	980.68
392.36	1043.88
392.55	1034.52
392.75	1013.45
392.94	1025.15
393.13	1043.88
393.33	1083.67
393.52	1149.20
393.71	1076.65
393.91	1060.26
394.10	1088.35
394.29	1074.31
394.49	1081.33
394.68	1111.75
394.88	1102.39
395.07	1196.01
395.26	1135.16
395.46	1104.73
395.65	1191.33
395.84	1076.65
396.04	1270.91
396.23	1100.05
396.42	1167.93
396.62	1240.48
396.81	1231.12
397.00	1266.23
397.19	1125.80
397.39	1186.65
397.58	1170.27
397.77	1217.08
397.97	1221.76
398.16	1249.85
398.35	1228.78
398.55	1231.12
398.74	1345.81
398.93	1380.92
399.12	1252.19
399.32	1266.23
399.51	1317.72
399.70	1341.13
399.90	1350.49
400.09	1434.75
400.28	1394.96
400.47	1413.68
400.67	1387.94
400.86	1497.94
401.05	1362.19
401.24	1399.64
401.44	1418.36
401.63	1425.39
401.82	1451.13
402.01	1427.73
402.21	1460.49
402.40	1418.36
402.59	1465.18
402.78	1521.35
402.97	1432.41
403.17	1504.96
403.36	1493.26
403.55	1579.86
403.74	1488.58
403.93	1542.41
404.13	1565.82
404.32	1502.62
404.51	1598.59
404.70	1600.93
404.89	1570.50
405.09	1640.72
405.28	1668.80
405.47	1570.50
405.66	1724.97
405.85	1739.02
406.05	1727.32
406.24	1767.10
406.43	1668.80
406.62	1739.02
406.81	1818.60
407.00	1767.10
407.20	1809.23
407.39	1753.06
407.58	1895.83
407.77	1914.56
407.96	1872.43
408.15	1813.92
408.34	1823.28
408.54	1900.52
408.73	1907.54
408.92	1872.43
409.11	1916.90
409.30	1926.26
409.49	2001.16
409.68	2019.88
409.87	1916.90
410.07	2115.84
410.26	2097.12
410.45	2024.56
410.64	2059.67
410.83	2115.84
411.02	2045.63
411.21	2169.68
411.40	2148.61
411.59	2099.46
411.78	2078.40
411.98	2207.13
412.17	2263.30
412.36	2211.81
412.55	2293.72
412.74	2279.68
412.93	2317.13
413.12	2265.64
413.31	2429.48
413.50	2392.03
413.69	2408.41
413.88	2572.25
414.07	2413.09
414.26	2497.35
414.45	2448.20
414.64	2438.84
414.83	2469.27
415.02	2644.81
415.22	2705.66
415.41	2642.46
415.60	2677.57
415.79	2593.31
415.98	2628.42
416.17	2710.34
416.36	2703.32
416.55	2731.41
416.74	2773.53
416.93	2761.83
417.12	2869.50
417.31	2820.35
417.50	2766.51
417.69	2860.13
417.88	2867.16
418.07	2963.12
418.26	2874.18
418.45	3002.91
418.64	3068.44
418.83	3016.95
419.02	3012.27
419.21	3035.67
419.39	3077.80
419.58	2998.23
419.77	3059.08
419.96	3028.65
420.15	3187.81
420.34	3162.06
420.53	3265.05
420.72	3136.32
420.91	3141.00
421.10	3290.79
421.29	3208.87
421.48	3197.17
421.67	3232.28
421.86	3251.00
422.05	3356.33
422.24	3211.22
422.43	3251.00
422.61	3393.78
422.80	3300.16
422.99	3398.46
423.18	3248.66
423.37	3405.48
423.56	3344.63
423.75	3272.07
423.94	3208.87
424.13	3272.07
424.32	3199.51
424.50	3452.29
424.69	3447.61
424.88	3421.86
425.07	3339.94
425.26	3295.47
425.45	3407.82
425.64	3358.67
425.83	3370.37
426.01	3520.17
426.20	3391.44
426.39	3499.10
426.58	3517.83
426.77	3403.14
426.96	3501.44
427.15	3452.29
427.33	3534.21
427.52	3552.93
427.71	3662.94
427.90	3613.79
428.09	3660.60
428.28	3707.41
428.46	3630.17
428.65	3698.05
428.84	3669.96
429.03	3794.01
429.22	3555.27
429.40	3662.94
429.59	3613.79
429.78	3566.98
429.97	3609.11
430.16	3775.28
430.34	3868.91
430.53	3618.47
430.72	3871.25
430.91	3880.61
431.10	3936.78
431.28	3934.44
431.47	3922.74
431.66	3992.95
431.85	3852.52
432.03	3978.91
432.22	4072.53
432.41	4121.68
432.60	4011.68
432.79	3946.14
432.97	4063.17
433.16	4023.38
433.35	4114.66
433.54	4098.28
433.72	4198.92
433.91	4107.64
434.10	4077.21
434.28	4161.47
434.47	4074.87
434.66	4287.86
434.85	4365.10
435.03	4315.95
435.22	4257.43
435.41	4402.55
435.59	4344.03
435.78	4365.10
435.97	4348.72
436.16	4404.89
436.34	4430.63
436.53	4395.53
436.72	4393.19
436.90	4198.92
437.09	4411.91
437.28	4393.19
437.46	4379.14
437.65	4524.26
437.84	4746.61
438.02	4528.94
438.21	4573.41
438.40	4470.42
438.58	4706.82
438.77	4758.31
438.96	4685.75
439.14	4669.37
439.33	4816.82
439.52	4784.06
439.70	4748.95
439.89	5008.75
440.08	4929.17
440.26	4891.72
440.45	4966.62
440.63	5013.43
440.82	5144.50
441.01	5046.20
441.19	5093.01
441.38	5282.59
441.57	5029.81
441.75	5177.26
441.94	5156.20
442.12	5259.18
442.31	5387.91
442.50	5469.83
442.68	5350.46
442.87	5273.23
443.05	5420.68
443.24	5568.13
443.43	5542.39
443.61	5467.49
443.80	5568.13
443.98	5348.12
444.17	5252.16
444.35	5507.28
444.54	5495.58
444.73	5453.45
444.91	5446.43
445.10	5624.31
445.28	5593.88
445.47	5551.75
445.65	5481.53
445.84	5692.18
446.02	5633.67
446.21	5661.76
446.39	5535.37
446.58	5465.15
446.77	5659.42
446.95	5600.90
447.14	5748.36
447.32	5701.54
447.51	5692.18
447.69	5785.80
447.88	5605.58
448.06	5666.44
448.25	5818.57
448.43	5687.50
448.62	5748.36
448.80	5696.86
448.99	5731.97
449.17	5804.53
449.36	5727.29
449.54	5954.32
449.73	5930.92
449.91	6071.35
450.10	5884.11
450.28	6033.90
450.46	6193.06
450.65	6146.25
450.83	6001.13
451.02	6083.05
451.20	6094.76
451.39	6181.35
451.57	6291.36
451.76	6139.23
451.94	6209.44
452.13	6202.42
452.31	6157.95
452.49	6169.65
452.68	6064.33
452.86	6333.49
453.05	6349.87
453.23	6134.54
453.42	6448.18
453.60	6218.80
453.78	6427.11
453.97	6066.67
454.15	6183.70
454.34	6363.92
454.52	6319.45
454.70	6389.66
454.89	6457.54
455.07	6443.49
455.26	6499.67
455.44	6581.59
455.62	6527.75
455.81	6553.50
455.99	6733.72
456.17	6628.40
456.36	6576.91
456.54	6642.44
456.73	6970.12
456.91	6773.51
457.09	6839.05
457.28	7040.33
457.46	6977.14
457.64	7023.95
457.83	7091.82
458.01	6904.58
458.19	7084.80
458.38	7014.59
458.56	7136.29
458.74	6958.41
458.93	6998.20
459.11	7037.99
459.29	6986.50
459.48	7246.30
459.66	7208.85
459.84	7133.95
460.03	7368.01
460.21	7328.22
460.39	7335.24
460.57	7435.88
460.76	7351.62
460.94	7356.30
461.12	7449.93
461.31	7569.29
461.49	7349.28
461.67	7307.15
461.85	7597.38
462.04	7407.80
462.22	7925.05
462.40	7836.11
462.59	7541.21
462.77	7705.04
462.95	7660.57
463.13	7749.51
463.32	7538.87
463.50	7812.71
463.68	7817.39
463.86	7948.46
464.05	7576.31
464.23	7705.04
464.41	7627.81
464.59	7520.14
464.78	8098.25
464.96	7922.71
465.14	8105.28
465.32	7943.78
465.50	8135.70
465.69	7925.05
465.87	8114.64
466.05	8021.02
466.23	7929.74
466.41	8016.33
466.60	8133.36
466.78	8060.80
466.96	8112.30
467.14	8180.17
467.32	8180.17
467.51	8234.00
467.69	8140.38
467.87	8166.13
468.05	8402.52
468.23	8311.24
468.41	8161.45
468.60	8105.28
468.78	8369.76
468.96	8318.26
469.14	8442.31
469.32	8379.12
469.50	8215.28
469.69	8486.78
469.87	8517.21
470.05	8599.13
470.23	8645.94
470.41	8603.81
470.59	8837.86
470.77	8606.15
470.95	8671.68
471.14	8809.78
471.32	8587.43
471.50	8884.67
471.68	8931.48
471.86	8830.84
472.04	9071.92
472.22	9322.35
472.40	8814.46
472.58	9022.77
472.77	9067.24
472.95	9224.05
473.13	9624.28
473.31	9268.52
473.49	9383.21
473.67	9390.23
473.85	9324.69
474.03	9437.04
474.21	9596.20
474.39	9444.06
474.57	9591.52
474.75	9811.53
474.93	9753.01
475.12	9647.69
475.30	9973.02
475.48	9804.50
475.66	10033.88
475.84	10073.67
476.02	9912.17
476.20	9813.87
476.38	10207.08
476.56	10387.30
476.74	10317.08
476.92	10370.91
477.10	10408.36
477.28	10558.16
477.46	10427.09
477.64	10778.17
477.82	11005.20
478.00	11094.14
478.18	11145.63
478.36	10967.75
478.54	11026.26
478.72	11335.21
478.90	11272.02
479.08	11257.98
479.26	11360.96
479.44	11459.26
479.62	11536.50
479.80	11709.70
479.98	11880.56
480.16	12030.35
480.34	11866.52
480.52	11868.86
480.70	12215.26
480.88	11875.88
481.06	12187.17
481.24	12285.47
481.41	12372.07
481.59	12592.08
481.77	12718.47
481.95	12690.38
482.13	12828.48
482.31	12936.14
482.49	13130.41
482.67	12989.97
482.85	13291.90
483.03	13324.67
483.21	13296.58
483.39	13769.37
483.57	13493.19
483.74	13507.23
483.92	13724.90
484.10	13884.06
484.28	13916.83
484.46	14197.69
484.64	14455.15
484.82	14244.50
485.00	14572.18
485.18	14911.55
485.35	15016.88
485.53	14740.69
485.71	14881.13
485.89	15131.56
486.07	15030.92
486.25	15080.07
486.43	15276.68
486.61	15590.31
486.78	15557.54
486.96	15744.78
487.14	16013.95
487.32	15908.62
487.50	16137.99
487.68	16189.49
487.85	16390.77
488.03	16404.81
488.21	16783.98
488.39	16898.67
488.57	16702.06
488.75	17015.69
488.92	17188.89
489.10	17406.56
489.28	17394.86
489.46	17743.60
489.64	17858.29
489.81	17783.39
489.99	17987.02
490.17	17905.10
490.35	17912.12
490.53	18181.28
490.70	18560.45
490.88	18277.24
491.06	18735.99
491.24	18672.79
491.41	18757.05
491.59	19000.47
491.77	19168.99
491.95	19302.40
492.13	19435.81
492.30	19353.89
492.48	19459.21
492.66	19695.61
492.84	19775.19
493.01	19950.73
493.19	19763.48
493.37	20077.12
493.54	20128.61
493.72	20168.40
493.90	19969.45
494.08	20514.80
494.25	20645.87
494.43	20613.10
494.61	20858.85
494.79	20753.53
494.96	20781.62
495.14	21151.42
495.32	21062.48
495.49	21511.86
495.67	21778.68
495.85	21418.24
496.02	21994.01
496.20	21818.47
496.38	21982.31
496.55	21909.75
496.73	22656.39
496.91	22298.28
497.09	22698.52
497.26	22466.80
497.44	22455.10
497.62	22731.28
497.79	22841.29
497.97	23061.30
498.14	23040.23
498.32	23255.56
498.50	23576.22
498.67	23379.61
498.85	23431.10
499.03	23660.48
499.20	23594.94
499.38	23896.87
499.56	23955.38
499.73	23775.16
499.91	24254.97
500.08	24261.99
500.26	23871.12
500.44	24215.18
500.61	24252.63
500.79	24449.24
500.97	24662.22
501.14	24835.42
501.32	24879.89
501.49	24828.40
501.67	24809.68
501.84	25378.43
502.02	25078.84
502.20	25415.88
502.37	25322.26
502.55	25394.81
502.72	25514.18
502.90	25568.01
503.07	25319.92
503.25	25474.39
503.43	25692.06
503.60	25853.56
503.78	26033.78
503.95	26043.14
504.13	25893.35
504.30	26403.58
504.48	26033.78
504.65	26522.95
504.83	26785.09
505.01	26859.99
505.18	26541.68
505.36	26813.18
505.53	26574.44
505.71	27037.87
505.88	27131.49
506.06	26752.32
506.23	27330.44
506.41	26944.25
506.58	27534.06
506.76	27454.48
506.93	27821.95
507.11	27271.92
507.28	27758.75
507.46	27934.29
507.63	27835.99
507.81	28041.96
507.98	27819.61
508.16	27850.03
508.33	27971.74
508.50	28416.44
508.68	28531.13
508.85	28535.81
509.03	28449.21
509.20	28748.80
509.38	29036.69
509.55	28835.40
509.73	28802.63
509.90	29069.45
510.08	28952.43
510.25	29174.78
510.42	29017.96
510.60	29259.04
510.77	29542.24
510.95	29432.24
511.12	29113.92
511.30	29457.98
511.47	29439.26
511.64	29797.36
511.82	29680.33
511.99	29546.92
512.17	29982.26
512.34	30286.53
512.51	30401.22
512.69	30654.00
512.86	30286.53
513.04	30574.42
513.21	30677.40
513.38	30520.59
513.56	30642.29
513.73	30314.62
513.90	30724.21
514.08	30583.78
514.25	31220.41
514.43	31051.89
514.60	31154.87
514.77	30962.95
514.95	31608.93
515.12	31283.60
515.29	31622.98
515.47	31566.81
515.64	31604.25
515.81	31489.57
515.99	31360.84
516.16	31936.61
516.33	31913.20
516.51	32130.87
516.68	32004.49
516.85	31992.78
517.03	32037.25
517.20	31892.14
517.37	32208.11
517.54	32156.62
517.72	32360.25
517.89	32648.13
518.06	32460.89
518.24	32507.70
518.41	32697.28
518.58	32657.49
518.75	32470.25
518.93	32996.87
519.10	32818.99
519.27	32933.68
519.45	32556.85
519.62	33172.41
519.79	33251.99
519.96	33284.76
520.14	33268.37
520.31	33668.61
520.48	33546.90
520.65	33909.68
520.83	33816.06
521.00	33729.46
521.17	34012.66
521.34	33883.94
521.52	33961.17
521.69	33961.17
521.86	34239.70
522.03	34190.55
522.20	34436.30
522.38	34508.86
522.55	34291.19
522.72	34548.65
522.89	34359.06
523.07	34972.28
523.24	34981.65
523.41	34916.11
523.58	34637.59
523.75	35012.07
523.92	34778.02
524.10	34932.50
524.27	35253.15
524.44	35042.50
524.61	35269.53
524.78	35510.61
524.96	35496.56
525.13	35704.87
525.30	35782.11
525.47	35859.35
525.64	35461.46
525.81	35601.89
525.98	35737.64
526.16	35693.17
526.33	35573.80
526.50	35936.59
526.67	35971.69
526.84	35969.35
527.01	35873.39
527.18	36306.39
527.36	36587.25
527.53	36210.43
527.70	36776.84
527.87	36428.10
528.04	35676.79
528.21	36402.35
528.38	36430.44
528.55	36971.10
528.72	36818.97
528.89	37010.89
529.07	36849.39
529.24	36531.08
529.41	37088.13
529.58	37127.92
529.75	36825.99
529.92	37158.34
530.09	37404.10
530.26	37158.34
530.43	37343.25
530.60	37280.05
530.77	36591.94
530.94	37237.92
531.11	37251.97
531.28	37301.12
531.46	37727.10
531.63	37474.32
531.80	37088.13
531.97	38012.64
532.14	37755.18
532.31	37888.59
532.48	38396.49
532.65	38403.51
532.82	37844.12
532.99	37958.81
533.16	38073.49
533.33	37769.22
533.50	38513.52
533.67	38029.02
533.84	37811.35
534.01	38389.47
534.18	38480.75
534.35	38291.16
534.52	38501.81
534.69	38642.24
534.86	38859.91
535.03	38895.02
535.20	38990.98
535.37	38658.63
535.54	39225.04
535.71	38813.10
535.88	38934.81
536.05	38710.12
536.22	38946.51
536.38	39168.87
536.55	38623.52
536.72	39016.73
536.89	39344.41
537.06	39601.86
537.23	39578.46
537.40	39339.72
537.57	39452.07
537.74	39187.59
537.91	39438.03
538.08	39475.48
538.25	39105.67
538.42	39831.24
538.59	39894.43
538.75	39328.02
538.92	39943.58
539.09	40294.66
539.26	40004.44
539.43	40067.63
539.60	40013.80
539.77	39819.53
539.94	40107.42
540.11	40044.23
540.28	40304.02
540.44	40439.78
540.61	40137.85
540.78	40187.00
540.95	40362.54
541.12	40362.54
541.29	40341.47
541.46	40577.87
541.62	40528.72
541.79	41195.77
541.96	40121.46
542.13	40488.93
542.30	40683.19
542.47	40383.60
542.63	40753.41
542.80	40854.05
542.97	41160.66
543.14	41460.25
543.31	40793.20
543.48	41167.68
543.64	41729.41
543.81	40985.12
543.98	41537.49
544.15	41303.43
544.32	41654.51
544.48	41853.46
544.65	41663.88
544.82	41930.70
544.99	41546.85
545.16	41729.41
545.32	41280.03
545.49	42000.91
545.66	42092.19
545.83	41713.03
546.00	42253.69
546.16	42120.28
546.33	41963.46
546.50	41832.39
546.67	41928.36
546.83	41736.43
547.00	42174.11
547.17	41773.88
547.34	42127.30
547.50	42113.26
547.67	42670.31
547.84	42356.67
548.00	42466.68
548.17	42869.25
548.34	42763.93
548.51	43054.15
548.67	42923.08
548.84	42693.71
549.01	42696.05
549.18	42607.11
549.34	42911.38
549.51	42801.38
549.68	42920.74
549.84	42398.80
550.01	43119.69
550.18	42651.58
550.34	42689.03
550.51	43136.07
550.68	43236.72
550.84	43030.75
551.01	43019.05
551.18	42801.38
551.34	42960.53
551.51	43365.45
551.68	43264.80
551.84	43372.47
552.01	43082.24
552.18	43360.76
552.34	42911.38
552.51	43393.53
552.68	43124.37
552.84	43636.95
553.01	43627.59
553.18	43641.63
553.34	43421.62
553.51	42890.32
553.67	44135.48
553.84	43959.94
554.01	43658.01
554.17	43615.88
554.34	44030.16
554.51	43583.12
554.67	43590.14
554.84	43704.82
555.00	43634.61
555.17	43910.79
555.33	44030.16
555.50	43831.21
555.67	44069.95
555.83	44109.74
556.00	44156.55
556.16	44875.09
556.33	43941.22
556.50	44203.36
556.66	44095.69
556.83	44584.86
556.99	44603.59
557.16	44634.02
557.32	44664.44
557.49	44634.02
557.65	44060.58
557.82	44891.48
557.98	44444.43
558.15	44301.66
558.32	44498.26
558.48	44648.06
558.65	44470.18
558.81	44409.32
558.98	44456.14
559.14	44348.47
559.31	44491.24
559.47	45022.54
559.64	44645.72
559.80	44940.63
559.97	44793.17
560.13	44727.64
560.30	44626.99
560.46	45256.60
560.63	44863.39
560.79	45090.42
560.96	45125.53
561.12	45158.30
561.29	44727.64
561.45	44802.53
561.61	45237.87
561.78	44699.55
561.94	44896.16
562.11	44879.77
562.27	45057.65
562.44	45013.18
562.60	45570.23
562.77	45242.56
562.93	45429.80
563.10	45474.27
563.26	45380.65
563.42	45551.51
563.59	45338.52
563.75	45104.46
563.92	45790.24
564.08	45404.05
564.24	45670.87
564.41	45490.65
564.57	45649.81
564.74	45544.48
564.90	45460.23
565.07	45214.47
565.23	45174.68
565.39	45542.14
565.56	45406.39
565.72	45139.57
565.88	45633.42
566.05	45731.73
566.21	45986.85
566.38	45661.51
566.54	45509.38
566.70	45563.21
566.87	45736.41
567.03	45546.82
567.19	45888.54
567.36	45677.90
567.52	45535.12
567.68	45558.53
567.85	45647.47
568.01	45633.42
568.17	45748.11
568.34	45879.18
568.50	46089.83
568.66	45925.99
568.83	45982.16
568.99	45624.06
569.15	46293.46
569.32	45514.06
569.48	45504.70
569.64	46099.19
569.81	45949.40
569.97	45853.44
570.13	46047.70
570.30	45984.51
570.46	46272.39
570.62	46080.47
570.78	45799.60
570.95	46164.73
571.11	45914.29
571.27	45904.93
571.43	46007.91
571.60	45797.26
571.76	45741.09
571.92	45986.85
572.09	45776.20
572.25	45961.10
572.41	46138.98
572.57	45837.05
572.74	46532.19
572.90	46270.05
573.06	46206.86
573.22	46438.57
573.38	46344.95
573.55	46129.62
573.71	46646.88
573.87	46223.24
574.03	46344.95
574.20	46703.05
574.36	46330.90
574.52	46424.53
574.68	46183.45
574.84	46525.17
575.01	46227.92
575.17	46487.72
575.33	46506.44
575.49	45696.62
575.65	46745.18
575.82	46476.02
575.98	46335.59
576.14	46616.45
576.30	46813.05
576.46	46506.44
576.62	46387.08
576.79	46401.12
576.95	45968.12
577.11	45895.56
577.27	46494.74
577.43	46253.67
577.59	46632.83
577.75	46354.31
577.92	45918.97
578.08	46251.33
578.24	46511.13
578.40	46752.20
578.56	46473.68
578.72	46658.58
578.88	46698.37
579.04	46527.51
579.21	46579.00
579.37	46363.67
579.53	46684.33
579.69	46295.80
579.85	46190.47
580.01	46794.33
580.17	46164.73
580.33	46712.41
580.49	46433.89
580.65	46686.67
580.82	46384.74
580.98	46583.68
581.14	46534.53
581.30	46323.88
581.46	46604.75
581.62	46387.08
581.78	46759.22
581.94	46754.54
582.10	46220.90
582.26	46951.15
582.42	46380.06
582.58	46611.77
582.74	46831.78
582.90	46646.88
583.06	46946.47
583.22	46855.18
583.38	46845.82
583.54	46653.90
583.70	46429.21
583.86	46632.83
584.02	46188.13
584.18	47152.43
584.34	46960.51
584.50	46806.03
584.66	47028.38
584.82	47026.04
584.98	47157.11
585.14	46878.59
585.30	46464.32
585.46	46480.70
585.62	46422.19
585.78	46576.66
585.94	46656.24
586.10	46799.01
586.26	46604.75
586.42	46621.13
586.58	46733.48
586.74	46820.08
586.90	46649.22
587.06	46880.93
587.22	46508.79
587.38	46997.96
587.54	47168.82
587.70	47433.30
587.86	46777.95
588.02	46707.73
588.18	46997.96
588.34	47292.86
588.49	46925.40
588.65	46747.52
588.81	47178.18
588.97	46944.12
589.13	46749.86
589.29	46902.00
589.45	47461.38
589.61	46717.09
589.77	46939.44
589.93	47112.64
590.08	47098.60
