SpectraSuite Data File
++++++++++++++++++++++++++++++++++++
Date: Fri Oct 25 11:23:36 EDT 2013
User: price-jones
Dark Spectrum Present: No
Reference Spectrum Present: No
Number of Sampled Component Spectra: 1
Spectrometers: USB2+H05261
Integration Time (usec): 100000 (USB2+H05261)
Spectra Averaged: 1 (USB2+H05261)
Boxcar Smoothing: 0 (USB2+H05261)
Correct for Electrical Dark: No (USB2+H05261)
Strobe/Lamp Enabled: No (USB2+H05261)
Correct for Detector Non-linearity: No (USB2+H05261)
Correct for Stray Light: No (USB2+H05261)
Number of Pixels in Processed Spectrum: 2048
>>>>>Begin Processed Spectral Data<<<<<
365.73	187.24
365.92	187.24
366.12	187.24
366.32	201.29
366.52	140.43
366.72	159.16
366.91	161.50
367.11	147.45
367.31	107.66
367.51	159.16
367.70	138.09
367.90	124.05
368.10	84.26
368.30	191.92
368.49	86.60
368.69	135.75
368.89	166.18
369.09	166.18
369.28	147.45
369.48	138.09
369.68	198.95
369.87	177.88
370.07	201.29
370.27	208.31
370.47	264.48
370.66	519.60
370.86	631.94
371.06	599.18
371.25	657.69
371.45	617.90
371.65	636.63
371.84	627.26
372.04	690.46
372.24	713.86
372.44	702.16
372.63	636.63
372.83	716.20
373.03	697.48
373.22	833.23
373.42	734.93
373.62	795.78
373.81	753.65
374.01	896.43
374.21	847.27
374.40	786.42
374.60	786.42
374.79	784.08
374.99	758.33
375.19	779.40
375.38	809.83
375.58	781.74
375.78	905.79
375.97	858.98
376.17	894.08
376.37	812.17
376.56	858.98
376.76	875.36
376.95	905.79
377.15	915.15
377.35	950.26
377.54	1004.09
377.74	891.74
377.93	833.23
378.13	875.36
378.33	964.30
378.52	954.94
378.72	985.37
378.91	835.57
379.11	905.79
379.31	926.85
379.50	926.85
379.70	908.13
379.89	1001.75
380.09	997.07
380.28	919.83
380.48	973.66
380.68	1027.50
380.87	1088.35
381.07	1095.37
381.26	1032.18
381.46	1008.77
381.65	1022.81
381.85	1039.20
382.04	1088.35
382.24	1118.78
382.43	1013.45
382.63	1074.31
382.83	1116.44
383.02	1104.73
383.22	1163.25
383.41	1132.82
383.61	1093.03
383.80	1137.50
384.00	1039.20
384.19	1121.12
384.39	1179.63
384.58	1149.20
384.78	1156.22
384.97	1167.93
385.17	1107.07
385.36	1186.65
385.56	1177.29
385.75	1142.18
385.95	1149.20
386.14	1153.88
386.34	1181.97
386.53	1179.63
386.72	1156.22
386.92	1207.72
387.11	1289.64
387.31	1275.59
387.50	1284.95
387.70	1238.14
387.89	1331.76
388.09	1308.36
388.28	1317.72
388.48	1284.95
388.67	1315.38
388.86	1306.02
389.06	1341.13
389.25	1331.76
389.45	1334.11
389.64	1373.89
389.84	1296.66
390.03	1416.02
390.22	1352.83
390.42	1373.89
390.61	1331.76
390.81	1409.00
391.00	1444.11
391.19	1462.83
391.39	1502.62
391.58	1401.98
391.78	1551.78
391.97	1432.41
392.16	1476.88
392.36	1483.90
392.55	1434.75
392.75	1507.30
392.94	1481.56
393.13	1490.92
393.33	1371.55
393.52	1509.65
393.71	1565.82
393.91	1659.44
394.10	1586.88
394.29	1650.08
394.49	1598.59
394.68	1736.68
394.88	1654.76
395.07	1715.61
395.26	1643.06
395.46	1717.95
395.65	1668.80
395.84	1647.74
396.04	1732.00
396.23	1710.93
396.42	1706.25
396.62	1788.17
396.81	1703.91
397.00	1802.21
397.19	1795.19
397.39	1834.98
397.58	1825.62
397.77	1797.53
397.97	1748.38
398.16	1774.13
398.35	1856.04
398.55	1865.41
398.74	1900.52
398.93	1977.75
399.12	1996.48
399.32	1865.41
399.51	2031.58
399.70	2073.71
399.90	1947.33
400.09	2069.03
400.28	2160.31
400.47	1959.03
400.67	2172.02
400.86	1996.48
401.05	2150.95
401.24	2104.14
401.44	2101.80
401.63	2029.24
401.82	2169.68
402.01	2115.84
402.21	2169.68
402.40	2232.87
402.59	2186.06
402.78	2150.95
402.97	2352.24
403.17	2310.11
403.36	2270.32
403.55	2265.64
403.74	2218.83
403.93	2338.20
404.13	2373.30
404.32	2392.03
404.51	2420.11
404.70	2427.14
404.89	2420.11
405.09	2576.93
405.28	2562.89
405.47	2471.61
405.66	2413.09
405.85	2537.14
406.05	2497.35
406.24	2445.86
406.43	2466.92
406.62	2560.55
406.81	2539.48
407.00	2698.64
407.20	2562.89
407.39	2595.65
407.58	2740.77
407.77	2677.57
407.96	2647.15
408.15	2899.92
408.34	2705.66
408.54	2700.98
408.73	2684.59
408.92	2843.75
409.11	2864.82
409.30	2988.86
409.49	2890.56
409.68	2923.33
409.87	2920.99
410.07	3040.36
410.26	2942.05
410.45	2871.84
410.64	3049.72
410.83	3023.97
411.02	3040.36
411.21	3077.80
411.40	3101.21
411.59	3222.92
411.78	3243.98
411.98	3061.42
412.17	3346.97
412.36	3426.54
412.55	3379.73
412.74	3346.97
412.93	3463.99
413.12	3389.10
413.31	3618.47
413.50	3473.36
413.69	3506.12
413.88	3534.21
414.07	3576.34
414.26	3625.49
414.45	3700.39
414.64	3646.55
414.83	3740.18
415.02	3728.47
415.22	3922.74
415.41	3742.52
415.60	3824.44
415.79	3808.05
415.98	3964.87
416.17	3929.76
416.36	4091.26
416.55	3974.23
416.74	4011.68
416.93	3999.98
417.12	4119.34
417.31	4117.00
417.50	4224.67
417.69	4278.50
417.88	4250.41
418.07	4327.65
418.26	4353.40
418.45	4442.34
418.64	4493.83
418.83	4447.02
419.02	4418.93
419.21	4437.66
419.39	4526.60
419.58	4557.02
419.77	4601.49
419.96	4512.55
420.15	4624.90
420.34	4491.49
420.53	4685.75
420.72	4765.33
420.91	4615.54
421.10	4784.06
421.29	4870.65
421.48	4650.64
421.67	4800.44
421.86	4702.14
422.05	4973.64
422.24	4683.41
422.43	4889.38
422.61	4898.74
422.80	4877.68
422.99	4863.63
423.18	4936.19
423.37	5008.75
423.56	4933.85
423.75	4877.68
423.94	4917.47
424.13	4542.98
424.32	4812.14
424.50	4940.87
424.69	5090.67
424.88	4994.70
425.07	5008.75
425.26	4922.15
425.45	5074.28
425.64	4929.17
425.83	4887.04
426.01	4992.36
426.20	4983.00
426.39	5043.85
426.58	5151.52
426.77	5191.31
426.96	5121.09
427.15	5013.43
427.33	5029.81
427.52	5013.43
427.71	5242.80
427.90	5352.81
428.09	5331.74
428.28	5460.47
428.46	5483.88
428.65	5320.04
428.84	5451.11
429.03	5455.79
429.22	5270.89
429.40	5394.93
429.59	5729.63
429.78	5275.57
429.97	5320.04
430.16	5416.00
430.34	5453.45
430.53	5645.37
430.72	5607.92
430.91	5535.37
431.10	5659.42
431.28	5778.78
431.47	5804.53
431.66	5874.74
431.85	5614.95
432.03	5856.02
432.22	6026.88
432.41	5951.98
432.60	5870.06
432.79	5860.70
432.97	6040.92
433.16	6129.86
433.35	6031.56
433.54	5905.17
433.72	6218.80
433.91	6253.91
434.10	6101.78
434.28	6141.57
434.47	6235.19
434.66	6188.38
434.85	6399.02
435.03	6310.08
435.22	6246.89
435.41	6300.72
435.59	6450.52
435.78	6424.77
435.97	6567.54
436.16	6590.95
436.34	6382.64
436.53	6502.01
436.72	6656.48
436.90	6647.12
437.09	6715.00
437.28	6572.22
437.46	6621.38
437.65	6633.08
437.84	6850.75
438.02	6815.64
438.21	6951.39
438.40	6595.63
438.58	7096.50
438.77	6829.68
438.96	7007.56
439.14	6972.46
439.33	7307.15
439.52	7145.66
439.70	6972.46
439.89	7370.35
440.08	7424.18
440.26	7386.73
440.45	7293.11
440.63	7454.61
440.82	7765.90
441.01	7485.03
441.19	7550.57
441.38	7793.98
441.57	7789.30
441.75	7737.81
441.94	8102.93
442.12	7922.71
442.31	8222.30
442.50	7990.59
442.68	7967.18
442.87	7906.33
443.05	8175.49
443.24	8173.15
443.43	8194.22
443.61	8121.66
443.80	8374.44
443.98	8053.78
444.17	7838.45
444.35	8241.03
444.54	8526.57
444.73	8128.68
444.91	8297.20
445.10	8341.67
445.28	8346.35
445.47	8348.69
445.65	8421.25
445.84	8341.67
446.02	8582.74
446.21	8533.59
446.39	8259.75
446.58	8432.95
446.77	8360.39
446.95	8444.65
447.14	8250.39
447.32	8526.57
447.51	8655.30
447.69	8554.66
447.88	8643.60
448.06	8571.04
448.25	8669.34
448.43	8692.75
448.62	8638.92
448.80	8505.51
448.99	8692.75
449.17	8718.50
449.36	8678.71
449.54	8870.63
449.73	8858.93
449.91	8870.63
450.10	9153.84
450.28	8973.61
450.46	8992.34
450.65	9029.79
450.83	8936.17
451.02	9130.43
451.20	9210.01
451.39	9132.77
451.57	9186.60
451.76	8947.87
451.94	9165.54
452.13	9420.66
452.31	9291.93
452.49	9341.08
452.68	9423.00
452.86	9158.52
453.05	9331.72
453.23	9633.64
453.42	9467.47
453.60	9385.55
453.78	9427.68
453.97	9525.98
454.15	9312.99
454.34	9497.89
454.52	9872.38
454.70	9846.63
454.89	9881.74
455.07	9837.27
455.26	9863.02
455.44	9984.73
455.62	10052.60
455.81	9834.93
455.99	9912.17
456.17	10155.58
456.36	10036.22
456.54	10368.57
456.73	10190.69
456.91	10513.69
457.09	10420.06
457.28	10471.56
457.46	10487.94
457.64	10494.96
457.83	10558.16
458.01	10317.08
458.19	10539.43
458.38	10651.78
458.56	10677.52
458.74	10771.15
458.93	10719.65
459.11	10661.14
459.29	10785.19
459.48	11007.54
459.66	10766.46
459.84	10960.73
460.03	10977.11
460.21	11082.44
460.39	10911.58
460.57	11103.50
460.76	11084.78
460.94	11152.65
461.12	11297.77
461.31	11257.98
461.49	11115.20
461.67	11192.44
461.85	11583.31
462.04	11414.79
462.22	11438.20
462.40	11506.07
462.59	11527.14
462.77	11499.05
462.95	11683.95
463.13	11499.05
463.32	11796.30
463.50	11707.36
463.68	11789.28
463.86	11770.55
464.05	11681.61
464.23	11524.80
464.41	12004.61
464.59	11644.17
464.78	12196.53
464.96	11941.41
465.14	11871.20
465.32	11983.54
465.50	12250.36
465.69	12355.69
465.87	11929.71
466.05	12203.55
466.23	12355.69
466.41	12372.07
466.60	12578.04
466.78	12355.69
466.96	12170.79
467.14	12418.88
467.32	12360.37
467.51	12566.34
467.69	12205.89
467.87	12311.22
468.05	12383.77
468.23	12547.61
468.41	12475.06
468.60	12727.83
468.78	12638.89
468.96	12603.78
469.14	13008.70
469.32	13146.79
469.50	12826.14
469.69	12875.29
469.87	13130.41
470.05	13104.66
470.23	12889.33
470.41	13245.09
470.59	13263.82
470.77	13289.56
470.95	13151.47
471.14	13444.04
471.32	13074.23
471.50	13547.02
471.68	13532.98
471.86	13806.82
472.04	13912.14
472.22	14244.50
472.40	13879.38
472.58	13790.44
472.77	13977.68
472.95	14333.44
473.13	14721.97
473.31	13949.59
473.49	14235.14
473.67	14054.92
473.85	14420.04
474.03	14951.34
474.21	14609.62
474.39	14743.03
474.57	14981.77
474.75	14867.08
474.93	15016.88
475.12	15019.22
475.30	15110.50
475.48	15218.16
475.66	15169.01
475.84	15403.07
476.02	15232.21
476.20	15316.47
476.38	15728.40
476.56	15908.62
476.74	16084.16
476.92	15681.59
477.10	15976.50
477.28	15929.69
477.46	16250.34
477.64	16308.85
477.82	16636.53
478.00	16666.95
478.18	16783.98
478.36	17268.47
478.54	17158.47
478.72	17224.00
478.90	17448.69
479.08	17476.78
479.26	17783.39
479.44	17624.23
479.62	17869.99
479.80	18153.20
479.98	18331.08
480.16	18441.08
480.34	18518.32
480.52	18684.50
480.70	18796.84
480.88	18757.05
481.06	18675.13
481.24	18829.61
481.41	19054.30
481.59	19297.72
481.77	19459.21
481.95	19681.56
482.13	19646.46
482.31	19393.68
482.49	20238.61
482.67	20173.08
482.85	20711.40
483.03	20512.46
483.21	20732.47
483.39	20924.39
483.57	20884.60
483.74	21202.91
483.92	21284.83
484.10	21355.05
484.28	21612.51
484.46	21933.16
484.64	22246.79
484.82	21891.03
485.00	22427.01
485.18	22946.61
485.35	22698.52
485.53	22654.05
485.71	23309.40
485.89	23630.05
486.07	23388.97
486.25	23407.70
486.43	24137.94
486.61	23751.76
486.78	23920.28
486.96	24549.88
487.14	24819.04
487.32	24690.31
487.50	25036.71
487.68	25137.35
487.85	25113.95
488.03	25640.57
488.21	26106.34
488.39	25867.60
488.57	25963.56
488.75	26536.99
488.92	26780.41
489.10	26735.94
489.28	26998.08
489.46	27243.84
489.64	27218.09
489.81	27868.76
489.99	27927.27
490.17	27768.12
490.35	28074.73
490.53	28301.76
490.70	28582.62
490.88	28261.97
491.06	28868.17
491.24	29060.09
491.41	29233.29
491.59	29216.91
491.77	29635.86
491.95	29642.88
492.13	29867.58
492.30	30291.21
492.48	30157.80
492.66	30195.25
492.84	30986.35
493.01	30787.41
493.19	30937.20
493.37	31253.17
493.54	30984.01
493.72	31627.66
493.90	31585.53
494.08	31601.91
494.25	32299.39
494.43	31952.99
494.61	32341.52
494.79	32507.70
494.96	32629.41
495.14	33139.65
495.32	33333.91
495.49	33493.07
495.67	33298.80
495.85	33675.63
496.02	33652.22
496.20	34160.12
496.38	34574.39
496.55	34153.10
496.73	34841.21
496.91	34396.51
497.09	34785.04
497.26	35494.22
497.44	34911.43
497.62	35171.23
497.79	36194.04
497.97	35178.25
498.14	36009.14
498.32	36327.45
498.50	36306.39
498.67	36575.55
498.85	36264.26
499.03	36741.73
499.20	36980.46
499.38	36875.14
499.56	37277.71
499.73	37081.11
499.91	37684.97
500.08	37715.39
500.26	37727.10
500.44	37844.12
500.61	38007.96
500.79	37855.82
500.97	38316.91
501.14	38618.84
501.32	38665.65
501.49	39119.71
501.67	39026.09
501.84	39225.04
502.02	38911.41
502.20	39042.48
502.37	39800.81
502.55	39419.30
502.72	39917.84
502.90	39281.21
503.07	39835.92
503.25	40137.85
503.43	39643.99
503.60	40184.66
503.78	40147.21
503.95	39990.39
504.13	40779.15
504.30	41118.53
504.48	40535.74
504.65	40978.10
504.83	41268.33
505.01	41567.91
505.18	41387.69
505.36	41448.55
505.53	41013.21
505.71	41443.87
505.88	41879.21
506.06	41638.13
506.23	42241.99
506.41	41703.67
506.58	41806.65
506.76	42714.78
506.93	42801.38
507.11	42873.93
507.28	42909.04
507.46	42796.70
507.63	43267.14
507.81	43393.53
507.98	43054.15
508.16	43643.97
508.33	43709.50
508.50	43910.79
508.68	43461.41
508.85	43779.72
509.03	43917.81
509.20	44294.64
509.38	44495.92
509.55	44222.08
509.73	44626.99
509.90	44690.19
510.08	44444.43
510.25	44678.49
510.42	44687.85
510.60	45209.79
510.77	45429.80
510.95	45375.97
511.12	45823.01
511.30	45139.57
511.47	45682.58
511.64	45780.88
511.82	45598.32
511.99	46108.55
512.17	46263.03
512.34	46150.68
512.51	46330.90
512.69	46667.94
512.86	46843.48
513.04	46253.67
513.21	46623.47
513.38	47370.10
513.56	46733.48
513.73	47332.65
513.90	47267.12
514.08	46871.57
514.25	47395.85
514.43	47510.53
514.60	47512.88
514.77	47704.80
514.95	47817.14
515.12	47859.27
515.29	47592.45
515.47	48048.86
515.64	48280.57
515.81	48271.21
515.99	48617.61
516.16	48610.59
516.33	48507.60
516.51	48914.86
516.68	48587.18
516.85	48406.96
517.03	49167.63
517.20	49090.40
517.37	48657.40
517.54	48952.30
517.72	49148.91
517.89	49326.79
518.06	49389.98
518.24	49202.74
518.41	49647.44
518.58	49256.57
518.75	49429.77
518.93	49614.68
519.10	49593.61
519.27	50326.20
519.45	49764.47
519.62	49865.11
519.79	49848.73
519.96	50122.57
520.14	50033.63
520.31	50124.91
520.48	50340.24
520.65	50738.13
520.83	50829.41
521.00	50616.43
521.17	50464.29
521.34	51014.32
521.52	50986.23
521.69	51131.34
521.86	50965.17
522.03	51461.36
522.20	51473.06
522.38	51349.01
522.55	51349.01
522.72	51592.43
522.89	51379.44
523.07	51999.68
523.24	51877.97
523.41	51391.14
523.58	51480.08
523.75	52072.24
523.92	51952.87
524.10	52158.84
524.27	52594.18
524.44	52325.02
524.61	52058.20
524.78	52158.84
524.96	52212.67
525.13	52622.26
525.30	52423.32
525.47	52825.89
525.64	52657.37
525.81	52559.07
525.98	52921.85
526.16	52835.25
526.33	52949.94
526.50	52999.09
526.67	52849.30
526.84	53247.19
527.01	52828.23
527.18	53193.36
527.36	53118.46
527.53	53357.19
527.70	53329.11
527.87	53565.50
528.04	53258.89
528.21	53565.50
528.38	53340.81
528.55	53673.16
528.72	53525.71
528.89	53521.03
529.07	53296.34
529.24	53806.58
529.41	53886.15
529.58	53851.05
529.75	53586.57
529.92	53792.53
530.09	53939.99
530.26	54075.74
530.43	53921.26
530.60	53881.47
530.77	54054.67
530.94	54431.50
531.11	54120.21
531.28	53879.13
531.46	54461.93
531.63	54195.10
531.80	54185.74
531.97	54412.77
532.14	54578.95
532.31	54471.29
532.48	54555.55
532.65	54906.63
532.82	54520.44
532.99	54721.72
533.16	54871.52
533.33	55007.27
533.50	54808.32
533.67	54993.23
533.84	54773.22
534.01	55068.12
534.18	54944.08
534.35	55260.05
534.52	55145.36
534.69	55573.68
534.86	55388.78
535.03	55091.53
535.20	55241.32
535.37	55430.91
535.54	55370.05
535.71	55547.93
535.88	55292.82
536.05	55669.64
536.22	55824.12
536.38	55569.00
536.55	55599.43
536.72	55906.04
536.89	55674.32
537.06	55756.24
537.23	55847.52
537.40	55664.96
537.57	55791.35
537.74	55969.23
537.91	55945.83
538.08	55980.93
538.25	55866.25
538.42	55641.56
538.59	56184.56
538.75	56062.85
538.92	56257.12
539.09	56451.38
539.26	56306.27
539.43	56219.67
539.60	56203.28
539.77	56376.48
539.94	56750.97
540.11	56294.56
540.28	56624.58
540.44	56589.47
540.61	56528.62
540.78	56252.44
540.95	56549.68
541.12	56629.26
541.29	56624.58
541.46	56540.32
541.62	56685.43
541.79	56790.76
541.96	56507.55
542.13	56570.75
542.30	56793.10
542.47	56982.68
542.63	56935.87
542.80	56853.95
542.97	57153.54
543.14	57336.10
543.31	57038.86
543.48	57076.30
543.64	57649.74
543.81	57502.28
543.98	57504.62
544.15	57333.76
544.32	57598.24
544.48	57621.65
544.65	57453.13
544.82	57769.10
544.99	57394.62
545.16	57661.44
545.32	57436.75
545.49	57766.76
545.66	57804.21
545.83	57790.17
546.00	57509.30
546.16	57708.25
546.33	57640.37
546.50	57593.56
546.67	57921.24
546.83	57605.26
547.00	57925.92
547.17	57951.66
547.34	58106.14
547.50	58106.14
547.67	58117.84
547.84	58115.50
548.00	58110.82
548.17	58391.68
548.34	58246.57
548.51	58279.34
548.67	58305.09
548.84	58279.34
549.01	58174.02
549.18	58314.45
549.34	58333.17
549.51	58267.64
549.68	58211.46
549.84	58379.98
550.01	58379.98
550.18	58143.59
550.34	58372.96
550.51	58529.78
550.68	58557.86
550.84	58576.59
551.01	58672.55
551.18	58504.03
551.34	58452.54
551.51	58541.48
551.68	58908.94
551.84	58590.63
552.01	58574.25
552.18	58812.98
552.34	58775.53
552.51	58878.52
552.68	58635.10
552.84	58665.53
553.01	58974.48
553.18	58841.07
553.34	58869.15
553.51	58768.51
553.67	58892.56
553.84	59112.57
554.01	58927.67
554.17	58972.14
554.34	59124.27
554.51	59037.67
554.67	59114.91
554.84	58990.86
555.00	59250.66
555.17	58983.84
555.33	59222.58
555.50	59021.29
555.67	58871.49
555.83	59271.73
556.00	59213.21
556.16	59409.82
556.33	59355.99
556.50	59339.60
556.66	59414.50
556.83	59063.42
556.99	59538.55
557.16	59536.21
557.32	59477.69
557.49	59557.27
557.65	59199.17
557.82	59484.72
557.98	59531.53
558.15	59597.06
558.32	59337.26
558.48	59519.82
558.65	59407.48
558.81	59568.97
558.98	59552.59
559.14	59655.57
559.31	59737.49
559.47	59781.96
559.64	59983.25
559.80	59901.33
559.97	59763.24
560.13	59765.58
560.30	59798.35
560.46	59906.01
560.63	60016.02
560.79	60081.55
560.96	59987.93
561.12	59760.90
561.29	60030.06
561.45	60069.85
561.61	59870.90
561.78	59770.26
561.94	59828.77
562.11	60093.25
562.27	59950.48
562.44	60144.75
562.60	60177.51
562.77	59994.95
562.93	59810.05
563.10	60280.50
563.26	60001.97
563.42	60147.09
563.59	60273.48
563.75	60130.70
563.92	60254.75
564.08	60184.54
564.24	60331.99
564.41	60121.34
564.57	60294.54
564.74	60346.03
564.90	60198.58
565.07	59976.23
565.23	60296.88
565.39	60229.01
565.56	60177.51
565.72	60140.07
565.88	60427.95
566.05	60149.43
566.21	60271.14
566.38	60182.19
566.54	60254.75
566.70	60350.71
566.87	60383.48
567.03	60289.86
567.19	60582.43
567.36	60299.22
567.52	60467.74
567.68	60645.62
567.85	60488.80
568.01	60498.17
568.17	60544.98
568.34	60357.74
568.50	60392.84
568.66	60423.27
568.83	60521.57
568.99	60409.23
569.15	60322.63
569.32	60507.53
569.48	60521.57
569.64	60760.31
569.81	60502.85
569.97	60519.23
570.13	60750.94
570.30	60280.50
570.46	60622.22
570.62	60509.87
570.78	60624.56
570.95	60509.87
571.11	60825.84
571.27	60626.90
571.43	60584.77
571.60	60715.84
571.76	60633.92
571.92	60750.94
572.09	60966.27
572.25	60701.79
572.41	60835.20
572.57	60687.75
572.74	60851.59
572.90	60547.32
573.06	60760.31
573.22	60711.16
573.38	60809.46
573.55	60692.43
573.71	60865.63
573.87	60956.91
574.03	60561.36
574.20	60816.48
574.36	60729.88
574.52	60743.92
574.68	61027.13
574.84	60914.78
575.01	60767.33
575.17	60795.42
575.33	60900.74
575.49	60720.52
575.65	60968.61
575.82	60933.51
575.98	61233.10
576.14	60982.66
576.30	60886.70
576.46	60860.95
576.62	60772.01
576.79	60863.29
576.95	60729.88
577.11	60814.14
577.27	60907.76
577.43	60987.34
577.59	60622.22
577.75	60772.01
577.92	60919.46
578.08	60893.72
578.24	61113.73
578.40	61055.21
578.56	61034.15
578.72	60790.73
578.88	61048.19
579.04	61223.73
579.21	60867.97
579.37	60977.98
579.53	60999.04
579.69	60879.67
579.85	60912.44
580.01	61001.38
580.17	60554.34
580.33	61155.86
580.49	61008.40
580.65	61118.41
580.82	60776.69
580.98	60898.40
581.14	60853.93
581.30	61235.44
581.46	60851.59
581.62	61190.97
581.78	61006.06
581.94	61087.98
582.10	61022.45
582.26	61141.81
582.42	61052.87
582.58	61062.24
582.74	60912.44
582.90	61132.45
583.06	61015.43
583.22	60828.18
583.38	60963.93
583.54	61181.60
583.70	60977.98
583.86	60949.89
584.02	60867.97
584.18	61214.37
584.34	61165.22
584.50	61059.90
584.66	61043.51
584.82	60968.61
584.98	61200.33
585.14	61139.47
585.30	61069.26
585.46	61127.77
585.62	61055.21
585.78	61228.41
585.94	61109.05
586.10	61134.79
586.26	61183.94
586.42	61324.38
586.58	60977.98
586.74	61106.71
586.90	61020.11
587.06	61109.05
587.22	61340.76
587.38	61181.60
587.54	61275.22
587.70	61209.69
587.86	60809.46
588.02	61148.84
588.18	61324.38
588.34	61125.43
