SpectraSuite Data File
++++++++++++++++++++++++++++++++++++
Date: Fri Oct 25 10:43:43 EDT 2013
User: price-jones
Dark Spectrum Present: No
Reference Spectrum Present: No
Number of Sampled Component Spectra: 1
Spectrometers: USB2+H05261
Integration Time (usec): 100000 (USB2+H05261)
Spectra Averaged: 1 (USB2+H05261)
Boxcar Smoothing: 0 (USB2+H05261)
Correct for Electrical Dark: No (USB2+H05261)
Strobe/Lamp Enabled: No (USB2+H05261)
Correct for Detector Non-linearity: No (USB2+H05261)
Correct for Stray Light: No (USB2+H05261)
Number of Pixels in Processed Spectrum: 2048
>>>>>Begin Processed Spectral Data<<<<<
365.73	100.64
365.92	100.64
366.12	100.64
366.32	60.85
366.52	133.41
366.72	18.72
366.91	14.04
367.11	58.51
367.31	7.02
367.51	95.96
367.70	65.54
367.90	23.41
368.10	49.15
368.30	35.11
368.49	37.45
368.69	105.32
368.89	53.83
369.09	0.00
369.28	4.68
369.48	60.85
369.68	124.05
369.87	133.41
370.07	44.47
370.27	117.03
370.47	147.45
370.66	327.68
370.86	416.62
371.06	456.40
371.25	395.55
371.45	440.02
371.65	465.77
371.84	447.04
372.04	458.74
372.24	505.56
372.44	528.96
372.63	510.24
372.83	517.26
373.03	585.13
373.22	531.30
373.42	533.64
373.62	496.19
373.81	547.69
374.01	528.96
374.21	582.79
374.40	543.00
374.60	582.79
374.79	575.77
374.99	568.75
375.19	622.58
375.38	587.47
375.58	634.29
375.78	603.86
375.97	631.94
376.17	620.24
376.37	526.62
376.56	636.63
376.76	580.45
376.95	620.24
377.15	685.78
377.35	608.54
377.54	709.18
377.74	629.60
377.93	624.92
378.13	706.84
378.33	779.40
378.52	681.10
378.72	695.14
378.91	674.07
379.11	603.86
379.31	669.39
379.50	660.03
379.70	709.18
379.89	716.20
380.09	725.57
380.28	716.20
380.48	667.05
380.68	678.76
380.87	657.69
381.07	751.31
381.26	830.89
381.46	704.50
381.65	671.73
381.85	760.67
382.04	709.18
382.24	631.94
382.43	697.48
382.63	730.25
382.83	695.14
383.02	774.72
383.22	791.10
383.41	730.25
383.61	760.67
383.80	716.20
384.00	763.01
384.19	746.63
384.39	737.27
384.58	755.99
384.78	798.12
384.97	821.53
385.17	718.54
385.36	774.72
385.56	833.23
385.75	823.87
385.95	866.00
386.14	842.59
386.34	788.76
386.53	807.48
386.72	849.61
386.92	851.96
387.11	961.96
387.31	851.96
387.50	851.96
387.70	891.74
387.89	933.87
388.09	851.96
388.28	866.00
388.48	854.30
388.67	983.02
388.86	919.83
389.06	976.00
389.25	957.28
389.45	954.94
389.64	882.38
389.84	1008.77
390.03	966.64
390.22	973.66
390.42	929.19
390.61	1034.52
390.81	1013.45
391.00	978.34
391.19	1004.09
391.39	1015.79
391.58	1043.88
391.78	971.32
391.97	1041.54
392.16	1067.28
392.36	1041.54
392.55	1076.65
392.75	1083.67
392.94	973.66
393.13	976.00
393.33	1036.86
393.52	1048.56
393.71	1090.69
393.91	1123.46
394.10	1053.24
394.29	1165.59
394.49	1191.33
394.68	1158.57
394.88	1114.10
395.07	1130.48
395.26	1238.14
395.46	1172.61
395.65	1287.29
395.84	1196.01
396.04	1343.47
396.23	1188.99
396.42	1116.44
396.62	1174.95
396.81	1181.97
397.00	1245.16
397.19	1219.42
397.39	1343.47
397.58	1387.94
397.77	1397.30
397.97	1427.73
398.16	1504.96
398.35	1397.30
398.55	1425.39
398.74	1460.49
398.93	1481.56
399.12	1516.67
399.32	1448.79
399.51	1441.77
399.70	1600.93
399.90	1579.86
400.09	1542.41
400.28	1617.31
400.47	1586.88
400.67	1668.80
400.86	1675.82
401.05	1661.78
401.24	1647.74
401.44	1647.74
401.63	1790.51
401.82	1682.85
402.01	1610.29
402.21	1764.76
402.40	1682.85
402.59	1706.25
402.78	1724.97
402.97	1839.66
403.17	1825.62
403.36	1816.26
403.55	1865.41
403.74	1886.47
403.93	1799.87
404.13	1776.47
404.32	1823.28
404.51	1968.39
404.70	1944.99
404.89	1816.26
405.09	2001.16
405.28	2005.84
405.47	1902.86
405.66	1937.96
405.85	2026.90
406.05	2092.44
406.24	1905.20
406.43	2012.86
406.62	1933.28
406.81	2047.97
407.00	2026.90
407.20	2085.42
407.39	2092.44
407.58	2092.44
407.77	2228.19
407.96	2136.91
408.15	2258.62
408.34	2186.06
408.54	2258.62
408.73	2270.32
408.92	2359.26
409.11	2216.49
409.30	2368.62
409.49	2211.81
409.68	2186.06
409.87	2340.54
410.07	2354.58
410.26	2370.96
410.45	2438.84
410.64	2473.95
410.83	2502.03
411.02	2485.65
411.21	2429.48
411.40	2455.22
411.59	2614.38
411.78	2576.93
411.98	2532.46
412.17	2677.57
412.36	2738.43
412.55	2712.68
412.74	2696.30
412.93	2761.83
413.12	2712.68
413.31	2813.32
413.50	2778.22
413.69	2864.82
413.88	2890.56
414.07	2864.82
414.26	3026.31
414.45	2963.12
414.64	2967.80
414.83	2930.35
415.02	3005.25
415.22	3035.67
415.41	3112.91
415.60	3105.89
415.79	3096.53
415.98	3398.46
416.17	3283.77
416.36	3157.38
416.55	3243.98
416.74	3304.84
416.93	3349.31
417.12	3382.07
417.31	3353.99
417.50	3211.22
417.69	3517.83
417.88	3485.06
418.07	3515.48
418.26	3414.84
418.45	3492.08
418.64	3604.42
418.83	3538.89
419.02	3623.15
419.21	3583.36
419.39	3658.26
419.58	3538.89
419.77	3358.67
419.96	3712.09
420.15	3574.00
420.34	3665.28
420.53	3655.92
420.72	3875.93
420.91	3810.39
421.10	3810.39
421.29	3824.44
421.48	3698.05
421.67	3850.18
421.86	3850.18
422.05	3726.13
422.24	3824.44
422.43	3747.20
422.61	3878.27
422.80	3840.82
422.99	3943.80
423.18	3918.06
423.37	4023.38
423.56	3927.42
423.75	3939.12
423.94	3857.20
424.13	3653.58
424.32	3871.25
424.50	3939.12
424.69	3927.42
424.88	3995.29
425.07	3822.09
425.26	3744.86
425.45	3873.59
425.64	3946.14
425.83	3948.48
426.01	4004.66
426.20	4077.21
426.39	4032.74
426.58	3997.64
426.77	3854.86
426.96	3922.74
427.15	4067.85
427.33	4051.47
427.52	4037.42
427.71	4351.06
427.90	4119.34
428.09	4175.52
428.28	4219.99
428.46	4147.43
428.65	3969.55
428.84	4280.84
429.03	4259.78
429.22	4016.36
429.40	4138.07
429.59	4081.89
429.78	3925.08
429.97	3695.71
430.16	4058.49
430.34	4058.49
430.53	4142.75
430.72	4243.39
430.91	4180.20
431.10	4292.54
431.28	4519.57
431.47	4662.35
431.66	4678.73
431.85	4458.72
432.03	4430.63
432.22	4690.43
432.41	4456.38
432.60	4669.37
432.79	4557.02
432.97	4748.95
433.16	4655.33
433.35	4674.05
433.54	4594.47
433.72	4596.81
433.91	4723.20
434.10	4667.03
434.28	4755.97
434.47	4688.09
434.66	4915.12
434.85	4968.96
435.03	4833.21
435.22	4912.78
435.41	4952.57
435.59	5093.01
435.78	4819.16
435.97	5018.11
436.16	5221.74
436.34	5221.74
436.53	5179.61
436.72	5327.06
436.90	5001.72
437.09	5102.37
437.28	5018.11
437.46	5160.88
437.65	5200.67
437.84	5423.02
438.02	5104.71
438.21	5247.48
438.40	5128.11
438.58	5399.62
438.77	5320.04
438.96	5270.89
439.14	5591.54
439.33	5462.81
439.52	5582.18
439.70	5516.64
439.89	5654.73
440.08	5682.82
440.26	5748.36
440.45	5799.85
440.63	5797.51
440.82	5884.11
441.01	5907.51
441.19	5968.37
441.38	6022.20
441.57	6136.88
441.75	6106.46
441.94	6120.50
442.12	6267.95
442.31	6232.85
442.50	6345.19
442.68	6202.42
442.87	6354.55
443.05	6155.61
443.24	6380.30
443.43	6478.60
443.61	6471.58
443.80	6630.74
443.98	6303.06
444.17	6359.24
444.35	6408.39
444.54	6511.37
444.73	6492.65
444.91	6553.50
445.10	6282.00
445.28	6363.92
445.47	6373.28
445.65	6392.00
445.84	6541.80
446.02	6527.75
446.21	6539.46
446.39	6370.94
446.58	6548.82
446.77	6527.75
446.95	6647.12
447.14	6750.10
447.32	6759.47
447.51	6558.18
447.69	6600.31
447.88	6773.51
448.06	6703.29
448.25	6731.38
448.43	6661.16
448.62	6604.99
448.80	6635.42
448.99	6848.41
449.17	6822.66
449.36	6808.62
449.54	6946.71
449.73	6949.05
449.91	7007.56
450.10	7262.68
450.28	7393.75
450.46	7248.64
450.65	7288.43
450.83	7250.98
451.02	7358.64
451.20	7166.72
451.39	7239.28
451.57	7089.48
451.76	7042.67
451.94	7304.81
452.13	7272.04
452.31	7105.87
452.49	6963.09
452.68	7293.11
452.86	7162.04
453.05	7274.38
453.23	7300.13
453.42	7316.51
453.60	7375.03
453.78	7290.77
453.97	7339.92
454.15	7218.21
454.34	7349.28
454.52	7489.71
454.70	7461.63
454.89	7304.81
455.07	7503.76
455.26	7555.25
455.44	7742.49
455.62	7665.25
455.81	7751.85
455.99	7744.83
456.17	7864.20
456.36	7791.64
456.54	7971.86
456.73	8002.29
456.91	8201.24
457.09	8238.69
457.28	8320.60
457.46	8205.92
457.64	8173.15
457.83	8182.51
458.01	8046.76
458.19	8215.28
458.38	8044.42
458.56	8175.49
458.74	8196.56
458.93	8173.15
459.11	8269.11
459.29	8294.86
459.48	8119.32
459.66	8180.17
459.84	8510.19
460.03	8549.98
460.21	8437.63
460.39	8512.53
460.57	8627.21
460.76	8587.43
460.94	8568.70
461.12	8641.26
461.31	8500.83
461.49	8608.49
461.67	8512.53
461.85	8844.88
462.04	8734.88
462.22	9060.21
462.40	8985.32
462.59	8830.84
462.77	8758.28
462.95	8915.10
463.13	8887.01
463.32	8795.73
463.50	8961.91
463.68	8791.05
463.86	9020.42
464.05	8961.91
464.23	8800.41
464.41	8997.02
464.59	8814.46
464.78	8954.89
464.96	9083.62
465.14	8887.01
465.32	9261.50
465.50	9135.11
465.69	9217.03
465.87	9275.54
466.05	9240.44
466.23	9114.05
466.41	9128.09
466.60	9198.31
466.78	9092.98
466.96	9392.57
467.14	9476.83
467.32	9334.06
467.51	9533.00
467.69	9123.41
467.87	9561.09
468.05	9476.83
468.23	9245.12
468.41	9392.57
468.60	9755.35
468.78	9612.58
468.96	9514.28
469.14	9497.89
469.32	9818.55
469.50	9423.00
469.69	9830.25
469.87	9720.24
470.05	9825.57
470.23	9713.22
470.41	9947.28
470.59	9933.23
470.77	9745.99
470.95	9982.38
471.14	10153.24
471.32	10118.14
471.50	10125.16
471.68	10438.79
471.86	10438.79
472.04	10420.06
472.22	10501.98
472.40	10361.55
472.58	10452.83
472.77	10586.24
472.95	10375.59
473.13	10679.86
473.31	10441.13
473.49	10415.38
473.67	10473.90
473.85	10682.20
474.03	11073.07
474.21	10813.28
474.39	11026.26
474.57	11115.20
474.75	11061.37
474.93	11077.76
475.12	11019.24
475.30	11157.33
475.48	11173.72
475.66	11339.90
475.84	11257.98
476.02	11272.02
476.20	11311.81
476.38	11609.06
476.56	11531.82
476.74	11889.92
476.92	11634.80
477.10	11672.25
477.28	11990.56
477.46	11868.86
477.64	12292.49
477.82	12156.74
478.00	12526.55
478.18	12432.93
478.36	12475.06
478.54	12858.90
478.72	12402.50
478.90	12791.03
479.08	12922.10
479.26	13198.28
479.44	13373.82
479.62	13109.34
479.80	13296.58
479.98	13338.71
480.16	13605.53
480.34	13514.25
480.52	13743.63
480.70	13598.51
480.88	13722.56
481.06	14008.11
481.24	13729.58
481.41	14293.65
481.59	14284.29
481.77	14471.53
481.95	14441.11
482.13	14665.80
482.31	14588.56
482.49	14890.49
482.67	14640.05
482.85	15215.82
483.03	15035.60
483.21	15358.60
483.39	15480.30
483.57	15236.89
483.74	15330.51
483.92	15459.24
484.10	15618.39
484.28	15971.82
484.46	15873.51
484.64	16404.81
484.82	16130.97
485.00	15929.69
485.18	16245.66
485.35	16280.77
485.53	16170.76
485.71	15932.03
485.89	16388.43
486.07	16451.63
486.25	16706.74
486.43	16767.60
486.61	16814.41
486.78	17057.82
486.96	17254.43
487.14	17305.92
487.32	17408.90
487.50	17891.06
487.68	17741.26
487.85	18370.86
488.03	18363.84
488.21	18317.03
488.39	18565.13
488.57	18633.00
488.75	18923.23
488.92	18752.37
489.10	19157.28
489.28	19398.36
489.46	19496.66
489.64	19379.64
489.81	19990.52
489.99	20233.93
490.17	20334.57
490.35	20566.29
490.53	20381.38
490.70	20524.16
490.88	20135.63
491.06	20599.05
491.24	20648.21
491.41	20486.71
491.59	20835.45
491.77	20847.15
491.95	21291.85
492.13	21249.72
492.30	21647.61
492.48	21869.97
492.66	21638.25
492.84	21961.25
493.01	21912.10
493.19	21968.27
493.37	22253.81
493.54	22438.72
493.72	22703.20
493.90	22504.25
494.08	22862.35
494.25	23281.31
494.43	23236.84
494.61	23236.84
494.79	23201.73
494.96	23356.21
495.14	23550.47
495.32	23676.86
495.49	23730.69
495.67	23618.35
495.85	23821.97
496.02	24320.51
496.20	24334.55
496.38	24390.72
496.55	24524.13
496.73	25099.90
496.91	24606.05
497.09	24699.67
497.26	24980.54
497.44	24868.19
497.62	25249.70
497.79	25055.43
497.97	24772.23
498.14	25420.56
498.32	25605.46
498.50	25462.69
498.67	26099.31
498.85	25975.27
499.03	26267.83
499.20	26171.87
499.38	26066.55
499.56	26141.44
499.73	26246.77
499.91	26878.71
500.08	26654.02
500.26	26319.32
500.44	26611.89
500.61	26787.43
500.79	26438.69
500.97	26855.31
501.14	27049.57
501.32	26850.63
501.49	27147.87
501.67	27110.43
501.84	27353.84
502.02	27449.80
502.20	27433.42
502.37	27623.00
502.55	27655.77
502.72	27810.25
502.90	28243.24
503.07	27655.77
503.25	27648.75
503.43	27938.97
503.60	28100.47
503.78	27990.47
503.95	28151.96
504.13	28247.93
504.30	28479.64
504.48	28699.65
504.65	28734.76
504.83	29015.62
505.01	28964.13
505.18	28931.36
505.36	29244.99
505.53	29053.07
505.71	29839.49
505.88	29216.91
506.06	29284.78
506.23	29465.00
506.41	29706.08
506.58	30080.56
506.76	29844.17
506.93	29855.87
507.11	29605.44
507.28	29816.08
507.46	29783.32
507.63	29855.87
507.81	29935.45
507.98	30054.82
508.16	30101.63
508.33	30658.68
508.50	30738.26
508.68	30749.96
508.85	30941.88
509.03	30864.64
509.20	30689.10
509.38	31068.27
509.55	31285.94
509.73	31084.65
509.90	31419.35
510.08	31550.42
510.25	31271.90
510.42	31405.31
510.60	31819.58
510.77	31866.39
510.95	31917.89
511.12	31606.59
511.30	31999.80
511.47	32285.35
511.64	32545.15
511.82	32222.16
511.99	32011.51
512.17	32079.38
512.34	32158.96
512.51	32285.35
512.69	32655.15
512.86	32683.24
513.04	33041.34
513.21	32877.51
513.38	32606.00
513.56	32421.10
513.73	32650.47
513.90	32694.94
514.08	32622.39
514.25	32877.51
514.43	33146.67
514.60	32966.45
514.77	33312.84
514.95	33738.82
515.12	33610.09
515.29	33642.86
515.47	33881.60
515.64	33731.80
515.81	34043.09
515.99	33633.50
516.16	33720.10
516.33	33722.44
516.51	33921.38
516.68	33251.99
516.85	33141.99
517.03	33528.17
517.20	34026.71
517.37	34586.10
517.54	34286.51
517.72	33944.79
517.89	34279.49
518.06	33949.47
518.24	34085.22
518.41	34178.84
518.58	34696.10
518.75	34579.07
518.93	35082.29
519.10	34740.57
519.27	35000.37
519.45	35220.38
519.62	34951.22
519.79	34913.77
519.96	35337.41
520.14	35524.65
520.31	34752.27
520.48	35674.45
520.65	35618.27
520.83	35711.89
521.00	35779.77
521.17	35807.86
521.34	36140.21
521.52	35887.43
521.69	35828.92
521.86	36020.84
522.03	36215.11
522.20	36093.40
522.38	36189.36
522.55	36411.71
522.72	35971.69
522.89	36404.69
523.07	36692.58
523.24	36154.26
523.41	36912.59
523.58	37118.56
523.75	36966.42
523.92	37394.74
524.10	37116.22
524.27	36737.05
524.44	37017.91
524.61	37467.30
524.78	37120.90
524.96	37591.34
525.13	37759.86
525.30	37525.81
525.47	37813.70
525.64	37471.98
525.81	37497.72
525.98	37617.09
526.16	37436.87
526.33	37598.37
526.50	37376.01
526.67	37181.75
526.84	37212.18
527.01	37270.69
527.18	37785.61
527.36	38176.48
527.53	37792.63
527.70	38614.16
527.87	38815.44
528.04	38190.52
528.21	38735.87
528.38	38464.36
528.55	38595.43
528.72	38476.07
528.89	39068.22
529.07	38625.86
529.24	38721.82
529.41	38918.43
529.58	38621.18
529.75	38749.91
529.92	39103.33
530.09	38562.67
530.26	39075.24
530.43	39267.17
530.60	39335.04
530.77	38918.43
530.94	39150.14
531.11	38754.59
531.28	39674.42
531.46	39775.06
531.63	39445.05
531.80	39592.50
531.97	39512.92
532.14	39222.70
532.31	39063.54
532.48	39248.44
532.65	39782.09
532.82	39695.49
532.99	39634.63
533.16	39758.68
533.33	39529.31
533.50	40023.16
533.67	39828.90
533.84	39576.12
534.01	39746.98
534.18	39512.92
534.35	40552.12
534.52	40060.61
534.69	40371.90
534.86	40306.37
535.03	40313.39
535.20	40713.62
535.37	40840.01
535.54	40685.53
535.71	40629.36
535.88	40720.64
536.05	41050.66
536.22	40587.23
536.38	40505.31
536.55	40673.83
536.72	40772.13
536.89	40341.47
537.06	40769.79
537.23	41001.50
537.40	41022.57
537.57	40861.07
537.74	41275.35
537.91	41207.47
538.08	41415.78
538.25	41099.81
538.42	41010.87
538.59	41261.30
538.75	40542.76
538.92	41106.83
539.09	41340.88
539.26	41460.25
539.43	41280.03
539.60	41350.24
539.77	41486.00
539.94	41294.07
540.11	41095.13
540.28	41359.61
540.44	41703.67
540.61	41542.17
540.78	41090.44
540.95	41528.13
541.12	41228.54
541.29	41715.37
541.46	41698.98
541.62	41502.38
541.79	42485.40
541.96	41368.97
542.13	41808.99
542.30	41799.63
542.47	42021.98
542.63	41516.42
542.80	42246.67
542.97	42106.24
543.14	42419.87
543.31	42579.03
543.48	42541.58
543.64	42642.22
543.81	42857.55
543.98	42752.23
544.15	42848.19
544.32	42705.41
544.48	43077.56
544.65	42988.62
544.82	42412.85
544.99	42682.01
545.16	42621.16
545.32	42674.99
545.49	43187.56
545.66	43199.27
545.83	43044.79
546.00	43239.06
546.16	42756.91
546.33	43126.71
546.50	43295.23
546.67	42976.92
546.83	43208.63
547.00	42937.13
547.17	43274.16
547.34	43051.81
547.50	43147.78
547.67	43262.46
547.84	43320.98
548.00	42958.19
548.17	43732.91
548.34	43681.42
548.51	43985.69
548.67	43655.67
548.84	43405.23
549.01	43592.48
549.18	43540.99
549.34	43796.10
549.51	43915.47
549.68	43606.52
549.84	43484.81
550.01	44306.34
550.18	43868.66
550.34	44069.95
550.51	43861.64
550.68	43899.09
550.84	43910.79
551.01	43995.05
551.18	43955.26
551.34	43941.22
551.51	44112.08
551.68	44215.06
551.84	44233.78
552.01	43887.39
552.18	44311.02
552.34	43662.69
552.51	44044.20
552.68	43899.09
552.84	44311.02
553.01	44769.77
553.18	44294.64
553.34	44240.81
553.51	44116.76
553.67	44301.66
553.84	44872.75
554.01	44580.18
554.17	44889.13
554.34	44837.64
554.51	44540.39
554.67	44666.78
554.84	44509.97
555.00	44257.19
555.17	44526.35
555.33	44601.25
555.50	44720.62
555.67	44540.39
555.83	44196.34
556.00	44608.27
556.16	44973.39
556.33	44804.88
556.50	44917.22
556.66	45010.84
556.83	44619.97
556.99	44526.35
557.16	44861.05
557.32	44755.72
557.49	45013.18
557.65	44898.50
557.82	44634.02
557.98	45198.09
558.15	45315.11
558.32	45179.36
558.48	44903.18
558.65	44938.29
558.81	45181.70
558.98	45062.33
559.14	44697.21
559.31	44804.88
559.47	44849.35
559.64	45067.02
559.80	44854.03
559.97	45041.27
560.13	44849.35
560.30	44835.30
560.46	45357.24
560.63	45120.85
560.79	45677.90
560.96	45521.08
561.12	45364.26
561.29	45343.20
561.45	45453.20
561.61	45380.65
561.78	44746.36
561.94	45209.79
562.11	45155.96
562.27	44912.54
562.44	45380.65
562.60	45553.85
562.77	45603.00
562.93	45411.07
563.10	45741.09
563.26	45249.58
563.42	45565.55
563.59	45481.29
563.75	45696.62
563.92	45806.62
564.08	45694.28
564.24	46017.27
564.41	45612.36
564.57	45509.38
564.74	45572.57
564.90	46012.59
565.07	45705.98
565.23	45663.85
565.39	45443.84
565.56	45689.60
565.72	45106.80
565.88	45249.58
566.05	45272.98
566.21	45324.47
566.38	45900.25
566.54	45539.80
566.70	46202.18
566.87	46131.96
567.03	45750.45
567.19	46089.83
567.36	45717.68
567.52	45378.31
567.68	45705.98
567.85	45687.26
568.01	45689.60
568.17	45642.79
568.34	45691.94
568.50	45635.77
568.66	45315.11
568.83	45532.78
568.99	45717.68
569.15	45626.40
569.32	45619.38
569.48	45509.38
569.64	45682.58
569.81	45923.65
569.97	45340.86
570.13	45951.74
570.30	45352.56
570.46	45565.55
570.62	45586.61
570.78	45095.10
570.95	45757.47
571.11	45624.06
571.27	45734.07
571.43	45420.44
571.60	45888.54
571.76	45792.58
571.92	45469.59
572.09	45970.46
572.25	46143.66
572.41	46419.84
572.57	45907.27
572.74	46153.02
572.90	45846.41
573.06	46017.27
573.22	45771.52
573.38	45872.16
573.55	45544.48
573.71	45961.10
573.87	45982.16
574.03	45865.14
574.20	46232.60
574.36	46169.41
574.52	45759.81
574.68	45968.12
574.84	46291.12
575.01	46080.47
575.17	45689.60
575.33	45703.64
575.49	45937.69
575.65	45837.05
575.82	46124.94
575.98	45495.33
576.14	46131.96
576.30	46253.67
576.46	45933.01
576.62	45881.52
576.79	45970.46
576.95	45624.06
577.11	46176.43
577.27	45944.72
577.43	46117.92
577.59	45982.16
577.75	45652.15
577.92	45663.85
578.08	45612.36
578.24	45654.49
578.40	45949.40
578.56	45942.38
578.72	45937.69
578.88	46115.58
579.04	46190.47
579.21	45769.18
579.37	46120.26
579.53	45902.59
579.69	45696.62
579.85	46082.81
580.01	46319.20
580.17	46155.36
580.33	46036.00
580.49	45928.33
580.65	46073.45
580.82	46099.19
580.98	45855.78
581.14	45933.01
581.30	46153.02
581.46	46223.24
581.62	46326.22
581.78	46057.06
581.94	46529.85
582.10	46129.62
582.26	46319.20
582.42	46251.33
582.58	46012.59
582.74	45935.35
582.90	46286.43
583.06	46440.91
583.22	46387.08
583.38	46138.98
583.54	46429.21
583.70	46134.30
583.86	46089.83
584.02	46017.27
584.18	46227.92
584.34	45654.49
584.50	46248.99
584.66	46078.13
584.82	46433.89
584.98	46220.90
585.14	46014.93
585.30	45975.14
585.46	45921.31
585.62	45808.96
585.78	46012.59
585.94	45965.78
586.10	45621.72
586.26	45755.13
586.42	46487.72
586.58	46227.92
586.74	46286.43
586.90	46171.75
587.06	46103.87
587.22	45858.12
587.38	46185.79
587.54	46396.44
587.70	46323.88
587.86	45799.60
588.02	46106.21
588.18	46307.50
588.34	45825.35
588.49	45312.77
588.65	45584.27
588.81	45528.10
588.97	45965.78
589.13	45628.74
589.29	46080.47
589.45	45558.53
589.61	45811.31
589.77	46115.58
589.93	46398.78
