SpectraSuite Data File
++++++++++++++++++++++++++++++++++++
Date: Fri Oct 25 10:48:34 EDT 2013
User: price-jones
Dark Spectrum Present: No
Reference Spectrum Present: No
Number of Sampled Component Spectra: 1
Spectrometers: USB2+H05261
Integration Time (usec): 100000 (USB2+H05261)
Spectra Averaged: 1 (USB2+H05261)
Boxcar Smoothing: 0 (USB2+H05261)
Correct for Electrical Dark: No (USB2+H05261)
Strobe/Lamp Enabled: No (USB2+H05261)
Correct for Detector Non-linearity: No (USB2+H05261)
Correct for Stray Light: No (USB2+H05261)
Number of Pixels in Processed Spectrum: 2048
>>>>>Begin Processed Spectral Data<<<<<
365.73	198.95
365.92	198.95
366.12	198.95
366.32	105.32
366.52	28.09
366.72	21.06
366.91	42.13
367.11	49.15
367.31	49.15
367.51	70.22
367.70	16.38
367.90	98.30
368.10	51.49
368.30	23.41
368.49	11.70
368.69	16.38
368.89	74.90
369.09	84.26
369.28	98.30
369.48	49.15
369.68	117.03
369.87	53.83
370.07	114.69
370.27	177.88
370.47	255.12
370.66	423.64
370.86	482.15
371.06	528.96
371.25	477.47
371.45	526.62
371.65	547.69
371.84	451.72
372.04	491.51
372.24	603.86
372.44	428.32
372.63	554.71
372.83	526.62
373.03	550.03
373.22	629.60
373.42	580.45
373.62	566.41
373.81	550.03
374.01	627.26
374.21	589.82
374.40	557.05
374.60	667.05
374.79	615.56
374.99	667.05
375.19	667.05
375.38	695.14
375.58	688.12
375.78	690.46
375.97	671.73
376.17	660.03
376.37	709.18
376.56	624.92
376.76	697.48
376.95	699.82
377.15	692.80
377.35	650.67
377.54	716.20
377.74	669.39
377.93	737.27
378.13	660.03
378.33	765.36
378.52	711.52
378.72	697.48
378.91	751.31
379.11	685.78
379.31	702.16
379.50	685.78
379.70	711.52
379.89	753.65
380.09	704.50
380.28	671.73
380.48	765.36
380.68	744.29
380.87	692.80
381.07	741.95
381.26	711.52
381.46	725.57
381.65	748.97
381.85	772.38
382.04	753.65
382.24	748.97
382.43	746.63
382.63	709.18
382.83	753.65
383.02	868.34
383.22	774.72
383.41	809.83
383.61	793.44
383.80	781.74
384.00	770.04
384.19	784.08
384.39	800.46
384.58	828.55
384.78	816.85
384.97	887.06
385.17	800.46
385.36	826.21
385.56	835.57
385.75	842.59
385.95	821.53
386.14	957.28
386.34	901.11
386.53	837.91
386.72	835.57
386.92	898.77
387.11	978.34
387.31	947.92
387.50	901.11
387.70	863.66
387.89	908.13
388.09	966.64
388.28	1008.77
388.48	950.26
388.67	943.24
388.86	992.39
389.06	985.37
389.25	1067.28
389.45	950.26
389.64	992.39
389.84	1020.47
390.03	1081.33
390.22	1142.18
390.42	1088.35
390.61	1006.43
390.81	1109.41
391.00	1095.37
391.19	1165.59
391.39	1048.56
391.58	1132.82
391.78	1118.78
391.97	1102.39
392.16	999.41
392.36	1109.41
392.55	1053.24
392.75	1114.10
392.94	1018.13
393.13	1036.86
393.33	1039.20
393.52	1090.69
393.71	1128.14
393.91	1235.80
394.10	1221.76
394.29	1132.82
394.49	1203.04
394.68	1294.32
394.88	1235.80
395.07	1284.95
395.26	1273.25
395.46	1273.25
395.65	1266.23
395.84	1320.06
396.04	1331.76
396.23	1259.21
396.42	1235.80
396.62	1270.91
396.81	1219.42
397.00	1301.34
397.19	1341.13
397.39	1324.74
397.58	1390.28
397.77	1284.95
397.97	1511.99
398.16	1486.24
398.35	1444.11
398.55	1568.16
398.74	1591.56
398.93	1579.86
399.12	1502.62
399.32	1617.31
399.51	1568.16
399.70	1638.38
399.90	1692.21
400.09	1680.50
400.28	1790.51
400.47	1694.55
400.67	1724.97
400.86	1710.93
401.05	1753.06
401.24	1666.46
401.44	1748.38
401.63	1753.06
401.82	1783.49
402.01	1722.63
402.21	1858.39
402.40	1806.89
402.59	1884.13
402.78	1825.62
402.97	1825.62
403.17	1891.15
403.36	1921.58
403.55	1834.98
403.74	2087.76
403.93	1956.69
404.13	2010.52
404.32	2005.84
404.51	1916.90
404.70	1984.77
404.89	1973.07
405.09	2052.65
405.28	2043.29
405.47	2054.99
405.66	2094.78
405.85	2052.65
406.05	2080.74
406.24	2127.55
406.43	2260.96
406.62	2207.13
406.81	2211.81
407.00	2111.16
407.20	2148.61
407.39	2160.31
407.58	2289.04
407.77	2214.15
407.96	2296.07
408.15	2340.54
408.34	2413.09
408.54	2413.09
408.73	2319.47
408.92	2415.43
409.11	2401.39
409.30	2361.60
409.49	2284.36
409.68	2415.43
409.87	2499.69
410.07	2497.35
410.26	2509.05
410.45	2485.65
410.64	2511.39
410.83	2558.21
411.02	2693.96
411.21	2668.21
411.40	2600.34
411.59	2712.68
411.78	2619.06
411.98	2651.83
412.17	2661.19
412.36	2759.49
412.55	2675.23
412.74	2815.66
412.93	2775.88
413.12	2904.60
413.31	3000.57
413.50	2839.07
413.69	2974.82
413.88	2928.01
414.07	2911.63
414.26	3075.46
414.45	3150.36
414.64	3070.78
414.83	3087.17
415.02	3136.32
415.22	3241.64
415.41	3248.66
415.60	3351.65
415.79	3281.43
415.98	3225.26
416.17	3403.14
416.36	3363.35
416.55	3309.52
416.74	3316.54
416.93	3318.88
417.12	3438.25
417.31	3400.80
417.50	3372.71
417.69	3480.38
417.88	3552.93
418.07	3475.70
418.26	3473.36
418.45	3574.00
418.64	3679.32
418.83	3712.09
419.02	3606.77
419.21	3789.33
419.39	3674.64
419.58	3726.13
419.77	3655.92
419.96	3770.60
420.15	3768.26
420.34	3742.52
420.53	3852.52
420.72	3868.91
420.91	3892.31
421.10	4060.83
421.29	3955.51
421.48	3971.89
421.67	4065.51
421.86	3913.38
422.05	3847.84
422.24	3943.80
422.43	3868.91
422.61	3983.59
422.80	4053.81
422.99	4140.41
423.18	4107.64
423.37	4163.81
423.56	4098.28
423.75	4091.26
423.94	3969.55
424.13	3824.44
424.32	3948.48
424.50	4084.23
424.69	4112.32
424.88	4126.36
425.07	4070.19
425.26	4018.70
425.45	4074.87
425.64	4191.90
425.83	3915.72
426.01	4285.52
426.20	4107.64
426.39	4203.60
426.58	4044.45
426.77	4138.07
426.96	4124.02
427.15	4074.87
427.33	4161.47
427.52	4142.75
427.71	4212.96
427.90	4219.99
428.09	4344.03
428.28	4241.05
428.46	4367.44
428.65	4325.31
428.84	4578.09
429.03	4528.94
429.22	4280.84
429.40	4189.56
429.59	4163.81
429.78	4236.37
429.97	4035.08
430.16	4131.05
430.34	4149.77
430.53	4358.08
430.72	4472.76
430.91	4339.35
431.10	4386.16
431.28	4561.70
431.47	4723.20
431.66	4814.48
431.85	4606.17
432.03	4781.71
432.22	4826.18
432.41	4819.16
432.60	4732.56
432.79	4922.15
432.97	4997.04
433.16	5039.17
433.35	4725.54
433.54	4793.42
433.72	4826.18
433.91	4870.65
434.10	4922.15
434.28	4816.82
434.47	5102.37
434.66	4943.21
434.85	4985.34
435.03	5217.05
435.22	5249.82
435.41	5376.21
435.59	5357.49
435.78	5284.93
435.97	5338.76
436.16	5266.21
436.34	5291.95
436.53	5373.87
436.72	5355.15
436.90	5165.56
437.09	5329.40
437.28	5158.54
437.46	5481.53
437.65	5341.10
437.84	5310.68
438.02	5245.14
438.21	5277.91
438.40	5296.63
438.58	5486.22
438.77	5617.29
438.96	5551.75
439.14	5720.27
439.33	5851.34
439.52	5956.66
439.70	5750.70
439.89	5998.79
440.08	5785.80
440.26	5792.83
440.45	5703.89
440.63	5879.43
440.82	6253.91
441.01	6328.81
441.19	6162.63
441.38	6277.32
441.57	6370.94
441.75	6253.91
441.94	6504.35
442.12	6525.41
442.31	6443.49
442.50	6518.39
442.68	6506.69
442.87	6527.75
443.05	6562.86
443.24	6661.16
443.43	6740.74
443.61	6677.55
443.80	6717.34
443.98	6553.50
444.17	6422.43
444.35	6717.34
444.54	6775.85
444.73	6836.70
444.91	6731.38
445.10	6909.26
445.28	6768.83
445.47	6626.06
445.65	6583.93
445.84	6766.49
446.02	6787.55
446.21	6869.47
446.39	6956.07
446.58	6855.43
446.77	6827.34
446.95	6782.87
447.14	6857.77
447.32	7016.93
447.51	6874.15
447.69	7042.67
447.88	6810.96
448.06	7012.24
448.25	6820.32
448.43	7009.90
448.62	7035.65
448.80	6965.43
448.99	7056.72
449.17	7045.01
449.36	7089.48
449.54	7286.09
449.73	7276.73
449.91	7234.60
450.10	7382.05
450.28	7632.49
450.46	7503.76
450.65	7335.24
450.83	7405.46
451.02	7337.58
451.20	7499.08
451.39	7482.69
451.57	7290.77
451.76	7475.67
451.94	7520.14
452.13	7536.52
452.31	7442.90
452.49	7321.20
452.68	7470.99
452.86	7559.93
453.05	7548.23
453.23	7541.21
453.42	7541.21
453.60	7665.25
453.78	7805.69
453.97	7588.02
454.15	7611.42
454.34	7756.54
454.52	7889.95
454.70	7868.88
454.89	7784.62
455.07	7824.41
455.26	7971.86
455.44	7899.31
455.62	7969.52
455.81	7997.61
455.99	8140.38
456.17	8203.58
456.36	8154.43
456.54	8102.93
456.73	8332.31
456.91	8386.14
457.09	8191.88
457.28	8589.77
457.46	8201.24
457.64	8442.31
457.83	8409.54
458.01	8259.75
458.19	8362.73
458.38	8475.08
458.56	8540.61
458.74	8500.83
458.93	8402.52
459.11	8435.29
459.29	8554.66
459.48	8547.64
459.66	8805.10
459.84	8821.48
460.03	8823.82
460.21	8657.64
460.39	8800.41
460.57	8681.05
460.76	8889.35
460.94	8999.36
461.12	8952.55
461.31	8990.00
461.49	9069.58
461.67	8875.31
461.85	9207.67
462.04	8842.54
462.22	9652.37
462.40	9345.76
462.59	9240.44
462.77	9078.94
462.95	9338.74
463.13	8994.68
463.32	9118.73
463.50	9315.33
463.68	9212.35
463.86	9214.69
464.05	9273.20
464.23	9184.26
464.41	9291.93
464.59	9132.77
464.78	9551.73
464.96	9359.80
465.14	9352.78
465.32	9540.02
465.50	9465.13
465.69	9638.33
465.87	9448.74
466.05	9415.98
466.23	9366.82
466.41	9614.92
466.60	9851.31
466.78	9425.34
466.96	9472.15
467.14	9743.65
467.32	9495.55
467.51	9757.69
467.69	9624.28
467.87	9867.70
468.05	9884.08
468.23	9858.34
468.41	9778.76
468.60	9837.27
468.78	9841.95
468.96	9947.28
469.14	9916.85
469.32	10087.71
469.50	10005.79
469.69	9954.30
469.87	10141.54
470.05	9954.30
470.23	10115.80
470.41	10258.57
470.59	10377.94
470.77	10022.17
470.95	10221.12
471.14	10450.49
471.32	10457.51
471.50	10740.72
471.68	10539.43
471.86	10555.82
472.04	10579.22
472.22	10810.93
472.40	10462.19
472.58	10604.97
472.77	10691.57
472.95	11042.65
473.13	11190.10
473.31	10939.66
473.49	10813.28
473.67	10857.75
473.85	10932.64
474.03	11073.07
474.21	11508.41
474.39	11358.62
474.57	11410.11
474.75	11489.69
474.93	11580.97
475.12	11576.29
475.30	11688.64
475.48	11604.38
475.66	11779.92
475.84	11543.52
476.02	11744.81
476.20	11796.30
476.38	12147.38
476.56	12255.04
476.74	12205.89
476.92	12100.57
477.10	12159.08
477.28	12545.27
477.46	12400.16
477.64	12627.19
477.82	12720.81
478.00	12931.46
478.18	12657.62
478.36	13121.04
478.54	13179.56
478.72	12905.71
478.90	13378.50
479.08	13486.17
479.26	13642.98
479.44	13699.16
479.62	13722.56
479.80	13678.09
479.98	14033.85
480.16	14167.26
480.34	14113.43
480.52	14111.09
480.70	14038.53
480.88	14216.41
481.06	14370.89
481.24	14317.06
481.41	14403.66
481.59	14888.15
481.77	15073.05
481.95	14792.19
482.13	14899.85
482.31	15026.24
482.49	15428.81
482.67	15419.45
482.85	15545.84
483.03	15527.11
483.21	15793.94
483.39	15878.19
483.57	15697.97
483.74	15936.71
483.92	16121.61
484.10	16100.55
484.28	16442.26
484.46	16430.56
484.64	16994.63
484.82	16407.16
485.00	16559.29
485.18	16954.84
485.35	16975.91
485.53	16636.53
485.71	16734.83
485.89	16980.59
486.07	16982.93
486.25	16931.44
486.43	17401.88
486.61	17532.95
486.78	17727.22
486.96	17839.56
487.14	18377.89
487.32	18092.34
487.50	18335.76
487.68	18679.82
487.85	19293.04
488.03	19131.54
488.21	19012.17
488.39	19126.86
488.57	19396.02
488.75	19302.40
488.92	19829.02
489.10	20100.52
489.28	19831.36
489.46	20435.22
489.64	20388.41
489.81	20648.21
489.99	20790.98
490.17	20695.02
490.35	20982.90
490.53	21018.01
490.70	20912.69
490.88	21034.39
491.06	21460.37
491.24	21245.04
491.41	21324.62
491.59	21476.76
491.77	21422.92
491.95	21853.58
492.13	22104.02
492.30	22256.15
492.48	22094.66
492.66	22450.42
492.84	22576.81
493.01	22892.78
493.19	22911.50
493.37	23101.09
493.54	23009.81
493.72	23213.43
493.90	23152.58
494.08	23480.25
494.25	23763.46
494.43	24142.63
494.61	24084.11
494.79	24063.05
494.96	24086.45
495.14	24051.34
495.32	24339.23
495.49	24505.41
495.67	24503.07
495.85	24748.82
496.02	25001.60
496.20	25179.48
496.38	25003.94
496.55	25809.09
496.73	25804.41
496.91	25294.17
497.09	26022.08
497.26	26099.31
497.44	25652.27
497.62	25748.23
497.79	26284.22
497.97	26029.10
498.14	26368.48
498.32	26391.88
498.50	26419.97
498.67	26838.92
498.85	27112.77
499.03	27168.94
499.20	27042.55
499.38	27056.59
499.56	27552.79
499.73	27585.55
499.91	27227.45
500.08	27449.80
500.26	27330.44
500.44	27857.06
500.61	27742.37
500.79	27513.00
500.97	27913.23
501.14	27770.46
501.32	28247.93
501.49	28205.80
501.67	28154.30
501.84	28362.61
502.02	28474.96
502.20	28547.51
502.37	28861.15
502.55	28268.99
502.72	28591.98
502.90	28968.81
503.07	28837.74
503.25	29172.44
503.43	28802.63
503.60	29081.16
503.78	29099.88
503.95	29074.13
504.13	29315.21
504.30	29795.02
504.48	29336.27
504.65	30012.69
504.83	30167.16
505.01	30087.59
505.18	29898.00
505.36	30352.07
505.53	30562.72
505.71	30614.21
505.88	30389.52
506.06	30436.33
506.23	30733.57
506.41	30314.62
506.58	30438.67
506.76	30543.99
506.93	30888.05
507.11	30820.17
507.28	31019.12
507.46	30771.02
507.63	31079.97
507.81	31267.22
507.98	31311.69
508.16	31304.67
508.33	31269.56
508.50	31732.98
508.68	31473.18
508.85	31868.73
509.03	32165.98
509.20	31857.03
509.38	32072.36
509.55	31997.46
509.73	32362.59
509.90	32201.09
510.08	32268.97
510.25	32716.01
510.42	32105.13
510.60	32804.95
510.77	32437.48
510.95	32989.85
511.12	32987.51
511.30	33041.34
511.47	33532.86
511.64	33640.52
511.82	33373.70
511.99	33216.88
512.17	33528.17
512.34	33057.73
512.51	33034.32
512.69	33420.51
512.86	33820.74
513.04	34082.88
513.21	33745.84
513.38	33811.38
513.56	34038.41
513.73	33638.18
513.90	33694.35
514.08	33970.54
514.25	34148.42
514.43	34363.75
514.60	34391.83
514.77	34293.53
514.95	34384.81
515.12	34319.28
515.29	34651.63
515.47	34749.93
515.64	34866.96
515.81	34630.57
515.99	35014.41
516.16	34239.70
516.33	34279.49
516.51	34937.18
516.68	34450.35
516.85	33942.45
517.03	34857.60
517.20	34684.40
517.37	35220.38
517.54	35709.55
517.72	35204.00
517.89	34857.60
518.06	35005.05
518.24	35145.48
518.41	35761.05
518.58	35470.82
518.75	35592.53
518.93	36109.78
519.10	35957.65
519.27	35751.68
519.45	36311.07
519.62	36500.65
519.79	36233.83
519.96	36311.07
520.14	36627.04
520.31	36212.77
520.48	36636.41
520.65	36378.95
520.83	37081.11
521.00	36957.06
521.17	37003.87
521.34	36865.78
521.52	37165.37
521.69	37158.34
521.86	37209.84
522.03	37282.39
522.20	37078.77
522.38	37118.56
522.55	37287.07
522.72	37041.32
522.89	37404.10
523.07	37956.47
523.24	37572.62
523.41	37916.68
523.58	37872.21
523.75	38162.43
523.92	38110.94
524.10	38169.46
524.27	37904.98
524.44	38059.45
524.61	38038.39
524.78	38508.83
524.96	38529.90
525.13	38043.07
525.30	38677.35
525.47	38483.09
525.64	38249.03
525.81	38986.30
525.98	38628.20
526.16	38185.84
526.33	38323.93
526.50	38534.58
526.67	38293.50
526.84	38436.28
527.01	38471.39
527.18	38789.70
527.36	39075.24
527.53	39243.76
527.70	39824.22
527.87	39690.80
528.04	39529.31
528.21	40285.30
528.38	39929.54
528.55	39683.78
528.72	39859.32
528.89	40526.38
529.07	39955.29
529.24	39744.64
529.41	39718.89
529.58	39938.90
529.75	39861.66
529.92	40334.45
530.09	40449.14
530.26	40261.90
530.43	40507.65
530.60	40320.41
530.77	40301.68
530.94	40617.66
531.11	40219.77
531.28	40402.33
531.46	40620.00
531.63	40641.06
531.80	40381.26
531.97	40491.27
532.14	40348.50
532.31	40004.44
532.48	40793.20
532.65	40601.27
532.82	40533.40
532.99	40985.12
533.16	40910.22
533.33	40502.97
533.50	41067.04
533.67	41090.44
533.84	40790.86
534.01	40900.86
534.18	41532.81
534.35	41832.39
534.52	41523.44
534.69	41661.54
534.86	41813.67
535.03	41170.02
535.20	41638.13
535.37	41780.90
535.54	42043.04
535.71	41670.90
535.88	41544.51
536.05	41598.34
536.22	41867.50
536.38	41886.23
536.55	41593.66
536.72	42148.37
536.89	41469.61
537.06	41902.61
537.23	42232.63
537.40	42012.62
537.57	41855.80
537.74	42424.55
537.91	42607.11
538.08	42590.73
538.25	42087.51
538.42	42213.90
538.59	42108.58
538.75	42405.83
538.92	42522.85
539.09	42623.50
539.26	42501.79
539.43	42672.65
539.60	42506.47
539.77	42127.30
539.94	42586.05
540.11	42452.64
540.28	42195.18
540.44	42174.11
540.61	42696.05
540.78	42305.18
540.95	43030.75
541.12	42646.90
541.29	42820.10
541.46	43082.24
541.62	43014.37
541.79	43049.47
541.96	42843.51
542.13	42766.27
542.30	43182.88
542.47	43473.11
542.63	42834.14
542.80	43454.39
542.97	43798.44
543.14	43917.81
543.31	43976.33
543.48	43438.00
543.64	44114.42
543.81	43992.71
543.98	43634.61
544.15	43910.79
544.32	44065.27
544.48	44516.99
544.65	44100.37
544.82	44004.41
544.99	43756.32
545.16	44397.62
545.32	43854.62
545.49	44191.65
545.66	44505.29
545.83	44502.95
546.00	44435.07
546.16	44203.36
546.33	44563.80
546.50	44172.93
546.67	44046.54
546.83	43878.02
547.00	44460.82
547.17	44240.81
547.34	44528.69
547.50	44243.15
547.67	44589.55
547.84	44179.95
548.00	44680.83
548.17	45249.58
548.34	44809.56
548.51	44872.75
548.67	45434.48
548.84	44844.66
549.01	45111.49
549.18	44912.54
549.34	44477.20
549.51	45207.45
549.68	45141.91
549.84	45043.61
550.01	45195.74
550.18	45113.83
550.34	45287.03
550.51	45092.76
550.68	45020.20
550.84	44830.62
551.01	45179.36
551.18	45319.79
551.34	45312.77
551.51	45315.11
551.68	45635.77
551.84	45350.22
552.01	45195.74
552.18	45081.06
552.34	44809.56
552.51	45572.57
552.68	45558.53
552.84	45621.72
553.01	45811.31
553.18	45404.05
553.34	45485.97
553.51	45525.76
553.67	45551.51
553.84	45963.44
554.01	46047.70
554.17	45954.08
554.34	46101.53
554.51	46220.90
554.67	45916.63
554.84	45979.82
555.00	46047.70
555.17	45972.80
555.33	45621.72
555.50	46028.98
555.67	45928.33
555.83	45713.00
556.00	46230.26
556.16	46366.01
556.33	46071.10
556.50	46017.27
556.66	46323.88
556.83	46014.93
556.99	46211.54
557.16	46564.96
557.32	46560.28
557.49	46534.53
557.65	46131.96
557.82	45909.61
557.98	46485.38
558.15	45940.04
558.32	46504.10
558.48	46071.10
558.65	46452.61
558.81	46284.09
558.98	46169.41
559.14	46071.10
559.31	45656.83
559.47	46258.35
559.64	46258.35
559.80	46691.35
559.97	46394.10
560.13	46417.50
560.30	46501.76
560.46	46698.37
560.63	46211.54
560.79	46609.43
560.96	47086.90
561.12	46731.14
561.29	46630.49
561.45	46445.59
561.61	46733.48
561.78	46478.36
561.94	46733.48
562.11	46656.24
562.27	46686.67
562.44	46471.34
562.60	46534.53
562.77	46340.27
562.93	46660.92
563.10	46948.81
563.26	46251.33
563.42	47182.86
563.59	46696.03
563.75	47208.61
563.92	46738.16
564.08	46909.02
564.24	46939.44
564.41	46946.47
564.57	46506.44
564.74	46625.81
564.90	47154.77
565.07	46766.24
565.23	46768.58
565.39	46787.31
565.56	47157.11
565.72	46663.26
565.88	47150.09
566.05	47206.26
566.21	46904.34
566.38	47000.30
566.54	47253.08
566.70	47086.90
566.87	47262.44
567.03	46803.69
567.19	47189.88
567.36	47234.35
567.52	47306.91
567.68	47377.12
567.85	46887.95
568.01	47330.31
568.17	47133.71
568.34	46843.48
568.50	46717.09
568.66	46820.08
568.83	46986.25
568.99	46803.69
569.15	47077.54
569.32	46906.68
569.48	46618.79
569.64	47110.30
569.81	46850.50
569.97	46791.99
570.13	47185.20
570.30	46862.21
570.46	46770.93
570.62	46672.62
570.78	46644.54
570.95	46672.62
571.11	47180.52
571.27	46955.83
571.43	46876.25
571.60	47290.52
571.76	47044.77
571.92	47487.13
572.09	47304.57
572.25	47000.30
572.41	46728.80
572.57	47278.82
572.74	47767.99
572.90	47278.82
573.06	47276.48
573.22	47356.06
573.38	47248.39
573.55	47363.08
573.71	47487.13
573.87	47583.09
574.03	47035.41
574.20	47220.31
574.36	46962.85
574.52	47283.50
574.68	47398.19
574.84	47325.63
575.01	47419.25
575.17	47243.71
575.33	47246.05
575.49	46894.97
575.65	47239.03
575.82	47477.77
575.98	47189.88
576.14	47379.46
576.30	47030.72
576.46	46948.81
576.62	47489.47
576.79	47054.13
576.95	46869.23
577.11	47157.11
577.27	47213.29
577.43	46979.23
577.59	47435.64
577.75	46836.46
577.92	47150.09
578.08	46894.97
578.24	46838.80
578.40	47157.11
578.56	47255.42
578.72	46721.77
578.88	47356.06
579.04	47461.38
579.21	47129.03
579.37	47173.50
579.53	46995.62
579.69	46934.76
579.85	47157.11
580.01	47236.69
580.17	47199.24
580.33	47536.28
580.49	47346.70
580.65	47405.21
580.82	47241.37
580.98	47100.94
581.14	47065.83
581.30	47508.19
581.46	47346.70
581.62	47306.91
581.78	47386.49
581.94	47669.69
582.10	47531.60
582.26	47529.26
582.42	47342.02
582.58	47494.15
582.74	47334.99
582.90	47405.21
583.06	47622.88
583.22	47430.96
583.38	47592.45
583.54	47461.38
583.70	47449.68
583.86	47292.86
584.02	47374.78
584.18	47374.78
584.34	47239.03
584.50	47496.49
584.66	47459.04
584.82	46930.08
584.98	47124.35
585.14	47082.22
585.30	47302.23
585.46	47456.70
585.62	46691.35
585.78	46909.02
585.94	46806.03
586.10	47412.23
586.26	47587.77
586.42	47327.97
586.58	47208.61
586.74	47653.31
586.90	47587.77
587.06	47145.41
587.22	47147.75
587.38	47267.12
587.54	47744.59
587.70	47145.41
587.86	47063.49
588.02	47077.54
588.18	47522.24
588.34	47470.75
588.49	46567.30
588.65	47021.36
588.81	47016.68
588.97	47213.29
589.13	47070.51
589.29	46777.95
589.45	47180.52
589.61	47426.28
589.77	47297.55
