SpectraSuite Data File
++++++++++++++++++++++++++++++++++++
Date: Fri Oct 25 10:43:27 EDT 2013
User: price-jones
Dark Spectrum Present: No
Reference Spectrum Present: No
Number of Sampled Component Spectra: 1
Spectrometers: USB2+H05261
Integration Time (usec): 100000 (USB2+H05261)
Spectra Averaged: 1 (USB2+H05261)
Boxcar Smoothing: 0 (USB2+H05261)
Correct for Electrical Dark: No (USB2+H05261)
Strobe/Lamp Enabled: No (USB2+H05261)
Correct for Detector Non-linearity: No (USB2+H05261)
Correct for Stray Light: No (USB2+H05261)
Number of Pixels in Processed Spectrum: 2048
>>>>>Begin Processed Spectral Data<<<<<
365.73	98.30
365.92	98.30
366.12	98.30
366.32	39.79
366.52	58.51
366.72	37.45
366.91	0.00
367.11	0.00
367.31	16.38
367.51	30.43
367.70	58.51
367.90	28.09
368.10	25.75
368.30	37.45
368.49	4.68
368.69	32.77
368.89	11.70
369.09	0.00
369.28	65.54
369.48	74.90
369.68	0.00
369.87	100.64
370.07	112.35
370.27	128.73
370.47	147.45
370.66	360.44
370.86	468.11
371.06	423.64
371.25	456.40
371.45	458.74
371.65	505.56
371.84	440.02
372.04	414.27
372.24	472.79
372.44	531.30
372.63	463.43
372.83	402.57
373.03	475.13
373.22	503.22
373.42	496.19
373.62	535.98
373.81	566.41
374.01	524.28
374.21	573.43
374.40	486.83
374.60	573.43
374.79	545.34
374.99	538.32
375.19	535.98
375.38	603.86
375.58	629.60
375.78	531.30
375.97	631.94
376.17	559.39
376.37	653.01
376.56	582.79
376.76	587.47
376.95	629.60
377.15	629.60
377.35	636.63
377.54	566.41
377.74	636.63
377.93	685.78
378.13	650.67
378.33	592.16
378.52	622.58
378.72	573.43
378.91	699.82
379.11	589.82
379.31	580.45
379.50	648.33
379.70	688.12
379.89	681.10
380.09	645.99
380.28	692.80
380.48	697.48
380.68	664.71
380.87	662.37
381.07	739.61
381.26	765.36
381.46	718.54
381.65	645.99
381.85	629.60
382.04	664.71
382.24	753.65
382.43	641.31
382.63	643.65
382.83	706.84
383.02	702.16
383.22	727.91
383.41	793.44
383.61	767.70
383.80	772.38
384.00	840.25
384.19	702.16
384.39	812.17
384.58	821.53
384.78	760.67
384.97	800.46
385.17	772.38
385.36	781.74
385.56	830.89
385.75	807.48
385.95	793.44
386.14	849.61
386.34	774.72
386.53	739.61
386.72	793.44
386.92	833.23
387.11	765.36
387.31	840.25
387.50	777.06
387.70	833.23
387.89	826.21
388.09	833.23
388.28	833.23
388.48	884.72
388.67	877.70
388.86	849.61
389.06	959.62
389.25	1022.81
389.45	851.96
389.64	901.11
389.84	992.39
390.03	1102.39
390.22	961.96
390.42	952.60
390.61	880.04
390.81	954.94
391.00	1004.09
391.19	1032.18
391.39	1043.88
391.58	1018.13
391.78	1032.18
391.97	1034.52
392.16	964.30
392.36	1060.26
392.55	1020.47
392.75	997.07
392.94	1015.79
393.13	1029.84
393.33	971.32
393.52	1011.11
393.71	1097.71
393.91	1160.91
394.10	1067.28
394.29	1064.94
394.49	1200.69
394.68	1212.40
394.88	1198.35
395.07	1228.78
395.26	1137.50
395.46	1128.14
395.65	1245.16
395.84	1167.93
396.04	1294.32
396.23	1224.10
396.42	1086.01
396.62	1188.99
396.81	1184.31
397.00	1226.44
397.19	1306.02
397.39	1355.17
397.58	1441.77
397.77	1263.89
397.97	1371.55
398.16	1373.89
398.35	1406.66
398.55	1481.56
398.74	1376.24
398.93	1488.58
399.12	1467.52
399.32	1493.26
399.51	1390.28
399.70	1519.01
399.90	1547.09
400.09	1540.07
400.28	1586.88
400.47	1577.52
400.67	1596.25
400.86	1596.25
401.05	1544.75
401.24	1533.05
401.44	1589.22
401.63	1645.40
401.82	1720.29
402.01	1603.27
402.21	1717.95
402.40	1783.49
402.59	1732.00
402.78	1785.83
402.97	1741.36
403.17	1816.26
403.36	1746.04
403.55	1825.62
403.74	1816.26
403.93	1774.13
404.13	1856.04
404.32	1844.34
404.51	1888.81
404.70	1895.83
404.89	1834.98
405.09	1853.70
405.28	1933.28
405.47	1877.11
405.66	2059.67
405.85	1902.86
406.05	1909.88
406.24	1991.80
406.43	2019.88
406.62	1942.64
406.81	2160.31
407.00	2050.31
407.20	1975.41
407.39	1994.14
407.58	2099.46
407.77	2134.57
407.96	2101.80
408.15	2172.02
408.34	2148.61
408.54	2209.47
408.73	2202.44
408.92	2305.43
409.11	2289.04
409.30	2284.36
409.49	2106.48
409.68	2303.09
409.87	2265.64
410.07	2249.25
410.26	2399.05
410.45	2420.11
410.64	2380.32
410.83	2408.41
411.02	2420.11
411.21	2499.69
411.40	2539.48
411.59	2621.40
411.78	2574.59
411.98	2635.44
412.17	2635.44
412.36	2595.65
412.55	2700.98
412.74	2647.15
412.93	2719.70
413.12	2572.25
413.31	2752.47
413.50	2738.43
413.69	2836.73
413.88	2764.17
414.07	2712.68
414.26	2965.46
414.45	2881.20
414.64	2998.23
414.83	2967.80
415.02	2909.29
415.22	3045.04
415.41	2902.26
415.60	3047.38
415.79	3089.51
415.98	3255.69
416.17	3251.00
416.36	3117.59
416.55	3141.00
416.74	3187.81
416.93	3211.22
417.12	3267.39
417.31	3295.47
417.50	3288.45
417.69	3424.20
417.88	3339.94
418.07	3346.97
418.26	3361.01
418.45	3346.97
418.64	3417.18
418.83	3454.63
419.02	3520.17
419.21	3368.03
419.39	3655.92
419.58	3393.78
419.77	3475.70
419.96	3515.48
420.15	3695.71
420.34	3639.53
420.53	3714.43
420.72	3833.80
420.91	3730.81
421.10	3653.58
421.29	3789.33
421.48	3609.11
421.67	3826.78
421.86	3794.01
422.05	3786.99
422.24	3613.79
422.43	3726.13
422.61	3791.67
422.80	3875.93
422.99	3913.38
423.18	3786.99
423.37	4014.02
423.56	3922.74
423.75	3878.27
423.94	3742.52
424.13	3744.86
424.32	3782.31
424.50	3730.81
424.69	4042.11
424.88	3999.98
425.07	3878.27
425.26	3831.46
425.45	3864.22
425.64	3927.42
425.83	3740.18
426.01	3899.33
426.20	3969.55
426.39	4004.66
426.58	3873.59
426.77	3875.93
426.96	3751.88
427.15	3871.25
427.33	3857.20
427.52	3955.51
427.71	4011.68
427.90	3915.72
428.09	4004.66
428.28	4086.58
428.46	4182.54
428.65	4070.19
428.84	4273.82
429.03	4285.52
429.22	3927.42
429.40	4056.15
429.59	4032.74
429.78	3838.48
429.97	3864.22
430.16	3920.40
430.34	4053.81
430.53	4074.87
430.72	4011.68
430.91	4119.34
431.10	4250.41
431.28	4376.80
431.47	4463.40
431.66	4561.70
431.85	4416.59
432.03	4493.83
432.22	4482.13
432.41	4596.81
432.60	4554.68
432.79	4547.66
432.97	4688.09
433.16	4648.30
433.35	4575.75
433.54	4603.83
433.72	4461.06
433.91	4641.28
434.10	4629.58
434.28	4594.47
434.47	4863.63
434.66	4788.74
434.85	4863.63
435.03	4926.83
435.22	4945.55
435.41	5097.69
435.59	4985.34
435.78	4968.96
435.97	5109.39
436.16	5046.20
436.34	5018.11
436.53	5046.20
436.72	5184.29
436.90	4961.94
437.09	5032.15
437.28	4940.87
437.46	4971.30
437.65	5050.88
437.84	5116.41
438.02	5181.95
438.21	5203.01
438.40	4898.74
438.58	5287.27
438.77	5350.46
438.96	5315.36
439.14	5575.16
439.33	5488.56
439.52	5537.71
439.70	5584.52
439.89	5542.39
440.08	5589.20
440.26	5586.86
440.45	5514.30
440.63	5849.00
440.82	5982.41
441.01	5996.45
441.19	5825.59
441.38	6085.39
441.57	5916.87
441.75	6108.80
441.94	6155.61
442.12	6162.63
442.31	6246.89
442.50	6083.05
442.68	6106.46
442.87	6127.52
443.05	6139.23
443.24	6310.08
443.43	6221.14
443.61	6300.72
443.80	6331.15
443.98	6207.10
444.17	6038.58
444.35	6298.38
444.54	6614.35
444.73	6499.67
444.91	6415.41
445.10	6413.07
445.28	6331.15
445.47	6195.40
445.65	6223.48
445.84	6445.84
446.02	6352.21
446.21	6375.62
446.39	6305.40
446.58	6523.07
446.77	6478.60
446.95	6448.18
447.14	6473.92
447.32	6499.67
447.51	6450.52
447.69	6492.65
447.88	6616.69
448.06	6665.85
448.25	6705.63
448.43	6696.27
448.62	6612.01
448.80	6387.32
448.99	6829.68
449.17	6766.49
449.36	6572.22
449.54	6967.77
449.73	6993.52
449.91	7108.21
450.10	6918.62
450.28	7023.95
450.46	6895.22
450.65	7204.17
450.83	6956.07
451.02	6890.54
451.20	7138.63
451.39	7148.00
451.57	6895.22
451.76	6927.99
451.94	7199.49
452.13	7091.82
452.31	7019.27
452.49	6815.64
452.68	6904.58
452.86	7023.95
453.05	7136.29
453.23	6958.41
453.42	6981.82
453.60	7098.84
453.78	7211.19
453.97	7307.15
454.15	7279.07
454.34	7475.67
454.52	7316.51
454.70	7398.43
454.89	7475.67
455.07	7438.22
455.26	7524.82
455.44	7541.21
455.62	7564.61
455.81	7398.43
455.99	7517.80
456.17	7541.21
456.36	7632.49
456.54	7971.86
456.73	7866.54
456.91	7974.21
457.09	8018.68
457.28	8053.78
457.46	8049.10
457.64	7943.78
457.83	7906.33
458.01	8009.31
458.19	8023.36
458.38	7946.12
458.56	8119.32
458.74	8112.30
458.93	8093.57
459.11	8154.43
459.29	8306.56
459.48	8255.07
459.66	8231.66
459.84	8194.22
460.03	8386.14
460.21	8280.82
460.39	8168.47
460.57	8374.44
460.76	8301.88
460.94	8510.19
461.12	8552.32
461.31	8411.89
461.49	8463.38
461.67	8603.81
461.85	8641.26
462.04	8411.89
462.22	9137.45
462.40	8844.88
462.59	8667.00
462.77	8557.00
462.95	8784.03
463.13	8760.63
463.32	8821.48
463.50	8844.88
463.68	8704.45
463.86	8777.01
464.05	8601.47
464.23	8819.14
464.41	8847.22
464.59	8823.82
464.78	9135.11
464.96	8882.33
465.14	8889.35
465.32	8823.82
465.50	9156.18
465.69	9121.07
465.87	9107.02
466.05	9029.79
466.23	9104.68
466.41	9167.88
466.60	9172.56
466.78	9020.42
466.96	9083.62
467.14	9210.01
467.32	9273.20
467.51	9444.06
467.69	9277.88
467.87	9205.33
468.05	9500.23
468.23	9151.49
468.41	9284.91
468.60	9305.97
468.78	9310.65
468.96	9554.07
469.14	9556.41
469.32	9617.26
469.50	9310.65
469.69	9547.05
469.87	9760.03
470.05	9500.23
470.23	9661.73
470.41	9736.63
470.59	9596.20
470.77	9708.54
470.95	9930.89
471.14	9902.81
471.32	9668.75
471.50	10148.56
471.68	10134.52
471.86	10160.27
472.04	9884.08
472.22	10630.71
472.40	10108.77
472.58	10197.71
472.77	10228.14
472.95	10338.15
473.13	10635.39
473.31	10342.83
473.49	10368.57
473.67	10457.51
473.85	10387.30
474.03	10619.01
474.21	10696.25
474.39	10785.19
474.57	10775.83
474.75	10930.30
474.93	11087.12
475.12	10970.09
475.30	11150.31
475.48	11044.99
475.66	11159.67
475.84	11213.51
476.02	11084.78
476.20	11304.79
476.38	11222.87
476.56	11674.59
476.74	11508.41
476.92	11552.88
477.10	11658.21
477.28	11712.04
477.46	11817.36
477.64	12046.74
477.82	12231.64
478.00	12336.96
478.18	12280.79
478.36	12404.84
478.54	12358.03
478.72	12561.66
478.90	12498.46
479.08	12795.71
479.26	12851.88
479.44	12720.81
479.62	12987.63
479.80	13151.47
479.98	13252.11
480.16	13315.31
480.34	13242.75
480.52	13544.68
480.70	13291.90
480.88	13413.61
481.06	13467.44
481.24	13617.24
481.41	13973.00
481.59	14153.22
481.77	14188.33
481.95	14317.06
482.13	14249.18
482.31	14246.84
482.49	14724.31
482.67	14389.61
482.85	14637.71
483.03	14923.26
483.21	15059.01
483.39	14977.09
483.57	15077.73
483.74	15208.80
483.92	15246.25
484.10	15513.07
484.28	15557.54
484.46	15915.64
484.64	15981.18
484.82	15763.51
485.00	15887.56
485.18	15946.07
485.35	16294.81
485.53	15976.50
485.71	15847.77
485.89	15981.18
486.07	16145.02
486.25	16517.16
486.43	16594.40
486.61	16720.79
486.78	17057.82
486.96	17315.28
487.14	17212.30
487.32	17584.44
487.50	17577.42
487.68	17752.96
487.85	18071.28
488.03	18022.12
488.21	18106.38
488.39	18548.75
488.57	18551.09
488.75	18731.31
488.92	18668.11
489.10	19281.33
489.28	19131.54
489.46	19459.21
489.64	18977.06
489.81	19917.96
489.99	19719.01
490.17	19894.55
490.35	19702.63
490.53	19695.61
490.70	20257.34
490.88	19999.88
491.06	20477.35
491.24	20311.17
491.41	19950.73
491.59	20437.56
491.77	20325.21
491.95	20802.68
492.13	20847.15
492.30	21350.37
492.48	21469.73
492.66	21296.53
492.84	21500.16
493.01	21799.75
493.19	21390.16
493.37	22174.24
493.54	22087.64
493.72	22246.79
493.90	22113.38
494.08	22551.06
494.25	22335.73
494.43	22852.99
494.61	22944.27
494.79	22946.61
494.96	22817.88
495.14	23105.77
495.32	23150.24
495.49	23316.42
495.67	23449.83
495.85	23297.69
496.02	23520.04
496.20	23756.44
496.38	23939.00
496.55	24236.25
496.73	24491.37
496.91	24240.93
497.09	24322.85
497.26	24868.19
497.44	24741.80
497.62	24610.73
497.79	24900.96
497.97	24713.72
498.14	25022.67
498.32	25027.35
498.50	25097.56
498.67	26022.08
498.85	25404.17
499.03	25813.77
499.20	25773.98
499.38	25654.61
499.56	25991.65
499.73	26150.81
499.91	26040.80
500.08	26061.87
500.26	25928.45
500.44	26134.42
500.61	25970.58
500.79	26136.76
500.97	26637.64
501.14	26663.38
501.32	26752.32
501.49	26649.34
501.67	26607.21
501.84	26803.82
502.02	27098.72
502.20	27124.47
502.37	27229.79
502.55	27250.86
502.72	27290.65
502.90	27651.09
503.07	27360.86
503.25	27644.07
503.43	27740.03
503.60	27690.88
503.78	27737.69
503.95	27669.81
504.13	27747.05
504.30	28308.78
504.48	28013.87
504.65	28631.77
504.83	28306.44
505.01	28837.74
505.18	28364.95
505.36	29041.37
505.53	28971.15
505.71	29273.08
505.88	29242.65
506.06	28994.56
506.23	29406.49
506.41	28891.57
506.58	29181.80
506.76	29523.52
506.93	29579.69
507.11	29567.99
507.28	29294.14
507.46	29228.61
507.63	29612.46
507.81	29783.32
507.98	29734.17
508.16	29963.54
508.33	30005.67
508.50	30244.40
508.68	30401.22
508.85	30710.17
509.03	30216.32
509.20	30625.91
509.38	30834.22
509.55	30862.30
509.73	30635.27
509.90	31274.24
510.08	30843.58
510.25	30885.71
510.42	30951.24
510.60	30909.11
510.77	31491.91
510.95	31814.90
511.12	31068.27
511.30	31639.36
511.47	31686.17
511.64	32140.24
511.82	31887.46
511.99	31637.02
512.17	31632.34
512.34	31466.16
512.51	32182.37
512.69	32205.77
512.86	32292.37
513.04	32191.73
513.21	32116.83
513.38	32161.30
513.56	32425.78
513.73	32004.49
513.90	32493.66
514.08	32191.73
514.25	32615.37
514.43	32687.92
514.60	32547.49
514.77	32994.53
514.95	32781.54
515.12	32931.34
515.29	33048.36
515.47	33303.48
515.64	33371.36
515.81	33062.41
515.99	33008.58
516.16	33125.60
516.33	32816.65
516.51	33457.96
516.68	32947.72
516.85	32669.20
517.03	33289.44
517.20	33832.44
517.37	34005.64
517.54	33926.07
517.72	33556.26
517.89	33481.36
518.06	33394.76
518.24	33666.27
518.41	34047.77
518.58	34295.87
518.75	33806.70
518.93	34237.36
519.10	34033.73
519.27	34728.87
519.45	34649.29
519.62	34609.50
519.79	35012.07
519.96	34808.45
520.14	35250.81
520.31	34656.31
520.48	34974.63
520.65	35082.29
520.83	35358.47
521.00	35569.12
521.17	35276.55
521.34	35494.22
521.52	35318.68
521.69	35758.70
521.86	35529.33
522.03	35779.77
522.20	35915.52
522.38	36044.25
522.55	36142.55
522.72	35754.02
522.89	35819.56
523.07	36128.51
523.24	36203.41
523.41	36634.06
523.58	36402.35
523.75	36437.46
523.92	36596.62
524.10	36488.95
524.27	36505.34
524.44	36488.95
524.61	36687.90
524.78	36814.29
524.96	36891.52
525.13	36917.27
525.30	37209.84
525.47	36989.83
525.64	36978.12
525.81	36833.01
525.98	36912.59
526.16	36964.08
526.33	36971.10
526.50	36950.04
526.67	36730.03
526.84	36708.96
527.01	36369.58
527.18	37046.00
527.36	37635.81
527.53	37504.74
527.70	38029.02
527.87	38071.15
528.04	37502.40
528.21	37825.40
528.38	38029.02
528.55	38199.88
528.72	38134.35
528.89	38380.10
529.07	38429.26
529.24	38120.31
529.41	38653.95
529.58	38319.25
529.75	38429.26
529.92	38293.50
530.09	38328.61
530.26	38649.27
530.43	38759.27
530.60	38452.66
530.77	38476.07
530.94	39143.12
531.11	38546.28
531.28	38747.57
531.46	39014.39
531.63	39147.80
531.80	38642.24
531.97	38593.09
532.14	38682.03
532.31	38646.93
532.48	39007.37
532.65	38972.26
532.82	38913.75
532.99	39248.44
533.16	39393.56
533.33	39480.16
533.50	39569.10
533.67	39203.97
533.84	39278.87
534.01	39367.81
534.18	39225.04
534.35	39625.27
534.52	39321.00
534.69	39587.82
534.86	39971.67
535.03	39826.56
535.20	40240.83
535.37	40098.06
535.54	40580.21
535.71	40233.81
535.88	40355.52
536.05	40020.82
536.22	40203.38
536.38	40034.86
536.55	40156.57
536.72	40165.93
536.89	39948.26
537.06	40025.50
537.23	40814.26
537.40	40294.66
537.57	40840.01
537.74	40582.55
537.91	40734.68
538.08	40730.00
538.25	40519.35
538.42	40648.08
538.59	40732.34
538.75	40266.58
538.92	40662.13
539.09	41151.30
539.26	40741.71
539.43	41230.88
539.60	41027.25
539.77	40828.30
539.94	40402.33
540.11	40505.31
540.28	41158.32
540.44	41301.09
540.61	40830.65
540.78	40718.30
540.95	41050.66
541.12	40678.51
541.29	41364.29
541.46	40931.29
541.62	41394.71
541.79	41521.10
541.96	41284.71
542.13	41448.55
542.30	40980.44
542.47	41469.61
542.63	41752.82
542.80	41654.51
542.97	41701.32
543.14	42054.75
543.31	42354.33
543.48	42029.00
543.64	41888.57
543.81	42227.95
543.98	42153.05
544.15	42422.21
544.32	42192.84
544.48	42515.83
544.65	42293.48
544.82	42003.25
544.99	42344.97
545.16	42244.33
545.32	42218.58
545.49	43147.78
545.66	43028.41
545.83	42869.25
546.00	43005.00
546.16	42672.65
546.33	42567.32
546.50	42707.76
546.67	42642.22
546.83	42370.72
547.00	42216.24
547.17	42841.17
547.34	42389.44
547.50	42651.58
547.67	42871.59
547.84	42895.00
548.00	43309.27
548.17	42883.30
548.34	43222.67
548.51	43229.69
548.67	43281.19
548.84	43335.02
549.01	42756.91
549.18	43007.34
549.34	43388.85
549.51	43510.56
549.68	43557.37
549.84	43206.29
550.01	43473.11
550.18	42789.67
550.34	43278.85
550.51	43620.56
550.68	43526.94
550.84	43449.70
551.01	43524.60
551.18	43367.79
551.34	43583.12
551.51	43718.87
551.68	43611.20
551.84	43084.58
552.01	43328.00
552.18	43320.98
552.34	43718.87
552.51	43878.02
552.68	43821.85
552.84	43737.59
553.01	43985.69
553.18	43629.93
553.34	43833.55
553.51	43936.54
553.67	43665.03
553.84	44275.91
554.01	44561.46
554.17	43676.74
554.34	44355.49
554.51	44093.35
554.67	43927.17
554.84	44161.23
555.00	44226.76
555.17	43995.05
555.33	44107.40
555.50	44444.43
555.67	44509.97
555.83	44259.53
556.00	44177.61
556.16	44594.23
556.33	44168.25
556.50	44423.37
556.66	44355.49
556.83	43761.00
556.99	44109.74
557.16	44367.20
557.32	44484.22
557.49	44753.38
557.65	44301.66
557.82	44294.64
557.98	44512.31
558.15	44474.86
558.32	44767.43
558.48	44273.57
558.65	44289.96
558.81	44362.51
558.98	44378.90
559.14	44802.53
559.31	44355.49
559.47	44692.53
559.64	44626.99
559.80	44673.81
559.97	44664.44
560.13	44135.48
560.30	44376.56
560.46	45219.15
560.63	44568.48
560.79	45095.10
560.96	45013.18
561.12	44233.78
561.29	44811.90
561.45	44619.97
561.61	44767.43
561.78	44839.98
561.94	44802.53
562.11	45067.02
562.27	44505.29
562.44	44875.09
562.60	45254.26
562.77	45289.37
562.93	45251.92
563.10	45055.31
563.26	44783.81
563.42	45380.65
563.59	44884.45
563.75	45326.81
563.92	45429.80
564.08	45467.25
564.24	45500.01
564.41	45198.09
564.57	44676.15
564.74	44898.50
564.90	45371.28
565.07	45247.24
565.23	45083.40
565.39	44928.92
565.56	45404.05
565.72	44776.79
565.88	45085.74
566.05	44971.05
566.21	45198.09
566.38	45078.72
566.54	45188.72
566.70	45305.75
566.87	45603.00
567.03	45057.65
567.19	45827.69
567.36	45727.05
567.52	45214.47
567.68	45088.08
567.85	45230.85
568.01	44868.07
568.17	45427.46
568.34	45453.20
568.50	45216.81
568.66	44987.44
568.83	45687.26
568.99	45317.45
569.15	45354.90
569.32	45071.70
569.48	45275.32
569.64	45270.64
569.81	45345.54
569.97	45263.62
570.13	45705.98
570.30	45078.72
570.46	45282.34
570.62	44811.90
570.78	45059.99
570.95	45490.65
571.11	45467.25
571.27	45359.58
571.43	45525.76
571.60	45544.48
571.76	45265.96
571.92	45237.87
572.09	45280.00
572.25	45612.36
572.41	45492.99
572.57	45624.06
572.74	45918.97
572.90	45474.27
573.06	45523.42
573.22	45488.31
573.38	45820.67
573.55	45160.64
573.71	45352.56
573.87	45319.79
574.03	45441.50
574.20	45525.76
574.36	45418.10
574.52	45738.75
574.68	45221.49
574.84	45811.31
575.01	45914.29
575.17	45722.37
575.33	45202.77
575.49	45160.64
575.65	45581.93
575.82	45750.45
575.98	45415.76
576.14	45483.63
576.30	45820.67
576.46	45322.13
576.62	45429.80
576.79	45179.36
576.95	45024.89
577.11	45766.84
577.27	45319.79
577.43	45453.20
577.59	45441.50
577.75	45474.27
577.92	45560.87
578.08	45212.13
578.24	45359.58
578.40	45610.02
578.56	45478.95
578.72	45443.84
578.88	46040.68
579.04	45078.72
579.21	45048.29
579.37	45647.47
579.53	45373.63
579.69	45460.23
579.85	45535.12
580.01	45415.76
580.17	45322.13
580.33	45530.44
580.49	45684.92
580.65	45900.25
580.82	45762.15
580.98	46164.73
581.14	45298.73
581.30	45727.05
581.46	45521.08
581.62	45593.64
581.78	45294.05
581.94	45820.67
582.10	45757.47
582.26	45654.49
582.42	45490.65
582.58	45549.17
582.74	45478.95
582.90	45411.07
583.06	45830.03
583.22	45771.52
583.38	46064.08
583.54	45825.35
583.70	46096.85
583.86	45780.88
584.02	45869.82
584.18	45471.93
584.34	45401.71
584.50	45752.79
584.66	45776.20
584.82	45354.90
584.98	45808.96
585.14	45773.86
585.30	45294.05
585.46	45481.29
585.62	45418.10
585.78	45949.40
585.94	45268.30
586.10	45315.11
586.26	45731.73
586.42	45804.28
586.58	45727.05
586.74	45600.66
586.90	45607.68
587.06	45790.24
587.22	46153.02
587.38	45322.13
587.54	45713.00
587.70	45951.74
587.86	45635.77
588.02	45277.66
588.18	45748.11
588.34	45666.19
588.49	44847.00
588.65	44893.82
588.81	44949.99
588.97	45177.02
589.13	45123.19
589.29	45193.40
589.45	45221.49
589.61	45638.11
589.77	45385.33
589.93	45965.78
590.08	45790.24
