SpectraSuite Data File
++++++++++++++++++++++++++++++++++++
Date: Fri Oct 25 10:44:47 EDT 2013
User: price-jones
Dark Spectrum Present: No
Reference Spectrum Present: No
Number of Sampled Component Spectra: 1
Spectrometers: USB2+H05261
Integration Time (usec): 100000 (USB2+H05261)
Spectra Averaged: 1 (USB2+H05261)
Boxcar Smoothing: 0 (USB2+H05261)
Correct for Electrical Dark: No (USB2+H05261)
Strobe/Lamp Enabled: No (USB2+H05261)
Correct for Detector Non-linearity: No (USB2+H05261)
Correct for Stray Light: No (USB2+H05261)
Number of Pixels in Processed Spectrum: 2048
>>>>>Begin Processed Spectral Data<<<<<
365.73	140.43
365.92	140.43
366.12	140.43
366.32	63.19
366.52	60.85
366.72	112.35
366.91	0.00
367.11	9.36
367.31	49.15
367.51	0.00
367.70	58.51
367.90	98.30
368.10	30.43
368.30	23.41
368.49	7.02
368.69	23.41
368.89	79.58
369.09	0.00
369.28	4.68
369.48	14.04
369.68	100.64
369.87	91.28
370.07	91.28
370.27	163.84
370.47	159.16
370.66	395.55
370.86	339.38
371.06	390.87
371.25	514.92
371.45	458.74
371.65	482.15
371.84	425.98
372.04	465.77
372.24	503.22
372.44	437.68
372.63	479.81
372.83	500.87
373.03	486.83
373.22	498.53
373.42	468.11
373.62	531.30
373.81	521.94
374.01	538.32
374.21	592.16
374.40	568.75
374.60	543.00
374.79	491.51
374.99	498.53
375.19	489.17
375.38	624.92
375.58	596.84
375.78	603.86
375.97	547.69
376.17	596.84
376.37	526.62
376.56	613.22
376.76	491.51
376.95	573.43
377.15	587.47
377.35	582.79
377.54	641.31
377.74	634.29
377.93	589.82
378.13	580.45
378.33	697.48
378.52	615.56
378.72	645.99
378.91	662.37
379.11	559.39
379.31	617.90
379.50	552.37
379.70	662.37
379.89	718.54
380.09	664.71
380.28	617.90
380.48	671.73
380.68	610.88
380.87	606.20
381.07	683.44
381.26	702.16
381.46	624.92
381.65	692.80
381.85	645.99
382.04	573.43
382.24	631.94
382.43	657.69
382.63	695.14
382.83	690.46
383.02	709.18
383.22	638.97
383.41	592.16
383.61	664.71
383.80	805.14
384.00	662.37
384.19	690.46
384.39	746.63
384.58	795.78
384.78	755.99
384.97	788.76
385.17	699.82
385.36	784.08
385.56	774.72
385.75	727.91
385.95	753.65
386.14	784.08
386.34	725.57
386.53	805.14
386.72	737.27
386.92	856.64
387.11	896.43
387.31	798.12
387.50	835.57
387.70	847.27
387.89	866.00
388.09	887.06
388.28	814.51
388.48	774.72
388.67	777.06
388.86	814.51
389.06	877.70
389.25	800.46
389.45	835.57
389.64	901.11
389.84	896.43
390.03	922.17
390.22	896.43
390.42	908.13
390.61	933.87
390.81	908.13
391.00	926.85
391.19	999.41
391.39	912.81
391.58	954.94
391.78	905.79
391.97	912.81
392.16	938.55
392.36	919.83
392.55	940.90
392.75	1057.92
392.94	971.32
393.13	968.98
393.33	945.58
393.52	973.66
393.71	1123.46
393.91	926.85
394.10	957.28
394.29	1034.52
394.49	994.73
394.68	1034.52
394.88	1076.65
395.07	1093.03
395.26	1135.16
395.46	1088.35
395.65	1111.75
395.84	1104.73
396.04	1174.95
396.23	1097.71
396.42	1027.50
396.62	1015.79
396.81	1174.95
397.00	1081.33
397.19	1188.99
397.39	1095.37
397.58	1184.31
397.77	1170.27
397.97	1277.93
398.16	1331.76
398.35	1277.93
398.55	1245.16
398.74	1231.12
398.93	1390.28
399.12	1289.64
399.32	1313.04
399.51	1291.98
399.70	1453.47
399.90	1406.66
400.09	1399.64
400.28	1467.52
400.47	1406.66
400.67	1401.98
400.86	1399.64
401.05	1432.41
401.24	1479.22
401.44	1486.24
401.63	1614.97
401.82	1596.25
402.01	1549.43
402.21	1474.54
402.40	1530.71
402.59	1504.96
402.78	1612.63
402.97	1614.97
403.17	1526.03
403.36	1596.25
403.55	1540.07
403.74	1645.40
403.93	1685.19
404.13	1647.74
404.32	1640.72
404.51	1586.88
404.70	1713.27
404.89	1694.55
405.09	1743.70
405.28	1809.23
405.47	1706.25
405.66	1795.19
405.85	1643.06
406.05	1783.49
406.24	1853.70
406.43	1879.45
406.62	1762.42
406.81	1865.41
407.00	1806.89
407.20	1783.49
407.39	1902.86
407.58	1928.60
407.77	1856.04
407.96	1785.83
408.15	1942.64
408.34	1879.45
408.54	1996.48
408.73	1851.36
408.92	2017.54
409.11	2057.33
409.30	1987.11
409.49	2057.33
409.68	2087.76
409.87	2106.48
410.07	2223.51
410.26	2047.97
410.45	2139.25
410.64	2087.76
410.83	2221.17
411.02	2237.55
411.21	2408.41
411.40	2429.48
411.59	2321.81
411.78	2394.37
411.98	2319.47
412.17	2377.98
412.36	2410.75
412.55	2382.67
412.74	2434.16
412.93	2480.97
413.12	2352.24
413.31	2518.42
413.50	2396.71
413.69	2548.84
413.88	2642.46
414.07	2581.61
414.26	2665.87
414.45	2579.27
414.64	2738.43
414.83	2630.76
415.02	2644.81
415.22	2836.73
415.41	2754.81
415.60	2766.51
415.79	2862.48
415.98	2715.02
416.17	2862.48
416.36	2834.39
416.55	2864.82
416.74	2928.01
416.93	2883.54
417.12	2904.60
417.31	2888.22
417.50	2942.05
417.69	3084.83
417.88	3066.10
418.07	3073.12
418.26	3047.38
418.45	3047.38
418.64	3199.51
418.83	3213.56
419.02	3143.34
419.21	3119.93
419.39	3218.24
419.58	3070.78
419.77	3297.81
419.96	3379.73
420.15	3265.05
420.34	3243.98
420.53	3421.86
420.72	3456.97
420.91	3335.26
421.10	3391.44
421.29	3463.99
421.48	3414.84
421.67	3412.50
421.86	3424.20
422.05	3459.31
422.24	3435.91
422.43	3426.54
422.61	3442.93
422.80	3620.81
422.99	3557.61
423.18	3487.40
423.37	3531.87
423.56	3473.36
423.75	3510.80
423.94	3419.52
424.13	3318.88
424.32	3445.27
424.50	3578.68
424.69	3716.77
424.88	3625.49
425.07	3613.79
425.26	3463.99
425.45	3499.10
425.64	3487.40
425.83	3562.30
426.01	3531.87
426.20	3613.79
426.39	3494.42
426.58	3674.64
426.77	3428.88
426.96	3609.11
427.15	3630.17
427.33	3723.79
427.52	3475.70
427.71	3721.45
427.90	3660.60
428.09	3889.97
428.28	3859.54
428.46	3756.56
428.65	3817.41
428.84	3829.12
429.03	3887.63
429.22	3695.71
429.40	3803.37
429.59	3822.09
429.78	3534.21
429.97	3606.77
430.16	3742.52
430.34	3772.94
430.53	3798.69
430.72	3810.39
430.91	3911.04
431.10	3957.85
431.28	4084.23
431.47	4124.02
431.66	4184.88
431.85	4030.40
432.03	4131.05
432.22	4210.62
432.41	4259.78
432.60	4278.50
432.79	4299.56
432.97	4322.97
433.16	4344.03
433.35	4264.46
433.54	4262.12
433.72	4217.65
433.91	4241.05
434.10	4189.56
434.28	4404.89
434.47	4477.44
434.66	4430.63
434.85	4409.57
435.03	4533.62
435.22	4337.01
435.41	4702.14
435.59	4655.33
435.78	4613.20
435.97	4674.05
436.16	4589.79
436.34	4599.15
436.53	4678.73
436.72	4713.84
436.90	4533.62
437.09	4688.09
437.28	4409.57
437.46	4634.26
437.65	4877.68
437.84	4910.44
438.02	4830.87
438.21	4699.80
438.40	4805.12
438.58	4812.14
438.77	4828.53
438.96	4903.42
439.14	4959.60
439.33	5041.51
439.52	4954.91
439.70	4997.04
439.89	5336.42
440.08	5093.01
440.26	5205.35
440.45	5130.45
440.63	5238.12
440.82	5378.55
441.01	5448.77
441.19	5446.43
441.38	5502.60
441.57	5558.77
441.75	5497.92
441.94	5603.24
442.12	5715.59
442.31	5626.65
442.50	5783.46
442.68	5731.97
442.87	5535.37
443.05	5837.30
443.24	5881.77
443.43	5776.44
443.61	5856.02
443.80	5942.62
443.98	5640.69
444.17	5603.24
444.35	5746.02
444.54	5881.77
444.73	5926.24
444.91	5856.02
445.10	5729.63
445.28	5902.83
445.47	5748.36
445.65	5923.90
445.84	5937.94
446.02	5940.28
446.21	5820.91
446.39	5928.58
446.58	6092.41
446.77	6134.54
446.95	5867.72
447.14	5921.56
447.32	6069.01
447.51	5879.43
447.69	6012.84
447.88	6015.18
448.06	6134.54
448.25	6071.35
448.43	6169.65
448.62	6045.60
448.80	5944.96
448.99	6097.10
449.17	6169.65
449.36	5998.79
449.54	6387.32
449.73	6314.77
449.91	6340.51
450.10	6235.19
450.28	6445.84
450.46	6410.73
450.65	6394.34
450.83	6509.03
451.02	6455.20
451.20	6333.49
451.39	6455.20
451.57	6502.01
451.76	6394.34
451.94	6560.52
452.13	6583.93
452.31	6399.02
452.49	6476.26
452.68	6595.63
452.86	6413.07
453.05	6530.09
453.23	6604.99
453.42	6677.55
453.60	6686.91
453.78	6686.91
453.97	6626.06
454.15	6668.19
454.34	6626.06
454.52	6729.04
454.70	6745.42
454.89	6675.21
455.07	6616.69
455.26	7112.89
455.44	6848.41
455.62	7021.61
455.81	6995.86
455.99	7140.97
456.17	7166.72
456.36	7012.24
456.54	7122.25
456.73	7169.06
456.91	7183.10
457.09	7047.35
457.28	7386.73
457.46	7342.26
457.64	7463.97
457.83	7332.90
458.01	7342.26
458.19	7389.07
458.38	7520.14
458.56	7459.29
458.74	7651.21
458.93	7620.78
459.11	7339.92
459.29	7438.22
459.48	7522.48
459.66	7375.03
459.84	7545.89
460.03	7681.64
460.21	7634.83
460.39	7667.60
460.57	7662.91
460.76	7779.94
460.94	7768.24
461.12	7882.92
461.31	7829.09
461.49	7850.16
461.67	7730.79
461.85	7859.52
462.04	7915.69
462.22	8021.02
462.40	7941.44
462.59	8189.53
462.77	8077.19
462.95	8154.43
463.13	8028.04
463.32	8224.64
463.50	8168.47
463.68	8112.30
463.86	7985.91
464.05	8100.59
464.23	8006.97
464.41	8215.28
464.59	8004.63
464.78	8381.46
464.96	8208.26
465.14	8166.13
465.32	8379.12
465.50	8304.22
465.69	8493.80
465.87	8465.72
466.05	8332.31
466.23	8128.68
466.41	8327.63
466.60	8388.48
466.78	8287.84
466.96	8564.02
467.14	8320.60
467.32	8395.50
467.51	8652.96
467.69	8234.00
467.87	8643.60
468.05	8606.15
468.23	8507.85
468.41	8430.61
468.60	8507.85
468.78	8826.16
468.96	8814.46
469.14	8746.58
469.32	9039.15
469.50	8638.92
469.69	8784.03
469.87	8779.35
470.05	8784.03
470.23	8982.98
470.41	8856.59
470.59	9111.71
470.77	8959.57
470.95	9146.81
471.14	9317.67
471.32	9132.77
471.50	9430.02
471.68	9291.93
471.86	9312.99
472.04	9322.35
472.22	9544.70
472.40	9224.05
472.58	9434.70
472.77	9518.96
472.95	9547.05
473.13	9947.28
473.31	9563.43
473.49	9493.21
473.67	9647.69
473.85	9586.83
474.03	9937.91
474.21	10033.88
474.39	10148.56
474.57	10230.48
474.75	9834.93
474.93	10129.84
475.12	10216.44
475.30	10076.01
475.48	10235.16
475.66	10303.04
475.84	10377.94
476.02	10321.76
476.20	10434.11
476.38	10485.60
476.56	10995.84
476.74	10707.95
476.92	10768.80
477.10	10743.06
477.28	11098.82
477.46	11000.52
477.64	11040.31
477.82	11197.12
478.00	11445.22
478.18	11499.05
478.36	11688.64
478.54	11580.97
478.72	11637.14
478.90	11808.00
479.08	12018.65
479.26	12063.12
479.44	11976.52
479.62	11983.54
479.80	12177.81
479.98	11983.54
480.16	12166.10
480.34	12243.34
480.52	12451.65
480.70	12737.20
480.88	12374.41
481.06	12606.13
481.24	12575.70
481.41	13006.36
481.59	13212.32
481.77	13219.35
481.95	13067.21
482.13	13373.82
482.31	13142.11
482.49	13832.57
482.67	13809.16
482.85	13891.08
483.03	14183.65
483.21	13804.48
483.39	14015.13
483.57	14022.15
483.74	14267.91
483.92	14207.05
484.10	14036.19
484.28	14445.79
484.46	14761.76
484.64	14960.70
484.82	14518.34
485.00	15101.14
485.18	15126.88
485.35	15428.81
485.53	14857.72
485.71	15211.14
485.89	15527.11
486.07	15255.61
486.25	15346.89
486.43	15674.57
486.61	15688.61
486.78	15971.82
486.96	15878.19
487.14	16168.42
487.32	16545.25
487.50	16554.61
487.68	16723.13
487.85	16908.03
488.03	16943.14
488.21	17205.28
488.39	17085.91
488.57	17062.51
488.75	17247.41
488.92	17291.88
489.10	17633.60
489.28	17750.62
489.46	17755.30
489.64	18164.90
489.81	18452.78
489.99	18420.02
490.17	18808.54
490.35	18583.85
490.53	18567.47
490.70	18831.95
490.88	18740.67
491.06	18967.70
491.24	19051.96
491.41	19192.39
491.59	18974.72
491.77	19131.54
491.95	19391.34
492.13	19763.48
492.30	19936.68
492.48	19957.75
492.66	20088.82
492.84	19800.93
493.01	20414.15
493.19	20435.22
493.37	20577.99
493.54	21008.65
493.72	20886.94
493.90	20685.65
494.08	21322.28
494.25	21305.90
494.43	21453.35
494.61	21329.30
494.79	21462.71
494.96	21689.74
495.14	21762.30
495.32	21830.18
495.49	21778.68
495.67	22134.45
495.85	22118.06
496.02	22436.38
496.20	22104.02
496.38	22628.30
496.55	22689.15
496.73	23019.17
496.91	22532.34
497.09	22970.02
497.26	23351.52
497.44	23403.02
497.62	23091.73
497.79	23498.98
497.97	23566.85
498.14	23730.69
498.32	23477.91
498.50	23728.35
498.67	24142.63
498.85	24189.44
499.03	24374.34
499.20	24329.87
499.38	23960.06
499.56	24147.31
499.73	24615.41
499.91	24346.25
500.08	24870.53
500.26	24322.85
500.44	24673.93
500.61	24795.64
500.79	24517.11
500.97	24877.55
501.14	24957.13
501.32	25130.33
501.49	24996.92
501.67	25191.19
501.84	25245.02
502.02	25619.50
502.20	25465.03
502.37	25891.01
502.55	25862.92
502.72	25539.93
502.90	26094.63
503.07	25930.80
503.25	26274.85
503.43	25699.08
503.60	26312.30
503.78	26466.78
503.95	26529.97
504.13	26532.31
504.30	26544.02
504.48	26642.32
504.65	26759.34
504.83	27033.19
505.01	27077.66
505.18	27300.01
505.36	27044.89
505.53	27173.62
505.71	27461.51
505.88	27468.53
506.06	27082.34
506.23	27646.41
506.41	27410.01
506.58	27878.12
506.76	27866.42
506.93	27805.56
507.11	27901.53
507.28	27683.86
507.46	27896.85
507.63	28105.15
507.81	28166.01
507.98	28081.75
508.16	28196.43
508.33	28444.53
508.50	28170.69
508.68	28826.04
508.85	28673.90
509.03	28723.05
509.20	28655.18
509.38	28870.51
509.55	28971.15
509.73	28954.77
509.90	28989.88
510.08	29336.27
510.25	29252.02
510.42	29261.38
510.60	29261.38
510.77	29593.73
510.95	29771.61
511.12	29560.97
511.30	29972.90
511.47	30331.00
511.64	30298.23
511.82	30082.91
511.99	30080.56
512.17	30403.56
512.34	30277.17
512.51	30415.26
512.69	30394.20
512.86	30323.98
513.04	31117.42
513.21	30792.09
513.38	30581.44
513.56	30583.78
513.73	30703.15
513.90	30841.24
514.08	30995.71
514.25	30979.33
514.43	31051.89
514.60	31349.14
514.77	31454.46
514.95	31414.67
515.12	31470.84
515.29	31608.93
515.47	31711.92
515.64	31580.85
515.81	31363.18
515.99	31604.25
516.16	32004.49
516.33	31534.04
516.51	31573.83
516.68	31414.67
516.85	31351.48
517.03	31777.45
517.20	32196.41
517.37	32257.26
517.54	32180.03
517.72	32290.03
517.89	32063.00
518.06	32357.91
518.24	31901.50
518.41	32582.60
518.58	32849.42
518.75	32294.71
518.93	32634.09
519.10	32608.34
519.27	32797.93
519.45	32673.88
519.62	33111.56
519.79	33144.33
519.96	33305.82
520.14	33666.27
520.31	33315.19
520.48	33357.32
520.65	33010.92
520.83	33673.29
521.00	33926.07
521.17	33633.50
521.34	34162.46
521.52	33792.65
521.69	34106.29
521.86	33837.12
522.03	33701.37
522.20	33956.49
522.38	34099.26
522.55	34162.46
522.72	34089.90
522.89	34246.72
523.07	34780.36
523.24	34426.94
523.41	34632.91
523.58	34167.14
523.75	34754.61
523.92	34881.00
524.10	35239.11
524.27	34976.97
524.44	34738.23
524.61	35435.71
524.78	35093.99
524.96	35431.03
525.13	35531.67
525.30	35339.75
525.47	35438.05
525.64	35367.84
525.81	35285.92
525.98	35512.95
526.16	35274.21
526.33	35346.77
526.50	35365.49
526.67	35576.14
526.84	35487.20
527.01	35105.70
527.18	35489.54
527.36	36203.41
527.53	35885.09
527.70	36198.73
527.87	36400.01
528.04	35831.26
528.21	36474.91
528.38	36325.11
528.55	36594.28
528.72	36299.37
528.89	36671.51
529.07	36360.22
529.24	36053.61
529.41	36170.64
529.58	36477.25
529.75	36187.02
529.92	36847.05
530.09	36690.24
530.26	36669.17
530.43	36982.80
530.60	36753.43
530.77	36886.84
530.94	37294.10
531.11	37027.28
531.28	37177.07
531.46	37406.44
531.63	37214.52
531.80	37081.11
531.97	37071.75
532.14	37132.60
532.31	37184.09
532.48	37277.71
532.65	37736.46
532.82	37504.74
532.99	37507.08
533.16	37649.86
533.33	37567.94
533.50	38096.90
533.67	37778.59
533.84	37633.47
534.01	37694.33
534.18	37771.57
534.35	38237.33
534.52	38024.34
534.69	38190.52
534.86	37895.61
535.03	37855.82
535.20	38279.46
535.37	38616.50
535.54	38721.82
535.71	38745.23
535.88	38534.58
536.05	38204.56
536.22	38672.67
536.38	38948.85
536.55	38375.42
536.72	38211.59
536.89	38284.14
537.06	38534.58
537.23	38534.58
537.40	38534.58
537.57	38703.10
537.74	38597.77
537.91	39423.98
538.08	39098.65
538.25	38370.74
538.42	38639.90
538.59	39325.68
538.75	38628.20
538.92	39129.08
539.09	39325.68
539.26	39150.14
539.43	39138.44
539.60	39482.50
539.77	39122.05
539.94	39290.57
540.11	39232.06
540.28	39735.27
540.44	39255.46
540.61	39405.26
540.78	39545.69
540.95	39388.88
541.12	39339.72
541.29	39667.40
541.46	39536.33
541.62	39587.82
541.79	40002.10
541.96	39552.71
542.13	39414.62
542.30	39613.57
542.47	39976.35
542.63	40212.74
542.80	40201.04
542.97	40751.07
543.14	40907.88
543.31	40577.87
543.48	40343.81
543.64	40921.93
543.81	40832.99
543.98	41034.27
544.15	40671.49
544.32	40999.16
544.48	40975.76
544.65	40533.40
544.82	40910.22
544.99	40259.55
545.16	40982.78
545.32	40886.82
545.49	41053.00
545.66	41186.41
545.83	40870.43
546.00	41654.51
546.16	41165.34
546.33	40942.99
546.50	40687.87
546.67	41146.62
546.83	41179.39
547.00	41486.00
547.17	41200.45
547.34	41020.23
547.50	41280.03
547.67	41830.05
547.84	42075.81
548.00	41605.36
548.17	41696.64
548.34	41542.17
548.51	41879.21
548.67	41841.76
548.84	41998.57
549.01	41390.03
549.18	41663.88
549.34	41736.43
549.51	41574.94
549.68	41689.62
549.84	41736.43
550.01	42052.41
550.18	41769.20
550.34	42036.02
550.51	42029.00
550.68	41986.87
550.84	41453.23
551.01	42026.66
551.18	41907.29
551.34	42157.73
551.51	41949.42
551.68	42204.54
551.84	42139.00
552.01	41858.14
552.18	42136.66
552.34	42223.26
552.51	42146.03
552.68	42000.91
552.84	42674.99
553.01	42370.72
553.18	41792.61
553.34	42534.56
553.51	42160.07
553.67	42274.76
553.84	42471.36
554.01	42787.33
554.17	42960.53
554.34	42789.67
554.51	42714.78
554.67	42862.23
554.84	42810.74
555.00	42511.15
555.17	42279.44
555.33	42801.38
555.50	42356.67
555.67	42492.43
555.83	42529.87
556.00	42677.33
556.16	43049.47
556.33	43264.80
556.50	42768.61
556.66	42969.90
556.83	42789.67
556.99	43145.44
557.16	43171.18
557.32	42937.13
557.49	43349.06
557.65	43185.22
557.82	43040.11
557.98	43274.16
558.15	43316.29
558.32	43152.46
558.48	42539.24
558.65	42733.50
558.81	43098.62
558.98	42883.30
559.14	43323.32
559.31	43281.19
559.47	43636.95
559.64	43690.78
559.80	43498.86
559.97	43180.54
560.13	43206.29
560.30	42747.54
560.46	43751.63
560.63	43508.22
560.79	43615.88
560.96	43917.81
561.12	43632.27
561.29	43264.80
561.45	43187.56
561.61	43337.36
561.78	43587.80
561.94	43246.08
562.11	43665.03
562.27	43491.83
562.44	43690.78
562.60	43646.31
562.77	43676.74
562.93	43246.08
563.10	44088.67
563.26	42904.36
563.42	43599.50
563.59	43873.34
563.75	43737.59
563.92	43856.96
564.08	44076.97
564.24	44121.44
564.41	44081.65
564.57	43466.09
564.74	43896.75
564.90	43936.54
565.07	43786.74
565.23	43484.81
565.39	43662.69
565.56	43833.55
565.72	43571.41
565.88	44144.84
566.05	43676.74
566.21	44378.90
566.38	43892.07
566.54	43423.96
566.70	44271.23
566.87	44683.17
567.03	43973.98
567.19	44205.70
567.36	44388.26
567.52	43997.39
567.68	44313.36
567.85	44308.68
568.01	44135.48
568.17	44236.12
568.34	44051.22
568.50	43985.69
568.66	43709.50
568.83	44357.83
568.99	43419.28
569.15	44044.20
569.32	43885.04
569.48	43868.66
569.64	44470.18
569.81	44659.76
569.97	44346.13
570.13	44449.11
570.30	43887.39
570.46	43997.39
570.62	43878.02
570.78	43761.00
570.95	43828.87
571.11	44622.31
571.27	43770.36
571.43	44304.00
571.60	43948.24
571.76	44161.23
571.92	44341.45
572.09	44425.71
572.25	43704.82
572.41	44189.31
572.57	44236.12
572.74	44385.92
572.90	43896.75
573.06	44086.33
573.22	44217.40
573.38	44332.09
573.55	43983.35
573.71	44678.49
573.87	44212.72
574.03	44275.91
574.20	44065.27
574.36	44238.47
574.52	44053.56
574.68	44128.46
574.84	44343.79
575.01	44451.45
575.17	44477.20
575.33	44051.22
575.49	44678.49
575.65	44299.32
575.82	44360.17
575.98	44261.87
576.14	44737.00
576.30	44814.24
576.46	44172.93
576.62	44238.47
576.79	43917.81
576.95	44208.04
577.11	44219.74
577.27	44655.08
577.43	44514.65
577.59	44308.68
577.75	44346.13
577.92	43714.19
578.08	44126.12
578.24	44041.86
578.40	44285.28
578.56	44261.87
578.72	44231.44
578.88	45067.02
579.04	44446.77
579.21	44477.20
579.37	44046.54
579.53	44641.04
579.69	44563.80
579.85	44435.07
580.01	44959.35
580.17	44294.64
580.33	44538.05
580.49	44718.28
580.65	44411.67
580.82	44687.85
580.98	44154.21
581.14	44563.80
581.30	44854.03
581.46	44261.87
581.62	44229.10
581.78	44509.97
581.94	44542.74
582.10	44488.90
582.26	44985.10
582.42	44343.79
582.58	44477.20
582.74	44247.83
582.90	44435.07
583.06	44465.50
583.22	44746.36
583.38	44605.93
583.54	45317.45
583.70	44982.76
583.86	44509.97
584.02	44603.59
584.18	44570.82
584.34	44666.78
584.50	44313.36
584.66	44470.18
584.82	44280.60
584.98	45008.50
585.14	44629.34
585.30	44725.30
585.46	44184.63
585.62	44369.54
585.78	44722.96
585.94	44484.22
586.10	44163.57
586.26	44737.00
586.42	44648.06
586.58	44704.23
586.74	44744.02
586.90	44928.92
587.06	44861.05
587.22	45151.27
587.38	44210.38
587.54	44481.88
587.70	44938.29
587.86	44919.56
588.02	44882.11
588.18	44746.36
588.34	44898.50
588.49	44095.69
588.65	44119.10
588.81	44325.07
588.97	44526.35
589.13	44556.78
589.29	44301.66
589.45	44797.85
589.61	44435.07
589.77	44816.58
589.93	44898.50
590.08	45345.54
590.24	44898.50
590.40	44875.09
