SpectraSuite Data File
++++++++++++++++++++++++++++++++++++
Date: Fri Oct 25 11:24:00 EDT 2013
User: price-jones
Dark Spectrum Present: No
Reference Spectrum Present: No
Number of Sampled Component Spectra: 1
Spectrometers: USB2+H05261
Integration Time (usec): 100000 (USB2+H05261)
Spectra Averaged: 1 (USB2+H05261)
Boxcar Smoothing: 0 (USB2+H05261)
Correct for Electrical Dark: No (USB2+H05261)
Strobe/Lamp Enabled: No (USB2+H05261)
Correct for Detector Non-linearity: No (USB2+H05261)
Correct for Stray Light: No (USB2+H05261)
Number of Pixels in Processed Spectrum: 2048
>>>>>Begin Processed Spectral Data<<<<<
365.73	177.88
365.92	177.88
366.12	177.88
366.32	114.69
366.52	114.69
366.72	95.96
366.91	110.01
367.11	117.03
367.31	110.01
367.51	142.77
367.70	177.88
367.90	133.41
368.10	110.01
368.30	168.52
368.49	170.86
368.69	145.11
368.89	203.63
369.09	100.64
369.28	217.67
369.48	205.97
369.68	180.22
369.87	133.41
370.07	166.18
370.27	220.01
370.47	276.18
370.66	603.86
370.86	650.67
371.06	702.16
371.25	751.31
371.45	636.63
371.65	685.78
371.84	699.82
372.04	706.84
372.24	678.76
372.44	720.88
372.63	753.65
372.83	730.25
373.03	744.29
373.22	692.80
373.42	772.38
373.62	772.38
373.81	851.96
374.01	854.30
374.21	884.72
374.40	823.87
374.60	788.76
374.79	861.32
374.99	875.36
375.19	748.97
375.38	844.93
375.58	858.98
375.78	823.87
375.97	823.87
376.17	917.49
376.37	919.83
376.56	849.61
376.76	858.98
376.95	870.68
377.15	882.38
377.35	819.19
377.54	964.30
377.74	905.79
377.93	873.02
378.13	929.19
378.33	1006.43
378.52	842.59
378.72	966.64
378.91	985.37
379.11	954.94
379.31	896.43
379.50	1032.18
379.70	1022.81
379.89	992.39
380.09	931.53
380.28	961.96
380.48	985.37
380.68	1018.13
380.87	1029.84
381.07	957.28
381.26	1078.99
381.46	1039.20
381.65	997.07
381.85	1015.79
382.04	1074.31
382.24	1067.28
382.43	1177.29
382.63	987.71
382.83	1093.03
383.02	1111.75
383.22	1121.12
383.41	1041.54
383.61	1172.61
383.80	1177.29
384.00	1102.39
384.19	1121.12
384.39	1078.99
384.58	1086.01
384.78	1144.52
384.97	1203.04
385.17	1219.42
385.36	1151.54
385.56	1196.01
385.75	1132.82
385.95	1167.93
386.14	1291.98
386.34	1231.12
386.53	1284.95
386.72	1191.33
386.92	1207.72
387.11	1249.85
387.31	1231.12
387.50	1277.93
387.70	1210.06
387.89	1306.02
388.09	1301.34
388.28	1235.80
388.48	1359.85
388.67	1270.91
388.86	1294.32
389.06	1310.70
389.25	1357.51
389.45	1299.00
389.64	1287.29
389.84	1369.21
390.03	1341.13
390.22	1350.49
390.42	1317.72
390.61	1401.98
390.81	1371.55
391.00	1474.54
391.19	1423.05
391.39	1441.77
391.58	1465.18
391.78	1394.96
391.97	1582.20
392.16	1427.73
392.36	1568.16
392.55	1458.15
392.75	1589.22
392.94	1497.94
393.13	1605.61
393.33	1551.78
393.52	1668.80
393.71	1507.30
393.91	1493.26
394.10	1610.29
394.29	1666.46
394.49	1577.52
394.68	1607.95
394.88	1666.46
395.07	1696.89
395.26	1657.10
395.46	1703.91
395.65	1741.36
395.84	1715.61
396.04	1682.85
396.23	1736.68
396.42	1696.89
396.62	1830.30
396.81	1769.44
397.00	1785.83
397.19	1771.79
397.39	1860.73
397.58	1727.32
397.77	1893.49
397.97	1944.99
398.16	1818.60
398.35	1865.41
398.55	1954.35
398.74	1830.30
398.93	1977.75
399.12	1970.73
399.32	1860.73
399.51	2118.18
399.70	1921.58
399.90	1877.11
400.09	1926.26
400.28	2022.22
400.47	2012.86
400.67	2125.21
400.86	2080.74
401.05	2120.53
401.24	2080.74
401.44	2113.50
401.63	2134.57
401.82	2111.16
402.01	2120.53
402.21	2148.61
402.40	2174.36
402.59	2172.02
402.78	2263.30
402.97	2216.49
403.17	2300.75
403.36	2347.56
403.55	2291.38
403.74	2377.98
403.93	2366.28
404.13	2410.75
404.32	2436.50
404.51	2340.54
404.70	2431.82
404.89	2424.80
405.09	2537.14
405.28	2459.90
405.47	2452.88
405.66	2429.48
405.85	2527.78
406.05	2539.48
406.24	2523.10
406.43	2495.01
406.62	2644.81
406.81	2679.91
407.00	2731.41
407.20	2595.65
407.39	2649.49
407.58	2738.43
407.77	2885.88
407.96	2736.09
408.15	2803.96
408.34	2860.13
408.54	2871.84
408.73	2836.73
408.92	2977.16
409.11	2850.77
409.30	2902.26
409.49	2951.42
409.68	2890.56
409.87	3084.83
410.07	3005.25
410.26	2937.37
410.45	2970.14
410.64	3000.57
410.83	2995.89
411.02	3082.49
411.21	3089.51
411.40	3162.06
411.59	3185.47
411.78	3108.23
411.98	3211.22
412.17	3246.32
412.36	3318.88
412.55	3403.14
412.74	3290.79
412.93	3346.97
413.12	3346.97
413.31	3468.67
413.50	3361.01
413.69	3473.36
413.88	3569.32
414.07	3564.64
414.26	3543.57
414.45	3602.08
414.64	3878.27
414.83	3810.39
415.02	3660.60
415.22	3960.19
415.41	3723.79
415.60	4018.70
415.79	4035.08
415.98	3847.84
416.17	3960.19
416.36	3896.99
416.55	4074.87
416.74	4128.70
416.93	4152.11
417.12	4126.36
417.31	4208.28
417.50	4215.30
417.69	4203.60
417.88	4264.46
418.07	4236.37
418.26	4400.21
418.45	4337.01
418.64	4397.87
418.83	4301.90
419.02	4432.97
419.21	4430.63
419.39	4566.39
419.58	4503.19
419.77	4533.62
419.96	4552.34
420.15	4617.88
420.34	4566.39
420.53	4648.30
420.72	4692.77
420.91	4723.20
421.10	4816.82
421.29	4865.97
421.48	4709.16
421.67	4854.27
421.86	4798.10
422.05	4809.80
422.24	4760.65
422.43	4919.81
422.61	4961.94
422.80	4865.97
422.99	5036.83
423.18	4971.30
423.37	5074.28
423.56	5004.07
423.75	4971.30
423.94	4882.36
424.13	4482.13
424.32	4690.43
424.50	5142.16
424.69	5156.20
424.88	5104.71
425.07	4863.63
425.26	4947.89
425.45	4943.21
425.64	4910.44
425.83	5139.82
426.01	5167.90
426.20	5006.41
426.39	5053.22
426.58	5055.56
426.77	5069.60
426.96	5097.69
427.15	5160.88
427.33	5198.33
427.52	5240.46
427.71	5249.82
427.90	5228.76
428.09	5434.72
428.28	5413.66
428.46	5444.09
428.65	5327.06
428.84	5493.24
429.03	5446.43
429.22	5369.19
429.40	5441.75
429.59	5420.68
429.78	5472.17
429.97	5165.56
430.16	5514.30
430.34	5703.89
430.53	5575.16
430.72	5755.38
430.91	5713.25
431.10	5537.71
431.28	5607.92
431.47	5757.72
431.66	5724.95
431.85	5813.89
432.03	5947.30
432.22	6059.65
432.41	5996.45
432.60	5947.30
432.79	5916.87
432.97	5987.09
433.16	5977.73
433.35	6129.86
433.54	6073.69
433.72	6181.35
433.91	6214.12
434.10	6073.69
434.28	6132.20
434.47	6193.06
434.66	6258.59
434.85	6328.81
435.03	6490.31
435.22	6291.36
435.41	6403.71
435.59	6406.05
435.78	6523.07
435.97	6314.77
436.16	6548.82
436.34	6621.38
436.53	6469.24
436.72	6478.60
436.90	6614.35
437.09	6579.25
437.28	6509.03
437.46	6546.48
437.65	6544.14
437.84	6944.37
438.02	6745.42
438.21	6789.89
438.40	6738.40
438.58	7073.10
438.77	7180.76
438.96	7040.33
439.14	7143.32
439.33	7199.49
439.52	7332.90
439.70	7311.83
439.89	7234.60
440.08	7368.01
440.26	7414.82
440.45	7403.11
440.63	7651.21
440.82	7719.09
441.01	7534.18
441.19	7623.12
441.38	7698.02
441.57	7728.45
441.75	7866.54
441.94	7983.57
442.12	8013.99
442.31	8159.11
442.50	8107.62
442.68	7960.16
442.87	8163.79
443.05	8269.11
443.24	8079.53
443.43	8308.90
443.61	8236.35
443.80	8564.02
443.98	8025.70
444.17	7882.92
444.35	8262.09
444.54	8294.86
444.73	8348.69
444.91	8336.99
445.10	8243.37
445.28	8259.75
445.47	8121.66
445.65	8353.37
445.84	8376.78
446.02	8446.99
446.21	8479.76
446.39	8491.46
446.58	8596.79
446.77	8367.42
446.95	8189.53
447.14	8594.45
447.32	8664.66
447.51	8655.30
447.69	8638.92
447.88	8514.87
448.06	8519.55
448.25	8540.61
448.43	8627.21
448.62	8758.28
448.80	8594.45
448.99	8716.16
449.17	8739.56
449.36	8657.64
449.54	8987.66
449.73	9055.53
449.91	9064.89
450.10	8917.44
450.28	8980.64
450.46	9036.81
450.65	9055.53
450.83	9085.96
451.02	9025.11
451.20	9275.54
451.39	9107.02
451.57	9156.18
451.76	9170.22
451.94	9282.56
452.13	9451.08
452.31	9270.86
452.49	8975.95
452.68	9568.11
452.86	9277.88
453.05	9474.49
453.23	9528.32
453.42	9523.64
453.60	9366.82
453.78	9572.79
453.97	9537.68
454.15	9582.15
454.34	9502.58
454.52	9865.36
454.70	9558.75
454.89	9813.87
455.07	9942.60
455.26	9987.07
455.44	10057.28
455.62	9818.55
455.81	9975.36
455.99	10143.88
456.17	10204.74
456.36	10188.35
456.54	10459.85
456.73	10305.38
456.91	10532.41
457.09	10387.30
457.28	10665.82
457.46	10258.57
457.64	10352.19
457.83	10745.40
458.01	10448.15
458.19	10658.80
458.38	10778.17
458.56	10878.81
458.74	10803.91
458.93	10761.78
459.11	10817.96
459.29	10810.93
459.48	10843.70
459.66	10637.73
459.84	11005.20
460.03	11005.20
460.21	10916.26
460.39	11056.69
460.57	11124.57
460.76	11304.79
460.94	11321.17
461.12	11346.92
461.31	11400.75
461.49	11346.92
461.67	11346.92
461.85	11438.20
462.04	11580.97
462.22	11672.25
462.40	11655.87
462.59	11609.06
462.77	11559.91
462.95	11571.61
463.13	11676.93
463.32	11714.38
463.50	11932.05
463.68	11733.11
463.86	11651.19
464.05	11740.13
464.23	11758.85
464.41	11995.25
464.59	11723.74
464.78	12269.09
464.96	12067.80
465.14	11927.37
465.32	12091.21
465.50	12189.51
465.69	12322.92
465.87	12217.60
466.05	12035.03
466.23	12208.23
466.41	12290.15
466.60	12739.54
466.78	12400.16
466.96	12425.90
467.14	12449.31
467.32	12397.82
467.51	12545.27
467.69	12114.61
467.87	12491.44
468.05	12575.70
468.23	12351.01
468.41	12475.06
468.60	12772.30
468.78	12936.14
468.96	12748.90
469.14	13022.74
469.32	13177.22
469.50	12704.43
469.69	13221.69
469.87	13123.38
470.05	13165.51
470.23	13383.18
470.41	13256.79
470.59	13469.78
470.77	13401.91
470.95	13408.93
471.14	13530.64
471.32	13135.09
471.50	13771.71
471.68	13731.92
471.86	13617.24
472.04	13706.18
472.22	13855.97
472.40	13860.65
472.58	14244.50
472.77	13951.93
472.95	14293.65
473.13	14651.75
473.31	13942.57
473.49	14307.69
473.67	14410.68
473.85	14436.42
474.03	14827.29
474.21	14918.57
474.39	14771.12
474.57	14941.98
474.75	15016.88
474.93	14817.93
475.12	15096.46
475.30	15080.07
475.48	15159.65
475.66	15328.17
475.84	15119.86
476.02	15396.04
476.20	15637.12
476.38	15648.82
476.56	16161.40
476.74	16149.70
476.92	15910.96
477.10	15843.09
477.28	16395.45
477.46	16269.06
477.64	16582.70
477.82	16468.01
478.00	17226.34
478.18	16945.48
478.36	17163.15
478.54	17284.86
478.72	17493.16
478.90	17736.58
479.08	17827.86
479.26	17692.11
479.44	18094.68
479.62	18085.32
479.80	18183.62
479.98	18403.63
480.16	18707.90
480.34	18298.31
480.52	18941.96
480.70	18717.26
480.88	18237.45
481.06	18806.20
481.24	18836.63
481.41	19087.07
481.59	19290.70
481.77	19714.33
481.95	19737.74
482.13	19960.09
482.31	19796.25
482.49	20243.29
482.67	20278.40
482.85	20620.12
483.03	20531.18
483.21	20748.85
483.39	21036.74
483.57	21331.64
483.74	21469.73
483.92	21764.64
484.10	21317.60
484.28	21738.90
484.46	22129.77
484.64	22377.86
484.82	21928.48
485.00	22532.34
485.18	22754.69
485.35	23070.66
485.53	22963.00
485.71	23124.49
485.89	23616.01
486.07	23583.24
486.25	23531.75
486.43	23662.82
486.61	24395.40
486.78	24442.21
486.96	23927.30
487.14	24659.88
487.32	24606.05
487.50	24971.18
487.68	25294.17
487.85	25275.45
488.03	25806.75
488.21	26094.63
488.39	26047.82
488.57	26216.34
488.75	26204.64
488.92	26434.01
489.10	26810.84
489.28	26810.84
489.46	27363.20
489.64	27157.24
489.81	27763.43
489.99	27950.68
490.17	27716.62
490.35	28247.93
490.53	28259.63
490.70	28446.87
490.88	27903.87
491.06	29109.24
491.24	28996.90
491.41	29186.48
491.59	29504.79
491.77	29439.26
491.95	29766.93
492.13	29869.92
492.30	30436.33
492.48	30415.26
492.66	30277.17
492.84	30469.09
493.01	30930.18
493.19	30951.24
493.37	31157.21
493.54	31133.81
493.72	31931.93
493.90	31655.75
494.08	31894.48
494.25	32095.77
494.43	32055.98
494.61	32196.41
494.79	32671.54
494.96	32804.95
495.14	33113.90
495.32	33392.42
495.49	33137.30
495.67	33338.59
495.85	34026.71
496.02	33844.15
496.20	34497.16
496.38	34361.40
496.55	34333.32
496.73	35161.87
496.91	34691.42
497.09	34951.22
497.26	35189.95
497.44	35089.31
497.62	35871.05
497.79	35854.67
497.97	35576.14
498.14	36446.82
498.32	36533.42
498.50	36685.56
498.67	36514.70
498.85	36760.45
499.03	36875.14
499.20	37038.98
499.38	36793.22
499.56	37127.92
499.73	37642.84
499.91	37715.39
500.08	37488.36
500.26	37397.08
500.44	38206.90
500.61	37778.59
500.79	38005.62
500.97	38333.29
501.14	38831.83
501.32	38895.02
501.49	38660.97
501.67	39161.84
501.84	39328.02
502.02	38983.96
502.20	39192.27
502.37	39496.54
502.55	39831.24
502.72	39814.85
502.90	39440.37
503.07	39796.13
503.25	39938.90
503.43	40353.18
503.60	40612.98
503.78	40779.15
503.95	40243.17
504.13	40744.05
504.30	40884.48
504.48	40355.52
504.65	41244.92
504.83	41031.93
505.01	41778.56
505.18	41324.50
505.36	41586.64
505.53	41471.95
505.71	41904.95
505.88	42092.19
506.06	41663.88
506.23	42195.18
506.41	41942.40
506.58	42499.45
506.76	42911.38
506.93	42937.13
507.11	42897.34
507.28	42595.41
507.46	43189.91
507.63	43173.52
507.81	43489.49
507.98	43124.37
508.16	43709.50
508.33	43578.43
508.50	43468.43
508.68	43973.98
508.85	44406.98
509.03	43833.55
509.20	44208.04
509.38	44708.91
509.55	44631.68
509.73	44982.76
509.90	45272.98
510.08	45010.84
510.25	45104.46
510.42	45141.91
510.60	45291.71
510.77	45195.74
510.95	45766.84
511.12	44999.14
511.30	45303.41
511.47	45848.75
511.64	45551.51
511.82	46380.06
511.99	45881.52
512.17	45954.08
512.34	46211.54
512.51	46555.60
512.69	46843.48
512.86	46520.49
513.04	46630.49
513.21	46920.72
513.38	47201.58
513.56	47447.34
513.73	46972.21
513.90	47381.80
514.08	46876.25
514.25	47430.96
514.43	47742.25
514.60	47803.10
514.77	47475.43
514.95	47847.57
515.12	48208.01
515.29	47957.58
515.47	47854.59
515.64	48318.02
515.81	48121.41
515.99	48545.05
516.16	48751.02
516.33	48339.08
516.51	48938.26
516.68	48704.21
516.85	48926.56
517.03	49083.37
517.20	49069.33
517.37	49474.24
517.54	49071.67
517.72	49228.49
517.89	49237.85
518.06	49661.49
518.24	49366.58
518.41	49160.61
518.58	49614.68
518.75	49600.63
518.93	49546.80
519.10	50099.17
519.27	50000.86
519.45	50108.53
519.62	50288.75
519.79	50237.26
519.96	49965.76
520.14	50234.92
520.31	50248.96
520.48	50688.98
520.65	50721.75
520.83	50780.26
521.00	50831.75
521.17	50962.82
521.34	50993.25
521.52	50993.25
521.69	50890.27
521.86	51290.50
522.03	51117.30
522.20	51349.01
522.38	51800.74
522.55	51489.45
522.72	51459.02
522.89	51606.47
523.07	51676.69
523.24	51866.27
523.41	52006.70
523.58	51957.55
523.75	52376.51
523.92	52320.34
524.10	52292.25
524.27	52310.97
524.44	52285.23
524.61	52390.55
524.78	52423.32
524.96	52640.99
525.13	52423.32
525.30	52556.73
525.47	52648.01
525.64	52739.29
525.81	52652.69
525.98	52954.62
526.16	52788.44
526.33	52814.19
526.50	53221.44
526.67	52795.46
526.84	53202.72
527.01	52844.62
527.18	53048.24
527.36	53132.50
527.53	53153.57
527.70	53436.77
527.87	53638.06
528.04	53572.52
528.21	53642.74
528.38	53364.21
528.55	53862.75
528.72	53626.35
528.89	53680.19
529.07	53619.33
529.24	53600.61
529.41	53846.36
529.58	54188.08
529.75	53879.13
529.92	53883.81
530.09	54138.93
530.26	54073.40
530.43	54127.23
530.60	54064.03
530.77	54101.48
530.94	54150.63
531.11	54253.62
531.28	54232.55
531.46	54688.96
531.63	54440.86
531.80	54473.63
531.97	54513.42
532.14	54768.54
532.31	54810.67
532.48	54667.89
532.65	54904.29
532.82	54499.37
532.99	55091.53
533.16	54850.45
533.33	54897.27
533.50	54923.01
533.67	54911.31
533.84	54993.23
534.01	55128.98
534.18	55131.32
534.35	55749.22
534.52	55166.43
534.69	55505.80
534.86	55477.72
535.03	55220.26
535.20	55402.82
535.37	55428.57
535.54	55363.03
535.71	55131.32
535.88	55398.14
536.05	55758.58
536.22	55653.26
536.38	55927.10
536.55	55721.13
536.72	55779.65
536.89	55590.06
537.06	55774.97
537.23	55908.38
537.40	55852.20
537.57	56069.87
537.74	56044.13
537.91	56102.64
538.08	56119.02
538.25	55908.38
538.42	56296.91
538.59	56273.50
538.75	56289.88
538.92	56264.14
539.09	56332.01
539.26	56116.68
539.43	56158.81
539.60	56502.87
539.77	56350.74
539.94	56797.78
540.11	56638.62
540.28	56189.24
540.44	56727.56
540.61	56507.55
540.78	56472.45
540.95	56545.00
541.12	56608.20
541.29	56537.98
541.46	56697.14
541.62	56786.08
541.79	57041.20
541.96	56530.96
542.13	56811.82
542.30	56825.87
542.47	57059.92
542.63	56989.70
542.80	56872.68
542.97	57249.50
543.14	57455.47
543.31	57322.06
543.48	57359.51
543.64	57593.56
543.81	57654.42
543.98	57567.82
544.15	57333.76
544.32	57504.62
544.48	57813.57
544.65	57567.82
544.82	57553.77
544.99	57483.56
545.16	57743.36
545.32	57628.67
545.49	57783.15
545.66	57717.61
545.83	57705.91
546.00	57834.64
546.16	57883.79
546.33	57851.02
546.50	57743.36
546.67	57820.59
546.83	57645.05
547.00	57851.02
547.17	58059.33
547.34	58166.99
547.50	58230.19
547.67	58227.85
547.84	58227.85
548.00	58230.19
548.17	58365.94
548.34	58075.71
548.51	58424.45
548.67	58372.96
548.84	58394.03
549.01	58267.64
549.18	58251.25
549.34	58562.54
549.51	58440.84
549.68	58515.73
549.84	58602.33
550.01	58475.94
550.18	58487.65
550.34	58489.99
550.51	58712.34
550.68	58611.70
550.84	58417.43
551.01	58857.45
551.18	58553.18
551.34	58637.44
551.51	58862.13
551.68	58684.25
551.84	58728.72
552.01	58642.12
552.18	58848.09
552.34	58724.04
552.51	58752.13
552.68	58836.39
552.84	58859.79
553.01	59077.46
553.18	59016.61
553.34	58955.75
553.51	58930.01
553.67	59093.85
553.84	58890.22
554.01	59320.88
554.17	59348.96
554.34	59309.18
554.51	59100.87
554.67	59320.88
554.84	59257.68
555.00	59035.33
555.17	59114.91
555.33	59433.22
555.50	59138.32
555.67	59245.98
555.83	59196.83
556.00	59274.07
556.16	59585.36
556.33	59379.39
556.50	59217.89
556.66	59405.14
556.83	59388.75
556.99	59505.78
557.16	59704.73
557.32	59770.26
557.49	59714.09
557.65	59393.43
557.82	59540.89
557.98	59451.95
558.15	59491.74
558.32	59959.84
558.48	59384.07
558.65	59449.61
558.81	59564.29
558.98	59664.94
559.14	59742.17
559.31	59693.02
559.47	59803.03
559.64	59903.67
559.80	59732.81
559.97	59943.46
560.13	59721.11
560.30	59817.07
560.46	59849.84
560.63	59887.29
560.79	59936.44
560.96	59891.97
561.12	60006.65
561.29	60032.40
561.45	59913.03
561.61	59732.81
561.78	60001.97
561.94	59915.37
562.11	60051.12
562.27	60041.76
562.44	59997.29
562.60	60168.15
562.77	60079.21
562.93	59859.20
563.10	60079.21
563.26	60048.78
563.42	60266.45
563.59	60189.22
563.75	60207.94
563.92	60182.19
564.08	60165.81
564.24	60327.31
564.41	60163.47
564.57	60212.62
564.74	60329.65
564.90	60456.04
565.07	60191.56
565.23	60210.28
565.39	60343.69
565.56	60308.58
565.72	60233.69
565.88	60374.12
566.05	60348.37
566.21	60343.69
566.38	60334.33
566.54	60278.16
566.70	60430.29
566.87	60552.00
567.03	60331.99
567.19	60720.52
567.36	60757.97
567.52	60324.97
567.68	60434.97
567.85	60526.25
568.01	60420.93
568.17	60472.42
568.34	60669.03
568.50	60643.28
568.66	60505.19
568.83	60629.24
568.99	60460.72
569.15	60612.85
569.32	60589.45
569.48	60544.98
569.64	60645.62
569.81	60406.89
569.97	60762.65
570.13	60591.79
570.30	60544.98
570.46	60477.10
570.62	60860.95
570.78	60856.27
570.95	60704.13
571.11	60748.60
571.27	60701.79
571.43	60746.26
571.60	60779.03
571.76	60664.35
571.92	60786.05
572.09	60774.35
572.25	60896.06
572.41	60846.91
572.57	60704.13
572.74	60949.89
572.90	60631.58
573.06	60692.43
573.22	60914.78
573.38	60786.05
573.55	60851.59
573.71	60949.89
573.87	60879.67
574.03	60781.37
574.20	60903.08
574.36	60741.58
574.52	60811.80
574.68	60891.38
574.84	60900.74
575.01	60718.18
575.17	61008.40
575.33	60790.73
575.49	60779.03
575.65	60676.05
575.82	61008.40
575.98	60874.99
576.14	61022.45
576.30	61034.15
576.46	60842.23
576.62	60762.65
576.79	60935.85
576.95	60783.71
577.11	61092.66
577.27	60781.37
577.43	60851.59
577.59	60992.02
577.75	60832.86
577.92	60701.79
578.08	60947.55
578.24	60994.36
578.40	61020.11
578.56	61029.47
578.72	60994.36
578.88	61181.60
579.04	61127.77
579.21	60996.70
579.37	61151.18
579.53	61097.34
579.69	60823.50
579.85	61062.24
580.01	60865.63
580.17	61038.83
580.33	61045.85
580.49	61076.28
580.65	61167.56
580.82	60886.70
580.98	61017.77
581.14	60851.59
581.30	61167.56
581.46	61064.58
581.62	61265.86
581.78	60966.27
581.94	61078.62
582.10	61015.43
582.26	60982.66
582.42	60992.02
582.58	61106.71
582.74	61146.50
582.90	61043.51
583.06	61006.06
583.22	60783.71
583.38	61109.05
583.54	61233.10
583.70	61212.03
583.86	61064.58
584.02	60968.61
584.18	61237.78
584.34	61207.35
584.50	61368.85
584.66	61120.75
584.82	61233.10
584.98	61158.20
585.14	61209.69
585.30	61097.34
585.46	61249.48
585.62	61205.01
585.78	61375.87
585.94	60975.64
586.10	60912.44
586.26	61216.71
586.42	61282.25
586.58	61272.88
586.74	61078.62
586.90	61291.61
587.06	61153.52
587.22	61272.88
587.38	61230.75
587.54	61387.57
587.70	61165.22
587.86	61207.35
588.02	61300.97
588.18	61095.00
588.34	61169.90
