SpectraSuite Data File
++++++++++++++++++++++++++++++++++++
Date: Fri Oct 25 10:43:56 EDT 2013
User: price-jones
Dark Spectrum Present: No
Reference Spectrum Present: No
Number of Sampled Component Spectra: 1
Spectrometers: USB2+H05261
Integration Time (usec): 100000 (USB2+H05261)
Spectra Averaged: 1 (USB2+H05261)
Boxcar Smoothing: 0 (USB2+H05261)
Correct for Electrical Dark: No (USB2+H05261)
Strobe/Lamp Enabled: No (USB2+H05261)
Correct for Detector Non-linearity: No (USB2+H05261)
Correct for Stray Light: No (USB2+H05261)
Number of Pixels in Processed Spectrum: 2048
>>>>>Begin Processed Spectral Data<<<<<
365.73	98.30
365.92	98.30
366.12	98.30
366.32	91.28
366.52	37.45
366.72	39.79
366.91	49.15
367.11	79.58
367.31	0.00
367.51	0.00
367.70	35.11
367.90	77.24
368.10	37.45
368.30	28.09
368.49	18.72
368.69	51.49
368.89	28.09
369.09	35.11
369.28	18.72
369.48	4.68
369.68	25.75
369.87	110.01
370.07	35.11
370.27	166.18
370.47	182.56
370.66	407.25
370.86	521.94
371.06	414.27
371.25	507.90
371.45	440.02
371.65	468.11
371.84	402.57
372.04	428.32
372.24	454.06
372.44	561.73
372.63	545.34
372.83	561.73
373.03	493.85
373.22	550.03
373.42	571.09
373.62	627.26
373.81	559.39
374.01	594.50
374.21	610.88
374.40	552.37
374.60	606.20
374.79	561.73
374.99	585.13
375.19	613.22
375.38	531.30
375.58	575.77
375.78	704.50
375.97	606.20
376.17	589.82
376.37	624.92
376.56	603.86
376.76	589.82
376.95	634.29
377.15	629.60
377.35	711.52
377.54	741.95
377.74	601.52
377.93	660.03
378.13	676.41
378.33	657.69
378.52	678.76
378.72	648.33
378.91	692.80
379.11	685.78
379.31	702.16
379.50	638.97
379.70	662.37
379.89	676.41
380.09	793.44
380.28	772.38
380.48	716.20
380.68	713.86
380.87	725.57
381.07	699.82
381.26	709.18
381.46	725.57
381.65	732.59
381.85	758.33
382.04	688.12
382.24	723.23
382.43	725.57
382.63	664.71
382.83	753.65
383.02	791.10
383.22	709.18
383.41	770.04
383.61	760.67
383.80	755.99
384.00	779.40
384.19	767.70
384.39	849.61
384.58	816.85
384.78	882.38
384.97	805.14
385.17	753.65
385.36	856.64
385.56	863.66
385.75	882.38
385.95	748.97
386.14	936.21
386.34	910.47
386.53	875.36
386.72	861.32
386.92	936.21
387.11	915.15
387.31	880.04
387.50	910.47
387.70	844.93
387.89	894.08
388.09	903.45
388.28	915.15
388.48	915.15
388.67	931.53
388.86	959.62
389.06	978.34
389.25	983.02
389.45	959.62
389.64	978.34
389.84	1060.26
390.03	1034.52
390.22	976.00
390.42	1006.43
390.61	1053.24
390.81	1114.10
391.00	1013.45
391.19	1088.35
391.39	1050.90
391.58	1029.84
391.78	1121.12
391.97	1039.20
392.16	1036.86
392.36	1078.99
392.55	1062.60
392.75	1041.54
392.94	976.00
393.13	1020.47
393.33	1034.52
393.52	1050.90
393.71	1165.59
393.91	1149.20
394.10	1165.59
394.29	1203.04
394.49	1191.33
394.68	1153.88
394.88	1364.53
395.07	1390.28
395.26	1291.98
395.46	1259.21
395.65	1331.76
395.84	1270.91
396.04	1313.04
396.23	1266.23
396.42	1273.25
396.62	1238.14
396.81	1259.21
397.00	1193.67
397.19	1313.04
397.39	1406.66
397.58	1504.96
397.77	1430.07
397.97	1486.24
398.16	1448.79
398.35	1544.75
398.55	1474.54
398.74	1483.90
398.93	1519.01
399.12	1591.56
399.32	1495.60
399.51	1507.30
399.70	1540.07
399.90	1612.63
400.09	1692.21
400.28	1729.66
400.47	1561.14
400.67	1750.72
400.86	1769.44
401.05	1886.47
401.24	1746.04
401.44	1689.87
401.63	1797.53
401.82	1795.19
402.01	1858.39
402.21	1818.60
402.40	1818.60
402.59	1825.62
402.78	1832.64
402.97	1877.11
403.17	1963.71
403.36	1895.83
403.55	1919.24
403.74	1898.17
403.93	1933.28
404.13	2010.52
404.32	1891.15
404.51	1968.39
404.70	2038.61
404.89	1994.14
405.09	2010.52
405.28	1994.14
405.47	2036.27
405.66	2012.86
405.85	2136.91
406.05	1977.75
406.24	2078.40
406.43	2012.86
406.62	2155.63
406.81	2286.70
407.00	2050.31
407.20	2038.61
407.39	2214.15
407.58	2157.97
407.77	2314.79
407.96	2314.79
408.15	2382.67
408.34	2352.24
408.54	2349.90
408.73	2443.52
408.92	2422.45
409.11	2380.32
409.30	2373.30
409.49	2331.17
409.68	2497.35
409.87	2473.95
410.07	2516.08
410.26	2436.50
410.45	2602.68
410.64	2574.59
410.83	2626.08
411.02	2635.44
411.21	2619.06
411.40	2773.53
411.59	2848.43
411.78	2806.30
411.98	2785.24
412.17	2768.85
412.36	2764.17
412.55	2792.26
412.74	2928.01
412.93	2942.05
413.12	2855.45
413.31	3030.99
413.50	2984.18
413.69	2979.50
413.88	3143.34
414.07	3075.46
414.26	3087.17
414.45	3089.51
414.64	3185.47
414.83	3199.51
415.02	3199.51
415.22	3246.32
415.41	3229.94
415.60	3255.69
415.79	3262.71
415.98	3379.73
416.17	3321.22
416.36	3281.43
416.55	3353.99
416.74	3372.71
416.93	3353.99
417.12	3325.90
417.31	3461.65
417.50	3503.78
417.69	3655.92
417.88	3592.72
418.07	3623.15
418.26	3646.55
418.45	3709.75
418.64	3782.31
418.83	3625.49
419.02	3723.79
419.21	3875.93
419.39	3836.14
419.58	3852.52
419.77	3578.68
419.96	3901.67
420.15	3782.31
420.34	3939.12
420.53	3887.63
420.72	3969.55
420.91	3868.91
421.10	4011.68
421.29	4121.68
421.48	4032.74
421.67	3971.89
421.86	3992.95
422.05	4095.94
422.24	3840.82
422.43	4084.23
422.61	3894.65
422.80	3995.29
422.99	4086.58
423.18	4124.02
423.37	4177.86
423.56	4044.45
423.75	4084.23
423.94	4046.79
424.13	3960.19
424.32	4002.32
424.50	4128.70
424.69	4205.94
424.88	4189.56
425.07	4084.23
425.26	3882.95
425.45	4098.28
425.64	4084.23
425.83	4168.49
426.01	4297.22
426.20	4126.36
426.39	4074.87
426.58	4128.70
426.77	4074.87
426.96	4205.94
427.15	4119.34
427.33	4290.20
427.52	4245.73
427.71	4252.75
427.90	4409.57
428.09	4301.90
428.28	4231.69
428.46	4231.69
428.65	4381.48
428.84	4493.83
429.03	4353.40
429.22	4264.46
429.40	4255.09
429.59	4339.35
429.78	4067.85
429.97	4124.02
430.16	4039.76
430.34	4212.96
430.53	4259.78
430.72	4346.37
430.91	4500.85
431.10	4472.76
431.28	4716.18
431.47	4823.84
431.66	4791.08
431.85	4634.26
432.03	4814.48
432.22	5018.11
432.41	4957.25
432.60	4870.65
432.79	4739.58
432.97	4938.53
433.16	4957.25
433.35	4798.10
433.54	4725.54
433.72	4842.57
433.91	4784.06
434.10	5029.81
434.28	4985.34
434.47	5064.92
434.66	5069.60
434.85	5118.75
435.03	5172.58
435.22	5046.20
435.41	5247.48
435.59	5317.70
435.78	5291.95
435.97	5310.68
436.16	5352.81
436.34	5282.59
436.53	5359.83
436.72	5549.41
436.90	5350.46
437.09	5483.88
437.28	5303.65
437.46	5444.09
437.65	5303.65
437.84	5394.93
438.02	5446.43
438.21	5401.96
438.40	5444.09
438.58	5610.26
438.77	5706.23
438.96	5743.67
439.14	5809.21
439.33	5771.76
439.52	5858.36
439.70	5832.62
439.89	5870.06
440.08	6045.60
440.26	5996.45
440.45	5832.62
440.63	6113.48
440.82	6181.35
441.01	6207.10
441.19	6377.96
441.38	6499.67
441.57	6286.68
441.75	6406.05
441.94	6434.13
442.12	6504.35
442.31	6520.73
442.50	6469.24
442.68	6548.82
442.87	6621.38
443.05	6553.50
443.24	6621.38
443.43	6754.79
443.61	6715.00
443.80	6841.39
443.98	6520.73
444.17	6420.09
444.35	6810.96
444.54	6850.75
444.73	6874.15
444.91	6740.74
445.10	6665.85
445.28	6696.27
445.47	6635.42
445.65	6757.13
445.84	6864.79
446.02	6862.45
446.21	6792.23
446.39	6768.83
446.58	6937.35
446.77	6761.81
446.95	6878.83
447.14	6916.28
447.32	7239.28
447.51	6899.90
447.69	6871.81
447.88	7145.66
448.06	7026.29
448.25	7009.90
448.43	7061.40
448.62	7035.65
448.80	7037.99
448.99	7030.97
449.17	7108.21
449.36	7096.50
449.54	7045.01
449.73	7393.75
449.91	7428.86
450.10	7564.61
450.28	7733.13
450.46	7602.06
450.65	7623.12
450.83	7419.50
451.02	7499.08
451.20	7653.55
451.39	7681.64
451.57	7595.04
451.76	7360.98
451.94	7529.50
452.13	7634.83
452.31	7485.03
452.49	7470.99
452.68	7508.44
452.86	7578.65
453.05	7590.36
453.23	7751.85
453.42	7468.65
453.60	7691.00
453.78	7742.49
453.97	7616.10
454.15	7845.48
454.34	7770.58
454.52	7918.03
454.70	7723.77
454.89	7789.30
455.07	7829.09
455.26	7801.01
455.44	8025.70
455.62	8032.72
455.81	8067.83
455.99	8021.02
456.17	8156.77
456.36	8269.11
456.54	8390.82
456.73	8376.78
456.91	8484.44
457.09	8388.48
457.28	8578.06
457.46	8273.79
457.64	8432.95
457.83	8318.26
458.01	8365.07
458.19	8411.89
458.38	8409.54
458.56	8458.70
458.74	8631.90
458.93	8428.27
459.11	8645.94
459.29	8510.19
459.48	8489.12
459.66	8470.40
459.84	8702.11
460.03	9043.83
460.21	8720.84
460.39	8999.36
460.57	8849.57
460.76	9013.40
460.94	8997.02
461.12	9144.47
461.31	9130.43
461.49	9062.55
461.67	9041.49
461.85	9280.22
462.04	9050.85
462.22	9446.40
462.40	9294.27
462.59	9312.99
462.77	9226.39
462.95	9095.32
463.13	9184.26
463.32	9488.53
463.50	9437.04
463.68	9371.50
463.86	9329.38
464.05	9338.74
464.23	9390.23
464.41	9458.10
464.59	9242.78
464.78	9446.40
464.96	9444.06
465.14	9521.30
465.32	9633.64
465.50	9696.84
465.69	9678.12
465.87	9696.84
466.05	9741.31
466.23	9413.63
466.41	9668.75
466.60	9781.10
466.78	9504.92
466.96	9528.32
467.14	9533.00
467.32	9783.44
467.51	10031.54
467.69	9413.63
467.87	9764.72
468.05	9970.68
468.23	9921.53
468.41	9928.55
468.60	9872.38
468.78	10115.80
468.96	10071.33
469.14	10111.11
469.32	9956.64
469.50	9750.67
469.69	10033.88
469.87	10068.98
470.05	10216.44
470.23	10274.95
470.41	10097.07
470.59	10085.37
470.77	10380.28
470.95	10349.85
471.14	10663.48
471.32	10207.08
471.50	10614.33
471.68	10483.26
471.86	10785.19
472.04	11030.94
472.22	11136.27
472.40	10677.52
472.58	10813.28
472.77	10970.09
472.95	10986.47
473.13	11470.97
473.31	10729.02
473.49	10775.83
473.67	11044.99
473.85	11073.07
474.03	11501.39
474.21	11473.31
474.39	11545.86
474.57	11609.06
474.75	11426.50
474.93	11714.38
475.12	11595.01
475.30	11606.72
475.48	11822.05
475.66	11618.42
475.84	11695.66
476.02	12058.44
476.20	11864.18
476.38	12126.32
476.56	12381.43
476.74	12348.67
476.92	12353.35
477.10	12187.17
477.28	12498.46
477.46	12538.25
477.64	12816.77
477.82	12798.05
478.00	13268.50
478.18	13067.21
478.36	13027.42
478.54	13209.98
478.72	13254.45
478.90	13261.48
479.08	13493.19
479.26	13570.43
479.44	13640.64
479.62	13635.96
479.80	13865.33
479.98	13965.98
480.16	14361.53
480.34	13942.57
480.52	14291.31
480.70	14171.94
480.88	14106.41
481.06	14328.76
481.24	14352.16
481.41	14941.98
481.59	15002.83
481.77	14883.47
481.95	15159.65
482.13	15236.89
482.31	15073.05
482.49	15414.77
482.67	15426.47
482.85	15695.63
483.03	15524.77
483.21	15845.43
483.39	16058.42
483.57	15833.72
483.74	16170.76
483.92	16287.79
484.10	16301.83
484.28	16484.39
484.46	16252.68
484.64	16915.05
484.82	16493.76
485.00	16690.36
485.18	17099.95
485.35	17266.13
485.53	16678.66
485.71	16552.27
485.89	16858.88
486.07	16821.43
486.25	17205.28
486.43	17659.34
486.61	17954.25
486.78	17937.87
486.96	17921.48
487.14	18398.95
487.32	18314.69
487.50	18747.69
487.68	18937.27
487.85	19176.01
488.03	19166.65
488.21	19309.42
488.39	19248.57
488.57	19349.21
488.75	19908.60
488.92	19852.42
489.10	20201.16
489.28	20182.44
489.46	20301.81
489.64	20592.03
489.81	20828.43
489.99	20966.52
490.17	21003.97
490.35	21310.58
490.53	21109.29
490.70	21205.25
490.88	21200.57
491.06	21521.23
491.24	21556.33
491.41	21341.00
491.59	21474.42
491.77	21373.77
491.95	22115.72
492.13	22085.30
492.30	22443.40
492.48	22541.70
492.66	22600.21
492.84	22869.37
493.01	22916.19
493.19	22761.71
493.37	22773.41
493.54	22993.42
493.72	23330.46
493.90	23583.24
494.08	23613.66
494.25	23723.67
494.43	24264.33
494.61	24364.98
494.79	24322.85
494.96	24437.53
495.14	24308.80
495.32	24528.81
495.49	24435.19
495.67	25027.35
495.85	24957.13
496.02	25385.45
496.20	24924.36
496.38	25254.38
496.55	25607.80
496.73	25949.52
496.91	25689.72
497.09	25900.37
497.26	26085.27
497.44	25748.23
497.62	25975.27
497.79	26122.72
497.97	26263.15
498.14	26396.56
498.32	26576.78
498.50	26506.57
498.67	27234.47
498.85	27185.32
499.03	27269.58
499.20	27005.10
499.38	27105.74
499.56	27220.43
499.73	27288.31
499.91	27590.24
500.08	27517.68
500.26	27182.98
500.44	27323.41
500.61	27744.71
500.79	27304.69
500.97	27803.22
501.14	27854.72
501.32	28374.31
501.49	27938.97
501.67	27716.62
501.84	28414.10
502.02	28072.39
502.20	28758.16
502.37	28914.98
502.55	28788.59
502.72	28748.80
502.90	28914.98
503.07	28856.46
503.25	29085.84
503.43	29099.88
503.60	28800.29
503.78	29134.99
503.95	28992.22
504.13	29392.45
504.30	29668.63
504.48	29560.97
504.65	29949.50
504.83	30080.56
505.01	30284.19
505.18	30408.24
505.36	30565.06
505.53	30621.23
505.71	30717.19
505.88	30808.47
506.06	30148.44
506.23	30150.78
506.41	30485.48
506.58	31005.08
506.76	30911.46
506.93	31201.68
507.11	30696.13
507.28	30934.86
507.46	30649.32
507.63	30974.65
507.81	31040.18
507.98	30991.03
508.16	30904.43
508.33	31386.58
508.50	31590.21
508.68	31639.36
508.85	32315.78
509.03	31936.61
509.20	31992.78
509.38	32388.33
509.55	32109.81
509.73	32404.72
509.90	32577.92
510.08	32603.66
510.25	32378.97
510.42	32779.20
510.60	32952.40
510.77	32627.07
510.95	33242.63
511.12	33223.90
511.30	32933.68
511.47	33371.36
511.64	33574.98
511.82	33708.40
511.99	33530.51
512.17	33165.39
512.34	33237.95
512.51	33376.04
512.69	33830.10
512.86	33514.13
513.04	33841.81
513.21	34073.52
513.38	33654.56
513.56	33734.14
513.73	33488.38
513.90	34073.52
514.08	34031.39
514.25	34017.35
514.43	34176.50
514.60	34230.33
514.77	33972.88
514.95	34511.20
515.12	34635.25
515.29	34820.15
515.47	34829.51
515.64	34881.00
515.81	34670.36
515.99	34773.34
516.16	34752.27
516.33	34707.80
516.51	34642.27
516.68	34361.40
516.85	34590.78
517.03	34653.97
517.20	35168.89
517.37	35189.95
517.54	35515.29
517.72	35086.97
517.89	35068.25
518.06	34698.44
518.24	34806.11
518.41	35459.12
518.58	35484.86
518.75	35576.14
518.93	35849.99
519.10	35683.81
519.27	36449.16
519.45	36224.47
519.62	36172.98
519.79	36732.37
519.96	36231.49
520.14	36622.36
520.31	36273.62
520.48	36910.25
520.65	36601.30
520.83	36669.17
521.00	36891.52
521.17	37371.33
521.34	37090.47
521.52	37172.39
521.69	37336.23
521.86	37488.36
522.03	37464.96
522.20	37392.40
522.38	37284.73
522.55	36884.50
522.72	37392.40
522.89	37715.39
523.07	37755.18
523.24	37731.78
523.41	38153.07
523.58	38080.52
523.75	38321.59
523.92	38375.42
524.10	38600.12
524.27	38553.30
524.44	38218.61
524.61	38770.97
524.78	38710.12
524.96	38242.01
525.13	38529.90
525.30	38850.55
525.47	38721.82
525.64	38670.33
525.81	38845.87
525.98	38410.53
526.16	38148.39
526.33	38483.09
526.50	38560.33
526.67	38611.82
526.84	38471.39
527.01	38569.69
527.18	38696.08
527.36	39278.87
527.53	39440.37
527.70	39653.36
527.87	39421.64
528.04	39620.59
528.21	39395.90
528.38	39559.73
528.55	39814.85
528.72	39934.22
528.89	40350.84
529.07	40018.48
529.24	39489.52
529.41	40105.08
529.58	39714.21
529.75	39693.15
529.92	40051.25
530.09	39821.87
530.26	39866.34
530.43	40390.62
530.60	40074.65
530.77	40545.10
530.94	40673.83
531.11	40547.44
531.28	40788.52
531.46	40629.36
531.63	40919.59
531.80	40741.71
531.97	40325.09
532.14	40233.81
532.31	39988.05
532.48	40397.65
532.65	41336.20
532.82	40179.98
532.99	40650.42
533.16	40479.57
533.33	41034.27
533.50	41399.40
533.67	41109.17
533.84	41053.00
534.01	41230.88
534.18	41125.55
534.35	41588.98
534.52	40809.58
534.69	41305.77
534.86	41610.04
535.03	41251.94
535.20	42010.28
535.37	42005.59
535.54	42256.03
535.71	41776.22
535.88	42192.84
536.05	41535.15
536.22	41750.48
536.38	41956.44
536.55	41935.38
536.72	42335.61
536.89	41120.87
537.06	42143.69
537.23	42092.19
537.40	42202.20
537.57	42546.26
537.74	42401.14
537.91	42646.90
538.08	42375.40
538.25	41921.34
538.42	42417.53
538.59	42127.30
538.75	41738.77
538.92	42321.57
539.09	42307.52
539.26	42099.22
539.43	42284.12
539.60	42333.27
539.77	42534.56
539.94	42241.99
540.11	42356.67
540.28	42342.63
540.44	42726.48
540.61	42541.58
540.78	42579.03
540.95	42635.20
541.12	42731.16
541.29	42707.76
541.46	42986.28
541.62	42932.45
541.79	42937.13
541.96	42836.48
542.13	42649.24
542.30	43119.69
542.47	43185.22
542.63	42941.81
542.80	43299.91
542.97	43475.45
543.14	43278.85
543.31	43739.93
543.48	43964.62
543.64	44376.56
543.81	44229.10
543.98	44137.82
544.15	43913.13
544.32	44018.46
544.48	43880.36
544.65	44083.99
544.82	44229.10
544.99	43557.37
545.16	44093.35
545.32	43873.34
545.49	44130.80
545.66	44891.48
545.83	44512.31
546.00	44484.22
546.16	44388.26
546.33	44013.77
546.50	44091.01
546.67	44048.88
546.83	43929.51
547.00	44128.46
547.17	44018.46
547.34	44105.06
547.50	44395.28
547.67	44891.48
547.84	44636.36
548.00	44596.57
548.17	44886.79
548.34	44687.85
548.51	44975.73
548.67	44966.37
548.84	44996.80
549.01	44121.44
549.18	44683.17
549.34	44854.03
549.51	44804.88
549.68	45130.21
549.84	45209.79
550.01	45319.79
550.18	44626.99
550.34	44886.79
550.51	44973.39
550.68	44811.90
550.84	44666.78
551.01	45188.72
551.18	45177.02
551.34	45441.50
551.51	45272.98
551.68	45415.76
551.84	45277.66
552.01	44945.31
552.18	44940.63
552.34	44722.96
552.51	45125.53
552.68	45425.12
552.84	45099.78
553.01	45368.94
553.18	45399.37
553.34	45008.50
553.51	45691.94
553.67	45780.88
553.84	45893.22
554.01	45806.62
554.17	46176.43
554.34	45860.46
554.51	45724.71
554.67	45996.21
554.84	45937.69
555.00	45713.00
555.17	45603.00
555.33	45867.48
555.50	45815.99
555.67	45771.52
555.83	45670.87
556.00	45893.22
556.16	46057.06
556.33	45771.52
556.50	45954.08
556.66	45570.23
556.83	45570.23
556.99	46256.01
557.16	45727.05
557.32	45872.16
557.49	46209.20
557.65	45717.68
557.82	46110.89
557.98	46241.96
558.15	46068.76
558.32	45923.65
558.48	46005.57
558.65	45764.49
558.81	45717.68
558.98	46078.13
559.14	46040.68
559.31	45886.20
559.47	46405.80
559.64	46333.24
559.80	46223.24
559.97	46546.23
560.13	46129.62
560.30	46291.12
560.46	46267.71
560.63	46426.87
560.79	46483.04
560.96	46649.22
561.12	46216.22
561.29	45979.82
561.45	46218.56
561.61	46227.92
561.78	46607.09
561.94	46050.04
562.11	46138.98
562.27	46307.50
562.44	46787.31
562.60	46672.62
562.77	46897.31
562.93	46358.99
563.10	46506.44
563.26	46286.43
563.42	46536.87
563.59	46281.75
563.75	46539.21
563.92	46550.91
564.08	46469.00
564.24	46749.86
564.41	46574.32
564.57	46597.73
564.74	46178.77
564.90	46733.48
565.07	46796.67
565.23	46749.86
565.39	46248.99
565.56	46834.12
565.72	46043.02
565.88	46518.15
566.05	46562.62
566.21	46607.09
566.38	46522.83
566.54	46677.30
566.70	46717.09
566.87	46724.11
567.03	47157.11
567.19	47175.84
567.36	46946.47
567.52	46557.94
567.68	46941.78
567.85	46466.66
568.01	47023.70
568.17	47061.15
568.34	46866.89
568.50	46553.26
568.66	46628.15
568.83	46731.14
568.99	46700.71
569.15	47019.02
569.32	46469.00
569.48	46969.87
569.64	47161.79
569.81	46831.78
569.97	46499.42
570.13	46621.13
570.30	46478.36
570.46	46836.46
570.62	46213.88
570.78	46808.37
570.95	46148.34
571.11	46951.15
571.27	46775.61
571.43	46775.61
571.60	46539.21
571.76	47002.64
571.92	47194.56
572.09	47182.86
572.25	46834.12
572.41	46955.83
572.57	47147.75
572.74	46932.42
572.90	46698.37
573.06	46873.91
573.22	46653.90
573.38	46799.01
573.55	46696.03
573.71	47079.88
573.87	47084.56
574.03	46719.43
574.20	46644.54
574.36	47030.72
574.52	46686.67
574.68	47012.00
574.84	47173.50
575.01	47117.32
575.17	46450.27
575.33	46653.90
575.49	46836.46
575.65	47072.85
575.82	46955.83
575.98	46770.93
576.14	47320.95
576.30	47246.05
576.46	46663.26
576.62	46852.84
576.79	46829.44
576.95	46429.21
577.11	47093.92
577.27	47239.03
577.43	46850.50
577.59	46738.16
577.75	46799.01
577.92	46485.38
578.08	46457.29
578.24	46773.27
578.40	46794.33
578.56	46894.97
578.72	46965.19
578.88	47161.79
579.04	46948.81
579.21	47089.24
579.37	46642.20
579.53	47117.32
579.69	46611.77
579.85	46752.20
580.01	47030.72
580.17	46878.59
580.33	47395.85
580.49	47026.04
580.65	47009.66
580.82	46770.93
580.98	46520.49
581.14	46314.52
581.30	47278.82
581.46	47119.66
581.62	47143.07
581.78	46581.34
581.94	47332.65
582.10	47117.32
582.26	47323.29
582.42	47248.39
582.58	47243.71
582.74	47433.30
582.90	47180.52
583.06	47267.12
583.22	47220.31
583.38	47320.95
583.54	47292.86
583.70	47147.75
583.86	47323.29
584.02	46775.61
584.18	47199.24
584.34	46986.25
584.50	47234.35
584.66	47023.70
584.82	46560.28
584.98	47653.31
585.14	46913.70
585.30	46801.35
585.46	46894.97
585.62	47035.41
585.78	47133.71
585.94	46747.52
586.10	46677.30
586.26	46831.78
586.42	47494.15
586.58	47395.85
586.74	47154.77
586.90	46920.72
587.06	46946.47
587.22	47079.88
587.38	46988.60
587.54	47203.92
587.70	47466.06
587.86	46969.87
588.02	47185.20
588.18	47281.16
588.34	46644.54
588.49	46787.31
588.65	46258.35
588.81	46293.46
588.97	46574.32
589.13	46426.87
589.29	47187.54
589.45	46607.09
589.61	46857.52
589.77	47327.97
589.93	46808.37
