SpectraSuite Data File
++++++++++++++++++++++++++++++++++++
Date: Fri Oct 25 11:22:47 EDT 2013
User: price-jones
Dark Spectrum Present: No
Reference Spectrum Present: No
Number of Sampled Component Spectra: 1
Spectrometers: USB2+H05261
Integration Time (usec): 100000 (USB2+H05261)
Spectra Averaged: 1 (USB2+H05261)
Boxcar Smoothing: 0 (USB2+H05261)
Correct for Electrical Dark: No (USB2+H05261)
Strobe/Lamp Enabled: No (USB2+H05261)
Correct for Detector Non-linearity: No (USB2+H05261)
Correct for Stray Light: No (USB2+H05261)
Number of Pixels in Processed Spectrum: 2048
>>>>>Begin Processed Spectral Data<<<<<
365.73	201.29
365.92	201.29
366.12	201.29
366.32	152.13
366.52	124.05
366.72	170.86
366.91	93.62
367.11	93.62
367.31	65.54
367.51	161.50
367.70	138.09
367.90	110.01
368.10	95.96
368.30	93.62
368.49	112.35
368.69	53.83
368.89	102.98
369.09	154.48
369.28	131.07
369.48	175.54
369.68	152.13
369.87	224.69
370.07	166.18
370.27	201.29
370.47	285.55
370.66	594.50
370.86	641.31
371.06	648.33
371.25	709.18
371.45	613.22
371.65	704.50
371.84	690.46
372.04	648.33
372.24	732.59
372.44	732.59
372.63	755.99
372.83	704.50
373.03	697.48
373.22	723.23
373.42	770.04
373.62	739.61
373.81	702.16
374.01	884.72
374.21	800.46
374.40	784.08
374.60	830.89
374.79	814.51
374.99	788.76
375.19	894.08
375.38	837.91
375.58	901.11
375.78	767.70
375.97	849.61
376.17	882.38
376.37	833.23
376.56	894.08
376.76	919.83
376.95	821.53
377.15	947.92
377.35	873.02
377.54	891.74
377.74	884.72
377.93	912.81
378.13	931.53
378.33	910.47
378.52	896.43
378.72	889.40
378.91	854.30
379.11	896.43
379.31	805.14
379.50	933.87
379.70	1053.24
379.89	945.58
380.09	912.81
380.28	891.74
380.48	936.21
380.68	990.05
380.87	976.00
381.07	961.96
381.26	1001.75
381.46	968.98
381.65	1039.20
381.85	994.73
382.04	1064.94
382.24	1146.86
382.43	1025.15
382.63	1032.18
382.83	1046.22
383.02	1111.75
383.22	1088.35
383.41	1137.50
383.61	1107.07
383.80	1149.20
384.00	1060.26
384.19	1020.47
384.39	1034.52
384.58	1146.86
384.78	1167.93
384.97	1203.04
385.17	1139.84
385.36	1144.52
385.56	1188.99
385.75	1160.91
385.95	1163.25
386.14	1053.24
386.34	1193.67
386.53	1207.72
386.72	1242.82
386.92	1261.55
387.11	1196.01
387.31	1245.16
387.50	1174.95
387.70	1242.82
387.89	1252.19
388.09	1174.95
388.28	1254.53
388.48	1303.68
388.67	1357.51
388.86	1336.45
389.06	1296.66
389.25	1320.06
389.45	1352.83
389.64	1411.34
389.84	1376.24
390.03	1385.60
390.22	1446.45
390.42	1373.89
390.61	1369.21
390.81	1411.34
391.00	1439.43
391.19	1399.64
391.39	1369.21
391.58	1542.41
391.78	1444.11
391.97	1394.96
392.16	1455.81
392.36	1577.52
392.55	1577.52
392.75	1495.60
392.94	1577.52
393.13	1521.35
393.33	1502.62
393.52	1533.05
393.71	1612.63
393.91	1526.03
394.10	1577.52
394.29	1647.74
394.49	1544.75
394.68	1565.82
394.88	1650.08
395.07	1710.93
395.26	1668.80
395.46	1682.85
395.65	1692.21
395.84	1661.78
396.04	1811.57
396.23	1753.06
396.42	1715.61
396.62	1860.73
396.81	1767.10
397.00	1792.85
397.19	1844.34
397.39	1816.26
397.58	1799.87
397.77	1713.27
397.97	1860.73
398.16	1844.34
398.35	1935.62
398.55	1877.11
398.74	1837.32
398.93	1797.53
399.12	1856.04
399.32	1954.35
399.51	1937.96
399.70	1935.62
399.90	1944.99
400.09	2015.20
400.28	2120.53
400.47	1926.26
400.67	2165.00
400.86	2118.18
401.05	2111.16
401.24	2155.63
401.44	2036.27
401.63	2076.06
401.82	2111.16
402.01	2167.34
402.21	2122.87
402.40	2141.59
402.59	2139.25
402.78	2237.55
402.97	2172.02
403.17	2333.51
403.36	2232.87
403.55	2319.47
403.74	2340.54
403.93	2370.96
404.13	2373.30
404.32	2352.24
404.51	2328.83
404.70	2445.86
404.89	2558.21
405.09	2469.27
405.28	2495.01
405.47	2551.18
405.66	2487.99
405.85	2567.57
406.05	2567.57
406.24	2616.72
406.43	2567.57
406.62	2637.78
406.81	2693.96
407.00	2623.74
407.20	2616.72
407.39	2689.28
407.58	2717.36
407.77	2834.39
407.96	2740.77
408.15	2782.90
408.34	2747.79
408.54	2864.82
408.73	2871.84
408.92	2815.66
409.11	2827.37
409.30	3005.25
409.49	2832.05
409.68	3073.12
409.87	3019.29
410.07	3054.40
410.26	2970.14
410.45	3016.95
410.64	3070.78
410.83	3047.38
411.02	3084.83
411.21	3155.04
411.40	3126.96
411.59	3199.51
411.78	3155.04
411.98	3150.36
412.17	3356.33
412.36	3295.47
412.55	3281.43
412.74	3482.72
412.93	3400.80
413.12	3431.23
413.31	3524.85
413.50	3463.99
413.69	3480.38
413.88	3595.06
414.07	3698.05
414.26	3618.47
414.45	3599.74
414.64	3606.77
414.83	3660.60
415.02	3702.73
415.22	3927.42
415.41	3889.97
415.60	3925.08
415.79	3901.67
415.98	3927.42
416.17	3908.69
416.36	3960.19
416.55	4077.21
416.74	4004.66
416.93	3875.93
417.12	4271.48
417.31	4149.77
417.50	4201.26
417.69	4299.56
417.88	4201.26
418.07	4297.22
418.26	4418.93
418.45	4360.42
418.64	4531.28
418.83	4432.97
419.02	4580.43
419.21	4505.53
419.39	4381.48
419.58	4512.55
419.77	4416.59
419.96	4561.70
420.15	4585.11
420.34	4580.43
420.53	4655.33
420.72	4669.37
420.91	4798.10
421.10	4711.50
421.29	4873.00
421.48	4774.69
421.67	4807.46
421.86	4786.40
422.05	4816.82
422.24	4727.88
422.43	4826.18
422.61	4994.70
422.80	4954.91
422.99	5013.43
423.18	4854.27
423.37	5004.07
423.56	4968.96
423.75	5018.11
423.94	4784.06
424.13	4627.24
424.32	4784.06
424.50	5151.52
424.69	5078.96
424.88	5191.31
425.07	4905.76
425.26	4912.78
425.45	4973.64
425.64	4830.87
425.83	5036.83
426.01	5076.62
426.20	5053.22
426.39	5078.96
426.58	5109.39
426.77	5085.98
426.96	5130.45
427.15	5081.30
427.33	5221.74
427.52	5203.01
427.71	5334.08
427.90	5249.82
428.09	5418.34
428.28	5441.75
428.46	5441.75
428.65	5240.46
428.84	5462.81
429.03	5521.32
429.22	5476.85
429.40	5411.32
429.59	5408.98
429.78	5242.80
429.97	5303.65
430.16	5420.68
430.34	5568.13
430.53	5591.54
430.72	5708.57
430.91	5533.03
431.10	5607.92
431.28	5734.31
431.47	5706.23
431.66	5898.15
431.85	5799.85
432.03	5893.47
432.22	5825.59
432.41	5956.66
432.60	5893.47
432.79	5954.32
432.97	6122.84
433.16	6148.59
433.35	6010.50
433.54	6010.50
433.72	6054.97
433.91	6024.54
434.10	6040.92
434.28	6038.58
434.47	6139.23
434.66	6303.06
434.85	6228.17
435.03	6244.55
435.22	6382.64
435.41	6565.20
435.59	6548.82
435.78	6539.46
435.97	6539.46
436.16	6417.75
436.34	6410.73
436.53	6537.12
436.72	6747.76
436.90	6572.22
437.09	6609.67
437.28	6370.94
437.46	6604.99
437.65	6607.33
437.84	6752.45
438.02	6810.96
438.21	6771.17
438.40	6693.93
438.58	6949.05
438.77	7019.27
438.96	7063.74
439.14	7314.17
439.33	7117.57
439.52	7117.57
439.70	7363.33
439.89	7349.28
440.08	7286.09
440.26	7426.52
440.45	7330.56
440.63	7510.78
440.82	7515.46
441.01	7506.10
441.19	7485.03
441.38	7768.24
441.57	7824.41
441.75	7868.88
441.94	8006.97
442.12	8035.06
442.31	8058.46
442.50	8180.17
442.68	8109.96
442.87	7967.18
443.05	8182.51
443.24	8248.05
443.43	8243.37
443.61	8262.09
443.80	8287.84
443.98	8252.73
444.17	7709.72
444.35	8395.50
444.54	8514.87
444.73	8208.26
444.91	8334.65
445.10	8266.77
445.28	8362.73
445.47	8269.11
445.65	8435.29
445.84	8292.52
446.02	8540.61
446.21	8617.85
446.39	8224.64
446.58	8468.06
446.77	8327.63
446.95	8168.47
447.14	8313.58
447.32	8484.44
447.51	8430.61
447.69	8446.99
447.88	8615.51
448.06	8624.87
448.25	8589.77
448.43	8678.71
448.62	8601.47
448.80	8592.11
448.99	8652.96
449.17	8725.52
449.36	8777.01
449.54	8887.01
449.73	8936.17
449.91	8980.64
450.10	8992.34
450.28	9219.37
450.46	9095.32
450.65	9273.20
450.83	9266.18
451.02	9114.05
451.20	9146.81
451.39	9315.33
451.57	9263.84
451.76	9249.80
451.94	9095.32
452.13	9312.99
452.31	9497.89
452.49	9298.95
452.68	9373.85
452.86	9329.38
453.05	9191.28
453.23	9460.45
453.42	9324.69
453.60	9509.60
453.78	9715.56
453.97	9345.76
454.15	9554.07
454.34	9488.53
454.52	9626.62
454.70	9703.86
454.89	9816.21
455.07	9942.60
455.26	9848.97
455.44	9973.02
455.62	9891.10
455.81	10146.22
455.99	9973.02
456.17	9811.53
456.36	10228.14
456.54	10347.51
456.73	10338.15
456.91	10373.25
457.09	10445.81
457.28	10572.20
457.46	10354.53
457.64	10516.03
457.83	10686.89
458.01	10626.03
458.19	10560.50
458.38	10675.18
458.56	10738.38
458.74	10782.85
458.93	10729.02
459.11	10771.15
459.29	10773.49
459.48	11016.90
459.66	10923.28
459.84	10750.08
460.03	11049.67
460.21	10977.11
460.39	11126.91
460.57	11089.46
460.76	11290.74
460.94	11239.25
461.12	11192.44
461.31	11176.06
461.49	11314.15
461.67	11269.68
461.85	11468.62
462.04	11323.51
462.22	11798.64
462.40	11529.48
462.59	11597.35
462.77	11747.15
462.95	11932.05
463.13	11662.89
463.32	11721.40
463.50	11969.50
463.68	11925.03
463.86	11726.08
464.05	11604.38
464.23	11573.95
464.41	11880.56
464.59	11859.49
464.78	12046.74
464.96	12114.61
465.14	11803.32
465.32	12140.36
465.50	12156.74
465.69	12159.08
465.87	12390.80
466.05	12070.14
466.23	12196.53
466.41	12463.35
466.60	12666.98
466.78	12189.51
466.96	12219.94
467.14	12196.53
467.32	12269.09
467.51	12641.23
467.69	12138.02
467.87	12622.51
468.05	12877.63
468.23	12458.67
468.41	12425.90
468.60	12528.89
468.78	12425.90
468.96	12566.34
469.14	12947.84
469.32	12779.32
469.50	12674.00
469.69	13090.62
469.87	13181.90
470.05	13011.04
470.23	13294.24
470.41	13083.59
470.59	13516.59
470.77	13247.43
470.95	13205.30
471.14	13860.65
471.32	13444.04
471.50	13544.68
471.68	13490.85
471.86	13757.67
472.04	14057.26
472.22	14008.11
472.40	13827.88
472.58	13937.89
472.77	14225.78
472.95	14272.59
473.13	14796.87
473.31	13741.29
473.49	14225.78
473.67	14043.21
473.85	14464.51
474.03	14548.77
474.21	14539.41
474.39	14714.95
474.57	14560.47
474.75	15159.65
474.93	15073.05
475.12	15101.14
475.30	15187.74
475.48	15206.46
475.66	15356.25
475.84	15208.80
476.02	15372.64
476.20	15475.62
476.38	15641.80
476.56	16137.99
476.74	15955.43
476.92	16098.20
477.10	15772.87
477.28	16266.72
477.46	16243.32
477.64	16329.92
477.82	16652.91
478.00	17048.46
478.18	16870.58
478.36	16961.86
478.54	17270.81
478.72	17273.15
478.90	17439.33
479.08	17692.11
479.26	17652.32
479.44	17926.16
479.62	18209.37
479.80	17830.20
479.98	18204.69
480.16	18501.93
480.34	18338.10
480.52	18672.79
480.70	18881.10
480.88	18391.93
481.06	18579.17
481.24	19051.96
481.41	19122.18
481.59	19278.99
481.77	19770.51
481.95	19716.67
482.13	19875.83
482.31	19667.52
482.49	20327.55
482.67	20386.07
482.85	20503.09
483.03	20828.43
483.21	20629.48
483.39	21408.88
483.57	20870.56
483.74	21099.93
483.92	21532.93
484.10	21273.13
484.28	21956.57
484.46	22298.28
484.64	22274.88
484.82	22036.14
485.00	22572.13
485.18	22728.94
485.35	23147.90
485.53	23091.73
485.71	23068.32
485.89	23454.51
486.07	23379.61
486.25	23255.56
486.43	23999.85
486.61	24102.84
486.78	23929.64
486.96	24147.31
487.14	24755.85
487.32	24531.15
487.50	25305.87
487.68	25102.25
487.85	25532.90
488.03	25481.41
488.21	26134.42
488.39	25968.24
488.57	25958.88
488.75	26366.13
488.92	26649.34
489.10	26672.74
489.28	26913.82
489.46	27087.02
489.64	27377.25
489.81	27718.96
489.99	27875.78
490.17	27714.28
490.35	28357.93
490.53	28371.97
490.70	28191.75
490.88	28599.01
491.06	28732.42
491.24	29001.58
491.41	29462.66
491.59	29385.43
491.77	29144.35
491.95	29668.63
492.13	29764.59
492.30	30213.98
492.48	30319.30
492.66	30398.88
492.84	30508.88
493.01	31211.04
493.19	30895.07
493.37	30951.24
493.54	31051.89
493.72	31646.38
493.90	31791.50
494.08	32287.69
494.25	32048.96
494.43	31868.73
494.61	32252.58
494.79	32718.35
494.96	32182.37
495.14	32957.08
495.32	33130.28
495.49	33479.02
495.67	33474.34
495.85	33582.01
496.02	34092.24
496.20	33813.72
496.38	34075.86
496.55	34139.05
496.73	35110.38
496.91	34719.51
497.09	35028.46
497.26	35885.09
497.44	35225.06
497.62	35438.05
497.79	35601.89
497.97	35641.68
498.14	36130.85
498.32	36442.14
498.50	36605.98
498.67	37020.25
498.85	36437.46
499.03	36699.60
499.20	37071.75
499.38	36919.61
499.56	37296.44
499.73	37240.26
499.91	37530.49
500.08	37544.53
500.26	37907.32
500.44	37745.82
500.61	38080.52
500.79	38017.32
500.97	38424.57
501.14	39002.69
501.32	38923.11
501.49	38733.53
501.67	39014.39
501.84	39461.43
502.02	39199.29
502.20	38864.60
502.37	39194.61
502.55	39447.39
502.72	39185.25
502.90	39768.04
503.07	39646.33
503.25	39917.84
503.43	40130.83
503.60	40158.91
503.78	40245.51
503.95	40877.46
504.13	40577.87
504.30	40577.87
504.48	40818.94
504.65	41151.30
504.83	41060.02
505.01	41401.74
505.18	41460.25
505.36	41427.48
505.53	41432.16
505.71	41748.14
505.88	41942.40
506.06	41881.55
506.23	41537.49
506.41	42115.60
506.58	41823.03
506.76	42382.42
506.93	43063.52
507.11	41907.29
507.28	42557.96
507.46	42756.91
507.63	43297.57
507.81	43208.63
507.98	42927.77
508.16	43758.66
508.33	42960.53
508.50	43807.81
508.68	43690.78
508.85	44369.54
509.03	44147.18
509.20	44072.29
509.38	44481.88
509.55	44285.28
509.73	45130.21
509.90	44861.05
510.08	45064.67
510.25	44683.17
510.42	44488.90
510.60	45057.65
510.77	45528.10
510.95	45698.96
511.12	45291.71
511.30	45354.90
511.47	45488.31
511.64	45574.91
511.82	46153.02
511.99	45429.80
512.17	46403.46
512.34	45811.31
512.51	46377.72
512.69	46429.21
512.86	46487.72
513.04	46789.65
513.21	46625.81
513.38	46852.84
513.56	47054.13
513.73	46665.60
513.90	47065.83
514.08	47173.50
514.25	47442.66
514.43	47461.38
514.60	47686.07
514.77	47459.04
514.95	47924.81
515.12	47859.27
515.29	47721.18
515.47	47999.71
515.64	48292.27
515.81	48119.07
515.99	48112.05
516.16	48973.37
516.33	48020.77
516.51	48699.53
516.68	48631.65
516.85	48584.84
517.03	49188.70
517.20	49090.40
517.37	48992.09
517.54	49347.86
517.72	48973.37
517.89	49219.13
518.06	49546.80
518.24	49214.44
518.41	49169.97
518.58	49570.21
518.75	49584.25
518.93	49712.98
519.10	49862.77
519.27	49996.18
519.45	49720.00
519.62	49935.33
519.79	49743.41
519.96	50227.90
520.14	50223.22
520.31	50321.52
520.48	50480.67
520.65	50475.99
520.83	50548.55
521.00	50869.20
521.17	50897.29
521.34	50471.31
521.52	51026.02
521.69	50988.57
521.86	51138.36
522.03	51239.01
522.20	51686.05
522.38	51917.76
522.55	51515.19
522.72	51508.17
522.89	51531.57
523.07	51831.16
523.24	51803.08
523.41	51578.39
523.58	51611.15
523.75	52320.34
523.92	51924.78
524.10	52090.96
524.27	52353.10
524.44	52280.55
524.61	52112.03
524.78	52411.62
524.96	52282.89
525.13	52514.60
525.30	52547.37
525.47	52807.17
525.64	52746.31
525.81	52643.33
525.98	53008.45
526.16	52809.51
526.33	52816.53
526.50	53052.92
526.67	52861.00
526.84	53076.33
527.01	53350.17
527.18	52956.96
527.36	53109.10
527.53	53078.67
527.70	53366.55
527.87	53570.18
528.04	53155.91
528.21	53570.18
528.38	53247.19
528.55	53900.20
528.72	53436.77
528.89	53776.15
529.07	53478.90
529.24	53727.00
529.41	53996.16
529.58	53886.15
529.75	53818.28
529.92	53731.68
530.09	54021.90
530.26	54265.32
530.43	54237.23
530.60	53785.51
530.77	54162.34
530.94	54380.01
531.11	54026.59
531.28	54447.88
531.46	54284.04
531.63	54567.25
531.80	54625.76
531.97	54487.67
532.14	54667.89
532.31	54553.21
532.48	54761.51
532.65	55077.49
532.82	54740.45
532.99	54864.50
533.16	54897.27
533.33	54988.55
533.50	54946.42
533.67	54707.68
533.84	54906.63
534.01	55004.93
534.18	54878.54
534.35	55365.37
534.52	55348.99
534.69	55491.76
534.86	55348.99
535.03	54953.44
535.20	55522.19
535.37	55412.18
535.54	55812.41
535.71	55470.70
535.88	55524.53
536.05	55798.37
536.22	55718.79
536.38	55765.60
536.55	55742.20
536.72	55908.38
536.89	55636.87
537.06	55772.63
537.23	55978.59
537.40	55821.78
537.57	55828.80
537.74	55749.22
537.91	56257.12
538.08	55938.80
538.25	55819.44
538.42	56025.40
538.59	56252.44
538.75	55882.63
538.92	55964.55
539.09	56226.69
539.26	56186.90
539.43	56137.75
539.60	56395.21
539.77	56336.69
539.94	56612.88
540.11	56388.19
540.28	56533.30
540.44	56411.59
540.61	56364.78
540.78	56535.64
540.95	56629.26
541.12	56580.11
541.29	56470.11
541.46	56837.57
541.62	56519.26
541.79	56573.09
541.96	56444.36
542.13	56903.10
542.30	56811.82
542.47	56945.23
542.63	56814.16
542.80	57158.22
542.97	57169.93
543.14	57375.89
543.31	57179.29
543.48	57265.89
543.64	57696.55
543.81	57389.94
543.98	57418.02
544.15	57406.32
544.32	57703.57
544.48	57717.61
544.65	57432.07
544.82	57462.49
544.99	57418.02
545.16	57605.26
545.32	57352.49
545.49	57827.62
545.66	57853.36
545.83	57731.65
546.00	57888.47
546.16	57614.63
546.33	57560.79
546.50	57488.24
546.67	57776.12
546.83	57453.13
547.00	57806.55
547.17	57867.40
547.34	58026.56
547.50	57951.66
547.67	58279.34
547.84	58150.61
548.00	58080.39
548.17	58265.30
548.34	58188.06
548.51	58398.71
548.67	58312.11
548.84	58405.73
549.01	58234.87
549.18	58295.72
549.34	58405.73
549.51	58337.85
549.68	58560.20
549.84	58548.50
550.01	58679.57
550.18	58426.79
550.34	58492.33
550.51	58714.68
550.68	58487.65
550.84	58649.14
551.01	58653.82
551.18	58724.04
551.34	58644.46
551.51	58536.80
551.68	58836.39
551.84	58848.09
552.01	58553.18
552.18	58763.83
552.34	58539.14
552.51	58855.11
552.68	58700.64
552.84	58590.63
553.01	59072.78
553.18	58932.35
553.34	58997.88
553.51	58754.47
553.67	59056.40
553.84	59124.27
554.01	59100.87
554.17	59009.59
554.34	59028.31
554.51	59168.74
554.67	59224.92
554.84	59398.12
555.00	59082.14
555.17	58958.09
555.33	59157.04
555.50	58976.82
555.67	59096.19
555.83	59456.63
556.00	59243.64
556.16	59739.83
556.33	59590.04
556.50	59264.70
556.66	59309.18
556.83	59365.35
556.99	59374.71
557.16	59625.15
557.32	59447.27
557.49	59842.82
557.65	59477.69
557.82	59543.23
557.98	59414.50
558.15	59531.53
558.32	59671.96
558.48	59458.97
558.65	59709.41
558.81	59508.12
558.98	59793.67
559.14	59744.51
559.31	59913.03
559.47	59803.03
559.64	59994.95
559.80	59966.87
559.97	60011.34
560.13	59695.36
560.30	59983.25
560.46	59788.98
560.63	59891.97
560.79	60020.70
560.96	60020.70
561.12	59779.62
561.29	59746.86
561.45	59929.42
561.61	59875.58
561.78	60055.81
561.94	59896.65
562.11	59854.52
562.27	60200.92
562.44	59997.29
562.60	60247.73
562.77	60355.39
562.93	59936.44
563.10	60144.75
563.26	59920.05
563.42	60331.99
563.59	60177.51
563.75	60144.75
563.92	60224.32
564.08	60257.09
564.24	60336.67
564.41	60360.08
564.57	60238.37
564.74	60266.45
564.90	60254.75
565.07	60317.95
565.23	60147.09
565.39	60119.00
565.56	60214.96
565.72	60137.72
565.88	60217.30
566.05	60371.78
566.21	60224.32
566.38	60481.78
566.54	60402.21
566.70	60434.97
566.87	60481.78
567.03	60196.24
567.19	60491.15
567.36	60427.95
567.52	60402.21
567.68	60605.83
567.85	60484.12
568.01	60467.74
568.17	60212.62
568.34	60573.06
568.50	60568.38
568.66	60353.05
568.83	60624.56
568.99	60336.67
569.15	60687.75
569.32	60662.00
569.48	60507.53
569.64	60598.81
569.81	60612.85
569.97	60409.23
570.13	60601.15
570.30	60540.30
570.46	60575.40
570.62	60772.01
570.78	60554.34
570.95	60678.39
571.11	60577.75
571.27	60657.32
571.43	60598.81
571.60	60851.59
571.76	60654.98
571.92	60729.88
572.09	60816.48
572.25	60750.94
572.41	60725.20
572.57	60683.07
572.74	60992.02
572.90	60605.83
573.06	60959.25
573.22	60746.26
573.38	60872.65
573.55	60764.99
573.71	60933.51
573.87	60821.16
574.03	60472.42
574.20	61041.17
574.36	60587.11
574.52	60828.18
574.68	61001.38
574.84	60959.25
575.01	60896.06
575.17	60853.93
575.33	60999.04
575.49	60818.82
575.65	60949.89
575.82	60839.89
575.98	60982.66
576.14	60886.70
576.30	60931.17
576.46	60982.66
576.62	60814.14
576.79	60853.93
576.95	60722.86
577.11	60884.36
577.27	60945.21
577.43	61015.43
577.59	60886.70
577.75	60559.02
577.92	60811.80
578.08	60863.29
578.24	61095.00
578.40	61125.43
578.56	60851.59
578.72	61029.47
578.88	61027.13
579.04	61036.49
579.21	60980.32
579.37	61162.88
579.53	61024.79
579.69	60889.04
579.85	60970.96
580.01	61073.94
580.17	60867.97
580.33	61291.61
580.49	61169.90
580.65	60992.02
580.82	60977.98
580.98	61059.90
581.14	60818.82
581.30	60982.66
581.46	61010.74
581.62	61043.51
581.78	61001.38
581.94	61073.94
582.10	60914.78
582.26	60830.52
582.42	60949.89
582.58	60870.31
582.74	60945.21
582.90	60959.25
583.06	61041.17
583.22	60846.91
583.38	60952.23
583.54	61202.67
583.70	61148.84
583.86	61083.30
584.02	60851.59
584.18	61202.67
584.34	61233.10
584.50	61179.26
584.66	60851.59
584.82	60837.54
584.98	61134.79
585.14	61174.58
585.30	61036.49
585.46	61034.15
585.62	61038.83
585.78	61052.87
585.94	60956.91
586.10	61048.19
586.26	60921.80
586.42	61132.45
586.58	61050.53
586.74	61216.71
586.90	61048.19
587.06	61034.15
587.22	61237.78
587.38	61097.34
587.54	61146.50
587.70	61481.19
587.86	60963.93
588.02	61413.32
588.18	61425.02
588.34	61230.75
588.49	61078.62
