SpectraSuite Data File
++++++++++++++++++++++++++++++++++++
Date: Fri Oct 25 10:44:53 EDT 2013
User: price-jones
Dark Spectrum Present: No
Reference Spectrum Present: No
Number of Sampled Component Spectra: 1
Spectrometers: USB2+H05261
Integration Time (usec): 100000 (USB2+H05261)
Spectra Averaged: 1 (USB2+H05261)
Boxcar Smoothing: 0 (USB2+H05261)
Correct for Electrical Dark: No (USB2+H05261)
Strobe/Lamp Enabled: No (USB2+H05261)
Correct for Detector Non-linearity: No (USB2+H05261)
Correct for Stray Light: No (USB2+H05261)
Number of Pixels in Processed Spectrum: 2048
>>>>>Begin Processed Spectral Data<<<<<
365.73	161.50
365.92	161.50
366.12	161.50
366.32	53.83
366.52	14.04
366.72	102.98
366.91	2.34
367.11	0.00
367.31	70.22
367.51	28.09
367.70	21.06
367.90	0.00
368.10	0.00
368.30	49.15
368.49	0.00
368.69	88.94
368.89	56.17
369.09	49.15
369.28	0.00
369.48	23.41
369.68	79.58
369.87	79.58
370.07	84.26
370.27	93.62
370.47	177.88
370.66	362.78
370.86	425.98
371.06	407.25
371.25	477.47
371.45	395.55
371.65	491.51
371.84	465.77
372.04	437.68
372.24	477.47
372.44	433.00
372.63	484.49
372.83	486.83
373.03	489.17
373.22	472.79
373.42	484.49
373.62	489.17
373.81	463.43
374.01	540.66
374.21	538.32
374.40	543.00
374.60	491.51
374.79	517.26
374.99	545.34
375.19	500.87
375.38	606.20
375.58	613.22
375.78	585.13
375.97	493.85
376.17	664.71
376.37	557.05
376.56	716.20
376.76	463.43
376.95	617.90
377.15	599.18
377.35	631.94
377.54	620.24
377.74	589.82
377.93	582.79
378.13	559.39
378.33	610.88
378.52	603.86
378.72	641.31
378.91	615.56
379.11	547.69
379.31	575.77
379.50	493.85
379.70	571.09
379.89	634.29
380.09	697.48
380.28	575.77
380.48	690.46
380.68	610.88
380.87	645.99
381.07	603.86
381.26	645.99
381.46	699.82
381.65	634.29
381.85	631.94
382.04	585.13
382.24	713.86
382.43	641.31
382.63	681.10
382.83	711.52
383.02	755.99
383.22	718.54
383.41	671.73
383.61	732.59
383.80	720.88
384.00	734.93
384.19	720.88
384.39	723.23
384.58	674.07
384.78	777.06
384.97	786.42
385.17	711.52
385.36	758.33
385.56	798.12
385.75	788.76
385.95	725.57
386.14	784.08
386.34	821.53
386.53	795.78
386.72	821.53
386.92	828.55
387.11	711.52
387.31	793.44
387.50	688.12
387.70	711.52
387.89	842.59
388.09	847.27
388.28	884.72
388.48	781.74
388.67	816.85
388.86	786.42
389.06	866.00
389.25	947.92
389.45	877.70
389.64	966.64
389.84	929.19
390.03	887.06
390.22	875.36
390.42	894.08
390.61	929.19
390.81	884.72
391.00	922.17
391.19	994.73
391.39	987.71
391.58	985.37
391.78	866.00
391.97	957.28
392.16	1050.90
392.36	983.02
392.55	917.49
392.75	924.51
392.94	917.49
393.13	1018.13
393.33	973.66
393.52	950.26
393.71	1027.50
393.91	1053.24
394.10	1032.18
394.29	980.68
394.49	1095.37
394.68	1046.22
394.88	1076.65
395.07	1083.67
395.26	1231.12
395.46	1069.62
395.65	1174.95
395.84	1118.78
396.04	1128.14
396.23	1144.52
396.42	1142.18
396.62	1172.61
396.81	1076.65
397.00	1055.58
397.19	1142.18
397.39	1064.94
397.58	1242.82
397.77	1193.67
397.97	1273.25
398.16	1261.55
398.35	1275.59
398.55	1210.06
398.74	1231.12
398.93	1238.14
399.12	1341.13
399.32	1249.85
399.51	1331.76
399.70	1451.13
399.90	1437.09
400.09	1373.89
400.28	1362.19
400.47	1371.55
400.67	1472.20
400.86	1502.62
401.05	1483.90
401.24	1488.58
401.44	1416.02
401.63	1537.73
401.82	1453.47
402.01	1558.80
402.21	1554.12
402.40	1598.59
402.59	1547.09
402.78	1519.01
402.97	1603.27
403.17	1582.20
403.36	1624.33
403.55	1626.67
403.74	1563.48
403.93	1739.02
404.13	1682.85
404.32	1612.63
404.51	1741.36
404.70	1687.53
404.89	1696.89
405.09	1846.68
405.28	1673.48
405.47	1717.95
405.66	1771.79
405.85	1806.89
406.05	1799.87
406.24	1760.08
406.43	1785.83
406.62	1930.94
406.81	1827.96
407.00	1722.63
407.20	1750.72
407.39	1839.66
407.58	1823.28
407.77	1874.77
407.96	1977.75
408.15	1912.22
408.34	1884.13
408.54	2015.20
408.73	1923.92
408.92	1987.11
409.11	1987.11
409.30	2090.10
409.49	2078.40
409.68	2019.88
409.87	1989.46
410.07	2054.99
410.26	2097.12
410.45	2073.71
410.64	2073.71
410.83	2251.60
411.02	2244.57
411.21	2272.66
411.40	2223.51
411.59	2314.79
411.78	2317.13
411.98	2235.21
412.17	2230.53
412.36	2422.45
412.55	2525.44
412.74	2399.05
412.93	2457.56
413.12	2387.35
413.31	2602.68
413.50	2457.56
413.69	2670.55
413.88	2567.57
414.07	2534.80
414.26	2530.12
414.45	2633.10
414.64	2597.99
414.83	2651.83
415.02	2595.65
415.22	2675.23
415.41	2820.35
415.60	2815.66
415.79	2867.16
415.98	2881.20
416.17	2829.71
416.36	2963.12
416.55	2829.71
416.74	2864.82
416.93	2829.71
417.12	2885.88
417.31	2944.39
417.50	3038.02
417.69	3255.69
417.88	3070.78
418.07	3066.10
418.26	2993.55
418.45	3145.68
418.64	3279.09
418.83	3304.84
419.02	3180.79
419.21	3293.13
419.39	3351.65
419.58	3307.18
419.77	3206.53
419.96	3290.79
420.15	3272.07
420.34	3361.01
420.53	3300.16
420.72	3382.07
420.91	3243.98
421.10	3372.71
421.29	3463.99
421.48	3370.37
421.67	3407.82
421.86	3300.16
422.05	3363.35
422.24	3485.06
422.43	3510.80
422.61	3506.12
422.80	3599.74
422.99	3506.12
423.18	3562.30
423.37	3473.36
423.56	3323.56
423.75	3721.45
423.94	3543.57
424.13	3276.75
424.32	3346.97
424.50	3538.89
424.69	3555.27
424.88	3634.85
425.07	3550.59
425.26	3651.24
425.45	3585.70
425.64	3363.35
425.83	3578.68
426.01	3637.19
426.20	3590.38
426.39	3719.11
426.58	3772.94
426.77	3538.89
426.96	3602.08
427.15	3548.25
427.33	3716.77
427.52	3770.60
427.71	3772.94
427.90	3770.60
428.09	3770.60
428.28	3693.37
428.46	3784.65
428.65	3801.03
428.84	3997.64
429.03	4007.00
429.22	3770.60
429.40	3843.16
429.59	3838.48
429.78	3641.87
429.97	3777.62
430.16	3695.71
430.34	3786.99
430.53	3936.78
430.72	3882.95
430.91	4009.34
431.10	4035.08
431.28	4091.26
431.47	4051.47
431.66	4037.42
431.85	4065.51
432.03	4262.12
432.22	4278.50
432.41	4238.71
432.60	4301.90
432.79	4161.47
432.97	4308.93
433.16	4322.97
433.35	4236.37
433.54	4301.90
433.72	4379.14
433.91	4145.09
434.10	4252.75
434.28	4337.01
434.47	4409.57
434.66	4503.19
434.85	4421.27
435.03	4449.36
435.22	4379.14
435.41	4559.36
435.59	4592.13
435.78	4601.49
435.97	4634.26
436.16	4655.33
436.34	4500.85
436.53	4568.73
436.72	4678.73
436.90	4615.54
437.09	4638.94
437.28	4634.26
437.46	4718.52
437.65	4706.82
437.84	4767.67
438.02	4716.18
438.21	4723.20
438.40	4739.58
438.58	4833.21
438.77	4786.40
438.96	4725.54
439.14	5118.75
439.33	5004.07
439.52	5060.24
439.70	5022.79
439.89	5144.50
440.08	5135.14
440.26	5203.01
440.45	5109.39
440.63	5261.52
440.82	5385.57
441.01	5514.30
441.19	5434.72
441.38	5430.04
441.57	5399.62
441.75	5612.60
441.94	5659.42
442.12	5579.84
442.31	5706.23
442.50	5790.49
442.68	5605.58
442.87	5724.95
443.05	5696.86
443.24	5795.17
443.43	5743.67
443.61	5605.58
443.80	5881.77
443.98	5743.67
444.17	5540.05
444.35	5830.27
444.54	5731.97
444.73	5926.24
444.91	5949.64
445.10	6080.71
445.28	5874.74
445.47	5647.71
445.65	5865.38
445.84	5933.26
446.02	5940.28
446.21	6005.81
446.39	5909.85
446.58	6050.28
446.77	6022.20
446.95	5846.66
447.14	6064.33
447.32	6076.03
447.51	5813.89
447.69	6045.60
447.88	6155.61
448.06	6017.52
448.25	6033.90
448.43	6167.31
448.62	6069.01
448.80	6076.03
448.99	6115.82
449.17	6239.87
449.36	6064.33
449.54	6417.75
449.73	6424.77
449.91	6436.47
450.10	6408.39
450.28	6438.81
450.46	6408.39
450.65	6473.92
450.83	6579.25
451.02	6532.44
451.20	6509.03
451.39	6537.12
451.57	6410.73
451.76	6331.15
451.94	6602.65
452.13	6635.42
452.31	6289.02
452.49	6497.33
452.68	6366.26
452.86	6675.21
453.05	6569.88
453.23	6579.25
453.42	6637.76
453.60	6616.69
453.78	6548.82
453.97	6822.66
454.15	6764.15
454.34	6862.45
454.52	6761.81
454.70	6761.81
454.89	6864.79
455.07	6717.34
455.26	6773.51
455.44	7068.42
455.62	6923.30
455.81	6766.49
455.99	7131.61
456.17	7124.59
456.36	7094.16
456.54	7213.53
456.73	7075.44
456.91	7290.77
457.09	7243.96
457.28	7356.30
457.46	7295.45
457.64	7346.94
457.83	7342.26
458.01	7166.72
458.19	7454.61
458.38	7293.11
458.56	7543.55
458.74	7368.01
458.93	7372.69
459.11	7463.97
459.29	7419.50
459.48	7705.04
459.66	7360.98
459.84	7499.08
460.03	7705.04
460.21	7768.24
460.39	7665.25
460.57	7688.66
460.76	7803.35
460.94	7920.37
461.12	7946.12
461.31	7768.24
461.49	7658.23
461.67	7817.39
461.85	8072.51
462.04	7859.52
462.22	8269.11
462.40	8016.33
462.59	7817.39
462.77	8016.33
462.95	7981.23
463.13	7908.67
463.32	7911.01
463.50	7964.84
463.68	8491.46
463.86	8248.05
464.05	8102.93
464.23	7992.93
464.41	8212.94
464.59	7911.01
464.78	8290.18
464.96	8362.73
465.14	8205.92
465.32	8224.64
465.50	8400.18
465.69	8608.49
465.87	8320.60
466.05	8238.69
466.23	8493.80
466.41	8311.24
466.60	8526.57
466.78	8486.78
466.96	8505.51
467.14	8320.60
467.32	8549.98
467.51	8610.83
467.69	8362.73
467.87	8423.59
468.05	8599.13
468.23	8657.64
468.41	8407.20
468.60	8706.79
468.78	8578.06
468.96	8631.90
469.14	8727.86
469.32	8922.12
469.50	8596.79
469.69	8961.91
469.87	8975.95
470.05	9050.85
470.23	8966.59
470.41	9034.47
470.59	9057.87
470.77	8975.95
470.95	8936.17
471.14	9149.15
471.32	9055.53
471.50	9324.69
471.68	9369.16
471.86	9650.03
472.04	9385.55
472.22	9802.16
472.40	9399.59
472.58	9411.29
472.77	9507.26
472.95	9781.10
473.13	9926.21
473.31	9614.92
473.49	9577.47
473.67	9584.49
473.85	9603.22
474.03	9769.40
474.21	9947.28
474.39	10183.67
474.57	10038.56
474.75	10132.18
474.93	10230.48
475.12	10008.13
475.30	10022.17
475.48	10139.20
475.66	10333.47
475.84	10125.16
476.02	10375.59
476.20	10471.56
476.38	10560.50
476.56	10822.64
476.74	10808.59
476.92	10703.27
477.10	10860.09
477.28	10939.66
477.46	10979.45
477.64	11066.05
477.82	11063.71
478.00	11372.66
478.18	11433.52
478.36	11234.57
478.54	11742.47
478.72	11620.76
478.90	11721.40
479.08	11817.36
479.26	11936.73
479.44	12138.02
479.62	12037.38
479.80	11932.05
479.98	12353.35
480.16	12468.03
480.34	12285.47
480.52	12521.87
480.70	12524.21
480.88	12208.23
481.06	12526.55
481.24	12613.15
481.41	12697.41
481.59	12847.20
481.77	13064.87
481.95	13144.45
482.13	13394.89
482.31	13043.81
482.49	13851.29
482.67	13582.13
482.85	13565.74
483.03	13734.26
483.21	13872.36
483.39	13977.68
483.57	13954.27
483.74	14164.92
483.92	14244.50
484.10	14492.60
484.28	14459.83
484.46	14508.98
484.64	15169.01
484.82	14658.78
485.00	14939.64
485.18	15026.24
485.35	15218.16
485.53	15147.95
485.71	15000.49
485.89	15283.70
486.07	15396.04
486.25	15353.91
486.43	15616.05
486.61	15719.04
486.78	15861.81
486.96	15798.62
487.14	16332.26
487.32	16313.53
487.50	16779.30
487.68	16484.39
487.85	16737.17
488.03	16889.31
488.21	17198.26
488.39	17249.75
488.57	17163.15
488.75	17289.54
488.92	17605.51
489.10	17769.35
489.28	17909.78
489.46	17921.48
489.64	17860.63
489.81	18487.89
489.99	18420.02
490.17	18251.50
490.35	18658.75
490.53	18595.56
490.70	18651.73
490.88	18712.58
491.06	18981.74
491.24	19243.88
491.41	19012.17
491.59	19304.74
491.77	19194.73
491.95	19276.65
492.13	19967.11
492.30	19644.12
492.48	20112.22
492.66	19934.34
492.84	20018.60
493.01	20341.60
493.19	20219.89
493.37	20418.83
493.54	20741.83
493.72	20746.51
493.90	20697.36
494.08	20772.25
494.25	21200.57
494.43	21048.44
494.61	21530.59
494.79	21610.17
494.96	21542.29
495.14	21661.66
495.32	21621.87
495.49	21923.80
495.67	22036.14
495.85	22059.55
496.02	22466.80
496.20	22436.38
496.38	22530.00
496.55	22548.72
496.73	23080.02
496.91	22471.48
497.09	22848.31
497.26	22988.74
497.44	23185.35
497.62	23433.44
497.79	23222.80
497.97	23271.95
498.14	23300.03
498.32	23496.64
498.50	23915.59
498.67	23889.85
498.85	24217.52
499.03	24116.88
499.20	24215.18
499.38	24261.99
499.56	24290.08
499.73	24507.75
499.91	24774.57
500.08	24692.65
500.26	24130.92
500.44	24503.07
500.61	24622.44
500.79	24718.40
500.97	25097.56
501.14	25256.72
501.32	25006.28
501.49	25062.46
501.67	25242.68
501.84	25523.54
502.02	25500.14
502.20	25804.41
502.37	25853.56
502.55	25455.67
502.72	25933.14
502.90	26078.25
503.07	25881.64
503.25	26314.64
503.43	25944.84
503.60	26410.60
503.78	26380.18
503.95	26415.29
504.13	26459.76
504.30	26609.55
504.48	26338.05
504.65	26953.61
504.83	26904.46
505.01	27157.24
505.18	26714.87
505.36	27353.84
505.53	27283.62
505.71	27608.96
505.88	27569.17
506.06	27686.20
506.23	27566.83
506.41	27623.00
506.58	27634.71
506.76	27424.06
506.93	27992.81
507.11	27859.40
507.28	28355.59
507.46	27976.42
507.63	27922.59
507.81	27936.63
507.98	27955.36
508.16	28327.50
508.33	28606.03
508.50	28549.85
508.68	28793.27
508.85	29067.11
509.03	28685.61
509.20	28830.72
509.38	28936.04
509.55	29006.26
509.73	29205.20
509.90	29158.39
510.08	29214.57
510.25	29132.65
510.42	29432.24
510.60	29741.19
510.77	29654.59
510.95	29900.34
511.12	29844.17
511.30	30003.33
511.47	30122.69
511.64	30190.57
511.82	30206.95
511.99	29996.31
512.17	30225.68
512.34	29876.94
512.51	30984.01
512.69	30876.35
512.86	30497.18
513.04	30717.19
513.21	30408.24
513.38	30497.18
513.56	30628.25
513.73	30724.21
513.90	30869.33
514.08	31189.98
514.25	30984.01
514.43	31325.73
514.60	30579.10
514.77	31208.70
514.95	31597.23
515.12	31620.64
515.29	31503.61
515.47	31906.18
515.64	31583.19
515.81	31480.21
515.99	32051.30
516.16	31800.86
516.33	31711.92
516.51	31969.38
516.68	31634.68
516.85	31688.51
517.03	31576.17
517.20	32020.87
517.37	32182.37
517.54	32491.32
517.72	32013.85
517.89	31952.99
518.06	32535.79
518.24	32020.87
518.41	32140.24
518.58	32201.09
518.75	32453.87
518.93	32631.75
519.10	32636.43
519.27	32472.59
519.45	33067.09
519.62	32858.78
519.79	32889.21
519.96	32954.74
520.14	33806.70
520.31	33053.05
520.48	33523.49
520.65	33294.12
520.83	33251.99
521.00	33652.22
521.17	33579.67
521.34	33930.75
521.52	33450.94
521.69	33336.25
521.86	33853.51
522.03	34167.14
522.20	34082.88
522.38	34522.90
522.55	34015.01
522.72	34218.63
522.89	33979.90
523.07	34527.58
523.24	34595.46
523.41	34682.06
523.58	34602.48
523.75	34962.92
523.92	35164.21
524.10	34909.09
524.27	34693.76
524.44	34841.21
524.61	35089.31
524.78	35321.02
524.96	34986.33
525.13	35269.53
525.30	35608.91
525.47	35384.22
525.64	35796.15
525.81	35473.16
525.98	35395.92
526.16	35426.35
526.33	35229.74
526.50	35445.07
526.67	35613.59
526.84	35019.10
527.01	35576.14
527.18	35569.12
527.36	36229.15
527.53	36184.68
527.70	36378.95
527.87	36074.68
528.04	35976.37
528.21	36020.84
528.38	36020.84
528.55	36776.84
528.72	36825.99
528.89	36879.82
529.07	36507.68
529.24	36500.65
529.41	36781.52
529.58	36533.42
529.75	36512.36
529.92	36596.62
530.09	36598.96
530.26	36914.93
530.43	37022.59
530.60	36837.69
530.77	36788.54
530.94	37099.83
531.11	36921.95
531.28	37010.89
531.46	37422.83
531.63	37160.69
531.80	36910.25
531.97	37095.15
532.14	37258.99
532.31	37184.09
532.48	37734.12
532.65	37680.28
532.82	37479.00
532.99	37691.99
533.16	37504.74
533.33	37893.27
533.50	37907.32
533.67	37787.95
533.84	37701.35
534.01	37811.35
534.18	37509.43
534.35	38206.90
534.52	37771.57
534.69	38323.93
534.86	38270.10
535.03	38141.37
535.20	38396.49
535.37	38450.32
535.54	38597.77
535.71	38326.27
535.88	39035.45
536.05	38230.31
536.22	38665.65
536.38	38717.14
536.55	38670.33
536.72	38567.35
536.89	38611.82
537.06	38693.74
537.23	38499.47
537.40	38738.21
537.57	38796.72
537.74	38820.13
537.91	38768.63
538.08	38813.10
538.25	38651.61
538.42	38967.58
538.59	39302.28
538.75	39049.50
538.92	39136.10
539.09	38983.96
539.26	38930.13
539.43	39220.36
539.60	39407.60
539.77	39154.82
539.94	39047.16
540.11	38986.30
540.28	39765.70
540.44	39459.09
540.61	39264.83
540.78	39061.20
540.95	39550.37
541.12	39878.05
541.29	39688.46
541.46	39742.30
541.62	39679.10
541.79	40002.10
541.96	39686.12
542.13	39573.78
542.30	39779.74
542.47	39728.25
542.63	39718.89
542.80	39756.34
542.97	40212.74
543.14	40554.46
543.31	40524.04
543.48	40582.55
543.64	40910.22
543.81	40968.74
543.98	40603.61
544.15	40790.86
544.32	40847.03
544.48	41249.60
544.65	41013.21
544.82	40439.78
544.99	40706.60
545.16	41467.27
545.32	40566.16
545.49	41195.77
545.66	41053.00
545.83	41205.13
546.00	41170.02
546.16	41090.44
546.33	40657.45
546.50	41067.04
546.67	40935.97
546.83	40877.46
547.00	40961.72
547.17	41055.34
547.34	40999.16
547.50	41289.39
547.67	41455.57
547.84	41516.42
548.00	41600.68
548.17	41624.09
548.34	41439.18
548.51	41958.78
548.67	41617.07
548.84	41439.18
549.01	41722.39
549.18	41914.31
549.34	41694.30
549.51	41949.42
549.68	41837.08
549.84	41762.18
550.01	42026.66
550.18	41766.86
550.34	41640.47
550.51	41743.45
550.68	41741.11
550.84	41303.43
551.01	42047.72
551.18	42176.45
551.34	42216.24
551.51	42124.96
551.68	42040.70
551.84	42094.53
552.01	41710.69
552.18	42024.32
552.34	42117.94
552.51	41958.78
552.68	41911.97
552.84	42225.60
553.01	42864.57
553.18	42176.45
553.34	42277.10
553.51	42241.99
553.67	42160.07
553.84	42682.01
554.01	42389.44
554.17	42520.51
554.34	43054.15
554.51	42932.45
554.67	42941.81
554.84	42792.01
555.00	42806.06
555.17	42660.94
555.33	42787.33
555.50	42494.77
555.67	42522.85
555.83	42609.45
556.00	43367.79
556.16	43358.42
556.33	42857.55
556.50	42958.19
556.66	43236.72
556.83	42726.48
556.99	42930.11
557.16	43395.87
557.32	42969.90
557.49	43166.50
557.65	43154.80
557.82	43199.27
557.98	43241.40
558.15	43391.19
558.32	43576.09
558.48	43311.61
558.65	43037.77
558.81	42988.62
558.98	43098.62
559.14	43005.00
559.31	42937.13
559.47	43344.38
559.64	43501.20
559.80	43601.84
559.97	43360.76
560.13	43220.33
560.30	43391.19
560.46	43548.01
560.63	43562.05
560.79	43840.57
560.96	43885.04
561.12	43739.93
561.29	43601.84
561.45	43679.08
561.61	43676.74
561.78	43737.59
561.94	43552.69
562.11	43564.39
562.27	43381.83
562.44	43449.70
562.60	43761.00
562.77	43552.69
562.93	43524.60
563.10	43529.28
563.26	43358.42
563.42	44095.69
563.59	43618.22
563.75	43650.99
563.92	43723.55
564.08	44002.07
564.24	43796.10
564.41	43929.51
564.57	43988.03
564.74	44264.21
564.90	44170.59
565.07	44259.53
565.23	43849.94
565.39	44032.50
565.56	44069.95
565.72	43833.55
565.88	44105.06
566.05	44060.58
566.21	44088.67
566.38	43583.12
566.54	43725.89
566.70	44430.39
566.87	44659.76
567.03	44196.34
567.19	44486.56
567.36	44102.71
567.52	43875.68
567.68	44694.87
567.85	44423.37
568.01	43889.73
568.17	44135.48
568.34	44182.29
568.50	43964.62
568.66	43988.03
568.83	44067.61
568.99	43784.40
569.15	43880.36
569.32	43936.54
569.48	44053.56
569.64	44280.60
569.81	44240.81
569.97	44172.93
570.13	44060.58
570.30	43990.37
570.46	43894.41
570.62	43985.69
570.78	43531.62
570.95	44186.97
571.11	44435.07
571.27	43917.81
571.43	43863.98
571.60	44367.20
571.76	43871.00
571.92	44315.70
572.09	43969.30
572.25	44374.22
572.41	44037.18
572.57	44601.25
572.74	44655.08
572.90	44488.90
573.06	44655.08
573.22	44210.38
573.38	44542.74
573.55	44006.75
573.71	44121.44
573.87	43742.27
574.03	44219.74
574.20	44051.22
574.36	44524.01
574.52	44027.82
574.68	43941.22
574.84	44250.17
575.01	44406.98
575.17	44144.84
575.33	44191.65
575.49	44086.33
575.65	44325.07
575.82	44449.11
575.98	44589.55
576.14	44460.82
576.30	44294.64
576.46	44437.41
576.62	44149.53
576.79	44151.87
576.95	43866.32
577.11	44505.29
577.27	44395.28
577.43	44392.94
577.59	44299.32
577.75	44144.84
577.92	44287.62
578.08	44598.91
578.24	43753.97
578.40	44648.06
578.56	44414.01
578.72	44325.07
578.88	44477.20
579.04	44659.76
579.21	44271.23
579.37	44580.18
579.53	44226.76
579.69	44133.14
579.85	44348.47
580.01	44699.55
580.17	44327.41
580.33	44954.67
580.49	44158.89
580.65	44549.76
580.82	44725.30
580.98	44006.75
581.14	44149.53
581.30	45034.25
581.46	44727.64
581.62	44762.75
581.78	44531.03
581.94	44879.77
582.10	44521.67
582.26	44968.71
582.42	44215.06
582.58	44144.84
582.74	44402.30
582.90	44594.23
583.06	44662.10
583.22	44715.93
583.38	44556.78
583.54	44854.03
583.70	44924.24
583.86	44275.91
584.02	44257.19
584.18	44842.32
584.34	44678.49
584.50	44921.90
584.66	44247.83
584.82	44479.54
584.98	44701.89
585.14	45043.61
585.30	44465.50
585.46	44708.91
585.62	44989.78
585.78	44411.67
585.94	44343.79
586.10	44989.78
586.26	44442.09
586.42	44458.48
586.58	45034.25
586.74	44582.52
586.90	44603.59
587.06	44636.36
587.22	44842.32
587.38	44376.56
587.54	44952.33
587.70	44521.67
587.86	44720.62
588.02	44718.28
588.18	44781.47
588.34	44804.88
588.49	44680.83
588.65	44226.76
588.81	44392.94
588.97	44598.91
589.13	43962.28
589.29	44739.34
589.45	44587.21
589.61	44535.71
589.77	44458.48
589.93	44919.56
590.08	44706.57
590.24	44961.69
590.40	44856.37
