SpectraSuite Data File
++++++++++++++++++++++++++++++++++++
Date: Fri Oct 25 10:48:20 EDT 2013
User: price-jones
Dark Spectrum Present: No
Reference Spectrum Present: No
Number of Sampled Component Spectra: 1
Spectrometers: USB2+H05261
Integration Time (usec): 100000 (USB2+H05261)
Spectra Averaged: 1 (USB2+H05261)
Boxcar Smoothing: 0 (USB2+H05261)
Correct for Electrical Dark: No (USB2+H05261)
Strobe/Lamp Enabled: No (USB2+H05261)
Correct for Detector Non-linearity: No (USB2+H05261)
Correct for Stray Light: No (USB2+H05261)
Number of Pixels in Processed Spectrum: 2048
>>>>>Begin Processed Spectral Data<<<<<
365.73	145.11
365.92	145.11
366.12	145.11
366.32	28.09
366.52	58.51
366.72	79.58
366.91	72.56
367.11	84.26
367.31	91.28
367.51	21.06
367.70	53.83
367.90	0.00
368.10	32.77
368.30	18.72
368.49	14.04
368.69	77.24
368.89	58.51
369.09	81.92
369.28	95.96
369.48	81.92
369.68	135.75
369.87	81.92
370.07	119.37
370.27	147.45
370.47	299.59
370.66	440.02
370.86	395.55
371.06	472.79
371.25	547.69
371.45	489.17
371.65	458.74
371.84	535.98
372.04	388.53
372.24	559.39
372.44	559.39
372.63	554.71
372.83	545.34
373.03	554.71
373.22	482.15
373.42	547.69
373.62	552.37
373.81	526.62
374.01	592.16
374.21	606.20
374.40	624.92
374.60	664.71
374.79	543.00
374.99	676.41
375.19	631.94
375.38	692.80
375.58	704.50
375.78	617.90
375.97	641.31
376.17	711.52
376.37	662.37
376.56	631.94
376.76	697.48
376.95	617.90
377.15	678.76
377.35	727.91
377.54	727.91
377.74	645.99
377.93	662.37
378.13	727.91
378.33	713.86
378.52	615.56
378.72	692.80
378.91	695.14
379.11	711.52
379.31	664.71
379.50	655.35
379.70	699.82
379.89	770.04
380.09	746.63
380.28	727.91
380.48	753.65
380.68	695.14
380.87	746.63
381.07	765.36
381.26	795.78
381.46	631.94
381.65	720.88
381.85	840.25
382.04	734.93
382.24	751.31
382.43	725.57
382.63	746.63
382.83	786.42
383.02	732.59
383.22	781.74
383.41	765.36
383.61	737.27
383.80	847.27
384.00	795.78
384.19	720.88
384.39	854.30
384.58	788.76
384.78	901.11
384.97	898.77
385.17	863.66
385.36	842.59
385.56	798.12
385.75	863.66
385.95	896.43
386.14	826.21
386.34	903.45
386.53	837.91
386.72	870.68
386.92	1011.11
387.11	987.71
387.31	1001.75
387.50	894.08
387.70	891.74
387.89	896.43
388.09	950.26
388.28	929.19
388.48	917.49
388.67	1062.60
388.86	1055.58
389.06	973.66
389.25	1041.54
389.45	987.71
389.64	1043.88
389.84	1022.81
390.03	1116.44
390.22	1029.84
390.42	1029.84
390.61	1104.73
390.81	1071.97
391.00	1062.60
391.19	1123.46
391.39	1076.65
391.58	1144.52
391.78	1076.65
391.97	1144.52
392.16	1069.62
392.36	1139.84
392.55	1095.37
392.75	1043.88
392.94	1036.86
393.13	997.07
393.33	990.05
393.52	1135.16
393.71	1149.20
393.91	1167.93
394.10	1212.40
394.29	1210.06
394.49	1188.99
394.68	1299.00
394.88	1268.57
395.07	1303.68
395.26	1287.29
395.46	1350.49
395.65	1306.02
395.84	1256.87
396.04	1240.48
396.23	1296.66
396.42	1256.87
396.62	1268.57
396.81	1350.49
397.00	1341.13
397.19	1266.23
397.39	1371.55
397.58	1483.90
397.77	1434.75
397.97	1495.60
398.16	1479.22
398.35	1603.27
398.55	1497.94
398.74	1533.05
398.93	1626.67
399.12	1561.14
399.32	1549.43
399.51	1673.48
399.70	1671.14
399.90	1654.76
400.09	1654.76
400.28	1743.70
400.47	1767.10
400.67	1764.76
400.86	1654.76
401.05	1818.60
401.24	1804.55
401.44	1844.34
401.63	1825.62
401.82	1710.93
402.01	1699.23
402.21	1832.64
402.40	1858.39
402.59	1867.75
402.78	1867.75
402.97	1816.26
403.17	1806.89
403.36	1839.66
403.55	1900.52
403.74	1921.58
403.93	2003.50
404.13	1891.15
404.32	1884.13
404.51	1989.46
404.70	2024.56
404.89	1926.26
405.09	2043.29
405.28	2106.48
405.47	2033.93
405.66	2183.72
405.85	2172.02
406.05	2015.20
406.24	2155.63
406.43	2078.40
406.62	2155.63
406.81	2312.45
407.00	2223.51
407.20	2092.44
407.39	2099.46
407.58	2202.44
407.77	2256.28
407.96	2305.43
408.15	2270.32
408.34	2326.49
408.54	2349.90
408.73	2368.62
408.92	2448.20
409.11	2359.26
409.30	2340.54
409.49	2424.80
409.68	2342.88
409.87	2373.30
410.07	2345.22
410.26	2450.54
410.45	2438.84
410.64	2525.44
410.83	2567.57
411.02	2691.62
411.21	2696.30
411.40	2717.36
411.59	2679.91
411.78	2754.81
411.98	2766.51
412.17	2754.81
412.36	2818.00
412.55	2923.33
412.74	2841.41
412.93	2717.36
413.12	2827.37
413.31	2892.90
413.50	2916.31
413.69	2918.65
413.88	3019.29
414.07	3035.67
414.26	3056.74
414.45	3108.23
414.64	3047.38
414.83	3035.67
415.02	3183.13
415.22	3325.90
415.41	3218.24
415.60	3288.45
415.79	3307.18
415.98	3307.18
416.17	3396.12
416.36	3438.25
416.55	3396.12
416.74	3351.65
416.93	3417.18
417.12	3538.89
417.31	3377.39
417.50	3433.57
417.69	3583.36
417.88	3520.17
418.07	3541.23
418.26	3545.91
418.45	3655.92
418.64	3723.79
418.83	3747.20
419.02	3751.88
419.21	3721.45
419.39	3726.13
419.58	3639.53
419.77	3606.77
419.96	3646.55
420.15	3906.35
420.34	3758.90
420.53	3904.01
420.72	4081.89
420.91	3908.69
421.10	3967.21
421.29	4105.30
421.48	3962.53
421.67	3913.38
421.86	3770.60
422.05	3922.74
422.24	3929.76
422.43	3971.89
422.61	3932.10
422.80	4018.70
422.99	3946.14
423.18	3988.27
423.37	4126.36
423.56	3999.98
423.75	4084.23
423.94	4131.05
424.13	3829.12
424.32	3946.14
424.50	4100.62
424.69	4250.41
424.88	4145.09
425.07	4018.70
425.26	4107.64
425.45	4135.73
425.64	4060.83
425.83	4016.36
426.01	4170.83
426.20	4046.79
426.39	4135.73
426.58	4053.81
426.77	4053.81
426.96	4131.05
427.15	4042.11
427.33	4149.77
427.52	4072.53
427.71	4252.75
427.90	4250.41
428.09	4231.69
428.28	4407.23
428.46	4325.31
428.65	4332.33
428.84	4447.02
429.03	4402.55
429.22	4269.14
429.40	4376.80
429.59	4224.67
429.78	4072.53
429.97	3976.57
430.16	4227.01
430.34	4189.56
430.53	4231.69
430.72	4234.03
430.91	4440.00
431.10	4461.06
431.28	4550.00
431.47	4835.55
431.66	4723.20
431.85	4681.07
432.03	4830.87
432.22	4762.99
432.41	4741.93
432.60	4868.31
432.79	4908.10
432.97	4851.93
433.16	4821.50
433.35	4744.27
433.54	4723.20
433.72	4793.42
433.91	4844.91
434.10	5018.11
434.28	4905.76
434.47	5078.96
434.66	5006.41
434.85	5123.43
435.03	5071.94
435.22	5210.03
435.41	5263.86
435.59	5245.14
435.78	5371.53
435.97	5408.98
436.16	5350.46
436.34	5408.98
436.53	5401.96
436.72	5526.00
436.90	5235.78
437.09	5373.87
437.28	5275.57
437.46	5380.89
437.65	5589.20
437.84	5521.32
438.02	5462.81
438.21	5296.63
438.40	5348.12
438.58	5624.31
438.77	5521.32
438.96	5703.89
439.14	5671.12
439.33	5771.76
439.52	5774.10
439.70	5685.16
439.89	5776.44
440.08	5827.93
440.26	5942.62
440.45	5863.04
440.63	6183.70
440.82	6143.91
441.01	6015.18
441.19	6249.23
441.38	6256.25
441.57	6284.34
441.75	6473.92
441.94	6448.18
442.12	6469.24
442.31	6642.44
442.50	6509.03
442.68	6600.31
442.87	6534.78
443.05	6532.44
443.24	6794.58
443.43	6775.85
443.61	6757.13
443.80	6857.77
443.98	6600.31
444.17	6382.64
444.35	6640.10
444.54	6724.36
444.73	6876.49
444.91	6810.96
445.10	6691.59
445.28	6619.04
445.47	6649.46
445.65	6654.14
445.84	6658.82
446.02	6888.20
446.21	6857.77
446.39	6848.41
446.58	6946.71
446.77	6890.54
446.95	6782.87
447.14	7047.35
447.32	7122.25
447.51	6883.52
447.69	6984.16
447.88	6951.39
448.06	6923.30
448.25	7089.48
448.43	7000.54
448.62	7012.24
448.80	7098.84
448.99	7162.04
449.17	7136.29
449.36	7159.70
449.54	7384.39
449.73	7265.02
449.91	7243.96
450.10	7346.94
450.28	7389.07
450.46	7391.41
450.65	7590.36
450.83	7435.88
451.02	7541.21
451.20	7616.10
451.39	7552.91
451.57	7456.95
451.76	7269.70
451.94	7524.82
452.13	7459.29
452.31	7353.96
452.49	7344.60
452.68	7468.65
452.86	7501.42
453.05	7620.78
453.23	7784.62
453.42	7522.48
453.60	7712.07
453.78	7709.72
453.97	7728.45
454.15	7761.22
454.34	7461.63
454.52	7751.85
454.70	7693.34
454.89	7880.58
455.07	7758.88
455.26	8039.74
455.44	7934.42
455.62	8056.12
455.81	8079.53
455.99	8140.38
456.17	7999.95
456.36	8198.90
456.54	8194.22
456.73	8177.83
456.91	8678.71
457.09	8517.21
457.28	8547.64
457.46	8292.52
457.64	8461.04
457.83	8402.52
458.01	8184.85
458.19	8587.43
458.38	8479.76
458.56	8545.30
458.74	8507.85
458.93	8489.12
459.11	8421.25
459.29	8727.86
459.48	8622.53
459.66	8624.87
459.84	8704.45
460.03	8908.08
460.21	8884.67
460.39	8718.50
460.57	8674.03
460.76	8961.91
460.94	8952.55
461.12	9078.94
461.31	9034.47
461.49	8966.59
461.67	8854.25
461.85	9102.34
462.04	9083.62
462.22	9748.33
462.40	9071.92
462.59	9153.84
462.77	9233.41
462.95	9128.09
463.13	9184.26
463.32	9315.33
463.50	9423.00
463.68	9324.69
463.86	9441.72
464.05	9069.58
464.23	9289.59
464.41	9291.93
464.59	9146.81
464.78	9458.10
464.96	9415.98
465.14	9472.15
465.32	9270.86
465.50	9703.86
465.69	9685.14
465.87	9582.15
466.05	9556.41
466.23	9533.00
466.41	9476.83
466.60	9776.42
466.78	9359.80
466.96	9462.79
467.14	9825.57
467.32	9863.02
467.51	9989.41
467.69	9554.07
467.87	9877.06
468.05	9989.41
468.23	9809.19
468.41	9839.61
468.60	9891.10
468.78	9996.43
468.96	9764.72
469.14	9914.51
469.32	10289.00
469.50	9844.29
469.69	10106.43
469.87	10064.30
470.05	10045.58
470.23	10094.73
470.41	9951.96
470.59	10066.64
470.77	10277.29
470.95	10228.14
471.14	10530.07
471.32	10141.54
471.50	10736.04
471.68	10637.73
471.86	10785.19
472.04	10832.00
472.22	10958.39
472.40	10626.03
472.58	10883.49
472.77	10759.44
472.95	11061.37
473.13	11358.62
473.31	10799.23
473.49	10789.87
473.67	11094.14
473.85	11059.03
474.03	11344.58
474.21	11283.72
474.39	11225.21
474.57	11676.93
474.75	11503.73
474.93	11367.98
475.12	11719.06
475.30	11695.66
475.48	11557.57
475.66	11796.30
475.84	11756.51
476.02	11676.93
476.20	11798.64
476.38	12109.93
476.56	12222.28
476.74	12070.14
476.92	12283.13
477.10	12259.73
477.28	12297.17
477.46	12432.93
477.64	12671.66
477.82	12821.45
478.00	12999.34
478.18	12919.76
478.36	12910.40
478.54	12961.89
478.72	13123.38
478.90	13247.43
479.08	13575.11
479.26	13633.62
479.44	13607.87
479.62	13839.59
479.80	13736.60
479.98	13736.60
480.16	14279.61
480.34	14040.87
480.52	14122.79
480.70	14244.50
480.88	14265.57
481.06	14508.98
481.24	14532.39
481.41	14757.08
481.59	14714.95
481.77	15080.07
481.95	15066.03
482.13	15234.55
482.31	14949.00
482.49	15241.57
482.67	15337.53
482.85	15655.84
483.03	15681.59
483.21	15667.55
483.39	15854.79
483.57	15662.86
483.74	16030.33
483.92	16145.02
484.10	15948.41
484.28	16482.05
484.46	16596.74
484.64	16690.36
484.82	16397.79
485.00	16875.26
485.18	16833.13
485.35	16917.39
485.53	16524.18
485.71	16772.28
485.89	16915.05
486.07	16828.45
486.25	17018.04
486.43	17216.98
486.61	17589.13
486.78	17722.54
486.96	17940.21
487.14	18211.71
487.32	18253.84
487.50	18370.86
487.68	18579.17
487.85	19117.50
488.03	18885.78
488.21	19396.02
488.39	18775.78
488.57	19501.34
488.75	19119.84
488.92	19517.73
489.10	19737.74
489.28	20100.52
489.46	20542.88
489.64	20388.41
489.81	20870.56
489.99	20641.18
490.17	21010.99
490.35	21378.45
490.53	20837.79
490.70	21130.36
490.88	21088.23
491.06	21432.29
491.24	21752.94
491.41	21563.36
491.59	21338.66
491.77	21336.32
491.95	21886.35
492.13	22029.12
492.30	22391.91
492.48	22654.05
492.66	22661.07
492.84	22188.28
493.01	22476.16
493.19	22869.37
493.37	23166.62
493.54	23131.51
493.72	23398.34
493.90	23391.31
494.08	23999.85
494.25	23796.23
494.43	23983.47
494.61	24084.11
494.79	24067.73
494.96	24041.98
495.14	24205.82
495.32	24306.46
495.49	24666.91
495.67	24774.57
495.85	24795.64
496.02	25212.25
496.20	24968.84
496.38	25130.33
496.55	25104.59
496.73	25806.75
496.91	25415.88
497.09	25954.20
497.26	25809.09
497.44	25771.64
497.62	25827.81
497.79	25750.57
497.97	26024.42
498.14	26415.29
498.32	26181.23
498.50	26405.92
498.67	26471.46
498.85	26834.24
499.03	26909.14
499.20	27082.34
499.38	27047.23
499.56	27157.24
499.73	27185.32
499.91	27311.71
500.08	27428.74
500.26	27180.64
500.44	27683.86
500.61	27608.96
500.79	27339.80
500.97	27805.56
501.14	28290.06
501.32	27751.73
501.49	27990.47
501.67	28332.18
501.84	28336.87
502.02	28238.56
502.20	28540.49
502.37	28947.75
502.55	28584.96
502.72	28751.14
502.90	29247.33
503.07	28802.63
503.25	29130.31
503.43	28945.41
503.60	29106.90
503.78	28582.62
503.95	29200.52
504.13	29401.81
504.30	29682.67
504.48	29434.58
504.65	29942.47
504.83	29986.94
505.01	30068.86
505.18	29926.09
505.36	30593.14
505.53	30485.48
505.71	30448.03
505.88	30785.07
506.06	30469.09
506.23	30572.08
506.41	30195.25
506.58	30658.68
506.76	31075.29
506.93	30618.89
507.11	31044.87
507.28	31063.59
507.46	31082.31
507.63	30625.91
507.81	31615.96
507.98	31051.89
508.16	31267.22
508.33	31426.37
508.50	31791.50
508.68	31489.57
508.85	32198.75
509.03	32362.59
509.20	32144.92
509.38	32140.24
509.55	32339.18
509.73	31868.73
509.90	32533.45
510.08	32685.58
510.25	32257.26
510.42	32217.47
510.60	32720.69
510.77	32673.88
510.95	32940.70
511.12	33022.62
511.30	32720.69
511.47	33523.49
511.64	33373.70
511.82	33132.62
511.99	33165.39
512.17	33460.30
512.34	33081.13
512.51	33415.83
512.69	33411.15
512.86	33544.56
513.04	33734.14
513.21	34164.80
513.38	33490.73
513.56	33783.29
513.73	33600.73
513.90	34122.67
514.08	33776.27
514.25	34038.41
514.43	34319.28
514.60	34347.36
514.77	34506.52
514.95	34534.60
515.12	34543.97
515.29	34574.39
515.47	35239.11
515.64	34988.67
515.81	34576.73
515.99	34864.62
516.16	35012.07
516.33	34504.18
516.51	34583.76
516.68	34209.27
516.85	34192.89
517.03	34761.64
517.20	35173.57
517.37	35175.91
517.54	35377.20
517.72	35122.08
517.89	34960.58
518.06	34873.98
518.24	35206.34
518.41	35051.86
518.58	35601.89
518.75	35229.74
518.93	36149.57
519.10	35852.33
519.27	35864.03
519.45	35835.94
519.62	36191.70
519.79	36591.94
519.96	36453.84
520.14	36758.11
520.31	36165.96
520.48	36500.65
520.65	36519.38
520.83	37170.05
521.00	36959.40
521.17	36664.49
521.34	37256.65
521.52	37191.11
521.69	37144.30
521.86	37282.39
522.03	37530.49
522.20	37701.35
522.38	37546.87
522.55	37518.79
522.72	37645.18
522.89	37226.22
523.07	37560.92
523.24	37741.14
523.41	38075.84
523.58	38029.02
523.75	38447.98
523.92	38115.62
524.10	38731.18
524.27	38244.35
524.44	38796.72
524.61	38572.03
524.78	38337.98
524.96	38541.60
525.13	38698.42
525.30	39061.20
525.47	38808.42
525.64	38625.86
525.81	38569.69
525.98	38244.35
526.16	38656.29
526.33	38026.68
526.50	38445.64
526.67	38384.79
526.84	38548.62
527.01	38494.79
527.18	38485.43
527.36	39117.37
527.53	39552.71
527.70	39999.76
527.87	39842.94
528.04	39936.56
528.21	39548.03
528.38	39643.99
528.55	39800.81
528.72	39969.33
528.89	39971.67
529.07	39791.45
529.24	39695.49
529.41	40374.24
529.58	39894.43
529.75	39796.13
529.92	40074.65
530.09	40191.68
530.26	40575.53
530.43	40610.64
530.60	40320.41
530.77	40320.41
530.94	40519.35
531.11	40170.61
531.28	40528.72
531.46	41130.23
531.63	40926.61
531.80	40786.18
531.97	40418.71
532.14	40425.73
532.31	40390.62
532.48	40704.26
532.65	40739.36
532.82	40926.61
532.99	40987.46
533.16	41024.91
533.33	41277.69
533.50	41748.14
533.67	40957.03
533.84	41053.00
534.01	40877.46
534.18	40952.35
534.35	41462.59
534.52	41738.77
534.69	41364.29
534.86	41383.01
535.03	42014.96
535.20	41567.91
535.37	42209.22
535.54	42045.38
535.71	41865.16
535.88	41727.07
536.05	41668.56
536.22	41982.19
536.38	41691.96
536.55	41799.63
536.72	41916.65
536.89	41516.42
537.06	41801.97
537.23	42029.00
537.40	42328.59
537.57	42281.78
537.74	41907.29
537.91	42480.72
538.08	42513.49
538.25	42127.30
538.42	42391.78
538.59	42770.95
538.75	42012.62
538.92	42490.09
539.09	42707.76
539.26	42548.60
539.43	42438.59
539.60	42300.50
539.77	42614.13
539.94	42534.56
540.11	42218.58
540.28	42773.29
540.44	42534.56
540.61	42997.98
540.78	42993.30
540.95	42543.92
541.12	43281.19
541.29	42836.48
541.46	43154.80
541.62	43056.50
541.79	43274.16
541.96	42450.30
542.13	43122.03
542.30	43374.81
542.47	42787.33
542.63	42997.98
542.80	43187.56
542.97	43426.30
543.14	44154.21
543.31	43679.08
543.48	43800.79
543.64	44828.28
543.81	44781.47
543.98	43863.98
544.15	44044.20
544.32	44116.76
544.48	44524.01
544.65	44060.58
544.82	44126.12
544.99	44081.65
545.16	44170.59
545.32	43777.38
545.49	44603.59
545.66	44130.80
545.83	44428.05
546.00	44582.52
546.16	44559.12
546.33	44371.88
546.50	44079.31
546.67	44737.00
546.83	44067.61
547.00	43924.83
547.17	44226.76
547.34	44081.65
547.50	44910.20
547.67	44282.94
547.84	44676.15
548.00	44973.39
548.17	44713.59
548.34	44722.96
548.51	44662.10
548.67	45205.11
548.84	44729.98
549.01	45282.34
549.18	45052.97
549.34	44832.96
549.51	44884.45
549.68	44978.07
549.84	45177.02
550.01	45277.66
550.18	45050.63
550.34	45052.97
550.51	45179.36
550.68	45090.42
550.84	44786.15
551.01	45104.46
551.18	44980.42
551.34	45563.21
551.51	45385.33
551.68	45439.16
551.84	45516.40
552.01	45310.43
552.18	45762.15
552.34	44828.28
552.51	45338.52
552.68	45390.01
552.84	45645.13
553.01	46176.43
553.18	45759.81
553.34	45364.26
553.51	45469.59
553.67	45565.55
553.84	46176.43
554.01	45792.58
554.17	45839.39
554.34	46134.30
554.51	45855.78
554.67	45975.14
554.84	45986.85
555.00	45528.10
555.17	45961.10
555.33	45720.02
555.50	46412.82
555.67	46595.38
555.83	45900.25
556.00	46387.08
556.16	46593.04
556.33	46162.39
556.50	46370.69
556.66	46197.49
556.83	46089.83
556.99	46403.46
557.16	46183.45
557.32	45778.54
557.49	46309.84
557.65	45581.93
557.82	46454.95
557.98	46010.25
558.15	46291.12
558.32	46429.21
558.48	46078.13
558.65	46497.08
558.81	46064.08
558.98	46246.65
559.14	46195.15
559.31	46569.64
559.47	46637.51
559.64	46700.71
559.80	46773.27
559.97	46190.47
560.13	46438.57
560.30	46518.15
560.46	46478.36
560.63	46859.87
560.79	46934.76
560.96	46539.21
561.12	46916.04
561.29	46588.36
561.45	46335.59
561.61	46412.82
561.78	46583.68
561.94	46358.99
562.11	46511.13
562.27	46876.25
562.44	46616.45
562.60	46981.57
562.77	46586.02
562.93	46834.12
563.10	47145.41
563.26	46391.76
563.42	46773.27
563.59	46794.33
563.75	46827.10
563.92	46951.15
564.08	46550.91
564.24	47058.81
564.41	47145.41
564.57	46857.52
564.74	46639.86
564.90	47065.83
565.07	47196.90
565.23	46894.97
565.39	46621.13
565.56	46710.07
565.72	46770.93
565.88	46534.53
566.05	46784.97
566.21	46780.29
566.38	46997.96
566.54	46782.63
566.70	47580.75
566.87	47639.26
567.03	47241.37
567.19	47484.79
567.36	46801.35
567.52	47437.98
567.68	46829.44
567.85	46639.86
568.01	47220.31
568.17	47103.28
568.34	46890.29
568.50	46878.59
568.66	46939.44
568.83	47344.36
568.99	46747.52
569.15	46852.84
569.32	47033.07
569.48	46815.40
569.64	47613.52
569.81	46808.37
569.97	46944.12
570.13	47161.79
570.30	46536.87
570.46	46993.28
570.62	46614.11
570.78	46501.76
570.95	46969.87
571.11	47147.75
571.27	46932.42
571.43	47297.55
571.60	47543.30
571.76	47021.36
571.92	47164.14
572.09	47360.74
572.25	47629.90
572.41	47065.83
572.57	47657.99
572.74	47828.85
572.90	47533.94
573.06	47215.63
573.22	47126.69
573.38	47077.54
573.55	46997.96
573.71	46918.38
573.87	47150.09
574.03	46969.87
574.20	47463.72
574.36	47398.19
574.52	47416.91
574.68	47313.93
574.84	46911.36
575.01	47330.31
575.17	47473.09
575.33	47119.66
575.49	46838.80
575.65	47690.76
575.82	47641.60
575.98	47344.36
576.14	47557.35
576.30	47274.14
576.46	47122.01
576.62	47147.75
576.79	47407.55
576.95	46639.86
577.11	46796.67
577.27	47395.85
577.43	47767.99
577.59	47220.31
577.75	47421.59
577.92	46806.03
578.08	47138.39
578.24	46808.37
578.40	47285.84
578.56	47304.57
578.72	47070.51
578.88	47826.51
579.04	47070.51
579.21	47660.33
579.37	47285.84
579.53	46997.96
579.69	46983.91
579.85	47012.00
580.01	47533.94
580.17	47536.28
580.33	47304.57
580.49	47756.29
580.65	47281.16
580.82	47402.87
580.98	47079.88
581.14	47178.18
581.30	47854.59
581.46	47440.32
581.62	47569.05
581.78	47079.88
581.94	47976.30
582.10	47400.53
582.26	47398.19
582.42	47767.99
582.58	47215.63
582.74	47356.06
582.90	47505.85
583.06	47657.99
583.22	47681.39
583.38	47704.80
583.54	47349.04
583.70	47751.61
583.86	47667.35
584.02	47452.02
584.18	47545.64
584.34	47154.77
584.50	47353.72
584.66	47351.38
584.82	47297.55
584.98	47625.22
585.14	47571.39
585.30	47515.22
585.46	47608.84
585.62	46986.25
585.78	47257.76
585.94	46850.50
586.10	47313.93
586.26	47056.47
586.42	47379.46
586.58	47196.90
586.74	47426.28
586.90	47173.50
587.06	47372.44
587.22	47276.48
587.38	47311.59
587.54	47388.83
587.70	47571.39
587.86	47421.59
588.02	47505.85
588.18	47515.22
588.34	47079.88
588.49	46838.80
588.65	46815.40
588.81	46602.41
588.97	47100.94
589.13	46501.76
589.29	46693.69
589.45	47199.24
589.61	47082.22
589.77	47290.52
