SpectraSuite Data File
++++++++++++++++++++++++++++++++++++
Date: Fri Oct 25 10:44:22 EDT 2013
User: price-jones
Dark Spectrum Present: No
Reference Spectrum Present: No
Number of Sampled Component Spectra: 1
Spectrometers: USB2+H05261
Integration Time (usec): 100000 (USB2+H05261)
Spectra Averaged: 1 (USB2+H05261)
Boxcar Smoothing: 0 (USB2+H05261)
Correct for Electrical Dark: No (USB2+H05261)
Strobe/Lamp Enabled: No (USB2+H05261)
Correct for Detector Non-linearity: No (USB2+H05261)
Correct for Stray Light: No (USB2+H05261)
Number of Pixels in Processed Spectrum: 2048
>>>>>Begin Processed Spectral Data<<<<<
365.73	121.71
365.92	121.71
366.12	121.71
366.32	0.00
366.52	0.00
366.72	42.13
366.91	39.79
367.11	9.36
367.31	0.00
367.51	16.38
367.70	0.00
367.90	74.90
368.10	7.02
368.30	39.79
368.49	0.00
368.69	37.45
368.89	51.49
369.09	56.17
369.28	58.51
369.48	51.49
369.68	67.88
369.87	102.98
370.07	102.98
370.27	126.39
370.47	229.37
370.66	369.80
370.86	390.87
371.06	463.43
371.25	540.66
371.45	447.04
371.65	430.66
371.84	461.09
372.04	468.11
372.24	430.66
372.44	524.28
372.63	521.94
372.83	528.96
373.03	543.00
373.22	550.03
373.42	613.22
373.62	533.64
373.81	547.69
374.01	533.64
374.21	645.99
374.40	433.00
374.60	606.20
374.79	638.97
374.99	552.37
375.19	627.26
375.38	617.90
375.58	606.20
375.78	585.13
375.97	599.18
376.17	582.79
376.37	709.18
376.56	631.94
376.76	603.86
376.95	657.69
377.15	566.41
377.35	603.86
377.54	636.63
377.74	695.14
377.93	688.12
378.13	674.07
378.33	688.12
378.52	702.16
378.72	683.44
378.91	664.71
379.11	657.69
379.31	624.92
379.50	653.01
379.70	653.01
379.89	741.95
380.09	636.63
380.28	697.48
380.48	704.50
380.68	695.14
380.87	709.18
381.07	622.58
381.26	739.61
381.46	753.65
381.65	772.38
381.85	660.03
382.04	732.59
382.24	711.52
382.43	702.16
382.63	741.95
382.83	709.18
383.02	809.83
383.22	777.06
383.41	697.48
383.61	753.65
383.80	781.74
384.00	777.06
384.19	816.85
384.39	858.98
384.58	868.34
384.78	866.00
384.97	854.30
385.17	837.91
385.36	814.51
385.56	814.51
385.75	819.19
385.95	849.61
386.14	828.55
386.34	926.85
386.53	863.66
386.72	884.72
386.92	861.32
387.11	868.34
387.31	877.70
387.50	856.64
387.70	837.91
387.89	929.19
388.09	807.48
388.28	903.45
388.48	910.47
388.67	889.40
388.86	905.79
389.06	964.30
389.25	987.71
389.45	1034.52
389.64	1048.56
389.84	1041.54
390.03	1036.86
390.22	898.77
390.42	978.34
390.61	1004.09
390.81	961.96
391.00	1069.62
391.19	1050.90
391.39	1076.65
391.58	1146.86
391.78	1097.71
391.97	1074.31
392.16	1083.67
392.36	1081.33
392.55	1053.24
392.75	1029.84
392.94	971.32
393.13	1034.52
393.33	978.34
393.52	1013.45
393.71	1139.84
393.91	1165.59
394.10	1097.71
394.29	1198.35
394.49	1095.37
394.68	1254.53
394.88	1153.88
395.07	1242.82
395.26	1193.67
395.46	1275.59
395.65	1306.02
395.84	1275.59
396.04	1348.15
396.23	1186.65
396.42	1139.84
396.62	1179.63
396.81	1256.87
397.00	1242.82
397.19	1324.74
397.39	1320.06
397.58	1411.34
397.77	1465.18
397.97	1439.43
398.16	1458.15
398.35	1526.03
398.55	1483.90
398.74	1486.24
398.93	1516.67
399.12	1610.29
399.32	1603.27
399.51	1591.56
399.70	1610.29
399.90	1666.46
400.09	1678.16
400.28	1645.40
400.47	1741.36
400.67	1612.63
400.86	1626.67
401.05	1776.47
401.24	1647.74
401.44	1732.00
401.63	1687.53
401.82	1809.23
402.01	1760.08
402.21	1874.77
402.40	1809.23
402.59	1764.76
402.78	1739.02
402.97	1771.79
403.17	1809.23
403.36	1963.71
403.55	1802.21
403.74	1886.47
403.93	1919.24
404.13	1877.11
404.32	2057.33
404.51	1867.75
404.70	1818.60
404.89	2033.93
405.09	2017.54
405.28	1853.70
405.47	2012.86
405.66	2094.78
405.85	2043.29
406.05	2019.88
406.24	2139.25
406.43	2115.84
406.62	2045.63
406.81	2172.02
407.00	2054.99
407.20	2129.89
407.39	2122.87
407.58	2326.49
407.77	2275.00
407.96	2345.22
408.15	2197.76
408.34	2277.34
408.54	2392.03
408.73	2361.60
408.92	2345.22
409.11	2408.41
409.30	2408.41
409.49	2291.38
409.68	2359.26
409.87	2328.83
410.07	2422.45
410.26	2406.07
410.45	2530.12
410.64	2551.18
410.83	2635.44
411.02	2506.71
411.21	2628.42
411.40	2675.23
411.59	2619.06
411.78	2708.00
411.98	2696.30
412.17	2696.30
412.36	2902.26
412.55	2836.73
412.74	2984.18
412.93	2853.11
413.12	2686.94
413.31	3070.78
413.50	2864.82
413.69	3012.27
413.88	2979.50
414.07	2935.03
414.26	3049.72
414.45	2995.89
414.64	3150.36
414.83	3009.93
415.02	3141.00
415.22	3213.56
415.41	3218.24
415.60	3286.11
415.79	3342.28
415.98	3424.20
416.17	3358.67
416.36	3370.37
416.55	3384.41
416.74	3461.65
416.93	3440.59
417.12	3431.23
417.31	3473.36
417.50	3508.46
417.69	3588.04
417.88	3599.74
418.07	3590.38
418.26	3534.21
418.45	3623.15
418.64	3667.62
418.83	3662.94
419.02	3616.13
419.21	3740.18
419.39	3758.90
419.58	3684.00
419.77	3735.50
419.96	3627.83
420.15	3812.73
420.34	3742.52
420.53	3901.67
420.72	3978.91
420.91	3777.62
421.10	3894.65
421.29	4093.60
421.48	3824.44
421.67	4004.66
421.86	3964.87
422.05	3960.19
422.24	3779.97
422.43	3915.72
422.61	3925.08
422.80	3995.29
422.99	3981.25
423.18	4128.70
423.37	4102.96
423.56	4138.07
423.75	4215.30
423.94	4112.32
424.13	3777.62
424.32	3920.40
424.50	4161.47
424.69	4170.83
424.88	4184.88
425.07	3997.64
425.26	3997.64
425.45	4011.68
425.64	4121.68
425.83	4060.83
426.01	4142.75
426.20	4072.53
426.39	4091.26
426.58	4180.20
426.77	4042.11
426.96	4060.83
427.15	4105.30
427.33	4114.66
427.52	4177.86
427.71	4287.86
427.90	4287.86
428.09	4355.74
428.28	4264.46
428.46	4287.86
428.65	4308.93
428.84	4285.52
429.03	4217.65
429.22	4285.52
429.40	4224.67
429.59	4360.42
429.78	4002.32
429.97	4166.15
430.16	4166.15
430.34	4231.69
430.53	4250.41
430.72	4248.07
430.91	4219.99
431.10	4517.23
431.28	4777.03
431.47	4634.26
431.66	4835.55
431.85	4528.94
432.03	4692.77
432.22	4865.97
432.41	4730.22
432.60	4650.64
432.79	4823.84
432.97	4968.96
433.16	4952.57
433.35	4685.75
433.54	4615.54
433.72	4784.06
433.91	4807.46
434.10	4926.83
434.28	4954.91
434.47	5076.62
434.66	5011.09
434.85	5191.31
435.03	5111.73
435.22	5170.24
435.41	5282.59
435.59	5214.71
435.78	5228.76
435.97	5439.40
436.16	5336.42
436.34	5277.91
436.53	5364.51
436.72	5446.43
436.90	5172.58
437.09	5256.84
437.28	5170.24
437.46	5387.91
437.65	5420.68
437.84	5413.66
438.02	5235.78
438.21	5427.70
438.40	5355.15
438.58	5467.49
438.77	5659.42
438.96	5694.52
439.14	5757.72
439.33	5870.06
439.52	5729.63
439.70	5671.12
439.89	5853.68
440.08	5872.40
440.26	5741.33
440.45	5884.11
440.63	6059.65
440.82	6139.23
441.01	6155.61
441.19	6354.55
441.38	6319.45
441.57	6497.33
441.75	6354.55
441.94	6509.03
442.12	6534.78
442.31	6450.52
442.50	6565.20
442.68	6555.84
442.87	6410.73
443.05	6408.39
443.24	6792.23
443.43	6752.45
443.61	6640.10
443.80	6743.08
443.98	6406.05
444.17	6359.24
444.35	6771.17
444.54	6862.45
444.73	6733.72
444.91	6635.42
445.10	6806.28
445.28	6658.82
445.47	6612.01
445.65	6487.96
445.84	6862.45
446.02	6792.23
446.21	6609.67
446.39	6768.83
446.58	6867.13
446.77	6843.73
446.95	6696.27
447.14	6888.20
447.32	6913.94
447.51	6925.65
447.69	6747.76
447.88	6853.09
448.06	7033.31
448.25	6953.73
448.43	6911.60
448.62	6970.12
448.80	6813.30
448.99	6939.69
449.17	7157.36
449.36	6904.58
449.54	7269.70
449.73	7360.98
449.91	7293.11
450.10	7272.04
450.28	7545.89
450.46	7508.44
450.65	7459.29
450.83	7510.78
451.02	7349.28
451.20	7377.37
451.39	7583.34
451.57	7431.20
451.76	7386.73
451.94	7496.74
452.13	7501.42
452.31	7403.11
452.49	7440.56
452.68	7524.82
452.86	7274.38
453.05	7646.53
453.23	7503.76
453.42	7550.57
453.60	7424.18
453.78	7733.13
453.97	7630.15
454.15	7637.17
454.34	7454.61
454.52	7695.68
454.70	7868.88
454.89	7948.46
455.07	7634.83
455.26	7765.90
455.44	7901.65
455.62	7838.45
455.81	8032.72
455.99	8140.38
456.17	8226.98
456.36	8098.25
456.54	8210.60
456.73	8250.39
456.91	8446.99
457.09	8444.65
457.28	8564.02
457.46	8435.29
457.64	8318.26
457.83	8575.72
458.01	8311.24
458.19	8430.61
458.38	8425.93
458.56	8697.43
458.74	8580.40
458.93	8549.98
459.11	8540.61
459.29	8465.72
459.48	8688.07
459.66	8561.68
459.84	8500.83
460.03	8793.39
460.21	8704.45
460.39	8720.84
460.57	8784.03
460.76	8713.81
460.94	8959.57
461.12	8903.40
461.31	8861.27
461.49	8952.55
461.67	8828.50
461.85	9184.26
462.04	8992.34
462.22	9055.53
462.40	9202.99
462.59	9219.37
462.77	9095.32
462.95	9123.41
463.13	9055.53
463.32	9432.36
463.50	9170.22
463.68	9074.26
463.86	9338.74
464.05	9100.00
464.23	9425.34
464.41	9366.82
464.59	9296.61
464.78	9467.47
464.96	9399.59
465.14	9521.30
465.32	9596.20
465.50	9359.80
465.69	9584.49
465.87	9582.15
466.05	9736.63
466.23	9556.41
466.41	9628.96
466.60	9741.31
466.78	9427.68
466.96	9371.50
467.14	9540.02
467.32	9671.09
467.51	9795.14
467.69	9392.57
467.87	9776.42
468.05	9963.66
468.23	9802.16
468.41	9776.42
468.60	9942.60
468.78	9827.91
468.96	9713.22
469.14	9898.13
469.32	10120.48
469.50	9804.50
469.69	9977.70
469.87	10134.52
470.05	9996.43
470.23	10064.30
470.41	10162.61
470.59	10389.64
470.77	10298.36
470.95	10085.37
471.14	10616.67
471.32	10188.35
471.50	10548.79
471.68	10675.18
471.86	10752.42
472.04	10663.48
472.22	10897.53
472.40	10682.20
472.58	10630.71
472.77	10785.19
472.95	10881.15
473.13	11288.40
473.31	10881.15
473.49	10911.58
473.67	10801.57
473.85	11002.86
474.03	11482.67
474.21	11241.59
474.39	11314.15
474.57	11257.98
474.75	11569.27
474.93	11412.45
475.12	11494.37
475.30	11487.35
475.48	11538.84
475.66	11761.19
475.84	11538.84
476.02	11941.41
476.20	11864.18
476.38	11903.96
476.56	11941.41
476.74	12081.85
476.92	12226.96
477.10	12358.03
477.28	12608.47
477.46	12409.52
477.64	12585.06
477.82	12751.24
478.00	12830.82
478.18	12739.54
478.36	13001.68
478.54	13043.81
478.72	13102.32
478.90	13486.17
479.08	13497.87
479.26	13472.12
479.44	13589.15
479.62	13713.20
479.80	13610.22
479.98	13965.98
480.16	13940.23
480.34	14090.02
480.52	13963.64
480.70	14270.25
480.88	14078.32
481.06	14317.06
481.24	14246.84
481.41	14518.34
481.59	14836.66
481.77	15028.58
481.95	14778.14
482.13	15012.20
482.31	14871.76
482.49	15145.61
482.67	15272.00
482.85	15360.94
483.03	15733.08
483.21	15939.05
483.39	15847.77
483.57	15789.25
483.74	15807.98
483.92	15988.20
484.10	15990.54
484.28	16379.07
484.46	16666.95
484.64	16954.84
484.82	16390.77
485.00	16699.72
485.18	16760.58
485.35	16954.84
485.53	16704.40
485.71	16617.80
485.89	16791.00
486.07	16805.05
486.25	17078.89
486.43	17455.72
486.61	17624.23
486.78	17860.63
486.96	17898.08
487.14	18403.63
487.32	18068.94
487.50	18663.43
487.68	18328.74
487.85	19009.83
488.03	18750.03
488.21	19152.60
488.39	19314.10
488.57	19431.13
488.75	19286.01
488.92	19695.61
489.10	19770.51
489.28	19946.05
489.46	20348.62
489.64	20374.36
489.81	20802.68
489.99	20856.51
490.17	20861.19
490.35	20835.45
490.53	21013.33
490.70	21366.75
490.88	20893.96
491.06	21401.86
491.24	21385.47
491.41	21404.20
491.59	21186.53
491.77	21287.17
491.95	21364.41
492.13	22092.32
492.30	21832.52
492.48	22251.47
492.66	22600.21
492.84	22464.46
493.01	23009.81
493.19	22522.98
493.37	22838.95
493.54	22895.12
493.72	23290.67
493.90	23527.06
494.08	23590.26
494.25	24409.45
494.43	24009.22
494.61	24030.28
494.79	24290.08
494.96	24168.37
495.14	24229.23
495.32	24074.75
495.49	24329.87
495.67	24739.46
495.85	24746.48
496.02	24905.64
496.20	25034.37
496.38	24978.20
496.55	25233.32
496.73	25504.82
496.91	25570.35
497.09	25617.16
497.26	26047.82
497.44	25631.21
497.62	25867.60
497.79	26139.10
497.97	25839.51
498.14	26134.42
498.32	26244.43
498.50	26595.51
498.67	26827.22
498.85	26520.61
499.03	27143.19
499.20	26871.69
499.38	27033.19
499.56	27143.19
499.73	27192.34
499.91	27498.95
500.08	27590.24
500.26	27000.42
500.44	27513.00
500.61	27367.88
500.79	27166.60
500.97	27896.85
501.14	27779.82
501.32	27941.32
501.49	27910.89
501.67	28271.33
501.84	28173.03
502.02	28100.47
502.20	28355.59
502.37	28648.16
502.55	28517.09
502.72	28699.65
502.90	29006.26
503.07	28875.19
503.25	28676.24
503.43	28755.82
503.60	28563.90
503.78	28755.82
503.95	28833.06
504.13	29139.67
504.30	29322.23
504.48	29275.42
504.65	29853.53
504.83	29556.28
505.01	30452.71
505.18	29717.78
505.36	30338.02
505.53	29951.84
505.71	30637.61
505.88	30740.60
506.06	30143.76
506.23	30401.22
506.41	30352.07
506.58	30415.26
506.76	30745.28
506.93	30609.53
507.11	30934.86
507.28	30855.28
507.46	31096.36
507.63	30930.18
507.81	31250.83
507.98	31110.40
508.16	31220.41
508.33	31578.51
508.50	31433.39
508.68	31824.26
508.85	32444.51
509.03	31859.37
509.20	31789.16
509.38	31857.03
509.55	31824.26
509.73	32411.74
509.90	32060.66
510.08	32357.91
510.25	32566.21
510.42	32369.61
510.60	32423.44
510.77	32400.04
510.95	33160.71
511.12	32730.05
511.30	33060.07
511.47	33017.94
511.64	33041.34
511.82	33074.11
511.99	32634.09
512.17	32645.79
512.34	33085.81
512.51	33102.20
512.69	33654.56
512.86	33507.11
513.04	33687.33
513.21	33764.57
513.38	33619.46
513.56	33876.91
513.73	33748.18
513.90	33717.76
514.08	33977.56
514.25	33928.41
514.43	34227.99
514.60	34015.01
514.77	34429.28
514.95	34660.99
515.12	34452.69
515.29	34464.39
515.47	34771.00
515.64	35068.25
515.81	34794.40
515.99	34525.24
516.16	34539.29
516.33	34305.23
516.51	34384.81
516.68	34110.97
516.85	34136.71
517.03	34422.26
517.20	34745.25
517.37	35377.20
517.54	35377.20
517.72	35353.79
517.89	34855.26
518.06	34892.71
518.24	35332.73
518.41	35079.95
518.58	35550.40
518.75	35164.21
518.93	35704.87
519.10	35285.92
519.27	36191.70
519.45	36460.87
519.62	36165.96
519.79	35864.03
519.96	36587.25
520.14	36350.86
520.31	36437.46
520.48	36449.16
520.65	36411.71
520.83	36718.32
521.00	36818.97
521.17	37017.91
521.34	36720.66
521.52	37181.75
521.69	37078.77
521.86	37507.08
522.03	37092.81
522.20	36971.10
522.38	37193.45
522.55	37282.39
522.72	37287.07
522.89	36989.83
523.07	37457.93
523.24	37057.70
523.41	37848.80
523.58	37589.00
523.75	38391.81
523.92	38059.45
524.10	38082.86
524.27	38185.84
524.44	38382.45
524.61	38349.68
524.78	38499.47
524.96	38848.21
525.13	38108.60
525.30	38733.53
525.47	38974.60
525.64	38778.00
525.81	38593.09
525.98	38277.12
526.16	38216.27
526.33	38080.52
526.50	38593.09
526.67	37949.45
526.84	38078.18
527.01	38115.62
527.18	38803.74
527.36	38822.47
527.53	38717.14
527.70	39360.79
527.87	39147.80
528.04	38756.93
528.21	39257.81
528.38	39882.73
528.55	39779.74
528.72	39772.72
528.89	39611.23
529.07	39864.00
529.24	39325.68
529.41	39878.05
529.58	39679.10
529.75	39735.27
529.92	40184.66
530.09	40009.12
530.26	40027.84
530.43	40432.75
530.60	39817.19
530.77	40006.78
530.94	40353.18
531.11	40397.65
531.28	40381.26
531.46	40650.42
531.63	40505.31
531.80	40287.64
531.97	40332.11
532.14	40369.56
532.31	39746.98
532.48	40435.10
532.65	40329.77
532.82	40453.82
532.99	40940.65
533.16	40975.76
533.33	40762.77
533.50	40926.61
533.67	40903.20
533.84	40814.26
534.01	41027.25
534.18	40994.48
534.35	41572.60
534.52	40987.46
534.69	41432.16
534.86	41542.17
535.03	41502.38
535.20	41727.07
535.37	41823.03
535.54	42141.35
535.71	41397.06
535.88	41502.38
536.05	41748.14
536.22	41539.83
536.38	41797.29
536.55	41600.68
536.72	41596.00
536.89	41448.55
537.06	41677.92
537.23	41542.17
537.40	41876.86
537.57	41577.28
537.74	41769.20
537.91	42340.29
538.08	42167.09
538.25	42031.34
538.42	42094.53
538.59	42581.37
538.75	41757.50
538.92	42064.11
539.09	42073.47
539.26	42019.64
539.43	42656.26
539.60	42316.89
539.77	41794.95
539.94	42476.04
540.11	41855.80
540.28	42539.24
540.44	42312.20
540.61	42417.53
540.78	42429.23
540.95	42539.24
541.12	42316.89
541.29	42630.52
541.46	42714.78
541.62	42621.16
541.79	43105.65
541.96	42469.02
542.13	42965.21
542.30	42836.48
542.47	43124.37
542.63	42649.24
542.80	43196.93
542.97	43395.87
543.14	43320.98
543.31	43498.86
543.48	43538.65
543.64	44538.05
543.81	43854.62
543.98	44032.50
544.15	43831.21
544.32	43583.12
544.48	44563.80
544.65	43615.88
544.82	43758.66
544.99	43772.70
545.16	43969.30
545.32	44163.57
545.49	44470.18
545.66	44203.36
545.83	44292.30
546.00	44240.81
546.16	44102.71
546.33	43920.15
546.50	43328.00
546.67	44505.29
546.83	43873.34
547.00	44037.18
547.17	43955.26
547.34	44069.95
547.50	44470.18
547.67	43990.37
547.84	44521.67
548.00	44769.77
548.17	44631.68
548.34	44828.28
548.51	44914.88
548.67	44734.66
548.84	44680.83
549.01	44797.85
549.18	44467.84
549.34	44435.07
549.51	45137.23
549.68	44797.85
549.84	45085.74
550.01	44917.22
550.18	44741.68
550.34	44849.35
550.51	44832.96
550.68	44648.06
550.84	44444.43
551.01	45064.67
551.18	45160.64
551.34	45265.96
551.51	45574.91
551.68	45162.98
551.84	45275.32
552.01	44814.24
552.18	45141.91
552.34	45205.11
552.51	45059.99
552.68	45521.08
552.84	45659.17
553.01	45853.44
553.18	45284.68
553.34	45476.61
553.51	45043.61
553.67	45315.11
553.84	45497.67
554.01	45701.30
554.17	45841.73
554.34	45617.04
554.51	45801.94
554.67	45577.25
554.84	45530.44
555.00	45591.30
555.17	45546.82
555.33	45675.55
555.50	45572.57
555.67	45371.28
555.83	45240.21
556.00	45769.18
556.16	46305.16
556.33	45652.15
556.50	45874.50
556.66	45815.99
556.83	45478.95
556.99	46085.15
557.16	45914.29
557.32	45907.27
557.49	45982.16
557.65	45689.60
557.82	45963.44
557.98	45911.95
558.15	45996.21
558.32	46059.40
558.48	46000.89
558.65	45979.82
558.81	45413.41
558.98	46005.57
559.14	46040.68
559.31	45474.27
559.47	46291.12
559.64	46447.93
559.80	45954.08
559.97	46103.87
560.13	46038.34
560.30	45907.27
560.46	46251.33
560.63	46391.76
560.79	46347.29
560.96	46604.75
561.12	46349.63
561.29	45860.46
561.45	46256.01
561.61	46408.14
561.78	46326.22
561.94	45956.42
562.11	46026.63
562.27	46101.53
562.44	46279.41
562.60	46714.75
562.77	46906.68
562.93	46464.32
563.10	47068.17
563.26	45853.44
563.42	46190.47
563.59	46361.33
563.75	46302.82
563.92	46981.57
564.08	46756.88
564.24	46576.66
564.41	46515.81
564.57	46520.49
564.74	46913.70
564.90	46562.62
565.07	46450.27
565.23	46506.44
565.39	46588.36
565.56	46780.29
565.72	45986.85
565.88	46569.64
566.05	46527.51
566.21	46412.82
566.38	46838.80
566.54	46560.28
566.70	46766.24
566.87	46625.81
567.03	46761.56
567.19	47241.37
567.36	46691.35
567.52	46436.23
567.68	46656.24
567.85	47004.98
568.01	46796.67
568.17	46457.29
568.34	46307.50
568.50	46796.67
568.66	46567.30
568.83	46710.07
568.99	46342.61
569.15	46576.66
569.32	46571.98
569.48	46522.83
569.64	46419.84
569.81	46948.81
569.97	46663.26
570.13	46733.48
570.30	46735.82
570.46	46497.08
570.62	46087.49
570.78	46391.76
570.95	46412.82
571.11	46918.38
571.27	46742.84
571.43	46705.39
571.60	46782.63
571.76	47075.19
571.92	46681.98
572.09	46831.78
572.25	46789.65
572.41	46714.75
572.57	46979.23
572.74	47206.26
572.90	46604.75
573.06	46794.33
573.22	46749.86
573.38	46824.76
573.55	46588.36
573.71	47000.30
573.87	47239.03
574.03	46810.71
574.20	47201.58
574.36	46616.45
574.52	46890.29
574.68	46590.70
574.84	47007.32
575.01	46967.53
575.17	46934.76
575.33	46728.80
575.49	46644.54
575.65	46909.02
575.82	46763.90
575.98	46990.94
576.14	47030.72
576.30	47276.48
576.46	47079.88
576.62	46719.43
576.79	46862.21
576.95	46553.26
577.11	46527.51
577.27	46866.89
577.43	46930.08
577.59	46471.34
577.75	46696.03
577.92	46529.85
578.08	46527.51
578.24	46366.01
578.40	46876.25
578.56	46794.33
578.72	46569.64
578.88	46958.17
579.04	47199.24
579.21	47377.12
579.37	46759.22
579.53	47260.10
579.69	46461.97
579.85	47117.32
580.01	46546.23
580.17	46845.82
580.33	47260.10
580.49	47285.84
580.65	46887.95
580.82	47019.02
580.98	46457.29
581.14	46756.88
581.30	46604.75
581.46	47007.32
581.62	47271.80
581.78	46955.83
581.94	46925.40
582.10	46733.48
582.26	46829.44
582.42	47201.58
582.58	46897.31
582.74	46583.68
582.90	47002.64
583.06	47475.43
583.22	46902.00
583.38	46902.00
583.54	47346.70
583.70	46883.27
583.86	47442.66
584.02	47028.38
584.18	47131.37
584.34	46677.30
584.50	46862.21
584.66	46761.56
584.82	46951.15
584.98	47063.49
585.14	47620.54
585.30	46841.14
585.46	47290.52
585.62	46904.34
585.78	47030.72
585.94	46752.20
586.10	46869.23
586.26	47012.00
586.42	47215.63
586.58	47337.33
586.74	47028.38
586.90	46927.74
587.06	46897.31
587.22	47164.14
587.38	46623.47
587.54	47161.79
587.70	47391.17
587.86	46981.57
588.02	46857.52
588.18	46993.28
588.34	46548.57
588.49	46206.86
588.65	46120.26
588.81	46576.66
588.97	46866.89
589.13	46658.58
589.29	46515.81
589.45	47199.24
589.61	46469.00
589.77	46759.22
589.93	47257.76
