SpectraSuite Data File
++++++++++++++++++++++++++++++++++++
Date: Fri Oct 25 11:23:47 EDT 2013
User: price-jones
Dark Spectrum Present: No
Reference Spectrum Present: No
Number of Sampled Component Spectra: 1
Spectrometers: USB2+H05261
Integration Time (usec): 100000 (USB2+H05261)
Spectra Averaged: 1 (USB2+H05261)
Boxcar Smoothing: 0 (USB2+H05261)
Correct for Electrical Dark: No (USB2+H05261)
Strobe/Lamp Enabled: No (USB2+H05261)
Correct for Detector Non-linearity: No (USB2+H05261)
Correct for Stray Light: No (USB2+H05261)
Number of Pixels in Processed Spectrum: 2048
>>>>>Begin Processed Spectral Data<<<<<
365.73	196.60
365.92	196.60
366.12	196.60
366.32	168.52
366.52	210.65
366.72	112.35
366.91	133.41
367.11	117.03
367.31	124.05
367.51	133.41
367.70	65.54
367.90	110.01
368.10	227.03
368.30	142.77
368.49	131.07
368.69	173.20
368.89	156.82
369.09	74.90
369.28	128.73
369.48	173.20
369.68	177.88
369.87	203.63
370.07	180.22
370.27	173.20
370.47	337.04
370.66	538.32
370.86	655.35
371.06	702.16
371.25	653.01
371.45	704.50
371.65	671.73
371.84	734.93
372.04	681.10
372.24	685.78
372.44	674.07
372.63	772.38
372.83	751.31
373.03	816.85
373.22	746.63
373.42	753.65
373.62	770.04
373.81	798.12
374.01	800.46
374.21	791.10
374.40	863.66
374.60	798.12
374.79	800.46
374.99	830.89
375.19	866.00
375.38	922.17
375.58	880.04
375.78	875.36
375.97	861.32
376.17	966.64
376.37	875.36
376.56	894.08
376.76	884.72
376.95	868.34
377.15	833.23
377.35	929.19
377.54	957.28
377.74	807.48
377.93	901.11
378.13	968.98
378.33	905.79
378.52	894.08
378.72	966.64
378.91	987.71
379.11	971.32
379.31	992.39
379.50	931.53
379.70	903.45
379.89	976.00
380.09	1018.13
380.28	968.98
380.48	966.64
380.68	994.73
380.87	966.64
381.07	957.28
381.26	1036.86
381.46	1086.01
381.65	1088.35
381.85	1036.86
382.04	1050.90
382.24	1043.88
382.43	1043.88
382.63	1048.56
382.83	1008.77
383.02	1078.99
383.22	1163.25
383.41	1114.10
383.61	1086.01
383.80	1156.22
384.00	1025.15
384.19	1095.37
384.39	1107.07
384.58	1156.22
384.78	1137.50
384.97	1149.20
385.17	1153.88
385.36	1170.27
385.56	1179.63
385.75	1184.31
385.95	1203.04
386.14	1193.67
386.34	1163.25
386.53	1203.04
386.72	1252.19
386.92	1198.35
387.11	1261.55
387.31	1217.08
387.50	1203.04
387.70	1233.46
387.89	1231.12
388.09	1357.51
388.28	1320.06
388.48	1308.36
388.67	1350.49
388.86	1341.13
389.06	1235.80
389.25	1341.13
389.45	1380.92
389.64	1315.38
389.84	1355.17
390.03	1413.68
390.22	1331.76
390.42	1390.28
390.61	1399.64
390.81	1334.11
391.00	1409.00
391.19	1535.39
391.39	1390.28
391.58	1509.65
391.78	1444.11
391.97	1469.86
392.16	1577.52
392.36	1516.67
392.55	1425.39
392.75	1465.18
392.94	1535.39
393.13	1488.58
393.33	1598.59
393.52	1563.48
393.71	1607.95
393.91	1572.84
394.10	1610.29
394.29	1636.03
394.49	1563.48
394.68	1561.14
394.88	1640.72
395.07	1701.57
395.26	1652.42
395.46	1753.06
395.65	1746.04
395.84	1708.59
396.04	1764.76
396.23	1715.61
396.42	1806.89
396.62	1842.00
396.81	1797.53
397.00	1834.98
397.19	1753.06
397.39	1785.83
397.58	1837.32
397.77	1837.32
397.97	1816.26
398.16	1856.04
398.35	1853.70
398.55	1914.56
398.74	1928.60
398.93	2038.61
399.12	1942.64
399.32	1863.07
399.51	1966.05
399.70	1994.14
399.90	2040.95
400.09	1961.37
400.28	1977.75
400.47	2050.31
400.67	2069.03
400.86	2148.61
401.05	2129.89
401.24	2099.46
401.44	2001.16
401.63	2076.06
401.82	2202.44
402.01	2120.53
402.21	2216.49
402.40	2195.42
402.59	2218.83
402.78	2263.30
402.97	2270.32
403.17	2286.70
403.36	2284.36
403.55	2218.83
403.74	2340.54
403.93	2338.20
404.13	2267.98
404.32	2363.94
404.51	2370.96
404.70	2349.90
404.89	2424.80
405.09	2424.80
405.28	2420.11
405.47	2480.97
405.66	2495.01
405.85	2413.09
406.05	2410.75
406.24	2532.46
406.43	2534.80
406.62	2558.21
406.81	2672.89
407.00	2546.50
407.20	2562.89
407.39	2530.12
407.58	2565.23
407.77	2665.87
407.96	2757.15
408.15	2747.79
408.34	2743.11
408.54	2860.13
408.73	2848.43
408.92	2820.35
409.11	2993.55
409.30	2871.84
409.49	2895.24
409.68	2930.35
409.87	2979.50
410.07	3021.63
410.26	3005.25
410.45	2949.08
410.64	3047.38
410.83	3077.80
411.02	3136.32
411.21	3272.07
411.40	3265.05
411.59	3185.47
411.78	3155.04
411.98	3183.13
412.17	3241.64
412.36	3251.00
412.55	3274.41
412.74	3431.23
412.93	3442.93
413.12	3368.03
413.31	3555.27
413.50	3358.67
413.69	3363.35
413.88	3595.06
414.07	3566.98
414.26	3634.85
414.45	3761.24
414.64	3686.34
414.83	3847.84
415.02	3866.56
415.22	3733.15
415.41	3904.01
415.60	3852.52
415.79	3964.87
415.98	4046.79
416.17	3957.85
416.36	3950.82
416.55	4037.42
416.74	4035.08
416.93	4002.32
417.12	4184.88
417.31	4056.15
417.50	4217.65
417.69	4315.95
417.88	4280.84
418.07	4166.15
418.26	4219.99
418.45	4367.44
418.64	4505.53
418.83	4489.15
419.02	4514.89
419.21	4559.36
419.39	4491.49
419.58	4458.72
419.77	4376.80
419.96	4613.20
420.15	4592.13
420.34	4587.45
420.53	4557.02
420.72	4746.61
420.91	4730.22
421.10	4713.84
421.29	4758.31
421.48	4678.73
421.67	4826.18
421.86	4758.31
422.05	4896.40
422.24	4774.69
422.43	4912.78
422.61	4896.40
422.80	4999.38
422.99	5029.81
423.18	4894.06
423.37	4917.47
423.56	5034.49
423.75	4975.98
423.94	4814.48
424.13	4720.86
424.32	4816.82
424.50	5020.45
424.69	5116.41
424.88	5093.01
425.07	5022.79
425.26	4938.53
425.45	4922.15
425.64	4997.04
425.83	5076.62
426.01	5036.83
426.20	5153.86
426.39	5076.62
426.58	4961.94
426.77	5151.52
426.96	5125.77
427.15	5149.18
427.33	5268.55
427.52	5050.88
427.71	5434.72
427.90	5282.59
428.09	5359.83
428.28	5221.74
428.46	5327.06
428.65	5231.10
428.84	5540.05
429.03	5533.03
429.22	5364.51
429.40	5474.51
429.59	5437.06
429.78	5228.76
429.97	5390.25
430.16	5420.68
430.34	5579.84
430.53	5682.82
430.72	5671.12
430.91	5638.35
431.10	5521.32
431.28	5668.78
431.47	5771.76
431.66	5877.09
431.85	5724.95
432.03	6108.80
432.22	6120.50
432.41	5856.02
432.60	5867.72
432.79	5853.68
432.97	6190.72
433.16	6134.54
433.35	5961.34
433.54	6249.23
433.72	6101.78
433.91	6167.31
434.10	6293.70
434.28	6176.67
434.47	6263.27
434.66	6253.91
434.85	6305.40
435.03	6352.21
435.22	6221.14
435.41	6513.71
435.59	6289.02
435.78	6597.97
435.97	6499.67
436.16	6345.19
436.34	6494.99
436.53	6555.84
436.72	6773.51
436.90	6483.28
437.09	6761.81
437.28	6342.85
437.46	6806.28
437.65	6658.82
437.84	6881.18
438.02	6761.81
438.21	6712.66
438.40	6607.33
438.58	6991.18
438.77	7204.17
438.96	7199.49
439.14	7087.14
439.33	7082.46
439.52	7349.28
439.70	7339.92
439.89	7475.67
440.08	7419.50
440.26	7379.71
440.45	7295.45
440.63	7679.30
440.82	7611.42
441.01	7583.34
441.19	7548.23
441.38	7648.87
441.57	7833.77
441.75	7709.72
441.94	7812.71
442.12	7894.63
442.31	8016.33
442.50	8112.30
442.68	8166.13
442.87	8121.66
443.05	8126.34
443.24	8187.19
443.43	8091.23
443.61	8168.47
443.80	8552.32
443.98	8065.49
444.17	7988.25
444.35	8271.45
444.54	8456.36
444.73	8393.16
444.91	8355.71
445.10	8383.80
445.28	8411.89
445.47	8327.63
445.65	8379.12
445.84	8500.83
446.02	8423.59
446.21	8374.44
446.39	8315.92
446.58	8500.83
446.77	8702.11
446.95	8454.02
447.14	8383.80
447.32	8723.18
447.51	8697.43
447.69	8449.33
447.88	8608.49
448.06	8402.52
448.25	8575.72
448.43	8540.61
448.62	8667.00
448.80	8379.12
448.99	8828.50
449.17	8816.80
449.36	8732.54
449.54	8917.44
449.73	8830.84
449.91	9039.15
450.10	8854.25
450.28	9050.85
450.46	9109.36
450.65	9088.30
450.83	8994.68
451.02	9060.21
451.20	9238.09
451.39	9170.22
451.57	9156.18
451.76	9308.31
451.94	9439.38
452.13	9451.08
452.31	9345.76
452.49	9167.88
452.68	9308.31
452.86	9324.69
453.05	9448.74
453.23	9563.43
453.42	9366.82
453.60	9282.56
453.78	9666.41
453.97	9514.28
454.15	9392.57
454.34	9575.13
454.52	9706.20
454.70	9586.83
454.89	9745.99
455.07	9734.29
455.26	10061.96
455.44	10312.40
455.62	9895.78
455.81	10017.49
455.99	10113.45
456.17	10188.35
456.36	10031.54
456.54	10244.52
456.73	10143.88
456.91	10560.50
457.09	10572.20
457.28	10682.20
457.46	10293.68
457.64	10579.22
457.83	10633.05
458.01	10279.63
458.19	10773.49
458.38	10471.56
458.56	10752.42
458.74	10785.19
458.93	10892.85
459.11	10834.34
459.29	10801.57
459.48	10937.32
459.66	10803.91
459.84	11033.29
460.03	11080.10
460.21	11073.07
460.39	11187.76
460.57	11012.22
460.76	11367.98
460.94	11070.73
461.12	11183.08
461.31	11424.15
461.49	11190.10
461.67	11253.30
461.85	11688.64
462.04	11508.41
462.22	11630.12
462.40	11667.57
462.59	11442.88
462.77	11421.81
462.95	11487.35
463.13	11595.01
463.32	11726.08
463.50	12046.74
463.68	11719.06
463.86	12081.85
464.05	11634.80
464.23	11819.71
464.41	11705.02
464.59	11651.19
464.78	12084.19
464.96	11957.80
465.14	11779.92
465.32	12308.88
465.50	12145.04
465.69	12159.08
465.87	12210.57
466.05	12011.63
466.23	12315.90
466.41	12140.36
466.60	12397.82
466.78	12306.54
466.96	12194.19
467.14	12215.26
467.32	12243.34
467.51	12510.16
467.69	12086.53
467.87	12549.95
468.05	12695.07
468.23	12592.08
468.41	12458.67
468.60	12823.80
468.78	12666.98
468.96	12500.80
469.14	12615.49
469.32	13064.87
469.50	12711.45
469.69	13032.10
469.87	13034.44
470.05	13163.17
470.23	13137.43
470.41	13327.01
470.59	13343.39
470.77	13273.18
470.95	13364.46
471.14	13645.32
471.32	13186.58
471.50	13516.59
471.68	13729.58
471.86	13757.67
472.04	13722.56
472.22	14204.71
472.40	13832.57
472.58	13839.59
472.77	14022.15
472.95	14068.96
473.13	14471.53
473.31	14375.57
473.49	14333.44
473.67	14160.24
473.85	14459.83
474.03	14768.78
474.21	14684.52
474.39	14752.40
474.57	14778.14
474.75	15129.22
474.93	15129.22
475.12	14998.15
475.30	15330.51
475.48	15346.89
475.66	15290.72
475.84	15281.36
476.02	15461.58
476.20	15412.43
476.38	15520.09
476.56	15967.13
476.74	16091.18
476.92	15836.06
477.10	15899.26
477.28	16049.05
477.46	16236.30
477.64	16643.55
477.82	16465.67
478.00	17099.95
478.18	17027.40
478.36	16802.71
478.54	17062.51
478.72	17118.68
478.90	17462.74
479.08	17626.57
479.26	17525.93
479.44	17830.20
479.62	17806.80
479.80	18302.99
479.98	18087.66
480.16	18656.41
480.34	18338.10
480.52	18614.28
480.70	19133.88
480.88	18221.07
481.06	18813.23
481.24	18679.82
481.41	19501.34
481.59	19541.13
481.77	19531.77
481.95	19356.23
482.13	19754.12
482.31	19901.58
482.49	20173.08
482.67	20421.17
482.85	20357.98
483.03	20706.72
483.21	21032.05
483.39	20908.01
483.57	20706.72
483.74	21083.55
483.92	21376.11
484.10	21188.87
484.28	21568.04
484.46	21905.07
484.64	22375.52
484.82	21949.54
485.00	22422.33
485.18	23061.30
485.35	22977.04
485.53	22930.23
485.71	23178.33
485.89	24060.71
486.07	23129.17
486.25	23929.64
486.43	23924.96
486.61	24107.52
486.78	24257.31
486.96	24039.64
487.14	24535.84
487.32	24561.58
487.50	25017.99
487.68	25254.38
487.85	25621.84
488.03	25860.58
488.21	26188.25
488.39	25865.26
488.57	25860.58
488.75	26260.81
488.92	26478.48
489.10	27002.76
489.28	26628.27
489.46	27545.76
489.64	26881.05
489.81	27772.80
489.99	28006.85
490.17	28128.56
490.35	28322.82
490.53	28423.47
490.70	28477.30
490.88	28556.88
491.06	29151.37
491.24	28861.15
491.41	28863.49
491.59	29565.65
491.77	29748.21
491.95	29996.31
492.13	29888.64
492.30	29898.00
492.48	30684.42
492.66	30356.75
492.84	30515.90
493.01	30960.61
493.19	31138.49
493.37	31344.45
493.54	31243.81
493.72	31686.17
493.90	31665.11
494.08	31981.08
494.25	32240.88
494.43	32390.67
494.61	32446.85
494.79	32535.79
494.96	32554.51
495.14	32772.18
495.32	33251.99
495.49	33209.86
495.67	33574.98
495.85	33343.27
496.02	33879.25
496.20	33996.28
496.38	34185.86
496.55	34431.62
496.73	34951.22
496.91	34609.50
497.09	34864.62
497.26	35061.22
497.44	35105.70
497.62	35494.22
497.79	35894.46
497.97	35864.03
498.14	36210.43
498.32	36297.03
498.50	36367.24
498.67	36893.86
498.85	36430.44
499.03	37127.92
499.20	37024.93
499.38	37139.62
499.56	37303.46
499.73	37518.79
499.91	37633.47
500.08	37464.96
500.26	37701.35
500.44	37797.31
500.61	37951.79
500.79	38359.04
500.97	38122.65
501.14	39096.31
501.32	39178.23
501.49	38745.23
501.67	38841.19
501.84	38815.44
502.02	39089.29
502.20	39658.04
502.37	39655.70
502.55	39257.81
502.72	39620.59
502.90	39819.53
503.07	39971.67
503.25	40137.85
503.43	40069.97
503.60	40509.99
503.78	40250.19
503.95	40554.46
504.13	40329.77
504.30	40921.93
504.48	40645.74
504.65	40788.52
504.83	41322.16
505.01	40861.07
505.18	41687.28
505.36	41343.22
505.53	41378.33
505.71	41909.63
505.88	42010.28
506.06	41502.38
506.23	42405.83
506.41	41804.31
506.58	42258.37
506.76	42560.30
506.93	42937.13
507.11	42335.61
507.28	43239.06
507.46	43276.51
507.63	43576.09
507.81	43580.78
507.98	42979.26
508.16	43529.28
508.33	43835.89
508.50	43868.66
508.68	44128.46
508.85	44451.45
509.03	44304.00
509.20	44463.16
509.38	44554.44
509.55	44708.91
509.73	44554.44
509.90	44737.00
510.08	45059.99
510.25	45104.46
510.42	45120.85
510.60	45460.23
510.77	45062.33
510.95	45703.64
511.12	45118.51
511.30	45221.49
511.47	45729.39
511.64	45516.40
511.82	46073.45
511.99	45897.91
512.17	46380.06
512.34	46253.67
512.51	46607.09
512.69	46438.57
512.86	46450.27
513.04	47086.90
513.21	47004.98
513.38	46801.35
513.56	47510.53
513.73	46752.20
513.90	47484.79
514.08	46983.91
514.25	47538.62
514.43	47639.26
514.60	47784.38
514.77	47547.98
514.95	48034.81
515.12	47840.55
515.29	47835.87
515.47	48013.75
515.64	48156.52
515.81	48205.67
515.99	48257.17
516.16	48397.60
516.33	48479.52
516.51	49158.27
516.68	48589.52
516.85	48636.33
517.03	49123.16
517.20	49380.62
517.37	48978.05
517.54	49179.34
517.72	49125.50
517.89	49408.71
518.06	49251.89
518.24	49715.32
518.41	49406.37
518.58	49497.65
518.75	49432.11
518.93	49928.31
519.10	49502.33
519.27	49874.48
519.45	49996.18
519.62	49991.50
519.79	49902.56
519.96	50108.53
520.14	49848.73
520.31	50539.19
520.48	50588.34
520.65	50450.25
520.83	50777.92
521.00	50653.87
521.17	50670.26
521.34	50768.56
521.52	51035.38
521.69	50852.82
521.86	51231.99
522.03	51164.11
522.20	51601.79
522.38	51475.40
522.55	51363.06
522.72	51608.81
522.89	51688.39
523.07	51721.16
523.24	51531.57
523.41	51892.02
523.58	51428.59
523.75	51959.89
523.92	51892.02
524.10	52006.70
524.27	52037.13
524.44	52467.79
524.61	51987.98
524.78	52252.46
524.96	52458.43
525.13	52425.66
525.30	52589.50
525.47	52734.61
525.64	52467.79
525.81	52554.39
525.98	52903.13
526.16	52828.23
526.33	53015.47
526.50	52947.60
526.67	52905.47
526.84	53146.54
527.01	52966.32
527.18	53076.33
527.36	53137.18
527.53	52870.36
527.70	53399.32
527.87	53488.26
528.04	53418.05
528.21	53628.69
528.38	53748.06
528.55	53818.28
528.72	53371.24
528.89	53792.53
529.07	53502.31
529.24	53434.43
529.41	53794.87
529.58	53801.89
529.75	53647.42
529.92	53867.43
530.09	53914.24
530.26	54258.30
530.43	54033.61
530.60	53911.90
530.77	54014.88
530.94	54082.76
531.11	54092.12
531.28	54464.27
531.46	54705.34
531.63	54389.37
531.80	54487.67
531.97	54609.38
532.14	54536.82
532.31	54422.14
532.48	54646.83
532.65	54602.36
532.82	54539.16
532.99	54714.70
533.16	54752.15
533.33	54983.86
533.50	55014.29
533.67	54843.43
533.84	54855.14
534.01	55009.61
534.18	54967.48
534.35	55173.45
534.52	55082.17
534.69	55388.78
534.86	55309.20
535.03	55000.25
535.20	55440.27
535.37	55409.84
535.54	55884.97
535.71	55337.29
535.88	55517.51
536.05	55508.14
536.22	55697.73
536.38	55980.93
536.55	55700.07
536.72	55796.03
536.89	55400.48
537.06	55803.05
537.23	55608.79
537.40	55763.26
537.57	55941.14
537.74	56053.49
537.91	56322.65
538.08	56217.33
538.25	56097.96
538.42	56102.64
538.59	55983.27
538.75	55877.95
538.92	56123.71
539.09	56315.63
539.26	56360.10
539.43	56289.88
539.60	56229.03
539.77	56467.76
539.94	56774.37
540.11	56825.87
540.28	56844.59
540.44	56446.70
540.61	56479.47
540.78	56559.05
540.95	56549.68
541.12	56676.07
541.29	56495.85
541.46	56720.54
541.62	56793.10
541.79	56769.69
541.96	56453.72
542.13	56919.49
542.30	57052.90
542.47	57055.24
542.63	57027.15
542.80	57322.06
542.97	57123.11
543.14	57251.84
543.31	57340.78
543.48	57453.13
543.64	57457.81
543.81	57499.94
543.98	57385.25
544.15	57408.66
544.32	57467.17
544.48	57528.03
544.65	57513.98
544.82	57462.49
544.99	57539.73
545.16	57546.75
545.32	57457.81
545.49	57989.11
545.66	57818.25
545.83	57869.75
546.00	57989.11
546.16	57895.49
546.33	57790.17
546.50	57591.22
546.67	57886.13
546.83	57509.30
547.00	57698.89
547.17	57911.88
547.34	57907.19
547.50	57836.98
547.67	58239.55
547.84	58045.29
548.00	58340.19
548.17	58410.41
548.34	58433.81
548.51	58412.75
548.67	58138.91
548.84	58300.40
549.01	58230.19
549.18	58288.70
549.34	58431.47
549.51	58482.97
549.68	58557.86
549.84	58569.57
550.01	58293.38
550.18	58436.16
550.34	58611.70
550.51	58541.48
550.68	58649.14
550.84	58321.47
551.01	58827.02
551.18	58557.86
551.34	58616.38
551.51	58688.93
551.68	58639.78
551.84	58679.57
552.01	58752.13
552.18	58780.21
552.34	58707.66
552.51	58768.51
552.68	58822.34
552.84	58857.45
553.01	58913.62
553.18	58901.92
553.34	58831.71
553.51	58777.87
553.67	58866.81
553.84	59220.23
554.01	58997.88
554.17	59070.44
554.34	59164.06
554.51	59110.23
554.67	59302.15
554.84	59245.98
555.00	59194.49
555.17	59201.51
555.33	59206.19
555.50	59030.65
555.67	59054.06
555.83	59077.46
556.00	59281.09
556.16	59587.70
556.33	59554.93
556.50	59302.15
556.66	59564.29
556.83	59267.05
556.99	59721.11
557.16	59709.41
557.32	59524.50
557.49	59721.11
557.65	59578.34
557.82	59704.73
557.98	59482.37
558.15	59437.90
558.32	59686.00
558.48	59721.11
558.65	59615.79
558.81	59786.64
558.98	59870.90
559.14	59690.68
559.31	59859.20
559.47	59863.88
559.64	59749.20
559.80	59863.88
559.97	59767.92
560.13	59576.00
560.30	59765.58
560.46	60065.17
560.63	59826.43
560.79	59870.90
560.96	60069.85
561.12	60107.30
561.29	60001.97
561.45	59936.44
561.61	59760.90
561.78	60037.08
561.94	59810.05
562.11	59891.97
562.27	60142.41
562.44	60210.28
562.60	60165.81
562.77	60097.94
562.93	59929.42
563.10	60196.24
563.26	59884.95
563.42	60329.65
563.59	60240.71
563.75	60243.05
563.92	60102.62
564.08	60224.32
564.24	60261.77
564.41	60346.03
564.57	60212.62
564.74	60308.58
564.90	60327.31
565.07	60268.79
565.23	60210.28
565.39	60079.21
565.56	60327.31
565.72	60231.35
565.88	60390.50
566.05	60130.70
566.21	60240.71
566.38	60371.78
566.54	60472.42
566.70	60357.74
566.87	60715.84
567.03	60175.17
567.19	60570.72
567.36	60413.91
567.52	60303.90
567.68	60720.52
567.85	60385.82
568.01	60774.35
568.17	60530.93
568.34	60477.10
568.50	60413.91
568.66	60596.47
568.83	60502.85
568.99	60313.26
569.15	60481.78
569.32	60554.34
569.48	60608.17
569.64	60769.67
569.81	60662.00
569.97	60760.31
570.13	60732.22
570.30	60465.40
570.46	60561.36
570.62	60713.50
570.78	60594.13
570.95	60783.71
571.11	60530.93
571.27	60626.90
571.43	60680.73
571.60	60842.23
571.76	60509.87
571.92	60605.83
572.09	60821.16
572.25	60640.94
572.41	60692.43
572.57	60706.47
572.74	60802.44
572.90	60750.94
573.06	60825.84
573.22	60528.59
573.38	60790.73
573.55	60914.78
573.71	60919.46
573.87	60825.84
574.03	60603.49
574.20	60638.60
574.36	60743.92
574.52	60636.26
574.68	60870.31
574.84	60977.98
575.01	60893.72
575.17	60800.10
575.33	60687.75
575.49	60942.87
575.65	60874.99
575.82	60947.55
575.98	61036.49
576.14	60973.30
576.30	61162.88
576.46	60671.37
576.62	60858.61
576.79	60891.38
576.95	60762.65
577.11	61024.79
577.27	61120.75
577.43	60926.49
577.59	60807.12
577.75	60739.24
577.92	60685.41
578.08	60919.46
578.24	61055.21
578.40	61041.17
578.56	61200.33
578.72	61052.87
578.88	61165.22
579.04	61109.05
579.21	61080.96
579.37	60882.02
579.53	61158.20
579.69	60863.29
579.85	60992.02
580.01	61010.74
580.17	60853.93
580.33	60917.12
580.49	60994.36
580.65	61263.52
580.82	60952.23
580.98	61015.43
581.14	60928.83
581.30	60999.04
581.46	61048.19
581.62	61209.69
581.78	61097.34
581.94	61242.46
582.10	61038.83
582.26	60966.27
582.42	61102.03
582.58	60919.46
582.74	61146.50
582.90	61097.34
583.06	61071.60
583.22	60987.34
583.38	61125.43
583.54	61111.39
583.70	61153.52
583.86	61144.16
584.02	61029.47
584.18	61242.46
584.34	61139.47
584.50	61193.31
584.66	60959.25
584.82	60970.96
584.98	61392.25
585.14	61139.47
585.30	61080.96
585.46	61132.45
585.62	61130.11
585.78	61307.99
585.94	60924.14
586.10	61153.52
586.26	61205.01
586.42	61188.63
586.58	61144.16
586.74	61041.17
586.90	60973.30
587.06	61097.34
587.22	61214.37
587.38	61006.06
587.54	61212.03
587.70	61399.27
587.86	61190.97
588.02	61003.72
588.18	61251.82
588.34	61095.00
588.49	61052.87
