SpectraSuite Data File
++++++++++++++++++++++++++++++++++++
Date: Fri Oct 25 11:26:23 EDT 2013
User: price-jones
Dark Spectrum Present: No
Reference Spectrum Present: No
Number of Sampled Component Spectra: 1
Spectrometers: USB2+H05261
Integration Time (usec): 100000 (USB2+H05261)
Spectra Averaged: 1 (USB2+H05261)
Boxcar Smoothing: 0 (USB2+H05261)
Correct for Electrical Dark: No (USB2+H05261)
Strobe/Lamp Enabled: No (USB2+H05261)
Correct for Detector Non-linearity: No (USB2+H05261)
Correct for Stray Light: No (USB2+H05261)
Number of Pixels in Processed Spectrum: 2048
>>>>>Begin Processed Spectral Data<<<<<
365.73	255.12
365.92	255.12
366.12	255.12
366.32	81.92
366.52	131.07
366.72	154.48
366.91	147.45
367.11	159.16
367.31	128.73
367.51	107.66
367.70	154.48
367.90	198.95
368.10	121.71
368.30	117.03
368.49	145.11
368.69	182.56
368.89	196.60
369.09	72.56
369.28	133.41
369.48	205.97
369.68	198.95
369.87	173.20
370.07	203.63
370.27	236.39
370.47	344.06
370.66	564.07
370.86	645.99
371.06	660.03
371.25	720.88
371.45	671.73
371.65	667.05
371.84	678.76
372.04	669.39
372.24	620.24
372.44	770.04
372.63	753.65
372.83	781.74
373.03	741.95
373.22	709.18
373.42	807.48
373.62	844.93
373.81	833.23
374.01	837.91
374.21	819.19
374.40	823.87
374.60	901.11
374.79	786.42
374.99	800.46
375.19	847.27
375.38	788.76
375.58	777.06
375.78	802.80
375.97	835.57
376.17	938.55
376.37	866.00
376.56	919.83
376.76	849.61
376.95	840.25
377.15	816.85
377.35	875.36
377.54	961.96
377.74	844.93
377.93	945.58
378.13	835.57
378.33	999.41
378.52	863.66
378.72	961.96
378.91	978.34
379.11	861.32
379.31	952.60
379.50	964.30
379.70	1020.47
379.89	978.34
380.09	973.66
380.28	933.87
380.48	968.98
380.68	922.17
380.87	999.41
381.07	987.71
381.26	1015.79
381.46	987.71
381.65	1104.73
381.85	1020.47
382.04	1086.01
382.24	1097.71
382.43	1062.60
382.63	1006.43
382.83	1067.28
383.02	1151.54
383.22	1114.10
383.41	1067.28
383.61	1083.67
383.80	1036.86
384.00	1151.54
384.19	1203.04
384.39	1181.97
384.58	1118.78
384.78	1083.67
384.97	1001.75
385.17	1151.54
385.36	1090.69
385.56	1203.04
385.75	1149.20
385.95	1191.33
386.14	1259.21
386.34	1242.82
386.53	1249.85
386.72	1188.99
386.92	1235.80
387.11	1231.12
387.31	1226.44
387.50	1228.78
387.70	1203.04
387.89	1179.63
388.09	1329.42
388.28	1203.04
388.48	1280.27
388.67	1366.87
388.86	1235.80
389.06	1324.74
389.25	1376.24
389.45	1341.13
389.64	1282.61
389.84	1327.08
390.03	1387.94
390.22	1322.40
390.42	1511.99
390.61	1348.15
390.81	1331.76
391.00	1376.24
391.19	1345.81
391.39	1455.81
391.58	1430.07
391.78	1399.64
391.97	1490.92
392.16	1507.30
392.36	1540.07
392.55	1437.09
392.75	1507.30
392.94	1521.35
393.13	1465.18
393.33	1523.69
393.52	1558.80
393.71	1650.08
393.91	1565.82
394.10	1605.61
394.29	1563.48
394.49	1643.06
394.68	1689.87
394.88	1647.74
395.07	1603.27
395.26	1626.67
395.46	1678.16
395.65	1755.40
395.84	1692.21
396.04	1804.55
396.23	1750.72
396.42	1755.40
396.62	1696.89
396.81	1671.14
397.00	1774.13
397.19	1813.92
397.39	1788.17
397.58	1846.68
397.77	1825.62
397.97	1834.98
398.16	1727.32
398.35	1774.13
398.55	1783.49
398.74	1823.28
398.93	1963.71
399.12	1968.39
399.32	1907.54
399.51	1907.54
399.70	2022.22
399.90	1970.73
400.09	1935.62
400.28	1895.83
400.47	1984.77
400.67	2094.78
400.86	2040.95
401.05	2083.08
401.24	2078.40
401.44	2174.36
401.63	2186.06
401.82	2246.91
402.01	2073.71
402.21	2176.70
402.40	2090.10
402.59	2188.40
402.78	2225.85
402.97	2221.17
403.17	2104.14
403.36	2289.04
403.55	2242.23
403.74	2345.22
403.93	2258.62
404.13	2356.92
404.32	2349.90
404.51	2403.73
404.70	2356.92
404.89	2282.02
405.09	2326.49
405.28	2480.97
405.47	2394.37
405.66	2527.78
405.85	2480.97
406.05	2614.38
406.24	2558.21
406.43	2569.91
406.62	2586.29
406.81	2656.51
407.00	2544.16
407.20	2473.95
407.39	2553.52
407.58	2738.43
407.77	2715.02
407.96	2724.38
408.15	2747.79
408.34	2708.00
408.54	2768.85
408.73	2832.05
408.92	2759.49
409.11	2815.66
409.30	2841.41
409.49	2808.64
409.68	2911.63
409.87	2810.98
410.07	2995.89
410.26	3141.00
410.45	3052.06
410.64	3075.46
410.83	2913.97
411.02	3091.85
411.21	3087.17
411.40	3112.91
411.59	3138.66
411.78	3281.43
411.98	3199.51
412.17	3218.24
412.36	3246.32
412.55	3283.77
412.74	3328.24
412.93	3375.05
413.12	3295.47
413.31	3571.66
413.50	3414.84
413.69	3428.88
413.88	3566.98
414.07	3508.46
414.26	3510.80
414.45	3569.32
414.64	3740.18
414.83	3728.47
415.02	3747.20
415.22	3810.39
415.41	3934.44
415.60	3812.73
415.79	3925.08
415.98	3955.51
416.17	4016.36
416.36	3978.91
416.55	3896.99
416.74	4039.76
416.93	3911.04
417.12	4079.55
417.31	4147.43
417.50	4196.58
417.69	4299.56
417.88	4241.05
418.07	4257.43
418.26	4224.67
418.45	4229.35
418.64	4353.40
418.83	4257.43
419.02	4440.00
419.21	4355.74
419.39	4592.13
419.58	4388.50
419.77	4449.36
419.96	4535.96
420.15	4578.09
420.34	4568.73
420.53	4578.09
420.72	4606.17
420.91	4592.13
421.10	4561.70
421.29	4725.54
421.48	4620.22
421.67	4770.01
421.86	4875.34
422.05	4791.08
422.24	4844.91
422.43	4968.96
422.61	4940.87
422.80	4861.29
422.99	4788.74
423.18	4784.06
423.37	4997.04
423.56	4678.73
423.75	4828.53
423.94	4678.73
424.13	4512.55
424.32	4786.40
424.50	4980.66
424.69	4983.00
424.88	4961.94
425.07	4919.81
425.26	4959.60
425.45	4901.08
425.64	4858.95
425.83	4985.34
426.01	5013.43
426.20	4971.30
426.39	5064.92
426.58	5100.03
426.77	4966.62
426.96	5093.01
427.15	5177.26
427.33	5160.88
427.52	5062.58
427.71	5102.37
427.90	5090.67
428.09	5277.91
428.28	5362.17
428.46	5397.28
428.65	5200.67
428.84	5535.37
429.03	5296.63
429.22	5224.08
429.40	5266.21
429.59	5425.36
429.78	5219.39
429.97	5238.12
430.16	5481.53
430.34	5556.43
430.53	5572.82
430.72	5628.99
430.91	5633.67
431.10	5418.34
431.28	5547.07
431.47	5804.53
431.66	5760.06
431.85	5659.42
432.03	5664.10
432.22	5963.68
432.41	5799.85
432.60	5858.36
432.79	5902.83
432.97	5963.68
433.16	5792.83
433.35	5973.05
433.54	6097.10
433.72	6038.58
433.91	6132.20
434.10	6092.41
434.28	5994.11
434.47	6239.87
434.66	6256.25
434.85	6403.71
435.03	6380.30
435.22	6230.51
435.41	6616.69
435.59	6242.21
435.78	6424.77
435.97	6443.49
436.16	6354.55
436.34	6427.11
436.53	6436.47
436.72	6712.66
436.90	6445.84
437.09	6813.30
437.28	6504.35
437.46	6541.80
437.65	6600.31
437.84	6675.21
438.02	6518.39
438.21	6626.06
438.40	6698.61
438.58	6986.50
438.77	6846.07
438.96	6773.51
439.14	7150.34
439.33	7222.89
439.52	7218.21
439.70	7112.89
439.89	7456.95
440.08	7213.53
440.26	7227.57
440.45	7417.16
440.63	7321.20
440.82	7578.65
441.01	7470.99
441.19	7449.93
441.38	7681.64
441.57	7634.83
441.75	7660.57
441.94	7847.82
442.12	7817.39
442.31	7903.99
442.50	7960.16
442.68	7988.25
442.87	7887.61
443.05	8152.09
443.24	8182.51
443.43	8140.38
443.61	8081.87
443.80	8341.67
443.98	8156.77
444.17	7721.43
444.35	7885.26
444.54	8421.25
444.73	8348.69
444.91	8159.11
445.10	8315.92
445.28	8159.11
445.47	8189.53
445.65	8353.37
445.84	8243.37
446.02	8409.54
446.21	8180.17
446.39	8198.90
446.58	8461.04
446.77	8154.43
446.95	8140.38
447.14	8503.17
447.32	8575.72
447.51	8454.02
447.69	8379.12
447.88	8423.59
448.06	8505.51
448.25	8454.02
448.43	8484.44
448.62	8554.66
448.80	8395.50
448.99	8575.72
449.17	8788.71
449.36	8669.34
449.54	8835.52
449.73	8854.25
449.91	8730.20
450.10	9015.74
450.28	8837.86
450.46	8917.44
450.65	8982.98
450.83	8968.93
451.02	9011.06
451.20	9008.72
451.39	9205.33
451.57	9088.30
451.76	9071.92
451.94	9174.90
452.13	9334.06
452.31	9366.82
452.49	9165.54
452.68	9228.73
452.86	9291.93
453.05	9423.00
453.23	9458.10
453.42	9202.99
453.60	9345.76
453.78	9465.13
453.97	9226.39
454.15	9378.53
454.34	9479.17
454.52	9848.97
454.70	9561.09
454.89	9549.39
455.07	9703.86
455.26	9692.16
455.44	9879.40
455.62	9827.91
455.81	9991.75
455.99	9951.96
456.17	10073.67
456.36	9994.09
456.54	10005.79
456.73	10108.77
456.91	10310.06
457.09	10305.38
457.28	10312.40
457.46	10326.44
457.64	10593.26
457.83	10459.85
458.01	10279.63
458.19	10551.14
458.38	10509.01
458.56	10459.85
458.74	10506.66
458.93	10703.27
459.11	10635.39
459.29	10820.30
459.48	10747.74
459.66	10750.08
459.84	10738.38
460.03	10986.47
460.21	10630.71
460.39	10878.81
460.57	10628.37
460.76	10949.03
460.94	11162.01
461.12	11162.01
461.31	11136.27
461.49	11042.65
461.67	11218.19
461.85	11372.66
462.04	11318.83
462.22	11873.54
462.40	11485.01
462.59	11335.21
462.77	11499.05
462.95	11534.16
463.13	11492.03
463.32	11655.87
463.50	11688.64
463.68	11793.96
463.86	11868.86
464.05	11602.04
464.23	11445.22
464.41	11737.79
464.59	11634.80
464.78	11826.73
464.96	11885.24
465.14	11707.36
465.32	11918.01
465.50	12035.03
465.69	12147.38
465.87	12042.06
466.05	11932.05
466.23	12079.50
466.41	11985.88
466.60	12343.99
466.78	12028.01
466.96	12236.32
467.14	12196.53
467.32	12259.73
467.51	12376.75
467.69	12112.27
467.87	12245.68
468.05	12416.54
468.23	12379.09
468.41	12313.56
468.60	12561.66
468.78	12451.65
468.96	12348.67
469.14	12624.85
469.32	12915.08
469.50	12685.70
469.69	12758.26
469.87	12807.41
470.05	12992.31
470.23	13121.04
470.41	13242.75
470.59	13172.54
470.77	13095.30
470.95	13188.92
471.14	13504.89
471.32	13074.23
471.50	13406.59
471.68	13305.95
471.86	13561.06
472.04	13788.10
472.22	13727.24
472.40	13635.96
472.58	13603.19
472.77	13961.30
472.95	13968.32
473.13	14555.79
473.31	13579.79
473.49	14111.09
473.67	14141.52
473.85	14111.09
474.03	14506.64
474.21	14431.74
474.39	14684.52
474.57	14448.13
474.75	14724.31
474.93	14841.34
475.12	14874.10
475.30	15112.84
475.48	15087.09
475.66	15147.95
475.84	15063.69
476.02	15197.10
476.20	15206.46
476.38	15447.54
476.56	15906.28
476.74	15697.97
476.92	15807.98
477.10	15740.10
477.28	16236.30
477.46	15957.77
477.64	15962.45
477.82	16421.20
478.00	16896.33
478.18	16599.08
478.36	16957.18
478.54	16884.62
478.72	16910.37
478.90	17085.91
479.08	17270.81
479.26	17516.57
479.44	17355.07
479.62	17666.36
479.80	17994.04
479.98	18064.25
480.16	18443.42
480.34	17888.71
480.52	18668.11
480.70	18642.37
480.88	18192.98
481.06	18672.79
481.24	18560.45
481.41	19047.28
481.59	19171.33
481.77	19377.30
481.95	19587.94
482.13	19456.87
482.31	19714.33
482.49	19922.64
482.67	19742.42
482.85	20257.34
483.03	20517.14
483.21	20566.29
483.39	20699.70
483.57	20383.73
483.74	21076.52
483.92	21113.97
484.10	20814.38
484.28	21392.50
484.46	21586.76
484.64	22047.85
484.82	21912.10
485.00	22111.04
485.18	22326.37
485.35	22972.36
485.53	22768.73
485.71	22941.93
485.89	23475.57
486.07	23077.68
486.25	23300.03
486.43	23339.82
486.61	23527.06
486.78	23711.97
486.96	24084.11
487.14	24173.05
487.32	24276.04
487.50	24769.89
487.68	24989.90
487.85	25130.33
488.03	25371.41
488.21	25390.13
488.39	25420.56
488.57	25860.58
488.75	25916.75
488.92	26064.21
489.10	26354.43
489.28	26387.20
489.46	27005.10
489.64	26691.47
489.81	27358.52
489.99	27557.47
490.17	27309.37
490.35	28077.07
490.53	27775.14
490.70	28137.92
490.88	27770.46
491.06	28432.83
491.24	28549.85
491.41	28898.59
491.59	28980.51
491.77	29153.71
491.95	29235.63
492.13	29237.97
492.30	29544.58
492.48	29556.28
492.66	29792.68
492.84	29933.11
493.01	30389.52
493.19	30567.40
493.37	30866.98
493.54	30976.99
493.72	31150.19
493.90	31222.75
494.08	31494.25
494.25	31714.26
494.43	31501.27
494.61	32126.19
494.79	32240.88
494.96	32151.94
495.14	32561.53
495.32	32950.06
495.49	32837.72
495.67	32568.55
495.85	33263.69
496.02	33219.22
496.20	33640.52
496.38	33708.40
496.55	33383.06
496.73	34436.30
496.91	34452.69
497.09	34478.43
497.26	34342.68
497.44	34480.77
497.62	34565.03
497.79	35157.19
497.97	34965.26
498.14	35372.52
498.32	35534.01
498.50	35744.66
498.67	36236.17
498.85	35945.95
499.03	36282.98
499.20	36329.80
499.38	36500.65
499.56	36720.66
499.73	37067.06
499.91	36793.22
500.08	37336.23
500.26	36943.02
500.44	37153.66
500.61	37448.57
500.79	37432.19
500.97	37970.51
501.14	38309.89
501.32	38375.42
501.49	38117.96
501.67	38155.41
501.84	38377.76
502.02	38642.24
502.20	38899.70
502.37	39065.88
502.55	39014.39
502.72	38677.35
502.90	39152.48
503.07	38946.51
503.25	39346.75
503.43	39372.49
503.60	39562.08
503.78	39892.09
503.95	39985.71
504.13	40093.38
504.30	40545.10
504.48	40100.40
504.65	40098.06
504.83	40861.07
505.01	40715.96
505.18	41045.97
505.36	40971.08
505.53	40643.40
505.71	40863.41
505.88	41427.48
506.06	40978.10
506.23	41659.20
506.41	41537.49
506.58	41584.30
506.76	41668.56
506.93	41668.56
507.11	41984.53
507.28	41865.16
507.46	42319.23
507.63	42485.40
507.81	42646.90
507.98	42431.57
508.16	42462.00
508.33	43058.84
508.50	43140.75
508.68	43309.27
508.85	43133.73
509.03	43283.53
509.20	43447.36
509.38	44294.64
509.55	44023.14
509.73	44076.97
509.90	44439.75
510.08	44589.55
510.25	44509.97
510.42	44179.95
510.60	44575.50
510.77	44741.68
510.95	45481.29
511.12	44538.05
511.30	44989.78
511.47	44830.62
511.64	45223.83
511.82	45806.62
511.99	45492.99
512.17	45214.47
512.34	45663.85
512.51	45577.25
512.69	46085.15
512.86	45839.39
513.04	46476.02
513.21	46164.73
513.38	46307.50
513.56	46398.78
513.73	46616.45
513.90	46670.28
514.08	46134.30
514.25	47065.83
514.43	47133.71
514.60	47079.88
514.77	46759.22
514.95	47306.91
515.12	47304.57
515.29	47224.99
515.47	47365.42
515.64	47482.45
515.81	47540.96
515.99	47948.21
516.16	47814.80
516.33	47992.68
516.51	48161.20
516.68	48222.06
516.85	48226.74
517.03	48699.53
517.20	48547.39
517.37	48376.53
517.54	48624.63
517.72	48580.16
517.89	48509.94
518.06	49045.93
518.24	48968.69
518.41	48931.24
518.58	48865.70
518.75	48884.43
518.93	49287.00
519.10	49191.04
519.27	49401.69
519.45	49230.83
519.62	49820.64
519.79	49696.59
519.96	49429.77
520.14	49940.01
520.31	49806.60
520.48	49801.92
520.65	50012.57
520.83	50284.07
521.00	50719.41
521.17	50150.66
521.34	50391.73
521.52	50485.36
521.69	50782.60
521.86	50698.34
522.03	51178.15
522.20	51121.98
522.38	51168.79
522.55	51049.42
522.72	50796.65
522.89	50927.72
523.07	51007.29
523.24	51070.49
523.41	51334.97
523.58	51035.38
523.75	51416.89
523.92	51133.68
524.10	51704.77
524.27	51742.22
524.44	51571.36
524.61	51831.16
524.78	51608.81
524.96	52198.63
525.13	52074.58
525.30	52135.43
525.47	52200.97
525.64	52025.43
525.81	52128.41
525.98	52423.32
526.16	52203.31
526.33	52788.44
526.50	52736.95
526.67	52236.08
526.84	52664.39
527.01	52310.97
527.18	52774.40
527.36	52624.60
527.53	52568.43
527.70	53165.27
527.87	53256.55
528.04	52818.87
528.21	53228.46
528.38	53277.61
528.55	53322.08
528.72	53029.52
528.89	53317.40
529.07	53202.72
529.24	53057.60
529.41	53254.21
529.58	53530.39
529.75	53165.27
529.92	53193.36
530.09	53621.67
530.26	53647.42
530.43	53544.44
530.60	53563.16
530.77	53626.35
530.94	53907.22
531.11	53549.12
531.28	53801.89
531.46	53841.68
531.63	54064.03
531.80	53961.05
531.97	53909.56
532.14	54237.23
532.31	54440.86
532.48	54349.58
532.65	54614.06
532.82	54571.93
532.99	54361.28
533.16	54337.88
533.33	54597.68
533.50	54490.01
533.67	54370.64
533.84	54536.82
534.01	54710.02
534.18	54672.57
534.35	55023.65
534.52	54756.83
534.69	54770.88
534.86	54705.34
535.03	55121.96
535.20	54822.37
535.37	54990.89
535.54	55091.53
535.71	54934.71
535.88	55344.31
536.05	55112.59
536.22	55379.42
536.38	55372.39
536.55	55283.45
536.72	55515.17
536.89	55070.46
537.06	55554.96
537.23	55674.32
537.40	55341.97
537.57	55281.11
537.74	55442.61
537.91	55866.25
538.08	55805.39
538.25	55627.51
538.42	55405.16
538.59	55826.46
538.75	55580.70
538.92	55889.65
539.09	55910.72
539.26	56102.64
539.43	55770.28
539.60	56090.94
539.77	55763.26
539.94	56257.12
540.11	56074.55
540.28	56465.42
540.44	56226.69
540.61	55952.85
540.78	56149.45
540.95	56320.31
541.12	56072.21
541.29	56435.00
541.46	56212.65
541.62	56189.24
541.79	56474.79
541.96	56191.58
542.13	56364.78
542.30	56582.45
542.47	56507.55
542.63	56643.30
542.80	56690.12
542.97	56781.40
543.14	56994.39
543.31	56814.16
543.48	57083.33
543.64	57209.71
543.81	57293.97
543.98	57155.88
544.15	57132.48
544.32	57275.25
544.48	57219.08
544.65	57022.47
544.82	57286.95
544.99	57284.61
545.16	57104.39
545.32	57111.41
545.49	57340.78
545.66	57450.79
545.83	57464.83
546.00	57499.94
546.16	57368.87
546.33	57333.76
546.50	57308.02
546.67	57396.96
546.83	57031.83
547.00	57251.84
547.17	57542.07
547.34	57640.37
547.50	57691.86
547.67	57890.81
547.84	57750.38
548.00	58110.82
548.17	57944.64
548.34	57703.57
548.51	57902.51
548.67	57958.69
548.84	57750.38
549.01	57595.90
549.18	57944.64
549.34	57998.48
549.51	58129.54
549.68	58066.35
549.84	58005.50
550.01	58326.15
550.18	58012.52
550.34	58225.51
550.51	58279.34
550.68	58164.65
550.84	58073.37
551.01	58342.53
551.18	58358.92
551.34	58391.68
551.51	58286.36
551.68	58330.83
551.84	58382.32
552.01	58183.38
552.18	58408.07
552.34	58429.13
552.51	58497.01
552.68	58478.28
552.84	58562.54
553.01	58520.41
553.18	58431.47
553.34	58607.01
553.51	58443.18
553.67	58698.30
553.84	58784.90
554.01	58883.20
554.17	58693.61
554.34	58777.87
554.51	58763.83
554.67	58941.71
554.84	58740.42
555.00	59016.61
555.17	58822.34
555.33	58805.96
555.50	58745.11
555.67	59009.59
555.83	58908.94
556.00	58953.41
556.16	59077.46
556.33	59049.38
556.50	58913.62
556.66	59161.72
556.83	58995.54
556.99	59245.98
557.16	59484.72
557.32	59166.40
557.49	59372.37
557.65	59086.82
557.82	59021.29
557.98	58967.46
558.15	59241.30
558.32	59313.86
558.48	59253.00
558.65	59236.62
558.81	59264.70
558.98	59210.87
559.14	59189.81
559.31	59384.07
559.47	59444.93
559.64	59274.07
559.80	59550.25
559.97	59482.37
560.13	59229.60
560.30	59480.03
560.46	59508.12
560.63	59611.10
560.79	59695.36
560.96	59732.81
561.12	59636.85
561.29	59671.96
561.45	59419.18
561.61	59580.68
561.78	59676.64
561.94	59494.08
562.11	59522.16
562.27	59618.13
562.44	59760.90
562.60	59922.40
562.77	59676.64
562.93	59517.48
563.10	59786.64
563.26	59763.24
563.42	59934.10
563.59	59779.62
563.75	59805.37
563.92	59704.73
564.08	59756.22
564.24	59955.16
564.41	60018.36
564.57	59866.22
564.74	59936.44
564.90	59884.95
565.07	59847.50
565.23	60104.96
565.39	60018.36
565.56	60041.76
565.72	59964.52
565.88	59999.63
566.05	60018.36
566.21	59952.82
566.38	59999.63
566.54	60158.79
566.70	60193.90
566.87	60128.36
567.03	59973.89
567.19	60179.85
567.36	59959.84
567.52	60034.74
567.68	60423.27
567.85	60214.96
568.01	60121.34
568.17	59994.95
568.34	60273.48
568.50	60217.30
568.66	60271.14
568.83	60074.53
568.99	60032.40
569.15	60116.66
569.32	60224.32
569.48	60116.66
569.64	60238.37
569.81	60212.62
569.97	60224.32
570.13	60434.97
570.30	60144.75
570.46	60250.07
570.62	60285.18
570.78	60327.31
570.95	60083.89
571.11	60474.76
571.27	60111.98
571.43	60509.87
571.60	60425.61
571.76	60411.57
571.92	60554.34
572.09	60313.26
572.25	60261.77
572.41	60317.95
572.57	60350.71
572.74	60577.75
572.90	60219.64
573.06	60395.18
573.22	60296.88
573.38	60385.82
573.55	60437.31
573.71	60432.63
573.87	60514.55
574.03	60353.05
574.20	60381.14
574.36	60212.62
574.52	60519.23
574.68	60577.75
574.84	60594.13
575.01	60713.50
575.17	60451.36
575.33	60350.71
575.49	60388.16
575.65	60533.28
575.82	60566.04
575.98	60692.43
576.14	60807.12
576.30	60568.38
576.46	60399.86
576.62	60568.38
576.79	60570.72
576.95	60449.02
577.11	60533.28
577.27	60654.98
577.43	60608.17
577.59	60692.43
577.75	60659.66
577.92	60540.30
578.08	60577.75
578.24	60622.22
578.40	60828.18
578.56	60732.22
578.72	60654.98
578.88	60839.89
579.04	60903.08
579.21	60556.68
579.37	60910.10
579.53	60650.30
579.69	60334.33
579.85	60615.19
580.01	60495.83
580.17	60631.58
580.33	60669.03
580.49	60874.99
580.65	60797.76
580.82	60643.28
580.98	60526.25
581.14	60577.75
581.30	60720.52
581.46	60753.29
581.62	60800.10
581.78	60552.00
581.94	60659.66
582.10	60650.30
582.26	60556.68
582.42	60420.93
582.58	60860.95
582.74	60669.03
582.90	60956.91
583.06	60636.26
583.22	60449.02
583.38	60729.88
583.54	60690.09
583.70	60757.97
583.86	60584.77
584.02	60879.67
584.18	60945.21
584.34	60793.07
584.50	60776.69
584.66	60528.59
584.82	60706.47
584.98	60764.99
585.14	60987.34
585.30	60790.73
585.46	60718.18
585.62	60741.58
585.78	60942.87
585.94	60685.41
586.10	60835.20
586.26	60989.68
586.42	60856.27
586.58	60870.31
586.74	60772.01
586.90	60781.37
587.06	60706.47
587.22	60896.06
587.38	60963.93
587.54	60954.57
587.70	61181.60
587.86	60769.67
588.02	60839.89
588.18	60846.91
588.34	60825.84
588.49	60800.10
