SpectraSuite Data File
++++++++++++++++++++++++++++++++++++
Date: Fri Oct 25 10:47:50 EDT 2013
User: price-jones
Dark Spectrum Present: No
Reference Spectrum Present: No
Number of Sampled Component Spectra: 1
Spectrometers: USB2+H05261
Integration Time (usec): 100000 (USB2+H05261)
Spectra Averaged: 1 (USB2+H05261)
Boxcar Smoothing: 0 (USB2+H05261)
Correct for Electrical Dark: No (USB2+H05261)
Strobe/Lamp Enabled: No (USB2+H05261)
Correct for Detector Non-linearity: No (USB2+H05261)
Correct for Stray Light: No (USB2+H05261)
Number of Pixels in Processed Spectrum: 2048
>>>>>Begin Processed Spectral Data<<<<<
365.73	110.01
365.92	110.01
366.12	110.01
366.32	42.13
366.52	18.72
366.72	28.09
366.91	28.09
367.11	60.85
367.31	0.00
367.51	0.00
367.70	0.00
367.90	60.85
368.10	37.45
368.30	44.47
368.49	23.41
368.69	70.22
368.89	39.79
369.09	58.51
369.28	72.56
369.48	95.96
369.68	65.54
369.87	79.58
370.07	70.22
370.27	201.29
370.47	220.01
370.66	416.62
370.86	390.87
371.06	468.11
371.25	461.09
371.45	442.36
371.65	479.81
371.84	397.89
372.04	390.87
372.24	430.66
372.44	533.64
372.63	524.28
372.83	500.87
373.03	463.43
373.22	496.19
373.42	482.15
373.62	486.83
373.81	496.19
374.01	547.69
374.21	582.79
374.40	475.13
374.60	550.03
374.79	533.64
374.99	573.43
375.19	503.22
375.38	606.20
375.58	531.30
375.78	505.56
375.97	653.01
376.17	580.45
376.37	559.39
376.56	575.77
376.76	547.69
376.95	622.58
377.15	575.77
377.35	585.13
377.54	613.22
377.74	568.75
377.93	514.92
378.13	627.26
378.33	629.60
378.52	613.22
378.72	627.26
378.91	582.79
379.11	681.10
379.31	608.54
379.50	608.54
379.70	580.45
379.89	697.48
380.09	704.50
380.28	620.24
380.48	648.33
380.68	620.24
380.87	671.73
381.07	744.29
381.26	725.57
381.46	657.69
381.65	685.78
381.85	638.97
382.04	718.54
382.24	720.88
382.43	610.88
382.63	685.78
382.83	711.52
383.02	709.18
383.22	709.18
383.41	720.88
383.61	704.50
383.80	802.80
384.00	678.76
384.19	723.23
384.39	690.46
384.58	774.72
384.78	809.83
384.97	709.18
385.17	814.51
385.36	758.33
385.56	821.53
385.75	814.51
385.95	800.46
386.14	823.87
386.34	739.61
386.53	758.33
386.72	814.51
386.92	781.74
387.11	812.17
387.31	844.93
387.50	823.87
387.70	823.87
387.89	791.10
388.09	767.70
388.28	823.87
388.48	826.21
388.67	901.11
388.86	887.06
389.06	854.30
389.25	917.49
389.45	940.90
389.64	880.04
389.84	990.05
390.03	933.87
390.22	950.26
390.42	950.26
390.61	936.21
390.81	919.83
391.00	1050.90
391.19	1039.20
391.39	1034.52
391.58	992.39
391.78	950.26
391.97	978.34
392.16	976.00
392.36	1039.20
392.55	1062.60
392.75	936.21
392.94	976.00
393.13	1008.77
393.33	964.30
393.52	1004.09
393.71	1011.11
393.91	1067.28
394.10	1114.10
394.29	1015.79
394.49	1076.65
394.68	1088.35
394.88	1090.69
395.07	1123.46
395.26	1109.41
395.46	1193.67
395.65	1111.75
395.84	1177.29
396.04	1156.22
396.23	1041.54
396.42	1053.24
396.62	1205.38
396.81	1086.01
397.00	1102.39
397.19	1233.46
397.39	1104.73
397.58	1252.19
397.77	1238.14
397.97	1324.74
398.16	1275.59
398.35	1350.49
398.55	1252.19
398.74	1392.62
398.93	1291.98
399.12	1362.19
399.32	1369.21
399.51	1280.27
399.70	1315.38
399.90	1320.06
400.09	1413.68
400.28	1401.98
400.47	1467.52
400.67	1441.77
400.86	1497.94
401.05	1497.94
401.24	1469.86
401.44	1453.47
401.63	1511.99
401.82	1558.80
402.01	1495.60
402.21	1542.41
402.40	1542.41
402.59	1521.35
402.78	1582.20
402.97	1617.31
403.17	1533.05
403.36	1640.72
403.55	1640.72
403.74	1610.29
403.93	1678.16
404.13	1645.40
404.32	1614.97
404.51	1671.14
404.70	1732.00
404.89	1767.10
405.09	1851.36
405.28	1612.63
405.47	1727.32
405.66	1820.94
405.85	1790.51
406.05	1720.29
406.24	1645.40
406.43	1804.55
406.62	1851.36
406.81	1893.49
407.00	1809.23
407.20	1956.69
407.39	1813.92
407.58	1853.70
407.77	1937.96
407.96	1998.82
408.15	1963.71
408.34	1905.20
408.54	1898.17
408.73	1966.05
408.92	2087.76
409.11	2003.50
409.30	2136.91
409.49	2022.22
409.68	2038.61
409.87	1980.09
410.07	2101.80
410.26	2167.34
410.45	2106.48
410.64	2228.19
410.83	2235.21
411.02	2143.93
411.21	2263.30
411.40	2202.44
411.59	2328.83
411.78	2249.25
411.98	2356.92
412.17	2389.69
412.36	2359.26
412.55	2328.83
412.74	2392.03
412.93	2434.16
413.12	2394.37
413.31	2448.20
413.50	2307.77
413.69	2555.86
413.88	2530.12
414.07	2537.14
414.26	2635.44
414.45	2715.02
414.64	2684.59
414.83	2689.28
415.02	2679.91
415.22	2752.47
415.41	2771.19
415.60	2906.95
415.79	2733.75
415.98	2918.65
416.17	2888.22
416.36	2895.24
416.55	2895.24
416.74	2855.45
416.93	2860.13
417.12	2897.58
417.31	3016.95
417.50	2998.23
417.69	3061.42
417.88	3028.65
418.07	3122.27
418.26	3215.90
418.45	3101.21
418.64	3211.22
418.83	3159.72
419.02	3145.68
419.21	3098.87
419.39	3213.56
419.58	3143.34
419.77	3063.76
419.96	3286.11
420.15	3225.26
420.34	3330.58
420.53	3398.46
420.72	3377.39
420.91	3307.18
421.10	3236.96
421.29	3396.12
421.48	3377.39
421.67	3442.93
421.86	3475.70
422.05	3595.06
422.24	3449.95
422.43	3419.52
422.61	3405.48
422.80	3686.34
422.99	3454.63
423.18	3440.59
423.37	3550.59
423.56	3592.72
423.75	3609.11
423.94	3424.20
424.13	3288.45
424.32	3384.41
424.50	3550.59
424.69	3592.72
424.88	3613.79
425.07	3510.80
425.26	3478.04
425.45	3529.53
425.64	3585.70
425.83	3527.19
426.01	3606.77
426.20	3503.78
426.39	3555.27
426.58	3590.38
426.77	3536.55
426.96	3592.72
427.15	3592.72
427.33	3669.96
427.52	3693.37
427.71	3719.11
427.90	3698.05
428.09	3679.32
428.28	3761.24
428.46	3803.37
428.65	3744.86
428.84	3887.63
429.03	3932.10
429.22	3733.15
429.40	3904.01
429.59	3822.09
429.78	3737.84
429.97	3618.47
430.16	3695.71
430.34	3761.24
430.53	3885.29
430.72	3988.27
430.91	3770.60
431.10	3857.20
431.28	4035.08
431.47	4173.18
431.66	4133.39
431.85	4098.28
432.03	4121.68
432.22	4177.86
432.41	4173.18
432.60	4140.41
432.79	4102.96
432.97	4266.80
433.16	4299.56
433.35	4255.09
433.54	4217.65
433.72	4250.41
433.91	4283.18
434.10	4287.86
434.28	4313.61
434.47	4271.48
434.66	4423.61
434.85	4489.15
435.03	4353.40
435.22	4465.74
435.41	4599.15
435.59	4461.06
435.78	4624.90
435.97	4739.58
436.16	4760.65
436.34	4599.15
436.53	4489.15
436.72	4755.97
436.90	4676.39
437.09	4690.43
437.28	4620.22
437.46	4699.80
437.65	4695.11
437.84	4669.37
438.02	4517.23
438.21	4662.35
438.40	4589.79
438.58	4882.36
438.77	4830.87
438.96	5069.60
439.14	4968.96
439.33	5100.03
439.52	5132.79
439.70	5172.58
439.89	5053.22
440.08	4997.04
440.26	5210.03
440.45	5217.05
440.63	5158.54
440.82	5481.53
441.01	5341.10
441.19	5366.85
441.38	5448.77
441.57	5303.65
441.75	5434.72
441.94	5626.65
442.12	5682.82
442.31	5535.37
442.50	5717.93
442.68	5549.41
442.87	5633.67
443.05	5715.59
443.24	5685.16
443.43	5720.27
443.61	5799.85
443.80	5844.32
443.98	5617.29
444.17	5612.60
444.35	5823.25
444.54	6045.60
444.73	5832.62
444.91	5834.96
445.10	5928.58
445.28	5788.14
445.47	5696.86
445.65	5668.78
445.84	5727.29
446.02	5874.74
446.21	5858.36
446.39	5858.36
446.58	6043.26
446.77	5909.85
446.95	5813.89
447.14	5940.28
447.32	5928.58
447.51	6038.58
447.69	5902.83
447.88	6150.93
448.06	5961.34
448.25	5966.03
448.43	6174.33
448.62	5982.41
448.80	5959.00
448.99	6047.94
449.17	6176.67
449.36	6097.10
449.54	6356.90
449.73	6340.51
449.91	6317.11
450.10	6438.81
450.28	6572.22
450.46	6401.37
450.65	6546.48
450.83	6387.32
451.02	6422.43
451.20	6368.60
451.39	6539.46
451.57	6438.81
451.76	6363.92
451.94	6569.88
452.13	6487.96
452.31	6553.50
452.49	6532.44
452.68	6420.09
452.86	6389.66
453.05	6583.93
453.23	6539.46
453.42	6527.75
453.60	6525.41
453.78	6684.57
453.97	6747.76
454.15	6640.10
454.34	6637.76
454.52	6827.34
454.70	6726.70
454.89	6658.82
455.07	6789.89
455.26	6693.93
455.44	6972.46
455.62	6881.18
455.81	6932.67
455.99	7014.59
456.17	6995.86
456.36	7103.53
456.54	7201.83
456.73	7166.72
456.91	7382.05
457.09	7220.55
457.28	7435.88
457.46	7281.41
457.64	7304.81
457.83	7169.06
458.01	7206.51
458.19	7480.35
458.38	7440.56
458.56	7300.13
458.74	7232.26
458.93	7489.71
459.11	7447.58
459.29	7602.06
459.48	7700.36
459.66	7403.11
459.84	7506.10
460.03	7810.37
460.21	7733.13
460.39	7768.24
460.57	7782.28
460.76	7754.19
460.94	7641.85
461.12	7918.03
461.31	7768.24
461.49	7723.77
461.67	7805.69
461.85	7988.25
462.04	7798.66
462.22	8418.91
462.40	8255.07
462.59	7946.12
462.77	8021.02
462.95	8081.87
463.13	8037.40
463.32	8002.29
463.50	8098.25
463.68	8229.32
463.86	8100.59
464.05	8032.72
464.23	7981.23
464.41	8121.66
464.59	8009.31
464.78	8329.97
464.96	8044.42
465.14	8252.73
465.32	8119.32
465.50	8395.50
465.69	8414.23
465.87	8163.79
466.05	8407.20
466.23	8145.06
466.41	8425.93
466.60	8676.37
466.78	8226.98
466.96	8437.63
467.14	8346.35
467.32	8526.57
467.51	8667.00
467.69	8308.90
467.87	8655.30
468.05	8650.62
468.23	8439.97
468.41	8521.89
468.60	8816.80
468.78	8587.43
468.96	8627.21
469.14	8725.52
469.32	8940.85
469.50	8636.58
469.69	8786.37
469.87	9043.83
470.05	8940.85
470.23	9067.24
470.41	8762.97
470.59	9055.53
470.77	8945.53
470.95	9043.83
471.14	9074.26
471.32	9167.88
471.50	9305.97
471.68	9303.63
471.86	9282.56
472.04	9444.06
472.22	9444.06
472.40	9282.56
472.58	9394.91
472.77	9404.27
472.95	9563.43
473.13	10010.47
473.31	9631.30
473.49	9448.74
473.67	9657.05
473.85	9788.12
474.03	9823.23
474.21	9867.70
474.39	10061.96
474.57	9909.83
474.75	10033.88
474.93	10106.43
475.12	10181.33
475.30	10249.21
475.48	10115.80
475.66	10296.02
475.84	10443.47
476.02	10342.83
476.20	10560.50
476.38	10644.76
476.56	10729.02
476.74	10640.08
476.92	10626.03
477.10	10934.98
477.28	11080.10
477.46	11073.07
477.64	11115.20
477.82	11101.16
478.00	11501.39
478.18	11342.24
478.36	11405.43
478.54	11719.06
478.72	11520.12
478.90	11676.93
479.08	11913.33
479.26	11854.81
479.44	11899.28
479.62	11927.37
479.80	11918.01
479.98	12208.23
480.16	12327.60
480.34	12226.96
480.52	12411.86
480.70	12241.00
480.88	12332.28
481.06	12676.34
481.24	12659.96
481.41	12882.31
481.59	12945.50
481.77	13046.15
481.95	13146.79
482.13	13289.56
482.31	13078.91
482.49	13554.04
482.67	13715.54
482.85	13652.34
483.03	13900.44
483.21	13923.85
483.39	14031.51
483.57	14097.05
483.74	14097.05
483.92	14188.33
484.10	14286.63
484.28	14698.56
484.46	14691.54
484.64	14815.59
484.82	14647.07
485.00	15047.30
485.18	15126.88
485.35	15051.99
485.53	14988.79
485.71	15044.96
485.89	15227.53
486.07	15124.54
486.25	15358.60
486.43	15295.40
486.61	15941.39
486.78	15819.68
486.96	16074.80
487.14	16145.02
487.32	16198.85
487.50	16329.92
487.68	16620.14
487.85	16922.07
488.03	16989.95
488.21	17184.21
488.39	17013.35
488.57	17289.54
488.75	17287.20
488.92	17554.02
489.10	17364.43
489.28	17797.43
489.46	17951.91
489.64	18214.05
489.81	18520.66
489.99	18185.96
490.17	18696.20
490.35	18806.20
490.53	18820.25
490.70	19014.51
490.88	18764.07
491.06	19183.03
491.24	18932.59
491.41	19215.80
491.59	19026.21
491.77	19023.87
491.95	19660.50
492.13	19403.04
492.30	19910.94
492.48	19857.10
492.66	20018.60
492.84	19915.62
493.01	19985.83
493.19	20624.80
493.37	20365.00
493.54	20554.58
493.72	20830.77
493.90	20954.82
494.08	20678.63
494.25	21048.44
494.43	21406.54
494.61	21642.93
494.79	21694.43
494.96	21209.93
495.14	21734.21
495.32	21898.05
495.49	21844.22
495.67	22064.23
495.85	22064.23
496.02	22436.38
496.20	22216.36
496.38	22707.88
496.55	22272.54
496.73	23047.26
496.91	22735.96
497.09	22883.42
497.26	23063.64
497.44	23166.62
497.62	23094.07
497.79	23583.24
497.97	23175.98
498.14	23648.77
498.32	23833.68
498.50	23889.85
498.67	23625.37
498.85	23758.78
499.03	24107.52
499.20	24173.05
499.38	24051.34
499.56	24535.84
499.73	24418.81
499.91	24456.26
500.08	24805.00
500.26	24304.12
500.44	24575.62
500.61	25223.95
500.79	24650.52
500.97	24954.79
501.14	25308.21
501.32	25298.85
501.49	25245.02
501.67	25324.60
501.84	25191.19
502.02	25282.47
502.20	25809.09
502.37	25706.10
502.55	25600.78
502.72	25874.62
502.90	25834.83
503.07	25923.77
503.25	25970.58
503.43	25823.13
503.60	26426.99
503.78	26019.74
503.95	26003.35
504.13	26178.89
504.30	26448.05
504.48	26377.84
504.65	26593.17
504.83	27065.96
505.01	26941.91
505.18	26810.84
505.36	27012.12
505.53	27309.37
505.71	27335.12
505.88	27714.28
506.06	27297.67
506.23	27613.64
506.41	27431.08
506.58	27349.16
506.76	27721.30
506.93	27665.13
507.11	27658.11
507.28	27934.29
507.46	27859.40
507.63	27992.81
507.81	28350.91
507.98	27852.38
508.16	28350.91
508.33	28615.39
508.50	28776.89
508.68	28519.43
508.85	28837.74
509.03	28498.36
509.20	28582.62
509.38	28980.51
509.55	29198.18
509.73	29338.62
509.90	29570.33
510.08	29139.67
510.25	29411.17
510.42	29415.85
510.60	29682.67
510.77	29413.51
510.95	29694.38
511.12	29773.95
511.30	29476.71
511.47	29820.77
511.64	30293.55
511.82	30314.62
511.99	30185.89
512.17	30216.32
512.34	29879.28
512.51	30670.38
512.69	30642.29
512.86	30876.35
513.04	30778.04
513.21	30508.88
513.38	30974.65
513.56	30794.43
513.73	30796.77
513.90	30600.16
514.08	30710.17
514.25	30974.65
514.43	31503.61
514.60	31131.47
514.77	31009.76
514.95	31646.38
515.12	30958.27
515.29	31302.32
515.47	31405.31
515.64	31194.66
515.81	31658.09
515.99	31665.11
516.16	31833.63
516.33	31861.71
516.51	31763.41
516.68	31381.90
516.85	31639.36
517.03	31803.20
517.20	31915.54
517.37	32299.39
517.54	32367.27
517.72	32439.82
517.89	32315.78
518.06	31814.90
518.24	32114.49
518.41	32397.70
518.58	32545.15
518.75	32313.44
518.93	32734.73
519.10	32613.02
519.27	32978.15
519.45	32975.81
519.62	33219.22
519.79	32933.68
519.96	33448.60
520.14	33359.66
520.31	33188.80
520.48	33654.56
520.65	33418.17
520.83	33558.60
521.00	33935.43
521.17	33823.08
521.34	33930.75
521.52	33717.76
521.69	33921.38
521.86	33792.65
522.03	33668.61
522.20	34462.05
522.38	34305.23
522.55	34504.18
522.72	33984.58
522.89	34286.51
523.07	34312.25
523.24	34403.53
523.41	35075.27
523.58	34565.03
523.75	34801.43
523.92	34836.53
524.10	34611.84
524.27	34859.94
524.44	35007.39
524.61	35150.17
524.78	35384.22
524.96	35072.93
525.13	34986.33
525.30	35613.59
525.47	35669.76
525.64	35314.00
525.81	35688.49
525.98	35676.79
526.16	35491.88
526.33	35407.62
526.50	35749.34
526.67	35873.39
526.84	35667.42
527.01	35173.57
527.18	35749.34
527.36	36020.84
527.53	36062.97
527.70	36236.17
527.87	36577.89
528.04	36023.19
528.21	36416.40
528.38	36236.17
528.55	36313.41
528.72	36301.71
528.89	36657.47
529.07	36273.62
529.24	36617.68
529.41	36495.97
529.58	36837.69
529.75	36577.89
529.92	37024.93
530.09	36540.44
530.26	37350.27
530.43	36790.88
530.60	36882.16
530.77	37160.69
530.94	37406.44
531.11	36910.25
531.28	37078.77
531.46	36957.06
531.63	37579.64
531.80	37179.41
531.97	37132.60
532.14	37511.77
532.31	37404.10
532.48	37177.07
532.65	37783.27
532.82	37413.46
532.99	38022.00
533.16	37336.23
533.33	38101.58
533.50	38176.48
533.67	38384.79
533.84	37823.06
534.01	37390.06
534.18	37888.59
534.35	38010.30
534.52	38136.69
534.69	38288.82
534.86	38164.78
535.03	37900.29
535.20	38623.52
535.37	38550.96
535.54	38653.95
535.71	38160.09
535.88	38614.16
536.05	38412.87
536.22	38515.86
536.38	38628.20
536.55	38871.62
536.72	38869.28
536.89	38541.60
537.06	38754.59
537.23	38583.73
537.40	38752.25
537.57	38497.13
537.74	39007.37
537.91	38843.53
538.08	39091.63
538.25	39016.73
538.42	38796.72
538.59	39407.60
538.75	38852.89
538.92	38965.24
539.09	39674.42
539.26	39571.44
539.43	39463.77
539.60	39267.17
539.77	39367.81
539.94	39227.38
540.11	39501.22
540.28	39601.86
540.44	39426.32
540.61	39592.50
540.78	39335.04
540.95	39503.56
541.12	39456.75
541.29	39466.11
541.46	39786.77
541.62	39690.80
541.79	40046.57
541.96	39817.19
542.13	39718.89
542.30	39915.50
542.47	40226.79
542.63	40009.12
542.80	40027.84
542.97	40299.34
543.14	40732.34
543.31	40554.46
543.48	40421.05
543.64	40910.22
543.81	40488.93
543.98	40603.61
544.15	40825.96
544.32	40837.67
544.48	40821.28
544.65	40683.19
544.82	40444.46
544.99	41027.25
545.16	41027.25
545.32	40884.48
545.49	41188.75
545.66	41263.64
545.83	41256.62
546.00	41350.24
546.16	41074.06
546.33	41076.40
546.50	40861.07
546.67	41273.01
546.83	40327.43
547.00	41153.64
547.17	41195.77
547.34	40844.69
547.50	41628.77
547.67	41511.74
547.84	41603.02
548.00	41811.33
548.17	41769.20
548.34	41399.40
548.51	41392.37
548.67	41591.32
548.84	42003.25
549.01	41727.07
549.18	41354.93
549.34	41682.60
549.51	41858.14
549.68	41544.51
549.84	42029.00
550.01	42199.86
550.18	41937.72
550.34	41642.81
550.51	41628.77
550.68	41996.23
550.84	41764.52
551.01	42101.56
551.18	42052.41
551.34	42330.93
551.51	42401.14
551.68	41797.29
551.84	42019.64
552.01	42330.93
552.18	42543.92
552.34	42433.91
552.51	42265.39
552.68	42714.78
552.84	43042.45
553.01	42497.11
553.18	42429.23
553.34	42541.58
553.51	42471.36
553.67	42281.78
553.84	42593.07
554.01	42773.29
554.17	42625.84
554.34	42609.45
554.51	42562.64
554.67	42871.59
554.84	42815.42
555.00	43182.88
555.17	42880.95
555.33	42941.81
555.50	42808.40
555.67	42871.59
555.83	42803.72
556.00	42878.61
556.16	43419.28
556.33	43035.43
556.50	42857.55
556.66	43239.06
556.83	42972.24
556.99	43260.12
557.16	43725.89
557.32	43227.35
557.49	43449.70
557.65	43014.37
557.82	42981.60
557.98	43377.15
558.15	43281.19
558.32	43552.69
558.48	43028.41
558.65	43597.16
558.81	43461.41
558.98	43515.24
559.14	43129.05
559.31	43320.98
559.47	43686.10
559.64	43927.17
559.80	43721.21
559.97	43517.58
560.13	43386.51
560.30	43395.87
560.46	43676.74
560.63	43503.54
560.79	43922.49
560.96	44179.95
561.12	43545.67
561.29	43508.22
561.45	43625.25
561.61	43887.39
561.78	43800.79
561.94	43440.34
562.11	43770.36
562.27	43878.02
562.44	43658.01
562.60	43772.70
562.77	43416.94
562.93	43480.13
563.10	43709.50
563.26	43768.02
563.42	44135.48
563.59	44016.11
563.75	43828.87
563.92	43985.69
564.08	44119.10
564.24	44259.53
564.41	43810.15
564.57	43758.66
564.74	43997.39
564.90	43920.15
565.07	43782.06
565.23	43917.81
565.39	44020.80
565.56	44044.20
565.72	43903.77
565.88	44320.38
566.05	44313.36
566.21	43742.27
566.38	43885.04
566.54	43814.83
566.70	44271.23
566.87	44397.62
567.03	44041.86
567.19	44149.53
567.36	44179.95
567.52	44236.12
567.68	44563.80
567.85	44126.12
568.01	44542.74
568.17	44098.03
568.34	44308.68
568.50	43941.22
568.66	43611.20
568.83	44079.31
568.99	44093.35
569.15	44156.55
569.32	44168.25
569.48	43817.17
569.64	44304.00
569.81	44289.96
569.97	44439.75
570.13	44587.21
570.30	43959.94
570.46	44212.72
570.62	43983.35
570.78	44107.40
570.95	44039.52
571.11	44311.02
571.27	44306.34
571.43	44357.83
571.60	44676.15
571.76	44266.55
571.92	44624.65
572.09	44605.93
572.25	44421.03
572.41	44032.50
572.57	44556.78
572.74	44907.86
572.90	44767.43
573.06	44563.80
573.22	44329.75
573.38	44161.23
573.55	44142.50
573.71	44638.70
573.87	44451.45
574.03	43971.64
574.20	44093.35
574.36	44453.79
574.52	44795.51
574.68	44608.27
574.84	44825.94
575.01	44552.10
575.17	44722.96
575.33	44729.98
575.49	44289.96
575.65	44975.73
575.82	44945.31
575.98	44533.37
576.14	44942.97
576.30	44561.46
576.46	44748.70
576.62	44495.92
576.79	44348.47
576.95	44406.98
577.11	44261.87
577.27	44566.14
577.43	44542.74
577.59	44896.16
577.75	44964.03
577.92	44460.82
578.08	44516.99
578.24	44353.15
578.40	44493.58
578.56	44205.70
578.72	44353.15
578.88	45001.48
579.04	44917.22
579.21	44676.15
579.37	44367.20
579.53	44926.58
579.69	44437.41
579.85	44690.19
580.01	45111.49
580.17	44907.86
580.33	44898.50
580.49	45198.09
580.65	44655.08
580.82	44715.93
580.98	44751.04
581.14	44322.72
581.30	44921.90
581.46	44680.83
581.62	44521.67
581.78	44589.55
581.94	44760.40
582.10	44531.03
582.26	45104.46
582.42	44381.24
582.58	44924.24
582.74	44437.41
582.90	44755.72
583.06	44296.98
583.22	44788.49
583.38	44861.05
583.54	44872.75
583.70	44615.29
583.86	44587.21
584.02	44505.29
584.18	44825.94
584.34	45109.14
584.50	44463.16
584.66	44832.96
584.82	45003.82
584.98	45069.36
585.14	45085.74
585.30	44699.55
585.46	44502.95
585.62	44535.71
585.78	44884.45
585.94	44580.18
586.10	45127.87
586.26	44446.77
586.42	44718.28
586.58	45134.89
586.74	44954.67
586.90	44488.90
587.06	44556.78
587.22	44673.81
587.38	44957.01
587.54	44957.01
587.70	44851.69
587.86	44814.24
588.02	44528.69
588.18	45223.83
588.34	44535.71
588.49	44678.49
588.65	44442.09
588.81	44921.90
588.97	44856.37
589.13	44378.90
589.29	44762.75
589.45	45029.57
589.61	44982.76
589.77	45141.91
589.93	45294.05
590.08	45345.54
590.24	45020.20
