SpectraSuite Data File
++++++++++++++++++++++++++++++++++++
Date: Fri Oct 25 11:23:58 EDT 2013
User: price-jones
Dark Spectrum Present: No
Reference Spectrum Present: No
Number of Sampled Component Spectra: 1
Spectrometers: USB2+H05261
Integration Time (usec): 100000 (USB2+H05261)
Spectra Averaged: 1 (USB2+H05261)
Boxcar Smoothing: 0 (USB2+H05261)
Correct for Electrical Dark: No (USB2+H05261)
Strobe/Lamp Enabled: No (USB2+H05261)
Correct for Detector Non-linearity: No (USB2+H05261)
Correct for Stray Light: No (USB2+H05261)
Number of Pixels in Processed Spectrum: 2048
>>>>>Begin Processed Spectral Data<<<<<
365.73	243.42
365.92	243.42
366.12	243.42
366.32	107.66
366.52	135.75
366.72	210.65
366.91	91.28
367.11	65.54
367.31	100.64
367.51	168.52
367.70	107.66
367.90	112.35
368.10	128.73
368.30	135.75
368.49	117.03
368.69	156.82
368.89	222.35
369.09	177.88
369.28	168.52
369.48	180.22
369.68	154.48
369.87	252.78
370.07	243.42
370.27	238.73
370.47	379.17
370.66	566.41
370.86	653.01
371.06	617.90
371.25	685.78
371.45	653.01
371.65	704.50
371.84	627.26
372.04	645.99
372.24	699.82
372.44	770.04
372.63	713.86
372.83	662.37
373.03	744.29
373.22	688.12
373.42	784.08
373.62	760.67
373.81	809.83
374.01	798.12
374.21	835.57
374.40	816.85
374.60	856.64
374.79	786.42
374.99	779.40
375.19	779.40
375.38	844.93
375.58	821.53
375.78	905.79
375.97	786.42
376.17	905.79
376.37	851.96
376.56	847.27
376.76	889.40
376.95	945.58
377.15	823.87
377.35	863.66
377.54	915.15
377.74	858.98
377.93	837.91
378.13	919.83
378.33	952.60
378.52	856.64
378.72	950.26
378.91	959.62
379.11	922.17
379.31	903.45
379.50	954.94
379.70	1013.45
379.89	999.41
380.09	903.45
380.28	936.21
380.48	954.94
380.68	931.53
380.87	971.32
381.07	968.98
381.26	1036.86
381.46	971.32
381.65	980.68
381.85	1036.86
382.04	1015.79
382.24	1025.15
382.43	1086.01
382.63	1022.81
382.83	1104.73
383.02	1036.86
383.22	1186.65
383.41	1116.44
383.61	1144.52
383.80	1198.35
384.00	1116.44
384.19	1167.93
384.39	1153.88
384.58	1142.18
384.78	1174.95
384.97	1137.50
385.17	1125.80
385.36	1233.46
385.56	1123.46
385.75	1111.75
385.95	1186.65
386.14	1172.61
386.34	1198.35
386.53	1137.50
386.72	1151.54
386.92	1275.59
387.11	1240.48
387.31	1352.83
387.50	1214.74
387.70	1270.91
387.89	1277.93
388.09	1329.42
388.28	1336.45
388.48	1315.38
388.67	1397.30
388.86	1369.21
389.06	1291.98
389.25	1327.08
389.45	1385.60
389.64	1256.87
389.84	1376.24
390.03	1352.83
390.22	1341.13
390.42	1401.98
390.61	1359.85
390.81	1401.98
391.00	1411.34
391.19	1430.07
391.39	1474.54
391.58	1383.26
391.78	1434.75
391.97	1533.05
392.16	1455.81
392.36	1540.07
392.55	1535.39
392.75	1497.94
392.94	1519.01
393.13	1551.78
393.33	1668.80
393.52	1549.43
393.71	1598.59
393.91	1629.01
394.10	1589.22
394.29	1652.42
394.49	1612.63
394.68	1650.08
394.88	1624.33
395.07	1673.48
395.26	1701.57
395.46	1673.48
395.65	1673.48
395.84	1750.72
396.04	1724.97
396.23	1701.57
396.42	1614.97
396.62	1788.17
396.81	1783.49
397.00	1741.36
397.19	1839.66
397.39	1806.89
397.58	1799.87
397.77	1769.44
397.97	1802.21
398.16	1750.72
398.35	1865.41
398.55	1858.39
398.74	1952.01
398.93	1879.45
399.12	1982.43
399.32	1870.09
399.51	2040.95
399.70	1989.46
399.90	1907.54
400.09	2022.22
400.28	2101.80
400.47	2022.22
400.67	2069.03
400.86	2024.56
401.05	2146.27
401.24	2040.95
401.44	2157.97
401.63	2127.55
401.82	2083.08
402.01	2108.82
402.21	2200.10
402.40	2101.80
402.59	2197.76
402.78	2190.74
402.97	2237.55
403.17	2139.25
403.36	2286.70
403.55	2356.92
403.74	2368.62
403.93	2321.81
404.13	2307.77
404.32	2326.49
404.51	2387.35
404.70	2499.69
404.89	2438.84
405.09	2551.18
405.28	2492.67
405.47	2457.56
405.66	2455.22
405.85	2537.14
406.05	2487.99
406.24	2574.59
406.43	2614.38
406.62	2567.57
406.81	2665.87
407.00	2506.71
407.20	2586.29
407.39	2640.12
407.58	2708.00
407.77	2726.72
407.96	2780.56
408.15	2729.06
408.34	2635.44
408.54	2780.56
408.73	2918.65
408.92	2846.09
409.11	2820.35
409.30	3012.27
409.49	2899.92
409.68	2853.11
409.87	2827.37
410.07	2951.42
410.26	2972.48
410.45	3038.02
410.64	2977.16
410.83	2958.44
411.02	3117.59
411.21	3150.36
411.40	3061.42
411.59	3126.96
411.78	3023.97
411.98	3290.79
412.17	3239.30
412.36	3227.60
412.55	3386.76
412.74	3405.48
412.93	3478.04
413.12	3290.79
413.31	3503.78
413.50	3471.01
413.69	3517.83
413.88	3595.06
414.07	3597.40
414.26	3658.26
414.45	3599.74
414.64	3712.09
414.83	3707.41
415.02	3735.50
415.22	3796.35
415.41	3997.64
415.60	3904.01
415.79	3885.29
415.98	4002.32
416.17	4007.00
416.36	4070.19
416.55	4109.98
416.74	4030.40
416.93	3967.21
417.12	4109.98
417.31	4105.30
417.50	4154.45
417.69	4276.16
417.88	4257.43
418.07	4306.59
418.26	4180.20
418.45	4383.82
418.64	4461.06
418.83	4484.47
419.02	4533.62
419.21	4566.39
419.39	4395.53
419.58	4479.79
419.77	4489.15
419.96	4587.45
420.15	4699.80
420.34	4589.79
420.53	4645.96
420.72	4741.93
420.91	4606.17
421.10	4870.65
421.29	4592.13
421.48	4711.50
421.67	4795.76
421.86	4887.04
422.05	4755.97
422.24	4861.29
422.43	4821.50
422.61	4833.21
422.80	5004.07
422.99	4940.87
423.18	4844.91
423.37	5104.71
423.56	5064.92
423.75	5020.45
423.94	4891.72
424.13	4634.26
424.32	4755.97
424.50	5032.15
424.69	5177.26
424.88	4985.34
425.07	4849.59
425.26	4784.06
425.45	5041.51
425.64	4929.17
425.83	5114.07
426.01	5137.48
426.20	5043.85
426.39	4945.55
426.58	5027.47
426.77	4917.47
426.96	5163.22
427.15	5144.50
427.33	5233.44
427.52	5242.80
427.71	5324.72
427.90	5156.20
428.09	5401.96
428.28	5556.43
428.46	5294.29
428.65	5399.62
428.84	5549.41
429.03	5495.58
429.22	5357.49
429.40	5551.75
429.59	5535.37
429.78	5369.19
429.97	5350.46
430.16	5474.51
430.34	5671.12
430.53	5703.89
430.72	5781.12
430.91	5589.20
431.10	5703.89
431.28	5816.23
431.47	5846.66
431.66	5827.93
431.85	5834.96
432.03	5905.17
432.22	5954.32
432.41	5937.94
432.60	5926.24
432.79	5940.28
432.97	5966.03
433.16	5987.09
433.35	6094.76
433.54	6300.72
433.72	6162.63
433.91	6181.35
434.10	6188.38
434.28	6076.03
434.47	6209.44
434.66	6214.12
434.85	6176.67
435.03	6312.42
435.22	6148.59
435.41	6490.31
435.59	6527.75
435.78	6450.52
435.97	6406.05
436.16	6413.07
436.34	6614.35
436.53	6715.00
436.72	6677.55
436.90	6408.39
437.09	6750.10
437.28	6511.37
437.46	6560.52
437.65	6651.80
437.84	6621.38
438.02	6761.81
438.21	6703.29
438.40	6654.14
438.58	7084.80
438.77	6895.22
438.96	7054.37
439.14	7171.40
439.33	7187.79
439.52	7351.62
439.70	7260.34
439.89	7258.00
440.08	7419.50
440.26	7405.46
440.45	7316.51
440.63	7559.93
440.82	7726.11
441.01	7756.54
441.19	7686.32
441.38	7669.94
441.57	7852.50
441.75	7793.98
441.94	7880.58
442.12	7941.44
442.31	7927.39
442.50	8215.28
442.68	8039.74
442.87	7833.77
443.05	8018.68
443.24	8128.68
443.43	8105.28
443.61	8245.71
443.80	8468.06
443.98	8156.77
444.17	7901.65
444.35	8109.96
444.54	8475.08
444.73	8215.28
444.91	8311.24
445.10	8381.46
445.28	8250.39
445.47	8241.03
445.65	8215.28
445.84	8484.44
446.02	8400.18
446.21	8479.76
446.39	8500.83
446.58	8638.92
446.77	8365.07
446.95	8376.78
447.14	8645.94
447.32	8655.30
447.51	8524.23
447.69	8566.36
447.88	8545.30
448.06	8425.93
448.25	8416.57
448.43	8692.75
448.62	8449.33
448.80	8519.55
448.99	8753.60
449.17	8788.71
449.36	8755.94
449.54	8779.35
449.73	8891.70
449.91	8952.55
450.10	8908.08
450.28	9107.02
450.46	8973.61
450.65	9067.24
450.83	9081.28
451.02	9270.86
451.20	9327.03
451.39	9172.56
451.57	9280.22
451.76	8968.93
451.94	9210.01
452.13	9462.79
452.31	9373.85
452.49	9074.26
452.68	9493.21
452.86	9341.08
453.05	9486.19
453.23	9572.79
453.42	9460.45
453.60	9334.06
453.78	9582.15
453.97	9509.60
454.15	9430.02
454.34	9659.39
454.52	9699.18
454.70	9994.09
454.89	9989.41
455.07	9757.69
455.26	9848.97
455.44	9888.76
455.62	10047.92
455.81	9886.42
455.99	10076.01
456.17	9914.51
456.36	10377.94
456.54	10083.03
456.73	10111.11
456.91	10497.30
457.09	10445.81
457.28	10661.14
457.46	10347.51
457.64	10534.75
457.83	10537.09
458.01	10354.53
458.19	10801.57
458.38	10576.88
458.56	10808.59
458.74	10738.38
458.93	10902.22
459.11	10675.18
459.29	10773.49
459.48	10972.43
459.66	10937.32
459.84	11016.90
460.03	11131.59
460.21	10981.79
460.39	11117.54
460.57	11110.52
460.76	10846.04
460.94	11257.98
461.12	11220.53
461.31	11229.89
461.49	11124.57
461.67	11304.79
461.85	11578.63
462.04	11407.77
462.22	11651.19
462.40	11606.72
462.59	11234.57
462.77	11438.20
462.95	11719.06
463.13	11648.85
463.32	11524.80
463.50	12065.46
463.68	12063.12
463.86	11929.71
464.05	11861.84
464.23	11798.64
464.41	11953.12
464.59	11583.31
464.78	12149.72
464.96	11992.90
465.14	11693.32
465.32	12320.58
465.50	12161.42
465.69	12336.96
465.87	12334.62
466.05	12128.66
466.23	12161.42
466.41	12292.49
466.60	12475.06
466.78	12231.64
466.96	12374.41
467.14	12573.36
467.32	12491.44
467.51	12606.13
467.69	12521.87
467.87	12564.00
468.05	12638.89
468.23	12362.71
468.41	12674.00
468.60	12535.91
468.78	12697.41
468.96	12856.56
469.14	12676.34
469.32	13062.53
469.50	12854.22
469.69	12938.48
469.87	13118.70
470.05	13273.18
470.23	13076.57
470.41	13090.62
470.59	13341.05
470.77	13268.50
470.95	13256.79
471.14	13724.90
471.32	13109.34
471.50	13671.07
471.68	13507.23
471.86	13809.16
472.04	13783.41
472.22	13928.53
472.40	13982.36
472.58	13874.70
472.77	14019.81
472.95	14246.84
473.13	14431.74
473.31	13963.64
473.49	14059.60
473.67	14059.60
473.85	14265.57
474.03	14728.99
474.21	14782.82
474.39	14911.55
474.57	14698.56
474.75	15115.18
474.93	14904.53
475.12	14899.85
475.30	14974.75
475.48	15000.49
475.66	15269.66
475.84	15169.01
476.02	15693.29
476.20	15473.28
476.38	15840.75
476.56	16133.31
476.74	15964.79
476.92	16163.74
477.10	15894.58
477.28	16374.39
477.46	15999.90
477.64	16341.62
477.82	16606.10
478.00	16908.03
478.18	16875.26
478.36	17067.19
478.54	17404.22
478.72	17259.11
478.90	17429.97
479.08	17504.87
479.26	17855.95
479.44	17481.46
479.62	17982.34
479.80	18029.15
479.98	18150.85
480.16	18640.03
480.34	18506.62
480.52	18649.39
480.70	18965.36
480.88	18457.46
481.06	19080.05
481.24	19101.11
481.41	19101.11
481.59	19578.58
481.77	19555.18
481.95	19744.76
482.13	19882.85
482.31	19723.69
482.49	20287.76
482.67	20063.07
482.85	20393.09
483.03	20772.25
483.21	21144.40
483.39	20854.17
483.57	20961.84
483.74	21497.82
483.92	21586.76
484.10	21516.54
484.28	21834.86
484.46	21998.70
484.64	22246.79
484.82	22089.98
485.00	22441.06
485.18	22719.58
485.35	23456.85
485.53	23000.44
485.71	23250.88
485.89	23583.24
486.07	23405.36
486.25	23363.23
486.43	23807.93
486.61	23915.59
486.78	23817.29
486.96	24116.88
487.14	25003.94
487.32	24606.05
487.50	24919.68
487.68	24982.88
487.85	25589.08
488.03	25762.28
488.21	26003.35
488.39	25909.73
488.57	26426.99
488.75	26141.44
488.92	26480.82
489.10	26859.99
489.28	26913.82
489.46	27257.88
489.64	27187.66
489.81	27648.75
489.99	27805.56
490.17	27744.71
490.35	28332.18
490.53	28166.01
490.70	28341.55
490.88	28140.26
491.06	29020.30
491.24	29221.59
491.41	29113.92
491.59	29731.83
491.77	29472.03
491.95	29869.92
492.13	29589.05
492.30	30209.29
492.48	30089.93
492.66	30319.30
492.84	30452.71
493.01	30941.88
493.19	30670.38
493.37	30937.20
493.54	31117.42
493.72	31606.59
493.90	31445.10
494.08	31667.45
494.25	32128.53
494.43	31810.22
494.61	32608.34
494.79	33013.26
494.96	32589.62
495.14	32657.49
495.32	33083.47
495.49	33476.68
495.67	33469.66
495.85	33696.69
496.02	33816.06
496.20	34036.07
496.38	34452.69
496.55	34284.17
496.73	35143.14
496.91	34871.64
497.09	34946.54
497.26	34958.24
497.44	35175.91
497.62	35573.80
497.79	35838.28
497.97	35578.48
498.14	35929.56
498.32	36315.75
498.50	36477.25
498.67	36685.56
498.85	36589.59
499.03	36760.45
499.20	37186.43
499.38	36767.48
499.56	37310.48
499.73	37397.08
499.91	37514.11
500.08	37371.33
500.26	37565.60
500.44	37851.14
500.61	37977.53
500.79	37895.61
500.97	38181.16
501.14	38939.49
501.32	38728.84
501.49	38576.71
501.67	39079.92
501.84	38923.11
502.02	39122.05
502.20	38951.20
502.37	39494.20
502.55	39449.73
502.72	39496.54
502.90	39920.18
503.07	39599.52
503.25	40016.14
503.43	39981.03
503.60	40175.30
503.78	40493.61
503.95	40018.48
504.13	40898.52
504.30	40847.03
504.48	40477.22
504.65	41207.47
504.83	41581.96
505.01	41404.08
505.18	41649.83
505.36	41558.55
505.53	41478.97
505.71	41715.37
505.88	42024.32
506.06	41490.68
506.23	42019.64
506.41	42054.75
506.58	42024.32
506.76	42176.45
506.93	42344.97
507.11	42499.45
507.28	43058.84
507.46	43215.65
507.63	43562.05
507.81	43409.92
507.98	43538.65
508.16	43199.27
508.33	43732.91
508.50	43232.04
508.68	43606.52
508.85	43992.71
509.03	43992.71
509.20	44282.94
509.38	44725.30
509.55	44591.89
509.73	44666.78
509.90	44406.98
510.08	44542.74
510.25	44577.84
510.42	44825.94
510.60	45404.05
510.77	45207.45
510.95	45720.02
511.12	45212.13
511.30	45008.50
511.47	45420.44
511.64	45509.38
511.82	45750.45
511.99	45464.91
512.17	46064.08
512.34	45705.98
512.51	46539.21
512.69	46394.10
512.86	46553.26
513.04	46878.59
513.21	46571.98
513.38	46820.08
513.56	47220.31
513.73	46904.34
513.90	47346.70
514.08	47185.20
514.25	47452.02
514.43	48133.12
514.60	47863.96
514.77	47353.72
514.95	47824.17
515.12	47819.49
515.29	47999.71
515.47	48025.45
515.64	48301.64
515.81	47739.91
515.99	48505.26
516.16	48760.38
516.33	48580.16
516.51	48996.77
516.68	48762.72
516.85	48502.92
517.03	48800.17
517.20	49092.74
517.37	48893.79
517.54	48863.36
517.72	49066.99
517.89	49177.00
518.06	49336.15
518.24	49120.82
518.41	49434.45
518.58	49404.03
518.75	49528.08
518.93	49851.07
519.10	49380.62
519.27	49830.01
519.45	49895.54
519.62	50237.26
519.79	50024.27
519.96	50157.68
520.14	49893.20
520.31	50061.72
520.48	50710.05
520.65	50576.64
520.83	50532.17
521.00	51042.40
521.17	50855.16
521.34	50944.10
521.52	51065.81
521.69	50791.97
521.86	51056.45
522.03	51512.85
522.20	51739.88
522.38	51498.81
522.55	51447.32
522.72	51744.56
522.89	51742.22
523.07	51845.21
523.24	51529.23
523.41	51756.27
523.58	51636.90
523.75	52224.37
523.92	52121.39
524.10	52147.14
524.27	52523.96
524.44	52182.24
524.61	52362.46
524.78	52296.93
524.96	52186.92
525.13	52570.77
525.30	52385.87
525.47	52591.84
525.64	52781.42
525.81	52767.38
525.98	52954.62
526.16	52882.06
526.33	52875.04
526.50	53099.73
526.67	52980.37
526.84	53205.06
527.01	53043.56
527.18	53186.33
527.36	53118.46
527.53	53549.12
527.70	53446.13
527.87	53226.12
528.04	53261.23
528.21	53357.19
528.38	53352.51
528.55	53595.93
528.72	53446.13
528.89	53719.98
529.07	53551.46
529.24	53570.18
529.41	53925.94
529.58	53748.06
529.75	53729.34
529.92	53897.86
530.09	53986.80
530.26	54075.74
530.43	54033.61
530.60	54080.42
530.77	53872.11
530.94	54288.73
531.11	54277.02
531.28	54216.17
531.46	54370.64
531.63	54293.41
531.80	54548.53
531.97	54426.82
532.14	54384.69
532.31	54693.64
532.48	54939.39
532.65	54801.30
532.82	54735.77
532.99	54841.09
533.16	54817.69
533.33	55011.95
533.50	55061.10
533.67	55238.98
533.84	54632.78
534.01	54993.23
534.18	55037.70
534.35	55405.16
534.52	55297.50
534.69	55470.70
534.86	55320.90
535.03	55278.77
535.20	55491.76
535.37	55674.32
535.54	55320.90
535.71	55337.29
535.88	55489.42
536.05	55779.65
536.22	55416.86
536.38	55627.51
536.55	55693.05
536.72	55655.60
536.89	55578.36
537.06	55835.82
537.23	55978.59
537.40	55725.81
537.57	55807.73
537.74	56259.46
537.91	56009.02
538.08	56013.70
538.25	55826.46
538.42	55875.61
538.59	56191.58
538.75	56156.47
538.92	56390.53
539.09	56357.76
539.26	56437.34
539.43	56189.24
539.60	56451.38
539.77	56390.53
539.94	56416.27
540.11	56250.09
540.28	56652.67
540.44	56638.62
540.61	56336.69
540.78	56528.62
540.95	56418.61
541.12	56521.60
541.29	56587.13
541.46	56549.68
541.62	56587.13
541.79	56900.76
541.96	56577.77
542.13	56537.98
542.30	56828.21
542.47	56961.62
542.63	56912.47
542.80	56994.39
542.97	57223.76
543.14	57378.23
543.31	57186.31
543.48	57357.17
543.64	57474.20
543.81	57347.81
543.98	57425.04
544.15	57326.74
544.32	57675.48
544.48	57506.96
544.65	57448.45
544.82	57715.27
544.99	57595.90
545.16	57640.37
545.32	57399.30
545.49	57785.49
545.66	57874.43
545.83	57869.75
546.00	57808.89
546.16	57680.16
546.33	57654.42
546.50	57703.57
546.67	57853.36
546.83	57783.15
547.00	58075.71
547.17	57701.23
547.34	57986.77
547.50	57965.71
547.67	58120.18
547.84	58007.84
548.00	58370.62
548.17	58347.21
548.34	58307.43
548.51	58174.02
548.67	58281.68
548.84	58527.44
549.01	58277.00
549.18	58319.13
549.34	58267.64
549.51	58351.90
549.68	58585.95
549.84	58487.65
550.01	58576.59
550.18	58288.70
550.34	58461.90
550.51	58721.70
550.68	58429.13
550.84	58522.76
551.01	58824.68
551.18	58534.46
551.34	58712.34
551.51	58747.45
551.68	58614.04
551.84	58529.78
552.01	58557.86
552.18	58698.30
552.34	58745.11
552.51	58887.88
552.68	58681.91
552.84	58625.74
553.01	59070.44
553.18	58855.11
553.34	58937.03
553.51	58789.58
553.67	58920.65
553.84	59210.87
554.01	58939.37
554.17	58831.71
554.34	59201.51
554.51	58958.09
554.67	59121.93
554.84	59178.10
555.00	59056.40
555.17	59150.02
555.33	59271.73
555.50	59072.78
555.67	59180.45
555.83	59173.42
556.00	59140.66
556.16	59297.47
556.33	59281.09
556.50	59295.13
556.66	59437.90
556.83	59231.94
556.99	59531.53
557.16	59662.60
557.32	59498.76
557.49	59643.87
557.65	59629.83
557.82	59634.51
557.98	59400.46
558.15	59550.25
558.32	59700.04
558.48	59618.13
558.65	59554.93
558.81	59550.25
558.98	59796.01
559.14	59821.75
559.31	59821.75
559.47	59906.01
559.64	59906.01
559.80	59882.61
559.97	59861.54
560.13	59805.37
560.30	59854.52
560.46	59828.77
560.63	59835.80
560.79	59725.79
560.96	59901.33
561.12	60055.81
561.29	59915.37
561.45	60055.81
561.61	59744.51
561.78	59908.35
561.94	59934.10
562.11	59896.65
562.27	59889.63
562.44	59934.10
562.60	60196.24
562.77	60095.60
562.93	59957.50
563.10	60093.25
563.26	60109.64
563.42	60406.89
563.59	60100.28
563.75	60252.41
563.92	59992.61
564.08	60011.34
564.24	60327.31
564.41	60226.66
564.57	60198.58
564.74	60278.16
564.90	60245.39
565.07	60214.96
565.23	60170.49
565.39	60210.28
565.56	60453.70
565.72	60107.30
565.88	60296.88
566.05	60161.13
566.21	60212.62
566.38	60556.68
566.54	60509.87
566.70	60554.34
566.87	60610.51
567.03	60278.16
567.19	60729.88
567.36	60540.30
567.52	60299.22
567.68	60619.88
567.85	60657.32
568.01	60594.13
568.17	60528.59
568.34	60463.06
568.50	60533.28
568.66	60451.36
568.83	60533.28
568.99	60589.45
569.15	60544.98
569.32	60509.87
569.48	60605.83
569.64	60573.06
569.81	60851.59
569.97	60502.85
570.13	60598.81
570.30	60444.33
570.46	60563.70
570.62	60750.94
570.78	60664.35
570.95	60587.11
571.11	60657.32
571.27	60601.15
571.43	60430.29
571.60	60612.85
571.76	60657.32
571.92	60657.32
572.09	60750.94
572.25	60617.53
572.41	60587.11
572.57	60821.16
572.74	60956.91
572.90	60505.19
573.06	60678.39
573.22	60638.60
573.38	60839.89
573.55	60870.31
573.71	60907.76
573.87	61008.40
574.03	60706.47
574.20	60924.14
574.36	60676.05
574.52	60903.08
574.68	60973.30
574.84	60940.53
575.01	60884.36
575.17	60844.57
575.33	60807.12
575.49	60727.54
575.65	60926.49
575.82	61001.38
575.98	60846.91
576.14	61104.37
576.30	61022.45
576.46	60764.99
576.62	60762.65
576.79	60764.99
576.95	60701.79
577.11	61010.74
577.27	60949.89
577.43	61017.77
577.59	60753.29
577.75	60879.67
577.92	60575.40
578.08	60816.48
578.24	60935.85
578.40	61024.79
578.56	61052.87
578.72	60945.21
578.88	60959.25
579.04	61080.96
579.21	60844.57
579.37	61017.77
579.53	61162.88
579.69	60811.80
579.85	60867.97
580.01	61137.13
580.17	60893.72
580.33	61148.84
580.49	60947.55
580.65	61095.00
580.82	61017.77
580.98	60973.30
581.14	60828.18
581.30	60989.68
581.46	61034.15
581.62	60959.25
581.78	60940.53
581.94	60865.63
582.10	61160.54
582.26	61195.65
582.42	60996.70
582.58	61085.64
582.74	61116.07
582.90	61090.32
583.06	61118.41
583.22	60900.74
583.38	61069.26
583.54	61167.56
583.70	61169.90
583.86	61137.13
584.02	60858.61
584.18	61247.14
584.34	60949.89
584.50	61160.54
584.66	60851.59
584.82	61029.47
584.98	61116.07
585.14	61064.58
585.30	60970.96
585.46	61055.21
585.62	61132.45
585.78	61310.33
585.94	60879.67
586.10	61226.07
586.26	61024.79
586.42	61015.43
586.58	61139.47
586.74	61008.40
586.90	61134.79
587.06	60945.21
587.22	61155.86
587.38	60970.96
587.54	61345.44
587.70	61183.94
587.86	61137.13
588.02	61179.26
588.18	61336.08
588.34	61155.86
588.49	61226.07
