SpectraSuite Data File
++++++++++++++++++++++++++++++++++++
Date: Fri Oct 25 11:23:22 EDT 2013
User: price-jones
Dark Spectrum Present: No
Reference Spectrum Present: No
Number of Sampled Component Spectra: 1
Spectrometers: USB2+H05261
Integration Time (usec): 100000 (USB2+H05261)
Spectra Averaged: 1 (USB2+H05261)
Boxcar Smoothing: 0 (USB2+H05261)
Correct for Electrical Dark: No (USB2+H05261)
Strobe/Lamp Enabled: No (USB2+H05261)
Correct for Detector Non-linearity: No (USB2+H05261)
Correct for Stray Light: No (USB2+H05261)
Number of Pixels in Processed Spectrum: 2048
>>>>>Begin Processed Spectral Data<<<<<
365.73	170.86
365.92	170.86
366.12	170.86
366.32	154.48
366.52	98.30
366.72	100.64
366.91	121.71
367.11	135.75
367.31	187.24
367.51	182.56
367.70	65.54
367.90	126.39
368.10	170.86
368.30	170.86
368.49	126.39
368.69	159.16
368.89	173.20
369.09	117.03
369.28	117.03
369.48	135.75
369.68	220.01
369.87	170.86
370.07	124.05
370.27	205.97
370.47	395.55
370.66	596.84
370.86	543.00
371.06	695.14
371.25	706.84
371.45	716.20
371.65	779.40
371.84	622.58
372.04	695.14
372.24	681.10
372.44	681.10
372.63	770.04
372.83	758.33
373.03	770.04
373.22	732.59
373.42	798.12
373.62	755.99
373.81	844.93
374.01	833.23
374.21	779.40
374.40	835.57
374.60	807.48
374.79	814.51
374.99	807.48
375.19	826.21
375.38	791.10
375.58	844.93
375.78	805.14
375.97	887.06
376.17	844.93
376.37	887.06
376.56	835.57
376.76	861.32
376.95	943.24
377.15	908.13
377.35	957.28
377.54	877.70
377.74	814.51
377.93	889.40
378.13	849.61
378.33	919.83
378.52	917.49
378.72	922.17
378.91	933.87
379.11	894.08
379.31	915.15
379.50	983.02
379.70	950.26
379.89	964.30
380.09	938.55
380.28	1011.11
380.48	943.24
380.68	980.68
380.87	1039.20
381.07	983.02
381.26	1004.09
381.46	957.28
381.65	999.41
381.85	983.02
382.04	1027.50
382.24	1064.94
382.43	1055.58
382.63	1069.62
382.83	1104.73
383.02	1118.78
383.22	1130.48
383.41	1158.57
383.61	1107.07
383.80	1116.44
384.00	1137.50
384.19	1064.94
384.39	1160.91
384.58	1128.14
384.78	1188.99
384.97	1116.44
385.17	1090.69
385.36	1027.50
385.56	1123.46
385.75	1184.31
385.95	1256.87
386.14	1224.10
386.34	1196.01
386.53	1200.69
386.72	1221.76
386.92	1277.93
387.11	1303.68
387.31	1313.04
387.50	1172.61
387.70	1226.44
387.89	1188.99
388.09	1207.72
388.28	1308.36
388.48	1277.93
388.67	1287.29
388.86	1259.21
389.06	1352.83
389.25	1383.26
389.45	1329.42
389.64	1348.15
389.84	1343.47
390.03	1348.15
390.22	1345.81
390.42	1345.81
390.61	1380.92
390.81	1362.19
391.00	1383.26
391.19	1483.90
391.39	1327.08
391.58	1401.98
391.78	1409.00
391.97	1490.92
392.16	1439.43
392.36	1540.07
392.55	1589.22
392.75	1495.60
392.94	1523.69
393.13	1607.95
393.33	1519.01
393.52	1514.33
393.71	1626.67
393.91	1575.18
394.10	1563.48
394.29	1699.23
394.49	1610.29
394.68	1631.35
394.88	1589.22
395.07	1671.14
395.26	1673.48
395.46	1673.48
395.65	1661.78
395.84	1675.82
396.04	1874.77
396.23	1741.36
396.42	1699.23
396.62	1811.57
396.81	1790.51
397.00	1783.49
397.19	1820.94
397.39	1783.49
397.58	1851.36
397.77	1827.96
397.97	1853.70
398.16	1884.13
398.35	1884.13
398.55	1799.87
398.74	1856.04
398.93	1973.07
399.12	1930.94
399.32	1884.13
399.51	1937.96
399.70	2052.65
399.90	1987.11
400.09	2019.88
400.28	2118.18
400.47	2019.88
400.67	2083.08
400.86	2038.61
401.05	2076.06
401.24	2022.22
401.44	2052.65
401.63	2101.80
401.82	2076.06
402.01	2169.68
402.21	2183.72
402.40	2092.44
402.59	2200.10
402.78	2204.78
402.97	2284.36
403.17	2338.20
403.36	2246.91
403.55	2263.30
403.74	2396.71
403.93	2352.24
404.13	2401.39
404.32	2403.73
404.51	2377.98
404.70	2382.67
404.89	2389.69
405.09	2525.44
405.28	2462.24
405.47	2525.44
405.66	2614.38
405.85	2511.39
406.05	2448.20
406.24	2546.50
406.43	2654.17
406.62	2633.10
406.81	2768.85
407.00	2588.63
407.20	2509.05
407.39	2576.93
407.58	2621.40
407.77	2675.23
407.96	2682.25
408.15	2747.79
408.34	2949.08
408.54	2827.37
408.73	2832.05
408.92	2757.15
409.11	2848.43
409.30	2911.63
409.49	2897.58
409.68	3014.61
409.87	2913.97
410.07	3087.17
410.26	3005.25
410.45	2967.80
410.64	3061.42
410.83	3117.59
411.02	2988.86
411.21	3314.20
411.40	3187.81
411.59	3201.85
411.78	3171.43
411.98	3138.66
412.17	3272.07
412.36	3330.58
412.55	3330.58
412.74	3471.01
412.93	3410.16
413.12	3370.37
413.31	3634.85
413.50	3468.67
413.69	3630.17
413.88	3665.28
414.07	3480.38
414.26	3660.60
414.45	3695.71
414.64	3705.07
414.83	3756.56
415.02	3754.22
415.22	3824.44
415.41	3843.16
415.60	3808.05
415.79	3936.78
415.98	3943.80
416.17	3922.74
416.36	4051.47
416.55	4032.74
416.74	4072.53
416.93	4086.58
417.12	4088.92
417.31	4248.07
417.50	4219.99
417.69	4262.12
417.88	4201.26
418.07	4299.56
418.26	4294.88
418.45	4407.23
418.64	4437.66
418.83	4475.10
419.02	4355.74
419.21	4472.76
419.39	4531.28
419.58	4500.85
419.77	4606.17
419.96	4582.77
420.15	4613.20
420.34	4512.55
420.53	4645.96
420.72	4732.56
420.91	4674.05
421.10	4903.42
421.29	4723.20
421.48	4575.75
421.67	4744.27
421.86	4847.25
422.05	4819.16
422.24	4837.89
422.43	4887.04
422.61	4788.74
422.80	4837.89
422.99	4891.72
423.18	5004.07
423.37	4973.64
423.56	4873.00
423.75	4910.44
423.94	4837.89
424.13	4655.33
424.32	4840.23
424.50	4959.60
424.69	5109.39
424.88	5125.77
425.07	4999.38
425.26	4863.63
425.45	4936.19
425.64	5057.90
425.83	4966.62
426.01	5128.11
426.20	5153.86
426.39	5060.24
426.58	5076.62
426.77	5205.35
426.96	5249.82
427.15	5022.79
427.33	5200.67
427.52	5128.11
427.71	5282.59
427.90	5100.03
428.09	5387.91
428.28	5362.17
428.46	5493.24
428.65	5488.56
428.84	5465.15
429.03	5523.66
429.22	5217.05
429.40	5406.64
429.59	5451.11
429.78	5268.55
429.97	5252.16
430.16	5493.24
430.34	5788.14
430.53	5748.36
430.72	5668.78
430.91	5633.67
431.10	5846.66
431.28	5682.82
431.47	5795.17
431.66	5774.10
431.85	5802.19
432.03	5991.77
432.22	5975.39
432.41	6033.90
432.60	5935.60
432.79	6001.13
432.97	6024.54
433.16	5888.79
433.35	6033.90
433.54	6066.67
433.72	6314.77
433.91	6157.95
434.10	6040.92
434.28	6242.21
434.47	6265.61
434.66	6235.19
434.85	6239.87
435.03	6167.31
435.22	6263.27
435.41	6469.24
435.59	6436.47
435.78	6300.72
435.97	6476.26
436.16	6260.93
436.34	6523.07
436.53	6565.20
436.72	6686.91
436.90	6574.56
437.09	6654.14
437.28	6399.02
437.46	6626.06
437.65	6633.08
437.84	6656.48
438.02	6853.09
438.21	6846.07
438.40	6820.32
438.58	7145.66
438.77	7033.31
438.96	6925.65
439.14	7248.64
439.33	7122.25
439.52	7218.21
439.70	7398.43
439.89	7342.26
440.08	7543.55
440.26	7492.05
440.45	7414.82
440.63	7503.76
440.82	7616.10
441.01	7543.55
441.19	7604.40
441.38	7737.81
441.57	7833.77
441.75	7775.26
441.94	7873.56
442.12	7852.50
442.31	8161.45
442.50	8079.53
442.68	8056.12
442.87	8222.30
443.05	8131.02
443.24	8037.40
443.43	8407.20
443.61	8348.69
443.80	8472.74
443.98	8016.33
444.17	7805.69
444.35	8145.06
444.54	8442.31
444.73	8435.29
444.91	8437.63
445.10	8416.57
445.28	8404.86
445.47	8093.57
445.65	8514.87
445.84	8446.99
446.02	8648.28
446.21	8461.04
446.39	8575.72
446.58	8505.51
446.77	8446.99
446.95	8390.82
447.14	8505.51
447.32	8496.14
447.51	8315.92
447.69	8538.27
447.88	8596.79
448.06	8519.55
448.25	8507.85
448.43	8470.40
448.62	8674.03
448.80	8777.01
448.99	8627.21
449.17	8725.52
449.36	8652.96
449.54	8856.59
449.73	8901.06
449.91	9078.94
450.10	9092.98
450.28	9167.88
450.46	9181.92
450.65	9116.39
450.83	9116.39
451.02	9156.18
451.20	9254.48
451.39	9067.24
451.57	9331.72
451.76	9053.19
451.94	9156.18
452.13	9397.25
452.31	9284.91
452.49	9179.58
452.68	9462.79
452.86	9191.28
453.05	9390.23
453.23	9692.16
453.42	9418.32
453.60	9490.87
453.78	9308.31
453.97	9413.63
454.15	9638.33
454.34	9397.25
454.52	9689.82
454.70	9760.03
454.89	9701.52
455.07	9783.44
455.26	9839.61
455.44	10141.54
455.62	10017.49
455.81	9851.31
455.99	10022.17
456.17	10106.43
456.36	10031.54
456.54	10214.10
456.73	10258.57
456.91	10312.40
457.09	10668.16
457.28	10581.56
457.46	10242.18
457.64	10792.21
457.83	10394.32
458.01	10368.57
458.19	10651.78
458.38	10630.71
458.56	10574.54
458.74	10705.61
458.93	10506.66
459.11	10904.56
459.29	10752.42
459.48	10890.51
459.66	10944.34
459.84	11052.01
460.03	10888.17
460.21	11143.29
460.39	11040.31
460.57	11094.14
460.76	10953.71
460.94	11309.47
461.12	11133.93
461.31	11257.98
461.49	11073.07
461.67	11070.73
461.85	11522.46
462.04	11487.35
462.22	11571.61
462.40	11576.29
462.59	11389.05
462.77	11707.36
462.95	11707.36
463.13	11824.39
463.32	11646.51
463.50	11740.13
463.68	11772.89
463.86	11922.69
464.05	11595.01
464.23	11920.35
464.41	12020.99
464.59	11749.49
464.78	12119.29
464.96	11892.26
465.14	12032.69
465.32	12088.87
465.50	12180.15
465.69	12205.89
465.87	12226.96
466.05	12219.94
466.23	12248.02
466.41	12224.62
466.60	12830.82
466.78	12456.33
466.96	12360.37
467.14	12418.88
467.32	12231.64
467.51	12430.59
467.69	12219.94
467.87	12620.17
468.05	12772.30
468.23	12545.27
468.41	12348.67
468.60	12734.85
468.78	12830.82
468.96	12723.15
469.14	12830.82
469.32	13055.51
469.50	12669.32
469.69	13015.72
469.87	12996.99
470.05	13287.22
470.23	13078.91
470.41	13036.78
470.59	13355.10
470.77	13308.29
470.95	13296.58
471.14	13659.37
471.32	13441.70
471.50	13764.69
471.68	13774.05
471.86	13832.57
472.04	13795.12
472.22	13980.02
472.40	13687.45
472.58	13987.04
472.77	14225.78
472.95	14223.44
473.13	14469.19
473.31	13968.32
473.49	14195.35
473.67	14040.87
473.85	14464.51
474.03	14855.38
474.21	14817.93
474.39	14883.47
474.57	14663.46
474.75	14944.32
474.93	14991.13
475.12	15016.88
475.30	15133.90
475.48	15225.18
475.66	15211.14
475.84	15035.60
476.02	15623.08
476.20	15246.25
476.38	15810.32
476.56	15932.03
476.74	16077.14
476.92	15988.20
477.10	15969.48
477.28	16549.93
477.46	16257.36
477.64	16585.04
477.82	16950.16
478.00	16912.71
478.18	16484.39
478.36	17011.01
478.54	17427.63
478.72	17268.47
478.90	17584.44
479.08	17448.69
479.26	17783.39
479.44	17731.90
479.62	17837.22
479.80	18071.28
479.98	18317.03
480.16	18799.18
480.34	18530.02
480.52	18747.69
480.70	18417.68
480.88	18731.31
481.06	18883.44
481.24	19075.37
481.41	19218.14
481.59	19541.13
481.77	19726.04
481.95	19541.13
482.13	19941.36
482.31	19812.63
482.49	20400.11
482.67	20313.51
482.85	20510.11
483.03	20496.07
483.21	20980.56
483.39	21238.02
483.57	21090.57
483.74	21333.98
483.92	21682.72
484.10	21329.30
484.28	21757.62
484.46	22183.60
484.64	22490.21
484.82	22160.19
485.00	22441.06
485.18	22745.33
485.35	23271.95
485.53	23115.13
485.71	23065.98
485.89	23531.75
486.07	23332.80
486.25	23503.66
486.43	23939.00
486.61	24173.05
486.78	24439.87
486.96	24535.84
487.14	24800.32
487.32	25113.95
487.50	24945.43
487.68	25249.70
487.85	25610.14
488.03	25656.95
488.21	25860.58
488.39	26087.61
488.57	26103.99
488.75	26298.26
488.92	26710.19
489.10	26881.05
489.28	27344.48
489.46	27489.59
489.64	27269.58
489.81	27971.74
489.99	27583.21
490.17	28053.66
490.35	28287.71
490.53	28276.01
490.70	28573.26
490.88	28250.27
491.06	29170.10
491.24	28978.17
491.41	29542.24
491.59	29408.83
491.77	29516.50
491.95	29727.14
492.13	29846.51
492.30	30588.46
492.48	30426.96
492.66	30485.48
492.84	30845.92
493.01	30925.50
493.19	30780.39
493.37	31225.09
493.54	31435.74
493.72	31634.68
493.90	31985.76
494.08	32081.72
494.25	32676.22
494.43	32261.94
494.61	32430.46
494.79	32755.80
494.96	32444.51
495.14	33303.48
495.32	32966.45
495.49	33193.48
495.67	33684.99
495.85	33729.46
496.02	34274.80
496.20	34213.95
496.38	34256.08
496.55	34593.12
496.73	34881.00
496.91	34857.60
497.09	35189.95
497.26	35304.64
497.44	34866.96
497.62	35463.80
497.79	36306.39
497.97	35550.40
498.14	36226.81
498.32	36170.64
498.50	36615.34
498.67	36765.14
498.85	36711.30
499.03	36900.89
499.20	36568.53
499.38	36957.06
499.56	37106.85
499.73	37198.13
499.91	37331.54
500.08	38014.98
500.26	37315.16
500.44	37675.60
500.61	38122.65
500.79	38309.89
500.97	38398.83
501.14	38792.04
501.32	38927.79
501.49	38572.03
501.67	39297.59
501.84	39192.27
502.02	38834.17
502.20	39110.35
502.37	39775.06
502.55	39288.23
502.72	39842.94
502.90	39573.78
503.07	39597.18
503.25	40109.76
503.43	40184.66
503.60	40437.44
503.78	40502.97
503.95	40341.47
504.13	40725.32
504.30	40814.26
504.48	40769.79
504.65	41244.92
504.83	41563.23
505.01	41560.89
505.18	41338.54
505.36	41708.35
505.53	41322.16
505.71	41911.97
505.88	42050.06
506.06	42066.45
506.23	42209.22
506.41	42429.23
506.58	42686.69
506.76	42553.28
506.93	42871.59
507.11	42511.15
507.28	42974.58
507.46	42967.55
507.63	43311.61
507.81	43845.26
507.98	43049.47
508.16	43009.68
508.33	43681.42
508.50	43732.91
508.68	43845.26
508.85	44137.82
509.03	44165.91
509.20	44414.01
509.38	44304.00
509.55	44566.14
509.73	44669.12
509.90	45036.59
510.08	44589.55
510.25	44706.57
510.42	45296.39
510.60	45237.87
510.77	45331.50
510.95	45448.52
511.12	45305.75
511.30	45670.87
511.47	45504.70
511.64	45696.62
511.82	46223.24
511.99	45628.74
512.17	46288.77
512.34	45855.78
512.51	46822.42
512.69	46621.13
512.86	46230.26
513.04	46988.60
513.21	47182.86
513.38	47021.36
513.56	47459.04
513.73	47327.97
513.90	47470.75
514.08	46939.44
514.25	47351.38
514.43	47732.89
514.60	47821.83
514.77	47833.53
514.95	48083.97
515.12	47772.67
515.29	48095.67
515.47	48348.45
515.64	48493.56
515.81	48018.43
515.99	48296.95
516.16	48704.21
516.33	48762.72
516.51	48762.72
516.68	48385.89
516.85	48643.35
517.03	49172.31
517.20	49277.64
517.37	49432.11
517.54	49052.95
517.72	49247.21
517.89	49006.14
518.06	49720.00
518.24	49745.75
518.41	49455.52
518.58	49661.49
518.75	49544.46
518.93	49727.02
519.10	49815.96
519.27	49916.61
519.45	50190.45
519.62	50380.03
519.79	50281.73
519.96	50164.70
520.14	50274.71
520.31	50291.09
520.48	50410.46
520.65	50674.94
520.83	50562.59
521.00	50883.25
521.17	50885.59
521.34	50944.10
521.52	50897.29
521.69	50986.23
521.86	51119.64
522.03	51187.52
522.20	51264.75
522.38	51770.31
522.55	51444.98
522.72	51416.89
522.89	51393.48
523.07	51885.00
523.24	51899.04
523.41	51819.46
523.58	51363.06
523.75	52060.54
523.92	52083.94
524.10	52238.42
524.27	52090.96
524.44	52229.05
524.61	52175.22
524.78	52360.12
524.96	52245.44
525.13	52549.71
525.30	52818.87
525.47	52676.10
525.64	52718.23
525.81	52704.18
525.98	52926.53
526.16	52959.30
526.33	52823.55
526.50	53254.21
526.67	53052.92
526.84	53284.64
527.01	52861.00
527.18	53607.63
527.36	53090.37
527.53	53279.96
527.70	53715.29
527.87	53609.97
528.04	53375.92
528.21	53375.92
528.38	53347.83
528.55	53834.66
528.72	53579.54
528.89	53595.93
529.07	53539.75
529.24	53691.89
529.41	53876.79
529.58	53853.39
529.75	53752.74
529.92	54150.63
530.09	53893.18
530.26	54300.43
530.43	54248.94
530.60	54281.70
530.77	53972.75
530.94	54365.96
531.11	54012.54
531.28	54232.55
531.46	54412.77
531.63	54490.01
531.80	54082.76
531.97	54532.14
532.14	54541.50
532.31	54639.81
532.48	54899.61
532.65	54883.22
532.82	54719.38
532.99	54639.81
533.16	54721.72
533.33	54995.57
533.50	54864.50
533.67	55107.91
533.84	54813.01
534.01	55056.42
534.18	55145.36
534.35	55402.82
534.52	55210.90
534.69	55367.71
534.86	55669.64
535.03	55238.98
535.20	55407.50
535.37	55533.89
535.54	55559.64
535.71	55337.29
535.88	55777.31
536.05	55681.34
536.22	55580.70
536.38	55772.63
536.55	55676.66
536.72	55987.95
536.89	55765.60
537.06	55716.45
537.23	56018.38
537.40	55716.45
537.57	55952.85
537.74	56030.08
537.91	56034.77
538.08	56027.74
538.25	55805.39
538.42	56170.52
538.59	56416.27
538.75	55969.23
538.92	56158.81
539.09	56383.51
539.26	56280.52
539.43	56245.41
539.60	56507.55
539.77	56484.15
539.94	56788.42
540.11	56463.08
540.28	56697.14
540.44	56566.07
540.61	56662.03
540.78	56577.77
540.95	56652.67
541.12	56491.17
541.29	56676.07
541.46	56671.39
541.62	56985.02
541.79	56769.69
541.96	56640.96
542.13	56718.20
542.30	57003.75
542.47	56900.76
542.63	56989.70
542.80	57090.35
542.97	57219.08
543.14	57293.97
543.31	57272.91
543.48	57354.83
543.64	57656.76
543.81	57483.56
543.98	57298.65
544.15	57513.98
544.32	57499.94
544.48	57736.34
544.65	57406.32
544.82	57333.76
544.99	57389.94
545.16	57633.35
545.32	57483.56
545.49	57998.48
545.66	57780.81
545.83	57832.30
546.00	57991.45
546.16	57881.45
546.33	57684.84
546.50	57684.84
546.67	58014.86
546.83	57422.70
547.00	57975.07
547.17	57738.68
547.34	58124.86
547.50	58101.46
547.67	58159.97
547.84	58211.46
548.00	58307.43
548.17	58295.72
548.34	58382.32
548.51	58529.78
548.67	58387.00
548.84	58171.67
549.01	58174.02
549.18	58185.72
549.34	58335.51
549.51	58576.59
549.68	58515.73
549.84	58747.45
550.01	58499.35
550.18	58197.42
550.34	58679.57
550.51	58756.81
550.68	58560.20
550.84	58412.75
551.01	58731.06
551.18	58520.41
551.34	58815.32
551.51	58747.45
551.68	58726.38
551.84	58862.13
552.01	58499.35
552.18	58946.39
552.34	58803.62
552.51	58831.71
552.68	58782.55
552.84	58759.15
553.01	59131.29
553.18	58887.88
553.34	58995.54
553.51	58801.28
553.67	58995.54
553.84	59086.82
554.01	59103.21
554.17	59262.36
554.34	59222.58
554.51	59311.52
554.67	59166.40
554.84	59061.08
555.00	59227.26
555.17	59231.94
555.33	59255.34
555.50	59098.53
555.67	59262.36
555.83	59110.23
556.00	59444.93
556.16	59676.64
556.33	59510.46
556.50	59447.27
556.66	59669.62
556.83	59318.54
556.99	59739.83
557.16	59597.06
557.32	59714.09
557.49	59735.15
557.65	59709.41
557.82	59379.39
557.98	59444.93
558.15	59353.65
558.32	59735.15
558.48	59667.28
558.65	59578.34
558.81	59597.06
558.98	59590.04
559.14	59810.05
559.31	59774.94
559.47	59880.27
559.64	59735.15
559.80	59887.29
559.97	59636.85
560.13	59807.71
560.30	59884.95
560.46	60025.38
560.63	59742.17
560.79	59945.80
560.96	59957.50
561.12	60034.74
561.29	59969.21
561.45	60088.57
561.61	60037.08
561.78	59938.78
561.94	59955.16
562.11	59948.14
562.27	60051.12
562.44	60233.69
562.60	60266.45
562.77	60268.79
562.93	59856.86
563.10	60184.54
563.26	59983.25
563.42	60334.33
563.59	60233.69
563.75	59936.44
563.92	60217.30
564.08	60261.77
564.24	60350.71
564.41	60327.31
564.57	60432.63
564.74	60165.81
564.90	60238.37
565.07	60411.57
565.23	60193.90
565.39	60093.25
565.56	60444.33
565.72	60313.26
565.88	60425.61
566.05	60158.79
566.21	60214.96
566.38	60243.05
566.54	60420.93
566.70	60598.81
566.87	60486.46
567.03	60460.72
567.19	60662.00
567.36	60580.09
567.52	60430.29
567.68	60612.85
567.85	60367.10
568.01	60488.80
568.17	60444.33
568.34	60523.91
568.50	60549.66
568.66	60470.08
568.83	60289.86
568.99	60402.21
569.15	60575.40
569.32	60680.73
569.48	60463.06
569.64	60568.38
569.81	60430.29
569.97	60500.51
570.13	60734.56
570.30	60449.02
570.46	60678.39
570.62	60608.17
570.78	60598.81
570.95	60727.54
571.11	60622.22
571.27	60743.92
571.43	60601.15
571.60	60956.91
571.76	60856.27
571.92	60807.12
572.09	60886.70
572.25	60589.45
572.41	60767.33
572.57	60683.07
572.74	60807.12
572.90	60898.40
573.06	60830.52
573.22	60690.09
573.38	60725.20
573.55	60795.42
573.71	60863.29
573.87	60788.39
574.03	60917.12
574.20	60802.44
574.36	60748.60
574.52	60748.60
574.68	60900.74
574.84	60863.29
575.01	60903.08
575.17	60863.29
575.33	60933.51
575.49	60690.09
575.65	60849.25
575.82	60905.42
575.98	60877.33
576.14	61179.26
576.30	61062.24
576.46	60935.85
576.62	60774.35
576.79	60755.63
576.95	60884.36
577.11	61020.11
577.27	61151.18
577.43	61055.21
577.59	60844.57
577.75	60860.95
577.92	60907.76
578.08	60966.27
578.24	61066.92
578.40	61202.67
578.56	61001.38
578.72	60985.00
578.88	61111.39
579.04	61212.03
579.21	60996.70
579.37	61078.62
579.53	60963.93
579.69	60725.20
579.85	60961.59
580.01	60980.32
580.17	60999.04
580.33	61123.09
580.49	61333.74
580.65	61015.43
580.82	60788.39
580.98	60973.30
581.14	60811.80
581.30	61118.41
581.46	60921.80
581.62	61106.71
581.78	60921.80
581.94	61179.26
582.10	60954.57
582.26	61104.37
582.42	61050.53
582.58	61010.74
582.74	61052.87
582.90	61006.06
583.06	60982.66
583.22	60924.14
583.38	61111.39
583.54	61226.07
583.70	61165.22
583.86	60956.91
584.02	60830.52
584.18	61378.21
584.34	61034.15
584.50	61130.11
584.66	61144.16
584.82	60879.67
584.98	61258.84
585.14	61254.16
585.30	60973.30
585.46	61080.96
585.62	61329.06
585.78	61354.80
585.94	61017.77
586.10	61008.40
586.26	61258.84
586.42	61291.61
586.58	61298.63
586.74	61116.07
586.90	61209.69
587.06	61102.03
587.22	61240.12
587.38	61113.73
587.54	61197.99
587.70	61528.00
587.86	61446.08
588.02	61179.26
588.18	61338.42
588.34	61099.68
588.49	61104.37
