SpectraSuite Data File
++++++++++++++++++++++++++++++++++++
Date: Fri Oct 25 11:22:55 EDT 2013
User: price-jones
Dark Spectrum Present: No
Reference Spectrum Present: No
Number of Sampled Component Spectra: 1
Spectrometers: USB2+H05261
Integration Time (usec): 100000 (USB2+H05261)
Spectra Averaged: 1 (USB2+H05261)
Boxcar Smoothing: 0 (USB2+H05261)
Correct for Electrical Dark: No (USB2+H05261)
Strobe/Lamp Enabled: No (USB2+H05261)
Correct for Detector Non-linearity: No (USB2+H05261)
Correct for Stray Light: No (USB2+H05261)
Number of Pixels in Processed Spectrum: 2048
>>>>>Begin Processed Spectral Data<<<<<
365.73	173.20
365.92	173.20
366.12	173.20
366.32	117.03
366.52	156.82
366.72	46.81
366.91	107.66
367.11	184.90
367.31	149.79
367.51	105.32
367.70	166.18
367.90	231.71
368.10	154.48
368.30	184.90
368.49	147.45
368.69	100.64
368.89	112.35
369.09	191.92
369.28	133.41
369.48	166.18
369.68	163.84
369.87	215.33
370.07	149.79
370.27	238.73
370.47	395.55
370.66	561.73
370.86	650.67
371.06	706.84
371.25	650.67
371.45	601.52
371.65	697.48
371.84	571.09
372.04	645.99
372.24	739.61
372.44	828.55
372.63	763.01
372.83	751.31
373.03	791.10
373.22	763.01
373.42	765.36
373.62	772.38
373.81	819.19
374.01	819.19
374.21	788.76
374.40	779.40
374.60	809.83
374.79	784.08
374.99	788.76
375.19	812.17
375.38	889.40
375.58	837.91
375.78	786.42
375.97	812.17
376.17	819.19
376.37	863.66
376.56	903.45
376.76	901.11
376.95	903.45
377.15	898.77
377.35	894.08
377.54	898.77
377.74	889.40
377.93	849.61
378.13	896.43
378.33	887.06
378.52	976.00
378.72	966.64
378.91	940.90
379.11	908.13
379.31	903.45
379.50	880.04
379.70	987.71
379.89	1006.43
380.09	947.92
380.28	971.32
380.48	971.32
380.68	973.66
380.87	908.13
381.07	1008.77
381.26	1053.24
381.46	1011.11
381.65	1036.86
381.85	1006.43
382.04	1100.05
382.24	1015.79
382.43	1095.37
382.63	1104.73
382.83	1048.56
383.02	990.05
383.22	1067.28
383.41	1081.33
383.61	1116.44
383.80	1144.52
384.00	1102.39
384.19	1090.69
384.39	1123.46
384.58	1172.61
384.78	1219.42
384.97	1139.84
385.17	1191.33
385.36	1167.93
385.56	1179.63
385.75	1270.91
385.95	1219.42
386.14	1275.59
386.34	1093.03
386.53	1165.59
386.72	1177.29
386.92	1277.93
387.11	1224.10
387.31	1249.85
387.50	1254.53
387.70	1287.29
387.89	1226.44
388.09	1261.55
388.28	1247.51
388.48	1261.55
388.67	1345.81
388.86	1331.76
389.06	1430.07
389.25	1345.81
389.45	1385.60
389.64	1299.00
389.84	1474.54
390.03	1472.20
390.22	1369.21
390.42	1355.17
390.61	1362.19
390.81	1493.26
391.00	1453.47
391.19	1612.63
391.39	1502.62
391.58	1514.33
391.78	1476.88
391.97	1495.60
392.16	1413.68
392.36	1483.90
392.55	1476.88
392.75	1533.05
392.94	1556.46
393.13	1551.78
393.33	1521.35
393.52	1575.18
393.71	1607.95
393.91	1549.43
394.10	1638.38
394.29	1556.46
394.49	1607.95
394.68	1561.14
394.88	1657.10
395.07	1774.13
395.26	1722.63
395.46	1696.89
395.65	1757.74
395.84	1612.63
396.04	1722.63
396.23	1746.04
396.42	1774.13
396.62	1783.49
396.81	1935.62
397.00	1692.21
397.19	1823.28
397.39	1832.64
397.58	1813.92
397.77	1769.44
397.97	1783.49
398.16	1923.92
398.35	2029.24
398.55	1877.11
398.74	1905.20
398.93	1982.43
399.12	1830.30
399.32	1853.70
399.51	1823.28
399.70	2083.08
399.90	2012.86
400.09	2017.54
400.28	2155.63
400.47	2052.65
400.67	2054.99
400.86	2104.14
401.05	2097.12
401.24	2115.84
401.44	2097.12
401.63	2115.84
401.82	2150.95
402.01	2129.89
402.21	2225.85
402.40	2181.38
402.59	2169.68
402.78	2312.45
402.97	2275.00
403.17	2279.68
403.36	2312.45
403.55	2272.66
403.74	2246.91
403.93	2359.26
404.13	2422.45
404.32	2448.20
404.51	2345.22
404.70	2408.41
404.89	2457.56
405.09	2359.26
405.28	2513.74
405.47	2504.37
405.66	2509.05
405.85	2583.95
406.05	2574.59
406.24	2593.31
406.43	2637.78
406.62	2607.36
406.81	2771.19
407.00	2658.85
407.20	2588.63
407.39	2590.97
407.58	2677.57
407.77	2778.22
407.96	2693.96
408.15	2750.13
408.34	2715.02
408.54	2726.72
408.73	2747.79
408.92	2850.77
409.11	2897.58
409.30	2958.44
409.49	2977.16
409.68	2935.03
409.87	2958.44
410.07	3007.59
410.26	2979.50
410.45	3000.57
410.64	3122.27
410.83	3112.91
411.02	3169.09
411.21	3243.98
411.40	3248.66
411.59	3297.81
411.78	3234.62
411.98	3206.53
412.17	3372.71
412.36	3304.84
412.55	3494.42
412.74	3482.72
412.93	3510.80
413.12	3405.48
413.31	3634.85
413.50	3564.64
413.69	3414.84
413.88	3599.74
414.07	3648.90
414.26	3609.11
414.45	3604.42
414.64	3794.01
414.83	3838.48
415.02	3822.09
415.22	3782.31
415.41	3878.27
415.60	3850.18
415.79	4077.21
415.98	3964.87
416.17	3955.51
416.36	4058.49
416.55	3999.98
416.74	4234.03
416.93	4053.81
417.12	4198.92
417.31	4154.45
417.50	4152.11
417.69	4440.00
417.88	4292.54
418.07	4341.69
418.26	4248.07
418.45	4472.76
418.64	4470.42
418.83	4400.21
419.02	4470.42
419.21	4496.17
419.39	4627.24
419.58	4425.95
419.77	4514.89
419.96	4547.66
420.15	4564.04
420.34	4542.98
420.53	4608.51
420.72	4835.55
420.91	4755.97
421.10	4802.78
421.29	4868.31
421.48	4800.44
421.67	4873.00
421.86	4880.02
422.05	4851.93
422.24	4884.70
422.43	4903.42
422.61	4990.02
422.80	5004.07
422.99	4938.53
423.18	5055.56
423.37	5041.51
423.56	4910.44
423.75	4898.74
423.94	4826.18
424.13	4699.80
424.32	4741.93
424.50	5013.43
424.69	5081.30
424.88	5053.22
425.07	4929.17
425.26	4994.70
425.45	5111.73
425.64	4959.60
425.83	5055.56
426.01	4987.68
426.20	5111.73
426.39	5043.85
426.58	5160.88
426.77	5172.58
426.96	5301.31
427.15	5121.09
427.33	5369.19
427.52	5207.69
427.71	5404.30
427.90	5350.46
428.09	5350.46
428.28	5504.94
428.46	5467.49
428.65	5366.85
428.84	5638.35
429.03	5551.75
429.22	5504.94
429.40	5542.39
429.59	5556.43
429.78	5327.06
429.97	5359.83
430.16	5636.01
430.34	5680.48
430.53	5734.31
430.72	5778.78
430.91	5731.97
431.10	5783.46
431.28	5755.38
431.47	5841.98
431.66	5947.30
431.85	5809.21
432.03	6008.16
432.22	6017.52
432.41	5954.32
432.60	5884.11
432.79	5916.87
432.97	6033.90
433.16	6057.31
433.35	6120.50
433.54	6118.16
433.72	6270.30
433.91	6146.25
434.10	6216.46
434.28	6225.82
434.47	6293.70
434.66	6293.70
434.85	6483.28
435.03	6410.73
435.22	6349.87
435.41	6429.45
435.59	6429.45
435.78	6520.73
435.97	6583.93
436.16	6450.52
436.34	6441.15
436.53	6485.62
436.72	6752.45
436.90	6450.52
437.09	6827.34
437.28	6553.50
437.46	6630.74
437.65	6640.10
437.84	6672.87
438.02	6707.98
438.21	6967.77
438.40	6820.32
438.58	7138.63
438.77	7073.10
438.96	7070.76
439.14	7080.12
439.33	7262.68
439.52	7332.90
439.70	7398.43
439.89	7346.94
440.08	7627.81
440.26	7400.77
440.45	7344.60
440.63	7536.52
440.82	7712.07
441.01	7595.04
441.19	7777.60
441.38	7836.11
441.57	7843.14
441.75	7831.43
441.94	8018.68
442.12	7857.18
442.31	7962.50
442.50	8133.36
442.68	7981.23
442.87	8102.93
443.05	8184.85
443.24	8269.11
443.43	8189.53
443.61	8451.67
443.80	8465.72
443.98	8297.20
444.17	7819.73
444.35	8344.01
444.54	8454.02
444.73	8423.59
444.91	8367.42
445.10	8482.10
445.28	8477.42
445.47	8372.10
445.65	8444.65
445.84	8503.17
446.02	8517.21
446.21	8379.12
446.39	8521.89
446.58	8727.86
446.77	8519.55
446.95	8374.44
447.14	8622.53
447.32	8489.12
447.51	8559.34
447.69	8582.74
447.88	8662.32
448.06	8512.53
448.25	8376.78
448.43	8664.66
448.62	8847.22
448.80	8781.69
448.99	8863.61
449.17	8997.02
449.36	8704.45
449.54	8837.86
449.73	9228.73
449.91	9170.22
450.10	9118.73
450.28	9149.15
450.46	9149.15
450.65	9036.81
450.83	9085.96
451.02	9102.34
451.20	9226.39
451.39	9057.87
451.57	9261.50
451.76	9114.05
451.94	9303.63
452.13	9263.84
452.31	9441.72
452.49	9139.79
452.68	9441.72
452.86	9415.98
453.05	9579.81
453.23	9549.39
453.42	9584.49
453.60	9413.63
453.78	9701.52
453.97	9631.30
454.15	9551.73
454.34	9528.32
454.52	9816.21
454.70	9975.36
454.89	9797.48
455.07	9865.36
455.26	10115.80
455.44	10101.75
455.62	10139.20
455.81	10057.28
455.99	10111.11
456.17	10181.33
456.36	9905.15
456.54	10204.74
456.73	10504.32
456.91	10546.45
457.09	10752.42
457.28	10698.59
457.46	10469.22
457.64	10607.31
457.83	10780.51
458.01	10665.82
458.19	10619.01
458.38	10485.60
458.56	10867.11
458.74	10850.72
458.93	10726.68
459.11	10832.00
459.29	10862.43
459.48	10995.84
459.66	11005.20
459.84	11014.56
460.03	11096.48
460.21	11253.30
460.39	11218.19
460.57	11147.97
460.76	11276.70
460.94	11384.37
461.12	11461.60
461.31	11449.90
461.49	11410.11
461.67	11222.87
461.85	11583.31
462.04	11419.47
462.22	11957.80
462.40	11627.78
462.59	11492.03
462.77	11660.55
462.95	11786.94
463.13	11545.86
463.32	11850.13
463.50	11866.52
463.68	11920.35
463.86	12037.38
464.05	12142.70
464.23	11976.52
464.41	11859.49
464.59	11864.18
464.78	12257.39
464.96	12226.96
465.14	11950.78
465.32	12116.95
465.50	12297.17
465.69	12400.16
465.87	12425.90
466.05	12320.58
466.23	12198.87
466.41	12372.07
466.60	12521.87
466.78	12149.72
466.96	12112.27
467.14	12304.20
467.32	12320.58
467.51	12751.24
467.69	12313.56
467.87	12439.95
468.05	12589.74
468.23	12657.62
468.41	12723.15
468.60	12975.93
468.78	12945.50
468.96	12751.24
469.14	12996.99
469.32	12950.18
469.50	12886.99
469.69	13149.13
469.87	13315.31
470.05	13195.94
470.23	13149.13
470.41	13186.58
470.59	13345.73
470.77	13233.39
470.95	13348.08
471.14	13659.37
471.32	13284.88
471.50	13891.08
471.68	13951.93
471.86	13944.91
472.04	13760.01
472.22	14288.97
472.40	13792.78
472.58	14085.34
472.77	14204.71
472.95	14473.87
473.13	14686.86
473.31	14310.04
473.49	14307.69
473.67	14403.66
473.85	14487.92
474.03	14881.13
474.21	14991.13
474.39	14965.39
474.57	14963.04
474.75	15110.50
474.93	15159.65
475.12	15007.52
475.30	15213.48
475.48	15138.58
475.66	15644.14
475.84	15356.25
476.02	15384.34
476.20	15810.32
476.38	15651.16
476.56	16318.22
476.74	15953.09
476.92	15714.36
477.10	15908.62
477.28	16273.74
477.46	16329.92
477.64	16421.20
477.82	16844.84
478.00	17011.01
478.18	17092.93
478.36	17151.45
478.54	17614.87
478.72	17523.59
478.90	17706.15
479.08	17748.28
479.26	17708.49
479.44	17832.54
479.62	18160.22
479.80	18012.76
479.98	18274.90
480.16	18771.10
480.34	18450.44
480.52	18757.05
480.70	18946.64
480.88	18588.53
481.06	18668.11
481.24	19154.94
481.41	19438.15
481.59	19494.32
481.77	19730.72
481.95	19861.79
482.13	19714.33
482.31	20086.48
482.49	20442.24
482.67	20554.58
482.85	20861.19
483.03	20961.84
483.21	20996.95
483.39	21172.49
483.57	21254.40
483.74	21298.88
483.92	21729.53
484.10	21432.29
484.28	22040.82
484.46	22405.95
484.64	22752.35
484.82	22162.53
485.00	22738.30
485.18	22920.87
485.35	23447.49
485.53	23234.50
485.71	23218.11
485.89	23573.88
486.07	23435.78
486.25	23880.49
486.43	23800.91
486.61	23910.91
486.78	24184.76
486.96	24559.24
487.14	25053.09
487.32	25088.20
487.50	24954.79
487.68	25308.21
487.85	25553.97
488.03	25757.60
488.21	26609.55
488.39	26115.70
488.57	26546.36
488.75	26639.98
488.92	26792.11
489.10	26972.33
489.28	26855.31
489.46	27489.59
489.64	27410.01
489.81	27969.40
489.99	27915.57
490.17	28180.05
490.35	28863.49
490.53	28769.86
490.70	28957.11
490.88	28835.40
491.06	29303.51
491.24	29032.00
491.41	29069.45
491.59	29558.63
491.77	29525.86
491.95	30352.07
492.13	30188.23
492.30	30419.94
492.48	30429.30
492.66	30396.54
492.84	30469.09
493.01	30986.35
493.19	30768.68
493.37	31592.55
493.54	31138.49
493.72	31852.35
493.90	32238.54
494.08	32070.02
494.25	32341.52
494.43	32755.80
494.61	32643.45
494.79	33109.22
494.96	32987.51
495.14	33130.28
495.32	33362.00
495.49	33464.98
495.67	33727.12
495.85	34000.96
496.02	34071.18
496.20	33823.08
496.38	34375.45
496.55	34394.17
496.73	35262.51
496.91	35433.37
497.09	34967.60
497.26	35419.33
497.44	35526.99
497.62	35693.17
497.79	36278.30
497.97	35522.31
498.14	36605.98
498.32	36418.74
498.50	36694.92
498.67	36720.66
498.85	36587.25
499.03	37207.50
499.20	37038.98
499.38	37198.13
499.56	37364.31
499.73	37628.79
499.91	37902.64
500.08	38047.75
500.26	37778.59
500.44	38153.07
500.61	38639.90
500.79	37961.15
500.97	38689.06
501.14	38820.13
501.32	38899.70
501.49	38873.96
501.67	38799.06
501.84	39707.19
502.02	39435.69
502.20	39433.35
502.37	39941.24
502.55	40006.78
502.72	39807.83
502.90	39718.89
503.07	39735.27
503.25	40187.00
503.43	40390.62
503.60	40697.24
503.78	41008.53
503.95	40697.24
504.13	40772.13
504.30	41198.11
504.48	41095.13
504.65	41450.89
504.83	41361.95
505.01	42029.00
505.18	42005.59
505.36	41970.49
505.53	41656.85
505.71	41911.97
505.88	42485.40
506.06	41834.74
506.23	42466.68
506.41	42504.13
506.58	42646.90
506.76	42974.58
506.93	43423.96
507.11	42824.78
507.28	43058.84
507.46	43316.29
507.63	43491.83
507.81	43908.45
507.98	43335.02
508.16	43859.30
508.33	43693.12
508.50	43739.93
508.68	44250.17
508.85	44392.94
509.03	44456.14
509.20	44598.91
509.38	44945.31
509.55	44847.00
509.73	44765.09
509.90	45155.96
510.08	44952.33
510.25	45041.27
510.42	45336.18
510.60	45518.74
510.77	45619.38
510.95	45893.22
511.12	45155.96
511.30	45432.14
511.47	46337.93
511.64	46153.02
511.82	46902.00
511.99	46061.74
512.17	46857.52
512.34	46012.59
512.51	46529.85
512.69	47044.77
512.86	46738.16
513.04	47456.70
513.21	47077.54
513.38	46927.74
513.56	47482.45
513.73	47309.25
513.90	47629.90
514.08	47402.87
514.25	47704.80
514.43	48081.63
514.60	47746.93
514.77	48032.47
514.95	48463.13
515.12	48121.41
515.29	48116.73
515.47	48411.64
515.64	48493.56
515.81	48406.96
515.99	48839.96
516.16	49003.80
516.33	48797.83
516.51	49378.28
516.68	49010.82
516.85	49017.84
517.03	49130.19
517.20	49462.54
517.37	49308.07
517.54	49359.56
517.72	49347.86
517.89	49715.32
518.06	49720.00
518.24	49563.18
518.41	49689.57
518.58	49724.68
518.75	49572.55
518.93	49947.03
519.10	50040.65
519.27	50251.30
519.45	50396.42
519.62	50286.41
519.79	50464.29
519.96	50621.11
520.14	50487.70
520.31	50330.88
520.48	50770.90
520.65	50375.35
520.83	51016.66
521.00	51166.45
521.17	51129.00
521.34	51239.01
521.52	51105.60
521.69	51444.98
521.86	51466.04
522.03	51753.93
522.20	51870.95
522.38	51491.79
522.55	51718.82
522.72	51728.18
522.89	51384.12
523.07	51962.23
523.24	51964.57
523.41	52198.63
523.58	52191.61
523.75	52430.34
523.92	51943.51
524.10	52219.69
524.27	52252.46
524.44	52451.41
524.61	52626.95
524.78	52853.98
524.96	52502.90
525.13	52629.29
525.30	52896.11
525.47	52914.83
525.64	53134.84
525.81	52875.04
525.98	52870.36
526.16	53027.18
526.33	52985.05
526.50	53607.63
526.67	53059.94
526.84	53394.64
527.01	53088.03
527.18	53315.06
527.36	53352.51
527.53	53347.83
527.70	53729.34
527.87	53616.99
528.04	53474.22
528.21	53499.97
528.38	53670.82
528.55	53998.50
528.72	53769.13
528.89	53792.53
529.07	53855.73
529.24	53727.00
529.41	54176.38
529.58	53989.14
529.75	53937.65
529.92	54103.82
530.09	54204.47
530.26	54293.41
530.43	54412.77
530.60	54396.39
530.77	54312.13
530.94	54403.41
531.11	54452.56
531.28	54679.60
531.46	54646.83
531.63	54747.47
531.80	54522.78
531.97	54731.09
532.14	55009.61
532.31	54705.34
532.48	54883.22
532.65	54899.61
532.82	54768.54
532.99	54990.89
533.16	54923.01
533.33	55082.17
533.50	55196.85
533.67	55082.17
533.84	54976.84
534.01	55157.06
534.18	55594.74
534.35	55339.63
534.52	55196.85
534.69	55716.45
534.86	55707.09
535.03	55468.36
535.20	55529.21
535.37	55693.05
535.54	55796.03
535.71	55613.47
535.88	55683.69
536.05	55690.71
536.22	55723.47
536.38	55828.80
536.55	55810.07
536.72	55910.72
536.89	56039.45
537.06	55985.61
537.23	56053.49
537.40	55870.93
537.57	56240.73
537.74	56247.75
537.91	56243.07
538.08	56179.88
538.25	55959.87
538.42	56278.18
538.59	56299.25
538.75	56123.71
538.92	56259.46
539.09	56245.41
539.26	56498.19
539.43	56399.89
539.60	56491.17
539.77	56282.86
539.94	56797.78
540.11	56427.98
540.28	56589.47
540.44	56807.14
540.61	56938.21
540.78	56671.39
540.95	56891.40
541.12	56741.61
541.29	56647.99
541.46	57071.62
541.62	56921.83
541.79	56926.51
541.96	56598.83
542.13	56769.69
542.30	56952.26
542.47	56868.00
542.63	57219.08
542.80	57174.61
542.97	57464.83
543.14	57481.22
543.31	57420.36
543.48	57485.90
543.64	57649.74
543.81	57846.34
543.98	57815.91
544.15	57492.92
544.32	57855.70
544.48	57759.74
544.65	57656.76
544.82	57724.63
544.99	57434.41
545.16	57841.66
545.32	57829.96
545.49	57937.62
545.66	57972.73
545.83	57942.30
546.00	57925.92
546.16	57886.13
546.33	58031.24
546.50	57762.08
546.67	58028.90
546.83	57776.12
547.00	58124.86
547.17	58082.73
547.34	58188.06
547.50	58117.84
547.67	58375.30
547.84	58431.47
548.00	58188.06
548.17	58555.52
548.34	58515.73
548.51	58581.27
548.67	58555.52
548.84	58525.10
549.01	58410.41
549.18	58487.65
549.34	58508.71
549.51	58571.91
549.68	58754.47
549.84	58635.10
550.01	58787.24
550.18	58489.99
550.34	58735.74
550.51	58721.70
550.68	58742.77
550.84	58742.77
551.01	59016.61
551.18	58653.82
551.34	58876.18
551.51	58918.31
551.68	58911.28
551.84	59077.46
552.01	58894.90
552.18	58944.05
552.34	58745.11
552.51	59105.55
552.68	58901.92
552.84	58981.50
553.01	59458.97
553.18	59016.61
553.34	59131.29
553.51	59079.80
553.67	59126.61
553.84	59157.04
554.01	59355.99
554.17	59269.39
554.34	59339.60
554.51	59250.66
554.67	59552.59
554.84	59269.39
555.00	59227.26
555.17	59157.04
555.33	59222.58
555.50	59222.58
555.67	59327.90
555.83	59346.62
556.00	59430.88
556.16	59760.90
556.33	59597.06
556.50	59496.42
556.66	59739.83
556.83	59510.46
556.99	59678.98
557.16	59807.71
557.32	59763.24
557.49	59948.14
557.65	59620.47
557.82	59517.48
557.98	59674.30
558.15	59615.79
558.32	59882.61
558.48	59611.10
558.65	59791.33
558.81	59817.07
558.98	59786.64
559.14	59896.65
559.31	60039.42
559.47	60097.94
559.64	59831.11
559.80	60013.68
559.97	60065.17
560.13	59927.08
560.30	59966.87
560.46	59948.14
560.63	60058.15
560.79	60111.98
560.96	60212.62
561.12	59997.29
561.29	60046.44
561.45	59973.89
561.61	60044.10
561.78	60151.77
561.94	60097.94
562.11	60081.55
562.27	60275.82
562.44	60219.64
562.60	60301.56
562.77	60306.24
562.93	60069.85
563.10	60376.46
563.26	60030.06
563.42	60605.83
563.59	60317.95
563.75	60406.89
563.92	60313.26
564.08	60348.37
564.24	60594.13
564.41	60523.91
564.57	60413.91
564.74	60287.52
564.90	60367.10
565.07	60331.99
565.23	60294.54
565.39	60339.01
565.56	60601.15
565.72	60367.10
565.88	60521.57
566.05	60348.37
566.21	60327.31
566.38	60526.25
566.54	60399.86
566.70	60495.83
566.87	60781.37
567.03	60472.42
567.19	60594.13
567.36	60626.90
567.52	60678.39
567.68	60788.39
567.85	60463.06
568.01	60629.24
568.17	60554.34
568.34	60664.35
568.50	60589.45
568.66	60608.17
568.83	60612.85
568.99	60619.88
569.15	60652.64
569.32	60692.43
569.48	60636.26
569.64	60839.89
569.81	60776.69
569.97	60460.72
570.13	60650.30
570.30	60713.50
570.46	60900.74
570.62	60781.37
570.78	61031.81
570.95	60772.01
571.11	60992.02
571.27	60851.59
571.43	60891.38
571.60	61078.62
571.76	60945.21
571.92	60732.22
572.09	60809.46
572.25	61066.92
572.41	60849.25
572.57	60870.31
572.74	61106.71
572.90	61031.81
573.06	60952.23
573.22	60907.76
573.38	60809.46
573.55	60788.39
573.71	60987.34
573.87	61008.40
574.03	60933.51
574.20	60963.93
574.36	60828.18
574.52	60795.42
574.68	60980.32
574.84	61022.45
575.01	60949.89
575.17	61132.45
575.33	61006.06
575.49	60839.89
575.65	61102.03
575.82	60977.98
575.98	61066.92
576.14	61251.82
576.30	61092.66
576.46	61029.47
576.62	61197.99
576.79	61120.75
576.95	60884.36
577.11	60992.02
577.27	61109.05
577.43	60914.78
577.59	60877.33
577.75	61132.45
577.92	61020.11
578.08	61064.58
578.24	60907.76
578.40	61385.23
578.56	61265.86
578.72	61118.41
578.88	61233.10
579.04	61375.87
579.21	61226.07
579.37	61151.18
579.53	61373.53
579.69	60970.96
579.85	61158.20
580.01	61167.56
580.17	60921.80
580.33	61205.01
580.49	61174.58
580.65	61139.47
580.82	61095.00
580.98	60994.36
581.14	61090.32
581.30	61303.31
581.46	61265.86
581.62	61172.24
581.78	61233.10
581.94	61338.42
582.10	61083.30
582.26	61240.12
582.42	61195.65
582.58	61104.37
582.74	61144.16
582.90	61127.77
583.06	61212.03
583.22	61109.05
583.38	61399.27
583.54	61197.99
583.70	61319.70
583.86	61474.17
584.02	61209.69
584.18	61282.25
584.34	61303.31
584.50	61432.04
584.66	61219.05
584.82	60947.55
584.98	61528.00
585.14	61310.33
585.30	60985.00
585.46	61188.63
585.62	61216.71
585.78	61460.13
585.94	61244.80
586.10	61226.07
586.26	61333.74
586.42	61284.59
586.58	61343.10
586.74	61153.52
586.90	61322.04
587.06	61340.76
587.22	61361.82
587.38	61336.08
587.54	61441.40
587.70	61535.02
587.86	61249.48
588.02	61502.26
588.18	61425.02
588.34	61387.57
