SpectraSuite Data File
++++++++++++++++++++++++++++++++++++
Date: Fri Oct 25 11:26:02 EDT 2013
User: price-jones
Dark Spectrum Present: No
Reference Spectrum Present: No
Number of Sampled Component Spectra: 1
Spectrometers: USB2+H05261
Integration Time (usec): 100000 (USB2+H05261)
Spectra Averaged: 1 (USB2+H05261)
Boxcar Smoothing: 0 (USB2+H05261)
Correct for Electrical Dark: No (USB2+H05261)
Strobe/Lamp Enabled: No (USB2+H05261)
Correct for Detector Non-linearity: No (USB2+H05261)
Correct for Stray Light: No (USB2+H05261)
Number of Pixels in Processed Spectrum: 2048
>>>>>Begin Processed Spectral Data<<<<<
365.73	264.48
365.92	264.48
366.12	264.48
366.32	168.52
366.52	154.48
366.72	191.92
366.91	238.73
367.11	154.48
367.31	187.24
367.51	117.03
367.70	88.94
367.90	131.07
368.10	159.16
368.30	114.69
368.49	166.18
368.69	194.26
368.89	168.52
369.09	184.90
369.28	212.99
369.48	173.20
369.68	236.39
369.87	311.29
370.07	205.97
370.27	269.16
370.47	353.42
370.66	592.16
370.86	622.58
371.06	606.20
371.25	662.37
371.45	643.65
371.65	671.73
371.84	739.61
372.04	650.67
372.24	676.41
372.44	730.25
372.63	739.61
372.83	730.25
373.03	739.61
373.22	734.93
373.42	816.85
373.62	725.57
373.81	856.64
374.01	842.59
374.21	807.48
374.40	849.61
374.60	854.30
374.79	851.96
374.99	744.29
375.19	858.98
375.38	884.72
375.58	723.23
375.78	861.32
375.97	898.77
376.17	940.90
376.37	940.90
376.56	884.72
376.76	858.98
376.95	976.00
377.15	919.83
377.35	849.61
377.54	840.25
377.74	835.57
377.93	964.30
378.13	976.00
378.33	868.34
378.52	976.00
378.72	863.66
378.91	1029.84
379.11	915.15
379.31	978.34
379.50	1006.43
379.70	999.41
379.89	968.98
380.09	952.60
380.28	924.51
380.48	1055.58
380.68	908.13
380.87	1114.10
381.07	1015.79
381.26	1020.47
381.46	987.71
381.65	940.90
381.85	999.41
382.04	1025.15
382.24	1004.09
382.43	1041.54
382.63	1008.77
382.83	1034.52
383.02	1116.44
383.22	1128.14
383.41	1076.65
383.61	1057.92
383.80	1100.05
384.00	1142.18
384.19	1132.82
384.39	1062.60
384.58	1111.75
384.78	1135.16
384.97	1165.59
385.17	1207.72
385.36	1210.06
385.56	1196.01
385.75	1158.57
385.95	1137.50
386.14	1217.08
386.34	1203.04
386.53	1231.12
386.72	1210.06
386.92	1282.61
387.11	1280.27
387.31	1252.19
387.50	1196.01
387.70	1231.12
387.89	1196.01
388.09	1289.64
388.28	1301.34
388.48	1247.51
388.67	1359.85
388.86	1310.70
389.06	1259.21
389.25	1334.11
389.45	1448.79
389.64	1371.55
389.84	1376.24
390.03	1320.06
390.22	1383.26
390.42	1404.32
390.61	1446.45
390.81	1371.55
391.00	1380.92
391.19	1416.02
391.39	1399.64
391.58	1418.36
391.78	1423.05
391.97	1430.07
392.16	1383.26
392.36	1507.30
392.55	1577.52
392.75	1516.67
392.94	1486.24
393.13	1551.78
393.33	1561.14
393.52	1584.54
393.71	1540.07
393.91	1586.88
394.10	1631.35
394.29	1614.97
394.49	1600.93
394.68	1753.06
394.88	1689.87
395.07	1652.42
395.26	1659.44
395.46	1579.86
395.65	1654.76
395.84	1788.17
396.04	1743.70
396.23	1783.49
396.42	1806.89
396.62	1708.59
396.81	1722.63
397.00	1715.61
397.19	1842.00
397.39	1827.96
397.58	1769.44
397.77	1774.13
397.97	1797.53
398.16	1860.73
398.35	1881.79
398.55	1781.15
398.74	1912.22
398.93	1928.60
399.12	2019.88
399.32	1881.79
399.51	1982.43
399.70	1853.70
399.90	1872.43
400.09	2094.78
400.28	2043.29
400.47	2125.21
400.67	2043.29
400.86	2043.29
401.05	2108.82
401.24	2143.93
401.44	2167.34
401.63	2085.42
401.82	2099.46
402.01	2057.33
402.21	2143.93
402.40	2125.21
402.59	2216.49
402.78	2181.38
402.97	2263.30
403.17	2275.00
403.36	2232.87
403.55	2263.30
403.74	2347.56
403.93	2286.70
404.13	2434.16
404.32	2356.92
404.51	2431.82
404.70	2485.65
404.89	2307.77
405.09	2448.20
405.28	2413.09
405.47	2483.31
405.66	2504.37
405.85	2527.78
406.05	2485.65
406.24	2455.22
406.43	2401.39
406.62	2612.04
406.81	2700.98
407.00	2670.55
407.20	2597.99
407.39	2530.12
407.58	2757.15
407.77	2782.90
407.96	2740.77
408.15	2689.28
408.34	2754.81
408.54	2745.45
408.73	2818.00
408.92	2832.05
409.11	2883.54
409.30	2832.05
409.49	2913.97
409.68	2925.67
409.87	2944.39
410.07	2836.73
410.26	3021.63
410.45	2899.92
410.64	3061.42
410.83	2906.95
411.02	2972.48
411.21	3101.21
411.40	3215.90
411.59	3288.45
411.78	3227.60
411.98	3239.30
412.17	3260.37
412.36	3311.86
412.55	3417.18
412.74	3459.31
412.93	3452.29
413.12	3335.26
413.31	3522.51
413.50	3391.44
413.69	3428.88
413.88	3545.91
414.07	3517.83
414.26	3707.41
414.45	3716.77
414.64	3646.55
414.83	3801.03
415.02	3674.64
415.22	3679.32
415.41	3854.86
415.60	3887.63
415.79	3796.35
415.98	3997.64
416.17	3985.93
416.36	3992.95
416.55	4030.40
416.74	4117.00
416.93	4189.56
417.12	4107.64
417.31	4039.76
417.50	4133.39
417.69	4149.77
417.88	4255.09
418.07	4318.29
418.26	4337.01
418.45	4334.67
418.64	4430.63
418.83	4367.44
419.02	4393.19
419.21	4620.22
419.39	4526.60
419.58	4545.32
419.77	4327.65
419.96	4521.92
420.15	4437.66
420.34	4711.50
420.53	4713.84
420.72	4620.22
420.91	4608.51
421.10	4770.01
421.29	4781.71
421.48	4664.69
421.67	4760.65
421.86	4828.53
422.05	4833.21
422.24	4716.18
422.43	4802.78
422.61	4758.31
422.80	4966.62
422.99	4835.55
423.18	4903.42
423.37	4978.32
423.56	4926.83
423.75	4968.96
423.94	4823.84
424.13	4554.68
424.32	4620.22
424.50	4940.87
424.69	5095.35
424.88	5102.37
425.07	4975.98
425.26	4952.57
425.45	5043.85
425.64	4812.14
425.83	4877.68
426.01	4980.66
426.20	4971.30
426.39	5057.90
426.58	5081.30
426.77	5060.24
426.96	4978.32
427.15	5114.07
427.33	5254.50
427.52	5128.11
427.71	5291.95
427.90	5287.27
428.09	5254.50
428.28	5444.09
428.46	5451.11
428.65	5350.46
428.84	5408.98
429.03	5397.28
429.22	5305.99
429.40	5373.87
429.59	5476.85
429.78	5268.55
429.97	5235.78
430.16	5537.71
430.34	5720.27
430.53	5696.86
430.72	5841.98
430.91	5598.56
431.10	5614.95
431.28	5687.50
431.47	5919.21
431.66	5947.30
431.85	5858.36
432.03	5863.04
432.22	5762.40
432.41	5991.77
432.60	5923.90
432.79	6005.81
432.97	5846.66
433.16	6061.99
433.35	6061.99
433.54	6136.88
433.72	6174.33
433.91	6085.39
434.10	6071.35
434.28	6076.03
434.47	6132.20
434.66	6345.19
434.85	6384.98
435.03	6141.57
435.22	6291.36
435.41	6359.24
435.59	6106.46
435.78	6270.30
435.97	6457.54
436.16	6588.61
436.34	6361.58
436.53	6532.44
436.72	6569.88
436.90	6434.13
437.09	6546.48
437.28	6509.03
437.46	6672.87
437.65	6544.14
437.84	6771.17
438.02	6841.39
438.21	6974.80
438.40	6815.64
438.58	6881.18
438.77	7199.49
438.96	6792.23
439.14	7082.46
439.33	7290.77
439.52	7190.13
439.70	7194.81
439.89	7243.96
440.08	7431.20
440.26	7440.56
440.45	7325.88
440.63	7323.54
440.82	7695.68
441.01	7445.24
441.19	7538.87
441.38	7768.24
441.57	7679.30
441.75	7887.61
441.94	7906.33
442.12	7845.48
442.31	7925.05
442.50	8006.97
442.68	7908.67
442.87	8056.12
443.05	8056.12
443.24	8234.00
443.43	8004.63
443.61	8215.28
443.80	8507.85
443.98	7896.97
444.17	7831.43
444.35	8264.43
444.54	8400.18
444.73	8290.18
444.91	8276.13
445.10	8477.42
445.28	8423.59
445.47	8037.40
445.65	8219.96
445.84	8234.00
446.02	8484.44
446.21	8451.67
446.39	8334.65
446.58	8615.51
446.77	8463.38
446.95	8177.83
447.14	8435.29
447.32	8468.06
447.51	8402.52
447.69	8482.10
447.88	8580.40
448.06	8540.61
448.25	8720.84
448.43	8557.00
448.62	8617.85
448.80	8641.26
448.99	8608.49
449.17	8629.56
449.36	8685.73
449.54	8851.91
449.73	8999.36
449.91	9015.74
450.10	8990.00
450.28	9118.73
450.46	9188.94
450.65	8856.59
450.83	9034.47
451.02	8985.32
451.20	9041.49
451.39	8940.85
451.57	9242.78
451.76	8954.89
451.94	9142.13
452.13	9294.27
452.31	9291.93
452.49	9242.78
452.68	9483.85
452.86	9275.54
453.05	9334.06
453.23	9563.43
453.42	9221.71
453.60	9303.63
453.78	9481.51
453.97	9308.31
454.15	9217.03
454.34	9427.68
454.52	9823.23
454.70	9657.05
454.89	9614.92
455.07	9905.15
455.26	9654.71
455.44	9982.38
455.62	9879.40
455.81	10050.26
455.99	9919.19
456.17	10223.46
456.36	9989.41
456.54	10061.96
456.73	10293.68
456.91	10284.31
457.09	10462.19
457.28	10553.48
457.46	10296.02
457.64	10590.92
457.83	10576.88
458.01	10511.35
458.19	10724.33
458.38	10207.08
458.56	10633.05
458.74	10792.21
458.93	10480.92
459.11	10714.97
459.29	10691.57
459.48	10619.01
459.66	10682.20
459.84	10956.05
460.03	10951.37
460.21	11037.97
460.39	10939.66
460.57	10855.40
460.76	11112.86
460.94	11248.61
461.12	11103.50
461.31	11049.67
461.49	11154.99
461.67	11190.10
461.85	11372.66
462.04	11094.14
462.22	11648.85
462.40	11356.28
462.59	11426.50
462.77	11426.50
462.95	11445.22
463.13	11309.47
463.32	11688.64
463.50	11569.27
463.68	11690.98
463.86	11744.81
464.05	11604.38
464.23	11644.17
464.41	11974.18
464.59	11492.03
464.78	11822.05
464.96	12060.78
465.14	11768.21
465.32	11871.20
465.50	12018.65
465.69	12102.91
465.87	11908.65
466.05	12114.61
466.23	12037.38
466.41	12067.80
466.60	12329.94
466.78	12231.64
466.96	12170.79
467.14	12456.33
467.32	12049.08
467.51	12463.35
467.69	12163.76
467.87	12287.81
468.05	12713.79
468.23	12484.42
468.41	12451.65
468.60	12554.63
468.78	12596.76
468.96	12638.89
469.14	12688.04
469.32	12566.34
469.50	12692.73
469.69	12919.76
469.87	13097.64
470.05	12879.97
470.23	13139.77
470.41	13160.83
470.59	13312.97
470.77	13352.76
470.95	13331.69
471.14	13673.41
471.32	13081.25
471.50	13596.17
471.68	13692.13
471.86	13495.53
472.04	13710.86
472.22	13923.85
472.40	13514.25
472.58	13907.46
472.77	13872.36
472.95	14003.43
473.13	14501.96
473.31	14075.98
473.49	14092.37
473.67	14104.07
473.85	14366.21
474.03	14604.94
474.21	14356.85
474.39	14764.10
474.57	14846.02
474.75	14778.14
474.93	15082.41
475.12	14878.79
475.30	14970.07
475.48	14911.55
475.66	15211.14
475.84	15044.96
476.02	15370.30
476.20	15314.13
476.38	15468.60
476.56	15751.81
476.74	15726.06
476.92	15871.17
477.10	15768.19
477.28	16137.99
477.46	15983.52
477.64	15953.09
477.82	16493.76
478.00	17032.08
478.18	16671.64
478.36	16629.51
478.54	16884.62
478.72	17137.40
478.90	17350.39
479.08	17813.82
479.26	17132.72
479.44	17727.22
479.62	17535.29
479.80	18071.28
479.98	17774.03
480.16	18602.58
480.34	18352.14
480.52	18586.19
480.70	18441.08
480.88	18452.78
481.06	18567.47
481.24	18831.95
481.41	18941.96
481.59	19318.78
481.77	19300.06
481.95	19307.08
482.13	19669.86
482.31	19679.22
482.49	20042.01
482.67	19943.70
482.85	20357.98
483.03	20411.81
483.21	20767.57
483.39	20922.05
483.57	20477.35
483.74	20879.92
483.92	20926.73
484.10	20978.22
484.28	21549.31
484.46	21860.60
484.64	22366.16
484.82	22057.21
485.00	22197.64
485.18	22726.60
485.35	22864.69
485.53	22951.29
485.71	23054.28
485.89	23616.01
486.07	23065.98
486.25	23194.71
486.43	23534.09
486.61	23550.47
486.78	24049.00
486.96	23967.09
487.14	24151.99
487.32	24257.31
487.50	25111.61
487.68	25088.20
487.85	25083.52
488.03	25549.29
488.21	25848.88
488.39	25472.05
488.57	26033.78
488.75	26059.52
488.92	26216.34
489.10	26738.28
489.28	26588.49
489.46	27182.98
489.64	26909.14
489.81	27012.12
489.99	27548.11
490.17	28013.87
490.35	28273.67
490.53	27812.59
490.70	28512.41
490.88	27969.40
491.06	28966.47
491.24	28765.18
491.41	28849.44
491.59	29142.01
491.77	29270.74
491.95	29593.73
492.13	29626.50
492.30	29593.73
492.48	29961.20
492.66	30218.66
492.84	30108.65
493.01	30403.56
493.19	30361.43
493.37	31295.30
493.54	31222.75
493.72	31278.92
493.90	31119.76
494.08	31702.56
494.25	31880.44
494.43	31721.28
494.61	32404.72
494.79	32196.41
494.96	32472.59
495.14	32730.05
495.32	33064.75
495.49	33303.48
495.67	33046.02
495.85	33120.92
496.02	33584.35
496.20	33816.06
496.38	34057.14
496.55	33867.55
496.73	34656.31
496.91	34162.46
497.09	34616.52
497.26	34937.18
497.44	34747.59
497.62	35316.34
497.79	35704.87
497.97	35728.28
498.14	35728.28
498.32	35936.59
498.50	36048.93
498.67	36355.54
498.85	36161.28
499.03	36715.98
499.20	36659.81
499.38	36809.61
499.56	36879.82
499.73	37001.53
499.91	37219.20
500.08	37223.88
500.26	37378.36
500.44	37315.16
500.61	37490.70
500.79	37298.78
500.97	38029.02
501.14	38600.12
501.32	38499.47
501.49	38382.45
501.67	38476.07
501.84	39105.67
502.02	38923.11
502.20	39196.95
502.37	39210.99
502.55	39098.65
502.72	39452.07
502.90	39538.67
503.07	39672.08
503.25	39866.34
503.43	39608.89
503.60	39775.06
503.78	40231.47
503.95	39924.86
504.13	40102.74
504.30	40584.89
504.48	40282.96
504.65	40650.42
504.83	40840.01
505.01	41198.11
505.18	41170.02
505.36	41544.51
505.53	41280.03
505.71	41387.69
505.88	41741.11
506.06	41312.80
506.23	41670.90
506.41	41937.72
506.58	41738.77
506.76	41659.20
506.93	42513.49
507.11	42419.87
507.28	42330.93
507.46	42682.01
507.63	42625.84
507.81	43152.46
507.98	42742.86
508.16	43112.67
508.33	43267.14
508.50	43178.20
508.68	43159.48
508.85	43920.15
509.03	43681.42
509.20	43335.02
509.38	44392.94
509.55	43859.30
509.73	43973.98
509.90	44201.02
510.08	44769.77
510.25	44626.99
510.42	44524.01
510.60	44725.30
510.77	44882.11
510.95	45436.82
511.12	45055.31
511.30	44978.07
511.47	44985.10
511.64	45413.41
511.82	45502.35
511.99	45146.59
512.17	45507.04
512.34	45464.91
512.51	46124.94
512.69	46199.83
512.86	45895.56
513.04	46536.87
513.21	46389.42
513.38	46340.27
513.56	46579.00
513.73	46375.37
513.90	46543.89
514.08	46827.10
514.25	47217.97
514.43	47033.07
514.60	47608.84
514.77	47002.64
514.95	47423.93
515.12	47175.84
515.29	47150.09
515.47	48058.22
515.64	47826.51
515.81	47611.18
515.99	48285.25
516.16	48285.25
516.33	48189.29
516.51	48545.05
516.68	48694.85
516.85	48467.81
517.03	48624.63
517.20	48842.30
517.37	48753.36
517.54	48781.45
517.72	48900.81
517.89	49258.91
518.06	49160.61
518.24	48804.85
518.41	48985.07
518.58	49116.14
518.75	49106.78
518.93	49490.63
519.10	49230.83
519.27	49476.58
519.45	49448.50
519.62	49729.36
519.79	50190.45
519.96	49918.95
520.14	50122.57
520.31	49890.86
520.48	50227.90
520.65	50279.39
520.83	50138.96
521.00	50600.04
521.17	50630.47
521.34	50696.00
521.52	50794.31
521.69	50742.81
521.86	51000.27
522.03	50946.44
522.20	51131.34
522.38	51386.46
522.55	50981.55
522.72	50852.82
522.89	51224.96
523.07	51372.42
523.24	51320.93
523.41	51833.50
523.58	51313.90
523.75	51564.34
523.92	51632.22
524.10	51437.95
524.27	51789.03
524.44	52086.28
524.61	51634.56
524.78	52079.26
524.96	52055.85
525.13	52121.39
525.30	52523.96
525.47	52495.88
525.64	52282.89
525.81	52519.28
525.98	52750.99
526.16	52743.97
526.33	52388.21
526.50	52781.42
526.67	52619.92
526.84	52935.90
527.01	52907.81
527.18	52718.23
527.36	53059.94
527.53	52978.03
527.70	53017.82
527.87	53261.23
528.04	53256.55
528.21	53301.02
528.38	53057.60
528.55	53401.66
528.72	53579.54
528.89	53371.24
529.07	53329.11
529.24	53357.19
529.41	53675.51
529.58	53675.51
529.75	53654.44
529.92	53755.08
530.09	53616.99
530.26	53832.32
530.43	53869.77
530.60	53525.71
530.77	53876.79
530.94	53778.49
531.11	53794.87
531.28	53738.70
531.46	53902.54
531.63	54031.27
531.80	54064.03
531.97	54298.09
532.14	54293.41
532.31	54656.19
532.48	54415.11
532.65	54511.08
532.82	54466.61
532.99	54518.10
533.16	54466.61
533.33	54637.47
533.50	54798.96
533.67	54805.98
533.84	54553.21
534.01	54745.13
534.18	54578.95
534.35	55082.17
534.52	55110.25
534.69	55292.82
534.86	54955.78
535.03	54798.96
535.20	54937.05
535.37	55173.45
535.54	55274.09
535.71	55098.55
535.88	55435.59
536.05	55159.41
536.22	55398.14
536.38	55468.36
536.55	55657.94
536.72	55290.48
536.89	55482.40
537.06	55522.19
537.23	55468.36
537.40	55398.14
537.57	55786.67
537.74	55805.39
537.91	55725.81
538.08	55702.41
538.25	55821.78
538.42	55838.16
538.59	56086.26
538.75	55842.84
538.92	55976.25
539.09	56182.22
539.26	56067.53
539.43	56151.79
539.60	56128.39
539.77	56074.55
539.94	56568.41
540.11	56444.36
540.28	56214.99
540.44	56233.71
540.61	56495.85
540.78	56163.50
540.95	56392.87
541.12	56327.33
541.29	56521.60
541.46	56573.09
541.62	56563.73
541.79	56530.96
541.96	56060.51
542.13	56446.70
542.30	56741.61
542.47	56687.78
542.63	56858.63
542.80	56905.44
542.97	57144.18
543.14	57169.93
543.31	57088.01
543.48	57226.10
543.64	57247.16
543.81	57558.45
543.98	57071.62
544.15	57221.42
544.32	57324.40
544.48	57221.42
544.65	57141.84
544.82	57272.91
544.99	57293.97
545.16	57244.82
545.32	57254.18
545.49	57539.73
545.66	57827.62
545.83	57485.90
546.00	57506.96
546.16	57418.02
546.33	57392.28
546.50	57303.34
546.67	57724.63
546.83	57605.26
547.00	57696.55
547.17	57509.30
547.34	57668.46
547.50	57769.10
547.67	57780.81
547.84	58155.29
548.00	57818.25
548.17	58267.64
548.34	57984.43
548.51	58066.35
548.67	58122.52
548.84	58145.93
549.01	57935.28
549.18	58054.65
549.34	58064.01
549.51	58211.46
549.68	58232.53
549.84	58075.71
550.01	58394.03
550.18	58169.33
550.34	58419.77
550.51	58457.22
550.68	58379.98
550.84	57832.30
551.01	58251.25
551.18	58419.77
551.34	58649.14
551.51	58478.28
551.68	58604.67
551.84	58539.14
552.01	58564.88
552.18	58588.29
552.34	58291.04
552.51	58667.87
552.68	58372.96
552.84	58553.18
553.01	58747.45
553.18	58625.74
553.34	58864.47
553.51	58674.89
553.67	58543.82
553.84	58822.34
554.01	59091.51
554.17	58820.00
554.34	58845.75
554.51	58885.54
554.67	59143.00
554.84	58733.40
555.00	58920.65
555.17	58981.50
555.33	58965.12
555.50	58731.06
555.67	58883.20
555.83	58972.14
556.00	59224.92
556.16	59283.43
556.33	59330.24
556.50	59224.92
556.66	59079.80
556.83	58922.99
556.99	59147.68
557.16	59290.45
557.32	59309.18
557.49	59330.24
557.65	59510.46
557.82	59348.96
557.98	59358.33
558.15	59531.53
558.32	59604.08
558.48	59236.62
558.65	59458.97
558.81	59344.28
558.98	59456.63
559.14	59487.06
559.31	59503.44
559.47	59571.32
559.64	59454.29
559.80	59580.68
559.97	59442.59
560.13	59367.69
560.30	59482.37
560.46	59671.96
560.63	59693.02
560.79	59664.94
560.96	59831.11
561.12	59611.10
561.29	59629.83
561.45	59606.42
561.61	59781.96
561.78	59597.06
561.94	59901.33
562.11	59585.36
562.27	59819.41
562.44	59927.08
562.60	59882.61
562.77	59966.87
562.93	59604.08
563.10	60001.97
563.26	59765.58
563.42	59852.18
563.59	59774.94
563.75	59812.39
563.92	59807.71
564.08	59800.69
564.24	59927.08
564.41	59875.58
564.57	60044.10
564.74	60006.65
564.90	59957.50
565.07	59948.14
565.23	60144.75
565.39	60142.41
565.56	60376.46
565.72	60062.83
565.88	60044.10
566.05	59927.08
566.21	59994.95
566.38	60179.85
566.54	60142.41
566.70	60142.41
566.87	60303.90
567.03	59880.27
567.19	60374.12
567.36	60266.45
567.52	60023.04
567.68	60334.33
567.85	60320.29
568.01	60434.97
568.17	60027.72
568.34	60392.84
568.50	60331.99
568.66	60226.66
568.83	60313.26
568.99	60456.04
569.15	60383.48
569.32	60123.68
569.48	60301.56
569.64	60533.28
569.81	60137.72
569.97	60306.24
570.13	60420.93
570.30	60245.39
570.46	60336.67
570.62	60357.74
570.78	60413.91
570.95	60313.26
571.11	60601.15
571.27	60331.99
571.43	60418.59
571.60	60570.72
571.76	60432.63
571.92	60519.23
572.09	60404.55
572.25	60341.35
572.41	60535.62
572.57	60453.70
572.74	60750.94
572.90	60542.64
573.06	60439.65
573.22	60535.62
573.38	60516.89
573.55	60491.15
573.71	60729.88
573.87	60877.33
574.03	60556.68
574.20	60755.63
574.36	60570.72
574.52	60825.84
574.68	60706.47
574.84	60753.29
575.01	60608.17
575.17	60669.03
575.33	60619.88
575.49	60509.87
575.65	60708.82
575.82	60573.06
575.98	60795.42
576.14	60715.84
576.30	60650.30
576.46	60631.58
576.62	60690.09
576.79	60563.70
576.95	60587.11
577.11	60769.67
577.27	60814.14
577.43	60753.29
577.59	60839.89
577.75	60783.71
577.92	60622.22
578.08	60814.14
578.24	60741.58
578.40	60811.80
578.56	61013.08
578.72	60722.86
578.88	60680.73
579.04	60884.36
579.21	60893.72
579.37	60835.20
579.53	60879.67
579.69	60626.90
579.85	60783.71
580.01	60701.79
580.17	60757.97
580.33	60692.43
580.49	61090.32
580.65	60692.43
580.82	60741.58
580.98	60790.73
581.14	60846.91
581.30	61038.83
581.46	60867.97
581.62	60816.48
581.78	60762.65
581.94	60654.98
582.10	60851.59
582.26	60818.82
582.42	60757.97
582.58	60959.25
582.74	60720.52
582.90	60853.93
583.06	60935.85
583.22	60699.45
583.38	60753.29
583.54	60772.01
583.70	60783.71
583.86	60882.02
584.02	60882.02
584.18	60949.89
584.34	60851.59
584.50	60851.59
584.66	60821.16
584.82	60706.47
584.98	60949.89
585.14	61031.81
585.30	60830.52
585.46	60795.42
585.62	60917.12
585.78	61137.13
585.94	60720.52
586.10	60837.54
586.26	60849.25
586.42	61050.53
586.58	60940.53
586.74	60966.27
586.90	60954.57
587.06	61052.87
587.22	60982.66
587.38	60966.27
587.54	61137.13
587.70	61214.37
587.86	60816.48
588.02	61015.43
588.18	60912.44
588.34	60982.66
588.49	61020.11
