SpectraSuite Data File
++++++++++++++++++++++++++++++++++++
Date: Fri Oct 25 11:25:21 EDT 2013
User: price-jones
Dark Spectrum Present: No
Reference Spectrum Present: No
Number of Sampled Component Spectra: 1
Spectrometers: USB2+H05261
Integration Time (usec): 100000 (USB2+H05261)
Spectra Averaged: 1 (USB2+H05261)
Boxcar Smoothing: 0 (USB2+H05261)
Correct for Electrical Dark: No (USB2+H05261)
Strobe/Lamp Enabled: No (USB2+H05261)
Correct for Detector Non-linearity: No (USB2+H05261)
Correct for Stray Light: No (USB2+H05261)
Number of Pixels in Processed Spectrum: 2048
>>>>>Begin Processed Spectral Data<<<<<
365.73	231.71
365.92	231.71
366.12	231.71
366.32	234.05
366.52	142.77
366.72	107.66
366.91	145.11
367.11	152.13
367.31	70.22
367.51	212.99
367.70	128.73
367.90	175.54
368.10	81.92
368.30	145.11
368.49	117.03
368.69	102.98
368.89	175.54
369.09	131.07
369.28	138.09
369.48	203.63
369.68	236.39
369.87	241.08
370.07	234.05
370.27	191.92
370.47	332.36
370.66	596.84
370.86	617.90
371.06	650.67
371.25	685.78
371.45	723.23
371.65	751.31
371.84	664.71
372.04	723.23
372.24	699.82
372.44	730.25
372.63	692.80
372.83	716.20
373.03	753.65
373.22	723.23
373.42	835.57
373.62	858.98
373.81	767.70
374.01	788.76
374.21	816.85
374.40	821.53
374.60	763.01
374.79	763.01
374.99	812.17
375.19	854.30
375.38	802.80
375.58	891.74
375.78	873.02
375.97	828.55
376.17	1001.75
376.37	828.55
376.56	889.40
376.76	767.70
376.95	901.11
377.15	945.58
377.35	873.02
377.54	908.13
377.74	908.13
377.93	908.13
378.13	945.58
378.33	833.23
378.52	901.11
378.72	1093.03
378.91	978.34
379.11	863.66
379.31	908.13
379.50	957.28
379.70	940.90
379.89	1018.13
380.09	978.34
380.28	1053.24
380.48	968.98
380.68	980.68
380.87	978.34
381.07	1088.35
381.26	992.39
381.46	1034.52
381.65	999.41
381.85	1053.24
382.04	1020.47
382.24	957.28
382.43	1093.03
382.63	1013.45
382.83	1029.84
383.02	1114.10
383.22	1156.22
383.41	1057.92
383.61	1125.80
383.80	1146.86
384.00	1233.46
384.19	1109.41
384.39	1160.91
384.58	1158.57
384.78	1193.67
384.97	1149.20
385.17	1186.65
385.36	1050.90
385.56	1191.33
385.75	1142.18
385.95	1231.12
386.14	1123.46
386.34	1198.35
386.53	1160.91
386.72	1170.27
386.92	1135.16
387.11	1193.67
387.31	1181.97
387.50	1308.36
387.70	1167.93
387.89	1329.42
388.09	1331.76
388.28	1254.53
388.48	1235.80
388.67	1320.06
388.86	1357.51
389.06	1256.87
389.25	1284.95
389.45	1350.49
389.64	1313.04
389.84	1273.25
390.03	1336.45
390.22	1336.45
390.42	1390.28
390.61	1359.85
390.81	1280.27
391.00	1397.30
391.19	1467.52
391.39	1397.30
391.58	1413.68
391.78	1364.53
391.97	1530.71
392.16	1458.15
392.36	1523.69
392.55	1500.28
392.75	1533.05
392.94	1619.65
393.13	1582.20
393.33	1493.26
393.52	1551.78
393.71	1544.75
393.91	1551.78
394.10	1549.43
394.29	1586.88
394.49	1600.93
394.68	1636.03
394.88	1685.19
395.07	1612.63
395.26	1579.86
395.46	1598.59
395.65	1790.51
395.84	1755.40
396.04	1694.55
396.23	1715.61
396.42	1722.63
396.62	1734.34
396.81	1877.11
397.00	1746.04
397.19	1806.89
397.39	1696.89
397.58	1797.53
397.77	1846.68
397.97	1888.81
398.16	1877.11
398.35	1849.02
398.55	1900.52
398.74	1872.43
398.93	1893.49
399.12	1863.07
399.32	1804.55
399.51	2026.90
399.70	1937.96
399.90	2057.33
400.09	2040.95
400.28	1968.39
400.47	1991.80
400.67	2038.61
400.86	2064.35
401.05	2026.90
401.24	2001.16
401.44	2108.82
401.63	2127.55
401.82	2162.66
402.01	2188.40
402.21	2118.18
402.40	2085.42
402.59	2246.91
402.78	2157.97
402.97	2282.02
403.17	2267.98
403.36	2244.57
403.55	2228.19
403.74	2366.28
403.93	2333.51
404.13	2340.54
404.32	2354.58
404.51	2305.43
404.70	2342.88
404.89	2298.41
405.09	2476.29
405.28	2438.84
405.47	2382.67
405.66	2499.69
405.85	2434.16
406.05	2408.41
406.24	2525.44
406.43	2525.44
406.62	2609.70
406.81	2703.32
407.00	2562.89
407.20	2513.74
407.39	2572.25
407.58	2590.97
407.77	2689.28
407.96	2679.91
408.15	2754.81
408.34	2724.38
408.54	2801.62
408.73	2719.70
408.92	2691.62
409.11	2829.71
409.30	2911.63
409.49	2876.52
409.68	2897.58
409.87	2953.76
410.07	2916.31
410.26	2949.08
410.45	2998.23
410.64	2981.84
410.83	2998.23
411.02	3033.33
411.21	3119.93
411.40	3117.59
411.59	3103.55
411.78	3262.71
411.98	3148.02
412.17	3251.00
412.36	3239.30
412.55	3368.03
412.74	3426.54
412.93	3309.52
413.12	3485.06
413.31	3452.29
413.50	3449.95
413.69	3389.10
413.88	3583.36
414.07	3595.06
414.26	3550.59
414.45	3644.21
414.64	3751.88
414.83	3679.32
415.02	3758.90
415.22	3754.22
415.41	3859.54
415.60	3779.97
415.79	3929.76
415.98	3929.76
416.17	3932.10
416.36	3943.80
416.55	3939.12
416.74	3943.80
416.93	3892.31
417.12	4126.36
417.31	4189.56
417.50	4147.43
417.69	4131.05
417.88	4236.37
418.07	4308.93
418.26	4299.56
418.45	4393.19
418.64	4362.76
418.83	4376.80
419.02	4421.27
419.21	4337.01
419.39	4437.66
419.58	4435.32
419.77	4388.50
419.96	4580.43
420.15	4648.30
420.34	4554.68
420.53	4542.98
420.72	4645.96
420.91	4620.22
421.10	4791.08
421.29	4779.37
421.48	4706.82
421.67	4777.03
421.86	4641.28
422.05	4765.33
422.24	4837.89
422.43	4865.97
422.61	4730.22
422.80	4933.85
422.99	4912.78
423.18	4961.94
423.37	5097.69
423.56	4917.47
423.75	4894.06
423.94	4713.84
424.13	4638.94
424.32	4702.14
424.50	5034.49
424.69	4994.70
424.88	5100.03
425.07	4994.70
425.26	4903.42
425.45	4983.00
425.64	4884.70
425.83	4924.49
426.01	5095.35
426.20	4980.66
426.39	5109.39
426.58	4868.31
426.77	5093.01
426.96	5289.61
427.15	5128.11
427.33	5277.91
427.52	5032.15
427.71	5219.39
427.90	5195.99
428.09	5186.63
428.28	5273.23
428.46	5366.85
428.65	5231.10
428.84	5434.72
429.03	5465.15
429.22	5259.18
429.40	5476.85
429.59	5441.75
429.78	5191.31
429.97	5191.31
430.16	5366.85
430.34	5598.56
430.53	5558.77
430.72	5549.41
430.91	5535.37
431.10	5584.52
431.28	5834.96
431.47	5682.82
431.66	5659.42
431.85	5748.36
432.03	5734.31
432.22	5832.62
432.41	5998.79
432.60	5673.46
432.79	5923.90
432.97	6019.86
433.16	6076.03
433.35	5982.41
433.54	5982.41
433.72	6272.64
433.91	5959.00
434.10	6059.65
434.28	6125.18
434.47	6179.01
434.66	6211.78
434.85	6237.53
435.03	6188.38
435.22	6314.77
435.41	6235.19
435.59	6251.57
435.78	6239.87
435.97	6459.88
436.16	6532.44
436.34	6300.72
436.53	6445.84
436.72	6600.31
436.90	6321.79
437.09	6509.03
437.28	6494.99
437.46	6637.76
437.65	6609.67
437.84	6654.14
438.02	6558.18
438.21	6736.06
438.40	6750.10
438.58	6806.28
438.77	6768.83
438.96	6972.46
439.14	6942.03
439.33	7145.66
439.52	7250.98
439.70	7115.23
439.89	7318.86
440.08	7452.27
440.26	7166.72
440.45	7232.26
440.63	7428.86
440.82	7672.28
441.01	7480.35
441.19	7499.08
441.38	7751.85
441.57	7707.38
441.75	7728.45
441.94	7854.84
442.12	7808.03
442.31	7946.12
442.50	7801.01
442.68	7852.50
442.87	7948.46
443.05	8028.04
443.24	8009.31
443.43	8177.83
443.61	8334.65
443.80	8461.04
443.98	8121.66
444.17	7822.07
444.35	8196.56
444.54	8208.26
444.73	8234.00
444.91	8430.61
445.10	8102.93
445.28	8257.41
445.47	8116.98
445.65	8241.03
445.84	8322.94
446.02	8404.86
446.21	8362.73
446.39	8358.05
446.58	8531.25
446.77	8397.84
446.95	8290.18
447.14	8484.44
447.32	8526.57
447.51	8535.93
447.69	8587.43
447.88	8461.04
448.06	8608.49
448.25	8512.53
448.43	8526.57
448.62	8341.67
448.80	8346.35
448.99	8409.54
449.17	8533.59
449.36	8645.94
449.54	8727.86
449.73	8882.33
449.91	8835.52
450.10	8896.38
450.28	9104.68
450.46	8917.44
450.65	8905.74
450.83	8844.88
451.02	9006.38
451.20	9179.58
451.39	8879.99
451.57	9149.15
451.76	9039.15
451.94	9151.49
452.13	9469.81
452.31	9191.28
452.49	9078.94
452.68	9202.99
452.86	9233.41
453.05	9291.93
453.23	9341.08
453.42	9327.03
453.60	9488.53
453.78	9589.17
453.97	9287.25
454.15	9446.40
454.34	9378.53
454.52	9788.12
454.70	9437.04
454.89	9437.04
455.07	9582.15
455.26	9706.20
455.44	9783.44
455.62	9778.76
455.81	9699.18
455.99	9956.64
456.17	9792.80
456.36	9858.34
456.54	9926.21
456.73	10153.24
456.91	10523.05
457.09	10314.74
457.28	10366.23
457.46	10485.60
457.64	10314.74
457.83	10574.54
458.01	10146.22
458.19	10525.39
458.38	10438.79
458.56	10637.73
458.74	10733.70
458.93	10366.23
459.11	10665.82
459.29	10513.69
459.48	10532.41
459.66	10661.14
459.84	10759.44
460.03	11173.72
460.21	10864.77
460.39	10740.72
460.57	10906.90
460.76	10944.34
460.94	11052.01
461.12	11059.03
461.31	11028.60
461.49	11068.39
461.67	11204.14
461.85	11534.16
462.04	11358.62
462.22	11604.38
462.40	11723.74
462.59	11358.62
462.77	11358.62
462.95	11662.89
463.13	11552.88
463.32	11613.74
463.50	11573.95
463.68	11655.87
463.86	11754.17
464.05	11309.47
464.23	11683.95
464.41	11859.49
464.59	11686.29
464.78	11939.07
464.96	11840.77
465.14	11875.88
465.32	11742.47
465.50	12112.27
465.69	11833.75
465.87	12023.33
466.05	12023.33
466.23	12163.76
466.41	12156.74
466.60	12351.01
466.78	11889.92
466.96	12152.06
467.14	12072.48
467.32	12313.56
467.51	12458.67
467.69	12032.69
467.87	12318.24
468.05	12578.04
468.23	12238.66
468.41	12278.45
468.60	12652.94
468.78	12648.26
468.96	12390.80
469.14	12512.50
469.32	12758.26
469.50	12521.87
469.69	12840.18
469.87	12858.90
470.05	12919.76
470.23	13149.13
470.41	12847.20
470.59	13116.36
470.77	12957.21
470.95	13165.51
471.14	13107.00
471.32	13025.08
471.50	13209.98
471.68	13563.40
471.86	13399.57
472.04	13738.94
472.22	13778.73
472.40	13579.79
472.58	13542.34
472.77	13767.03
472.95	14050.24
473.13	14310.04
473.31	14052.58
473.49	14244.50
473.67	14328.76
473.85	14251.52
474.03	14398.98
474.21	14544.09
474.39	14656.43
474.57	14698.56
474.75	14689.20
474.93	14834.32
475.12	14733.67
475.30	15096.46
475.48	14986.45
475.66	15087.09
475.84	15183.06
476.02	15108.16
476.20	15393.70
476.38	15389.02
476.56	15866.49
476.74	15847.77
476.92	15697.97
477.10	15531.80
477.28	15903.94
477.46	16116.93
477.64	16217.57
477.82	16381.41
478.00	16851.86
478.18	16709.08
478.36	16704.40
478.54	16793.34
478.72	16884.62
478.90	17071.87
479.08	17287.20
479.26	17479.12
479.44	17614.87
479.62	17434.65
479.80	17902.76
479.98	18075.96
480.16	18288.95
480.34	17970.63
480.52	18242.14
480.70	18459.81
480.88	18195.32
481.06	18637.69
481.24	18544.06
481.41	18988.77
481.59	19112.81
481.77	19014.51
481.95	19468.58
482.13	19225.16
482.31	19449.85
482.49	20056.05
482.67	20191.80
482.85	20257.34
483.03	20346.28
483.21	20671.61
483.39	20996.95
483.57	20886.94
483.74	21057.80
483.92	21256.75
484.10	21001.63
484.28	21341.00
484.46	21727.19
484.64	22211.68
484.82	21596.12
485.00	22204.66
485.18	22441.06
485.35	22946.61
485.53	22920.87
485.71	22768.73
485.89	23590.26
486.07	23297.69
486.25	23274.29
486.43	23372.59
486.61	23498.98
486.78	23772.82
486.96	23915.59
487.14	24477.32
487.32	24486.68
487.50	24704.35
487.68	24526.47
487.85	25074.16
488.03	25221.61
488.21	25553.97
488.39	25593.76
488.57	26026.76
488.75	26417.63
488.92	26288.90
489.10	26298.26
489.28	26398.90
489.46	26703.17
489.64	26984.04
489.81	27639.39
489.99	27337.46
490.17	27487.25
490.35	27763.43
490.53	27929.61
490.70	28486.66
490.88	27704.92
491.06	28582.62
491.24	28650.50
491.41	28884.55
491.59	28919.66
491.77	28917.32
491.95	29205.20
492.13	29701.40
492.30	29621.82
492.48	29607.78
492.66	29986.94
492.84	30345.05
493.01	30628.25
493.19	30321.64
493.37	30588.46
493.54	30883.37
493.72	31283.60
493.90	30824.86
494.08	31126.78
494.25	31868.73
494.43	31536.38
494.61	32044.27
494.79	32275.99
494.96	31800.86
495.14	32505.36
495.32	32739.41
495.49	33071.77
495.67	32943.04
495.85	33521.15
496.02	33467.32
496.20	33652.22
496.38	33893.30
496.55	33970.54
496.73	34888.03
496.91	34363.75
497.09	34761.64
497.26	34705.46
497.44	34583.76
497.62	35082.29
497.79	35250.81
497.97	35129.10
498.14	35697.85
498.32	35721.26
498.50	35962.33
498.67	36023.19
498.85	36208.09
499.03	36432.78
499.20	36781.52
499.38	36510.02
499.56	37088.13
499.73	36708.96
499.91	36535.76
500.08	37298.78
500.26	37193.45
500.44	37256.65
500.61	37656.88
500.79	37331.54
500.97	37813.70
501.14	38623.52
501.32	38567.35
501.49	37979.87
501.67	38120.31
501.84	38913.75
502.02	38314.57
502.20	38689.06
502.37	38707.78
502.55	38958.22
502.72	39232.06
502.90	39283.55
503.07	38918.43
503.25	39936.56
503.43	39543.35
503.60	39763.36
503.78	39700.17
503.95	40268.92
504.13	40215.08
504.30	40189.34
504.48	40196.36
504.65	41074.06
504.83	41003.85
505.01	41027.25
505.18	40856.39
505.36	41680.26
505.53	40917.25
505.71	41352.58
505.88	41656.85
506.06	40950.01
506.23	41940.06
506.41	41869.84
506.58	41741.11
506.76	41956.44
506.93	42253.69
507.11	41888.57
507.28	42010.28
507.46	42239.65
507.63	42321.57
507.81	42836.48
507.98	42302.84
508.16	42965.21
508.33	43229.69
508.50	43491.83
508.68	43501.20
508.85	43779.72
509.03	43463.75
509.20	43856.96
509.38	44175.27
509.55	43744.61
509.73	44299.32
509.90	44264.21
510.08	44612.95
510.25	44233.78
510.42	44811.90
510.60	44465.50
510.77	44795.51
510.95	45085.74
511.12	44460.82
511.30	44957.01
511.47	45586.61
511.64	45226.17
511.82	45462.57
511.99	44875.09
512.17	45546.82
512.34	45645.13
512.51	46358.99
512.69	46244.30
512.86	46021.95
513.04	46155.36
513.21	46555.60
513.38	46024.29
513.56	46583.68
513.73	46316.86
513.90	46712.41
514.08	46251.33
514.25	47054.13
514.43	46960.51
514.60	47232.01
514.77	47248.39
514.95	47489.47
515.12	47330.31
515.29	47419.25
515.47	47580.75
515.64	47870.98
515.81	47793.74
515.99	47662.67
516.16	47952.90
516.33	48296.95
516.51	48479.52
516.68	48109.71
516.85	48105.03
517.03	48367.17
517.20	48376.53
517.37	48575.48
517.54	48552.07
517.72	48636.33
517.89	48804.85
518.06	49090.40
518.24	49223.81
518.41	49113.80
518.58	48905.49
518.75	48849.32
518.93	49441.48
519.10	49223.81
519.27	49345.51
519.45	49481.27
519.62	49712.98
519.79	49839.37
519.96	49631.06
520.14	49918.95
520.31	49579.57
520.48	49932.99
520.65	50035.97
520.83	50382.37
521.00	50209.17
521.17	50291.09
521.34	50061.72
521.52	50506.42
521.69	50433.86
521.86	50740.47
522.03	50679.62
522.20	51358.38
522.38	50976.87
522.55	51269.43
522.72	51077.51
522.89	51201.56
523.07	51377.10
523.24	51136.02
523.41	51306.88
523.58	51054.11
523.75	51643.92
523.92	51536.26
524.10	51444.98
524.27	51641.58
524.44	51782.01
524.61	51945.85
524.78	52119.05
524.96	51744.56
525.13	51962.23
525.30	52168.20
525.47	52156.50
525.64	52313.31
525.81	52552.05
525.98	52299.27
526.16	52332.04
526.33	52580.13
526.50	52804.83
526.67	52690.14
526.84	52640.99
527.01	52519.28
527.18	52652.69
527.36	52776.74
527.53	52795.46
527.70	52963.98
527.87	53214.42
528.04	52919.51
528.21	53530.39
528.38	52772.06
528.55	53509.33
528.72	53282.30
528.89	53396.98
529.07	53301.02
529.24	53228.46
529.41	53485.92
529.58	53579.54
529.75	53530.39
529.92	53638.06
530.09	53619.33
530.26	53666.14
530.43	53750.40
530.60	53722.32
530.77	53717.64
530.94	53813.60
531.11	53675.51
531.28	53794.87
531.46	54021.90
531.63	53989.14
531.80	53944.67
531.97	54265.32
532.14	54174.04
532.31	54113.19
532.48	54293.41
532.65	54281.70
532.82	54248.94
532.99	54424.48
533.16	54417.46
533.33	54759.17
533.50	54602.36
533.67	54387.03
533.84	54216.17
534.01	54550.87
534.18	54859.82
534.35	55131.32
534.52	54958.12
534.69	54876.20
534.86	54979.18
535.03	54597.68
535.20	54857.48
535.37	55250.69
535.54	54990.89
535.71	54962.80
535.88	55299.84
536.05	55346.65
536.22	55498.78
536.38	55306.86
536.55	55206.22
536.72	55400.48
536.89	55295.16
537.06	55463.67
537.23	55613.47
537.40	55114.94
537.57	55636.87
537.74	55716.45
537.91	55842.84
538.08	55779.65
538.25	55580.70
538.42	55587.72
538.59	55662.62
538.75	55671.98
538.92	55889.65
539.09	55908.38
539.26	55913.06
539.43	55962.21
539.60	55934.12
539.77	56224.35
539.94	56310.95
540.11	55880.29
540.28	55955.19
540.44	56179.88
540.61	56013.70
540.78	56350.74
540.95	56336.69
541.12	56278.18
541.29	56229.03
541.46	56275.84
541.62	56383.51
541.79	56498.19
541.96	55971.57
542.13	56484.15
542.30	56547.34
542.47	56704.16
542.63	56680.75
542.80	56802.46
542.97	56910.13
543.14	56912.47
543.31	57116.09
543.48	56975.66
543.64	57298.65
543.81	57102.05
543.98	57174.61
544.15	57268.23
544.32	57256.53
544.48	57265.89
544.65	57291.63
544.82	57162.90
544.99	56907.79
545.16	57343.12
545.32	57284.61
545.49	57631.01
545.66	57633.35
545.83	57434.41
546.00	57485.90
546.16	57399.30
546.33	57272.91
546.50	57317.38
546.67	57523.35
546.83	57293.97
547.00	57357.17
547.17	57478.88
547.34	57588.88
547.50	57822.93
547.67	57729.31
547.84	57811.23
548.00	58047.63
548.17	58127.20
548.34	57911.88
548.51	58110.82
548.67	58033.58
548.84	58066.35
549.01	57649.74
549.18	57930.60
549.34	58061.67
549.51	58166.99
549.68	58188.06
549.84	58012.52
550.01	58382.32
550.18	58078.05
550.34	58408.07
550.51	58337.85
550.68	57982.09
550.84	57925.92
551.01	58347.21
551.18	58408.07
551.34	58082.73
551.51	58284.02
551.68	58550.84
551.84	58284.02
552.01	58326.15
552.18	58267.64
552.34	58145.93
552.51	58485.31
552.68	58330.83
552.84	58482.97
553.01	58710.00
553.18	58684.25
553.34	58693.61
553.51	58646.80
553.67	58714.68
553.84	58838.73
554.01	58782.55
554.17	59089.16
554.34	58904.26
554.51	58719.36
554.67	58829.37
554.84	58829.37
555.00	59075.12
555.17	58885.54
555.33	58836.39
555.50	58841.07
555.67	58848.09
555.83	58775.53
556.00	58939.37
556.16	59208.53
556.33	59255.34
556.50	59194.49
556.66	59164.06
556.83	59049.38
556.99	59093.85
557.16	59285.77
557.32	59264.70
557.49	59594.72
557.65	59126.61
557.82	59185.13
557.98	59222.58
558.15	59096.19
558.32	59135.98
558.48	59199.17
558.65	59262.36
558.81	59353.65
558.98	59465.99
559.14	59423.86
559.31	59489.40
559.47	59568.97
559.64	59519.82
559.80	59751.54
559.97	59599.40
560.13	59498.76
560.30	59295.13
560.46	59590.04
560.63	59327.90
560.79	59465.99
560.96	59770.26
561.12	59477.69
561.29	59594.72
561.45	59625.15
561.61	59777.28
561.78	59463.65
561.94	59686.00
562.11	59671.96
562.27	59671.96
562.44	59856.86
562.60	59784.30
562.77	59751.54
562.93	59564.29
563.10	59959.84
563.26	59777.28
563.42	59971.55
563.59	59697.70
563.75	59650.89
563.92	59810.05
564.08	59702.38
564.24	60175.17
564.41	60023.04
564.57	60041.76
564.74	59931.76
564.90	59889.63
565.07	59964.52
565.23	60041.76
565.39	60186.88
565.56	60041.76
565.72	59936.44
565.88	59948.14
566.05	59835.80
566.21	59941.12
566.38	59983.25
566.54	60090.91
566.70	60065.17
566.87	60301.56
567.03	60046.44
567.19	60303.90
567.36	60109.64
567.52	60104.96
567.68	60395.18
567.85	60306.24
568.01	60198.58
568.17	60107.30
568.34	60339.01
568.50	60210.28
568.66	60032.40
568.83	60254.75
568.99	60133.04
569.15	60313.26
569.32	60385.82
569.48	60280.50
569.64	60388.16
569.81	60495.83
569.97	59997.29
570.13	60163.47
570.30	60205.60
570.46	60324.97
570.62	60362.42
570.78	60163.47
570.95	60294.54
571.11	60420.93
571.27	60303.90
571.43	60252.41
571.60	60526.25
571.76	60397.52
571.92	60481.78
572.09	60416.25
572.25	60554.34
572.41	60411.57
572.57	60425.61
572.74	60577.75
572.90	60427.95
573.06	60544.98
573.22	60336.67
573.38	60392.84
573.55	60488.80
573.71	60601.15
573.87	60626.90
574.03	60392.84
574.20	60477.10
574.36	60388.16
574.52	60732.22
574.68	60563.70
574.84	60601.15
575.01	60587.11
575.17	60519.23
575.33	60699.45
575.49	60444.33
575.65	60582.43
575.82	60697.11
575.98	60608.17
576.14	60891.38
576.30	60481.78
576.46	60488.80
576.62	60706.47
576.79	60654.98
576.95	60331.99
577.11	60654.98
577.27	60584.77
577.43	60657.32
577.59	60533.28
577.75	60542.64
577.92	60598.81
578.08	60647.96
578.24	60554.34
578.40	60825.84
578.56	60809.46
578.72	60776.69
578.88	60802.44
579.04	60753.29
579.21	60804.78
579.37	60851.59
579.53	60795.42
579.69	60465.40
579.85	60720.52
580.01	60537.96
580.17	60552.00
580.33	60793.07
580.49	60942.87
580.65	60694.77
580.82	60640.94
580.98	60706.47
581.14	60699.45
581.30	61015.43
581.46	60666.69
581.62	60566.04
581.78	60776.69
581.94	60825.84
582.10	60809.46
582.26	60528.59
582.42	60690.09
582.58	61001.38
582.74	60640.94
582.90	60743.92
583.06	60615.19
583.22	60622.22
583.38	60561.36
583.54	60879.67
583.70	60718.18
583.86	60968.61
584.02	60617.53
584.18	60832.86
584.34	60797.76
584.50	60896.06
584.66	60732.22
584.82	60626.90
584.98	60968.61
585.14	60846.91
585.30	60793.07
585.46	60844.57
585.62	60727.54
585.78	61062.24
585.94	60561.36
586.10	60767.33
586.26	60912.44
586.42	61087.98
586.58	60893.72
586.74	60947.55
586.90	60823.50
587.06	60994.36
587.22	60863.29
587.38	60851.59
587.54	60975.64
587.70	61057.56
587.86	60839.89
588.02	60860.95
588.18	61099.68
588.34	60816.48
588.49	60842.23
