SpectraSuite Data File
++++++++++++++++++++++++++++++++++++
Date: Fri Oct 25 11:34:44 EDT 2013
User: price-jones
Dark Spectrum Present: No
Reference Spectrum Present: No
Number of Sampled Component Spectra: 1
Spectrometers: USB2+H05261
Integration Time (usec): 100000 (USB2+H05261)
Spectra Averaged: 1 (USB2+H05261)
Boxcar Smoothing: 0 (USB2+H05261)
Correct for Electrical Dark: No (USB2+H05261)
Strobe/Lamp Enabled: No (USB2+H05261)
Correct for Detector Non-linearity: No (USB2+H05261)
Correct for Stray Light: No (USB2+H05261)
Number of Pixels in Processed Spectrum: 2048
>>>>>Begin Processed Spectral Data<<<<<
365.73	306.61
365.92	306.61
366.12	306.61
366.32	273.84
366.52	184.90
366.72	234.05
366.91	112.35
367.11	147.45
367.31	217.67
367.51	168.52
367.70	114.69
367.90	250.44
368.10	159.16
368.30	93.62
368.49	163.84
368.69	212.99
368.89	201.29
369.09	205.97
369.28	191.92
369.48	222.35
369.68	259.80
369.87	227.03
370.07	271.50
370.27	299.59
370.47	280.86
370.66	512.58
370.86	496.19
371.06	543.00
371.25	613.22
371.45	510.24
371.65	571.09
371.84	587.47
372.04	423.64
372.24	557.05
372.44	538.32
372.63	596.84
372.83	601.52
373.03	603.86
373.22	674.07
373.42	585.13
373.62	643.65
373.81	655.35
374.01	629.60
374.21	690.46
374.40	671.73
374.60	592.16
374.79	641.31
374.99	664.71
375.19	608.54
375.38	685.78
375.58	664.71
375.78	573.43
375.97	650.67
376.17	674.07
376.37	629.60
376.56	641.31
376.76	685.78
376.95	634.29
377.15	690.46
377.35	631.94
377.54	564.07
377.74	704.50
377.93	697.48
378.13	748.97
378.33	610.88
378.52	662.37
378.72	767.70
378.91	734.93
379.11	706.84
379.31	634.29
379.50	713.86
379.70	744.29
379.89	765.36
380.09	727.91
380.28	744.29
380.48	671.73
380.68	751.31
380.87	688.12
381.07	664.71
381.26	786.42
381.46	704.50
381.65	772.38
381.85	727.91
382.04	741.95
382.24	760.67
382.43	784.08
382.63	816.85
382.83	765.36
383.02	779.40
383.22	851.96
383.41	781.74
383.61	795.78
383.80	833.23
384.00	718.54
384.19	858.98
384.39	849.61
384.58	830.89
384.78	767.70
384.97	720.88
385.17	842.59
385.36	802.80
385.56	800.46
385.75	830.89
385.95	798.12
386.14	793.44
386.34	823.87
386.53	924.51
386.72	816.85
386.92	856.64
387.11	866.00
387.31	844.93
387.50	809.83
387.70	903.45
387.89	884.72
388.09	823.87
388.28	842.59
388.48	889.40
388.67	844.93
388.86	945.58
389.06	884.72
389.25	997.07
389.45	917.49
389.64	905.79
389.84	924.51
390.03	997.07
390.22	915.15
390.42	1008.77
390.61	950.26
390.81	964.30
391.00	898.77
391.19	983.02
391.39	957.28
391.58	1001.75
391.78	1062.60
391.97	1001.75
392.16	1018.13
392.36	1034.52
392.55	1050.90
392.75	992.39
392.94	1022.81
393.13	1062.60
393.33	959.62
393.52	1057.92
393.71	1090.69
393.91	1107.07
394.10	1046.22
394.29	1036.86
394.49	966.64
394.68	1142.18
394.88	1118.78
395.07	1137.50
395.26	1151.54
395.46	1137.50
395.65	1111.75
395.84	1081.33
396.04	1114.10
396.23	1263.89
396.42	1186.65
396.62	1188.99
396.81	1165.59
397.00	1156.22
397.19	1114.10
397.39	1074.31
397.58	1214.74
397.77	1130.48
397.97	1198.35
398.16	1172.61
398.35	1226.44
398.55	1207.72
398.74	1228.78
398.93	1247.51
399.12	1174.95
399.32	1217.08
399.51	1163.25
399.70	1221.76
399.90	1315.38
400.09	1324.74
400.28	1324.74
400.47	1352.83
400.67	1366.87
400.86	1329.42
401.05	1383.26
401.24	1345.81
401.44	1357.51
401.63	1306.02
401.82	1446.45
402.01	1380.92
402.21	1423.05
402.40	1411.34
402.59	1334.11
402.78	1493.26
402.97	1387.94
403.17	1416.02
403.36	1409.00
403.55	1439.43
403.74	1589.22
403.93	1537.73
404.13	1507.30
404.32	1556.46
404.51	1497.94
404.70	1607.95
404.89	1561.14
405.09	1657.10
405.28	1626.67
405.47	1582.20
405.66	1631.35
405.85	1710.93
406.05	1537.73
406.24	1706.25
406.43	1706.25
406.62	1694.55
406.81	1748.38
407.00	1682.85
407.20	1664.12
407.39	1717.95
407.58	1802.21
407.77	1724.97
407.96	1776.47
408.15	1856.04
408.34	1788.17
408.54	1830.30
408.73	1853.70
408.92	1921.58
409.11	1886.47
409.30	1905.20
409.49	1842.00
409.68	1797.53
409.87	1844.34
410.07	1940.30
410.26	1973.07
410.45	1980.09
410.64	1942.64
410.83	2015.20
411.02	1912.22
411.21	2015.20
411.40	2092.44
411.59	2038.61
411.78	2129.89
411.98	2132.23
412.17	2118.18
412.36	2169.68
412.55	2186.06
412.74	2176.70
412.93	2080.74
413.12	2324.15
413.31	2382.67
413.50	2270.32
413.69	2366.28
413.88	2399.05
414.07	2354.58
414.26	2406.07
414.45	2532.46
414.64	2352.24
414.83	2466.92
415.02	2469.27
415.22	2567.57
415.41	2520.76
415.60	2495.01
415.79	2619.06
415.98	2506.71
416.17	2597.99
416.36	2551.18
416.55	2668.21
416.74	2775.88
416.93	2642.46
417.12	2813.32
417.31	2654.17
417.50	2719.70
417.69	2794.60
417.88	2871.84
418.07	2780.56
418.26	2649.49
418.45	2860.13
418.64	2850.77
418.83	2843.75
419.02	2876.52
419.21	2967.80
419.39	2974.82
419.58	2918.65
419.77	2810.98
419.96	3000.57
420.15	3016.95
420.34	3007.59
420.53	2993.55
420.72	3166.74
420.91	3075.46
421.10	3087.17
421.29	3103.55
421.48	3019.29
421.67	3119.93
421.86	3075.46
422.05	3180.79
422.24	3199.51
422.43	3194.83
422.61	3117.59
422.80	3304.84
422.99	3192.49
423.18	3279.09
423.37	3351.65
423.56	3124.62
423.75	3204.19
423.94	3190.15
424.13	3112.91
424.32	3136.32
424.50	3372.71
424.69	3349.31
424.88	3335.26
425.07	3239.30
425.26	3314.20
425.45	3070.78
425.64	3241.64
425.83	3243.98
426.01	3353.99
426.20	3325.90
426.39	3300.16
426.58	3358.67
426.77	3246.32
426.96	3286.11
427.15	3344.63
427.33	3421.86
427.52	3384.41
427.71	3445.27
427.90	3295.47
428.09	3449.95
428.28	3627.83
428.46	3424.20
428.65	3487.40
428.84	3503.78
429.03	3688.68
429.22	3440.59
429.40	3562.30
429.59	3499.10
429.78	3389.10
429.97	3454.63
430.16	3555.27
430.34	3662.94
430.53	3714.43
430.72	3651.24
430.91	3824.44
431.10	3772.94
431.28	3754.22
431.47	3904.01
431.66	3765.92
431.85	3756.56
432.03	3878.27
432.22	3948.48
432.41	3758.90
432.60	3927.42
432.79	3845.50
432.97	3922.74
433.16	3939.12
433.35	3911.04
433.54	4016.36
433.72	3861.88
433.91	3969.55
434.10	4037.42
434.28	3913.38
434.47	4002.32
434.66	4161.47
434.85	4109.98
435.03	4124.02
435.22	4042.11
435.41	4170.83
435.59	4088.92
435.78	4077.21
435.97	4093.60
436.16	4177.86
436.34	4250.41
436.53	4255.09
436.72	4337.01
436.90	4278.50
437.09	4287.86
437.28	4088.92
437.46	4322.97
437.65	4367.44
437.84	4344.03
438.02	4339.35
438.21	4545.32
438.40	4304.25
438.58	4477.44
438.77	4610.86
438.96	4381.48
439.14	4507.87
439.33	4669.37
439.52	4699.80
439.70	4826.18
439.89	4798.10
440.08	4702.14
440.26	4762.99
440.45	4713.84
440.63	4847.25
440.82	4943.21
441.01	4823.84
441.19	4863.63
441.38	5107.05
441.57	4950.23
441.75	5121.09
441.94	5057.90
442.12	5277.91
442.31	5280.25
442.50	5305.99
442.68	5057.90
442.87	5149.18
443.05	5348.12
443.24	5266.21
443.43	5198.33
443.61	5256.84
443.80	5298.97
443.98	5165.56
444.17	5097.69
444.35	5364.51
444.54	5401.96
444.73	5273.23
444.91	5378.55
445.10	5504.94
445.28	5380.89
445.47	5289.61
445.65	5413.66
445.84	5458.13
446.02	5493.24
446.21	5481.53
446.39	5343.44
446.58	5479.19
446.77	5467.49
446.95	5315.36
447.14	5406.64
447.32	5673.46
447.51	5273.23
447.69	5495.58
447.88	5434.72
448.06	5481.53
448.25	5373.87
448.43	5621.97
448.62	5355.15
448.80	5579.84
448.99	5614.95
449.17	5556.43
449.36	5542.39
449.54	5715.59
449.73	5816.23
449.91	5724.95
450.10	5636.01
450.28	5799.85
450.46	5909.85
450.65	5865.38
450.83	5708.57
451.02	5832.62
451.20	5832.62
451.39	5738.99
451.57	6059.65
451.76	5811.55
451.94	5783.46
452.13	5987.09
452.31	6012.84
452.49	5935.60
452.68	5933.26
452.86	6218.80
453.05	6188.38
453.23	6015.18
453.42	6118.16
453.60	6080.71
453.78	6090.07
453.97	5994.11
454.15	5968.37
454.34	5973.05
454.52	6331.15
454.70	6113.48
454.89	6073.69
455.07	6235.19
455.26	6345.19
455.44	6389.66
455.62	6338.17
455.81	6314.77
455.99	6389.66
456.17	6574.56
456.36	6361.58
456.54	6356.90
456.73	6513.71
456.91	6583.93
457.09	6705.63
457.28	6567.54
457.46	6516.05
457.64	6630.74
457.83	6670.53
458.01	6480.94
458.19	6923.30
458.38	6661.16
458.56	6724.36
458.74	6848.41
458.93	6874.15
459.11	6930.33
459.29	6817.98
459.48	6867.13
459.66	7023.95
459.84	6878.83
460.03	6963.09
460.21	7047.35
460.39	7068.42
460.57	7117.57
460.76	6984.16
460.94	7103.53
461.12	7211.19
461.31	7150.34
461.49	7145.66
461.67	7007.56
461.85	7281.41
462.04	7206.51
462.22	7456.95
462.40	7248.64
462.59	7414.82
462.77	7243.96
462.95	7485.03
463.13	7309.49
463.32	7431.20
463.50	7403.11
463.68	7396.09
463.86	7421.84
464.05	7531.84
464.23	7407.80
464.41	7688.66
464.59	7405.46
464.78	7805.69
464.96	7431.20
465.14	7513.12
465.32	7679.30
465.50	7597.38
465.69	7501.42
465.87	7709.72
466.05	7735.47
466.23	7782.28
466.41	7723.77
466.60	7765.90
466.78	7569.29
466.96	7782.28
467.14	7756.54
467.32	7770.58
467.51	7726.11
467.69	7829.09
467.87	7688.66
468.05	8098.25
468.23	7882.92
468.41	7815.05
468.60	7992.93
468.78	8102.93
468.96	8114.64
469.14	8432.95
469.32	8346.35
469.50	8035.06
469.69	7943.78
469.87	8217.62
470.05	8177.83
470.23	8198.90
470.41	8278.47
470.59	8322.94
470.77	8395.50
470.95	8409.54
471.14	8538.27
471.32	8432.95
471.50	8566.36
471.68	8561.68
471.86	8585.08
472.04	8652.96
472.22	8802.75
472.40	8599.13
472.58	8772.33
472.77	8861.27
472.95	9034.47
473.13	9050.85
473.31	9109.36
473.49	8947.87
473.67	8910.42
473.85	9008.72
474.03	8990.00
474.21	9249.80
474.39	9277.88
474.57	9193.62
474.75	9352.78
474.93	9174.90
475.12	9327.03
475.30	9635.99
475.48	9476.83
475.66	9451.08
475.84	9495.55
476.02	9540.02
476.20	9645.35
476.38	9724.93
476.56	10097.07
476.74	9923.87
476.92	10239.84
477.10	9853.66
477.28	10115.80
477.46	10015.15
477.64	10134.52
477.82	10377.94
478.00	10616.67
478.18	10373.25
478.36	10696.25
478.54	10846.04
478.72	10733.70
478.90	10642.42
479.08	10991.16
479.26	10836.68
479.44	10944.34
479.62	11059.03
479.80	11204.14
479.98	11613.74
480.16	11573.95
480.34	11475.65
480.52	11908.65
480.70	11719.06
480.88	11279.04
481.06	11585.65
481.24	11763.53
481.41	11887.58
481.59	11882.90
481.77	12187.17
481.95	12245.68
482.13	12128.66
482.31	12198.87
482.49	12622.51
482.67	12484.42
482.85	12601.44
483.03	12828.48
483.21	13004.02
483.39	13107.00
483.57	13158.49
483.74	13198.28
483.92	13123.38
484.10	13137.43
484.28	13460.42
484.46	13790.44
484.64	13923.85
484.82	13631.28
485.00	13855.97
485.18	14106.41
485.35	14363.87
485.53	14331.10
485.71	14504.30
485.89	14633.03
486.07	14520.68
486.25	14691.54
486.43	14801.55
486.61	14778.14
486.78	15012.20
486.96	14920.92
487.14	15145.61
487.32	15232.21
487.50	15438.17
487.68	15690.95
487.85	15749.46
488.03	15936.71
488.21	16299.49
488.39	16219.91
488.57	15962.45
488.75	16109.91
488.92	16468.01
489.10	16435.24
489.28	16856.54
489.46	16898.67
489.64	16589.72
489.81	17099.95
489.99	17165.49
490.17	17287.20
490.35	17205.28
490.53	17085.91
490.70	17568.06
490.88	17645.30
491.06	17797.43
491.24	17998.72
491.41	18345.12
491.59	18097.02
491.77	17987.02
491.95	18469.17
492.13	18412.99
492.30	18838.97
492.48	18515.98
492.66	18885.78
492.84	18895.14
493.01	18967.70
493.19	18963.02
493.37	19468.58
493.54	19246.23
493.72	19316.44
493.90	19421.77
494.08	19508.37
494.25	19875.83
494.43	19871.15
494.61	19880.51
494.79	20257.34
494.96	20037.33
495.14	20163.72
495.32	20460.96
495.49	20620.12
495.67	20278.40
495.85	20971.20
496.02	20388.41
496.20	21273.13
496.38	20954.82
496.55	21177.17
496.73	21795.07
496.91	21289.51
497.09	21642.93
497.26	21441.65
497.44	21942.52
497.62	21944.86
497.79	22068.91
497.97	21858.26
498.14	22249.13
498.32	22312.33
498.50	22178.92
498.67	22934.91
498.85	22794.48
499.03	22600.21
499.20	22611.92
499.38	23028.53
499.56	22820.22
499.73	23019.17
499.91	23124.49
500.08	23047.26
500.26	23318.76
500.44	23353.87
500.61	23248.54
500.79	23571.54
500.97	23524.72
501.14	23946.02
501.32	23840.70
501.49	23852.40
501.67	23931.98
501.84	24252.63
502.02	23974.11
502.20	23585.58
502.37	24271.36
502.55	24182.42
502.72	24531.15
502.90	24240.93
503.07	24353.27
503.25	24823.72
503.43	24519.45
503.60	24826.06
503.78	25090.54
503.95	24774.57
504.13	25144.38
504.30	25282.47
504.48	25177.14
504.65	25219.27
504.83	25582.06
505.01	25652.27
505.18	25256.72
505.36	26167.19
505.53	25514.18
505.71	25593.76
505.88	25628.87
506.06	25605.46
506.23	26354.43
506.41	26288.90
506.58	25930.80
506.76	26235.06
506.93	26384.86
507.11	26316.98
507.28	26775.73
507.46	26555.72
507.63	26824.88
507.81	26724.24
507.98	26742.96
508.16	26611.89
508.33	26801.47
508.50	27227.45
508.68	26803.82
508.85	27599.60
509.03	27585.55
509.20	27613.64
509.38	27688.54
509.55	27763.43
509.73	27634.71
509.90	27676.83
510.08	27768.12
510.25	27520.02
510.42	27763.43
510.60	27885.14
510.77	28070.04
510.95	28163.67
511.12	28158.99
511.30	28566.24
511.47	28311.12
511.64	28278.35
511.82	28512.41
511.99	28704.33
512.17	28709.01
512.34	28645.82
512.51	28959.45
512.69	28945.41
512.86	28879.87
513.04	29617.14
513.21	29268.40
513.38	29048.39
513.56	29865.24
513.73	29242.65
513.90	29436.92
514.08	29408.83
514.25	29706.08
514.43	29652.25
514.60	29762.25
514.77	29986.94
514.95	29881.62
515.12	29830.13
515.29	30010.35
515.47	30281.85
515.64	30354.41
515.81	30368.45
515.99	30569.74
516.16	30796.77
516.33	30263.13
516.51	30536.97
516.68	30361.43
516.85	30831.88
517.03	30696.13
517.20	31009.76
517.37	30822.51
517.54	30752.30
517.72	31105.72
517.89	31384.24
518.06	31304.67
518.24	31185.30
518.41	31316.37
518.58	31145.51
518.75	30862.30
518.93	31686.17
519.10	31271.90
519.27	31363.18
519.45	31658.09
519.62	31807.88
519.79	31950.65
519.96	31686.17
520.14	31885.12
520.31	32058.32
520.48	32072.36
520.65	32271.31
520.83	32467.91
521.00	32381.31
521.17	32385.99
521.34	32652.81
521.52	32856.44
521.69	32552.17
521.86	32903.25
522.03	32610.68
522.20	32840.06
522.38	33151.35
522.55	32870.48
522.72	33132.62
522.89	32985.17
523.07	33228.59
523.24	33216.88
523.41	33259.01
523.58	32889.21
523.75	33673.29
523.92	33441.57
524.10	33523.49
524.27	33876.91
524.44	33865.21
524.61	33795.00
524.78	33855.85
524.96	34057.14
525.13	34202.25
525.30	34539.29
525.47	33886.28
525.64	34005.64
525.81	34450.35
525.98	34017.35
526.16	34298.21
526.33	34101.61
526.50	34565.03
526.67	34504.18
526.84	34483.11
527.01	34513.54
527.18	34569.71
527.36	34923.13
527.53	34724.19
527.70	34998.03
527.87	34998.03
528.04	34560.35
528.21	34616.52
528.38	35065.91
528.55	34897.39
528.72	34742.91
528.89	35215.70
529.07	34745.25
529.24	34731.21
529.41	35470.82
529.58	35178.25
529.75	35201.66
529.92	35562.10
530.09	35409.96
530.26	35508.27
530.43	35906.16
530.60	35386.56
530.77	35798.49
530.94	35817.22
531.11	35505.93
531.28	35770.41
531.46	35739.98
531.63	35899.14
531.80	35721.26
531.97	36318.09
532.14	36051.27
532.31	36341.50
532.48	36617.68
532.65	36105.10
532.82	36357.88
532.99	36215.11
533.16	36474.91
533.33	36409.37
533.50	36755.77
533.67	36613.00
533.84	36308.73
534.01	36713.64
534.18	36629.38
534.35	36933.65
534.52	37188.77
534.69	36947.70
534.86	37605.39
535.03	36912.59
535.20	36926.63
535.37	37099.83
535.54	37490.70
535.71	37062.38
535.88	37551.56
536.05	37471.98
536.22	37553.90
536.38	37443.89
536.55	37118.56
536.72	37289.42
536.89	37233.24
537.06	37530.49
537.23	37689.65
537.40	37881.57
537.57	37230.90
537.74	37593.68
537.91	38059.45
538.08	37479.00
538.25	37467.30
538.42	38029.02
538.59	38190.52
538.75	37687.31
538.92	38242.01
539.09	38249.03
539.26	38284.14
539.43	38272.44
539.60	38803.74
539.77	38326.27
539.94	38267.76
540.11	38408.19
540.28	38256.06
540.44	38712.46
540.61	38403.51
540.78	38270.10
540.95	38998.01
541.12	38817.78
541.29	38520.54
541.46	39077.58
541.62	38904.38
541.79	38958.22
541.96	38682.03
542.13	38279.46
542.30	38852.89
542.47	38607.14
542.63	39309.30
542.80	39253.12
542.97	39306.96
543.14	39526.97
543.31	39292.91
543.48	39271.85
543.64	40229.13
543.81	39669.74
543.98	40172.96
544.15	39604.20
544.32	39892.09
544.48	40039.54
544.65	39763.36
544.82	39833.58
544.99	39709.53
545.16	40219.77
545.32	39885.07
545.49	40343.81
545.66	40121.46
545.83	39971.67
546.00	40371.90
546.16	40128.48
546.33	40053.59
546.50	39810.17
546.67	40264.24
546.83	39964.65
547.00	40407.01
547.17	40219.77
547.34	40158.91
547.50	40538.08
547.67	40334.45
547.84	40645.74
548.00	40502.97
548.17	40797.88
548.34	40500.63
548.51	40741.71
548.67	40685.53
548.84	40842.35
549.01	40509.99
549.18	40896.18
549.34	41132.57
549.51	40935.97
549.68	40753.41
549.84	40898.52
550.01	41116.19
550.18	40928.95
550.34	41390.03
550.51	41120.87
550.68	41483.66
550.84	41357.27
551.01	41233.22
551.18	41350.24
551.34	41045.97
551.51	41436.84
551.68	41254.28
551.84	41469.61
552.01	41457.91
552.18	41851.12
552.34	40961.72
552.51	41317.48
552.68	41415.78
552.84	41464.93
553.01	41654.51
553.18	41982.19
553.34	41734.09
553.51	41497.70
553.67	41778.56
553.84	42155.39
554.01	41923.68
554.17	41930.70
554.34	41808.99
554.51	41780.90
554.67	42295.82
554.84	42174.11
555.00	42291.14
555.17	42024.32
555.33	41914.31
555.50	42354.33
555.67	42124.96
555.83	42382.42
556.00	42176.45
556.16	42469.02
556.33	42604.77
556.50	42403.49
556.66	42550.94
556.83	42478.38
556.99	42843.51
557.16	42529.87
557.32	42686.69
557.49	42564.98
557.65	42567.32
557.82	42557.96
557.98	42752.23
558.15	42775.63
558.32	42906.70
558.48	42815.42
558.65	42637.54
558.81	43005.00
558.98	42602.43
559.14	42602.43
559.31	42731.16
559.47	42742.86
559.64	42646.90
559.80	42876.27
559.97	43489.49
560.13	42803.72
560.30	42656.26
560.46	43236.72
560.63	43061.18
560.79	43318.64
560.96	43573.75
561.12	43482.47
561.29	43030.75
561.45	43100.97
561.61	43112.67
561.78	43215.65
561.94	43194.59
562.11	43650.99
562.27	43360.76
562.44	43133.73
562.60	43709.50
562.77	43580.78
562.93	43140.75
563.10	43433.32
563.26	43372.47
563.42	43377.15
563.59	43573.75
563.75	43328.00
563.92	43217.99
564.08	43550.35
564.24	43573.75
564.41	43416.94
564.57	43545.67
564.74	43707.16
564.90	43585.46
565.07	43899.09
565.23	43344.38
565.39	43667.37
565.56	43641.63
565.72	43557.37
565.88	43756.32
566.05	43702.48
566.21	43966.96
566.38	43812.49
566.54	44004.41
566.70	43831.21
566.87	43360.76
567.03	43669.72
567.19	43885.04
567.36	43681.42
567.52	43393.53
567.68	44212.72
567.85	43786.74
568.01	44294.64
568.17	43508.22
568.34	44116.76
568.50	44357.83
568.66	43812.49
568.83	43931.86
568.99	44381.24
569.15	43999.73
569.32	43849.94
569.48	44016.11
569.64	44215.06
569.81	44264.21
569.97	44435.07
570.13	44545.08
570.30	44147.18
570.46	44208.04
570.62	44151.87
570.78	44151.87
570.95	44519.33
571.11	44577.84
571.27	44018.46
571.43	43908.45
571.60	44507.63
571.76	44339.11
571.92	44109.74
572.09	44083.99
572.25	44119.10
572.41	44208.04
572.57	44369.54
572.74	44781.47
572.90	44301.66
573.06	44219.74
573.22	44659.76
573.38	44697.21
573.55	44095.69
573.71	44360.17
573.87	44217.40
574.03	44552.10
574.20	44729.98
574.36	44357.83
574.52	44320.38
574.68	44648.06
574.84	44594.23
575.01	44392.94
575.17	44261.87
575.33	44577.84
575.49	44247.83
575.65	44439.75
575.82	44568.48
575.98	44165.91
576.14	44776.79
576.30	44842.32
576.46	44327.41
576.62	44498.26
576.79	44507.63
576.95	44287.62
577.11	44418.69
577.27	44406.98
577.43	44940.63
577.59	44603.59
577.75	44477.20
577.92	43842.92
578.08	44212.72
578.24	44580.18
578.40	45272.98
578.56	45024.89
578.72	44467.84
578.88	44629.34
579.04	44559.12
579.21	44392.94
579.37	44584.86
579.53	44650.40
579.69	44612.95
579.85	44744.02
580.01	44280.60
580.17	44528.69
580.33	45062.33
580.49	44882.11
580.65	45088.08
580.82	44832.96
580.98	44669.12
581.14	44439.75
581.30	44552.10
581.46	45059.99
581.62	44559.12
581.78	44231.44
581.94	44758.06
582.10	44516.99
582.26	44875.09
582.42	44662.10
582.58	44598.91
582.74	44624.65
582.90	44502.95
583.06	44790.83
583.22	44421.03
583.38	44839.98
583.54	45202.77
583.70	44261.87
583.86	44488.90
584.02	44825.94
584.18	44907.86
584.34	45020.20
584.50	44809.56
584.66	44879.77
584.82	44978.07
584.98	45287.03
585.14	45392.35
585.30	45020.20
585.46	44985.10
585.62	45038.93
585.78	44910.20
585.94	44484.22
586.10	44416.35
586.26	44648.06
586.42	44781.47
586.58	44914.88
586.74	44767.43
586.90	44582.52
587.06	45048.29
587.22	44987.44
587.38	44907.86
587.54	45146.59
587.70	45291.71
587.86	45148.93
588.02	44734.66
588.18	44935.95
588.34	44722.96
588.49	45008.50
588.65	44465.50
588.81	45223.83
588.97	45090.42
589.13	44708.91
589.29	44903.18
589.45	45546.82
589.61	44914.88
589.77	45368.94
589.93	45324.47
590.08	45031.91
