SpectraSuite Data File
++++++++++++++++++++++++++++++++++++
Date: Fri Oct 25 11:25:32 EDT 2013
User: price-jones
Dark Spectrum Present: No
Reference Spectrum Present: No
Number of Sampled Component Spectra: 1
Spectrometers: USB2+H05261
Integration Time (usec): 100000 (USB2+H05261)
Spectra Averaged: 1 (USB2+H05261)
Boxcar Smoothing: 0 (USB2+H05261)
Correct for Electrical Dark: No (USB2+H05261)
Strobe/Lamp Enabled: No (USB2+H05261)
Correct for Detector Non-linearity: No (USB2+H05261)
Correct for Stray Light: No (USB2+H05261)
Number of Pixels in Processed Spectrum: 2048
>>>>>Begin Processed Spectral Data<<<<<
365.73	294.91
365.92	294.91
366.12	294.91
366.32	156.82
366.52	180.22
366.72	63.19
366.91	133.41
367.11	121.71
367.31	159.16
367.51	168.52
367.70	145.11
367.90	170.86
368.10	166.18
368.30	140.43
368.49	191.92
368.69	210.65
368.89	184.90
369.09	124.05
369.28	117.03
369.48	124.05
369.68	163.84
369.87	234.05
370.07	163.84
370.27	224.69
370.47	344.06
370.66	575.77
370.86	676.41
371.06	622.58
371.25	664.71
371.45	685.78
371.65	650.67
371.84	674.07
372.04	692.80
372.24	760.67
372.44	720.88
372.63	713.86
372.83	760.67
373.03	793.44
373.22	760.67
373.42	709.18
373.62	758.33
373.81	788.76
374.01	807.48
374.21	779.40
374.40	812.17
374.60	826.21
374.79	812.17
374.99	858.98
375.19	905.79
375.38	819.19
375.58	739.61
375.78	903.45
375.97	851.96
376.17	823.87
376.37	802.80
376.56	805.14
376.76	861.32
376.95	926.85
377.15	763.01
377.35	875.36
377.54	894.08
377.74	933.87
377.93	858.98
378.13	887.06
378.33	971.32
378.52	997.07
378.72	968.98
378.91	947.92
379.11	926.85
379.31	915.15
379.50	898.77
379.70	884.72
379.89	933.87
380.09	990.05
380.28	985.37
380.48	1041.54
380.68	971.32
380.87	922.17
381.07	1004.09
381.26	1022.81
381.46	1029.84
381.65	1100.05
381.85	950.26
382.04	1069.62
382.24	1036.86
382.43	1064.94
382.63	1043.88
382.83	1039.20
383.02	1078.99
383.22	1083.67
383.41	1057.92
383.61	1104.73
383.80	1132.82
384.00	1217.08
384.19	1165.59
384.39	1193.67
384.58	1125.80
384.78	1191.33
384.97	1170.27
385.17	1139.84
385.36	1158.57
385.56	1149.20
385.75	1139.84
385.95	1228.78
386.14	1291.98
386.34	1207.72
386.53	1179.63
386.72	1165.59
386.92	1240.48
387.11	1196.01
387.31	1233.46
387.50	1165.59
387.70	1252.19
387.89	1240.48
388.09	1270.91
388.28	1245.16
388.48	1235.80
388.67	1203.04
388.86	1254.53
389.06	1284.95
389.25	1373.89
389.45	1338.79
389.64	1355.17
389.84	1404.32
390.03	1406.66
390.22	1390.28
390.42	1357.51
390.61	1359.85
390.81	1338.79
391.00	1299.00
391.19	1497.94
391.39	1451.13
391.58	1509.65
391.78	1420.71
391.97	1378.58
392.16	1472.20
392.36	1507.30
392.55	1460.49
392.75	1535.39
392.94	1528.37
393.13	1603.27
393.33	1448.79
393.52	1507.30
393.71	1533.05
393.91	1556.46
394.10	1551.78
394.29	1605.61
394.49	1570.50
394.68	1652.42
394.88	1621.99
395.07	1610.29
395.26	1685.19
395.46	1647.74
395.65	1696.89
395.84	1708.59
396.04	1764.76
396.23	1657.10
396.42	1706.25
396.62	1743.70
396.81	1668.80
397.00	1837.32
397.19	1813.92
397.39	1806.89
397.58	1713.27
397.77	1893.49
397.97	1771.79
398.16	1834.98
398.35	1881.79
398.55	1778.81
398.74	1937.96
398.93	1966.05
399.12	1909.88
399.32	1837.32
399.51	1905.20
399.70	1907.54
399.90	1975.41
400.09	1982.43
400.28	1949.67
400.47	1987.11
400.67	2160.31
400.86	2115.84
401.05	2174.36
401.24	2017.54
401.44	2054.99
401.63	2160.31
401.82	2183.72
402.01	2085.42
402.21	2211.81
402.40	2202.44
402.59	2087.76
402.78	2197.76
402.97	2256.28
403.17	2172.02
403.36	2235.21
403.55	2312.45
403.74	2139.25
403.93	2307.77
404.13	2331.17
404.32	2321.81
404.51	2291.38
404.70	2429.48
404.89	2380.32
405.09	2464.58
405.28	2455.22
405.47	2431.82
405.66	2579.27
405.85	2548.84
406.05	2572.25
406.24	2502.03
406.43	2565.23
406.62	2616.72
406.81	2703.32
407.00	2541.82
407.20	2527.78
407.39	2691.62
407.58	2710.34
407.77	2682.25
407.96	2752.47
408.15	2810.98
408.34	2829.71
408.54	2897.58
408.73	2712.68
408.92	2672.89
409.11	2677.57
409.30	2904.60
409.49	2836.73
409.68	2960.78
409.87	2981.84
410.07	2979.50
410.26	2993.55
410.45	3030.99
410.64	3030.99
410.83	3005.25
411.02	2960.78
411.21	3052.06
411.40	3117.59
411.59	3026.31
411.78	3187.81
411.98	3119.93
412.17	3199.51
412.36	3279.09
412.55	3393.78
412.74	3377.39
412.93	3417.18
413.12	3314.20
413.31	3524.85
413.50	3510.80
413.69	3466.33
413.88	3641.87
414.07	3538.89
414.26	3604.42
414.45	3599.74
414.64	3737.84
414.83	3765.92
415.02	3721.45
415.22	3850.18
415.41	3763.58
415.60	3887.63
415.79	3882.95
415.98	3854.86
416.17	3915.72
416.36	3913.38
416.55	4102.96
416.74	4114.66
416.93	4002.32
417.12	4147.43
417.31	4182.54
417.50	4126.36
417.69	4280.84
417.88	4262.12
418.07	4198.92
418.26	4175.52
418.45	4304.25
418.64	4432.97
418.83	4461.06
419.02	4306.59
419.21	4454.04
419.39	4440.00
419.58	4418.93
419.77	4386.16
419.96	4524.26
420.15	4582.77
420.34	4603.83
420.53	4624.90
420.72	4662.35
420.91	4552.34
421.10	4622.56
421.29	4882.36
421.48	4706.82
421.67	4744.27
421.86	4748.95
422.05	4795.76
422.24	4814.48
422.43	4772.35
422.61	4830.87
422.80	4849.59
422.99	5029.81
423.18	4966.62
423.37	5048.54
423.56	4856.61
423.75	4933.85
423.94	4884.70
424.13	4589.79
424.32	4685.75
424.50	4915.12
424.69	5085.98
424.88	4983.00
425.07	4858.95
425.26	4877.68
425.45	4987.68
425.64	4870.65
425.83	4830.87
426.01	4919.81
426.20	5100.03
426.39	4961.94
426.58	5027.47
426.77	4950.23
426.96	5050.88
427.15	5095.35
427.33	5132.79
427.52	5109.39
427.71	5184.29
427.90	5177.26
428.09	5235.78
428.28	5287.27
428.46	5231.10
428.65	5240.46
428.84	5322.38
429.03	5493.24
429.22	5207.69
429.40	5495.58
429.59	5451.11
429.78	5167.90
429.97	5107.05
430.16	5521.32
430.34	5455.79
430.53	5554.09
430.72	5600.90
430.91	5535.37
431.10	5598.56
431.28	5701.54
431.47	5788.14
431.66	5762.40
431.85	5689.84
432.03	5748.36
432.22	5830.27
432.41	5916.87
432.60	5912.19
432.79	5975.39
432.97	6015.18
433.16	5921.56
433.35	5820.91
433.54	6139.23
433.72	6071.35
433.91	6066.67
434.10	6043.26
434.28	5879.43
434.47	6221.14
434.66	6207.10
434.85	6267.95
435.03	6239.87
435.22	6361.58
435.41	6480.94
435.59	6434.13
435.78	6384.98
435.97	6284.34
436.16	6366.26
436.34	6338.17
436.53	6314.77
436.72	6644.78
436.90	6384.98
437.09	6492.65
437.28	6396.68
437.46	6502.01
437.65	6466.90
437.84	6757.13
438.02	6792.23
438.21	6712.66
438.40	6604.99
438.58	6890.54
438.77	6918.62
438.96	6808.62
439.14	6974.80
439.33	7005.22
439.52	7075.44
439.70	7108.21
439.89	7155.02
440.08	7375.03
440.26	7513.12
440.45	7267.36
440.63	7295.45
440.82	7445.24
441.01	7442.90
441.19	7489.71
441.38	7576.31
441.57	7527.16
441.75	7857.18
441.94	7866.54
442.12	8049.10
442.31	7901.65
442.50	8072.51
442.68	7789.30
442.87	8184.85
443.05	8049.10
443.24	7859.52
443.43	8079.53
443.61	8152.09
443.80	8358.05
443.98	7974.21
444.17	7758.88
444.35	8145.06
444.54	8273.79
444.73	8161.45
444.91	8203.58
445.10	8477.42
445.28	8194.22
445.47	8182.51
445.65	8107.62
445.84	8458.70
446.02	8344.01
446.21	8458.70
446.39	8280.82
446.58	8573.38
446.77	8418.91
446.95	8243.37
447.14	8365.07
447.32	8634.24
447.51	8388.48
447.69	8547.64
447.88	8477.42
448.06	8393.16
448.25	8379.12
448.43	8336.99
448.62	8636.58
448.80	8404.86
448.99	8535.93
449.17	8449.33
449.36	8592.11
449.54	8755.94
449.73	8830.84
449.91	8760.63
450.10	8786.37
450.28	8994.68
450.46	9015.74
450.65	8901.06
450.83	9013.40
451.02	9064.89
451.20	9116.39
451.39	9050.85
451.57	9046.17
451.76	9064.89
451.94	9128.09
452.13	9212.35
452.31	9245.12
452.49	9034.47
452.68	9322.35
452.86	9179.58
453.05	9444.06
453.23	9540.02
453.42	9390.23
453.60	9261.50
453.78	9451.08
453.97	9259.16
454.15	9511.94
454.34	9430.02
454.52	9888.76
454.70	9572.79
454.89	9703.86
455.07	9614.92
455.26	9753.01
455.44	9699.18
455.62	9877.06
455.81	9703.86
455.99	9930.89
456.17	9823.23
456.36	9926.21
456.54	10003.45
456.73	10118.14
456.91	10368.57
457.09	9998.77
457.28	10684.55
457.46	10401.34
457.64	10473.90
457.83	10640.08
458.01	10263.25
458.19	10633.05
458.38	10328.78
458.56	10705.61
458.74	10352.19
458.93	10530.07
459.11	10611.99
459.29	10647.10
459.48	10656.46
459.66	11073.07
459.84	11005.20
460.03	10864.77
460.21	10808.59
460.39	10745.40
460.57	10803.91
460.76	11075.42
460.94	11183.08
461.12	11131.59
461.31	11084.78
461.49	11068.39
461.67	11190.10
461.85	11332.87
462.04	11267.34
462.22	11571.61
462.40	11492.03
462.59	11405.43
462.77	11449.90
462.95	11559.91
463.13	11529.48
463.32	11602.04
463.50	11489.69
463.68	11817.36
463.86	11536.50
464.05	11590.33
464.23	11463.94
464.41	11889.92
464.59	11658.21
464.78	11887.58
464.96	11845.45
465.14	11709.70
465.32	11978.86
465.50	11913.33
465.69	11817.36
465.87	12135.68
466.05	11941.41
466.23	12205.89
466.41	12126.32
466.60	12215.26
466.78	11971.84
466.96	12051.42
467.14	12072.48
467.32	12301.86
467.51	12524.21
467.69	12100.57
467.87	12163.76
468.05	12325.26
468.23	12290.15
468.41	12566.34
468.60	12299.52
468.78	12636.55
468.96	12617.83
469.14	12837.84
469.32	12879.97
469.50	12725.49
469.69	12765.28
469.87	12954.87
470.05	12748.90
470.23	13015.72
470.41	13013.38
470.59	13259.13
470.77	13004.02
470.95	13085.94
471.14	13242.75
471.32	13029.76
471.50	13537.66
471.68	13544.68
471.86	13600.85
472.04	13563.40
472.22	14015.13
472.40	13432.33
472.58	13755.33
472.77	13907.46
472.95	14272.59
473.13	14300.67
473.31	13982.36
473.49	13914.48
473.67	14101.73
473.85	14188.33
474.03	14464.51
474.21	14459.83
474.39	14558.13
474.57	14523.02
474.75	14422.38
474.93	14738.35
475.12	14780.48
475.30	14820.27
475.48	15089.43
475.66	14977.09
475.84	15068.37
476.02	15234.55
476.20	15066.03
476.38	15613.71
476.56	15819.68
476.74	15807.98
476.92	15992.88
477.10	15714.36
477.28	15917.98
477.46	16070.12
477.64	16004.58
477.82	16350.98
478.00	16734.83
478.18	16685.68
478.36	16915.05
478.54	17226.34
478.72	17121.02
478.90	17076.55
479.08	17596.15
479.26	17598.49
479.44	17497.84
479.62	17832.54
479.80	17743.60
479.98	18071.28
480.16	18555.77
480.34	17886.37
480.52	18429.38
480.70	18546.40
480.88	18113.41
481.06	18735.99
481.24	18750.03
481.41	18843.65
481.59	18944.30
481.77	19133.88
481.95	19211.12
482.13	19632.41
482.31	19414.74
482.49	20308.83
482.67	19768.16
482.85	20423.51
483.03	20479.69
483.21	20840.13
483.39	20622.46
483.57	20912.69
483.74	21137.38
483.92	21273.13
484.10	21020.35
484.28	21593.78
484.46	21947.20
484.64	22221.05
484.82	22125.08
485.00	21984.65
485.18	22553.40
485.35	22923.21
485.53	22490.21
485.71	22979.38
485.89	23463.87
486.07	22803.84
486.25	22967.68
486.43	23529.41
486.61	23487.28
486.78	23763.46
486.96	24023.26
487.14	24556.90
487.32	24201.14
487.50	24694.99
487.68	25020.33
487.85	25006.28
488.03	25362.04
488.21	25785.68
488.39	25392.47
488.57	26141.44
488.75	26277.19
488.92	25951.86
489.10	26424.65
489.28	26518.27
489.46	27070.64
489.64	26602.53
489.81	27304.69
489.99	27433.42
490.17	27590.24
490.35	27784.50
490.53	27826.63
490.70	28112.17
490.88	28067.70
491.06	28804.97
491.24	28491.34
491.41	28463.25
491.59	29181.80
491.77	28985.19
491.95	29308.19
492.13	29560.97
492.30	29656.93
492.48	29734.17
492.66	30110.99
492.84	30190.57
493.01	30134.40
493.19	30632.93
493.37	30637.61
493.54	30838.90
493.72	31131.47
493.90	31321.05
494.08	31161.89
494.25	31887.46
494.43	31721.28
494.61	31885.12
494.79	32051.30
494.96	31999.80
495.14	32467.91
495.32	33251.99
495.49	32517.06
495.67	33097.52
495.85	33322.21
496.02	33481.36
496.20	33823.08
496.38	33890.96
496.55	34061.82
496.73	34618.86
496.91	34422.26
497.09	34256.08
497.26	34356.72
497.44	34485.45
497.62	34653.97
497.79	35498.91
497.97	35264.85
498.14	35386.56
498.32	35548.06
498.50	35852.33
498.67	36367.24
498.85	36156.60
499.03	36540.44
499.20	36491.29
499.38	36828.33
499.56	36992.17
499.73	36524.06
499.91	37312.82
500.08	37324.52
500.26	37350.27
500.44	37514.11
500.61	37633.47
500.79	37479.00
500.97	37841.78
501.14	38405.85
501.32	38075.84
501.49	37984.55
501.67	38342.66
501.84	38871.62
502.02	38471.39
502.20	38656.29
502.37	38932.47
502.55	38969.92
502.72	38965.24
502.90	39138.44
503.07	39213.34
503.25	39185.25
503.43	39337.38
503.60	39796.13
503.78	40060.61
503.95	39681.44
504.13	39948.26
504.30	40273.60
504.48	40079.33
504.65	40458.50
504.83	40713.62
505.01	40624.68
505.18	40851.71
505.36	41373.65
505.53	41352.58
505.71	41198.11
505.88	41612.38
506.06	41347.90
506.23	41647.49
506.41	41713.03
506.58	41638.13
506.76	41954.10
506.93	42110.92
507.11	42089.85
507.28	42120.28
507.46	42366.04
507.63	42703.07
507.81	42754.57
507.98	42710.10
508.16	42930.11
508.33	43243.74
508.50	43278.85
508.68	43386.51
508.85	43756.32
509.03	43676.74
509.20	43557.37
509.38	44243.15
509.55	43882.70
509.73	43676.74
509.90	44421.03
510.08	44275.91
510.25	44098.03
510.42	44428.05
510.60	44708.91
510.77	44704.23
510.95	45034.25
511.12	44753.38
511.30	44727.64
511.47	45076.38
511.64	45076.38
511.82	45715.34
511.99	45146.59
512.17	45689.60
512.34	45687.26
512.51	45900.25
512.69	45968.12
512.86	45844.07
513.04	46436.23
513.21	46295.80
513.38	46532.19
513.56	46644.54
513.73	46469.00
513.90	47009.66
514.08	46630.49
514.25	46937.10
514.43	47334.99
514.60	47611.18
514.77	47456.70
514.95	47477.77
515.12	46829.44
515.29	47400.53
515.47	47976.30
515.64	48081.63
515.81	47353.72
515.99	47969.28
516.16	48259.51
516.33	48137.80
516.51	48385.89
516.68	47845.23
516.85	48109.71
517.03	48603.56
517.20	49251.89
517.37	48182.27
517.54	48732.29
517.72	48708.89
517.89	48680.80
518.06	49158.27
518.24	48715.91
518.41	49095.08
518.58	48893.79
518.75	49134.87
518.93	49624.04
519.10	48959.33
519.27	49450.84
519.45	49532.76
519.62	49535.10
519.79	49790.22
519.96	49773.83
520.14	49902.56
520.31	50176.40
520.48	50272.37
520.65	49879.16
520.83	50277.05
521.00	50216.19
521.17	50354.29
521.34	50717.07
521.52	50497.06
521.69	50494.72
521.86	50557.91
522.03	50822.39
522.20	50951.12
522.38	50899.63
522.55	51304.54
522.72	50775.58
522.89	50908.99
523.07	51332.63
523.24	51269.43
523.41	51213.26
523.58	51070.49
523.75	51498.81
523.92	51423.91
524.10	51564.34
524.27	51674.35
524.44	51995.00
524.61	52060.54
524.78	51842.87
524.96	52142.45
525.13	51880.31
525.30	52154.16
525.47	52332.04
525.64	51908.40
525.81	52353.10
525.98	52545.03
526.16	52081.60
526.33	52313.31
526.50	52914.83
526.67	52428.00
526.84	52821.21
527.01	52533.32
527.18	52846.96
527.36	52825.89
527.53	52706.52
527.70	53284.64
527.87	53399.32
528.04	53247.19
528.21	53153.57
528.38	53207.40
528.55	53502.31
528.72	52982.71
528.89	53279.96
529.07	53521.03
529.24	53286.98
529.41	53352.51
529.58	53350.17
529.75	53478.90
529.92	53586.57
530.09	53766.79
530.26	53727.00
530.43	53883.81
530.60	53570.18
530.77	53785.51
530.94	53918.92
531.11	53822.96
531.28	53956.37
531.46	53834.66
531.63	53860.41
531.80	54038.29
531.97	54089.78
532.14	54277.02
532.31	54372.99
532.48	54319.15
532.65	54330.86
532.82	54433.84
532.99	54546.18
533.16	54600.02
533.33	54703.00
533.50	54719.38
533.67	54527.46
533.84	54490.01
534.01	54609.38
534.18	54614.06
534.35	54749.81
534.52	54855.14
534.69	54843.43
534.86	54899.61
535.03	54939.39
535.20	55100.89
535.37	55025.99
535.54	54927.69
535.71	54815.35
535.88	55358.35
536.05	55063.44
536.22	55243.66
536.38	55339.63
536.55	55339.63
536.72	55248.35
536.89	55428.57
537.06	55489.42
537.23	55295.16
537.40	55337.29
537.57	55444.95
537.74	55601.77
537.91	55779.65
538.08	55828.80
538.25	55470.70
538.42	55908.38
538.59	56128.39
538.75	55646.24
538.92	55793.69
539.09	56025.40
539.26	55875.61
539.43	55774.97
539.60	55777.31
539.77	56119.02
539.94	56175.20
540.11	56184.56
540.28	56121.37
540.44	56058.17
540.61	56339.04
540.78	56137.75
540.95	56257.12
541.12	56320.31
541.29	56243.07
541.46	56123.71
541.62	56343.72
541.79	56505.21
541.96	56196.26
542.13	56341.38
542.30	56664.37
542.47	56633.94
542.63	56603.52
542.80	56772.03
542.97	56676.07
543.14	56952.26
543.31	56982.68
543.48	57008.43
543.64	57411.00
543.81	57268.23
543.98	57272.91
544.15	57069.28
544.32	57134.82
544.48	57209.71
544.65	57228.44
544.82	57205.03
544.99	57158.22
545.16	57263.55
545.32	57235.46
545.49	57429.72
545.66	57506.96
545.83	57350.15
546.00	57420.36
546.16	57350.15
546.33	57361.85
546.50	57127.80
546.67	57469.51
546.83	57237.80
547.00	57612.29
547.17	57539.73
547.34	57661.44
547.50	57792.51
547.67	57991.45
547.84	57827.62
548.00	57745.70
548.17	57916.56
548.34	57673.14
548.51	58152.95
548.67	57909.53
548.84	57888.47
549.01	57785.49
549.18	58042.95
549.34	57844.00
549.51	58363.60
549.68	58056.99
549.84	58265.30
550.01	57998.48
550.18	57970.39
550.34	58110.82
550.51	58363.60
550.68	58223.17
550.84	58183.38
551.01	58457.22
551.18	58258.27
551.34	58265.30
551.51	58356.58
551.68	58595.31
551.84	58314.45
552.01	58291.04
552.18	58396.37
552.34	58396.37
552.51	58630.42
552.68	58288.70
552.84	58382.32
553.01	58742.77
553.18	58506.37
553.34	58656.17
553.51	58480.63
553.67	58805.96
553.84	58623.40
554.01	58944.05
554.17	58695.95
554.34	58688.93
554.51	58862.13
554.67	59023.63
554.84	58749.79
555.00	58794.26
555.17	58777.87
555.33	58979.16
555.50	58670.21
555.67	59110.23
555.83	58712.34
556.00	59044.69
556.16	59166.40
556.33	59030.65
556.50	59171.08
556.66	59058.74
556.83	59107.89
556.99	59152.36
557.16	59398.12
557.32	59365.35
557.49	59341.94
557.65	59196.83
557.82	59187.47
557.98	59143.00
558.15	59138.32
558.32	59257.68
558.48	59086.82
558.65	59318.54
558.81	59409.82
558.98	59217.89
559.14	59243.64
559.31	59395.77
559.47	59613.44
559.64	59526.84
559.80	59463.65
559.97	59611.10
560.13	59414.50
560.30	59594.72
560.46	59678.98
560.63	59725.79
560.79	59590.04
560.96	59693.02
561.12	59718.77
561.29	59777.28
561.45	59529.19
561.61	59571.32
561.78	59625.15
561.94	59650.89
562.11	59620.47
562.27	59760.90
562.44	59842.82
562.60	59934.10
562.77	59964.52
562.93	59543.23
563.10	60079.21
563.26	59676.64
563.42	59943.46
563.59	59746.86
563.75	59796.01
563.92	59894.31
564.08	59793.67
564.24	59856.86
564.41	60032.40
564.57	59903.67
564.74	59894.31
564.90	59875.58
565.07	59882.61
565.23	59952.82
565.39	60048.78
565.56	60221.98
565.72	59721.11
565.88	60097.94
566.05	60006.65
566.21	59866.22
566.38	60111.98
566.54	60032.40
566.70	60219.64
566.87	60299.22
567.03	59814.73
567.19	60020.70
567.36	60266.45
567.52	60104.96
567.68	60259.43
567.85	60310.92
568.01	60334.33
568.17	60023.04
568.34	60172.83
568.50	60238.37
568.66	60130.70
568.83	60282.84
568.99	60238.37
569.15	60165.81
569.32	60055.81
569.48	60123.68
569.64	60273.48
569.81	60245.39
569.97	60116.66
570.13	60282.84
570.30	60165.81
570.46	60177.51
570.62	60348.37
570.78	60362.42
570.95	60418.59
571.11	60362.42
571.27	60306.24
571.43	60266.45
571.60	60322.63
571.76	60526.25
571.92	60617.53
572.09	60495.83
572.25	60322.63
572.41	60303.90
572.57	60388.16
572.74	60425.61
572.90	60367.10
573.06	60425.61
573.22	60654.98
573.38	60589.45
573.55	60764.99
573.71	60666.69
573.87	60404.55
574.03	60313.26
574.20	60556.68
574.36	60292.20
574.52	60610.51
574.68	60533.28
574.84	60418.59
575.01	60535.62
575.17	60477.10
575.33	60275.82
575.49	60491.15
575.65	60472.42
575.82	60427.95
575.98	60900.74
576.14	60631.58
576.30	60690.09
576.46	60673.71
576.62	60633.92
576.79	60645.62
576.95	60449.02
577.11	60502.85
577.27	60853.93
577.43	60762.65
577.59	60484.12
577.75	60626.90
577.92	60587.11
578.08	60561.36
578.24	60786.05
578.40	60921.80
578.56	60767.33
578.72	60575.40
578.88	60666.69
579.04	60743.92
579.21	60673.71
579.37	60851.59
579.53	60755.63
579.69	60254.75
579.85	60631.58
580.01	60680.73
580.17	60406.89
580.33	60856.27
580.49	60704.13
580.65	60977.98
580.82	60561.36
580.98	60495.83
581.14	60631.58
581.30	60804.78
581.46	60718.18
581.62	60697.11
581.78	60626.90
581.94	60821.16
582.10	60676.05
582.26	60683.07
582.42	60727.54
582.58	60790.73
582.74	60493.49
582.90	60832.86
583.06	60720.52
583.22	60566.04
583.38	60750.94
583.54	60701.79
583.70	60867.97
583.86	60919.46
584.02	60685.41
584.18	60889.04
584.34	60774.35
584.50	60587.11
584.66	60764.99
584.82	60603.49
584.98	60947.55
585.14	60891.38
585.30	60788.39
585.46	60891.38
585.62	60650.30
585.78	60996.70
585.94	60694.77
586.10	60797.76
586.26	60886.70
586.42	60769.67
586.58	60830.52
586.74	60886.70
586.90	60851.59
587.06	60809.46
587.22	60952.23
587.38	60828.18
587.54	60837.54
587.70	61116.07
587.86	60903.08
588.02	60664.35
588.18	61071.60
588.34	60795.42
588.49	60893.72
