SpectraSuite Data File
++++++++++++++++++++++++++++++++++++
Date: Fri Oct 25 11:26:04 EDT 2013
User: price-jones
Dark Spectrum Present: No
Reference Spectrum Present: No
Number of Sampled Component Spectra: 1
Spectrometers: USB2+H05261
Integration Time (usec): 100000 (USB2+H05261)
Spectra Averaged: 1 (USB2+H05261)
Boxcar Smoothing: 0 (USB2+H05261)
Correct for Electrical Dark: No (USB2+H05261)
Strobe/Lamp Enabled: No (USB2+H05261)
Correct for Detector Non-linearity: No (USB2+H05261)
Correct for Stray Light: No (USB2+H05261)
Number of Pixels in Processed Spectrum: 2048
>>>>>Begin Processed Spectral Data<<<<<
365.73	154.48
365.92	154.48
366.12	154.48
366.32	222.35
366.52	79.58
366.72	152.13
366.91	95.96
367.11	98.30
367.31	112.35
367.51	74.90
367.70	110.01
367.90	124.05
368.10	117.03
368.30	135.75
368.49	154.48
368.69	208.31
368.89	196.60
369.09	128.73
369.28	210.65
369.48	112.35
369.68	278.52
369.87	180.22
370.07	187.24
370.27	170.86
370.47	332.36
370.66	603.86
370.86	580.45
371.06	690.46
371.25	725.57
371.45	648.33
371.65	629.60
371.84	564.07
372.04	720.88
372.24	622.58
372.44	674.07
372.63	716.20
372.83	716.20
373.03	690.46
373.22	751.31
373.42	837.91
373.62	725.57
373.81	758.33
374.01	861.32
374.21	826.21
374.40	809.83
374.60	800.46
374.79	791.10
374.99	711.52
375.19	814.51
375.38	767.70
375.58	842.59
375.78	877.70
375.97	854.30
376.17	908.13
376.37	851.96
376.56	903.45
376.76	842.59
376.95	919.83
377.15	887.06
377.35	889.40
377.54	847.27
377.74	861.32
377.93	936.21
378.13	882.38
378.33	1078.99
378.52	964.30
378.72	929.19
378.91	990.05
379.11	961.96
379.31	929.19
379.50	968.98
379.70	1029.84
379.89	1001.75
380.09	999.41
380.28	961.96
380.48	1067.28
380.68	992.39
380.87	1060.26
381.07	1022.81
381.26	1139.84
381.46	1041.54
381.65	1060.26
381.85	971.32
382.04	1001.75
382.24	1097.71
382.43	1069.62
382.63	1055.58
382.83	1008.77
383.02	1067.28
383.22	1107.07
383.41	1032.18
383.61	1060.26
383.80	1132.82
384.00	1210.06
384.19	1104.73
384.39	1114.10
384.58	1240.48
384.78	1118.78
384.97	1172.61
385.17	1196.01
385.36	1221.76
385.56	1160.91
385.75	1149.20
385.95	1118.78
386.14	1266.23
386.34	1130.48
386.53	1247.51
386.72	1226.44
386.92	1203.04
387.11	1266.23
387.31	1282.61
387.50	1207.72
387.70	1224.10
387.89	1299.00
388.09	1320.06
388.28	1287.29
388.48	1357.51
388.67	1291.98
388.86	1317.72
389.06	1345.81
389.25	1362.19
389.45	1291.98
389.64	1324.74
389.84	1425.39
390.03	1392.62
390.22	1359.85
390.42	1324.74
390.61	1385.60
390.81	1273.25
391.00	1303.68
391.19	1416.02
391.39	1387.94
391.58	1380.92
391.78	1465.18
391.97	1434.75
392.16	1310.70
392.36	1488.58
392.55	1614.97
392.75	1516.67
392.94	1476.88
393.13	1570.50
393.33	1591.56
393.52	1472.20
393.71	1582.20
393.91	1638.38
394.10	1547.09
394.29	1673.48
394.49	1647.74
394.68	1575.18
394.88	1619.65
395.07	1671.14
395.26	1650.08
395.46	1757.74
395.65	1701.57
395.84	1699.23
396.04	1694.55
396.23	1713.27
396.42	1717.95
396.62	1746.04
396.81	1818.60
397.00	1802.21
397.19	1746.04
397.39	1792.85
397.58	1823.28
397.77	1884.13
397.97	1858.39
398.16	1799.87
398.35	1832.64
398.55	1909.88
398.74	1916.90
398.93	1912.22
399.12	1867.75
399.32	1930.94
399.51	1902.86
399.70	1907.54
399.90	1935.62
400.09	2092.44
400.28	2057.33
400.47	1987.11
400.67	1975.41
400.86	2043.29
401.05	2026.90
401.24	2101.80
401.44	2143.93
401.63	2097.12
401.82	2239.89
402.01	2225.85
402.21	2312.45
402.40	2267.98
402.59	2251.60
402.78	2160.31
402.97	2242.23
403.17	2392.03
403.36	2251.60
403.55	2211.81
403.74	2464.58
403.93	2298.41
404.13	2342.88
404.32	2345.22
404.51	2345.22
404.70	2417.77
404.89	2340.54
405.09	2452.88
405.28	2436.50
405.47	2576.93
405.66	2476.29
405.85	2555.86
406.05	2457.56
406.24	2640.12
406.43	2602.68
406.62	2588.63
406.81	2621.40
407.00	2555.86
407.20	2677.57
407.39	2668.21
407.58	2736.09
407.77	2708.00
407.96	2818.00
408.15	2796.94
408.34	2752.47
408.54	2740.77
408.73	2813.32
408.92	2834.39
409.11	2913.97
409.30	2920.99
409.49	2984.18
409.68	2967.80
409.87	3002.91
410.07	3096.53
410.26	2876.52
410.45	3070.78
410.64	2972.48
410.83	3131.64
411.02	3063.76
411.21	3206.53
411.40	3190.15
411.59	3246.32
411.78	3255.69
411.98	3213.56
412.17	3286.11
412.36	3307.18
412.55	3393.78
412.74	3391.44
412.93	3438.25
413.12	3356.33
413.31	3574.00
413.50	3435.91
413.69	3496.76
413.88	3510.80
414.07	3625.49
414.26	3585.70
414.45	3714.43
414.64	3705.07
414.83	3838.48
415.02	3808.05
415.22	3992.95
415.41	3688.68
415.60	3950.82
415.79	3941.46
415.98	3950.82
416.17	3936.78
416.36	4086.58
416.55	3962.53
416.74	4149.77
416.93	3840.82
417.12	4070.19
417.31	4173.18
417.50	4152.11
417.69	4241.05
417.88	4236.37
418.07	4262.12
418.26	4250.41
418.45	4327.65
418.64	4477.44
418.83	4411.91
419.02	4379.14
419.21	4437.66
419.39	4521.92
419.58	4601.49
419.77	4538.30
419.96	4643.62
420.15	4533.62
420.34	4503.19
420.53	4505.53
420.72	4669.37
420.91	4664.69
421.10	4805.12
421.29	4844.91
421.48	4641.28
421.67	4762.99
421.86	4582.77
422.05	4709.16
422.24	4877.68
422.43	4940.87
422.61	4849.59
422.80	4964.28
422.99	4844.91
423.18	4938.53
423.37	4964.28
423.56	4936.19
423.75	4882.36
423.94	4814.48
424.13	4596.81
424.32	4821.50
424.50	4938.53
424.69	5193.65
424.88	5111.73
425.07	4940.87
425.26	4812.14
425.45	5046.20
425.64	4992.36
425.83	4994.70
426.01	5081.30
426.20	5046.20
426.39	5093.01
426.58	5055.56
426.77	5041.51
426.96	5130.45
427.15	5139.82
427.33	5146.84
427.52	5144.50
427.71	5137.48
427.90	5111.73
428.09	5242.80
428.28	5256.84
428.46	5317.70
428.65	5401.96
428.84	5671.12
429.03	5530.69
429.22	5268.55
429.40	5282.59
429.59	5338.76
429.78	5364.51
429.97	5352.81
430.16	5355.15
430.34	5556.43
430.53	5640.69
430.72	5621.97
430.91	5638.35
431.10	5626.65
431.28	5781.12
431.47	5827.93
431.66	5860.70
431.85	5734.31
432.03	5991.77
432.22	6153.27
432.41	5853.68
432.60	5858.36
432.79	5849.00
432.97	5928.58
433.16	6038.58
433.35	6129.86
433.54	6221.14
433.72	6303.06
433.91	6092.41
434.10	6120.50
434.28	6181.35
434.47	6197.74
434.66	6169.65
434.85	6282.00
435.03	6272.64
435.22	6267.95
435.41	6457.54
435.59	6452.86
435.78	6452.86
435.97	6431.79
436.16	6478.60
436.34	6328.81
436.53	6558.18
436.72	6532.44
436.90	6403.71
437.09	6628.40
437.28	6551.16
437.46	6881.18
437.65	6609.67
437.84	6747.76
438.02	6588.61
438.21	6825.00
438.40	6532.44
438.58	6956.07
438.77	6974.80
438.96	7070.76
439.14	7084.80
439.33	7112.89
439.52	7375.03
439.70	7218.21
439.89	7339.92
440.08	7508.44
440.26	7405.46
440.45	7377.37
440.63	7435.88
440.82	7672.28
441.01	7571.63
441.19	7709.72
441.38	7543.55
441.57	7747.17
441.75	7749.51
441.94	8107.62
442.12	7875.90
442.31	8238.69
442.50	8093.57
442.68	7985.91
442.87	8018.68
443.05	8053.78
443.24	8276.13
443.43	8004.63
443.61	8329.97
443.80	8512.53
443.98	8145.06
444.17	7798.66
444.35	8283.16
444.54	8124.00
444.73	8318.26
444.91	8339.33
445.10	8339.33
445.28	8390.82
445.47	8226.98
445.65	8231.66
445.84	8390.82
446.02	8451.67
446.21	8461.04
446.39	8404.86
446.58	8599.13
446.77	8367.42
446.95	8149.75
447.14	8372.10
447.32	8332.31
447.51	8325.29
447.69	8264.43
447.88	8557.00
448.06	8475.08
448.25	8688.07
448.43	8500.83
448.62	8596.79
448.80	8458.70
448.99	8903.40
449.17	8837.86
449.36	8610.83
449.54	8690.41
449.73	9067.24
449.91	8865.95
450.10	8933.82
450.28	9067.24
450.46	8947.87
450.65	9130.43
450.83	9008.72
451.02	9104.68
451.20	9275.54
451.39	9352.78
451.57	9074.26
451.76	9011.06
451.94	9123.41
452.13	9418.32
452.31	9135.11
452.49	9167.88
452.68	9479.17
452.86	9308.31
453.05	9568.11
453.23	9561.09
453.42	9589.17
453.60	9430.02
453.78	9678.12
453.97	9469.81
454.15	9488.53
454.34	9575.13
454.52	9710.88
454.70	9420.66
454.89	9645.35
455.07	9853.66
455.26	9951.96
455.44	9940.26
455.62	9797.48
455.81	9781.10
455.99	10125.16
456.17	10010.47
456.36	9916.85
456.54	10153.24
456.73	10078.35
456.91	10443.47
457.09	10307.72
457.28	10431.77
457.46	10253.89
457.64	10588.58
457.83	10452.83
458.01	10429.43
458.19	10916.26
458.38	10597.95
458.56	10782.85
458.74	10581.56
458.93	10506.66
459.11	10654.12
459.29	10626.03
459.48	10925.62
459.66	10876.47
459.84	10853.06
460.03	10972.43
460.21	11059.03
460.39	11009.88
460.57	10977.11
460.76	11110.52
460.94	11176.06
461.12	11166.70
461.31	11426.50
461.49	11346.92
461.67	11386.71
461.85	11445.22
462.04	11126.91
462.22	11744.81
462.40	11529.48
462.59	11613.74
462.77	11637.14
462.95	11499.05
463.13	11501.39
463.32	11620.76
463.50	11779.92
463.68	11957.80
463.86	11913.33
464.05	11709.70
464.23	11660.55
464.41	11784.60
464.59	11541.18
464.78	12051.42
464.96	11747.15
465.14	11974.18
465.32	12142.70
465.50	11922.69
465.69	11969.50
465.87	11791.62
466.05	11929.71
466.23	12046.74
466.41	12180.15
466.60	12250.36
466.78	11932.05
466.96	12217.60
467.14	12526.55
467.32	12285.47
467.51	12531.23
467.69	12128.66
467.87	12329.94
468.05	12463.35
468.23	12435.27
468.41	12301.86
468.60	12582.72
468.78	12760.60
468.96	12636.55
469.14	12655.28
469.32	12968.91
469.50	12695.07
469.69	12901.03
469.87	13107.00
470.05	13123.38
470.23	13214.66
470.41	13273.18
470.59	13399.57
470.77	13078.91
470.95	13195.94
471.14	13642.98
471.32	13252.11
471.50	13518.93
471.68	13472.12
471.86	13523.62
472.04	13722.56
472.22	14101.73
472.40	13612.56
472.58	13736.60
472.77	13961.30
472.95	14146.20
473.13	14520.68
473.31	14108.75
473.49	14146.20
473.67	14190.67
473.85	14504.30
474.03	14445.79
474.21	14696.22
474.39	14747.72
474.57	14782.82
474.75	14944.32
474.93	15246.25
475.12	14815.59
475.30	14897.51
475.48	15129.22
475.66	15019.22
475.84	14979.43
476.02	15241.57
476.20	15311.78
476.38	15669.89
476.56	15831.38
476.74	15861.81
476.92	16032.67
477.10	15754.15
477.28	16177.78
477.46	16339.28
477.64	16549.93
477.82	16514.82
478.00	16922.07
478.18	16851.86
478.36	16798.02
478.54	17006.33
478.72	17153.79
478.90	17139.74
479.08	17401.88
479.26	17790.41
479.44	17790.41
479.62	18134.47
479.80	17956.59
479.98	18092.34
480.16	18888.12
480.34	18429.38
480.52	18366.18
480.70	18829.61
480.88	18530.02
481.06	18967.70
481.24	18925.57
481.41	19187.71
481.59	19229.84
481.77	19506.02
481.95	19604.33
482.13	19882.85
482.31	19487.30
482.49	20222.23
482.67	20070.09
482.85	20456.28
483.03	20613.10
483.21	20863.54
483.39	20769.91
483.57	20638.84
483.74	21240.36
483.92	21446.33
484.10	21247.38
484.28	21813.79
484.46	21998.70
484.64	22274.88
484.82	22061.89
485.00	22455.10
485.18	22618.94
485.35	22977.04
485.53	22815.54
485.71	23035.55
485.89	23690.90
486.07	23407.70
486.25	23056.62
486.43	23599.62
486.61	24140.29
486.78	23992.83
486.96	24046.66
487.14	24531.15
487.32	24772.23
487.50	24826.06
487.68	24905.64
487.85	24821.38
488.03	25411.20
488.21	25773.98
488.39	25888.67
488.57	26022.08
488.75	26239.75
488.92	26567.42
489.10	26583.80
489.28	26759.34
489.46	27112.77
489.64	26850.63
489.81	27520.02
489.99	27826.63
490.17	27529.38
490.35	27557.47
490.53	28418.78
490.70	28376.66
490.88	28084.09
491.06	28961.79
491.24	29029.66
491.41	29254.36
491.59	29120.95
491.77	29345.64
491.95	29699.06
492.13	29570.33
492.30	29865.24
492.48	30235.04
492.66	30370.79
492.84	30340.36
493.01	30469.09
493.19	30806.13
493.37	30881.03
493.54	30738.26
493.72	31590.21
493.90	31489.57
494.08	31456.80
494.25	32226.84
494.43	32048.96
494.61	32507.70
494.79	32339.18
494.96	32732.39
495.14	33081.13
495.32	32938.36
495.49	33282.42
495.67	32840.06
495.85	33928.41
496.02	33439.23
496.20	33574.98
496.38	33982.24
496.55	34036.07
496.73	34703.12
496.91	34429.28
497.09	34700.78
497.26	35126.76
497.44	35225.06
497.62	35257.83
497.79	35569.12
497.97	35398.26
498.14	36046.59
498.32	36072.34
498.50	35929.56
498.67	36737.05
498.85	36428.10
499.03	36943.02
499.20	36793.22
499.38	36746.41
499.56	36732.37
499.73	37523.47
499.91	37179.41
500.08	37537.51
500.26	37376.01
500.44	37771.57
500.61	37710.71
500.79	37977.53
500.97	38368.40
501.14	37975.19
501.32	38604.80
501.49	38600.12
501.67	38157.75
501.84	39075.24
502.02	38630.54
502.20	39068.22
502.37	38899.70
502.55	39091.63
502.72	39651.02
502.90	39374.83
503.07	39754.00
503.25	39728.25
503.43	39999.76
503.60	39665.06
503.78	39959.97
503.95	39871.03
504.13	40254.87
504.30	40694.89
504.48	40786.18
504.65	40549.78
504.83	40690.21
505.01	40781.49
505.18	40921.93
505.36	41394.71
505.53	41357.27
505.71	41427.48
505.88	41565.57
506.06	41404.08
506.23	41844.10
506.41	42078.15
506.58	42103.90
506.76	42094.53
506.93	42864.57
507.11	42515.83
507.28	42927.77
507.46	42981.60
507.63	42997.98
507.81	43105.65
507.98	42742.86
508.16	43140.75
508.33	43363.11
508.50	43288.21
508.68	43175.86
508.85	43810.15
509.03	43559.71
509.20	43964.62
509.38	44189.31
509.55	44444.43
509.73	44643.38
509.90	44587.21
510.08	44243.15
510.25	44500.61
510.42	44641.04
510.60	45172.34
510.77	45242.56
510.95	45146.59
511.12	44807.22
511.30	45394.69
511.47	45511.72
511.64	45633.42
511.82	45808.96
511.99	45787.90
512.17	45811.31
512.34	45998.55
512.51	46113.23
512.69	46185.79
512.86	46150.68
513.04	46639.86
513.21	46323.88
513.38	46946.47
513.56	46621.13
513.73	46656.24
513.90	46869.23
514.08	46588.36
514.25	47445.00
514.43	47276.48
514.60	47470.75
514.77	47122.01
514.95	47571.39
515.12	47533.94
515.29	47606.50
515.47	48069.92
515.64	48254.82
515.81	47812.46
515.99	48119.07
516.16	48247.80
516.33	48413.98
516.51	48650.38
516.68	48762.72
516.85	48261.85
517.03	48659.74
517.20	48919.54
517.37	48423.34
517.54	48589.52
517.72	48926.56
517.89	49146.57
518.06	49209.76
518.24	49233.17
518.41	49118.48
518.58	49188.70
518.75	48940.60
518.93	49373.60
519.10	49275.30
519.27	49715.32
519.45	49670.85
519.62	50033.63
519.79	49958.73
519.96	50178.75
520.14	50321.52
520.31	49851.07
520.48	50286.41
520.65	50387.05
520.83	50457.27
521.00	50583.66
521.17	50408.12
521.34	50546.21
521.52	50740.47
521.69	50831.75
521.86	50691.32
522.03	50974.53
522.20	51491.79
522.38	51475.40
522.55	51323.27
522.72	51173.47
522.89	51051.76
523.07	51583.07
523.24	51309.22
523.41	51655.62
523.58	51395.82
523.75	51592.43
523.92	52041.81
524.10	52013.73
524.27	52011.38
524.44	51676.69
524.61	51966.91
524.78	52313.31
524.96	52046.49
525.13	52282.89
525.30	52275.87
525.47	52388.21
525.64	52486.51
525.81	52949.94
525.98	52477.15
526.16	52664.39
526.33	52622.26
526.50	53048.24
526.67	52706.52
526.84	52942.92
527.01	52615.24
527.18	52816.53
527.36	53022.50
527.53	53095.05
527.70	53509.33
527.87	53209.74
528.04	53073.99
528.21	53539.75
528.38	53286.98
528.55	53436.77
528.72	53537.41
528.89	53169.95
529.07	53240.17
529.24	53148.88
529.41	53497.62
529.58	53869.77
529.75	53640.40
529.92	53773.81
530.09	53675.51
530.26	53914.24
530.43	53834.66
530.60	53633.38
530.77	53607.63
530.94	54000.84
531.11	54061.69
531.28	54246.60
531.46	54265.32
531.63	54145.95
531.80	54225.53
531.97	54506.40
532.14	54394.05
532.31	54368.30
532.48	54679.60
532.65	54471.29
532.82	54522.78
532.99	54543.84
533.16	54756.83
533.33	54784.92
533.50	55056.42
533.67	54417.46
533.84	54630.44
534.01	54981.52
534.18	54766.20
534.35	55025.99
534.52	54965.14
534.69	55278.77
534.86	55384.10
535.03	54920.67
535.20	55117.28
535.37	55367.71
535.54	55620.49
535.71	55283.45
535.88	55320.90
536.05	55311.54
536.22	55292.82
536.38	55587.72
536.55	55880.29
536.72	55604.11
536.89	55634.53
537.06	55430.91
537.23	55587.72
537.40	55475.38
537.57	55686.03
537.74	55793.69
537.91	55817.10
538.08	55913.06
538.25	55709.43
538.42	56168.18
538.59	56133.07
538.75	55749.22
538.92	56151.79
539.09	56306.27
539.26	56137.75
539.43	56163.50
539.60	56147.11
539.77	56402.23
539.94	56598.83
540.11	56306.27
540.28	56472.45
540.44	56287.54
540.61	56514.58
540.78	56320.31
540.95	56460.74
541.12	56479.47
541.29	56320.31
541.46	56577.77
541.62	56488.83
541.79	56584.79
541.96	56568.41
542.13	56638.62
542.30	56575.43
542.47	56814.16
542.63	56683.09
542.80	56963.96
542.97	57183.97
543.14	57228.44
543.31	57296.31
543.48	57153.54
543.64	57546.75
543.81	57584.20
543.98	57350.15
544.15	57406.32
544.32	57308.02
544.48	57605.26
544.65	57315.04
544.82	57565.48
544.99	57312.70
545.16	57315.04
545.32	57319.72
545.49	57663.78
545.66	57790.17
545.83	57586.54
546.00	57696.55
546.16	57729.31
546.33	57497.60
546.50	57469.51
546.67	57836.98
546.83	57539.73
547.00	57883.79
547.17	57626.33
547.34	57731.65
547.50	57776.12
547.67	58129.54
547.84	57956.35
548.00	58073.37
548.17	58314.45
548.34	58035.92
548.51	58174.02
548.67	58178.70
548.84	58124.86
549.01	58040.60
549.18	58092.10
549.34	58237.21
549.51	58216.14
549.68	58300.40
549.84	58330.83
550.01	58457.22
550.18	57944.64
550.34	58499.35
550.51	58454.88
550.68	58269.98
550.84	58251.25
551.01	58471.26
551.18	58443.18
551.34	58798.94
551.51	58478.28
551.68	58356.58
551.84	58637.44
552.01	58429.13
552.18	58747.45
552.34	58607.01
552.51	58780.21
552.68	58358.92
552.84	58759.15
553.01	58941.71
553.18	58841.07
553.34	58871.49
553.51	58845.75
553.67	58946.39
553.84	58922.99
554.01	58775.53
554.17	59004.91
554.34	59222.58
554.51	58866.81
554.67	59119.59
554.84	59063.42
555.00	58831.71
555.17	59089.16
555.33	59178.10
555.50	58864.47
555.67	59000.22
555.83	59028.31
556.00	59091.51
556.16	59458.97
556.33	59421.52
556.50	59070.44
556.66	59442.59
556.83	58965.12
556.99	59416.84
557.16	59664.94
557.32	59412.16
557.49	59632.17
557.65	59157.04
557.82	59278.75
557.98	59199.17
558.15	59568.97
558.32	59533.87
558.48	59327.90
558.65	59346.62
558.81	59351.30
558.98	59627.49
559.14	59494.08
559.31	59688.34
559.47	59700.04
559.64	59620.47
559.80	59564.29
559.97	59784.30
560.13	59536.21
560.30	59674.30
560.46	59742.17
560.63	59852.18
560.79	59737.49
560.96	59987.93
561.12	59641.53
561.29	59770.26
561.45	59861.54
561.61	59863.88
561.78	59667.28
561.94	59819.41
562.11	59819.41
562.27	59934.10
562.44	60062.83
562.60	60095.60
562.77	59849.84
562.93	59730.47
563.10	60076.87
563.26	59966.87
563.42	60198.58
563.59	59929.42
563.75	60013.68
563.92	60149.43
564.08	59969.21
564.24	60172.83
564.41	60175.17
564.57	60238.37
564.74	60116.66
564.90	60023.04
565.07	60158.79
565.23	60104.96
565.39	60020.70
565.56	60163.47
565.72	60037.08
565.88	60048.78
566.05	60252.41
566.21	60126.02
566.38	60163.47
566.54	60207.94
566.70	60329.65
566.87	60437.31
567.03	60018.36
567.19	60561.36
567.36	60437.31
567.52	60357.74
567.68	60449.02
567.85	60484.12
568.01	60474.76
568.17	60336.67
568.34	60327.31
568.50	60430.29
568.66	60308.58
568.83	60364.76
568.99	60303.90
569.15	60350.71
569.32	60416.25
569.48	60320.29
569.64	60561.36
569.81	60463.06
569.97	60341.35
570.13	60378.80
570.30	60257.09
570.46	60381.14
570.62	60589.45
570.78	60362.42
570.95	60336.67
571.11	60615.19
571.27	60404.55
571.43	60395.18
571.60	60690.09
571.76	60594.13
571.92	60711.16
572.09	60568.38
572.25	60612.85
572.41	60582.43
572.57	60552.00
572.74	60772.01
572.90	60278.16
573.06	60587.11
573.22	60584.77
573.38	60657.32
573.55	60626.90
573.71	60739.24
573.87	60575.40
574.03	60701.79
574.20	60842.23
574.36	60390.50
574.52	60662.00
574.68	60580.09
574.84	60591.79
575.01	60638.60
575.17	60739.24
575.33	60479.44
575.49	60467.74
575.65	60587.11
575.82	60905.42
575.98	60809.46
576.14	60867.97
576.30	60870.31
576.46	60790.73
576.62	60914.78
576.79	60657.32
576.95	60683.07
577.11	60706.47
577.27	60891.38
577.43	60818.82
577.59	60657.32
577.75	60779.03
577.92	60633.92
578.08	60816.48
578.24	60788.39
578.40	60851.59
578.56	61001.38
578.72	60818.82
578.88	60945.21
579.04	60933.51
579.21	60905.42
579.37	61017.77
579.53	60874.99
579.69	60654.98
579.85	60781.37
580.01	60786.05
580.17	60563.70
580.33	60844.57
580.49	60947.55
580.65	60889.04
580.82	60844.57
580.98	60837.54
581.14	60654.98
581.30	60884.36
581.46	60919.46
581.62	60921.80
581.78	60828.18
581.94	60903.08
582.10	60884.36
582.26	60903.08
582.42	60870.31
582.58	60757.97
582.74	60687.75
582.90	60788.39
583.06	60968.61
583.22	60839.89
583.38	61013.08
583.54	60949.89
583.70	60821.16
583.86	61071.60
584.02	60788.39
584.18	60992.02
584.34	61031.81
584.50	61062.24
584.66	61015.43
584.82	60736.90
584.98	61055.21
585.14	61303.31
585.30	60975.64
585.46	60821.16
585.62	60903.08
585.78	60968.61
585.94	60729.88
586.10	60933.51
586.26	60903.08
586.42	61087.98
586.58	61146.50
586.74	61144.16
586.90	60865.63
587.06	60961.59
587.22	61050.53
587.38	60959.25
587.54	61116.07
587.70	61322.04
587.86	61102.03
588.02	61041.17
588.18	61109.05
588.34	61001.38
588.49	61240.12
