SpectraSuite Data File
++++++++++++++++++++++++++++++++++++
Date: Fri Oct 25 11:33:46 EDT 2013
User: price-jones
Dark Spectrum Present: No
Reference Spectrum Present: No
Number of Sampled Component Spectra: 1
Spectrometers: USB2+H05261
Integration Time (usec): 100000 (USB2+H05261)
Spectra Averaged: 1 (USB2+H05261)
Boxcar Smoothing: 0 (USB2+H05261)
Correct for Electrical Dark: No (USB2+H05261)
Strobe/Lamp Enabled: No (USB2+H05261)
Correct for Detector Non-linearity: No (USB2+H05261)
Correct for Stray Light: No (USB2+H05261)
Number of Pixels in Processed Spectrum: 2048
>>>>>Begin Processed Spectral Data<<<<<
365.73	252.78
365.92	252.78
366.12	252.78
366.32	205.97
366.52	147.45
366.72	248.10
366.91	166.18
367.11	248.10
367.31	196.60
367.51	175.54
367.70	191.92
367.90	208.31
368.10	163.84
368.30	191.92
368.49	201.29
368.69	245.76
368.89	170.86
369.09	203.63
369.28	220.01
369.48	238.73
369.68	170.86
369.87	203.63
370.07	278.52
370.27	215.33
370.47	276.18
370.66	510.24
370.86	479.81
371.06	582.79
371.25	550.03
371.45	552.37
371.65	552.37
371.84	477.47
372.04	545.34
372.24	543.00
372.44	463.43
372.63	610.88
372.83	608.54
373.03	613.22
373.22	589.82
373.42	559.39
373.62	613.22
373.81	641.31
374.01	615.56
374.21	674.07
374.40	592.16
374.60	660.03
374.79	615.56
374.99	678.76
375.19	697.48
375.38	627.26
375.58	664.71
375.78	711.52
375.97	725.57
376.17	716.20
376.37	737.27
376.56	662.37
376.76	716.20
376.95	669.39
377.15	678.76
377.35	713.86
377.54	634.29
377.74	688.12
377.93	713.86
378.13	622.58
378.33	704.50
378.52	681.10
378.72	676.41
378.91	725.57
379.11	727.91
379.31	631.94
379.50	760.67
379.70	713.86
379.89	720.88
380.09	643.65
380.28	770.04
380.48	688.12
380.68	697.48
380.87	772.38
381.07	791.10
381.26	699.82
381.46	774.72
381.65	763.01
381.85	772.38
382.04	739.61
382.24	807.48
382.43	744.29
382.63	791.10
382.83	814.51
383.02	788.76
383.22	849.61
383.41	849.61
383.61	819.19
383.80	858.98
384.00	833.23
384.19	784.08
384.39	861.32
384.58	826.21
384.78	889.40
384.97	755.99
385.17	805.14
385.36	877.70
385.56	866.00
385.75	844.93
385.95	847.27
386.14	809.83
386.34	856.64
386.53	866.00
386.72	798.12
386.92	861.32
387.11	828.55
387.31	763.01
387.50	947.92
387.70	898.77
387.89	919.83
388.09	891.74
388.28	807.48
388.48	947.92
388.67	861.32
388.86	931.53
389.06	983.02
389.25	816.85
389.45	851.96
389.64	940.90
389.84	933.87
390.03	929.19
390.22	968.98
390.42	1006.43
390.61	961.96
390.81	910.47
391.00	1032.18
391.19	1055.58
391.39	992.39
391.58	1008.77
391.78	1011.11
391.97	1088.35
392.16	1067.28
392.36	1029.84
392.55	1048.56
392.75	1036.86
392.94	1060.26
393.13	1081.33
393.33	1053.24
393.52	1001.75
393.71	1020.47
393.91	1069.62
394.10	1036.86
394.29	1064.94
394.49	1078.99
394.68	1081.33
394.88	1074.31
395.07	1107.07
395.26	1118.78
395.46	1125.80
395.65	1177.29
395.84	1156.22
396.04	1226.44
396.23	1191.33
396.42	1263.89
396.62	1310.70
396.81	1165.59
397.00	1203.04
397.19	1214.74
397.39	1181.97
397.58	1273.25
397.77	1184.31
397.97	1240.48
398.16	1179.63
398.35	1313.04
398.55	1165.59
398.74	1212.40
398.93	1313.04
399.12	1306.02
399.32	1291.98
399.51	1277.93
399.70	1371.55
399.90	1383.26
400.09	1383.26
400.28	1366.87
400.47	1315.38
400.67	1432.41
400.86	1385.60
401.05	1357.51
401.24	1385.60
401.44	1371.55
401.63	1493.26
401.82	1383.26
402.01	1427.73
402.21	1497.94
402.40	1582.20
402.59	1537.73
402.78	1434.75
402.97	1497.94
403.17	1544.75
403.36	1563.48
403.55	1584.54
403.74	1640.72
403.93	1633.69
404.13	1556.46
404.32	1610.29
404.51	1582.20
404.70	1699.23
404.89	1591.56
405.09	1650.08
405.28	1710.93
405.47	1542.41
405.66	1673.48
405.85	1825.62
406.05	1614.97
406.24	1680.50
406.43	1687.53
406.62	1783.49
406.81	1846.68
407.00	1750.72
407.20	1776.47
407.39	1849.02
407.58	1998.82
407.77	1884.13
407.96	1865.41
408.15	1928.60
408.34	1853.70
408.54	1893.49
408.73	1937.96
408.92	1870.09
409.11	2019.88
409.30	1959.03
409.49	2019.88
409.68	1933.28
409.87	1998.82
410.07	2153.29
410.26	2012.86
410.45	2108.82
410.64	2141.59
410.83	2094.78
411.02	2127.55
411.21	2172.02
411.40	2296.07
411.59	2275.00
411.78	2155.63
411.98	2097.12
412.17	2143.93
412.36	2253.94
412.55	2349.90
412.74	2345.22
412.93	2352.24
413.12	2293.72
413.31	2422.45
413.50	2532.46
413.69	2406.07
413.88	2525.44
414.07	2438.84
414.26	2541.82
414.45	2499.69
414.64	2487.99
414.83	2555.86
415.02	2569.91
415.22	2616.72
415.41	2715.02
415.60	2654.17
415.79	2640.12
415.98	2808.64
416.17	2754.81
416.36	2569.91
416.55	2686.94
416.74	2710.34
416.93	2815.66
417.12	2818.00
417.31	2967.80
417.50	2960.78
417.69	2906.95
417.88	2904.60
418.07	2874.18
418.26	3033.33
418.45	2874.18
418.64	3279.09
418.83	2998.23
419.02	3077.80
419.21	3159.72
419.39	3126.96
419.58	3124.62
419.77	3103.55
419.96	3166.74
420.15	3129.30
420.34	3112.91
420.53	3197.17
420.72	3274.41
420.91	3222.92
421.10	3243.98
421.29	3356.33
421.48	3258.03
421.67	3377.39
421.86	3131.64
422.05	3297.81
422.24	3302.50
422.43	3370.37
422.61	3391.44
422.80	3407.82
422.99	3499.10
423.18	3382.07
423.37	3569.32
423.56	3382.07
423.75	3358.67
423.94	3452.29
424.13	3201.85
424.32	3260.37
424.50	3440.59
424.69	3454.63
424.88	3571.66
425.07	3499.10
425.26	3468.67
425.45	3454.63
425.64	3428.88
425.83	3524.85
426.01	3438.25
426.20	3384.41
426.39	3531.87
426.58	3496.76
426.77	3506.12
426.96	3499.10
427.15	3445.27
427.33	3639.53
427.52	3375.05
427.71	3754.22
427.90	3634.85
428.09	3611.45
428.28	3637.19
428.46	3536.55
428.65	3691.02
428.84	3857.20
429.03	3676.98
429.22	3702.73
429.40	3669.96
429.59	3819.75
429.78	3583.36
429.97	3550.59
430.16	3852.52
430.34	3824.44
430.53	3936.78
430.72	3833.80
430.91	3955.51
431.10	3801.03
431.28	4025.72
431.47	3911.04
431.66	3962.53
431.85	3920.40
432.03	4105.30
432.22	4032.74
432.41	4107.64
432.60	4121.68
432.79	4018.70
432.97	4133.39
433.16	4177.86
433.35	4058.49
433.54	4189.56
433.72	4098.28
433.91	4170.83
434.10	4198.92
434.28	4182.54
434.47	4152.11
434.66	4259.78
434.85	4297.22
435.03	4332.33
435.22	4287.86
435.41	4444.68
435.59	4475.10
435.78	4329.99
435.97	4400.21
436.16	4372.12
436.34	4304.25
436.53	4533.62
436.72	4498.51
436.90	4301.90
437.09	4561.70
437.28	4620.22
437.46	4451.70
437.65	4571.07
437.84	4557.02
438.02	4634.26
438.21	4510.21
438.40	4547.66
438.58	4762.99
438.77	4793.42
438.96	4821.50
439.14	4856.61
439.33	4933.85
439.52	4898.74
439.70	4919.81
439.89	4994.70
440.08	5018.11
440.26	4985.34
440.45	5078.96
440.63	5186.63
440.82	5228.76
441.01	5078.96
441.19	5289.61
441.38	5165.56
441.57	5261.52
441.75	5226.42
441.94	5233.44
442.12	5373.87
442.31	5516.64
442.50	5474.51
442.68	5334.08
442.87	5465.15
443.05	5589.20
443.24	5603.24
443.43	5584.52
443.61	5540.05
443.80	5671.12
443.98	5533.03
444.17	5315.36
444.35	5568.13
444.54	5708.57
444.73	5565.79
444.91	5664.10
445.10	5820.91
445.28	5820.91
445.47	5678.14
445.65	5661.76
445.84	5678.14
446.02	5727.29
446.21	5626.65
446.39	5614.95
446.58	5717.93
446.77	5802.19
446.95	5621.97
447.14	5717.93
447.32	5717.93
447.51	5783.46
447.69	5820.91
447.88	5879.43
448.06	5893.47
448.25	5778.78
448.43	5846.66
448.62	5736.65
448.80	5734.31
448.99	5893.47
449.17	5870.06
449.36	5968.37
449.54	6059.65
449.73	6050.28
449.91	6176.67
450.10	5879.43
450.28	6090.07
450.46	6305.40
450.65	6197.74
450.83	6174.33
451.02	6029.22
451.20	6223.48
451.39	6188.38
451.57	6237.53
451.76	6267.95
451.94	6026.88
452.13	6354.55
452.31	6490.31
452.49	6239.87
452.68	6345.19
452.86	6298.38
453.05	6520.73
453.23	6129.86
453.42	6286.68
453.60	6277.32
453.78	6382.64
453.97	6282.00
454.15	6382.64
454.34	6473.92
454.52	6754.79
454.70	6487.96
454.89	6593.29
455.07	6597.97
455.26	6712.66
455.44	6654.14
455.62	6785.21
455.81	6724.36
455.99	6766.49
456.17	6752.45
456.36	6794.58
456.54	6817.98
456.73	6860.11
456.91	7063.74
457.09	6974.80
457.28	7082.46
457.46	7201.83
457.64	7140.97
457.83	6766.49
458.01	7035.65
458.19	7084.80
458.38	7311.83
458.56	7243.96
458.74	7229.91
458.93	7162.04
459.11	7412.48
459.29	7267.36
459.48	7187.79
459.66	7339.92
459.84	7267.36
460.03	7482.69
460.21	7414.82
460.39	7478.01
460.57	7438.22
460.76	7337.58
460.94	7501.42
461.12	7431.20
461.31	7665.25
461.49	7475.67
461.67	7534.18
461.85	7735.47
462.04	7723.77
462.22	7999.95
462.40	7822.07
462.59	7875.90
462.77	7590.36
462.95	7616.10
463.13	7705.04
463.32	7934.42
463.50	7962.50
463.68	8093.57
463.86	7831.43
464.05	7772.92
464.23	7854.84
464.41	8016.33
464.59	7850.16
464.78	8226.98
464.96	8138.04
465.14	7887.61
465.32	7999.95
465.50	8053.78
465.69	8135.70
465.87	8079.53
466.05	8098.25
466.23	8133.36
466.41	8311.24
466.60	8304.22
466.78	8098.25
466.96	8250.39
467.14	8109.96
467.32	8313.58
467.51	8358.05
467.69	8145.06
467.87	8273.79
468.05	8437.63
468.23	8500.83
468.41	8407.20
468.60	8432.95
468.78	8575.72
468.96	8777.01
469.14	8482.10
469.32	8723.18
469.50	8491.46
469.69	8868.29
469.87	8861.27
470.05	8711.47
470.23	8936.17
470.41	8882.33
470.59	8858.93
470.77	8884.67
470.95	8844.88
471.14	9090.64
471.32	8863.61
471.50	9217.03
471.68	9109.36
471.86	9107.02
472.04	9097.66
472.22	9301.29
472.40	9114.05
472.58	9327.03
472.77	9343.42
472.95	9352.78
473.13	9645.35
473.31	9373.85
473.49	9497.89
473.67	9308.31
473.85	9715.56
474.03	9912.17
474.21	9741.31
474.39	9874.72
474.57	9743.65
474.75	10097.07
474.93	9874.72
475.12	9848.97
475.30	9975.36
475.48	9900.47
475.66	10134.52
475.84	9921.53
476.02	10207.08
476.20	10216.44
476.38	10684.55
476.56	10560.50
476.74	10497.30
476.92	10661.14
477.10	10628.37
477.28	10738.38
477.46	10736.04
477.64	10736.04
477.82	10792.21
478.00	11218.19
478.18	11117.54
478.36	11094.14
478.54	11346.92
478.72	11377.34
478.90	11569.27
479.08	11517.78
479.26	11531.82
479.44	11782.26
479.62	11772.89
479.80	11779.92
479.98	11964.82
480.16	12470.37
480.34	11946.09
480.52	12353.35
480.70	12409.52
480.88	12210.57
481.06	12400.16
481.24	12484.42
481.41	12421.22
481.59	12671.66
481.77	12772.30
481.95	12877.63
482.13	13202.96
482.31	13027.42
482.49	13221.69
482.67	13376.16
482.85	13621.92
483.03	13584.47
483.21	13652.34
483.39	13848.95
483.57	13760.01
483.74	13839.59
483.92	14195.35
484.10	14075.98
484.28	14429.40
484.46	14506.64
484.64	14614.30
484.82	14476.21
485.00	14597.92
485.18	14764.10
485.35	15358.60
485.53	15176.03
485.71	15178.37
485.89	15335.19
486.07	15487.32
486.25	15438.17
486.43	15349.23
486.61	15805.64
486.78	15950.75
486.96	16074.80
487.14	16121.61
487.32	16219.91
487.50	16472.69
487.68	16741.85
487.85	16526.52
488.03	16669.30
488.21	16840.15
488.39	16982.93
488.57	17001.65
488.75	17191.23
488.92	17193.58
489.10	17699.13
489.28	17525.93
489.46	17544.66
489.64	17687.43
489.81	18312.35
489.99	18324.05
490.17	18120.43
490.35	18515.98
490.53	18801.52
490.70	18640.03
490.88	18319.37
491.06	18965.36
491.24	18871.74
491.41	19246.23
491.59	19281.33
491.77	19377.30
491.95	19358.57
492.13	19515.39
492.30	19761.14
492.48	19545.81
492.66	19932.00
492.84	20020.94
493.01	20262.02
493.19	20173.08
493.37	20350.96
493.54	20463.30
493.72	20793.32
493.90	20854.17
494.08	20807.36
494.25	21158.44
494.43	20978.22
494.61	21333.98
494.79	21032.05
494.96	21219.30
495.14	21422.92
495.32	21621.87
495.49	21703.79
495.67	21776.34
495.85	22099.34
496.02	22363.82
496.20	22642.34
496.38	22602.55
496.55	22349.78
496.73	23005.13
496.91	22431.69
497.09	22981.72
497.26	22813.20
497.44	22998.10
497.62	22787.46
497.79	23789.20
497.97	23674.52
498.14	23529.41
498.32	23606.64
498.50	23875.80
498.67	23887.51
498.85	24025.60
499.03	23805.59
499.20	24254.97
499.38	24121.56
499.56	24308.80
499.73	24280.72
499.91	24453.92
500.08	24746.48
500.26	24407.11
500.44	24573.28
500.61	24877.55
500.79	24552.22
500.97	25212.25
501.14	25455.67
501.32	25509.50
501.49	25062.46
501.67	25013.31
501.84	25598.44
502.02	25792.70
502.20	25495.46
502.37	25940.16
502.55	25460.35
502.72	25921.43
502.90	25738.87
503.07	26001.01
503.25	26017.40
503.43	26167.19
503.60	26281.88
503.78	26345.07
503.95	26558.06
504.13	26909.14
504.30	27075.32
504.48	26719.56
504.65	26621.25
504.83	26843.60
505.01	27009.78
505.18	27295.33
505.36	27618.32
505.53	27115.11
505.71	27211.07
505.88	27304.69
506.06	27260.22
506.23	27606.62
506.41	27351.50
506.58	28105.15
506.76	27740.03
506.93	28109.83
507.11	28034.94
507.28	28098.13
507.46	28261.97
507.63	28210.48
507.81	28472.62
507.98	28379.00
508.16	28418.78
508.33	28788.59
508.50	28964.13
508.68	28580.28
508.85	28922.00
509.03	28858.81
509.20	29125.63
509.38	29261.38
509.55	29525.86
509.73	29282.44
509.90	29418.19
510.08	29591.39
510.25	29659.27
510.42	29357.34
510.60	30045.46
510.77	29912.05
510.95	30384.83
511.12	29738.85
511.30	29928.43
511.47	30029.07
511.64	30096.95
511.82	30331.00
511.99	30113.33
512.17	30597.82
512.34	30333.34
512.51	30885.71
512.69	30927.84
512.86	30822.51
513.04	30827.20
513.21	31269.56
513.38	31049.55
513.56	31152.53
513.73	31255.51
513.90	31323.39
514.08	30677.40
514.25	31676.81
514.43	31384.24
514.60	31463.82
514.77	31622.98
514.95	31683.83
515.12	32091.09
515.29	31920.23
515.47	31796.18
515.64	32486.64
515.81	31976.40
515.99	32407.06
516.16	32275.99
516.33	32175.34
516.51	32306.41
516.68	32161.30
516.85	32510.04
517.03	33027.30
517.20	32638.77
517.37	32978.15
517.54	33041.34
517.72	33081.13
517.89	32641.11
518.06	32926.66
518.24	33284.76
518.41	33069.43
518.58	33261.35
518.75	33013.26
518.93	33338.59
519.10	33528.17
519.27	33476.68
519.45	33574.98
519.62	33666.27
519.79	33738.82
519.96	33734.14
520.14	34120.33
520.31	33549.24
520.48	33813.72
520.65	33928.41
520.83	34653.97
521.00	34326.30
521.17	34328.64
521.34	34506.52
521.52	34668.02
521.69	34480.77
521.86	34665.67
522.03	34859.94
522.20	34897.39
522.38	35215.70
522.55	35096.33
522.72	35206.34
522.89	35306.98
523.07	35723.60
523.24	35548.06
523.41	35583.16
523.58	35096.33
523.75	35974.03
523.92	35211.02
524.10	35496.56
524.27	35763.39
524.44	36006.80
524.61	36177.66
524.78	35601.89
524.96	36009.14
525.13	36285.33
525.30	36493.63
525.47	35962.33
525.64	36154.26
525.81	36500.65
525.98	36828.33
526.16	36538.10
526.33	36594.28
526.50	36407.03
526.67	36322.77
526.84	36634.06
527.01	37160.69
527.18	36400.01
527.36	37071.75
527.53	36708.96
527.70	37305.80
527.87	37305.80
528.04	36994.51
528.21	37062.38
528.38	37120.90
528.55	37551.56
528.72	36985.15
528.89	37074.09
529.07	37240.26
529.24	37303.46
529.41	37572.62
529.58	37521.13
529.75	37064.72
529.92	37537.51
530.09	37493.04
530.26	37879.23
530.43	38171.80
530.60	37837.10
530.77	37684.97
530.94	37874.55
531.11	37752.84
531.28	38251.38
531.46	38188.18
531.63	38103.92
531.80	38469.04
531.97	38529.90
532.14	38328.61
532.31	38099.24
532.48	38426.92
532.65	39229.72
532.82	38778.00
532.99	38604.80
533.16	38527.56
533.33	38684.37
533.50	38843.53
533.67	38845.87
533.84	38532.24
534.01	38998.01
534.18	39316.32
534.35	39136.10
534.52	39047.16
534.69	39498.88
534.86	39786.77
535.03	39049.50
535.20	39515.26
535.37	39569.10
535.54	39522.29
535.71	39379.51
535.88	39550.37
536.05	39618.25
536.22	40027.84
536.38	39683.78
536.55	39885.07
536.72	39571.44
536.89	39299.94
537.06	39974.01
537.23	40081.67
537.40	40116.78
537.57	39658.04
537.74	39634.63
537.91	40339.13
538.08	39878.05
538.25	39845.28
538.42	40069.97
538.59	40292.32
538.75	39964.65
538.92	40184.66
539.09	40769.79
539.26	40411.69
539.43	40423.39
539.60	40697.24
539.77	40505.31
539.94	40706.60
540.11	40872.78
540.28	40748.73
540.44	40898.52
540.61	40313.39
540.78	40741.71
540.95	40793.20
541.12	40641.06
541.29	40966.40
541.46	40758.09
541.62	41230.88
541.79	41490.68
541.96	41310.46
542.13	41291.73
542.30	41460.25
542.47	41511.74
542.63	41645.15
542.80	41818.35
542.97	41811.33
543.14	42066.45
543.31	41638.13
543.48	42003.25
543.64	41860.48
543.81	41979.85
543.98	41930.70
544.15	42300.50
544.32	42073.47
544.48	42291.14
544.65	42433.91
544.82	42880.95
544.99	42422.21
545.16	42209.22
545.32	42492.43
545.49	42581.37
545.66	42911.38
545.83	42820.10
546.00	42782.65
546.16	42646.90
546.33	42649.24
546.50	42014.96
546.67	42941.81
546.83	42103.90
547.00	42735.84
547.17	42518.17
547.34	42431.57
547.50	42857.55
547.67	43545.67
547.84	43208.63
548.00	43129.05
548.17	43540.99
548.34	43468.43
548.51	43421.62
548.67	43379.49
548.84	43285.87
549.01	43199.27
549.18	43166.50
549.34	43468.43
549.51	43159.48
549.68	43899.09
549.84	43650.99
550.01	43175.86
550.18	43473.11
550.34	43548.01
550.51	43863.98
550.68	43948.24
550.84	43168.84
551.01	43798.44
551.18	43924.83
551.34	43693.12
551.51	43508.22
551.68	43885.04
551.84	43880.36
552.01	44051.22
552.18	44247.83
552.34	43887.39
552.51	44268.89
552.68	43793.76
552.84	43903.77
553.01	44140.16
553.18	44226.76
553.34	44273.57
553.51	43688.44
553.67	44334.43
553.84	44418.69
554.01	44329.75
554.17	44423.37
554.34	44905.52
554.51	44638.70
554.67	44402.30
554.84	44575.50
555.00	44767.43
555.17	44704.23
555.33	44683.17
555.50	44612.95
555.67	45050.63
555.83	44802.53
556.00	45319.79
556.16	45193.40
556.33	44839.98
556.50	45191.06
556.66	44582.52
556.83	45226.17
556.99	45055.31
557.16	45242.56
557.32	45287.03
557.49	45258.94
557.65	44875.09
557.82	44816.58
557.98	45160.64
558.15	44938.29
558.32	45280.00
558.48	45048.29
558.65	45165.32
558.81	45214.47
558.98	45287.03
559.14	44790.83
559.31	45317.45
559.47	45310.43
559.64	45148.93
559.80	45333.84
559.97	45546.82
560.13	45598.32
560.30	45638.11
560.46	45684.92
560.63	45724.71
560.79	45886.20
560.96	44973.39
561.12	45925.99
561.29	45832.37
561.45	45713.00
561.61	45312.77
561.78	45673.21
561.94	45661.51
562.11	45855.78
562.27	45361.92
562.44	45867.48
562.60	46110.89
562.77	46050.04
562.93	45373.63
563.10	46021.95
563.26	45895.56
563.42	45902.59
563.59	45893.22
563.75	45928.33
563.92	46129.62
564.08	45968.12
564.24	45837.05
564.41	45766.84
564.57	46003.23
564.74	46199.83
564.90	45593.64
565.07	46469.00
565.23	45865.14
565.39	46138.98
565.56	46337.93
565.72	46007.91
565.88	46506.44
566.05	46089.83
566.21	46183.45
566.38	46050.04
566.54	46265.37
566.70	46216.22
566.87	45904.93
567.03	45801.94
567.19	46410.48
567.36	46461.97
567.52	46363.67
567.68	46277.07
567.85	46412.82
568.01	46473.68
568.17	46237.28
568.34	46590.70
568.50	46286.43
568.66	46286.43
568.83	46490.06
568.99	46553.26
569.15	46387.08
569.32	46202.18
569.48	46670.28
569.64	46763.90
569.81	46635.17
569.97	46586.02
570.13	46806.03
570.30	46452.61
570.46	46700.71
570.62	46721.77
570.78	46801.35
570.95	46672.62
571.11	47082.22
571.27	46894.97
571.43	46466.66
571.60	46651.56
571.76	46045.36
571.92	46909.02
572.09	47037.75
572.25	46710.07
572.41	46124.94
572.57	46848.16
572.74	47236.69
572.90	46815.40
573.06	47103.28
573.22	46794.33
573.38	46976.89
573.55	46412.82
573.71	47192.22
573.87	47222.65
574.03	46986.25
574.20	47119.66
574.36	46843.48
574.52	46934.76
574.68	46890.29
574.84	47215.63
575.01	47168.82
575.17	47342.02
575.33	46873.91
575.49	46644.54
575.65	46890.29
575.82	47161.79
575.98	47012.00
576.14	47065.83
576.30	47342.02
576.46	46787.31
576.62	46855.18
576.79	46824.76
576.95	46972.21
577.11	46902.00
577.27	46756.88
577.43	46974.55
577.59	46894.97
577.75	46953.49
577.92	46878.59
578.08	47021.36
578.24	47107.96
578.40	47091.58
578.56	47274.14
578.72	46988.60
578.88	47295.21
579.04	46841.14
579.21	46686.67
579.37	47304.57
579.53	47433.30
579.69	47004.98
579.85	47281.16
580.01	47501.17
580.17	47386.49
580.33	47224.99
580.49	46990.94
580.65	47014.34
580.82	47426.28
580.98	47440.32
581.14	47023.70
581.30	47100.94
581.46	46855.18
581.62	47524.58
581.78	47075.19
581.94	47482.45
582.10	47103.28
582.26	47295.21
582.42	47124.35
582.58	47353.72
582.74	47229.67
582.90	47332.65
583.06	47423.93
583.22	46946.47
583.38	47416.91
583.54	47555.00
583.70	47447.34
583.86	46930.08
584.02	47264.78
584.18	47936.51
584.34	47456.70
584.50	47491.81
584.66	47367.76
584.82	47426.28
584.98	47529.26
585.14	47569.05
585.30	47143.07
585.46	47372.44
585.62	47217.97
585.78	47681.39
585.94	46887.95
586.10	47168.82
586.26	47119.66
586.42	47145.41
586.58	47615.86
586.74	47040.09
586.90	47267.12
587.06	47819.49
587.22	47578.41
587.38	47145.41
587.54	47763.31
587.70	47428.62
587.86	47323.29
588.02	47583.09
588.18	47669.69
588.34	47150.09
588.49	47393.51
588.65	47309.25
588.81	47339.68
588.97	47381.80
589.13	47384.15
589.29	47384.15
589.45	47988.00
589.61	47709.48
589.77	47746.93
589.93	47114.98
590.08	47775.02
