SpectraSuite Data File
++++++++++++++++++++++++++++++++++++
Date: Fri Oct 25 11:22:48 EDT 2013
User: price-jones
Dark Spectrum Present: No
Reference Spectrum Present: No
Number of Sampled Component Spectra: 1
Spectrometers: USB2+H05261
Integration Time (usec): 100000 (USB2+H05261)
Spectra Averaged: 1 (USB2+H05261)
Boxcar Smoothing: 0 (USB2+H05261)
Correct for Electrical Dark: No (USB2+H05261)
Strobe/Lamp Enabled: No (USB2+H05261)
Correct for Detector Non-linearity: No (USB2+H05261)
Correct for Stray Light: No (USB2+H05261)
Number of Pixels in Processed Spectrum: 2048
>>>>>Begin Processed Spectral Data<<<<<
365.73	229.37
365.92	229.37
366.12	229.37
366.32	166.18
366.52	135.75
366.72	205.97
366.91	152.13
367.11	133.41
367.31	154.48
367.51	110.01
367.70	112.35
367.90	135.75
368.10	102.98
368.30	112.35
368.49	112.35
368.69	196.60
368.89	156.82
369.09	105.32
369.28	121.71
369.48	98.30
369.68	210.65
369.87	238.73
370.07	182.56
370.27	205.97
370.47	313.63
370.66	568.75
370.86	594.50
371.06	706.84
371.25	697.48
371.45	695.14
371.65	685.78
371.84	709.18
372.04	650.67
372.24	777.06
372.44	638.97
372.63	751.31
372.83	739.61
373.03	711.52
373.22	732.59
373.42	676.41
373.62	725.57
373.81	793.44
374.01	812.17
374.21	833.23
374.40	837.91
374.60	861.32
374.79	816.85
374.99	798.12
375.19	739.61
375.38	777.06
375.58	880.04
375.78	882.38
375.97	884.72
376.17	868.34
376.37	891.74
376.56	917.49
376.76	767.70
376.95	856.64
377.15	842.59
377.35	851.96
377.54	887.06
377.74	889.40
377.93	884.72
378.13	945.58
378.33	926.85
378.52	877.70
378.72	983.02
378.91	971.32
379.11	943.24
379.31	954.94
379.50	943.24
379.70	985.37
379.89	997.07
380.09	959.62
380.28	954.94
380.48	959.62
380.68	950.26
380.87	905.79
381.07	929.19
381.26	1034.52
381.46	1039.20
381.65	1001.75
381.85	1083.67
382.04	1006.43
382.24	1118.78
382.43	1018.13
382.63	1174.95
382.83	1135.16
383.02	1097.71
383.22	1139.84
383.41	1015.79
383.61	1076.65
383.80	1261.55
384.00	1121.12
384.19	1186.65
384.39	1111.75
384.58	1151.54
384.78	1186.65
384.97	1198.35
385.17	1146.86
385.36	1139.84
385.56	1139.84
385.75	1158.57
385.95	1123.46
386.14	1196.01
386.34	1179.63
386.53	1179.63
386.72	1238.14
386.92	1219.42
387.11	1228.78
387.31	1210.06
387.50	1240.48
387.70	1315.38
387.89	1317.72
388.09	1301.34
388.28	1277.93
388.48	1163.25
388.67	1345.81
388.86	1406.66
389.06	1273.25
389.25	1420.71
389.45	1284.95
389.64	1336.45
389.84	1364.53
390.03	1397.30
390.22	1409.00
390.42	1266.23
390.61	1355.17
390.81	1423.05
391.00	1441.77
391.19	1451.13
391.39	1392.62
391.58	1455.81
391.78	1376.24
391.97	1411.34
392.16	1469.86
392.36	1523.69
392.55	1495.60
392.75	1490.92
392.94	1591.56
393.13	1465.18
393.33	1500.28
393.52	1472.20
393.71	1598.59
393.91	1605.61
394.10	1610.29
394.29	1610.29
394.49	1516.67
394.68	1526.03
394.88	1589.22
395.07	1647.74
395.26	1678.16
395.46	1701.57
395.65	1732.00
395.84	1720.29
396.04	1720.29
396.23	1706.25
396.42	1804.55
396.62	1846.68
396.81	1755.40
397.00	1729.66
397.19	1755.40
397.39	1816.26
397.58	1823.28
397.77	1703.91
397.97	1926.26
398.16	1956.69
398.35	1823.28
398.55	1795.19
398.74	1813.92
398.93	1893.49
399.12	1856.04
399.32	1928.60
399.51	1912.22
399.70	2005.84
399.90	1975.41
400.09	1942.64
400.28	2101.80
400.47	1987.11
400.67	2064.35
400.86	2078.40
401.05	2094.78
401.24	2092.44
401.44	2111.16
401.63	2246.91
401.82	2225.85
402.01	2052.65
402.21	2193.08
402.40	2113.50
402.59	2125.21
402.78	2260.96
402.97	2176.70
403.17	2331.17
403.36	2305.43
403.55	2387.35
403.74	2305.43
403.93	2420.11
404.13	2253.94
404.32	2235.21
404.51	2420.11
404.70	2455.22
404.89	2310.11
405.09	2509.05
405.28	2403.73
405.47	2499.69
405.66	2579.27
405.85	2443.52
406.05	2490.33
406.24	2572.25
406.43	2527.78
406.62	2534.80
406.81	2700.98
407.00	2581.61
407.20	2621.40
407.39	2565.23
407.58	2670.55
407.77	2665.87
407.96	2750.13
408.15	2825.03
408.34	2726.72
408.54	2766.51
408.73	2686.94
408.92	2813.32
409.11	2857.79
409.30	2916.31
409.49	2890.56
409.68	3012.27
409.87	2902.26
410.07	3103.55
410.26	3089.51
410.45	2869.50
410.64	2981.84
410.83	2967.80
411.02	3066.10
411.21	3183.13
411.40	3089.51
411.59	3255.69
411.78	3164.40
411.98	3187.81
412.17	3276.75
412.36	3229.94
412.55	3311.86
412.74	3398.46
412.93	3365.69
413.12	3421.86
413.31	3529.53
413.50	3485.06
413.69	3463.99
413.88	3590.38
414.07	3583.36
414.26	3616.13
414.45	3735.50
414.64	3590.38
414.83	3765.92
415.02	3798.69
415.22	3845.50
415.41	3852.52
415.60	3927.42
415.79	3957.85
415.98	3911.04
416.17	3929.76
416.36	3939.12
416.55	3927.42
416.74	4152.11
416.93	4049.13
417.12	4102.96
417.31	4021.04
417.50	4243.39
417.69	4374.46
417.88	4390.84
418.07	4231.69
418.26	4234.03
418.45	4435.32
418.64	4493.83
418.83	4374.46
419.02	4358.08
419.21	4463.40
419.39	4496.17
419.58	4594.47
419.77	4428.29
419.96	4568.73
420.15	4660.01
420.34	4615.54
420.53	4631.92
420.72	4699.80
420.91	4690.43
421.10	4685.75
421.29	4784.06
421.48	4676.39
421.67	4730.22
421.86	4762.99
422.05	4744.27
422.24	4781.71
422.43	4910.44
422.61	4873.00
422.80	4929.17
422.99	4922.15
423.18	4889.38
423.37	4884.70
423.56	4975.98
423.75	5025.13
423.94	4788.74
424.13	4573.41
424.32	4746.61
424.50	4835.55
424.69	5011.09
424.88	4940.87
425.07	5018.11
425.26	4880.02
425.45	4919.81
425.64	5057.90
425.83	4964.28
426.01	5121.09
426.20	5144.50
426.39	5217.05
426.58	5132.79
426.77	5100.03
426.96	5231.10
427.15	5076.62
427.33	5247.48
427.52	5083.64
427.71	5322.38
427.90	5378.55
428.09	5195.99
428.28	5301.31
428.46	5284.93
428.65	5338.76
428.84	5636.01
429.03	5537.71
429.22	5348.12
429.40	5586.86
429.59	5458.13
429.78	5441.75
429.97	5226.42
430.16	5563.45
430.34	5551.75
430.53	5776.44
430.72	5790.49
430.91	5762.40
431.10	5778.78
431.28	5891.13
431.47	5933.26
431.66	5856.02
431.85	5657.07
432.03	5944.96
432.22	6036.24
432.41	5867.72
432.60	5994.11
432.79	5851.34
432.97	5905.17
433.16	6015.18
433.35	5900.49
433.54	6167.31
433.72	6012.84
433.91	6101.78
434.10	6122.84
434.28	6181.35
434.47	6242.21
434.66	6314.77
434.85	6310.08
435.03	6305.40
435.22	6333.49
435.41	6436.47
435.59	6441.15
435.78	6513.71
435.97	6588.61
436.16	6469.24
436.34	6480.94
436.53	6642.44
436.72	6745.42
436.90	6413.07
437.09	6450.52
437.28	6473.92
437.46	6588.61
437.65	6754.79
437.84	6722.02
438.02	6644.78
438.21	6736.06
438.40	6766.49
438.58	6993.52
438.77	7042.67
438.96	7073.10
439.14	6979.48
439.33	7201.83
439.52	6993.52
439.70	7290.77
439.89	7258.00
440.08	7485.03
440.26	7494.40
440.45	7325.88
440.63	7578.65
440.82	7939.10
441.01	7679.30
441.19	7812.71
441.38	7906.33
441.57	7733.13
441.75	7817.39
441.94	7864.20
442.12	7971.86
442.31	8098.25
442.50	7892.29
442.68	8044.42
442.87	8025.70
443.05	8121.66
443.24	8170.81
443.43	8168.47
443.61	8248.05
443.80	8388.48
443.98	7908.67
444.17	7873.56
444.35	8191.88
444.54	8458.70
444.73	8149.75
444.91	8320.60
445.10	8318.26
445.28	8315.92
445.47	8304.22
445.65	8259.75
445.84	8458.70
446.02	8439.97
446.21	8463.38
446.39	8365.07
446.58	8496.14
446.77	8521.89
446.95	8332.31
447.14	8538.27
447.32	8486.78
447.51	8432.95
447.69	8404.86
447.88	8650.62
448.06	8531.25
448.25	8510.19
448.43	8695.09
448.62	8510.19
448.80	8592.11
448.99	8613.17
449.17	8826.16
449.36	8674.03
449.54	8755.94
449.73	9020.42
449.91	9188.94
450.10	9034.47
450.28	9114.05
450.46	9214.69
450.65	9217.03
450.83	9008.72
451.02	8894.04
451.20	9291.93
451.39	9294.27
451.57	9125.75
451.76	9118.73
451.94	9135.11
452.13	9322.35
452.31	9423.00
452.49	9022.77
452.68	9369.16
452.86	9291.93
453.05	9500.23
453.23	9563.43
453.42	9570.45
453.60	9467.47
453.78	9547.05
453.97	9298.95
454.15	9589.17
454.34	9448.74
454.52	9741.31
454.70	9731.95
454.89	9647.69
455.07	9884.08
455.26	9738.97
455.44	10101.75
455.62	9818.55
455.81	9998.77
455.99	9909.83
456.17	10094.73
456.36	10026.86
456.54	10258.57
456.73	10228.14
456.91	10228.14
457.09	10499.64
457.28	10600.29
457.46	10293.68
457.64	10457.51
457.83	10391.98
458.01	10530.07
458.19	10640.08
458.38	10361.55
458.56	10497.30
458.74	10703.27
458.93	10771.15
459.11	10677.52
459.29	10836.68
459.48	10848.38
459.66	11044.99
459.84	10993.50
460.03	11098.82
460.21	11077.76
460.39	10927.96
460.57	10970.09
460.76	11171.38
460.94	11105.84
461.12	11225.21
461.31	11124.57
461.49	11480.33
461.67	11492.03
461.85	11506.07
462.04	11346.92
462.22	11861.84
462.40	11665.23
462.59	11800.98
462.77	11627.78
462.95	11665.23
463.13	11655.87
463.32	11587.99
463.50	11910.99
463.68	11824.39
463.86	11800.98
464.05	11733.11
464.23	12009.29
464.41	11812.68
464.59	11772.89
464.78	12262.07
464.96	12037.38
465.14	11716.72
465.32	12063.12
465.50	12194.19
465.69	12358.03
465.87	12147.38
466.05	12210.57
466.23	12416.54
466.41	12283.13
466.60	12645.91
466.78	12189.51
466.96	12175.47
467.14	12386.12
467.32	12386.12
467.51	12723.15
467.69	12212.92
467.87	12439.95
468.05	12657.62
468.23	12407.18
468.41	12659.96
468.60	12571.02
468.78	12905.71
468.96	12446.97
469.14	12776.98
469.32	13090.62
469.50	12830.82
469.69	13282.54
469.87	13198.28
470.05	13364.46
470.23	13369.14
470.41	13348.08
470.59	13490.85
470.77	13144.45
470.95	13287.22
471.14	13853.63
471.32	13184.24
471.50	13958.96
471.68	13334.03
471.86	13678.09
472.04	13444.04
472.22	14157.90
472.40	13767.03
472.58	13657.03
472.77	13804.48
472.95	14052.58
473.13	14815.59
473.31	14040.87
473.49	14232.80
473.67	13984.70
473.85	14260.88
474.03	14801.55
474.21	14574.52
474.39	14792.19
474.57	14593.24
474.75	14946.66
474.93	15115.18
475.12	14864.74
475.30	15194.76
475.48	14911.55
475.66	15171.35
475.84	15187.74
476.02	15515.41
476.20	15323.49
476.38	15618.39
476.56	16163.74
476.74	16215.23
476.92	16046.71
477.10	15925.00
477.28	16252.68
477.46	16341.62
477.64	16264.38
477.82	16580.36
478.00	17006.33
478.18	16603.76
478.36	17121.02
478.54	17186.55
478.72	17097.61
478.90	17717.86
479.08	17701.47
479.26	17523.59
479.44	17790.41
479.62	18141.49
479.80	18139.15
479.98	18249.16
480.16	18747.69
480.34	18649.39
480.52	18443.42
480.70	18700.88
480.88	18356.82
481.06	18707.90
481.24	18822.59
481.41	19187.71
481.59	19438.15
481.77	19447.51
481.95	19573.90
482.13	19569.22
482.31	19466.24
482.49	20278.40
482.67	20201.16
482.85	20585.01
483.03	20744.17
483.21	20943.11
483.39	20788.64
483.57	20837.79
483.74	21109.29
483.92	21443.99
484.10	21116.31
484.28	21617.19
484.46	21982.31
484.64	22328.71
484.82	21738.90
485.00	22286.58
485.18	22881.08
485.35	23012.15
485.53	22906.82
485.71	23133.86
485.89	23119.81
486.07	23234.50
486.25	23576.22
486.43	23789.20
486.61	23906.23
486.78	24444.56
486.96	24201.14
487.14	24489.03
487.32	24725.42
487.50	24978.20
487.68	25200.55
487.85	24994.58
488.03	25544.61
488.21	25750.57
488.39	25661.63
488.57	26080.59
488.75	25989.31
488.92	26597.85
489.10	27023.83
489.28	26841.26
489.46	27124.47
489.64	27168.94
489.81	27786.84
489.99	27840.67
490.17	27997.49
490.35	28226.86
490.53	28606.03
490.70	28503.04
490.88	28294.74
491.06	29146.69
491.24	29032.00
491.41	29446.28
491.59	29305.85
491.77	29490.75
491.95	29582.03
492.13	29635.86
492.30	30382.49
492.48	30333.34
492.66	30394.20
492.84	30368.45
493.01	30764.00
493.19	30623.57
493.37	31133.81
493.54	31250.83
493.72	31424.03
493.90	31786.82
494.08	31948.31
494.25	32329.82
494.43	32222.16
494.61	32357.91
494.79	32322.80
494.96	32603.66
495.14	33280.08
495.32	33500.09
495.49	33408.81
495.67	33017.94
495.85	34012.66
496.02	34153.10
496.20	33865.21
496.38	34349.70
496.55	34515.88
496.73	34735.89
496.91	34660.99
497.09	34881.00
497.26	34962.92
497.44	35035.48
497.62	35482.52
497.79	36109.78
497.97	35838.28
498.14	36208.09
498.32	36552.15
498.50	36322.77
498.67	36708.96
498.85	36416.40
499.03	36849.39
499.20	37069.40
499.38	36950.04
499.56	37397.08
499.73	37577.30
499.91	37504.74
500.08	37809.01
500.26	37649.86
500.44	38230.31
500.61	38047.75
500.79	37778.59
500.97	38557.99
501.14	38735.87
501.32	39009.71
501.49	38677.35
501.67	38864.60
501.84	39023.75
502.02	38663.31
502.20	39161.84
502.37	39438.03
502.55	39533.99
502.72	39278.87
502.90	39548.03
503.07	39754.00
503.25	40055.93
503.43	39920.18
503.60	40126.14
503.78	40161.25
503.95	40676.17
504.13	40477.22
504.30	40711.28
504.48	40870.43
504.65	41301.09
504.83	40917.25
505.01	41605.36
505.18	41385.35
505.36	41588.98
505.53	41317.48
505.71	41818.35
505.88	41832.39
506.06	41790.27
506.23	42005.59
506.41	42330.93
506.58	42417.53
506.76	42621.16
506.93	42506.47
507.11	42354.33
507.28	42494.77
507.46	42848.19
507.63	43126.71
507.81	43227.35
507.98	43098.62
508.16	43629.93
508.33	43838.23
508.50	43906.11
508.68	43999.73
508.85	43955.26
509.03	44006.75
509.20	44151.87
509.38	44601.25
509.55	44949.99
509.73	44765.09
509.90	44514.65
510.08	44577.84
510.25	45202.77
510.42	44992.12
510.60	44975.73
510.77	45319.79
510.95	45862.80
511.12	44961.69
511.30	45256.60
511.47	45635.77
511.64	45705.98
511.82	46045.36
511.99	45549.17
512.17	46234.94
512.34	46340.27
512.51	46263.03
512.69	46677.30
512.86	46625.81
513.04	46808.37
513.21	47004.98
513.38	47037.75
513.56	47114.98
513.73	46958.17
513.90	47484.79
514.08	47271.80
514.25	46848.16
514.43	47393.51
514.60	47625.22
514.77	47494.15
514.95	47693.10
515.12	47484.79
515.29	47700.12
515.47	48154.18
515.64	48238.44
515.81	47800.76
515.99	48509.94
516.16	48896.13
516.33	48465.47
516.51	49050.61
516.68	48624.63
516.85	48573.14
517.03	48861.02
517.20	49244.87
517.37	49031.88
517.54	49104.44
517.72	49076.35
517.89	49432.11
518.06	49024.86
518.24	49177.00
518.41	49467.22
518.58	49544.46
518.75	49528.08
518.93	49694.25
519.10	49308.07
519.27	49874.48
519.45	50145.98
519.62	50267.69
519.79	50209.17
519.96	50087.46
520.14	50153.00
520.31	50021.93
520.48	50782.60
520.65	50674.94
520.83	51016.66
521.00	50635.15
521.17	50763.88
521.34	50995.59
521.52	50974.53
521.69	50817.71
521.86	51033.04
522.03	51220.28
522.20	51498.81
522.38	51594.77
522.55	51753.93
522.72	51290.50
522.89	51679.03
523.07	51744.56
523.24	51437.95
523.41	51987.98
523.58	51889.68
523.75	51995.00
523.92	52072.24
524.10	52018.41
524.27	52198.63
524.44	52158.84
524.61	52292.25
524.78	52062.88
524.96	52360.12
525.13	52186.92
525.30	53013.13
525.47	52530.98
525.64	52786.10
525.81	52470.13
525.98	52839.93
526.16	52673.76
526.33	52896.11
526.50	52938.24
526.67	53024.84
526.84	53270.59
527.01	52942.92
527.18	52987.39
527.36	53146.54
527.53	53357.19
527.70	53359.53
527.87	53598.27
528.04	53043.56
528.21	53539.75
528.38	53532.73
528.55	53715.29
528.72	53378.26
528.89	53858.07
529.07	53609.97
529.24	53396.98
529.41	53928.28
529.58	54078.08
529.75	53607.63
529.92	53963.39
530.09	53989.14
530.26	54192.76
530.43	54120.21
530.60	54375.33
530.77	54277.02
530.94	54356.60
531.11	54176.38
531.28	54354.26
531.46	54302.77
531.63	54642.15
531.80	54525.12
531.97	54501.71
532.14	54717.04
532.31	54466.61
532.48	54621.08
532.65	54508.74
532.82	54492.35
532.99	54937.05
533.16	54742.79
533.33	55154.72
533.50	55040.04
533.67	55154.72
533.84	54930.03
534.01	55096.21
534.18	55215.58
534.35	55377.08
534.52	55154.72
534.69	55283.45
534.86	55463.67
535.03	55290.48
535.20	55304.52
535.37	55257.71
535.54	55477.72
535.71	55470.70
535.88	55505.80
536.05	55723.47
536.22	55763.26
536.38	55950.51
536.55	55667.30
536.72	55983.27
536.89	55709.43
537.06	55973.91
537.23	55812.41
537.40	55835.82
537.57	55615.81
537.74	55938.80
537.91	55927.10
538.08	56072.21
538.25	55847.52
538.42	56046.47
538.59	56072.21
538.75	55899.01
538.92	56273.50
539.09	56523.94
539.26	56135.41
539.43	56229.03
539.60	56250.09
539.77	56177.54
539.94	56580.11
540.11	56547.34
540.28	56669.05
540.44	56617.56
540.61	56554.36
540.78	56608.20
540.95	56680.75
541.12	56514.58
541.29	56629.26
541.46	56647.99
541.62	56779.06
541.79	56708.84
541.96	56355.42
542.13	56559.05
542.30	56807.14
542.47	57050.56
542.63	56825.87
542.80	57223.76
542.97	57205.03
543.14	57200.35
543.31	57282.27
543.48	57258.87
543.64	57375.89
543.81	57647.39
543.98	57535.05
544.15	57502.28
544.32	57682.50
544.48	57462.49
544.65	57322.06
544.82	57565.48
544.99	57439.09
545.16	57659.10
545.32	57530.37
545.49	57869.75
545.66	57691.86
545.83	58106.14
546.00	58181.04
546.16	57766.76
546.33	57741.02
546.50	57668.46
546.67	57881.45
546.83	57748.04
547.00	57921.24
547.17	57694.21
547.34	57975.07
547.50	58169.33
547.67	58293.38
547.84	58124.86
548.00	58265.30
548.17	58424.45
548.34	58239.55
548.51	58382.32
548.67	58326.15
548.84	58389.34
549.01	58220.83
549.18	58131.89
549.34	58656.17
549.51	58403.39
549.68	58562.54
549.84	58419.77
550.01	58602.33
550.18	58471.26
550.34	58674.89
550.51	58644.46
550.68	58574.25
550.84	58375.30
551.01	58810.64
551.18	58660.85
551.34	58616.38
551.51	58621.06
551.68	58810.64
551.84	58497.01
552.01	58740.42
552.18	58815.32
552.34	58581.27
552.51	58911.28
552.68	58604.67
552.84	58904.26
553.01	59143.00
553.18	58944.05
553.34	59035.33
553.51	58899.58
553.67	58728.72
553.84	59072.78
554.01	58944.05
554.17	59037.67
554.34	59337.26
554.51	59040.01
554.67	59384.07
554.84	59157.04
555.00	59231.94
555.17	58892.56
555.33	59290.45
555.50	59194.49
555.67	59128.95
555.83	59171.08
556.00	59454.29
556.16	59632.17
556.33	59594.72
556.50	59419.18
556.66	59650.89
556.83	59222.58
556.99	59423.86
557.16	59756.22
557.32	59599.40
557.49	59697.70
557.65	59405.14
557.82	59835.80
557.98	59391.09
558.15	59613.44
558.32	59625.15
558.48	59231.94
558.65	59681.32
558.81	59524.50
558.98	59662.60
559.14	59896.65
559.31	59835.80
559.47	59833.46
559.64	59992.61
559.80	59838.14
559.97	59828.77
560.13	59646.21
560.30	59718.77
560.46	59746.86
560.63	59992.61
560.79	59791.33
560.96	60093.25
561.12	59796.01
561.29	60032.40
561.45	60179.85
561.61	59884.95
561.78	59948.14
561.94	59966.87
562.11	60039.42
562.27	59983.25
562.44	60196.24
562.60	60020.70
562.77	60133.04
562.93	59891.97
563.10	59948.14
563.26	59938.78
563.42	60406.89
563.59	60264.11
563.75	60205.60
563.92	60011.34
564.08	59833.46
564.24	60224.32
564.41	60165.81
564.57	60261.77
564.74	60341.35
564.90	60252.41
565.07	60186.88
565.23	60294.54
565.39	60430.29
565.56	60526.25
565.72	60423.27
565.88	60151.77
566.05	60142.41
566.21	60196.24
566.38	60334.33
566.54	60369.44
566.70	60458.38
566.87	60416.25
567.03	60287.52
567.19	60605.83
567.36	60544.98
567.52	60210.28
567.68	60547.32
567.85	60526.25
568.01	60596.47
568.17	60388.16
568.34	60591.79
568.50	60626.90
568.66	60622.22
568.83	60495.83
568.99	60537.96
569.15	60481.78
569.32	60713.50
569.48	60437.31
569.64	60587.11
569.81	60662.00
569.97	60472.42
570.13	60603.49
570.30	60458.38
570.46	60671.37
570.62	60629.24
570.78	60636.26
570.95	60624.56
571.11	60725.20
571.27	60580.09
571.43	60722.86
571.60	60671.37
571.76	60556.68
571.92	60722.86
572.09	60690.09
572.25	60769.67
572.41	60828.18
572.57	60846.91
572.74	61064.58
572.90	60772.01
573.06	60781.37
573.22	60619.88
573.38	60704.13
573.55	60994.36
573.71	61111.39
573.87	60743.92
574.03	60727.54
574.20	60926.49
574.36	60659.66
574.52	61038.83
574.68	61001.38
574.84	60793.07
575.01	60924.14
575.17	60919.46
575.33	60886.70
575.49	60804.78
575.65	60830.52
575.82	60769.67
575.98	60779.03
576.14	61134.79
576.30	61013.08
576.46	60725.20
576.62	60900.74
576.79	60842.23
576.95	60781.37
577.11	61073.94
577.27	60933.51
577.43	60757.97
577.59	60676.05
577.75	60748.60
577.92	60788.39
578.08	60860.95
578.24	61022.45
578.40	61125.43
578.56	61013.08
578.72	60882.02
578.88	60945.21
579.04	61120.75
579.21	61078.62
579.37	61087.98
579.53	61069.26
579.69	60783.71
579.85	60818.82
580.01	61087.98
580.17	60889.04
580.33	61209.69
580.49	61230.75
580.65	61347.78
580.82	60907.76
580.98	61055.21
581.14	60954.57
581.30	61062.24
581.46	60889.04
581.62	61062.24
581.78	61055.21
581.94	61132.45
582.10	60931.17
582.26	61062.24
582.42	61029.47
582.58	61076.28
582.74	61305.65
582.90	61087.98
583.06	60884.36
583.22	60889.04
583.38	61291.61
583.54	61282.25
583.70	61165.22
583.86	61176.92
584.02	61006.06
584.18	61219.05
584.34	61228.41
584.50	61139.47
584.66	60977.98
584.82	61160.54
584.98	61080.96
585.14	61279.91
585.30	61059.90
585.46	61118.41
585.62	61120.75
585.78	61188.63
585.94	60952.23
586.10	61160.54
586.26	61034.15
586.42	61324.38
586.58	61307.99
586.74	61125.43
586.90	61076.28
587.06	61268.20
587.22	61265.86
587.38	61064.58
587.54	61375.87
587.70	61359.48
587.86	61361.82
588.02	61146.50
588.18	61277.57
588.34	61134.79
588.49	61347.78
