SpectraSuite Data File
++++++++++++++++++++++++++++++++++++
Date: Fri Oct 25 10:43:30 EDT 2013
User: price-jones
Dark Spectrum Present: No
Reference Spectrum Present: No
Number of Sampled Component Spectra: 1
Spectrometers: USB2+H05261
Integration Time (usec): 100000 (USB2+H05261)
Spectra Averaged: 1 (USB2+H05261)
Boxcar Smoothing: 0 (USB2+H05261)
Correct for Electrical Dark: No (USB2+H05261)
Strobe/Lamp Enabled: No (USB2+H05261)
Correct for Detector Non-linearity: No (USB2+H05261)
Correct for Stray Light: No (USB2+H05261)
Number of Pixels in Processed Spectrum: 2048
>>>>>Begin Processed Spectral Data<<<<<
365.73	156.82
365.92	156.82
366.12	156.82
366.32	44.47
366.52	2.34
366.72	46.81
366.91	35.11
367.11	23.41
367.31	18.72
367.51	7.02
367.70	16.38
367.90	67.88
368.10	37.45
368.30	42.13
368.49	39.79
368.69	56.17
368.89	98.30
369.09	53.83
369.28	28.09
369.48	7.02
369.68	70.22
369.87	79.58
370.07	56.17
370.27	168.52
370.47	168.52
370.66	409.59
370.86	407.25
371.06	491.51
371.25	498.53
371.45	411.93
371.65	472.79
371.84	456.40
372.04	454.06
372.24	458.74
372.44	510.24
372.63	582.79
372.83	465.77
373.03	535.98
373.22	568.75
373.42	521.94
373.62	498.53
373.81	519.60
374.01	531.30
374.21	568.75
374.40	531.30
374.60	547.69
374.79	486.83
374.99	566.41
375.19	603.86
375.38	601.52
375.58	601.52
375.78	643.65
375.97	543.00
376.17	585.13
376.37	627.26
376.56	568.75
376.76	589.82
376.95	568.75
377.15	667.05
377.35	650.67
377.54	624.92
377.74	685.78
377.93	620.24
378.13	695.14
378.33	725.57
378.52	660.03
378.72	596.84
378.91	674.07
379.11	606.20
379.31	667.05
379.50	629.60
379.70	645.99
379.89	671.73
380.09	648.33
380.28	599.18
380.48	699.82
380.68	760.67
380.87	723.23
381.07	718.54
381.26	671.73
381.46	699.82
381.65	636.63
381.85	683.44
382.04	603.86
382.24	718.54
382.43	674.07
382.63	676.41
382.83	660.03
383.02	737.27
383.22	779.40
383.41	697.48
383.61	744.29
383.80	830.89
384.00	816.85
384.19	732.59
384.39	866.00
384.58	713.86
384.78	753.65
384.97	798.12
385.17	800.46
385.36	746.63
385.56	826.21
385.75	781.74
385.95	802.80
386.14	863.66
386.34	854.30
386.53	802.80
386.72	809.83
386.92	863.66
387.11	842.59
387.31	936.21
387.50	814.51
387.70	873.02
387.89	809.83
388.09	880.04
388.28	816.85
388.48	924.51
388.67	896.43
388.86	945.58
389.06	924.51
389.25	992.39
389.45	1008.77
389.64	1022.81
389.84	861.32
390.03	910.47
390.22	1011.11
390.42	1048.56
390.61	1001.75
390.81	1004.09
391.00	1011.11
391.19	1071.97
391.39	985.37
391.58	1060.26
391.78	1055.58
391.97	1041.54
392.16	1032.18
392.36	1097.71
392.55	964.30
392.75	1015.79
392.94	1025.15
393.13	924.51
393.33	915.15
393.52	1008.77
393.71	1160.91
393.91	1137.50
394.10	1086.01
394.29	1179.63
394.49	1188.99
394.68	1125.80
394.88	1158.57
395.07	1266.23
395.26	1226.44
395.46	1205.38
395.65	1303.68
395.84	1156.22
396.04	1261.55
396.23	1165.59
396.42	1139.84
396.62	1181.97
396.81	1240.48
397.00	1231.12
397.19	1233.46
397.39	1327.08
397.58	1371.55
397.77	1294.32
397.97	1357.51
398.16	1348.15
398.35	1455.81
398.55	1390.28
398.74	1357.51
398.93	1519.01
399.12	1460.49
399.32	1549.43
399.51	1521.35
399.70	1575.18
399.90	1500.28
400.09	1551.78
400.28	1533.05
400.47	1654.76
400.67	1626.67
400.86	1600.93
401.05	1643.06
401.24	1743.70
401.44	1687.53
401.63	1699.23
401.82	1624.33
402.01	1636.03
402.21	1802.21
402.40	1739.02
402.59	1736.68
402.78	1762.42
402.97	1739.02
403.17	1792.85
403.36	1813.92
403.55	1874.77
403.74	1830.30
403.93	1760.08
404.13	1816.26
404.32	1811.57
404.51	1809.23
404.70	1900.52
404.89	1902.86
405.09	1940.30
405.28	1832.64
405.47	1973.07
405.66	2022.22
405.85	1937.96
406.05	1879.45
406.24	2113.50
406.43	2019.88
406.62	2085.42
406.81	2083.08
407.00	2062.01
407.20	2036.27
407.39	2097.12
407.58	2052.65
407.77	2186.06
407.96	2221.17
408.15	2214.15
408.34	2200.10
408.54	2277.34
408.73	2223.51
408.92	2242.23
409.11	2324.15
409.30	2356.92
409.49	2314.79
409.68	2270.32
409.87	2272.66
410.07	2317.13
410.26	2427.14
410.45	2389.69
410.64	2445.86
410.83	2415.43
411.02	2537.14
411.21	2473.95
411.40	2555.86
411.59	2546.50
411.78	2642.46
411.98	2548.84
412.17	2593.31
412.36	2609.70
412.55	2672.89
412.74	2832.05
412.93	2848.43
413.12	2679.91
413.31	2832.05
413.50	2810.98
413.69	2747.79
413.88	2874.18
414.07	2768.85
414.26	3098.87
414.45	2904.60
414.64	2993.55
414.83	3026.31
415.02	3087.17
415.22	3026.31
415.41	3014.61
415.60	3131.64
415.79	3136.32
415.98	3187.81
416.17	3246.32
416.36	3229.94
416.55	3272.07
416.74	3279.09
416.93	3258.03
417.12	3169.09
417.31	3208.87
417.50	3328.24
417.69	3363.35
417.88	3459.31
418.07	3391.44
418.26	3274.41
418.45	3265.05
418.64	3588.04
418.83	3571.66
419.02	3499.10
419.21	3620.81
419.39	3562.30
419.58	3566.98
419.77	3613.79
419.96	3651.24
420.15	3662.94
420.34	3751.88
420.53	3705.07
420.72	3695.71
420.91	3669.96
421.10	3791.67
421.29	3695.71
421.48	3707.41
421.67	3810.39
421.86	3817.41
422.05	3728.47
422.24	3665.28
422.43	3801.03
422.61	3901.67
422.80	3866.56
422.99	3772.94
423.18	3922.74
423.37	3990.61
423.56	3852.52
423.75	3899.33
423.94	3899.33
424.13	3566.98
424.32	3796.35
424.50	3915.72
424.69	3932.10
424.88	3927.42
425.07	3777.62
425.26	3880.61
425.45	3859.54
425.64	3868.91
425.83	3885.29
426.01	4154.45
426.20	4028.06
426.39	3936.78
426.58	4002.32
426.77	3934.44
426.96	4065.51
427.15	3875.93
427.33	3967.21
427.52	4016.36
427.71	4072.53
427.90	4063.17
428.09	4173.18
428.28	4037.42
428.46	4117.00
428.65	4133.39
428.84	4285.52
429.03	4280.84
429.22	4114.66
429.40	4067.85
429.59	4168.49
429.78	3831.46
429.97	3857.20
430.16	4060.83
430.34	4030.40
430.53	4119.34
430.72	4112.32
430.91	4212.96
431.10	4222.33
431.28	4374.46
431.47	4643.62
431.66	4564.04
431.85	4547.66
432.03	4643.62
432.22	4819.16
432.41	4732.56
432.60	4617.88
432.79	4566.39
432.97	4601.49
433.16	4784.06
433.35	4512.55
433.54	4624.90
433.72	4631.92
433.91	4636.60
434.10	4699.80
434.28	4760.65
434.47	4833.21
434.66	4950.23
434.85	4898.74
435.03	4873.00
435.22	4786.40
435.41	5069.60
435.59	4999.38
435.78	5116.41
435.97	5074.28
436.16	5156.20
436.34	4931.51
436.53	5069.60
436.72	5142.16
436.90	4992.36
437.09	5036.83
437.28	5025.13
437.46	5219.39
437.65	5069.60
437.84	5102.37
438.02	5163.22
438.21	5167.90
438.40	5064.92
438.58	5348.12
438.77	5547.07
438.96	5420.68
439.14	5469.83
439.33	5572.82
439.52	5516.64
439.70	5624.31
439.89	5607.92
440.08	5832.62
440.26	5741.33
440.45	5579.84
440.63	5858.36
440.82	5996.45
441.01	5802.19
441.19	5916.87
441.38	6099.44
441.57	5930.92
441.75	6146.25
441.94	6284.34
442.12	6125.18
442.31	6314.77
442.50	6260.93
442.68	6214.12
442.87	6282.00
443.05	6134.54
443.24	6373.28
443.43	6331.15
443.61	6417.75
443.80	6787.55
443.98	6324.13
444.17	6284.34
444.35	6415.41
444.54	6530.09
444.73	6441.15
444.91	6483.28
445.10	6567.54
445.28	6572.22
445.47	6366.26
445.65	6380.30
445.84	6415.41
446.02	6612.01
446.21	6403.71
446.39	6525.41
446.58	6700.95
446.77	6661.16
446.95	6597.97
447.14	6668.19
447.32	6717.34
447.51	6619.04
447.69	6729.04
447.88	6808.62
448.06	6597.97
448.25	6696.27
448.43	6801.60
448.62	6602.65
448.80	6789.89
448.99	6630.74
449.17	6867.13
449.36	6773.51
449.54	6958.41
449.73	6998.20
449.91	7030.97
450.10	7105.87
450.28	7101.19
450.46	7211.19
450.65	7293.11
450.83	7148.00
451.02	7157.36
451.20	7192.47
451.39	7243.96
451.57	7089.48
451.76	7140.97
451.94	7108.21
452.13	7243.96
452.31	7030.97
452.49	7033.31
452.68	7302.47
452.86	7360.98
453.05	7307.15
453.23	7218.21
453.42	7136.29
453.60	7157.36
453.78	7431.20
453.97	7393.75
454.15	7499.08
454.34	7330.56
454.52	7611.42
454.70	7323.54
454.89	7492.05
455.07	7386.73
455.26	7578.65
455.44	7854.84
455.62	7737.81
455.81	7555.25
455.99	7777.60
456.17	7775.26
456.36	7815.05
456.54	7960.16
456.73	7981.23
456.91	8023.36
457.09	7999.95
457.28	8336.99
457.46	8060.80
457.64	8156.77
457.83	7868.88
458.01	8049.10
458.19	8222.30
458.38	8070.17
458.56	8332.31
458.74	8362.73
458.93	8152.09
459.11	8133.36
459.29	8283.16
459.48	8334.65
459.66	8346.35
459.84	8159.11
460.03	8475.08
460.21	8432.95
460.39	8657.64
460.57	8505.51
460.76	8599.13
460.94	8627.21
461.12	8446.99
461.31	8678.71
461.49	8547.64
461.67	8470.40
461.85	8793.39
462.04	8674.03
462.22	9198.31
462.40	8709.13
462.59	8809.78
462.77	8800.41
462.95	8847.22
463.13	8922.12
463.32	8952.55
463.50	8919.78
463.68	8959.57
463.86	8950.21
464.05	8711.47
464.23	8671.68
464.41	9015.74
464.59	8936.17
464.78	9102.34
464.96	9062.55
465.14	9076.60
465.32	9296.61
465.50	9043.83
465.69	9261.50
465.87	8901.06
466.05	9193.62
466.23	9041.49
466.41	8992.34
466.60	9198.31
466.78	9125.75
466.96	9181.92
467.14	9212.35
467.32	9401.93
467.51	9380.87
467.69	9018.08
467.87	9238.09
468.05	9404.27
468.23	9430.02
468.41	9399.59
468.60	9472.15
468.78	9593.86
468.96	9507.26
469.14	9544.70
469.32	9413.63
469.50	9500.23
469.69	9612.58
469.87	9572.79
470.05	9874.72
470.23	9762.37
470.41	9804.50
470.59	9977.70
470.77	9802.16
470.95	9942.60
471.14	10178.99
471.32	9963.66
471.50	10057.28
471.68	10324.10
471.86	10195.37
472.04	10448.15
472.22	10431.77
472.40	10092.39
472.58	10354.53
472.77	10417.72
472.95	10335.81
473.13	10745.40
473.31	10473.90
473.49	10391.98
473.67	10555.82
473.85	10555.82
474.03	10829.66
474.21	10946.69
474.39	10946.69
474.57	10953.71
474.75	11162.01
474.93	11169.04
475.12	11063.71
475.30	11061.37
475.48	11150.31
475.66	11192.44
475.84	11276.70
476.02	11234.57
476.20	11412.45
476.38	11655.87
476.56	11808.00
476.74	11653.53
476.92	11737.79
477.10	11726.08
477.28	11903.96
477.46	12149.72
477.64	11964.82
477.82	12231.64
478.00	12641.23
478.18	12538.25
478.36	12437.61
478.54	12505.48
478.72	12704.43
478.90	12634.21
479.08	12957.21
479.26	13036.78
479.44	13060.19
479.62	13149.13
479.80	13282.54
479.98	13296.58
480.16	13394.89
480.34	13572.77
480.52	13912.14
480.70	13762.35
480.88	13579.79
481.06	13745.97
481.24	14003.43
481.41	14024.49
481.59	14242.16
481.77	14270.25
481.95	14356.85
482.13	14361.53
482.31	14607.28
482.49	14876.44
482.67	14878.79
482.85	14906.87
483.03	15075.39
483.21	14988.79
483.39	15473.28
483.57	15183.06
483.74	15391.36
483.92	15515.41
484.10	15372.64
484.28	15817.34
484.46	15925.00
484.64	16152.04
484.82	15887.56
485.00	15995.22
485.18	16575.67
485.35	16346.30
485.53	16128.63
485.71	16163.74
485.89	16311.19
486.07	16421.20
486.25	16325.24
486.43	16816.75
486.61	17153.79
486.78	17156.13
486.96	17177.19
487.14	17671.04
487.32	17579.76
487.50	18150.85
487.68	18019.78
487.85	18370.86
488.03	18328.74
488.21	18434.06
488.39	18064.25
488.57	18459.81
488.75	18588.53
488.92	18991.11
489.10	19101.11
489.28	19283.67
489.46	19843.06
489.64	19583.26
489.81	19864.13
489.99	19843.06
490.17	20100.52
490.35	20072.43
490.53	20245.63
490.70	20299.47
490.88	20336.91
491.06	20748.85
491.24	20510.11
491.41	20126.27
491.59	20657.57
491.77	20772.25
491.95	20760.55
492.13	21497.82
492.30	21406.54
492.48	21734.21
492.66	21841.88
492.84	21652.30
493.01	21680.38
493.19	21996.35
493.37	22012.74
493.54	22398.93
493.72	22429.35
493.90	22441.06
494.08	22597.87
494.25	22909.16
494.43	22857.67
494.61	23363.23
494.79	23424.08
494.96	23183.01
495.14	23356.21
495.32	23435.78
495.49	23110.45
495.67	23686.22
495.85	24100.50
496.02	24079.43
496.20	24252.63
496.38	24315.83
496.55	24425.83
496.73	24650.52
496.91	24486.68
497.09	24919.68
497.26	24842.45
497.44	25034.37
497.62	24819.04
497.79	24900.96
497.97	24917.34
498.14	25230.98
498.32	25301.19
498.50	25350.34
498.67	25715.47
498.85	25970.58
499.03	26157.83
499.20	25958.88
499.38	26024.42
499.56	26192.94
499.73	26244.43
499.91	26106.34
500.08	26616.57
500.26	26380.18
500.44	26682.11
500.61	26719.56
500.79	26478.48
500.97	26515.93
501.14	27023.83
501.32	26794.45
501.49	27084.68
501.67	27103.40
501.84	27040.21
502.02	27274.26
502.20	27531.72
502.37	27674.49
502.55	27407.67
502.72	27981.10
502.90	27812.59
503.07	27784.50
503.25	27747.05
503.43	27721.30
503.60	28226.86
503.78	27587.89
503.95	27992.81
504.13	28280.69
504.30	28044.30
504.48	28549.85
504.65	28599.01
504.83	29008.60
505.01	28882.21
505.18	28819.02
505.36	29050.73
505.53	28917.32
505.71	29298.83
505.88	29769.27
506.06	29017.96
506.23	29347.98
506.41	29392.45
506.58	30015.03
506.76	29467.34
506.93	29525.86
507.11	29619.48
507.28	29935.45
507.46	29958.86
507.63	29722.46
507.81	29617.14
507.98	29610.12
508.16	30096.95
508.33	30249.08
508.50	30260.79
508.68	30412.92
508.85	31063.59
509.03	30705.49
509.20	30920.82
509.38	31227.43
509.55	30656.34
509.73	30951.24
509.90	30995.71
510.08	31246.15
510.25	31381.90
510.42	31309.35
510.60	31468.50
510.77	31576.17
510.95	31599.57
511.12	31419.35
511.30	31686.17
511.47	32067.68
511.64	32362.59
511.82	32463.23
511.99	31962.36
512.17	32135.56
512.34	32266.63
512.51	32271.31
512.69	32304.07
512.86	32444.51
513.04	32458.55
513.21	32844.74
513.38	32673.88
513.56	32657.49
513.73	32577.92
513.90	32694.94
514.08	32601.32
514.25	33244.97
514.43	33097.52
514.60	32854.10
514.77	33146.67
514.95	33284.76
515.12	33186.46
515.29	33717.76
515.47	33689.67
515.64	33624.14
515.81	33738.82
515.99	33579.67
516.16	33640.52
516.33	33226.24
516.51	33865.21
516.68	33039.00
516.85	33001.55
517.03	33235.61
517.20	33783.29
517.37	33720.10
517.54	33876.91
517.72	33834.78
517.89	33743.50
518.06	33593.71
518.24	33680.31
518.41	33876.91
518.58	34359.06
518.75	34167.14
518.93	34340.34
519.10	33986.92
519.27	34754.61
519.45	34850.58
519.62	35086.97
519.79	35072.93
519.96	35079.95
520.14	35304.64
520.31	35037.82
520.48	35180.59
520.65	35328.05
520.83	35353.79
521.00	35821.90
521.17	35885.09
521.34	35548.06
521.52	35962.33
521.69	35906.16
521.86	35976.37
522.03	35679.13
522.20	36217.45
522.38	36231.49
522.55	36222.13
522.72	36233.83
522.89	35707.21
523.07	36369.58
523.24	36371.92
523.41	36458.52
523.58	35964.67
523.75	36811.95
523.92	36774.50
524.10	36914.93
524.27	37191.11
524.44	36973.44
524.61	36985.15
524.78	37090.47
524.96	37069.40
525.13	36540.44
525.30	37095.15
525.47	37385.38
525.64	37242.60
525.81	37350.27
525.98	37029.62
526.16	37006.21
526.33	36987.49
526.50	37249.63
526.67	37113.87
526.84	36842.37
527.01	37188.77
527.18	37146.64
527.36	37567.94
527.53	38085.20
527.70	38220.95
527.87	37986.89
528.04	38000.94
528.21	38146.05
528.38	38024.34
528.55	38265.42
528.72	38691.40
528.89	38810.76
529.07	38492.45
529.24	38539.26
529.41	38789.70
529.58	38080.52
529.75	38132.01
529.92	38485.43
530.09	38686.71
530.26	38595.43
530.43	39372.49
530.60	38686.71
530.77	38899.70
530.94	39501.22
531.11	38782.68
531.28	39182.91
531.46	39311.64
531.63	39611.23
531.80	39643.99
531.97	39079.92
532.14	39206.31
532.31	39304.62
532.48	38768.63
532.65	39505.90
532.82	39166.52
532.99	39578.46
533.16	38962.90
533.33	39419.30
533.50	39597.18
533.67	39473.13
533.84	40245.51
534.01	39828.90
534.18	39864.00
534.35	39976.35
534.52	39833.58
534.69	39751.66
534.86	40058.27
535.03	40034.86
535.20	40226.79
535.37	40383.60
535.54	40741.71
535.71	40453.82
535.88	40381.26
536.05	40362.54
536.22	40818.94
536.38	40217.43
536.55	40182.32
536.72	40367.22
536.89	40086.36
537.06	40325.09
537.23	40959.38
537.40	40879.80
537.57	40741.71
537.74	40966.40
537.91	41352.58
538.08	40875.12
538.25	40655.11
538.42	41181.73
538.59	41207.47
538.75	40704.26
538.92	40622.34
539.09	41441.53
539.26	41064.70
539.43	40900.86
539.60	41291.73
539.77	41216.83
539.94	40879.80
540.11	40900.86
540.28	41020.23
540.44	41258.96
540.61	41277.69
540.78	40999.16
540.95	41563.23
541.12	41504.72
541.29	41385.35
541.46	41544.51
541.62	41422.80
541.79	41940.06
541.96	41717.71
542.13	41963.46
542.30	42176.45
542.47	41918.99
542.63	41666.22
542.80	41935.38
542.97	42389.44
543.14	42330.93
543.31	42075.81
543.48	42408.17
543.64	42501.79
543.81	42501.79
543.98	42777.97
544.15	42234.97
544.32	42447.96
544.48	43199.27
544.65	42667.97
544.82	42740.52
544.99	42199.86
545.16	42520.51
545.32	42368.38
545.49	42955.85
545.66	42677.33
545.83	42937.13
546.00	42988.62
546.16	42756.91
546.33	42953.51
546.50	42396.46
546.67	43180.54
546.83	42576.69
547.00	42948.83
547.17	42532.22
547.34	42717.12
547.50	43119.69
547.67	43084.58
547.84	43318.64
548.00	43461.41
548.17	43377.15
548.34	43627.59
548.51	43550.35
548.67	43938.88
548.84	43524.60
549.01	43395.87
549.18	43419.28
549.34	43372.47
549.51	43271.82
549.68	43421.62
549.84	43761.00
550.01	43835.89
550.18	43304.59
550.34	43622.90
550.51	43775.04
550.68	43304.59
550.84	43217.99
551.01	43608.86
551.18	43613.54
551.34	43597.16
551.51	43985.69
551.68	43711.84
551.84	43910.79
552.01	43400.55
552.18	44353.15
552.34	43330.34
552.51	43927.17
552.68	43775.04
552.84	44018.46
553.01	44414.01
553.18	43821.85
553.34	44179.95
553.51	44254.85
553.67	44264.21
553.84	44657.42
554.01	44395.28
554.17	44540.39
554.34	44659.76
554.51	44037.18
554.67	44212.72
554.84	44439.75
555.00	44107.40
555.17	44287.62
555.33	44456.14
555.50	44694.87
555.67	44526.35
555.83	44692.53
556.00	44348.47
556.16	44865.73
556.33	44619.97
556.50	44009.09
556.66	44437.41
556.83	44041.86
556.99	44704.23
557.16	44435.07
557.32	44814.24
557.49	44418.69
557.65	44629.34
557.82	45158.30
557.98	44914.88
558.15	44612.95
558.32	44868.07
558.48	44378.90
558.65	44608.27
558.81	44538.05
558.98	44346.13
559.14	44463.16
559.31	44727.64
559.47	45415.76
559.64	44935.95
559.80	44772.11
559.97	45141.91
560.13	44575.50
560.30	44830.62
560.46	44982.76
560.63	45280.00
560.79	45109.14
560.96	44849.35
561.12	44886.79
561.29	45177.02
561.45	45015.52
561.61	44903.18
561.78	45113.83
561.94	45034.25
562.11	44844.66
562.27	44875.09
562.44	44898.50
562.60	45560.87
562.77	45350.22
562.93	45191.06
563.10	45450.86
563.26	45109.14
563.42	45305.75
563.59	45265.96
563.75	45228.51
563.92	45581.93
564.08	45315.11
564.24	45652.15
564.41	45598.32
564.57	45146.59
564.74	45137.23
564.90	45223.83
565.07	45146.59
565.23	45525.76
565.39	45736.41
565.56	45277.66
565.72	45010.84
565.88	44935.95
566.05	45265.96
566.21	45055.31
566.38	45214.47
566.54	45226.17
566.70	45825.35
566.87	45769.18
567.03	45748.11
567.19	45778.54
567.36	45839.39
567.52	45478.95
567.68	45485.97
567.85	45319.79
568.01	45741.09
568.17	45806.62
568.34	45652.15
568.50	45656.83
568.66	45668.53
568.83	45485.97
568.99	44968.71
569.15	45359.58
569.32	45251.92
569.48	45429.80
569.64	45579.59
569.81	45443.84
569.97	45595.98
570.13	45624.06
570.30	45186.38
570.46	45137.23
570.62	45291.71
570.78	44924.24
570.95	45205.11
571.11	45523.42
571.27	45010.84
571.43	45654.49
571.60	45673.21
571.76	45638.11
571.92	45511.72
572.09	45787.90
572.25	45673.21
572.41	45497.67
572.57	45743.43
572.74	46206.86
572.90	45958.76
573.06	45911.95
573.22	45677.90
573.38	45879.18
573.55	45572.57
573.71	45525.76
573.87	45715.34
574.03	45572.57
574.20	45794.92
574.36	45799.60
574.52	46028.98
574.68	45680.24
574.84	45418.10
575.01	45675.55
575.17	45666.19
575.33	45654.49
575.49	45509.38
575.65	45869.82
575.82	46178.77
575.98	45612.36
576.14	45958.76
576.30	45411.07
576.46	46052.38
576.62	46019.61
576.79	45581.93
576.95	45139.57
577.11	45984.51
577.27	45862.80
577.43	45823.01
577.59	45823.01
577.75	45598.32
577.92	45312.77
578.08	45600.66
578.24	45228.51
578.40	45268.30
578.56	45673.21
578.72	45574.91
578.88	46178.77
579.04	45696.62
579.21	45532.78
579.37	45574.91
579.53	45823.01
579.69	45649.81
579.85	45593.64
580.01	45862.80
580.17	45991.53
580.33	45759.81
580.49	46066.42
580.65	45656.83
580.82	45804.28
580.98	45876.84
581.14	45771.52
581.30	46066.42
581.46	45727.05
581.62	45673.21
581.78	45766.84
581.94	45972.80
582.10	45865.14
582.26	45972.80
582.42	45907.27
582.58	45963.44
582.74	45521.08
582.90	45708.32
583.06	45738.75
583.22	45893.22
583.38	45762.15
583.54	45860.46
583.70	46012.59
583.86	46192.81
584.02	45928.33
584.18	45682.58
584.34	45879.18
584.50	45762.15
584.66	45839.39
584.82	45675.55
584.98	46028.98
585.14	45951.74
585.30	45811.31
585.46	45965.78
585.62	45720.02
585.78	46043.02
585.94	45614.70
586.10	45593.64
586.26	45565.55
586.42	45977.48
586.58	45792.58
586.74	45876.84
586.90	45748.11
587.06	45595.98
587.22	45539.80
587.38	45853.44
587.54	45879.18
587.70	46050.04
587.86	46113.23
588.02	45942.38
588.18	46328.56
588.34	45741.09
588.49	45361.92
588.65	45230.85
588.81	45319.79
588.97	45467.25
589.13	45361.92
589.29	45029.57
589.45	45731.73
589.61	45865.14
589.77	45951.74
589.93	46171.75
