SpectraSuite Data File
++++++++++++++++++++++++++++++++++++
Date: Fri Oct 25 10:43:50 EDT 2013
User: price-jones
Dark Spectrum Present: No
Reference Spectrum Present: No
Number of Sampled Component Spectra: 1
Spectrometers: USB2+H05261
Integration Time (usec): 100000 (USB2+H05261)
Spectra Averaged: 1 (USB2+H05261)
Boxcar Smoothing: 0 (USB2+H05261)
Correct for Electrical Dark: No (USB2+H05261)
Strobe/Lamp Enabled: No (USB2+H05261)
Correct for Detector Non-linearity: No (USB2+H05261)
Correct for Stray Light: No (USB2+H05261)
Number of Pixels in Processed Spectrum: 2048
>>>>>Begin Processed Spectral Data<<<<<
365.73	81.92
365.92	81.92
366.12	81.92
366.32	42.13
366.52	58.51
366.72	0.00
366.91	21.06
367.11	0.00
367.31	0.00
367.51	110.01
367.70	7.02
367.90	72.56
368.10	9.36
368.30	37.45
368.49	0.00
368.69	39.79
368.89	65.54
369.09	14.04
369.28	32.77
369.48	63.19
369.68	39.79
369.87	88.94
370.07	126.39
370.27	105.32
370.47	142.77
370.66	318.31
370.86	416.62
371.06	423.64
371.25	498.53
371.45	463.43
371.65	550.03
371.84	402.57
372.04	468.11
372.24	451.72
372.44	447.04
372.63	575.77
372.83	500.87
373.03	458.74
373.22	521.94
373.42	468.11
373.62	491.51
373.81	599.18
374.01	589.82
374.21	503.22
374.40	535.98
374.60	538.32
374.79	552.37
374.99	552.37
375.19	580.45
375.38	653.01
375.58	716.20
375.78	608.54
375.97	559.39
376.17	650.67
376.37	582.79
376.56	613.22
376.76	582.79
376.95	519.60
377.15	624.92
377.35	662.37
377.54	620.24
377.74	634.29
377.93	671.73
378.13	706.84
378.33	622.58
378.52	571.09
378.72	578.11
378.91	702.16
379.11	702.16
379.31	603.86
379.50	643.65
379.70	727.91
379.89	774.72
380.09	667.05
380.28	638.97
380.48	695.14
380.68	690.46
380.87	683.44
381.07	678.76
381.26	734.93
381.46	669.39
381.65	751.31
381.85	711.52
382.04	711.52
382.24	718.54
382.43	751.31
382.63	667.05
382.83	748.97
383.02	695.14
383.22	737.27
383.41	697.48
383.61	760.67
383.80	767.70
384.00	739.61
384.19	814.51
384.39	830.89
384.58	807.48
384.78	802.80
384.97	858.98
385.17	816.85
385.36	739.61
385.56	758.33
385.75	802.80
385.95	781.74
386.14	763.01
386.34	858.98
386.53	870.68
386.72	821.53
386.92	784.08
387.11	851.96
387.31	835.57
387.50	833.23
387.70	830.89
387.89	891.74
388.09	858.98
388.28	884.72
388.48	884.72
388.67	793.44
388.86	903.45
389.06	985.37
389.25	936.21
389.45	968.98
389.64	1043.88
389.84	1025.15
390.03	992.39
390.22	1036.86
390.42	919.83
390.61	1004.09
390.81	1029.84
391.00	1130.48
391.19	1055.58
391.39	1027.50
391.58	1207.72
391.78	1039.20
391.97	1048.56
392.16	1060.26
392.36	1036.86
392.55	1123.46
392.75	1050.90
392.94	945.58
393.13	936.21
393.33	999.41
393.52	1015.79
393.71	1062.60
393.91	1069.62
394.10	1144.52
394.29	1118.78
394.49	1196.01
394.68	1221.76
394.88	1177.29
395.07	1280.27
395.26	1259.21
395.46	1212.40
395.65	1245.16
395.84	1191.33
396.04	1270.91
396.23	1132.82
396.42	1174.95
396.62	1146.86
396.81	1144.52
397.00	1170.27
397.19	1275.59
397.39	1256.87
397.58	1334.11
397.77	1387.94
397.97	1420.71
398.16	1401.98
398.35	1497.94
398.55	1446.45
398.74	1355.17
398.93	1528.37
399.12	1432.41
399.32	1514.33
399.51	1460.49
399.70	1537.73
399.90	1544.75
400.09	1614.97
400.28	1586.88
400.47	1589.22
400.67	1748.38
400.86	1614.97
401.05	1612.63
401.24	1675.82
401.44	1734.34
401.63	1664.12
401.82	1678.16
402.01	1575.18
402.21	1650.08
402.40	1806.89
402.59	1504.96
402.78	1743.70
402.97	1867.75
403.17	1760.08
403.36	1776.47
403.55	1851.36
403.74	1921.58
403.93	1799.87
404.13	1863.07
404.32	1802.21
404.51	1947.33
404.70	1984.77
404.89	1891.15
405.09	2057.33
405.28	1970.73
405.47	1961.37
405.66	1930.94
405.85	1994.14
406.05	1928.60
406.24	1987.11
406.43	2017.54
406.62	2167.34
406.81	2040.95
407.00	1961.37
407.20	2080.74
407.39	2139.25
407.58	2165.00
407.77	2209.47
407.96	2272.66
408.15	2136.91
408.34	2223.51
408.54	2272.66
408.73	2230.53
408.92	2263.30
409.11	2284.36
409.30	2368.62
409.49	2335.85
409.68	2244.57
409.87	2207.13
410.07	2368.62
410.26	2314.79
410.45	2260.96
410.64	2408.41
410.83	2455.22
411.02	2513.74
411.21	2555.86
411.40	2530.12
411.59	2551.18
411.78	2597.99
411.98	2663.53
412.17	2712.68
412.36	2686.94
412.55	2757.15
412.74	2782.90
412.93	2717.36
413.12	2672.89
413.31	2892.90
413.50	2932.69
413.69	2874.18
413.88	2932.69
414.07	2853.11
414.26	2930.35
414.45	2965.46
414.64	2930.35
414.83	3108.23
415.02	3066.10
415.22	3000.57
415.41	3105.89
415.60	3199.51
415.79	3201.85
415.98	3272.07
416.17	3148.02
416.36	3143.34
416.55	3309.52
416.74	3290.79
416.93	3215.90
417.12	3213.56
417.31	3353.99
417.50	3332.92
417.69	3368.03
417.88	3461.65
418.07	3414.84
418.26	3529.53
418.45	3550.59
418.64	3644.21
418.83	3606.77
419.02	3609.11
419.21	3531.87
419.39	3660.60
419.58	3630.17
419.77	3632.51
419.96	3639.53
420.15	3585.70
420.34	3630.17
420.53	3618.47
420.72	3733.15
420.91	3667.62
421.10	3929.76
421.29	3974.23
421.48	3758.90
421.67	3885.29
421.86	3751.88
422.05	3896.99
422.24	3864.22
422.43	3740.18
422.61	3777.62
422.80	3824.44
422.99	3946.14
423.18	3955.51
423.37	4053.81
423.56	3850.18
423.75	3925.08
423.94	3908.69
424.13	3651.24
424.32	3751.88
424.50	3885.29
424.69	4009.34
424.88	4007.00
425.07	3882.95
425.26	3815.07
425.45	3927.42
425.64	3960.19
425.83	4030.40
426.01	4117.00
426.20	3899.33
426.39	4023.38
426.58	3981.25
426.77	3983.59
426.96	3976.57
427.15	4046.79
427.33	4222.33
427.52	4187.22
427.71	4175.52
427.90	4128.70
428.09	4135.73
428.28	4084.23
428.46	4138.07
428.65	4147.43
428.84	4346.37
429.03	4152.11
429.22	3992.95
429.40	4205.94
429.59	4180.20
429.78	3985.93
429.97	3936.78
430.16	4042.11
430.34	4126.36
430.53	4177.86
430.72	4234.03
430.91	4231.69
431.10	4348.72
431.28	4540.64
431.47	4519.57
431.66	4667.03
431.85	4517.23
432.03	4643.62
432.22	4645.96
432.41	4608.51
432.60	4692.77
432.79	4741.93
432.97	4865.97
433.16	4809.80
433.35	4669.37
433.54	4671.71
433.72	4517.23
433.91	4711.50
434.10	4826.18
434.28	4713.84
434.47	4861.29
434.66	4826.18
434.85	4823.84
435.03	4896.40
435.22	4994.70
435.41	5041.51
435.59	5114.07
435.78	5125.77
435.97	5104.71
436.16	5001.72
436.34	5158.54
436.53	5132.79
436.72	5221.74
436.90	5039.17
437.09	5142.16
437.28	5083.64
437.46	5104.71
437.65	5006.41
437.84	5137.48
438.02	5130.45
438.21	5294.29
438.40	5083.64
438.58	5502.60
438.77	5547.07
438.96	5406.64
439.14	5586.86
439.33	5432.38
439.52	5593.88
439.70	5771.76
439.89	5736.65
440.08	5762.40
440.26	5748.36
440.45	5621.97
440.63	5736.65
440.82	5947.30
441.01	5797.51
441.19	5895.81
441.38	6132.20
441.57	6024.54
441.75	6225.82
441.94	6054.97
442.12	6195.40
442.31	6363.92
442.50	6274.98
442.68	6195.40
442.87	6228.17
443.05	6345.19
443.24	6410.73
443.43	6506.69
443.61	6553.50
443.80	6525.41
443.98	6373.28
444.17	6132.20
444.35	6382.64
444.54	6457.54
444.73	6452.86
444.91	6637.76
445.10	6455.20
445.28	6499.67
445.47	6450.52
445.65	6342.85
445.84	6485.62
446.02	6576.91
446.21	6511.37
446.39	6726.70
446.58	6597.97
446.77	6700.95
446.95	6413.07
447.14	6670.53
447.32	6787.55
447.51	6499.67
447.69	6569.88
447.88	6604.99
448.06	6888.20
448.25	6644.78
448.43	6693.93
448.62	6635.42
448.80	6637.76
448.99	6782.87
449.17	6827.34
449.36	6647.12
449.54	7005.22
449.73	7016.93
449.91	7157.36
450.10	6993.52
450.28	7122.25
450.46	7054.37
450.65	7061.40
450.83	7115.23
451.02	7140.97
451.20	7171.40
451.39	7309.49
451.57	7288.43
451.76	7236.94
451.94	7215.87
452.13	7089.48
452.31	7300.13
452.49	7227.57
452.68	7098.84
452.86	7159.70
453.05	7105.87
453.23	7236.94
453.42	7316.51
453.60	7314.17
453.78	7344.60
453.97	7325.88
454.15	7403.11
454.34	7194.81
454.52	7510.78
454.70	7405.46
454.89	7681.64
455.07	7531.84
455.26	7613.76
455.44	7658.23
455.62	7637.17
455.81	7868.88
455.99	7719.09
456.17	7819.73
456.36	7971.86
456.54	7850.16
456.73	7960.16
456.91	8072.51
457.09	8166.13
457.28	8241.03
457.46	8114.64
457.64	8065.49
457.83	8107.62
458.01	8046.76
458.19	8383.80
458.38	8175.49
458.56	8133.36
458.74	8252.73
458.93	8280.82
459.11	8339.33
459.29	8257.41
459.48	8294.86
459.66	8439.97
459.84	8241.03
460.03	8500.83
460.21	8444.65
460.39	8395.50
460.57	8500.83
460.76	8465.72
460.94	8706.79
461.12	8477.42
461.31	8746.58
461.49	8573.38
461.67	8767.65
461.85	8894.04
462.04	8674.03
462.22	8933.82
462.40	8957.23
462.59	8774.67
462.77	8903.40
462.95	8938.51
463.13	8809.78
463.32	8842.54
463.50	8837.86
463.68	8961.91
463.86	8854.25
464.05	8889.35
464.23	8999.36
464.41	8973.61
464.59	8884.67
464.78	9385.55
464.96	9188.94
465.14	8936.17
465.32	9275.54
465.50	9163.20
465.69	9277.88
465.87	9273.20
466.05	9210.01
466.23	9039.15
466.41	9352.78
466.60	9425.34
466.78	9298.95
466.96	9345.76
467.14	9301.29
467.32	9249.80
467.51	9603.22
467.69	9322.35
467.87	9235.75
468.05	9448.74
468.23	9263.84
468.41	9430.02
468.60	9411.29
468.78	9666.41
468.96	9327.03
469.14	9650.03
469.32	9666.41
469.50	9488.53
469.69	9575.13
469.87	9874.72
470.05	9846.63
470.23	9851.31
470.41	9951.96
470.59	9977.70
470.77	9968.34
470.95	9755.35
471.14	10054.94
471.32	9930.89
471.50	10181.33
471.68	10380.28
471.86	10270.27
472.04	10267.93
472.22	10714.97
472.40	10211.76
472.58	10391.98
472.77	10345.17
472.95	10518.37
473.13	10927.96
473.31	10387.30
473.49	10586.24
473.67	10619.01
473.85	10637.73
474.03	10944.34
474.21	10981.79
474.39	10895.19
474.57	11112.86
474.75	10965.41
474.93	10963.07
475.12	11194.78
475.30	11267.34
475.48	11197.12
475.66	11545.86
475.84	11316.49
476.02	11304.79
476.20	11470.97
476.38	11808.00
476.56	11538.84
476.74	11700.34
476.92	11864.18
477.10	11819.71
477.28	12067.80
477.46	11936.73
477.64	11997.59
477.82	12379.09
478.00	12603.78
478.18	12173.13
478.36	12393.14
478.54	12795.71
478.72	12769.96
478.90	13011.04
479.08	13198.28
479.26	13341.05
479.44	12931.46
479.62	13458.08
479.80	13214.66
479.98	13364.46
480.16	13685.11
480.34	13493.19
480.52	13715.54
480.70	13813.84
480.88	13565.74
481.06	13914.48
481.24	13855.97
481.41	14342.80
481.59	14244.50
481.77	14429.40
481.95	14523.02
482.13	14588.56
482.31	14560.47
482.49	14728.99
482.67	14878.79
482.85	15197.10
483.03	15300.08
483.21	15300.08
483.39	15576.27
483.57	15264.97
483.74	15318.81
483.92	15419.45
484.10	15597.33
484.28	16098.20
484.46	15861.81
484.64	16058.42
484.82	16121.61
485.00	16236.30
485.18	16704.40
485.35	16308.85
485.53	15976.50
485.71	16322.90
485.89	16458.65
486.07	16582.70
486.25	16781.64
486.43	17081.23
486.61	17144.42
486.78	17233.36
486.96	17315.28
487.14	17961.27
487.32	17919.14
487.50	17937.87
487.68	18080.64
487.85	17902.76
488.03	18380.23
488.21	18670.45
488.39	18403.63
488.57	18546.40
488.75	18698.54
488.92	19000.47
489.10	19232.18
489.28	19744.76
489.46	19805.61
489.64	19658.16
489.81	20189.46
489.99	19990.52
490.17	20133.29
490.35	20039.67
490.53	20746.51
490.70	20432.88
490.88	20123.93
491.06	20723.10
491.24	20889.28
491.41	20713.74
491.59	20613.10
491.77	20594.37
491.95	20999.29
492.13	21420.58
492.30	21638.25
492.48	21696.77
492.66	21888.69
492.84	21497.82
493.01	21675.70
493.19	22237.43
493.37	21781.03
493.54	22298.28
493.72	22944.27
493.90	23056.62
494.08	22766.39
494.25	22974.70
494.43	23494.30
494.61	22920.87
494.79	23372.59
494.96	23285.99
495.14	23274.29
495.32	23482.59
495.49	23655.79
495.67	23733.03
495.85	24191.78
496.02	24121.56
496.20	24414.13
496.38	24137.94
496.55	24486.68
496.73	25020.33
496.91	24966.49
497.09	24694.99
497.26	24833.08
497.44	24807.34
497.62	25027.35
497.79	25277.79
497.97	25282.47
498.14	25511.84
498.32	25673.34
498.50	25624.18
498.67	25738.87
498.85	25633.55
499.03	26415.29
499.20	26017.40
499.38	26426.99
499.56	26363.79
499.73	26574.44
499.91	26345.07
500.08	26448.05
500.26	26272.51
500.44	26419.97
500.61	27035.53
500.79	26843.60
500.97	26623.59
501.14	27402.99
501.32	27119.79
501.49	26937.23
501.67	27101.06
501.84	27253.20
502.02	27686.20
502.20	27850.03
502.37	27662.79
502.55	27630.02
502.72	27770.46
502.90	28252.61
503.07	27924.93
503.25	28102.81
503.43	28004.51
503.60	27943.66
503.78	28098.13
503.95	28070.04
504.13	28528.79
504.30	28470.28
504.48	28570.92
504.65	28613.05
504.83	29324.57
505.01	29099.88
505.18	28910.30
505.36	29256.70
505.53	29317.55
505.71	29668.63
505.88	29362.02
506.06	29202.86
506.23	29963.54
506.41	29788.00
506.58	29797.36
506.76	29886.30
506.93	30134.40
507.11	30047.80
507.28	29905.02
507.46	29811.40
507.63	29647.57
507.81	30466.75
507.98	30230.36
508.16	30335.68
508.33	30347.39
508.50	30431.65
508.68	30979.33
508.85	31124.44
509.03	30979.33
509.20	30703.15
509.38	31271.90
509.55	31103.38
509.73	31447.44
509.90	31269.56
510.08	30904.43
510.25	31592.55
510.42	31754.05
510.60	31943.63
510.77	32030.23
510.95	32137.90
511.12	31665.11
511.30	31796.18
511.47	32430.46
511.64	32751.12
511.82	32273.65
511.99	31885.12
512.17	32711.33
512.34	32620.05
512.51	32348.54
512.69	32802.61
512.86	32470.25
513.04	32968.79
513.21	33113.90
513.38	32842.40
513.56	32762.82
513.73	32425.78
513.90	32978.15
514.08	33017.94
514.25	33198.16
514.43	33024.96
514.60	32959.42
514.77	33399.44
514.95	33591.37
515.12	33357.32
515.29	33694.35
515.47	33837.12
515.64	34007.98
515.81	33518.81
515.99	33900.32
516.16	33745.84
516.33	34129.69
516.51	33516.47
516.68	33387.74
516.85	33347.95
517.03	33436.89
517.20	33905.00
517.37	33778.61
517.54	34546.31
517.72	34129.69
517.89	33876.91
518.06	33855.85
518.24	33949.47
518.41	34249.06
518.58	34625.89
518.75	34370.77
518.93	34710.14
519.10	34546.31
519.27	34466.73
519.45	34916.11
519.62	35187.61
519.79	35325.71
519.96	35414.65
520.14	35627.63
520.31	34822.49
520.48	35515.29
520.65	35529.33
520.83	35807.86
521.00	35924.88
521.17	35573.80
521.34	35526.99
521.52	36453.84
521.69	35983.40
521.86	36210.43
522.03	36119.15
522.20	36084.04
522.38	36006.80
522.55	36322.77
522.72	36191.70
522.89	36392.99
523.07	36423.42
523.24	36706.62
523.41	36746.41
523.58	36788.54
523.75	37055.36
523.92	37350.27
524.10	37413.46
524.27	37024.93
524.44	37127.92
524.61	37745.82
524.78	37694.33
524.96	37097.49
525.13	37415.80
525.30	37607.73
525.47	37546.87
525.64	38059.45
525.81	37511.77
525.98	37647.52
526.16	37209.84
526.33	36659.81
526.50	37610.07
526.67	37226.22
526.84	37383.04
527.01	37158.34
527.18	37591.34
527.36	37727.10
527.53	37993.92
527.70	38377.76
527.87	38307.55
528.04	38307.55
528.21	38279.46
528.38	38473.73
528.55	38878.64
528.72	38639.90
528.89	39178.23
529.07	38878.64
529.24	38298.19
529.41	38361.38
529.58	38295.85
529.75	38883.32
529.92	38705.44
530.09	39042.48
530.26	38820.13
530.43	39047.16
530.60	39168.87
530.77	39110.35
530.94	39821.87
531.11	39229.72
531.28	39395.90
531.46	39510.58
531.63	40095.72
531.80	39372.49
531.97	39569.10
532.14	39702.51
532.31	39145.46
532.48	39697.83
532.65	39571.44
532.82	39126.74
532.99	39938.90
533.16	39501.22
533.33	40144.87
533.50	40009.12
533.67	39702.51
533.84	39349.09
534.01	40062.95
534.18	39873.37
534.35	40493.61
534.52	39934.22
534.69	40025.50
534.86	40849.37
535.03	40669.15
535.20	40882.14
535.37	40704.26
535.54	40507.65
535.71	40325.09
535.88	40760.43
536.05	40776.81
536.22	40804.90
536.38	40669.15
536.55	40919.59
536.72	40458.50
536.89	40563.82
537.06	40711.28
537.23	41116.19
537.40	40739.36
537.57	41247.26
537.74	41106.83
537.91	41165.34
538.08	41228.54
538.25	40451.48
538.42	41153.64
538.59	41680.26
538.75	40898.52
538.92	40940.65
539.09	41598.34
539.26	41069.38
539.43	41600.68
539.60	41553.87
539.77	41303.43
539.94	41404.08
540.11	41411.10
540.28	41757.50
540.44	41434.50
540.61	41893.25
540.78	41448.55
540.95	41127.89
541.12	41315.14
541.29	41825.37
541.46	41766.86
541.62	41947.08
541.79	42089.85
541.96	41474.29
542.13	42131.98
542.30	41680.26
542.47	42349.65
542.63	41677.92
542.80	42068.79
542.97	42384.76
543.14	42845.85
543.31	42543.92
543.48	42499.45
543.64	43325.66
543.81	42932.45
543.98	42958.19
544.15	42670.31
544.32	42682.01
544.48	43313.95
544.65	43016.71
544.82	43028.41
544.99	42667.97
545.16	42988.62
545.32	42508.81
545.49	43351.40
545.66	43309.27
545.83	43220.33
546.00	43449.70
546.16	43159.48
546.33	43171.18
546.50	42784.99
546.67	43082.24
546.83	42960.53
547.00	43295.23
547.17	43608.86
547.34	43115.01
547.50	43023.73
547.67	43555.03
547.84	43126.71
548.00	43255.44
548.17	43548.01
548.34	43428.64
548.51	43711.84
548.67	43590.14
548.84	43508.22
549.01	43662.69
549.18	43807.81
549.34	43381.83
549.51	44194.00
549.68	43997.39
549.84	43863.98
550.01	44030.16
550.18	44137.82
550.34	43786.74
550.51	43732.91
550.68	44058.24
550.84	43339.70
551.01	43604.18
551.18	44020.80
551.34	43854.62
551.51	44137.82
551.68	44222.08
551.84	44165.91
552.01	44226.76
552.18	44151.87
552.34	43548.01
552.51	44458.48
552.68	44210.38
552.84	44739.34
553.01	44318.04
553.18	44406.98
553.34	44165.91
553.51	44341.45
553.67	44643.38
553.84	45008.50
554.01	44793.17
554.17	44648.06
554.34	44615.29
554.51	44905.52
554.67	44898.50
554.84	44786.15
555.00	44519.33
555.17	44449.11
555.33	44411.67
555.50	44701.89
555.67	44659.76
555.83	44765.09
556.00	44839.98
556.16	45013.18
556.33	45038.93
556.50	44793.17
556.66	44465.50
556.83	44622.31
556.99	44629.34
557.16	44912.54
557.32	45324.47
557.49	44914.88
557.65	45214.47
557.82	45057.65
557.98	45195.74
558.15	44919.56
558.32	44982.76
558.48	44580.18
558.65	44769.77
558.81	45017.86
558.98	44655.08
559.14	44912.54
559.31	44765.09
559.47	45586.61
559.64	45469.59
559.80	45069.36
559.97	45184.04
560.13	45228.51
560.30	45212.13
560.46	45116.17
560.63	45045.95
560.79	45804.28
560.96	45827.69
561.12	45422.78
561.29	45453.20
561.45	45305.75
561.61	45209.79
561.78	45277.66
561.94	45172.34
562.11	45158.30
562.27	45422.78
562.44	45640.45
562.60	45713.00
562.77	45862.80
562.93	45368.94
563.10	46031.32
563.26	45357.24
563.42	45612.36
563.59	45516.40
563.75	45425.12
563.92	45532.78
564.08	46003.23
564.24	45668.53
564.41	45748.11
564.57	45743.43
564.74	45387.67
564.90	45488.31
565.07	45776.20
565.23	45949.40
565.39	45741.09
565.56	45661.51
565.72	44896.16
565.88	45794.92
566.05	45312.77
566.21	45518.74
566.38	45792.58
566.54	46047.70
566.70	45759.81
566.87	46064.08
567.03	45818.33
567.19	46511.13
567.36	46354.31
567.52	45511.72
567.68	45792.58
567.85	45586.61
568.01	46202.18
568.17	45581.93
568.34	45773.86
568.50	45677.90
568.66	45958.76
568.83	45886.20
568.99	45436.82
569.15	45701.30
569.32	45701.30
569.48	45523.42
569.64	45790.24
569.81	45979.82
569.97	45677.90
570.13	45804.28
570.30	45226.17
570.46	45509.38
570.62	45326.81
570.78	45797.26
570.95	45052.97
571.11	45855.78
571.27	45560.87
571.43	45523.42
571.60	45991.53
571.76	46337.93
571.92	45867.48
572.09	45970.46
572.25	45794.92
572.41	45937.69
572.57	46227.92
572.74	46068.76
572.90	46307.50
573.06	45834.71
573.22	45876.84
573.38	46094.51
573.55	45570.23
573.71	46052.38
573.87	46167.07
574.03	46036.00
574.20	46057.06
574.36	46014.93
574.52	46146.00
574.68	46131.96
574.84	46117.92
575.01	46108.55
575.17	45916.63
575.33	45727.05
575.49	45937.69
575.65	46162.39
575.82	46155.36
575.98	45516.40
576.14	46218.56
576.30	46604.75
576.46	46241.96
576.62	45961.10
576.79	45837.05
576.95	45565.55
577.11	45900.25
577.27	46422.19
577.43	45565.55
577.59	46110.89
577.75	45893.22
577.92	45935.35
578.08	46059.40
578.24	45593.64
578.40	45713.00
578.56	46401.12
578.72	46000.89
578.88	46146.00
579.04	46291.12
579.21	45846.41
579.37	45944.72
579.53	46188.13
579.69	46026.63
579.85	45928.33
580.01	46326.22
580.17	46401.12
580.33	46115.58
580.49	45883.86
580.65	45925.99
580.82	46232.60
580.98	46227.92
581.14	45764.49
581.30	46241.96
581.46	46068.76
581.62	46127.28
581.78	45729.39
581.94	46408.14
582.10	46227.92
582.26	46241.96
582.42	45975.14
582.58	46202.18
582.74	46043.02
582.90	46288.77
583.06	46410.48
583.22	46646.88
583.38	46389.42
583.54	46710.07
583.70	46099.19
583.86	46354.31
584.02	46082.81
584.18	46810.71
584.34	45663.85
584.50	46106.21
584.66	46047.70
584.82	46124.94
584.98	46007.91
585.14	46553.26
585.30	46342.61
585.46	46148.34
585.62	45823.01
585.78	45801.94
585.94	45792.58
586.10	46057.06
586.26	45846.41
586.42	46330.90
586.58	46656.24
586.74	46164.73
586.90	45841.73
587.06	45682.58
587.22	46103.87
587.38	46085.15
587.54	45951.74
587.70	46143.66
587.86	46021.95
588.02	46146.00
588.18	46248.99
588.34	45993.87
588.49	45659.17
588.65	45645.13
588.81	45982.16
588.97	45790.24
589.13	45766.84
589.29	45970.46
589.45	46117.92
589.61	46031.32
589.77	46057.06
589.93	46171.75
590.08	46307.50
