SpectraSuite Data File
++++++++++++++++++++++++++++++++++++
Date: Fri Oct 25 11:22:41 EDT 2013
User: price-jones
Dark Spectrum Present: No
Reference Spectrum Present: No
Number of Sampled Component Spectra: 1
Spectrometers: USB2+H05261
Integration Time (usec): 100000 (USB2+H05261)
Spectra Averaged: 1 (USB2+H05261)
Boxcar Smoothing: 0 (USB2+H05261)
Correct for Electrical Dark: No (USB2+H05261)
Strobe/Lamp Enabled: No (USB2+H05261)
Correct for Detector Non-linearity: No (USB2+H05261)
Correct for Stray Light: No (USB2+H05261)
Number of Pixels in Processed Spectrum: 2048
>>>>>Begin Processed Spectral Data<<<<<
365.73	259.80
365.92	259.80
366.12	259.80
366.32	126.39
366.52	142.77
366.72	140.43
366.91	117.03
367.11	159.16
367.31	42.13
367.51	128.73
367.70	117.03
367.90	112.35
368.10	60.85
368.30	142.77
368.49	84.26
368.69	121.71
368.89	112.35
369.09	114.69
369.28	198.95
369.48	177.88
369.68	210.65
369.87	191.92
370.07	238.73
370.27	290.23
370.47	339.38
370.66	533.64
370.86	596.84
371.06	711.52
371.25	725.57
371.45	713.86
371.65	655.35
371.84	631.94
372.04	657.69
372.24	720.88
372.44	645.99
372.63	727.91
372.83	767.70
373.03	772.38
373.22	699.82
373.42	737.27
373.62	781.74
373.81	774.72
374.01	868.34
374.21	805.14
374.40	781.74
374.60	779.40
374.79	812.17
374.99	758.33
375.19	821.53
375.38	758.33
375.58	767.70
375.78	903.45
375.97	802.80
376.17	875.36
376.37	866.00
376.56	807.48
376.76	891.74
376.95	889.40
377.15	877.70
377.35	819.19
377.54	884.72
377.74	863.66
377.93	847.27
378.13	950.26
378.33	1022.81
378.52	976.00
378.72	908.13
378.91	964.30
379.11	919.83
379.31	1001.75
379.50	943.24
379.70	1029.84
379.89	1022.81
380.09	924.51
380.28	978.34
380.48	966.64
380.68	1055.58
380.87	936.21
381.07	1020.47
381.26	945.58
381.46	997.07
381.65	1036.86
381.85	994.73
382.04	1062.60
382.24	1053.24
382.43	1076.65
382.63	1170.27
382.83	1011.11
383.02	1074.31
383.22	1104.73
383.41	1053.24
383.61	1118.78
383.80	1198.35
384.00	1167.93
384.19	1114.10
384.39	1062.60
384.58	1090.69
384.78	1132.82
384.97	1158.57
385.17	1118.78
385.36	1181.97
385.56	1210.06
385.75	1289.64
385.95	1130.48
386.14	1149.20
386.34	1200.69
386.53	1205.38
386.72	1235.80
386.92	1233.46
387.11	1224.10
387.31	1266.23
387.50	1277.93
387.70	1235.80
387.89	1240.48
388.09	1275.59
388.28	1242.82
388.48	1233.46
388.67	1380.92
388.86	1277.93
389.06	1275.59
389.25	1378.58
389.45	1313.04
389.64	1315.38
389.84	1451.13
390.03	1366.87
390.22	1420.71
390.42	1394.96
390.61	1411.34
390.81	1324.74
391.00	1378.58
391.19	1432.41
391.39	1446.45
391.58	1504.96
391.78	1439.43
391.97	1488.58
392.16	1387.94
392.36	1516.67
392.55	1533.05
392.75	1481.56
392.94	1451.13
393.13	1582.20
393.33	1488.58
393.52	1528.37
393.71	1617.31
393.91	1565.82
394.10	1591.56
394.29	1664.12
394.49	1530.71
394.68	1708.59
394.88	1514.33
395.07	1624.33
395.26	1685.19
395.46	1650.08
395.65	1767.10
395.84	1577.52
396.04	1795.19
396.23	1701.57
396.42	1802.21
396.62	1769.44
396.81	1816.26
397.00	1717.95
397.19	1750.72
397.39	1760.08
397.58	1743.70
397.77	1788.17
397.97	1914.56
398.16	1781.15
398.35	1879.45
398.55	1895.83
398.74	1959.03
398.93	1893.49
399.12	1905.20
399.32	1902.86
399.51	2012.86
399.70	1963.71
399.90	2038.61
400.09	2083.08
400.28	2029.24
400.47	1968.39
400.67	2148.61
400.86	2165.00
401.05	2026.90
401.24	2090.10
401.44	2092.44
401.63	2169.68
401.82	2298.41
402.01	2157.97
402.21	2204.78
402.40	2253.94
402.59	2155.63
402.78	2218.83
402.97	2399.05
403.17	2319.47
403.36	2377.98
403.55	2242.23
403.74	2338.20
403.93	2377.98
404.13	2410.75
404.32	2356.92
404.51	2417.77
404.70	2455.22
404.89	2483.31
405.09	2548.84
405.28	2530.12
405.47	2614.38
405.66	2499.69
405.85	2396.71
406.05	2530.12
406.24	2502.03
406.43	2593.31
406.62	2532.46
406.81	2693.96
407.00	2518.42
407.20	2654.17
407.39	2705.66
407.58	2677.57
407.77	2715.02
407.96	2736.09
408.15	2654.17
408.34	2672.89
408.54	2836.73
408.73	2806.30
408.92	2691.62
409.11	2885.88
409.30	2876.52
409.49	2902.26
409.68	2944.39
409.87	2939.71
410.07	3012.27
410.26	2998.23
410.45	3038.02
410.64	3080.14
410.83	3063.76
411.02	3108.23
411.21	3227.60
411.40	3082.49
411.59	3213.56
411.78	3133.98
411.98	3150.36
412.17	3213.56
412.36	3302.50
412.55	3431.23
412.74	3412.50
412.93	3253.34
413.12	3288.45
413.31	3574.00
413.50	3559.95
413.69	3527.19
413.88	3611.45
414.07	3702.73
414.26	3707.41
414.45	3784.65
414.64	3726.13
414.83	3646.55
415.02	3812.73
415.22	3889.97
415.41	3831.46
415.60	3847.84
415.79	3831.46
415.98	3981.25
416.17	3936.78
416.36	3934.44
416.55	4074.87
416.74	4107.64
416.93	4161.47
417.12	4138.07
417.31	4238.71
417.50	4184.88
417.69	4500.85
417.88	4315.95
418.07	4325.31
418.26	4322.97
418.45	4395.53
418.64	4521.92
418.83	4444.68
419.02	4395.53
419.21	4643.62
419.39	4444.68
419.58	4418.93
419.77	4353.40
419.96	4573.41
420.15	4578.09
420.34	4589.79
420.53	4627.24
420.72	4641.28
420.91	4760.65
421.10	4683.41
421.29	4767.67
421.48	4601.49
421.67	4737.24
421.86	4755.97
422.05	4798.10
422.24	4807.46
422.43	4999.38
422.61	4844.91
422.80	4816.82
422.99	4894.06
423.18	4971.30
423.37	5121.09
423.56	4947.89
423.75	4919.81
423.94	4788.74
424.13	4615.54
424.32	4737.24
424.50	5025.13
424.69	4973.64
424.88	4971.30
425.07	5034.49
425.26	4973.64
425.45	5006.41
425.64	4908.10
425.83	4950.23
426.01	5011.09
426.20	4964.28
426.39	4971.30
426.58	5046.20
426.77	5015.77
426.96	5252.16
427.15	5195.99
427.33	5018.11
427.52	5165.56
427.71	5198.33
427.90	5238.12
428.09	5336.42
428.28	5387.91
428.46	5352.81
428.65	5296.63
428.84	5610.26
429.03	5666.44
429.22	5423.02
429.40	5366.85
429.59	5444.09
429.78	5488.56
429.97	5343.44
430.16	5371.53
430.34	5643.03
430.53	5621.97
430.72	5713.25
430.91	5563.45
431.10	5589.20
431.28	5720.27
431.47	5834.96
431.66	5809.21
431.85	5870.06
432.03	5914.53
432.22	6047.94
432.41	5975.39
432.60	5951.98
432.79	5982.41
432.97	6012.84
433.16	5912.19
433.35	6136.88
433.54	6010.50
433.72	6066.67
433.91	6111.14
434.10	6066.67
434.28	6162.63
434.47	6052.63
434.66	6209.44
434.85	6352.21
435.03	6420.09
435.22	6347.53
435.41	6649.46
435.59	6469.24
435.78	6333.49
435.97	6513.71
436.16	6445.84
436.34	6494.99
436.53	6539.46
436.72	6651.80
436.90	6593.29
437.09	6509.03
437.28	6532.44
437.46	6689.25
437.65	6939.69
437.84	6857.77
438.02	6916.28
438.21	6913.94
438.40	6846.07
438.58	6944.37
438.77	7007.56
438.96	7126.93
439.14	7183.10
439.33	7220.55
439.52	7281.41
439.70	7339.92
439.89	7400.77
440.08	7428.86
440.26	7398.43
440.45	7309.49
440.63	7435.88
440.82	7510.78
441.01	7581.00
441.19	7543.55
441.38	7611.42
441.57	7953.14
441.75	7777.60
441.94	8025.70
442.12	8088.89
442.31	7941.44
442.50	8182.51
442.68	8098.25
442.87	7906.33
443.05	8180.17
443.24	8376.78
443.43	8084.21
443.61	8212.94
443.80	8428.27
443.98	8133.36
444.17	7824.41
444.35	8379.12
444.54	8329.97
444.73	8313.58
444.91	8409.54
445.10	8430.61
445.28	8407.20
445.47	8234.00
445.65	8395.50
445.84	8442.31
446.02	8571.04
446.21	8645.94
446.39	8346.35
446.58	8477.42
446.77	8505.51
446.95	8409.54
447.14	8421.25
447.32	8692.75
447.51	8718.50
447.69	8456.36
447.88	8685.73
448.06	8414.23
448.25	8409.54
448.43	8713.81
448.62	8484.44
448.80	8596.79
448.99	8734.88
449.17	8725.52
449.36	8741.90
449.54	8802.75
449.73	8868.29
449.91	8837.86
450.10	8997.02
450.28	9186.60
450.46	9081.28
450.65	9013.40
450.83	9121.07
451.02	9029.79
451.20	9217.03
451.39	9085.96
451.57	9453.42
451.76	9032.13
451.94	9322.35
452.13	9298.95
452.31	9378.53
452.49	9263.84
452.68	9408.95
452.86	9418.32
453.05	9631.30
453.23	9502.58
453.42	9343.42
453.60	9607.90
453.78	9689.82
453.97	9502.58
454.15	9518.96
454.34	9509.60
454.52	9554.07
454.70	9734.29
454.89	9755.35
455.07	9722.59
455.26	9795.14
455.44	9963.66
455.62	10031.54
455.81	10078.35
455.99	10101.75
456.17	10139.20
456.36	10211.76
456.54	10232.82
456.73	10356.87
456.91	10450.49
457.09	10349.85
457.28	10710.29
457.46	10296.02
457.64	10626.03
457.83	10560.50
458.01	10345.17
458.19	10703.27
458.38	10696.25
458.56	10986.47
458.74	10555.82
458.93	10782.85
459.11	10937.32
459.29	10883.49
459.48	10677.52
459.66	10857.75
459.84	10789.87
460.03	10979.45
460.21	10970.09
460.39	11157.33
460.57	11133.93
460.76	11087.12
460.94	11339.90
461.12	11349.26
461.31	11213.51
461.49	11447.56
461.67	11339.90
461.85	11599.70
462.04	11454.58
462.22	11796.30
462.40	11559.91
462.59	11534.16
462.77	11595.01
462.95	11803.32
463.13	11840.77
463.32	11609.06
463.50	11735.45
463.68	11648.85
463.86	11908.65
464.05	11634.80
464.23	11740.13
464.41	12044.40
464.59	11548.20
464.78	12037.38
464.96	12238.66
465.14	11948.43
465.32	12065.46
465.50	12245.68
465.69	12208.23
465.87	12105.25
466.05	12112.27
466.23	12402.50
466.41	12311.22
466.60	12608.47
466.78	12123.98
466.96	12435.27
467.14	12292.49
467.32	12189.51
467.51	12589.74
467.69	12161.42
467.87	12552.29
468.05	12690.38
468.23	12453.99
468.41	12444.63
468.60	12636.55
468.78	12723.15
468.96	12561.66
469.14	12812.09
469.32	12994.65
469.50	12458.67
469.69	12786.35
469.87	12985.29
470.05	13247.43
470.23	13284.88
470.41	13062.53
470.59	13341.05
470.77	13064.87
470.95	13378.50
471.14	13572.77
471.32	13224.03
471.50	13462.76
471.68	13638.30
471.86	13752.99
472.04	13654.69
472.22	14237.48
472.40	13731.92
472.58	14118.11
472.77	13958.96
472.95	14244.50
473.13	14633.03
473.31	14211.73
473.49	14335.78
473.67	14396.64
473.85	14143.86
474.03	14462.17
474.21	14644.73
474.39	14888.15
474.57	14953.68
474.75	14857.72
474.93	15084.75
475.12	14883.47
475.30	15316.47
475.48	15110.50
475.66	15140.93
475.84	15344.55
476.02	15250.93
476.20	15545.84
476.38	15559.88
476.56	15878.19
476.74	16035.01
476.92	15857.13
477.10	16126.29
477.28	16133.31
477.46	16287.79
477.64	16390.77
477.82	16814.41
478.00	16898.67
478.18	16964.20
478.36	17036.76
478.54	17216.98
478.72	16844.84
478.90	17336.35
479.08	17589.13
479.26	17788.07
479.44	17612.53
479.62	18012.76
479.80	18183.62
479.98	18146.17
480.16	18621.30
480.34	18534.70
480.52	18817.91
480.70	18682.16
480.88	18616.62
481.06	18656.41
481.24	18555.77
481.41	19185.37
481.59	19424.11
481.77	19405.38
481.95	19693.27
482.13	19782.21
482.31	19831.36
482.49	20332.23
482.67	20189.46
482.85	20409.47
483.03	20767.57
483.21	20957.16
483.39	20903.32
483.57	20800.34
483.74	21195.89
483.92	21582.08
484.10	20872.90
484.28	21797.41
484.46	21928.48
484.64	22384.88
484.82	22394.25
485.00	22286.58
485.18	22953.63
485.35	22827.24
485.53	23061.30
485.71	22986.40
485.89	23733.03
486.07	23503.66
486.25	23833.68
486.43	23971.77
486.61	24128.58
486.78	24341.57
486.96	24535.84
487.14	24514.77
487.32	25006.28
487.50	24903.30
487.68	25249.70
487.85	25277.79
488.03	25675.68
488.21	25638.23
488.39	25855.90
488.57	26099.31
488.75	26434.01
488.92	26520.61
489.10	26764.03
489.28	26506.57
489.46	27175.96
489.64	26977.01
489.81	27765.78
489.99	27442.78
490.17	27840.67
490.35	28194.09
490.53	28741.78
490.70	28418.78
490.88	28435.17
491.06	28840.08
491.24	29291.80
491.41	29207.55
491.59	29242.65
491.77	29350.32
491.95	29771.61
492.13	30141.42
492.30	30010.35
492.48	30436.33
492.66	30438.67
492.84	30576.76
493.01	30588.46
493.19	30848.26
493.37	31367.86
493.54	31117.42
493.72	31445.10
493.90	31793.84
494.08	32046.62
494.25	32371.95
494.43	32044.27
494.61	32453.87
494.79	32704.31
494.96	32566.21
495.14	32854.10
495.32	33317.53
495.49	33385.40
495.67	33668.61
495.85	33713.08
496.02	33895.64
496.20	34143.74
496.38	34127.35
496.55	34515.88
496.73	34562.69
496.91	34991.01
497.09	35171.23
497.26	35288.26
497.44	35136.12
497.62	35608.91
497.79	35765.73
497.97	35484.86
498.14	36067.66
498.32	36390.65
498.50	36514.70
498.67	36507.68
498.85	36655.13
499.03	37228.56
499.20	36687.90
499.38	36943.02
499.56	37446.23
499.73	37684.97
499.91	37378.36
500.08	38192.86
500.26	37727.10
500.44	37923.70
500.61	38024.34
500.79	37776.25
500.97	38396.49
501.14	38934.81
501.32	38829.49
501.49	38918.43
501.67	38738.21
501.84	38885.66
502.02	38864.60
502.20	39346.75
502.37	39278.87
502.55	39756.34
502.72	39714.21
502.90	40020.82
503.07	39482.50
503.25	40149.55
503.43	39770.38
503.60	40034.86
503.78	40488.93
503.95	40273.60
504.13	40594.25
504.30	40762.77
504.48	40762.77
504.65	41024.91
504.83	40917.25
505.01	41701.32
505.18	41488.34
505.36	41518.76
505.53	41488.34
505.71	41715.37
505.88	42171.77
506.06	41970.49
506.23	42089.85
506.41	42176.45
506.58	42155.39
506.76	42515.83
506.93	42635.20
507.11	42483.06
507.28	42857.55
507.46	43100.97
507.63	43110.33
507.81	43288.21
507.98	43096.28
508.16	43344.38
508.33	43718.87
508.50	43475.45
508.68	44030.16
508.85	44243.15
509.03	43861.64
509.20	44301.66
509.38	44802.53
509.55	44479.54
509.73	45052.97
509.90	44706.57
510.08	44418.69
510.25	45123.19
510.42	45343.20
510.60	45333.84
510.77	45022.54
510.95	45556.19
511.12	45663.85
511.30	45230.85
511.47	45375.97
511.64	45904.93
511.82	46223.24
511.99	45902.59
512.17	46576.66
512.34	46323.88
512.51	46504.10
512.69	46754.54
512.86	46326.22
513.04	46679.64
513.21	46894.97
513.38	47243.71
513.56	47281.16
513.73	46532.19
513.90	47255.42
514.08	47356.06
514.25	47236.69
514.43	47995.03
514.60	47463.72
514.77	47875.66
514.95	47657.99
515.12	47531.60
515.29	47833.53
515.47	47959.92
515.64	47955.24
515.81	48540.37
515.99	48308.66
516.16	48367.17
516.33	48528.67
516.51	48404.62
516.68	48760.38
516.85	48533.35
517.03	48947.62
517.20	49184.02
517.37	49134.87
517.54	49202.74
517.72	49162.95
517.89	49429.77
518.06	49277.64
518.24	49277.64
518.41	49574.89
518.58	49462.54
518.75	49352.54
518.93	49521.05
519.10	49668.51
519.27	50033.63
519.45	50183.43
519.62	49935.33
519.79	50363.65
519.96	49876.82
520.14	50553.23
520.31	50384.71
520.48	50726.43
520.65	50745.15
520.83	50808.35
521.00	50937.08
521.17	50593.02
521.34	50873.88
521.52	50798.99
521.69	51379.44
521.86	51168.79
522.03	51498.81
522.20	51297.52
522.38	51716.48
522.55	51482.42
522.72	51337.31
522.89	51564.34
523.07	51840.53
523.24	51938.83
523.41	51664.99
523.58	51777.33
523.75	51966.91
523.92	52416.30
524.10	52097.98
524.27	52355.44
524.44	52076.92
524.61	52364.81
524.78	52327.36
524.96	52540.35
525.13	52526.30
525.30	52697.16
525.47	52865.68
525.64	52900.79
525.81	52851.64
525.98	52942.92
526.16	52992.07
526.33	52924.19
526.50	53104.41
526.67	52996.75
526.84	52926.53
527.01	52758.02
527.18	52891.43
527.36	53092.71
527.53	53296.34
527.70	53621.67
527.87	53457.84
528.04	53305.70
528.21	53464.86
528.38	53738.70
528.55	53942.33
528.72	53743.38
528.89	53481.24
529.07	53621.67
529.24	53675.51
529.41	53897.86
529.58	53951.69
529.75	53954.03
529.92	53982.12
530.09	53932.96
530.26	54057.01
530.43	54150.63
530.60	53984.46
530.77	53839.34
530.94	54344.90
531.11	54127.23
531.28	54096.80
531.46	54380.01
531.63	54431.50
531.80	54457.24
531.97	54693.64
532.14	54693.64
532.31	54803.64
532.48	55025.99
532.65	54798.96
532.82	54490.01
532.99	55007.27
533.16	54784.92
533.33	55037.70
533.50	55131.32
533.67	54824.71
533.84	54724.07
534.01	55313.88
534.18	55330.26
534.35	55255.37
534.52	55253.03
534.69	55199.19
534.86	55597.09
535.03	55089.19
535.20	55409.84
535.37	55463.67
535.54	55606.45
535.71	55295.16
535.88	55810.07
536.05	55655.60
536.22	55791.35
536.38	56051.15
536.55	55618.15
536.72	55679.00
536.89	55627.51
537.06	55800.71
537.23	56168.18
537.40	56004.34
537.57	56072.21
537.74	56011.36
537.91	55899.01
538.08	56048.81
538.25	55655.60
538.42	55889.65
538.59	56198.60
538.75	55889.65
538.92	56353.08
539.09	56278.18
539.26	56320.31
539.43	56229.03
539.60	56275.84
539.77	56107.32
539.94	56772.03
540.11	56610.54
540.28	56685.43
540.44	56760.33
540.61	56444.36
540.78	56498.19
540.95	56165.84
541.12	56500.53
541.29	56535.64
541.46	56736.93
541.62	56633.94
541.79	56467.76
541.96	56502.87
542.13	56762.67
542.30	56914.81
542.47	57090.35
542.63	57116.09
542.80	56877.36
542.97	57223.76
543.14	57205.03
543.31	57195.67
543.48	57427.38
543.64	57483.56
543.81	57481.22
543.98	57429.72
544.15	57502.28
544.32	57715.27
544.48	57738.68
544.65	57310.36
544.82	57570.16
544.99	57574.84
545.16	57471.85
545.32	57556.11
545.49	57750.38
545.66	57923.58
545.83	57822.93
546.00	57820.59
546.16	57736.34
546.33	57726.97
546.50	57553.77
546.67	57839.32
546.83	57549.09
547.00	58061.67
547.17	57986.77
547.34	57841.66
547.50	58024.22
547.67	58326.15
547.84	58110.82
548.00	58447.86
548.17	58412.75
548.34	58232.53
548.51	58361.26
548.67	58454.88
548.84	58253.59
549.01	58075.71
549.18	58213.80
549.34	58323.81
549.51	58328.49
549.68	58628.08
549.84	58408.07
550.01	58508.71
550.18	58096.78
550.34	58429.13
550.51	58658.51
550.68	58625.74
550.84	58569.57
551.01	58745.11
551.18	58527.44
551.34	58607.01
551.51	58518.07
551.68	58843.41
551.84	58770.85
552.01	58541.48
552.18	58759.15
552.34	58752.13
552.51	58707.66
552.68	58597.65
552.84	58801.28
553.01	59016.61
553.18	58974.48
553.34	58873.84
553.51	59009.59
553.67	58979.16
553.84	58932.35
554.01	59077.46
554.17	59175.76
554.34	59025.97
554.51	58997.88
554.67	59283.43
554.84	59131.29
555.00	59238.96
555.17	59084.48
555.33	59135.98
555.50	59007.25
555.67	59096.19
555.83	59208.53
556.00	59344.28
556.16	59604.08
556.33	59473.01
556.50	59274.07
556.66	59489.40
556.83	59231.94
556.99	59489.40
557.16	59676.64
557.32	59341.94
557.49	59714.09
557.65	59505.78
557.82	59365.35
557.98	59442.59
558.15	59725.79
558.32	59501.10
558.48	59568.97
558.65	59709.41
558.81	59625.15
558.98	59821.75
559.14	59835.80
559.31	59695.36
559.47	59700.04
559.64	59910.69
559.80	59828.77
559.97	59817.07
560.13	59807.71
560.30	59934.10
560.46	60027.72
560.63	59866.22
560.79	60023.04
560.96	60009.00
561.12	60088.57
561.29	59742.17
561.45	59931.76
561.61	59955.16
561.78	59943.46
561.94	60102.62
562.11	59898.99
562.27	60046.44
562.44	60186.88
562.60	60341.35
562.77	60175.17
562.93	59973.89
563.10	60210.28
563.26	59913.03
563.42	60591.79
563.59	60229.01
563.75	59999.63
563.92	60109.64
564.08	60079.21
564.24	60315.61
564.41	60294.54
564.57	60303.90
564.74	60313.26
564.90	60299.22
565.07	60427.95
565.23	60177.51
565.39	60257.09
565.56	60168.15
565.72	60210.28
565.88	60247.73
566.05	60023.04
566.21	60392.84
566.38	60486.46
566.54	60406.89
566.70	60521.57
566.87	60697.11
567.03	60296.88
567.19	60540.30
567.36	60444.33
567.52	60404.55
567.68	60786.05
567.85	60441.99
568.01	60669.03
568.17	60512.21
568.34	60594.13
568.50	60390.50
568.66	60528.59
568.83	60591.79
568.99	60577.75
569.15	60542.64
569.32	60537.96
569.48	60701.79
569.64	60465.40
569.81	60647.96
569.97	60516.89
570.13	60552.00
570.30	60500.51
570.46	60659.66
570.62	60673.71
570.78	60596.47
570.95	60500.51
571.11	60774.35
571.27	60580.09
571.43	60715.84
571.60	60760.31
571.76	60821.16
571.92	60629.24
572.09	60776.69
572.25	60769.67
572.41	60371.78
572.57	60662.00
572.74	61050.53
572.90	60858.61
573.06	60781.37
573.22	60760.31
573.38	60631.58
573.55	60666.69
573.71	61020.11
573.87	60856.27
574.03	60800.10
574.20	60947.55
574.36	60732.22
574.52	60851.59
574.68	60647.96
574.84	61034.15
575.01	61041.17
575.17	60800.10
575.33	60809.46
575.49	60774.35
575.65	60975.64
575.82	60970.96
575.98	60779.03
576.14	61041.17
576.30	60919.46
576.46	60774.35
576.62	60938.19
576.79	60711.16
576.95	60814.14
577.11	60938.19
577.27	60896.06
577.43	61015.43
577.59	60788.39
577.75	61064.58
577.92	60748.60
578.08	61031.81
578.24	60842.23
578.40	61153.52
578.56	61144.16
578.72	61195.65
578.88	61188.63
579.04	61195.65
579.21	60963.93
579.37	61013.08
579.53	61141.81
579.69	60701.79
579.85	61038.83
580.01	60975.64
580.17	60851.59
580.33	61202.67
580.49	61076.28
580.65	60893.72
580.82	60952.23
580.98	60886.70
581.14	61073.94
581.30	61322.04
581.46	61169.90
581.62	61109.05
581.78	61127.77
581.94	61385.23
582.10	61073.94
582.26	61174.58
582.42	61116.07
582.58	61221.39
582.74	61043.51
582.90	61310.33
583.06	61169.90
583.22	61034.15
583.38	61329.06
583.54	61106.71
583.70	61095.00
583.86	61027.13
584.02	60811.80
584.18	61146.50
584.34	61212.03
584.50	61048.19
584.66	61134.79
584.82	60949.89
584.98	61106.71
585.14	61102.03
585.30	61069.26
585.46	60896.06
585.62	61205.01
585.78	61284.59
585.94	60865.63
586.10	61109.05
586.26	61144.16
586.42	61228.41
586.58	61200.33
586.74	61104.37
586.90	61226.07
587.06	61080.96
587.22	61251.82
587.38	61340.76
587.54	61380.55
587.70	61347.78
587.86	61254.16
588.02	61279.91
588.18	61265.86
588.34	61052.87
588.49	61169.90
