SpectraSuite Data File
++++++++++++++++++++++++++++++++++++
Date: Fri Oct 25 11:23:15 EDT 2013
User: price-jones
Dark Spectrum Present: No
Reference Spectrum Present: No
Number of Sampled Component Spectra: 1
Spectrometers: USB2+H05261
Integration Time (usec): 100000 (USB2+H05261)
Spectra Averaged: 1 (USB2+H05261)
Boxcar Smoothing: 0 (USB2+H05261)
Correct for Electrical Dark: No (USB2+H05261)
Strobe/Lamp Enabled: No (USB2+H05261)
Correct for Detector Non-linearity: No (USB2+H05261)
Correct for Stray Light: No (USB2+H05261)
Number of Pixels in Processed Spectrum: 2048
>>>>>Begin Processed Spectral Data<<<<<
365.73	189.58
365.92	189.58
366.12	189.58
366.32	163.84
366.52	161.50
366.72	196.60
366.91	152.13
367.11	86.60
367.31	91.28
367.51	88.94
367.70	124.05
367.90	147.45
368.10	133.41
368.30	98.30
368.49	152.13
368.69	224.69
368.89	107.66
369.09	222.35
369.28	154.48
369.48	177.88
369.68	126.39
369.87	224.69
370.07	210.65
370.27	257.46
370.47	404.91
370.66	603.86
370.86	685.78
371.06	631.94
371.25	671.73
371.45	741.95
371.65	692.80
371.84	664.71
372.04	676.41
372.24	706.84
372.44	629.60
372.63	709.18
372.83	812.17
373.03	732.59
373.22	741.95
373.42	791.10
373.62	816.85
373.81	744.29
374.01	863.66
374.21	809.83
374.40	870.68
374.60	868.34
374.79	812.17
374.99	791.10
375.19	889.40
375.38	812.17
375.58	866.00
375.78	833.23
375.97	851.96
376.17	940.90
376.37	966.64
376.56	943.24
376.76	877.70
376.95	805.14
377.15	891.74
377.35	936.21
377.54	863.66
377.74	908.13
377.93	915.15
378.13	954.94
378.33	933.87
378.52	990.05
378.72	938.55
378.91	964.30
379.11	943.24
379.31	903.45
379.50	849.61
379.70	947.92
379.89	1008.77
380.09	973.66
380.28	1032.18
380.48	1015.79
380.68	905.79
380.87	1036.86
381.07	1006.43
381.26	1015.79
381.46	1048.56
381.65	1123.46
381.85	1027.50
382.04	997.07
382.24	1027.50
382.43	1025.15
382.63	1053.24
382.83	1018.13
383.02	1071.97
383.22	1139.84
383.41	1067.28
383.61	1107.07
383.80	1153.88
384.00	1046.22
384.19	1114.10
384.39	1128.14
384.58	1137.50
384.78	1188.99
384.97	1107.07
385.17	1142.18
385.36	1198.35
385.56	1149.20
385.75	1132.82
385.95	1196.01
386.14	1221.76
386.34	1219.42
386.53	1214.74
386.72	1146.86
386.92	1242.82
387.11	1144.52
387.31	1210.06
387.50	1247.51
387.70	1247.51
387.89	1259.21
388.09	1193.67
388.28	1341.13
388.48	1366.87
388.67	1331.76
388.86	1310.70
389.06	1291.98
389.25	1341.13
389.45	1282.61
389.64	1306.02
389.84	1341.13
390.03	1453.47
390.22	1430.07
390.42	1303.68
390.61	1348.15
390.81	1306.02
391.00	1479.22
391.19	1352.83
391.39	1460.49
391.58	1406.66
391.78	1465.18
391.97	1558.80
392.16	1479.22
392.36	1528.37
392.55	1544.75
392.75	1666.46
392.94	1507.30
393.13	1558.80
393.33	1563.48
393.52	1614.97
393.71	1605.61
393.91	1629.01
394.10	1565.82
394.29	1612.63
394.49	1558.80
394.68	1647.74
394.88	1563.48
395.07	1579.86
395.26	1633.69
395.46	1734.34
395.65	1750.72
395.84	1739.02
396.04	1720.29
396.23	1762.42
396.42	1734.34
396.62	1811.57
396.81	1703.91
397.00	1776.47
397.19	1811.57
397.39	1839.66
397.58	1879.45
397.77	1743.70
397.97	1891.15
398.16	1893.49
398.35	1849.02
398.55	2019.88
398.74	1900.52
398.93	2045.63
399.12	1825.62
399.32	2010.52
399.51	1895.83
399.70	1989.46
399.90	1944.99
400.09	2094.78
400.28	2024.56
400.47	2005.84
400.67	1982.43
400.86	2073.71
401.05	2062.01
401.24	2127.55
401.44	2167.34
401.63	2106.48
401.82	2174.36
402.01	2127.55
402.21	2169.68
402.40	2176.70
402.59	2284.36
402.78	2237.55
402.97	2207.13
403.17	2246.91
403.36	2361.60
403.55	2284.36
403.74	2356.92
403.93	2359.26
404.13	2345.22
404.32	2239.89
404.51	2354.58
404.70	2530.12
404.89	2490.33
405.09	2537.14
405.28	2558.21
405.47	2525.44
405.66	2497.35
405.85	2523.10
406.05	2565.23
406.24	2537.14
406.43	2658.85
406.62	2530.12
406.81	2574.59
407.00	2700.98
407.20	2651.83
407.39	2572.25
407.58	2637.78
407.77	2846.09
407.96	2832.05
408.15	2820.35
408.34	2736.09
408.54	2794.60
408.73	2825.03
408.92	2780.56
409.11	2775.88
409.30	3000.57
409.49	2885.88
409.68	2848.43
409.87	2902.26
410.07	2958.44
410.26	2930.35
410.45	2967.80
410.64	3014.61
410.83	3162.06
411.02	3136.32
411.21	3192.49
411.40	3164.40
411.59	3243.98
411.78	3171.43
411.98	3276.75
412.17	3258.03
412.36	3325.90
412.55	3421.86
412.74	3515.48
412.93	3468.67
413.12	3499.10
413.31	3503.78
413.50	3459.31
413.69	3522.51
413.88	3662.94
414.07	3566.98
414.26	3770.60
414.45	3716.77
414.64	3644.21
414.83	3646.55
415.02	3648.90
415.22	3826.78
415.41	3992.95
415.60	3868.91
415.79	3943.80
415.98	4154.45
416.17	3978.91
416.36	3976.57
416.55	3992.95
416.74	4060.83
416.93	4175.52
417.12	4234.03
417.31	4175.52
417.50	4243.39
417.69	4355.74
417.88	4332.33
418.07	4271.48
418.26	4236.37
418.45	4346.37
418.64	4566.39
418.83	4606.17
419.02	4681.07
419.21	4533.62
419.39	4601.49
419.58	4606.17
419.77	4435.32
419.96	4580.43
420.15	4650.64
420.34	4720.86
420.53	4587.45
420.72	4748.95
420.91	4870.65
421.10	4788.74
421.29	4821.50
421.48	4695.11
421.67	4741.93
421.86	4772.35
422.05	4908.10
422.24	4751.29
422.43	5036.83
422.61	5060.24
422.80	5046.20
422.99	5022.79
423.18	5046.20
423.37	5130.45
423.56	4919.81
423.75	4957.25
423.94	5083.64
424.13	4671.71
424.32	4741.93
424.50	5001.72
424.69	5081.30
424.88	5144.50
425.07	5025.13
425.26	4952.57
425.45	5071.94
425.64	5111.73
425.83	5085.98
426.01	5144.50
426.20	5158.54
426.39	5195.99
426.58	5128.11
426.77	5121.09
426.96	5188.97
427.15	5224.08
427.33	5219.39
427.52	5224.08
427.71	5401.96
427.90	5423.02
428.09	5425.36
428.28	5373.87
428.46	5331.74
428.65	5408.98
428.84	5540.05
429.03	5476.85
429.22	5327.06
429.40	5460.47
429.59	5516.64
429.78	5254.50
429.97	5509.62
430.16	5612.60
430.34	5694.52
430.53	5738.99
430.72	5790.49
430.91	5652.39
431.10	5593.88
431.28	5802.19
431.47	5905.17
431.66	5884.11
431.85	5832.62
432.03	6012.84
432.22	5994.11
432.41	6047.94
432.60	5928.58
432.79	5947.30
432.97	6136.88
433.16	6246.89
433.35	5954.32
433.54	6090.07
433.72	6134.54
433.91	6319.45
434.10	6181.35
434.28	6176.67
434.47	6246.89
434.66	6183.70
434.85	6359.24
435.03	6427.11
435.22	6342.85
435.41	6401.37
435.59	6319.45
435.78	6558.18
435.97	6361.58
436.16	6483.28
436.34	6483.28
436.53	6789.89
436.72	6766.49
436.90	6394.34
437.09	6691.59
437.28	6516.05
437.46	6644.78
437.65	6785.21
437.84	6820.32
438.02	6846.07
438.21	6747.76
438.40	6902.24
438.58	7178.42
438.77	7014.59
438.96	6981.82
439.14	7225.23
439.33	7197.15
439.52	7337.58
439.70	7358.64
439.89	7316.51
440.08	7571.63
440.26	7595.04
440.45	7517.80
440.63	7583.34
440.82	7763.56
441.01	7606.74
441.19	7896.97
441.38	7817.39
441.57	7866.54
441.75	7999.95
441.94	8116.98
442.12	7988.25
442.31	8011.65
442.50	8175.49
442.68	8138.04
442.87	8093.57
443.05	8215.28
443.24	8411.89
443.43	8023.36
443.61	8262.09
443.80	8341.67
443.98	8030.38
444.17	7932.08
444.35	8212.94
444.54	8393.16
444.73	8362.73
444.91	8369.76
445.10	8533.59
445.28	8547.64
445.47	8505.51
445.65	8351.03
445.84	8463.38
446.02	8599.13
446.21	8409.54
446.39	8400.18
446.58	8540.61
446.77	8617.85
446.95	8257.41
447.14	8645.94
447.32	8638.92
447.51	8524.23
447.69	8582.74
447.88	8439.97
448.06	8596.79
448.25	8470.40
448.43	8692.75
448.62	8634.24
448.80	8704.45
448.99	8788.71
449.17	8751.26
449.36	8643.60
449.54	9151.49
449.73	8957.23
449.91	9224.05
450.10	8915.10
450.28	9273.20
450.46	9202.99
450.65	9212.35
450.83	9088.30
451.02	9025.11
451.20	9158.52
451.39	9254.48
451.57	9228.73
451.76	9338.74
451.94	9364.48
452.13	9497.89
452.31	9369.16
452.49	9242.78
452.68	9504.92
452.86	9483.85
453.05	9516.62
453.23	9502.58
453.42	9390.23
453.60	9584.49
453.78	9811.53
453.97	9427.68
454.15	9547.05
454.34	9521.30
454.52	9940.26
454.70	9846.63
454.89	9804.50
455.07	9823.23
455.26	9914.51
455.44	10260.91
455.62	9923.87
455.81	10181.33
455.99	10150.90
456.17	10143.88
456.36	10326.44
456.54	10040.90
456.73	10464.54
456.91	10459.85
457.09	10544.11
457.28	10752.42
457.46	10459.85
457.64	10487.94
457.83	10497.30
458.01	10389.64
458.19	10672.84
458.38	10647.10
458.56	10705.61
458.74	10738.38
458.93	10846.04
459.11	11091.80
459.29	10850.72
459.48	10916.26
459.66	10939.66
459.84	10778.17
460.03	11054.35
460.21	11309.47
460.39	11225.21
460.57	11068.39
460.76	11066.05
460.94	11445.22
461.12	11625.44
461.31	11339.90
461.49	11492.03
461.67	11211.17
461.85	11599.70
462.04	11611.40
462.22	11641.82
462.40	11838.43
462.59	11796.30
462.77	11655.87
462.95	11777.58
463.13	11782.26
463.32	11896.94
463.50	11906.31
463.68	11747.15
463.86	12004.61
464.05	11726.08
464.23	11777.58
464.41	12100.57
464.59	11747.15
464.78	12219.94
464.96	12196.53
465.14	12095.89
465.32	12264.41
465.50	12226.96
465.69	12381.43
465.87	12091.21
466.05	12259.73
466.23	12472.71
466.41	12348.67
466.60	12629.53
466.78	12285.47
466.96	12507.82
467.14	12519.53
467.32	12589.74
467.51	12533.57
467.69	12241.00
467.87	12376.75
468.05	12582.72
468.23	12582.72
468.41	12491.44
468.60	12994.65
468.78	12805.07
468.96	12807.41
469.14	12959.55
469.32	13158.49
469.50	12847.20
469.69	13104.66
469.87	13238.07
470.05	13425.31
470.23	13444.04
470.41	13186.58
470.59	13614.90
470.77	13525.96
470.95	13355.10
471.14	13621.92
471.32	13233.39
471.50	13640.64
471.68	13659.37
471.86	13865.33
472.04	14094.71
472.22	14246.84
472.40	13862.99
472.58	13965.98
472.77	14183.65
472.95	14319.40
473.13	14831.97
473.31	14295.99
473.49	13982.36
473.67	14452.81
473.85	14101.73
474.03	14754.74
474.21	14752.40
474.39	14906.87
474.57	15002.83
474.75	15372.64
474.93	15178.37
475.12	15126.88
475.30	15309.44
475.48	15309.44
475.66	15367.96
475.84	15377.32
476.02	15658.18
476.20	15433.49
476.38	16100.55
476.56	16135.65
476.74	15988.20
476.92	15892.24
477.10	16072.46
477.28	16177.78
477.46	16161.40
477.64	16755.90
477.82	16886.97
478.00	17219.32
478.18	16994.63
478.36	17088.25
478.54	17032.08
478.72	17352.73
478.90	17710.83
479.08	17893.40
479.26	18001.06
479.44	17987.02
479.62	17888.71
479.80	18427.04
479.98	18548.75
480.16	18853.02
480.34	18609.60
480.52	18881.10
480.70	18864.72
480.88	18827.27
481.06	18621.30
481.24	19150.26
481.41	19208.78
481.59	19571.56
481.77	19819.66
481.95	19784.55
482.13	19983.49
482.31	19906.26
482.49	20931.41
482.67	20411.81
482.85	20837.79
483.03	20975.88
483.21	20908.01
483.39	21366.75
483.57	21022.69
483.74	21692.08
483.92	21553.99
484.10	21481.44
484.28	22122.74
484.46	22368.50
484.64	22602.55
484.82	22019.76
485.00	22207.00
485.18	22890.44
485.35	23192.37
485.53	22993.42
485.71	23520.04
485.89	23828.99
486.07	23800.91
486.25	23908.57
486.43	23756.44
486.61	24343.91
486.78	24215.18
486.96	24624.78
487.14	24936.07
487.32	25113.95
487.50	25067.14
487.68	25369.07
487.85	25507.16
488.03	25839.51
488.21	26410.60
488.39	25954.20
488.57	26312.30
488.75	26955.95
488.92	26649.34
489.10	27021.48
489.28	27040.21
489.46	27573.85
489.64	27171.28
489.81	27910.89
489.99	27929.61
490.17	28086.43
490.35	28591.98
490.53	28166.01
490.70	28795.61
490.88	28367.29
491.06	29647.57
491.24	29039.03
491.41	29221.59
491.59	29984.60
491.77	29619.48
491.95	29525.86
492.13	30178.87
492.30	30338.02
492.48	30459.73
492.66	30621.23
492.84	30433.99
493.01	30827.20
493.19	30913.80
493.37	31496.59
493.54	31627.66
493.72	31742.35
493.90	31936.61
494.08	32339.18
494.25	32194.07
494.43	32161.30
494.61	32601.32
494.79	32818.99
494.96	32692.60
495.14	33567.96
495.32	33633.50
495.49	33776.27
495.67	33687.33
495.85	34092.24
496.02	33605.41
496.20	34520.56
496.38	34518.22
496.55	34579.07
496.73	35321.02
496.91	34417.58
497.09	35033.14
497.26	35325.71
497.44	35218.04
497.62	35716.58
497.79	35969.35
497.97	35943.61
498.14	36273.62
498.32	36322.77
498.50	36622.36
498.67	36779.18
498.85	36762.79
499.03	37177.07
499.20	37354.95
499.38	37488.36
499.56	37289.42
499.73	37624.11
499.91	37418.14
500.08	38260.74
500.26	37773.91
500.44	38136.69
500.61	38206.90
500.79	38078.18
500.97	38457.34
501.14	38880.98
501.32	38763.95
501.49	39358.45
501.67	39070.56
501.84	39363.13
502.02	39281.21
502.20	39400.58
502.37	39763.36
502.55	39749.32
502.72	40095.72
502.90	40086.36
503.07	39908.47
503.25	40385.94
503.43	40392.97
503.60	40641.06
503.78	40446.80
503.95	40470.20
504.13	40641.06
504.30	41284.71
504.48	40903.20
504.65	41427.48
504.83	41511.74
505.01	41577.28
505.18	41310.46
505.36	42057.09
505.53	42155.39
505.71	42178.79
505.88	42408.17
506.06	41605.36
506.23	42546.26
506.41	42225.60
506.58	42754.57
506.76	42948.83
506.93	42810.74
507.11	43007.34
507.28	42796.70
507.46	43498.86
507.63	43421.62
507.81	43859.30
507.98	43585.46
508.16	43456.73
508.33	44081.65
508.50	43849.94
508.68	44067.61
508.85	44406.98
509.03	44144.84
509.20	44353.15
509.38	44900.84
509.55	44622.31
509.73	45177.02
509.90	44673.81
510.08	45158.30
510.25	44781.47
510.42	45537.46
510.60	45605.34
510.77	45537.46
510.95	46096.85
511.12	45497.67
511.30	45675.55
511.47	46036.00
511.64	46078.13
511.82	46314.52
511.99	45794.92
512.17	46335.59
512.34	46476.02
512.51	46749.86
512.69	46759.22
512.86	46738.16
513.04	46717.09
513.21	47026.04
513.38	47482.45
513.56	47114.98
513.73	47138.39
513.90	47800.76
514.08	47531.60
514.25	47622.88
514.43	47583.09
514.60	47531.60
514.77	47838.21
514.95	48186.95
515.12	47952.90
515.29	47924.81
515.47	48348.45
515.64	48437.39
515.81	48549.73
515.99	48931.24
516.16	48884.43
516.33	48987.41
516.51	49366.58
516.68	48917.20
516.85	48673.78
517.03	49216.78
517.20	49432.11
517.37	49235.51
517.54	49577.23
517.72	49312.75
517.89	49385.30
518.06	49720.00
518.24	49734.04
518.41	49675.53
518.58	49918.95
518.75	49991.50
518.93	49858.09
519.10	49705.96
519.27	50057.04
519.45	50255.98
519.62	50431.52
519.79	50483.01
519.96	50368.33
520.14	50569.61
520.31	50567.27
520.48	50892.61
520.65	50756.86
520.83	50810.69
521.00	51011.98
521.17	50986.23
521.34	51246.03
521.52	51253.05
521.69	51444.98
521.86	51093.89
522.03	51112.62
522.20	51744.56
522.38	51805.42
522.55	51557.32
522.72	51760.95
522.89	52016.07
523.07	52069.90
523.24	52102.67
523.41	52341.40
523.58	51856.91
523.75	52467.79
523.92	51950.53
524.10	52322.68
524.27	52137.77
524.44	52432.68
524.61	52479.49
524.78	52741.63
524.96	52673.76
525.13	52699.50
525.30	52926.53
525.47	52863.34
525.64	52800.15
525.81	52832.91
525.98	53205.06
526.16	53223.78
526.33	53062.29
526.50	53378.26
526.67	53006.11
526.84	53350.17
527.01	52919.51
527.18	53158.25
527.36	53380.60
527.53	53392.30
527.70	53888.49
527.87	53598.27
528.04	53308.04
528.21	53605.29
528.38	53659.12
528.55	53792.53
528.72	53748.06
528.89	53808.92
529.07	53696.57
529.24	53900.20
529.41	54014.88
529.58	53982.12
529.75	53827.64
529.92	54284.04
530.09	54337.88
530.26	54457.24
530.43	54508.74
530.60	53975.09
530.77	54284.04
530.94	54532.14
531.11	54335.54
531.28	54387.03
531.46	54593.00
531.63	54534.48
531.80	54717.04
531.97	54681.94
532.14	54651.51
532.31	55009.61
532.48	54995.57
532.65	54918.33
532.82	54857.48
532.99	54990.89
533.16	55065.78
533.33	55168.77
533.50	55412.18
533.67	55107.91
533.84	54876.20
534.01	55407.50
534.18	55388.78
534.35	55437.93
534.52	55564.32
534.69	55732.84
534.86	55571.34
535.03	55409.84
535.20	55599.43
535.37	55662.62
535.54	55845.18
535.71	55564.32
535.88	55767.94
536.05	55723.47
536.22	55877.95
536.38	56112.00
536.55	55721.13
536.72	55950.51
536.89	55894.33
537.06	56009.02
537.23	56161.15
537.40	55767.94
537.57	55891.99
537.74	56023.06
537.91	56264.14
538.08	56161.15
538.25	56002.00
538.42	56011.36
538.59	56584.79
538.75	56250.09
538.92	56406.91
539.09	56402.23
539.26	56411.59
539.43	56381.16
539.60	56533.30
539.77	56619.90
539.94	56963.96
540.11	56350.74
540.28	56704.16
540.44	56804.80
540.61	56687.78
540.78	56554.36
540.95	56811.82
541.12	56713.52
541.29	56832.89
541.46	56875.02
541.62	56832.89
541.79	56860.97
541.96	56769.69
542.13	56853.95
542.30	56947.57
542.47	57221.42
542.63	57233.12
542.80	57577.18
542.97	57394.62
543.14	57771.44
543.31	57242.48
543.48	57298.65
543.64	57736.34
543.81	57801.87
543.98	57375.89
544.15	57560.79
544.32	57696.55
544.48	58024.22
544.65	57598.24
544.82	57825.28
544.99	57488.24
545.16	57771.44
545.32	57642.71
545.49	57979.75
545.66	58024.22
545.83	58174.02
546.00	57844.00
546.16	57979.75
546.33	57909.53
546.50	57797.19
546.67	57902.51
546.83	57738.68
547.00	58010.18
547.17	57961.03
547.34	58099.12
547.50	58122.52
547.67	58471.26
547.84	58482.97
548.00	58356.58
548.17	58670.21
548.34	58660.85
548.51	58796.60
548.67	58637.44
548.84	58529.78
549.01	58630.42
549.18	58300.40
549.34	58513.39
549.51	58651.48
549.68	58698.30
549.84	58534.46
550.01	58766.17
550.18	58660.85
550.34	58719.36
550.51	58635.10
550.68	58597.65
550.84	58667.87
551.01	58880.86
551.18	58873.84
551.34	58857.45
551.51	58810.64
551.68	58979.16
551.84	59117.25
552.01	58726.38
552.18	58965.12
552.34	58974.48
552.51	58906.60
552.68	58892.56
552.84	58859.79
553.01	59182.79
553.18	58997.88
553.34	59121.93
553.51	59028.31
553.67	59271.73
553.84	59248.32
554.01	59391.09
554.17	59269.39
554.34	59290.45
554.51	59323.22
554.67	59360.67
554.84	59192.15
555.00	59447.27
555.17	59236.62
555.33	59126.61
555.50	59154.70
555.67	59260.02
555.83	59208.53
556.00	59540.89
556.16	59772.60
556.33	59468.33
556.50	59400.46
556.66	59604.08
556.83	59531.53
556.99	59709.41
557.16	59817.07
557.32	59629.83
557.49	60055.81
557.65	59788.98
557.82	59707.07
557.98	59774.94
558.15	59840.48
558.32	59824.09
558.48	59718.77
558.65	59693.02
558.81	59622.81
558.98	59934.10
559.14	60069.85
559.31	59882.61
559.47	59945.80
559.64	59838.14
559.80	59936.44
559.97	60044.10
560.13	59690.68
560.30	59945.80
560.46	59936.44
560.63	60037.08
560.79	59978.57
560.96	60282.84
561.12	60065.17
561.29	60016.02
561.45	60252.41
561.61	60186.88
561.78	60245.39
561.94	59969.21
562.11	60233.69
562.27	60226.66
562.44	60179.85
562.60	60339.01
562.77	60114.32
562.93	60060.49
563.10	60430.29
563.26	60179.85
563.42	60694.77
563.59	60512.21
563.75	60334.33
563.92	60273.48
564.08	60346.03
564.24	60289.86
564.41	60320.29
564.57	60423.27
564.74	60144.75
564.90	60240.71
565.07	60348.37
565.23	60285.18
565.39	60301.56
565.56	60659.66
565.72	60474.76
565.88	60498.17
566.05	60331.99
566.21	60699.45
566.38	60523.91
566.54	60416.25
566.70	60788.39
566.87	60839.89
567.03	60495.83
567.19	60893.72
567.36	60680.73
567.52	60603.49
567.68	60818.82
567.85	60559.02
568.01	60781.37
568.17	60537.96
568.34	60722.86
568.50	60516.89
568.66	60463.06
568.83	60708.82
568.99	60559.02
569.15	60640.94
569.32	60610.51
569.48	60631.58
569.64	60664.35
569.81	60626.90
569.97	60596.47
570.13	60835.20
570.30	60659.66
570.46	60762.65
570.62	60814.14
570.78	60732.22
570.95	60807.12
571.11	60835.20
571.27	60755.63
571.43	60680.73
571.60	61141.81
571.76	60907.76
571.92	60849.25
572.09	61052.87
572.25	60907.76
572.41	60837.54
572.57	61066.92
572.74	61116.07
572.90	61024.79
573.06	60999.04
573.22	60793.07
573.38	60893.72
573.55	60896.06
573.71	61179.26
573.87	60882.02
574.03	60966.27
574.20	61071.60
574.36	60942.87
574.52	60914.78
574.68	61113.73
574.84	61090.32
575.01	61015.43
575.17	61022.45
575.33	60924.14
575.49	60837.54
575.65	60851.59
575.82	61008.40
575.98	61022.45
576.14	61092.66
576.30	61120.75
576.46	61099.68
576.62	60940.53
576.79	60896.06
576.95	60982.66
577.11	61113.73
577.27	61095.00
577.43	61216.71
577.59	60793.07
577.75	61029.47
577.92	61038.83
578.08	61073.94
578.24	61111.39
578.40	61172.24
578.56	61078.62
578.72	61153.52
578.88	61315.01
579.04	61357.14
579.21	61109.05
579.37	61303.31
579.53	61228.41
579.69	61059.90
579.85	60968.61
580.01	61139.47
580.17	61050.53
580.33	61242.46
580.49	61160.54
580.65	61289.27
580.82	60970.96
580.98	61045.85
581.14	61076.28
581.30	61179.26
581.46	61006.06
581.62	61300.97
581.78	61027.13
581.94	61364.17
582.10	61300.97
582.26	61237.78
582.42	61085.64
582.58	61174.58
582.74	61291.61
582.90	61254.16
583.06	61219.05
583.22	61336.08
583.38	61270.54
583.54	61148.84
583.70	61464.81
583.86	61305.65
584.02	61162.88
584.18	61293.95
584.34	61048.19
584.50	61146.50
584.66	61052.87
584.82	61244.80
584.98	61307.99
585.14	61289.27
585.30	61148.84
585.46	61205.01
585.62	61291.61
585.78	61312.67
585.94	61223.73
586.10	61277.57
586.26	61249.48
586.42	61488.21
586.58	61378.21
586.74	61162.88
586.90	61090.32
587.06	61467.15
587.22	61368.85
587.38	61602.90
587.54	61478.85
587.70	61579.49
587.86	61235.44
588.02	61319.70
588.18	61286.93
588.34	61132.45
588.49	61436.72
