SpectraSuite Data File
++++++++++++++++++++++++++++++++++++
Date: Fri Oct 25 11:23:44 EDT 2013
User: price-jones
Dark Spectrum Present: No
Reference Spectrum Present: No
Number of Sampled Component Spectra: 1
Spectrometers: USB2+H05261
Integration Time (usec): 100000 (USB2+H05261)
Spectra Averaged: 1 (USB2+H05261)
Boxcar Smoothing: 0 (USB2+H05261)
Correct for Electrical Dark: No (USB2+H05261)
Strobe/Lamp Enabled: No (USB2+H05261)
Correct for Detector Non-linearity: No (USB2+H05261)
Correct for Stray Light: No (USB2+H05261)
Number of Pixels in Processed Spectrum: 2048
>>>>>Begin Processed Spectral Data<<<<<
365.73	259.80
365.92	259.80
366.12	259.80
366.32	121.71
366.52	177.88
366.72	147.45
366.91	117.03
367.11	81.92
367.31	131.07
367.51	86.60
367.70	138.09
367.90	187.24
368.10	117.03
368.30	170.86
368.49	91.28
368.69	205.97
368.89	196.60
369.09	187.24
369.28	180.22
369.48	177.88
369.68	138.09
369.87	210.65
370.07	191.92
370.27	255.12
370.47	402.57
370.66	561.73
370.86	638.97
371.06	676.41
371.25	676.41
371.45	608.54
371.65	617.90
371.84	688.12
372.04	613.22
372.24	664.71
372.44	755.99
372.63	739.61
372.83	791.10
373.03	734.93
373.22	779.40
373.42	697.48
373.62	755.99
373.81	760.67
374.01	882.38
374.21	849.61
374.40	830.89
374.60	828.55
374.79	809.83
374.99	882.38
375.19	840.25
375.38	844.93
375.58	861.32
375.78	837.91
375.97	849.61
376.17	912.81
376.37	814.51
376.56	753.65
376.76	882.38
376.95	901.11
377.15	840.25
377.35	959.62
377.54	805.14
377.74	917.49
377.93	866.00
378.13	954.94
378.33	999.41
378.52	910.47
378.72	903.45
378.91	1020.47
379.11	978.34
379.31	968.98
379.50	856.64
379.70	959.62
379.89	978.34
380.09	912.81
380.28	1001.75
380.48	968.98
380.68	992.39
380.87	987.71
381.07	1027.50
381.26	1128.14
381.46	1078.99
381.65	961.96
381.85	1001.75
382.04	1039.20
382.24	1081.33
382.43	1048.56
382.63	1043.88
382.83	1055.58
383.02	1078.99
383.22	1097.71
383.41	1137.50
383.61	1064.94
383.80	1181.97
384.00	1170.27
384.19	1064.94
384.39	1123.46
384.58	1097.71
384.78	1116.44
384.97	1135.16
385.17	1156.22
385.36	1095.37
385.56	1083.67
385.75	1060.26
385.95	1207.72
386.14	1296.66
386.34	1200.69
386.53	1245.16
386.72	1188.99
386.92	1259.21
387.11	1275.59
387.31	1252.19
387.50	1266.23
387.70	1207.72
387.89	1221.76
388.09	1214.74
388.28	1186.65
388.48	1158.57
388.67	1280.27
388.86	1308.36
389.06	1348.15
389.25	1406.66
389.45	1296.66
389.64	1315.38
389.84	1437.09
390.03	1476.88
390.22	1425.39
390.42	1352.83
390.61	1341.13
390.81	1334.11
391.00	1399.64
391.19	1519.01
391.39	1362.19
391.58	1369.21
391.78	1430.07
391.97	1600.93
392.16	1439.43
392.36	1551.78
392.55	1479.22
392.75	1425.39
392.94	1486.24
393.13	1490.92
393.33	1621.99
393.52	1577.52
393.71	1694.55
393.91	1535.39
394.10	1542.41
394.29	1661.78
394.49	1589.22
394.68	1519.01
394.88	1610.29
395.07	1774.13
395.26	1633.69
395.46	1657.10
395.65	1729.66
395.84	1750.72
396.04	1755.40
396.23	1729.66
396.42	1741.36
396.62	1671.14
396.81	1788.17
397.00	1727.32
397.19	1877.11
397.39	1797.53
397.58	1799.87
397.77	1825.62
397.97	1853.70
398.16	1839.66
398.35	1975.41
398.55	1870.09
398.74	1989.46
398.93	2033.93
399.12	1966.05
399.32	1888.81
399.51	1959.03
399.70	2026.90
399.90	2045.63
400.09	2024.56
400.28	2090.10
400.47	1956.69
400.67	2190.74
400.86	2043.29
401.05	1973.07
401.24	2050.31
401.44	2115.84
401.63	2026.90
401.82	2139.25
402.01	2157.97
402.21	2115.84
402.40	2216.49
402.59	2239.89
402.78	2270.32
402.97	2279.68
403.17	2256.28
403.36	2326.49
403.55	2291.38
403.74	2284.36
403.93	2373.30
404.13	2380.32
404.32	2389.69
404.51	2279.68
404.70	2377.98
404.89	2331.17
405.09	2469.27
405.28	2487.99
405.47	2466.92
405.66	2516.08
405.85	2572.25
406.05	2525.44
406.24	2574.59
406.43	2602.68
406.62	2595.65
406.81	2619.06
407.00	2581.61
407.20	2525.44
407.39	2832.05
407.58	2752.47
407.77	2782.90
407.96	2820.35
408.15	2722.04
408.34	2698.64
408.54	2775.88
408.73	2757.15
408.92	2857.79
409.11	2925.67
409.30	2972.48
409.49	3066.10
409.68	2836.73
409.87	2965.46
410.07	3070.78
410.26	2974.82
410.45	3091.85
410.64	3009.93
410.83	3035.67
411.02	3159.72
411.21	3213.56
411.40	3115.25
411.59	3295.47
411.78	3325.90
411.98	3204.19
412.17	3206.53
412.36	3304.84
412.55	3307.18
412.74	3421.86
412.93	3475.70
413.12	3414.84
413.31	3679.32
413.50	3435.91
413.69	3431.23
413.88	3611.45
414.07	3522.51
414.26	3669.96
414.45	3634.85
414.64	3662.94
414.83	3672.30
415.02	3789.33
415.22	3885.29
415.41	3838.48
415.60	3946.14
415.79	3969.55
415.98	3922.74
416.17	4030.40
416.36	4032.74
416.55	4053.81
416.74	4105.30
416.93	3957.85
417.12	4091.26
417.31	4210.62
417.50	4269.14
417.69	4311.27
417.88	4276.16
418.07	4177.86
418.26	4428.29
418.45	4362.76
418.64	4491.49
418.83	4491.49
419.02	4416.59
419.21	4456.38
419.39	4681.07
419.58	4547.66
419.77	4542.98
419.96	4699.80
420.15	4753.63
420.34	4716.18
420.53	4629.58
420.72	4648.30
420.91	4697.46
421.10	4755.97
421.29	4812.14
421.48	4760.65
421.67	4791.08
421.86	4770.01
422.05	4800.44
422.24	4765.33
422.43	4770.01
422.61	4854.27
422.80	5041.51
422.99	4924.49
423.18	4898.74
423.37	5125.77
423.56	5011.09
423.75	4765.33
423.94	4875.34
424.13	4554.68
424.32	4791.08
424.50	5235.78
424.69	5081.30
424.88	5085.98
425.07	5001.72
425.26	4999.38
425.45	5191.31
425.64	5025.13
425.83	4898.74
426.01	5095.35
426.20	5046.20
426.39	4971.30
426.58	5046.20
426.77	5219.39
426.96	5153.86
427.15	5053.22
427.33	5102.37
427.52	5132.79
427.71	5317.70
427.90	5336.42
428.09	5427.70
428.28	5226.42
428.46	5462.81
428.65	5378.55
428.84	5511.96
429.03	5610.26
429.22	5172.58
429.40	5521.32
429.59	5504.94
429.78	5380.89
429.97	5320.04
430.16	5577.50
430.34	5579.84
430.53	5631.33
430.72	5771.76
430.91	5710.91
431.10	5490.90
431.28	5877.09
431.47	5989.43
431.66	5884.11
431.85	5788.14
432.03	5949.64
432.22	5872.40
432.41	5942.62
432.60	5881.77
432.79	5947.30
432.97	5926.24
433.16	6092.41
433.35	5963.68
433.54	6183.70
433.72	6202.42
433.91	6256.25
434.10	6094.76
434.28	6099.44
434.47	6071.35
434.66	6108.80
434.85	6359.24
435.03	6284.34
435.22	6272.64
435.41	6464.56
435.59	6291.36
435.78	6324.13
435.97	6567.54
436.16	6284.34
436.34	6331.15
436.53	6490.31
436.72	6612.01
436.90	6590.95
437.09	6619.04
437.28	6434.13
437.46	6696.27
437.65	6696.27
437.84	6644.78
438.02	6733.72
438.21	6820.32
438.40	6619.04
438.58	7056.72
438.77	7094.16
438.96	6923.30
439.14	7194.81
439.33	7054.37
439.52	7140.97
439.70	7201.83
439.89	7265.02
440.08	7126.93
440.26	7501.42
440.45	7552.91
440.63	7585.68
440.82	7679.30
441.01	7599.72
441.19	7646.53
441.38	7693.34
441.57	7716.75
441.75	7702.70
441.94	8023.36
442.12	7948.46
442.31	8028.04
442.50	8060.80
442.68	7997.61
442.87	8156.77
443.05	8072.51
443.24	8313.58
443.43	8236.35
443.61	8259.75
443.80	8390.82
443.98	7901.65
444.17	7566.95
444.35	8222.30
444.54	8393.16
444.73	8194.22
444.91	8304.22
445.10	8437.63
445.28	8390.82
445.47	8404.86
445.65	8507.85
445.84	8411.89
446.02	8491.46
446.21	8472.74
446.39	8353.37
446.58	8533.59
446.77	8381.46
446.95	8435.29
447.14	8430.61
447.32	8573.38
447.51	8456.36
447.69	8477.42
447.88	8468.06
448.06	8491.46
448.25	8512.53
448.43	8716.16
448.62	8720.84
448.80	8484.44
448.99	8833.18
449.17	8861.27
449.36	8924.46
449.54	8692.75
449.73	8975.95
449.91	8875.31
450.10	8917.44
450.28	9011.06
450.46	9029.79
450.65	9022.77
450.83	9198.31
451.02	9008.72
451.20	9249.80
451.39	9217.03
451.57	8952.55
451.76	9090.64
451.94	9355.12
452.13	9415.98
452.31	9242.78
452.49	9128.09
452.68	9535.34
452.86	9376.19
453.05	9558.75
453.23	9621.94
453.42	9378.53
453.60	9259.16
453.78	9371.50
453.97	9575.13
454.15	9577.47
454.34	9385.55
454.52	9956.64
454.70	9750.67
454.89	9762.37
455.07	9624.28
455.26	9968.34
455.44	10134.52
455.62	9949.62
455.81	9884.08
455.99	9825.57
456.17	10097.07
456.36	10104.09
456.54	10223.46
456.73	10368.57
456.91	10567.52
457.09	10551.14
457.28	10527.73
457.46	10548.79
457.64	10595.61
457.83	10581.56
458.01	10569.86
458.19	10778.17
458.38	10768.80
458.56	10616.67
458.74	10682.20
458.93	10824.98
459.11	10862.43
459.29	10860.09
459.48	10743.06
459.66	11035.63
459.84	10944.34
460.03	11129.25
460.21	11192.44
460.39	11101.16
460.57	10946.69
460.76	11059.03
460.94	11187.76
461.12	11213.51
461.31	11339.90
461.49	11140.95
461.67	11222.87
461.85	11403.09
462.04	11365.64
462.22	11719.06
462.40	11531.82
462.59	11384.37
462.77	11676.93
462.95	11616.08
463.13	11681.61
463.32	11845.45
463.50	11768.21
463.68	11885.24
463.86	11981.20
464.05	11683.95
464.23	11702.68
464.41	12077.16
464.59	11723.74
464.78	12233.98
464.96	12046.74
465.14	11896.94
465.32	11943.75
465.50	12133.34
465.69	11969.50
465.87	11892.26
466.05	12093.55
466.23	12060.78
466.41	12238.66
466.60	12610.81
466.78	12294.83
466.96	12336.96
467.14	12428.24
467.32	12491.44
467.51	12205.89
467.69	12329.94
467.87	12444.63
468.05	12498.46
468.23	12816.77
468.41	12575.70
468.60	12610.81
468.78	12711.45
468.96	12634.21
469.14	12903.37
469.32	13081.25
469.50	12760.60
469.69	13006.36
469.87	13069.55
470.05	13128.06
470.23	13301.26
470.41	13256.79
470.59	13277.86
470.77	13158.49
470.95	13469.78
471.14	13717.88
471.32	13212.32
471.50	13516.59
471.68	13657.03
471.86	13776.39
472.04	13963.64
472.22	14026.83
472.40	13689.79
472.58	13799.80
472.77	13923.85
472.95	14026.83
473.13	14675.16
473.31	14125.13
473.49	14312.38
473.67	14274.93
473.85	14307.69
474.03	14860.06
474.21	14778.14
474.39	14738.35
474.57	14721.97
474.75	14745.38
474.93	15154.97
475.12	15222.84
475.30	15161.99
475.48	15302.42
475.66	15194.76
475.84	15307.10
476.02	15616.05
476.20	15796.28
476.38	15793.94
476.56	15756.49
476.74	16269.06
476.92	16058.42
477.10	16025.65
477.28	16353.32
477.46	16334.60
477.64	16322.90
477.82	16659.93
478.00	16938.46
478.18	17111.66
478.36	17315.28
478.54	17336.35
478.72	17193.58
478.90	17631.26
479.08	17935.53
479.26	17867.65
479.44	17771.69
479.62	17682.75
479.80	18408.31
479.98	18300.65
480.16	18719.60
480.34	18347.46
480.52	18597.90
480.70	18780.46
480.88	18764.07
481.06	19075.37
481.24	18937.27
481.41	18991.11
481.59	19332.82
481.77	19445.17
481.95	19475.60
482.13	19889.87
482.31	19859.45
482.49	20325.21
482.67	20313.51
482.85	20496.07
483.03	20833.11
483.21	21029.71
483.39	20994.61
483.57	20900.98
483.74	21312.92
483.92	21549.31
484.10	21146.74
484.28	21755.28
484.46	22113.38
484.64	22595.53
484.82	22125.08
485.00	22274.88
485.18	22848.31
485.35	22909.16
485.53	23021.51
485.71	23133.86
485.89	23637.07
486.07	23520.04
486.25	23477.91
486.43	23791.55
486.61	23709.63
486.78	24287.74
486.96	24283.06
487.14	24713.72
487.32	24720.74
487.50	24900.96
487.68	25364.39
487.85	25249.70
488.03	26118.04
488.21	26008.03
488.39	25965.90
488.57	25886.32
488.75	26546.36
488.92	26635.30
489.10	26560.40
489.28	27262.56
489.46	27381.93
489.64	27494.27
489.81	27812.59
489.99	27906.21
490.17	27936.63
490.35	28128.56
490.53	28151.96
490.70	28629.43
490.88	28624.75
491.06	28893.91
491.24	29118.60
491.41	28971.15
491.59	29773.95
491.77	29661.61
491.95	29656.93
492.13	29993.97
492.30	30249.08
492.48	30258.45
492.66	30522.93
492.84	30551.01
493.01	30738.26
493.19	30417.60
493.37	31033.16
493.54	31225.09
493.72	31747.03
493.90	31622.98
494.08	31908.52
494.25	32114.49
494.43	32652.81
494.61	32676.22
494.79	32627.07
494.96	32723.03
495.14	32900.91
495.32	33209.86
495.49	33338.59
495.67	33436.89
495.85	33766.91
496.02	33991.60
496.20	33645.20
496.38	34307.57
496.55	34197.57
496.73	35175.91
496.91	34735.89
497.09	35047.18
497.26	35349.11
497.44	35147.82
497.62	35508.27
497.79	35627.63
497.97	35796.15
498.14	36346.18
498.32	36664.49
498.50	36481.93
498.67	36369.58
498.85	36662.15
499.03	36641.09
499.20	37148.98
499.38	37008.55
499.56	37904.98
499.73	37226.22
499.91	37724.75
500.08	37986.89
500.26	37551.56
500.44	38050.09
500.61	37869.87
500.79	37809.01
500.97	38181.16
501.14	39117.37
501.32	38965.24
501.49	38569.69
501.67	38848.21
501.84	39014.39
502.02	38869.28
502.20	39433.35
502.37	39505.90
502.55	39187.59
502.72	39526.97
502.90	39564.42
503.07	39725.91
503.25	39929.54
503.43	39754.00
503.60	40027.84
503.78	40322.75
503.95	40610.64
504.13	40502.97
504.30	40802.56
504.48	40467.86
504.65	40854.05
504.83	41280.03
505.01	41837.08
505.18	41586.64
505.36	41823.03
505.53	41607.70
505.71	41659.20
505.88	41647.49
506.06	41254.28
506.23	42361.36
506.41	41783.24
506.58	42181.13
506.76	42670.31
506.93	42527.53
507.11	42593.07
507.28	42611.79
507.46	42955.85
507.63	43119.69
507.81	43669.72
507.98	43215.65
508.16	43332.68
508.33	43613.54
508.50	43758.66
508.68	43667.37
508.85	44327.41
509.03	44512.31
509.20	44591.89
509.38	44254.85
509.55	44488.90
509.73	44533.37
509.90	44556.78
510.08	44919.56
510.25	45186.38
510.42	44816.58
510.60	44685.51
510.77	45535.12
510.95	45710.66
511.12	45663.85
511.30	45743.43
511.47	45612.36
511.64	45879.18
511.82	46115.58
511.99	46195.15
512.17	46153.02
512.34	46244.30
512.51	46197.49
512.69	46387.08
512.86	46246.65
513.04	47096.26
513.21	46735.82
513.38	47058.81
513.56	47274.14
513.73	46890.29
513.90	47337.33
514.08	46965.19
514.25	47491.81
514.43	47627.56
514.60	47683.73
514.77	47737.57
514.95	48065.24
515.12	47875.66
515.29	48004.39
515.47	48032.47
515.64	48495.90
515.81	48191.63
515.99	48626.97
516.16	48594.20
516.33	48598.88
516.51	48879.75
516.68	48987.41
516.85	48531.01
517.03	49029.54
517.20	49160.61
517.37	49179.34
517.54	48961.67
517.72	49191.04
517.89	49160.61
518.06	49045.93
518.24	49198.06
518.41	49577.23
518.58	49715.32
518.75	49418.07
518.93	49925.97
519.10	49598.29
519.27	50167.04
519.45	50054.70
519.62	50064.06
519.79	50216.19
519.96	50096.83
520.14	50644.51
520.31	50169.38
520.48	50431.52
520.65	50845.80
520.83	50972.19
521.00	51213.26
521.17	50808.35
521.34	50630.47
521.52	51026.02
521.69	51224.96
521.86	51044.74
522.03	51356.03
522.20	51721.16
522.38	51517.53
522.55	51531.57
522.72	51297.52
522.89	51496.47
523.07	51840.53
523.24	51793.71
523.41	51845.21
523.58	51934.15
523.75	52154.16
523.92	51866.27
524.10	52325.02
524.27	52083.94
524.44	52289.91
524.61	52339.06
524.78	52273.52
524.96	52259.48
525.13	52566.09
525.30	52549.71
525.47	52774.40
525.64	52575.45
525.81	52659.71
525.98	52926.53
526.16	52664.39
526.33	52877.38
526.50	53172.29
526.67	52772.06
526.84	53139.52
527.01	53212.08
527.18	53076.33
527.36	53291.66
527.53	53169.95
527.70	53556.14
527.87	53441.45
528.04	53298.68
528.21	53495.28
528.38	53598.27
528.55	53806.58
528.72	53183.99
528.89	53677.85
529.07	53577.20
529.24	53483.58
529.41	53848.71
529.58	53972.75
529.75	53570.18
529.92	53942.33
530.09	54087.44
530.26	54293.41
530.43	54220.85
530.60	53954.03
530.77	54089.78
530.94	54473.63
531.11	54129.57
531.28	54363.62
531.46	54475.97
531.63	54272.34
531.80	54452.56
531.97	54602.36
532.14	54691.30
532.31	54766.20
532.48	54822.37
532.65	54794.28
532.82	54585.97
532.99	55089.19
533.16	54801.30
533.33	54995.57
533.50	55231.96
533.67	54993.23
533.84	55014.29
534.01	55061.10
534.18	54997.91
534.35	55339.63
534.52	55164.09
534.69	55309.20
534.86	55487.08
535.03	55351.33
535.20	55377.08
535.37	55461.33
535.54	55412.18
535.71	55547.93
535.88	55660.28
536.05	55641.56
536.22	55732.84
536.38	55854.54
536.55	55391.12
536.72	55861.57
536.89	55676.66
537.06	55842.84
537.23	55781.99
537.40	55660.28
537.57	55957.53
537.74	55828.80
537.91	56175.20
538.08	55924.76
538.25	55753.90
538.42	56030.08
538.59	56390.53
538.75	55838.16
538.92	56184.56
539.09	56320.31
539.26	56102.64
539.43	56296.91
539.60	56296.91
539.77	56420.95
539.94	56809.48
540.11	56390.53
540.28	56444.36
540.44	56409.25
540.61	56313.29
540.78	56793.10
540.95	56430.32
541.12	56594.15
541.29	56631.60
541.46	56470.11
541.62	56542.66
541.79	56636.28
541.96	56219.67
542.13	56804.80
542.30	56875.02
542.47	57073.96
542.63	56949.92
542.80	57092.69
542.97	57181.63
543.14	57293.97
543.31	57214.40
543.48	57497.60
543.64	57544.41
543.81	57453.13
543.98	57528.03
544.15	57474.20
544.32	57752.72
544.48	57733.99
544.65	57537.39
544.82	57652.08
544.99	57190.99
545.16	57759.74
545.32	57600.58
545.49	57813.57
545.66	57745.70
545.83	57708.25
546.00	57794.85
546.16	57860.38
546.33	57759.74
546.50	57492.92
546.67	58094.44
546.83	57750.38
547.00	57989.11
547.17	57738.68
547.34	57979.75
547.50	57972.73
547.67	58176.36
547.84	58101.46
548.00	58007.84
548.17	58527.44
548.34	58216.14
548.51	58319.13
548.67	58450.20
548.84	58265.30
549.01	58209.12
549.18	58361.26
549.34	58541.48
549.51	58356.58
549.68	58321.47
549.84	58419.77
550.01	58773.19
550.18	58468.92
550.34	58408.07
550.51	58656.17
550.68	58497.01
550.84	58375.30
551.01	58862.13
551.18	58546.16
551.34	58782.55
551.51	58761.49
551.68	58829.37
551.84	58672.55
552.01	58616.38
552.18	58883.20
552.34	58787.24
552.51	58784.90
552.68	58686.59
552.84	58651.48
553.01	58930.01
553.18	59004.91
553.34	58930.01
553.51	58555.52
553.67	58915.96
553.84	59086.82
554.01	59000.22
554.17	59058.74
554.34	59072.78
554.51	59040.01
554.67	59143.00
554.84	59285.77
555.00	59189.81
555.17	59107.89
555.33	59236.62
555.50	58944.05
555.67	59227.26
555.83	59217.89
556.00	59105.55
556.16	59503.44
556.33	59325.56
556.50	59393.43
556.66	59430.88
556.83	59192.15
556.99	59477.69
557.16	59578.34
557.32	59519.82
557.49	59744.51
557.65	59484.72
557.82	59552.59
557.98	59625.15
558.15	59440.24
558.32	59716.43
558.48	59484.72
558.65	59320.88
558.81	59545.57
558.98	59571.32
559.14	59793.67
559.31	59805.37
559.47	59683.66
559.64	59831.11
559.80	59943.46
559.97	59898.99
560.13	59568.97
560.30	59798.35
560.46	60018.36
560.63	59948.14
560.79	59908.35
560.96	59985.59
561.12	60095.60
561.29	59896.65
561.45	59931.76
561.61	60055.81
561.78	59906.01
561.94	59819.41
562.11	59835.80
562.27	59985.59
562.44	59976.23
562.60	60055.81
562.77	60320.29
562.93	59992.61
563.10	60109.64
563.26	60161.13
563.42	60264.11
563.59	60404.55
563.75	59917.71
563.92	60161.13
564.08	60182.19
564.24	60271.14
564.41	60137.72
564.57	60107.30
564.74	60296.88
564.90	60219.64
565.07	60219.64
565.23	60177.51
565.39	60214.96
565.56	60266.45
565.72	60271.14
565.88	60203.26
566.05	60067.51
566.21	60331.99
566.38	60493.49
566.54	60168.15
566.70	60526.25
566.87	60533.28
567.03	60294.54
567.19	60392.84
567.36	60374.12
567.52	60434.97
567.68	60566.04
567.85	60458.38
568.01	60322.63
568.17	60399.86
568.34	60430.29
568.50	60331.99
568.66	60488.80
568.83	60477.10
568.99	60484.12
569.15	60568.38
569.32	60577.75
569.48	60669.03
569.64	60474.76
569.81	60617.53
569.97	60463.06
570.13	60544.98
570.30	60523.91
570.46	60512.21
570.62	60718.18
570.78	60692.43
570.95	60774.35
571.11	60694.77
571.27	60666.69
571.43	60757.97
571.60	60790.73
571.76	60626.90
571.92	60945.21
572.09	60814.14
572.25	60477.10
572.41	60615.19
572.57	60823.50
572.74	60874.99
572.90	60853.93
573.06	60790.73
573.22	60804.78
573.38	60802.44
573.55	60671.37
573.71	60832.86
573.87	60640.94
574.03	60701.79
574.20	60734.56
574.36	60608.17
574.52	60734.56
574.68	61048.19
574.84	60989.68
575.01	60823.50
575.17	60900.74
575.33	60676.05
575.49	60823.50
575.65	60865.63
575.82	61038.83
575.98	60896.06
576.14	61076.28
576.30	60992.02
576.46	60963.93
576.62	60865.63
576.79	60797.76
576.95	60961.59
577.11	60882.02
577.27	61013.08
577.43	61116.07
577.59	60783.71
577.75	60797.76
577.92	60966.27
578.08	60860.95
578.24	61050.53
578.40	60987.34
578.56	61118.41
578.72	60933.51
578.88	60879.67
579.04	61085.64
579.21	61083.30
579.37	61006.06
579.53	61022.45
579.69	60781.37
579.85	60947.55
580.01	61001.38
580.17	60907.76
580.33	60926.49
580.49	61109.05
580.65	61186.28
580.82	61045.85
580.98	60940.53
581.14	60992.02
581.30	61118.41
581.46	60865.63
581.62	61010.74
581.78	60882.02
581.94	61319.70
582.10	61221.39
582.26	61151.18
582.42	61031.81
582.58	61076.28
582.74	61141.81
582.90	61003.72
583.06	60928.83
583.22	60844.57
583.38	61085.64
583.54	61127.77
583.70	61043.51
583.86	61029.47
584.02	61104.37
584.18	61219.05
584.34	61183.94
584.50	61111.39
584.66	61087.98
584.82	60828.18
584.98	61277.57
585.14	61205.01
585.30	61024.79
585.46	61144.16
585.62	61324.38
585.78	61312.67
585.94	61057.56
586.10	61137.13
586.26	61240.12
586.42	60968.61
586.58	61174.58
586.74	61146.50
586.90	61095.00
587.06	61160.54
587.22	61392.25
587.38	61083.30
587.54	61331.40
587.70	61436.72
587.86	61333.74
588.02	61165.22
588.18	61364.17
588.34	61315.01
588.49	61160.54
