SpectraSuite Data File
++++++++++++++++++++++++++++++++++++
Date: Fri Oct 25 11:22:57 EDT 2013
User: price-jones
Dark Spectrum Present: No
Reference Spectrum Present: No
Number of Sampled Component Spectra: 1
Spectrometers: USB2+H05261
Integration Time (usec): 100000 (USB2+H05261)
Spectra Averaged: 1 (USB2+H05261)
Boxcar Smoothing: 0 (USB2+H05261)
Correct for Electrical Dark: No (USB2+H05261)
Strobe/Lamp Enabled: No (USB2+H05261)
Correct for Detector Non-linearity: No (USB2+H05261)
Correct for Stray Light: No (USB2+H05261)
Number of Pixels in Processed Spectrum: 2048
>>>>>Begin Processed Spectral Data<<<<<
365.73	257.46
365.92	257.46
366.12	257.46
366.32	140.43
366.52	100.64
366.72	117.03
366.91	86.60
367.11	161.50
367.31	86.60
367.51	110.01
367.70	93.62
367.90	220.01
368.10	138.09
368.30	28.09
368.49	121.71
368.69	145.11
368.89	184.90
369.09	177.88
369.28	140.43
369.48	79.58
369.68	110.01
369.87	220.01
370.07	252.78
370.27	173.20
370.47	325.33
370.66	596.84
370.86	638.97
371.06	599.18
371.25	699.82
371.45	674.07
371.65	662.37
371.84	741.95
372.04	674.07
372.24	699.82
372.44	732.59
372.63	760.67
372.83	713.86
373.03	741.95
373.22	657.69
373.42	798.12
373.62	730.25
373.81	791.10
374.01	819.19
374.21	767.70
374.40	739.61
374.60	746.63
374.79	779.40
374.99	828.55
375.19	800.46
375.38	847.27
375.58	826.21
375.78	821.53
375.97	870.68
376.17	926.85
376.37	814.51
376.56	887.06
376.76	868.34
376.95	809.83
377.15	866.00
377.35	849.61
377.54	915.15
377.74	889.40
377.93	940.90
378.13	966.64
378.33	905.79
378.52	922.17
378.72	891.74
378.91	1006.43
379.11	889.40
379.31	968.98
379.50	933.87
379.70	987.71
379.89	905.79
380.09	926.85
380.28	978.34
380.48	1055.58
380.68	912.81
380.87	1006.43
381.07	1011.11
381.26	1015.79
381.46	968.98
381.65	980.68
381.85	1118.78
382.04	1039.20
382.24	943.24
382.43	1102.39
382.63	1062.60
382.83	1053.24
383.02	1095.37
383.22	1153.88
383.41	1025.15
383.61	1057.92
383.80	1111.75
384.00	1114.10
384.19	1062.60
384.39	1048.56
384.58	1128.14
384.78	1252.19
384.97	1177.29
385.17	1191.33
385.36	1123.46
385.56	1158.57
385.75	1125.80
385.95	1266.23
386.14	1254.53
386.34	1137.50
386.53	1177.29
386.72	1181.97
386.92	1228.78
387.11	1210.06
387.31	1261.55
387.50	1275.59
387.70	1259.21
387.89	1299.00
388.09	1228.78
388.28	1308.36
388.48	1254.53
388.67	1373.89
388.86	1266.23
389.06	1409.00
389.25	1296.66
389.45	1336.45
389.64	1373.89
389.84	1376.24
390.03	1397.30
390.22	1458.15
390.42	1352.83
390.61	1458.15
390.81	1362.19
391.00	1432.41
391.19	1479.22
391.39	1373.89
391.58	1533.05
391.78	1521.35
391.97	1497.94
392.16	1416.02
392.36	1467.52
392.55	1540.07
392.75	1514.33
392.94	1523.69
393.13	1589.22
393.33	1434.75
393.52	1514.33
393.71	1579.86
393.91	1570.50
394.10	1612.63
394.29	1598.59
394.49	1624.33
394.68	1584.54
394.88	1589.22
395.07	1619.65
395.26	1776.47
395.46	1722.63
395.65	1703.91
395.84	1701.57
396.04	1799.87
396.23	1748.38
396.42	1699.23
396.62	1832.64
396.81	1802.21
397.00	1846.68
397.19	1809.23
397.39	1799.87
397.58	1834.98
397.77	1795.19
397.97	1909.88
398.16	1863.07
398.35	1973.07
398.55	1916.90
398.74	1916.90
398.93	1977.75
399.12	1874.77
399.32	1886.47
399.51	1902.86
399.70	1970.73
399.90	2099.46
400.09	2029.24
400.28	2043.29
400.47	2085.42
400.67	2085.42
400.86	2160.31
401.05	2057.33
401.24	2038.61
401.44	2139.25
401.63	2207.13
401.82	2099.46
402.01	2085.42
402.21	2169.68
402.40	2153.29
402.59	2333.51
402.78	2251.60
402.97	2263.30
403.17	2293.72
403.36	2319.47
403.55	2282.02
403.74	2373.30
403.93	2422.45
404.13	2303.09
404.32	2361.60
404.51	2333.51
404.70	2436.50
404.89	2410.75
405.09	2572.25
405.28	2497.35
405.47	2476.29
405.66	2525.44
405.85	2530.12
406.05	2483.31
406.24	2558.21
406.43	2621.40
406.62	2600.34
406.81	2607.36
407.00	2539.48
407.20	2572.25
407.39	2569.91
407.58	2630.76
407.77	2806.30
407.96	2822.69
408.15	2813.32
408.34	2766.51
408.54	2745.45
408.73	2719.70
408.92	2888.22
409.11	2963.12
409.30	2963.12
409.49	2906.95
409.68	2892.90
409.87	2977.16
410.07	2972.48
410.26	3038.02
410.45	3059.08
410.64	3087.17
410.83	3164.40
411.02	3096.53
411.21	3194.83
411.40	3101.21
411.59	3323.56
411.78	3260.37
411.98	3190.15
412.17	3265.05
412.36	3176.11
412.55	3304.84
412.74	3510.80
412.93	3407.82
413.12	3389.10
413.31	3632.51
413.50	3522.51
413.69	3578.68
413.88	3630.17
414.07	3761.24
414.26	3698.05
414.45	3676.98
414.64	3672.30
414.83	3772.94
415.02	3719.11
415.22	3817.41
415.41	3810.39
415.60	3786.99
415.79	3969.55
415.98	3918.06
416.17	3978.91
416.36	4018.70
416.55	4009.34
416.74	4028.06
416.93	4128.70
417.12	4093.60
417.31	4180.20
417.50	4243.39
417.69	4517.23
417.88	4301.90
418.07	4271.48
418.26	4320.63
418.45	4390.84
418.64	4685.75
418.83	4524.26
419.02	4477.44
419.21	4451.70
419.39	4486.81
419.58	4575.75
419.77	4475.10
419.96	4638.94
420.15	4657.67
420.34	4547.66
420.53	4730.22
420.72	4786.40
420.91	4816.82
421.10	4774.69
421.29	4873.00
421.48	4737.24
421.67	4812.14
421.86	4816.82
422.05	4978.32
422.24	4774.69
422.43	4997.04
422.61	4924.49
422.80	4915.12
422.99	4931.51
423.18	4851.93
423.37	4999.38
423.56	4877.68
423.75	4912.78
423.94	4865.97
424.13	4550.00
424.32	4762.99
424.50	5076.62
424.69	5151.52
424.88	5121.09
425.07	5029.81
425.26	4978.32
425.45	4802.78
425.64	5013.43
425.83	5029.81
426.01	5125.77
426.20	5041.51
426.39	5069.60
426.58	4868.31
426.77	5144.50
426.96	5305.99
427.15	5097.69
427.33	5083.64
427.52	5170.24
427.71	5334.08
427.90	5357.49
428.09	5266.21
428.28	5266.21
428.46	5504.94
428.65	5329.40
428.84	5664.10
429.03	5486.22
429.22	5348.12
429.40	5514.30
429.59	5483.88
429.78	5303.65
429.97	5416.00
430.16	5504.94
430.34	5741.33
430.53	5713.25
430.72	5858.36
430.91	5687.50
431.10	5668.78
431.28	5638.35
431.47	5727.29
431.66	5914.53
431.85	5825.59
432.03	5937.94
432.22	6031.56
432.41	5877.09
432.60	6033.90
432.79	5944.96
432.97	5959.00
433.16	5989.43
433.35	6120.50
433.54	6150.93
433.72	6253.91
433.91	6052.63
434.10	6263.27
434.28	6139.23
434.47	6298.38
434.66	6298.38
434.85	6242.21
435.03	6408.39
435.22	6277.32
435.41	6527.75
435.59	6427.11
435.78	6459.88
435.97	6551.16
436.16	6525.41
436.34	6417.75
436.53	6520.73
436.72	6862.45
436.90	6707.98
437.09	6717.34
437.28	6600.31
437.46	6590.95
437.65	6686.91
437.84	6817.98
438.02	6935.01
438.21	6951.39
438.40	6906.92
438.58	7115.23
438.77	6995.86
438.96	7129.27
439.14	7087.14
439.33	7377.37
439.52	7304.81
439.70	7330.56
439.89	7396.09
440.08	7407.80
440.26	7405.46
440.45	7487.37
440.63	7452.27
440.82	7716.75
441.01	7555.25
441.19	7604.40
441.38	7765.90
441.57	7698.02
441.75	7838.45
441.94	8023.36
442.12	7962.50
442.31	8098.25
442.50	8039.74
442.68	8105.28
442.87	8070.17
443.05	8093.57
443.24	8173.15
443.43	8435.29
443.61	8203.58
443.80	8430.61
443.98	8016.33
444.17	7824.41
444.35	8112.30
444.54	8156.77
444.73	8379.12
444.91	8173.15
445.10	8411.89
445.28	8451.67
445.47	8299.54
445.65	8477.42
445.84	8327.63
446.02	8496.14
446.21	8491.46
446.39	8493.80
446.58	8531.25
446.77	8468.06
446.95	8379.12
447.14	8535.93
447.32	8652.96
447.51	8498.49
447.69	8554.66
447.88	8538.27
448.06	8568.70
448.25	8573.38
448.43	8549.98
448.62	8559.34
448.80	8559.34
448.99	8760.63
449.17	8737.22
449.36	8699.77
449.54	8973.61
449.73	8980.64
449.91	9074.26
450.10	9057.87
450.28	9348.10
450.46	8950.21
450.65	9107.02
450.83	9172.56
451.02	9064.89
451.20	9146.81
451.39	9327.03
451.57	9273.20
451.76	8999.36
451.94	9085.96
452.13	9287.25
452.31	9305.97
452.49	9172.56
452.68	9371.50
452.86	9467.47
453.05	9504.92
453.23	9657.05
453.42	9385.55
453.60	9528.32
453.78	9561.09
453.97	9434.70
454.15	9425.34
454.34	9565.77
454.52	9703.86
454.70	9593.86
454.89	9921.53
455.07	9879.40
455.26	9834.93
455.44	10050.26
455.62	9963.66
455.81	10094.73
455.99	9837.27
456.17	10157.92
456.36	10214.10
456.54	10317.08
456.73	10553.48
456.91	10520.71
457.09	10272.61
457.28	10518.37
457.46	10307.72
457.64	10546.45
457.83	10635.39
458.01	10312.40
458.19	10752.42
458.38	10703.27
458.56	10707.95
458.74	10675.18
458.93	10853.06
459.11	10890.51
459.29	10661.14
459.48	10822.64
459.66	10724.33
459.84	11012.22
460.03	10981.79
460.21	10967.75
460.39	10934.98
460.57	10956.05
460.76	11042.65
460.94	11218.19
461.12	11356.28
461.31	11246.27
461.49	11117.54
461.67	11171.38
461.85	11389.05
462.04	11344.58
462.22	11810.34
462.40	11625.44
462.59	11800.98
462.77	11566.93
462.95	11772.89
463.13	11899.28
463.32	11522.46
463.50	11754.17
463.68	11882.90
463.86	11964.82
464.05	11770.55
464.23	11882.90
464.41	11999.93
464.59	11730.76
464.78	12367.39
464.96	12271.43
465.14	12046.74
465.32	12269.09
465.50	12437.61
465.69	12138.02
465.87	12175.47
466.05	12053.76
466.23	12285.47
466.41	12294.83
466.60	12610.81
466.78	12217.60
466.96	12046.74
467.14	12442.29
467.32	12472.71
467.51	12704.43
467.69	12189.51
467.87	12397.82
468.05	12917.42
468.23	12521.87
468.41	12388.46
468.60	12746.56
468.78	12746.56
468.96	12985.29
469.14	12910.40
469.32	13235.73
469.50	12896.35
469.69	12973.59
469.87	13109.34
470.05	13193.60
470.23	13348.08
470.41	13308.29
470.59	13418.29
470.77	13455.74
470.95	13542.34
471.14	13488.51
471.32	13224.03
471.50	13589.15
471.68	13645.32
471.86	14033.85
472.04	13902.78
472.22	14090.02
472.40	13738.94
472.58	14059.60
472.77	14209.39
472.95	14097.05
473.13	14689.20
473.31	14171.94
473.49	14321.74
473.67	14026.83
473.85	14389.61
474.03	14658.78
474.21	14710.27
474.39	14738.35
474.57	14995.81
474.75	15101.14
474.93	14967.73
475.12	15110.50
475.30	15255.61
475.48	15056.67
475.66	15290.72
475.84	15094.11
476.02	15398.38
476.20	15618.39
476.38	15683.93
476.56	16397.79
476.74	16149.70
476.92	16116.93
477.10	15899.26
477.28	16252.68
477.46	16358.00
477.64	16517.16
477.82	16725.47
478.00	16922.07
478.18	17109.32
478.36	17247.41
478.54	17465.08
478.72	17259.11
478.90	17483.80
479.08	17598.49
479.26	17804.46
479.44	18008.08
479.62	17928.50
479.80	18052.55
479.98	18422.36
480.16	18899.83
480.34	18361.50
480.52	18848.33
480.70	18661.09
480.88	18640.03
481.06	18789.82
481.24	19091.75
481.41	19236.86
481.59	19417.08
481.77	19648.80
481.95	19709.65
482.13	20196.48
482.31	19822.00
482.49	20397.77
482.67	20341.60
482.85	20648.21
483.03	20847.15
483.21	20954.82
483.39	20893.96
483.57	20945.45
483.74	21172.49
483.92	21734.21
484.10	21319.94
484.28	22064.23
484.46	21996.35
484.64	22600.21
484.82	22118.06
485.00	22726.60
485.18	22998.10
485.35	22958.31
485.53	22831.93
485.71	23379.61
485.89	23611.32
486.07	23204.07
486.25	23616.01
486.43	23826.65
486.61	24016.24
486.78	24142.63
486.96	24180.07
487.14	24737.12
487.32	24725.42
487.50	25027.35
487.68	25111.61
487.85	25713.13
488.03	25759.94
488.21	26089.95
488.39	25855.90
488.57	26064.21
488.75	26583.80
488.92	26611.89
489.10	27063.61
489.28	26944.25
489.46	27143.19
489.64	27391.29
489.81	27644.07
489.99	27955.36
490.17	27737.69
490.35	28294.74
490.53	28573.26
490.70	28755.82
490.88	28678.58
491.06	28989.88
491.24	28992.22
491.41	29443.94
491.59	29343.30
491.77	29544.58
491.95	30244.40
492.13	30340.36
492.30	30068.86
492.48	30139.08
492.66	30345.05
492.84	30419.94
493.01	30705.49
493.19	30890.39
493.37	31257.85
493.54	31559.78
493.72	31452.12
493.90	31510.63
494.08	32287.69
494.25	32364.93
494.43	32095.77
494.61	32503.02
494.79	32519.40
494.96	32481.95
495.14	33310.50
495.32	33467.32
495.49	33315.19
495.67	33521.15
495.85	33486.04
496.02	34160.12
496.20	34085.22
496.38	34183.52
496.55	34616.52
496.73	35115.06
496.91	34637.59
497.09	34991.01
497.26	35222.72
497.44	35136.12
497.62	35522.31
497.79	35901.48
497.97	35831.26
498.14	36374.27
498.32	36177.66
498.50	36587.25
498.67	37031.96
498.85	36568.53
499.03	37474.32
499.20	37324.52
499.38	36952.38
499.56	37633.47
499.73	37556.24
499.91	37581.98
500.08	37834.76
500.26	37684.97
500.44	37757.52
500.61	38057.11
500.79	38134.35
500.97	38391.81
501.14	39058.86
501.32	38483.09
501.49	38644.59
501.67	39365.47
501.84	39480.16
502.02	39227.38
502.20	39344.41
502.37	39667.40
502.55	39606.55
502.72	39690.80
502.90	39732.93
503.07	39524.63
503.25	40172.96
503.43	40140.19
503.60	40161.25
503.78	40683.19
503.95	40800.22
504.13	40863.41
504.30	40697.24
504.48	40559.14
504.65	40917.25
504.83	41275.35
505.01	41387.69
505.18	41415.78
505.36	41883.89
505.53	41493.02
505.71	42155.39
505.88	41881.55
506.06	41771.54
506.23	42370.72
506.41	42321.57
506.58	42405.83
506.76	42789.67
506.93	42913.72
507.11	42616.47
507.28	42789.67
507.46	43274.16
507.63	43386.51
507.81	43267.14
507.98	43423.96
508.16	42976.92
508.33	43803.13
508.50	43718.87
508.68	43824.19
508.85	44397.62
509.03	43924.83
509.20	44673.81
509.38	44341.45
509.55	44694.87
509.73	44198.68
509.90	44865.73
510.08	44978.07
510.25	45141.91
510.42	45146.59
510.60	45460.23
510.77	45249.58
510.95	45773.86
511.12	45404.05
511.30	45907.27
511.47	46012.59
511.64	45998.55
511.82	46459.63
511.99	45621.72
512.17	46410.48
512.34	45942.38
512.51	46375.37
512.69	46639.86
512.86	46604.75
513.04	46981.57
513.21	47037.75
513.38	47063.49
513.56	47295.21
513.73	46974.55
513.90	47075.19
514.08	47625.22
514.25	47819.49
514.43	47423.93
514.60	47810.12
514.77	47704.80
514.95	47814.80
515.12	48011.41
515.29	47964.60
515.47	48306.32
515.64	48322.70
515.81	48257.17
515.99	48371.85
516.16	48694.85
516.33	48975.71
516.51	49008.48
516.68	48985.07
516.85	48629.31
517.03	49240.19
517.20	49221.47
517.37	48914.86
517.54	49207.42
517.72	48952.30
517.89	49172.31
518.06	49881.50
518.24	49516.37
518.41	49436.80
518.58	49895.54
518.75	49565.52
518.93	50007.89
519.10	49682.55
519.27	50167.04
519.45	49689.57
519.62	50401.10
519.79	50054.70
519.96	50258.32
520.14	50092.15
520.31	50251.30
520.48	50747.50
520.65	50611.74
520.83	50838.78
521.00	50815.37
521.17	50763.88
521.34	51138.36
521.52	51061.13
521.69	51444.98
521.86	51196.88
522.03	51365.40
522.20	51763.29
522.38	51718.82
522.55	51447.32
522.72	51774.99
522.89	51625.20
523.07	51917.76
523.24	51704.77
523.41	52219.69
523.58	52243.10
523.75	52252.46
523.92	52072.24
524.10	52100.32
524.27	52505.24
524.44	51957.55
524.61	52385.87
524.78	52502.90
524.96	52570.77
525.13	52559.07
525.30	52545.03
525.47	52802.49
525.64	52755.68
525.81	52968.66
525.98	52924.19
526.16	52959.30
526.33	53085.69
526.50	53359.53
526.67	53085.69
526.84	53172.29
527.01	52729.93
527.18	53212.08
527.36	53022.50
527.53	53123.14
527.70	53361.87
527.87	53535.07
528.04	53326.77
528.21	53649.76
528.38	53755.08
528.55	53645.08
528.72	53663.80
528.89	53521.03
529.07	53577.20
529.24	53722.32
529.41	53916.58
529.58	53937.65
529.75	53748.06
529.92	54049.99
530.09	54000.84
530.26	54307.45
530.43	54302.77
530.60	54049.99
530.77	54178.72
530.94	54274.68
531.11	54110.85
531.28	54351.92
531.46	54471.29
531.63	54639.81
531.80	54412.77
531.97	54827.05
532.14	54604.70
532.31	54770.88
532.48	54635.13
532.65	54817.69
532.82	54501.71
532.99	55126.64
533.16	54934.71
533.33	54915.99
533.50	55061.10
533.67	55128.98
533.84	55047.06
534.01	54990.89
534.18	55316.22
534.35	55625.17
534.52	55416.86
534.69	55625.17
534.86	55323.24
535.03	55285.79
535.20	55585.38
535.37	55484.74
535.54	55669.64
535.71	55220.26
535.88	55533.89
536.05	55674.32
536.22	55796.03
536.38	55793.69
536.55	55934.12
536.72	55955.19
536.89	55812.41
537.06	55650.92
537.23	56079.24
537.40	55779.65
537.57	55901.36
537.74	56123.71
537.91	56355.42
538.08	56168.18
538.25	55838.16
538.42	56095.62
538.59	56559.05
538.75	56353.08
538.92	56163.50
539.09	56296.91
539.26	56350.74
539.43	56315.63
539.60	56404.57
539.77	56640.96
539.94	56704.16
540.11	56591.81
540.28	56554.36
540.44	56528.62
540.61	56573.09
540.78	56802.46
540.95	56664.37
541.12	56715.86
541.29	56559.05
541.46	56762.67
541.62	56863.32
541.79	56933.53
541.96	56465.42
542.13	56711.18
542.30	56853.95
542.47	56933.53
542.63	57008.43
542.80	57165.24
542.97	57158.22
543.14	57368.87
543.31	57172.27
543.48	57169.93
543.64	57762.08
543.81	57652.08
543.98	57310.36
544.15	57485.90
544.32	57743.36
544.48	57677.82
544.65	57502.28
544.82	57518.67
544.99	57495.26
545.16	57464.83
545.32	57656.76
545.49	57893.15
545.66	57811.23
545.83	57855.70
546.00	57991.45
546.16	58012.52
546.33	57635.69
546.50	57762.08
546.67	57829.96
546.83	57783.15
547.00	58078.05
547.17	57708.25
547.34	57855.70
547.50	58195.08
547.67	58321.47
547.84	58157.63
548.00	58412.75
548.17	58489.99
548.34	58244.23
548.51	58391.68
548.67	58319.13
548.84	58370.62
549.01	58281.68
549.18	58230.19
549.34	58391.68
549.51	58347.21
549.68	58649.14
549.84	58569.57
550.01	58607.01
550.18	58291.04
550.34	58773.19
550.51	58780.21
550.68	58674.89
550.84	58377.64
551.01	58789.58
551.18	58784.90
551.34	58990.86
551.51	58780.21
551.68	58660.85
551.84	58777.87
552.01	58710.00
552.18	58897.24
552.34	58756.81
552.51	59079.80
552.68	58824.68
552.84	58705.32
553.01	59002.56
553.18	59035.33
553.34	58930.01
553.51	58967.46
553.67	59037.67
553.84	59140.66
554.01	58941.71
554.17	58974.48
554.34	59185.13
554.51	59227.26
554.67	59173.42
554.84	59189.81
555.00	59231.94
555.17	58932.35
555.33	59311.52
555.50	59018.95
555.67	59143.00
555.83	59281.09
556.00	59229.60
556.16	59664.94
556.33	59358.33
556.50	59381.73
556.66	59611.10
556.83	59381.73
556.99	59402.80
557.16	59552.59
557.32	59524.50
557.49	59889.63
557.65	59437.90
557.82	59398.12
557.98	59554.93
558.15	59756.22
558.32	59592.38
558.48	59674.30
558.65	59678.98
558.81	59791.33
558.98	59774.94
559.14	59728.13
559.31	59966.87
559.47	59838.14
559.64	59882.61
559.80	59891.97
559.97	59908.35
560.13	59760.90
560.30	59756.22
560.46	59835.80
560.63	59945.80
560.79	60060.49
560.96	59952.82
561.12	60184.54
561.29	59997.29
561.45	60100.28
561.61	59880.27
561.78	60074.53
561.94	60090.91
562.11	59917.71
562.27	59973.89
562.44	60238.37
562.60	60282.84
562.77	60053.47
562.93	59842.82
563.10	60207.94
563.26	60135.38
563.42	60533.28
563.59	60191.56
563.75	60048.78
563.92	60243.05
564.08	60097.94
564.24	60257.09
564.41	60177.51
564.57	60163.47
564.74	60165.81
564.90	60079.21
565.07	60264.11
565.23	60369.44
565.39	60254.75
565.56	60336.67
565.72	60353.05
565.88	60542.64
566.05	60292.20
566.21	60147.09
566.38	60413.91
566.54	60484.12
566.70	60549.66
566.87	60589.45
567.03	60362.42
567.19	60626.90
567.36	60374.12
567.52	60540.30
567.68	60708.82
567.85	60626.90
568.01	60659.66
568.17	60617.53
568.34	60631.58
568.50	60554.34
568.66	60439.65
568.83	60566.04
568.99	60432.63
569.15	60704.13
569.32	60608.17
569.48	60552.00
569.64	60832.86
569.81	60514.55
569.97	60514.55
570.13	60601.15
570.30	60505.19
570.46	60559.02
570.62	60725.20
570.78	60797.76
570.95	60725.20
571.11	60704.13
571.27	60851.59
571.43	60601.15
571.60	61038.83
571.76	60669.03
571.92	60757.97
572.09	60629.24
572.25	60638.60
572.41	60924.14
572.57	60505.19
572.74	60977.98
572.90	60711.16
573.06	60795.42
573.22	60776.69
573.38	60886.70
573.55	60673.71
573.71	60825.84
573.87	60966.27
574.03	60940.53
574.20	60889.04
574.36	60715.84
574.52	60891.38
574.68	60889.04
574.84	60959.25
575.01	60823.50
575.17	60942.87
575.33	60860.95
575.49	60959.25
575.65	60992.02
575.82	60987.34
575.98	60900.74
576.14	61137.13
576.30	61193.31
576.46	60851.59
576.62	61017.77
576.79	60985.00
576.95	60835.20
577.11	60985.00
577.27	61071.60
577.43	61099.68
577.59	60802.44
577.75	60982.66
577.92	60940.53
578.08	61003.72
578.24	60968.61
578.40	61378.21
578.56	61066.92
578.72	60977.98
578.88	61120.75
579.04	61118.41
579.21	61083.30
579.37	61221.39
579.53	61176.92
579.69	60898.40
579.85	60893.72
580.01	61055.21
580.17	61015.43
580.33	61069.26
580.49	61153.52
580.65	61045.85
580.82	61144.16
580.98	61027.13
581.14	60935.85
581.30	61085.64
581.46	61123.09
581.62	61249.48
581.78	61022.45
581.94	61272.88
582.10	60940.53
582.26	61179.26
582.42	61207.35
582.58	61279.91
582.74	61097.34
582.90	61052.87
583.06	61097.34
583.22	61048.19
583.38	61127.77
583.54	61102.03
583.70	61125.43
583.86	61275.22
584.02	60893.72
584.18	61338.42
584.34	61212.03
584.50	61169.90
584.66	61073.94
584.82	61102.03
584.98	61312.67
585.14	61228.41
585.30	61057.56
585.46	61183.94
585.62	61104.37
585.78	61338.42
585.94	60856.27
586.10	61279.91
586.26	61303.31
586.42	61127.77
586.58	61212.03
586.74	61130.11
586.90	61183.94
587.06	61165.22
587.22	61249.48
587.38	61265.86
587.54	61270.54
587.70	61305.65
587.86	61209.69
588.02	61207.35
588.18	61382.89
588.34	61268.20
588.49	61116.07
