SpectraSuite Data File
++++++++++++++++++++++++++++++++++++
Date: Fri Oct 25 10:46:58 EDT 2013
User: price-jones
Dark Spectrum Present: No
Reference Spectrum Present: No
Number of Sampled Component Spectra: 1
Spectrometers: USB2+H05261
Integration Time (usec): 100000 (USB2+H05261)
Spectra Averaged: 1 (USB2+H05261)
Boxcar Smoothing: 0 (USB2+H05261)
Correct for Electrical Dark: No (USB2+H05261)
Strobe/Lamp Enabled: No (USB2+H05261)
Correct for Detector Non-linearity: No (USB2+H05261)
Correct for Stray Light: No (USB2+H05261)
Number of Pixels in Processed Spectrum: 2048
>>>>>Begin Processed Spectral Data<<<<<
365.73	145.11
365.92	145.11
366.12	145.11
366.32	133.41
366.52	105.32
366.72	117.03
366.91	11.70
367.11	18.72
367.31	42.13
367.51	67.88
367.70	53.83
367.90	42.13
368.10	14.04
368.30	35.11
368.49	56.17
368.69	58.51
368.89	70.22
369.09	74.90
369.28	110.01
369.48	67.88
369.68	168.52
369.87	79.58
370.07	95.96
370.27	140.43
370.47	255.12
370.66	344.06
370.86	404.91
371.06	545.34
371.25	533.64
371.45	430.66
371.65	503.22
371.84	397.89
372.04	404.91
372.24	454.06
372.44	500.87
372.63	545.34
372.83	507.90
373.03	519.60
373.22	475.13
373.42	566.41
373.62	486.83
373.81	512.58
374.01	594.50
374.21	564.07
374.40	564.07
374.60	585.13
374.79	638.97
374.99	580.45
375.19	582.79
375.38	610.88
375.58	538.32
375.78	589.82
375.97	526.62
376.17	634.29
376.37	655.35
376.56	634.29
376.76	641.31
376.95	603.86
377.15	603.86
377.35	615.56
377.54	678.76
377.74	641.31
377.93	589.82
378.13	622.58
378.33	704.50
378.52	664.71
378.72	648.33
378.91	653.01
379.11	683.44
379.31	662.37
379.50	599.18
379.70	711.52
379.89	645.99
380.09	650.67
380.28	697.48
380.48	709.18
380.68	741.95
380.87	681.10
381.07	667.05
381.26	760.67
381.46	606.20
381.65	788.76
381.85	702.16
382.04	763.01
382.24	732.59
382.43	819.19
382.63	723.23
382.83	718.54
383.02	737.27
383.22	746.63
383.41	713.86
383.61	716.20
383.80	753.65
384.00	826.21
384.19	809.83
384.39	695.14
384.58	844.93
384.78	821.53
384.97	793.44
385.17	758.33
385.36	847.27
385.56	922.17
385.75	777.06
385.95	781.74
386.14	823.87
386.34	774.72
386.53	882.38
386.72	823.87
386.92	887.06
387.11	861.32
387.31	866.00
387.50	809.83
387.70	858.98
387.89	917.49
388.09	880.04
388.28	809.83
388.48	922.17
388.67	952.60
388.86	922.17
389.06	894.08
389.25	976.00
389.45	961.96
389.64	1036.86
389.84	929.19
390.03	917.49
390.22	1053.24
390.42	950.26
390.61	1015.79
390.81	1008.77
391.00	1083.67
391.19	1046.22
391.39	976.00
391.58	990.05
391.78	983.02
391.97	1032.18
392.16	1083.67
392.36	976.00
392.55	1086.01
392.75	1015.79
392.94	910.47
393.13	1053.24
393.33	1004.09
393.52	1125.80
393.71	1130.48
393.91	1125.80
394.10	1053.24
394.29	1149.20
394.49	1086.01
394.68	1188.99
394.88	1177.29
395.07	1163.25
395.26	1191.33
395.46	1226.44
395.65	1205.38
395.84	1196.01
396.04	1270.91
396.23	1184.31
396.42	1125.80
396.62	1170.27
396.81	1231.12
397.00	1179.63
397.19	1144.52
397.39	1341.13
397.58	1317.72
397.77	1317.72
397.97	1453.47
398.16	1338.79
398.35	1423.05
398.55	1362.19
398.74	1392.62
398.93	1439.43
399.12	1348.15
399.32	1418.36
399.51	1446.45
399.70	1448.79
399.90	1474.54
400.09	1516.67
400.28	1500.28
400.47	1593.90
400.67	1582.20
400.86	1472.20
401.05	1577.52
401.24	1699.23
401.44	1579.86
401.63	1701.57
401.82	1643.06
402.01	1659.44
402.21	1713.27
402.40	1734.34
402.59	1633.69
402.78	1699.23
402.97	1645.40
403.17	1736.68
403.36	1732.00
403.55	1734.34
403.74	1893.49
403.93	1748.38
404.13	1930.94
404.32	1757.74
404.51	1860.73
404.70	1762.42
404.89	1856.04
405.09	1888.81
405.28	1874.77
405.47	1792.85
405.66	1888.81
405.85	1968.39
406.05	1825.62
406.24	1973.07
406.43	1919.24
406.62	2012.86
406.81	2031.58
407.00	1968.39
407.20	2036.27
407.39	1970.73
407.58	2115.84
407.77	2146.27
407.96	2202.44
408.15	2115.84
408.34	2141.59
408.54	2118.18
408.73	2108.82
408.92	2155.63
409.11	2246.91
409.30	2239.89
409.49	2150.95
409.68	2160.31
409.87	2218.83
410.07	2188.40
410.26	2230.53
410.45	2424.80
410.64	2225.85
410.83	2455.22
411.02	2373.30
411.21	2586.29
411.40	2434.16
411.59	2450.54
411.78	2459.90
411.98	2534.80
412.17	2457.56
412.36	2661.19
412.55	2539.48
412.74	2579.27
412.93	2621.40
413.12	2693.96
413.31	2672.89
413.50	2654.17
413.69	2813.32
413.88	2773.53
414.07	2658.85
414.26	2789.92
414.45	2867.16
414.64	2832.05
414.83	2939.71
415.02	2843.75
415.22	2963.12
415.41	2998.23
415.60	2965.46
415.79	3108.23
415.98	3152.70
416.17	3103.55
416.36	3084.83
416.55	3014.61
416.74	3239.30
416.93	3241.64
417.12	3082.49
417.31	3176.11
417.50	3304.84
417.69	3332.92
417.88	3332.92
418.07	3300.16
418.26	3318.88
418.45	3297.81
418.64	3396.12
418.83	3386.76
419.02	3391.44
419.21	3576.34
419.39	3548.25
419.58	3496.76
419.77	3342.28
419.96	3538.89
420.15	3616.13
420.34	3585.70
420.53	3578.68
420.72	3545.91
420.91	3833.80
421.10	3618.47
421.29	3637.19
421.48	3667.62
421.67	3705.07
421.86	3712.09
422.05	3588.04
422.24	3646.55
422.43	3709.75
422.61	3747.20
422.80	3768.26
422.99	3712.09
423.18	3850.18
423.37	3868.91
423.56	3693.37
423.75	3838.48
423.94	3606.77
424.13	3569.32
424.32	3709.75
424.50	3749.54
424.69	3896.99
424.88	3953.16
425.07	3735.50
425.26	3686.34
425.45	3918.06
425.64	3735.50
425.83	3777.62
426.01	3824.44
426.20	3901.67
426.39	3831.46
426.58	3779.97
426.77	3866.56
426.96	3901.67
427.15	3789.33
427.33	3960.19
427.52	3812.73
427.71	3936.78
427.90	3751.88
428.09	4044.45
428.28	3934.44
428.46	4002.32
428.65	4042.11
428.84	4124.02
429.03	4196.58
429.22	3969.55
429.40	4182.54
429.59	3978.91
429.78	3817.41
429.97	3950.82
430.16	4035.08
430.34	3992.95
430.53	4023.38
430.72	4138.07
430.91	4126.36
431.10	4117.00
431.28	4379.14
431.47	4367.44
431.66	4482.13
431.85	4477.44
432.03	4507.87
432.22	4645.96
432.41	4301.90
432.60	4402.55
432.79	4580.43
432.97	4545.32
433.16	4500.85
433.35	4313.61
433.54	4493.83
433.72	4575.75
433.91	4580.43
434.10	4622.56
434.28	4547.66
434.47	4643.62
434.66	4695.11
434.85	4746.61
435.03	4770.01
435.22	4599.15
435.41	4863.63
435.59	4877.68
435.78	4844.91
435.97	4978.32
436.16	4858.95
436.34	4802.78
436.53	4793.42
436.72	5088.32
436.90	4863.63
437.09	4985.34
437.28	4957.25
437.46	5104.71
437.65	5015.77
437.84	5064.92
438.02	5076.62
438.21	4997.04
438.40	4961.94
438.58	5378.55
438.77	5006.41
438.96	5177.26
439.14	5383.23
439.33	5387.91
439.52	5460.47
439.70	5533.03
439.89	5533.03
440.08	5486.22
440.26	5638.35
440.45	5497.92
440.63	5734.31
440.82	5731.97
441.01	5537.71
441.19	5884.11
441.38	5790.49
441.57	5944.96
441.75	6008.16
441.94	6052.63
442.12	6026.88
442.31	6136.88
442.50	5937.94
442.68	6043.26
442.87	6162.63
443.05	5984.75
443.24	6186.04
443.43	6307.74
443.61	6146.25
443.80	6249.23
443.98	6026.88
444.17	5914.53
444.35	6223.48
444.54	6256.25
444.73	6214.12
444.91	6274.98
445.10	6359.24
445.28	6312.42
445.47	6150.93
445.65	6319.45
445.84	6263.27
446.02	6394.34
446.21	6434.13
446.39	6429.45
446.58	6366.26
446.77	6331.15
446.95	6274.98
447.14	6509.03
447.32	6317.11
447.51	6443.49
447.69	6312.42
447.88	6434.13
448.06	6478.60
448.25	6359.24
448.43	6380.30
448.62	6349.87
448.80	6382.64
448.99	6530.09
449.17	6637.76
449.36	6483.28
449.54	6642.44
449.73	6679.89
449.91	6712.66
450.10	6773.51
450.28	6972.46
450.46	6806.28
450.65	6754.79
450.83	6899.90
451.02	6792.23
451.20	7061.40
451.39	7045.01
451.57	6925.65
451.76	6869.47
451.94	6860.11
452.13	7019.27
452.31	6820.32
452.49	6977.14
452.68	6822.66
452.86	6878.83
453.05	7133.95
453.23	7213.53
453.42	7152.68
453.60	6949.05
453.78	7265.02
453.97	7225.23
454.15	7222.89
454.34	7229.91
454.52	7227.57
454.70	7239.28
454.89	7417.16
455.07	7180.76
455.26	7592.70
455.44	7398.43
455.62	7562.27
455.81	7454.61
455.99	7480.35
456.17	7639.51
456.36	7513.12
456.54	7705.04
456.73	7627.81
456.91	7679.30
457.09	7843.14
457.28	7770.58
457.46	7789.30
457.64	7819.73
457.83	7789.30
458.01	7639.51
458.19	7850.16
458.38	7981.23
458.56	7857.18
458.74	7822.07
458.93	8053.78
459.11	8042.08
459.29	7878.24
459.48	7990.59
459.66	8128.68
459.84	8067.83
460.03	8294.86
460.21	8088.89
460.39	8217.62
460.57	8203.58
460.76	8102.93
460.94	8395.50
461.12	8257.41
461.31	8409.54
461.49	8304.22
461.67	8334.65
461.85	8454.02
462.04	8397.84
462.22	9001.70
462.40	8559.34
462.59	8397.84
462.77	8538.27
462.95	8634.24
463.13	8545.30
463.32	8652.96
463.50	8875.31
463.68	8793.39
463.86	8655.30
464.05	8533.59
464.23	8512.53
464.41	8812.12
464.59	8540.61
464.78	8952.55
464.96	8891.70
465.14	8826.16
465.32	8905.74
465.50	8999.36
465.69	9004.04
465.87	8896.38
466.05	8973.61
466.23	8727.86
466.41	8971.27
466.60	8933.82
466.78	8812.12
466.96	8765.31
467.14	8872.97
467.32	9109.36
467.51	9128.09
467.69	8837.86
467.87	9100.00
468.05	9296.61
468.23	9184.26
468.41	9284.91
468.60	9235.75
468.78	9415.98
468.96	9315.33
469.14	9226.39
469.32	9610.24
469.50	9205.33
469.69	9247.46
469.87	9603.22
470.05	9476.83
470.23	9444.06
470.41	9680.46
470.59	9631.30
470.77	9509.60
470.95	9762.37
471.14	9664.07
471.32	9423.00
471.50	9937.91
471.68	9996.43
471.86	10026.86
472.04	9996.43
472.22	10289.00
472.40	10012.81
472.58	9984.73
472.77	10183.67
472.95	10197.71
473.13	10483.26
473.31	10059.62
473.49	10050.26
473.67	10216.44
473.85	10455.17
474.03	10583.90
474.21	10497.30
474.39	10567.52
474.57	10841.36
474.75	10960.73
474.93	10724.33
475.12	10665.82
475.30	10878.81
475.48	11040.31
475.66	10759.44
475.84	10916.26
476.02	11023.92
476.20	11215.85
476.38	11283.72
476.56	11382.03
476.74	11389.05
476.92	11513.10
477.10	11468.62
477.28	11632.46
477.46	11700.34
477.64	11836.09
477.82	11878.22
478.00	12107.59
478.18	12203.55
478.36	12163.76
478.54	12231.64
478.72	12109.93
478.90	12367.39
479.08	12528.89
479.26	12769.96
479.44	13034.44
479.62	12774.64
479.80	12898.69
479.98	12835.50
480.16	13163.17
480.34	13247.43
480.52	13186.58
480.70	13291.90
480.88	13153.81
481.06	13338.71
481.24	13486.17
481.41	13565.74
481.59	13970.66
481.77	13893.42
481.95	14185.99
482.13	14064.28
482.31	14036.19
482.49	14345.14
482.67	14352.16
482.85	14544.09
483.03	14764.10
483.21	14951.34
483.39	14752.40
483.57	14778.14
483.74	15080.07
483.92	14963.04
484.10	14960.70
484.28	15201.78
484.46	15655.84
484.64	15824.36
484.82	15754.15
485.00	15627.76
485.18	15866.49
485.35	15831.38
485.53	15789.25
485.71	15719.04
485.89	16039.69
486.07	15962.45
486.25	16346.30
486.43	16711.42
486.61	16718.45
486.78	16575.67
486.96	16734.83
487.14	17268.47
487.32	17188.89
487.50	17378.48
487.68	17514.23
487.85	17476.78
488.03	17879.35
488.21	18150.85
488.39	18300.65
488.57	18204.69
488.75	18300.65
488.92	18515.98
489.10	18941.96
489.28	18934.93
489.46	19257.93
489.64	19084.73
489.81	19583.26
489.99	19690.93
490.17	19363.25
490.35	19648.80
490.53	19651.14
490.70	20182.44
490.88	19962.43
491.06	19969.45
491.24	20276.06
491.41	20116.90
491.59	20259.68
491.77	20540.54
491.95	20582.67
492.13	20798.00
492.30	20833.11
492.48	20992.26
492.66	21488.46
492.84	21025.03
493.01	21305.90
493.19	21427.60
493.37	21675.70
493.54	21872.31
493.72	21998.70
493.90	22026.78
494.08	22199.98
494.25	22373.18
494.43	22647.02
494.61	22558.08
494.79	22750.01
494.96	22675.11
495.14	22370.84
495.32	23183.01
495.49	23098.75
495.67	22986.40
495.85	23321.10
496.02	23672.18
496.20	23751.76
496.38	23756.44
496.55	24144.97
496.73	24482.00
496.91	23992.83
497.09	24610.73
497.26	24383.70
497.44	24325.19
497.62	24364.98
497.79	24521.79
497.97	24561.58
498.14	25200.55
498.32	24762.87
498.50	25167.78
498.67	25233.32
498.85	25422.90
499.03	25790.36
499.20	25294.17
499.38	25516.52
499.56	25996.33
499.73	25736.53
499.91	25991.65
500.08	26143.78
500.26	25570.35
500.44	25823.13
500.61	26183.57
500.79	26127.40
500.97	26106.34
501.14	26754.66
501.32	26654.02
501.49	26286.56
501.67	26806.16
501.84	26735.94
502.02	26986.38
502.20	27110.43
502.37	26953.61
502.55	26958.29
502.72	27161.92
502.90	27426.40
503.07	27152.55
503.25	27637.05
503.43	27309.37
503.60	27517.68
503.78	27747.05
503.95	27639.39
504.13	27660.45
504.30	27786.84
504.48	27756.41
504.65	28119.20
504.83	28786.25
505.01	28481.98
505.18	28290.06
505.36	28683.27
505.53	28498.36
505.71	28755.82
505.88	29041.37
506.06	28917.32
506.23	29214.57
506.41	28601.35
506.58	28800.29
506.76	28945.41
506.93	28826.04
507.11	29163.08
507.28	29331.59
507.46	29106.90
507.63	29572.67
507.81	29504.79
507.98	29638.20
508.16	29558.63
508.33	29993.97
508.50	30249.08
508.68	30129.72
508.85	30513.56
509.03	30536.97
509.20	29984.60
509.38	30820.17
509.55	30354.41
509.73	30307.60
509.90	30881.03
510.08	30663.36
510.25	30712.51
510.42	30663.36
510.60	30597.82
510.77	30864.64
510.95	31161.89
511.12	30803.79
511.30	31208.70
511.47	31407.65
511.64	31606.59
511.82	31756.39
511.99	31466.16
512.17	31295.30
512.34	31758.73
512.51	31775.11
512.69	31952.99
512.86	32290.03
513.04	32453.87
513.21	32203.43
513.38	32261.94
513.56	32306.41
513.73	32273.65
513.90	31908.52
514.08	32290.03
514.25	32306.41
514.43	32493.66
514.60	32114.49
514.77	32451.53
514.95	33060.07
515.12	32776.86
515.29	33050.70
515.47	33085.81
515.64	33284.76
515.81	33303.48
515.99	33282.42
516.16	33469.66
516.33	33259.01
516.51	33097.52
516.68	32943.04
516.85	33067.09
517.03	32891.55
517.20	33170.07
517.37	33413.49
517.54	33666.27
517.72	33888.62
517.89	33411.15
518.06	33420.51
518.24	33687.33
518.41	33694.35
518.58	33764.57
518.75	34195.23
518.93	34096.92
519.10	34380.13
519.27	34443.32
519.45	34050.11
519.62	34569.71
519.79	34740.57
519.96	34543.97
520.14	34883.34
520.31	34595.46
520.48	34831.85
520.65	34991.01
520.83	35615.93
521.00	35014.41
521.17	35386.56
521.34	35627.63
521.52	35168.89
521.69	35576.14
521.86	35683.81
522.03	35515.29
522.20	35555.08
522.38	35828.92
522.55	35761.05
522.72	35796.15
522.89	35475.50
523.07	36212.77
523.24	35721.26
523.41	36034.89
523.58	35910.84
523.75	36287.67
523.92	36910.25
524.10	36924.29
524.27	36275.96
524.44	36648.11
524.61	36758.11
524.78	36603.64
524.96	37003.87
525.13	37104.51
525.30	37376.01
525.47	37048.34
525.64	36804.92
525.81	36882.16
525.98	36877.48
526.16	36680.88
526.33	37043.66
526.50	37076.43
526.67	36767.48
526.84	36968.76
527.01	36655.13
527.18	37228.56
527.36	37689.65
527.53	37832.42
527.70	38000.94
527.87	38195.20
528.04	37305.80
528.21	37565.60
528.38	37958.81
528.55	38319.25
528.72	37928.38
528.89	38089.88
529.07	38202.22
529.24	37872.21
529.41	37921.36
529.58	37921.36
529.75	38354.36
529.92	38153.07
530.09	38274.78
530.26	38281.80
530.43	38202.22
530.60	38572.03
530.77	38396.49
530.94	38766.29
531.11	38520.54
531.28	38670.33
531.46	39117.37
531.63	39091.63
531.80	38473.73
531.97	38770.97
532.14	38932.47
532.31	38291.16
532.48	38773.31
532.65	39335.04
532.82	39042.48
532.99	39140.78
533.16	39002.69
533.33	39349.09
533.50	39629.95
533.67	39283.55
533.84	38824.81
534.01	39463.77
534.18	39489.52
534.35	39950.60
534.52	39929.54
534.69	39751.66
534.86	39981.03
535.03	39716.55
535.20	40179.98
535.37	40418.71
535.54	40163.59
535.71	39824.22
535.88	39990.39
536.05	39777.40
536.22	40126.14
536.38	39880.39
536.55	40016.14
536.72	39817.19
536.89	39966.99
537.06	39957.63
537.23	40769.79
537.40	40095.72
537.57	40664.47
537.74	40460.84
537.91	40966.40
538.08	40465.52
538.25	40638.72
538.42	40570.85
538.59	40802.56
538.75	40627.02
538.92	40634.04
539.09	40879.80
539.26	40680.85
539.43	40818.94
539.60	41310.46
539.77	40573.19
539.94	41289.39
540.11	41029.59
540.28	40968.74
540.44	40961.72
540.61	40978.10
540.78	41223.86
540.95	40877.46
541.12	40868.09
541.29	40978.10
541.46	41167.68
541.62	41404.08
541.79	41436.84
541.96	41153.64
542.13	41684.94
542.30	41207.47
542.47	41380.67
542.63	41345.56
542.80	41560.89
542.97	42113.26
543.14	42401.14
543.31	42288.80
543.48	41993.89
543.64	42382.42
543.81	42836.48
543.98	42564.98
544.15	42066.45
544.32	42277.10
544.48	42572.00
544.65	42272.42
544.82	42740.52
544.99	41968.15
545.16	42682.01
545.32	42295.82
545.49	42913.72
545.66	42754.57
545.83	42354.33
546.00	42855.21
546.16	42454.98
546.33	42747.54
546.50	42192.84
546.67	42880.95
546.83	42298.16
547.00	43005.00
547.17	42883.30
547.34	42649.24
547.50	42761.59
547.67	43157.14
547.84	43215.65
548.00	42822.44
548.17	43447.36
548.34	43405.23
548.51	43086.92
548.67	43349.06
548.84	43363.11
549.01	43140.75
549.18	42890.32
549.34	42885.64
549.51	43405.23
549.68	43267.14
549.84	43400.55
550.01	43641.63
550.18	43075.22
550.34	43267.14
550.51	43552.69
550.68	43335.02
550.84	43005.00
551.01	43484.81
551.18	43290.55
551.34	43440.34
551.51	43896.75
551.68	44105.06
551.84	44023.14
552.01	43648.65
552.18	43845.26
552.34	43753.97
552.51	44217.40
552.68	43473.11
552.84	43868.66
553.01	44018.46
553.18	43531.62
553.34	44053.56
553.51	43849.94
553.67	44414.01
553.84	44259.53
554.01	44327.41
554.17	44257.19
554.34	44582.52
554.51	44247.83
554.67	44137.82
554.84	44123.78
555.00	44203.36
555.17	43611.20
555.33	44196.34
555.50	43945.90
555.67	44388.26
555.83	44364.85
556.00	44662.10
556.16	44493.58
556.33	44589.55
556.50	44500.61
556.66	45027.23
556.83	44165.91
556.99	44584.86
557.16	44964.03
557.32	44650.40
557.49	44804.88
557.65	43903.77
557.82	44320.38
557.98	44589.55
558.15	44498.26
558.32	44961.69
558.48	44467.84
558.65	44619.97
558.81	44512.31
558.98	44781.47
559.14	44521.67
559.31	44500.61
559.47	44760.40
559.64	45287.03
559.80	44610.61
559.97	45059.99
560.13	44758.06
560.30	45202.77
560.46	44711.25
560.63	44666.78
560.79	45287.03
560.96	45209.79
561.12	45085.74
561.29	44945.31
561.45	44643.38
561.61	45244.90
561.78	44774.45
561.94	44891.48
562.11	44641.04
562.27	44966.37
562.44	45521.08
562.60	45247.24
562.77	45371.28
562.93	45191.06
563.10	45235.53
563.26	44952.33
563.42	45160.64
563.59	45390.01
563.75	45258.94
563.92	45130.21
564.08	45366.60
564.24	45556.19
564.41	45415.76
564.57	45387.67
564.74	45095.10
564.90	45408.73
565.07	45420.44
565.23	45502.35
565.39	45113.83
565.56	45647.47
565.72	45184.04
565.88	45642.79
566.05	45165.32
566.21	45303.41
566.38	45483.63
566.54	45464.91
566.70	45600.66
566.87	45652.15
567.03	45998.55
567.19	45886.20
567.36	45698.96
567.52	45507.04
567.68	45455.54
567.85	45471.93
568.01	45598.32
568.17	45476.61
568.34	45666.19
568.50	45607.68
568.66	45345.54
568.83	45373.63
568.99	45312.77
569.15	45380.65
569.32	45696.62
569.48	45230.85
569.64	45607.68
569.81	45528.10
569.97	45254.26
570.13	45914.29
570.30	45457.88
570.46	45394.69
570.62	45581.93
570.78	45492.99
570.95	45347.88
571.11	45904.93
571.27	45462.57
571.43	45378.31
571.60	45694.28
571.76	45553.85
571.92	45656.83
572.09	45916.63
572.25	45710.66
572.41	46082.81
572.57	45792.58
572.74	46078.13
572.90	45708.32
573.06	45455.54
573.22	45766.84
573.38	45560.87
573.55	45574.91
573.71	45621.72
573.87	45432.14
574.03	45701.30
574.20	45581.93
574.36	45467.25
574.52	45691.94
574.68	46103.87
574.84	45572.57
575.01	45467.25
575.17	46138.98
575.33	45808.96
575.49	45542.14
575.65	46284.09
575.82	45909.61
575.98	45722.37
576.14	46314.52
576.30	45970.46
576.46	46087.49
576.62	46370.69
576.79	45649.81
576.95	45757.47
577.11	45675.55
577.27	45862.80
577.43	45954.08
577.59	45661.51
577.75	45909.61
577.92	45453.20
578.08	45415.76
578.24	45497.67
578.40	45773.86
578.56	45904.93
578.72	46010.25
578.88	45619.38
579.04	45914.29
579.21	45780.88
579.37	45874.50
579.53	45951.74
579.69	45846.41
579.85	45904.93
580.01	46447.93
580.17	46335.59
580.33	45830.03
580.49	45708.32
580.65	45553.85
580.82	45773.86
580.98	45881.52
581.14	45619.38
581.30	46197.49
581.46	45951.74
581.62	46417.50
581.78	45808.96
581.94	46321.54
582.10	45904.93
582.26	46120.26
582.42	45958.76
582.58	46190.47
582.74	45464.91
582.90	45673.21
583.06	45893.22
583.22	46160.05
583.38	46394.10
583.54	45986.85
583.70	45947.06
583.86	46012.59
584.02	45724.71
584.18	46082.81
584.34	46080.47
584.50	45923.65
584.66	46309.84
584.82	46206.86
584.98	46211.54
585.14	46120.26
585.30	45633.42
585.46	45972.80
585.62	46017.27
585.78	46014.93
585.94	45762.15
586.10	45888.54
586.26	45818.33
586.42	46003.23
586.58	46438.57
586.74	46064.08
586.90	46136.64
587.06	46064.08
587.22	46190.47
587.38	45741.09
587.54	46216.22
587.70	46330.90
587.86	46649.22
588.02	45895.56
588.18	46504.10
588.34	45659.17
588.49	45778.54
588.65	45352.56
588.81	45675.55
588.97	45652.15
589.13	45368.94
589.29	45586.61
589.45	45989.19
589.61	46045.36
589.77	46265.37
589.93	45890.88
