SpectraSuite Data File
++++++++++++++++++++++++++++++++++++
Date: Fri Oct 25 10:46:58 EDT 2013
User: price-jones
Dark Spectrum Present: No
Reference Spectrum Present: No
Number of Sampled Component Spectra: 1
Spectrometers: USB2+H05261
Integration Time (usec): 100000 (USB2+H05261)
Spectra Averaged: 1 (USB2+H05261)
Boxcar Smoothing: 0 (USB2+H05261)
Correct for Electrical Dark: No (USB2+H05261)
Strobe/Lamp Enabled: No (USB2+H05261)
Correct for Detector Non-linearity: No (USB2+H05261)
Correct for Stray Light: No (USB2+H05261)
Number of Pixels in Processed Spectrum: 2048
>>>>>Begin Processed Spectral Data<<<<<
365.73	107.66
365.92	107.66
366.12	107.66
366.32	28.09
366.52	35.11
366.72	86.60
366.91	11.70
367.11	46.81
367.31	21.06
367.51	16.38
367.70	102.98
367.90	35.11
368.10	30.43
368.30	140.43
368.49	32.77
368.69	51.49
368.89	93.62
369.09	70.22
369.28	93.62
369.48	35.11
369.68	81.92
369.87	70.22
370.07	58.51
370.27	110.01
370.47	119.37
370.66	400.23
370.86	418.96
371.06	479.81
371.25	514.92
371.45	449.38
371.65	472.79
371.84	514.92
372.04	477.47
372.24	463.43
372.44	514.92
372.63	543.00
372.83	472.79
373.03	468.11
373.22	491.51
373.42	561.73
373.62	500.87
373.81	575.77
374.01	557.05
374.21	596.84
374.40	568.75
374.60	568.75
374.79	552.37
374.99	571.09
375.19	545.34
375.38	531.30
375.58	610.88
375.78	599.18
375.97	594.50
376.17	650.67
376.37	531.30
376.56	690.46
376.76	606.20
376.95	671.73
377.15	641.31
377.35	622.58
377.54	638.97
377.74	592.16
377.93	627.26
378.13	655.35
378.33	697.48
378.52	695.14
378.72	622.58
378.91	704.50
379.11	573.43
379.31	608.54
379.50	603.86
379.70	678.76
379.89	631.94
380.09	613.22
380.28	716.20
380.48	671.73
380.68	676.41
380.87	746.63
381.07	720.88
381.26	681.10
381.46	622.58
381.65	704.50
381.85	695.14
382.04	662.37
382.24	669.39
382.43	805.14
382.63	683.44
382.83	629.60
383.02	730.25
383.22	676.41
383.41	725.57
383.61	688.12
383.80	791.10
384.00	746.63
384.19	765.36
384.39	821.53
384.58	781.74
384.78	772.38
384.97	781.74
385.17	802.80
385.36	870.68
385.56	842.59
385.75	800.46
385.95	898.77
386.14	809.83
386.34	777.06
386.53	746.63
386.72	741.95
386.92	828.55
387.11	854.30
387.31	933.87
387.50	823.87
387.70	807.48
387.89	924.51
388.09	880.04
388.28	856.64
388.48	891.74
388.67	919.83
388.86	929.19
389.06	922.17
389.25	1057.92
389.45	1036.86
389.64	992.39
389.84	1018.13
390.03	966.64
390.22	985.37
390.42	924.51
390.61	1020.47
390.81	983.02
391.00	1001.75
391.19	1008.77
391.39	1036.86
391.58	1064.94
391.78	1001.75
391.97	1071.97
392.16	983.02
392.36	1050.90
392.55	985.37
392.75	1069.62
392.94	976.00
393.13	1025.15
393.33	1034.52
393.52	1025.15
393.71	1135.16
393.91	1118.78
394.10	1062.60
394.29	1097.71
394.49	1018.13
394.68	1170.27
394.88	1277.93
395.07	1287.29
395.26	1088.35
395.46	1284.95
395.65	1210.06
395.84	1261.55
396.04	1261.55
396.23	1174.95
396.42	1165.59
396.62	1156.22
396.81	1317.72
397.00	1177.29
397.19	1310.70
397.39	1259.21
397.58	1341.13
397.77	1336.45
397.97	1287.29
398.16	1324.74
398.35	1413.68
398.55	1343.47
398.74	1390.28
398.93	1430.07
399.12	1441.77
399.32	1401.98
399.51	1420.71
399.70	1497.94
399.90	1432.41
400.09	1521.35
400.28	1535.39
400.47	1565.82
400.67	1591.56
400.86	1561.14
401.05	1474.54
401.24	1535.39
401.44	1572.84
401.63	1661.78
401.82	1619.65
402.01	1570.50
402.21	1703.91
402.40	1706.25
402.59	1682.85
402.78	1743.70
402.97	1708.59
403.17	1717.95
403.36	1788.17
403.55	1682.85
403.74	1755.40
403.93	1750.72
404.13	1746.04
404.32	1760.08
404.51	1820.94
404.70	1778.81
404.89	1727.32
405.09	1961.37
405.28	1893.49
405.47	1884.13
405.66	1921.58
405.85	1902.86
406.05	1930.94
406.24	1968.39
406.43	1933.28
406.62	2078.40
406.81	2066.69
407.00	2059.67
407.20	1926.26
407.39	1998.82
407.58	2043.29
407.77	2062.01
407.96	2108.82
408.15	2207.13
408.34	2125.21
408.54	2251.60
408.73	2211.81
408.92	2221.17
409.11	2174.36
409.30	2195.42
409.49	2162.66
409.68	2160.31
409.87	2157.97
410.07	2225.85
410.26	2317.13
410.45	2319.47
410.64	2328.83
410.83	2303.09
411.02	2300.75
411.21	2476.29
411.40	2401.39
411.59	2443.52
411.78	2392.03
411.98	2450.54
412.17	2597.99
412.36	2490.33
412.55	2527.78
412.74	2677.57
412.93	2597.99
413.12	2539.48
413.31	2661.19
413.50	2626.08
413.69	2761.83
413.88	2752.47
414.07	2766.51
414.26	2773.53
414.45	2827.37
414.64	2904.60
414.83	2904.60
415.02	2930.35
415.22	2956.10
415.41	3014.61
415.60	3005.25
415.79	3098.87
415.98	3000.57
416.17	3131.64
416.36	3075.46
416.55	3150.36
416.74	3190.15
416.93	3115.25
417.12	3176.11
417.31	3194.83
417.50	3208.87
417.69	3417.18
417.88	3368.03
418.07	3337.60
418.26	3424.20
418.45	3335.26
418.64	3428.88
418.83	3515.48
419.02	3384.41
419.21	3412.50
419.39	3463.99
419.58	3501.44
419.77	3471.01
419.96	3564.64
420.15	3431.23
420.34	3473.36
420.53	3557.61
420.72	3695.71
420.91	3672.30
421.10	3686.34
421.29	3691.02
421.48	3501.44
421.67	3679.32
421.86	3604.42
422.05	3606.77
422.24	3723.79
422.43	3637.19
422.61	3658.26
422.80	3812.73
422.99	3723.79
423.18	3784.65
423.37	3714.43
423.56	3786.99
423.75	3815.07
423.94	3742.52
424.13	3421.86
424.32	3602.08
424.50	3829.12
424.69	3864.22
424.88	3880.61
425.07	3714.43
425.26	3747.20
425.45	3899.33
425.64	3861.88
425.83	3665.28
426.01	3847.84
426.20	3812.73
426.39	3871.25
426.58	3875.93
426.77	3887.63
426.96	3709.75
427.15	3866.56
427.33	3819.75
427.52	3803.37
427.71	4004.66
427.90	3955.51
428.09	3981.25
428.28	3960.19
428.46	3948.48
428.65	4028.06
428.84	4100.62
429.03	4124.02
429.22	4044.45
429.40	4058.49
429.59	4117.00
429.78	3847.84
429.97	3866.56
430.16	3885.29
430.34	4142.75
430.53	4081.89
430.72	4051.47
430.91	4201.26
431.10	4128.70
431.28	4320.63
431.47	4393.19
431.66	4468.08
431.85	4264.46
432.03	4615.54
432.22	4524.26
432.41	4411.91
432.60	4468.08
432.79	4477.44
432.97	4461.06
433.16	4386.16
433.35	4437.66
433.54	4557.02
433.72	4489.15
433.91	4479.79
434.10	4655.33
434.28	4599.15
434.47	4730.22
434.66	4674.05
434.85	4929.17
435.03	4716.18
435.22	4816.82
435.41	4877.68
435.59	4851.93
435.78	4819.16
435.97	4973.64
436.16	4842.57
436.34	5088.32
436.53	5015.77
436.72	5020.45
436.90	4779.37
437.09	5135.14
437.28	4791.08
437.46	5041.51
437.65	5034.49
437.84	4973.64
438.02	4929.17
438.21	5062.58
438.40	4997.04
438.58	5142.16
438.77	5334.08
438.96	5139.82
439.14	5238.12
439.33	5432.38
439.52	5444.09
439.70	5378.55
439.89	5387.91
440.08	5371.53
440.26	5486.22
440.45	5390.25
440.63	5624.31
440.82	5823.25
441.01	5589.20
441.19	5888.79
441.38	5858.36
441.57	5839.64
441.75	5912.19
441.94	6050.28
442.12	6097.10
442.31	5944.96
442.50	5970.71
442.68	6061.99
442.87	6164.97
443.05	6153.27
443.24	6352.21
443.43	6270.30
443.61	6113.48
443.80	6333.49
443.98	6200.08
444.17	6083.05
444.35	6265.61
444.54	6478.60
444.73	6408.39
444.91	6146.25
445.10	6230.51
445.28	6235.19
445.47	6064.33
445.65	6099.44
445.84	6244.55
446.02	6345.19
446.21	6427.11
446.39	6228.17
446.58	6216.46
446.77	6574.56
446.95	6232.85
447.14	6429.45
447.32	6448.18
447.51	6569.88
447.69	6293.70
447.88	6286.68
448.06	6340.51
448.25	6392.00
448.43	6431.79
448.62	6361.58
448.80	6303.06
448.99	6588.61
449.17	6513.71
449.36	6574.56
449.54	6747.76
449.73	6654.14
449.91	6832.02
450.10	6780.53
450.28	6768.83
450.46	6904.58
450.65	6949.05
450.83	6984.16
451.02	6736.06
451.20	6862.45
451.39	7075.44
451.57	6988.84
451.76	6897.56
451.94	7061.40
452.13	7089.48
452.31	7012.24
452.49	6810.96
452.68	7054.37
452.86	6923.30
453.05	6939.69
453.23	6974.80
453.42	7028.63
453.60	7054.37
453.78	7372.69
453.97	6963.09
454.15	7059.06
454.34	7054.37
454.52	7185.44
454.70	7365.67
454.89	7281.41
455.07	7136.29
455.26	7342.26
455.44	7384.39
455.62	7494.40
455.81	7559.93
455.99	7449.93
456.17	7463.97
456.36	7728.45
456.54	7578.65
456.73	7705.04
456.91	7641.85
457.09	7625.47
457.28	8011.65
457.46	7513.12
457.64	7920.37
457.83	7655.89
458.01	7728.45
458.19	7812.71
458.38	7761.22
458.56	8030.38
458.74	7885.26
458.93	7861.86
459.11	7913.35
459.29	8140.38
459.48	8159.11
459.66	8109.96
459.84	8114.64
460.03	8259.75
460.21	8053.78
460.39	8201.24
460.57	8126.34
460.76	8107.62
460.94	8308.90
461.12	8301.88
461.31	8269.11
461.49	8327.63
461.67	8306.56
461.85	8468.06
462.04	8442.31
462.22	8936.17
462.40	8362.73
462.59	8683.39
462.77	8503.17
462.95	8725.52
463.13	8823.82
463.32	8643.60
463.50	8706.79
463.68	8596.79
463.86	8667.00
464.05	8692.75
464.23	8624.87
464.41	8753.60
464.59	8475.08
464.78	8723.18
464.96	8833.18
465.14	8828.50
465.32	8971.27
465.50	9062.55
465.69	8931.48
465.87	8723.18
466.05	8922.12
466.23	8947.87
466.41	8898.72
466.60	9053.19
466.78	8961.91
466.96	9067.24
467.14	9153.84
467.32	9100.00
467.51	9060.21
467.69	8781.69
467.87	8975.95
468.05	9219.37
468.23	9071.92
468.41	9144.47
468.60	8997.02
468.78	9322.35
468.96	9233.41
469.14	9420.66
469.32	9455.76
469.50	9191.28
469.69	9425.34
469.87	9423.00
470.05	9565.77
470.23	9432.36
470.41	9411.29
470.59	9390.23
470.77	9298.95
470.95	9804.50
471.14	9823.23
471.32	9493.21
471.50	9713.22
471.68	9989.41
471.86	9788.12
472.04	10178.99
472.22	10197.71
472.40	9764.72
472.58	10164.95
472.77	10150.90
472.95	10223.46
473.13	10331.12
473.31	10195.37
473.49	10251.55
473.67	9987.07
473.85	10307.72
474.03	10523.05
474.21	10686.89
474.39	10562.84
474.57	10626.03
474.75	10747.74
474.93	10740.72
475.12	10883.49
475.30	10829.66
475.48	10902.22
475.66	11028.60
475.84	10864.77
476.02	10988.82
476.20	11215.85
476.38	11213.51
476.56	11482.67
476.74	11452.24
476.92	11517.78
477.10	11358.62
477.28	11616.08
477.46	11571.61
477.64	11833.75
477.82	11850.13
478.00	12348.67
478.18	12063.12
478.36	12156.74
478.54	12109.93
478.72	12393.14
478.90	12421.22
479.08	12573.36
479.26	12559.31
479.44	12809.75
479.62	12933.80
479.80	13046.15
479.98	12847.20
480.16	13270.84
480.34	13158.49
480.52	13390.20
480.70	13317.65
480.88	13273.18
481.06	13359.78
481.24	13437.02
481.41	13577.45
481.59	13696.82
481.77	13696.82
481.95	13989.38
482.13	14092.37
482.31	14059.60
482.49	14501.96
482.67	14513.66
482.85	14303.01
483.03	14717.29
483.21	14878.79
483.39	14789.85
483.57	14867.08
483.74	15194.76
483.92	15133.90
484.10	14871.76
484.28	15396.04
484.46	15637.12
484.64	15917.98
484.82	15449.88
485.00	15632.44
485.18	15438.17
485.35	16215.23
485.53	15644.14
485.71	15908.62
485.89	16173.10
486.07	16006.92
486.25	16173.10
486.43	16360.34
486.61	16573.33
486.78	16783.98
486.96	16971.22
487.14	17083.57
487.32	17287.20
487.50	17474.44
487.68	17284.86
487.85	17930.84
488.03	18108.72
488.21	18043.19
488.39	17832.54
488.57	18113.41
488.75	18307.67
488.92	18375.55
489.10	19021.53
489.28	19009.83
489.46	18860.04
489.64	18972.38
489.81	19351.55
489.99	19641.78
490.17	19428.79
490.35	20077.12
490.53	19796.25
490.70	19941.36
490.88	19843.06
491.06	20334.57
491.24	20056.05
491.41	20102.86
491.59	20208.19
491.77	20320.53
491.95	20716.08
492.13	20662.25
492.30	20835.45
492.48	20950.14
492.66	21102.27
492.84	20936.09
493.01	21284.83
493.19	21387.82
493.37	21446.33
493.54	21745.92
493.72	22064.23
493.90	21876.99
494.08	22338.07
494.25	22569.79
494.43	22462.12
494.61	22590.85
494.79	22742.99
494.96	22539.36
495.14	22773.41
495.32	23040.23
495.49	23087.04
495.67	23566.85
495.85	22939.59
496.02	23475.57
496.20	23676.86
496.38	23864.10
496.55	23758.78
496.73	24425.83
496.91	24086.45
497.09	24161.35
497.26	24269.01
497.44	24189.44
497.62	24582.65
497.79	24463.28
497.97	24547.54
498.14	24671.59
498.32	25036.71
498.50	24936.07
498.67	25174.80
498.85	25235.66
499.03	25607.80
499.20	25528.22
499.38	25322.26
499.56	25795.04
499.73	25865.26
499.91	26024.42
500.08	25797.38
500.26	25612.48
500.44	25998.67
500.61	26012.71
500.79	25773.98
500.97	26279.54
501.14	26494.86
501.32	26455.08
501.49	26768.71
501.67	26487.84
501.84	26960.63
502.02	27101.06
502.20	27147.87
502.37	27314.05
502.55	26962.97
502.72	27391.29
502.90	27513.00
503.07	27344.48
503.25	27576.19
503.43	27328.10
503.60	27594.92
503.78	27571.51
503.95	27840.67
504.13	27520.02
504.30	27899.19
504.48	27529.38
504.65	28266.65
504.83	28332.18
505.01	28467.94
505.18	27997.49
505.36	28945.41
505.53	28776.89
505.71	29043.71
505.88	29057.75
506.06	28694.97
506.23	28767.52
506.41	28570.92
506.58	29259.04
506.76	29144.35
506.93	29439.26
507.11	29186.48
507.28	29207.55
507.46	29130.31
507.63	29284.78
507.81	29371.38
507.98	29425.22
508.16	29638.20
508.33	29799.70
508.50	29558.63
508.68	30064.18
508.85	30085.25
509.03	30345.05
509.20	29909.71
509.38	30485.48
509.55	30651.66
509.73	30831.88
509.90	30810.81
510.08	30731.23
510.25	30857.62
510.42	31082.31
510.60	30981.67
510.77	30986.35
510.95	31438.08
511.12	31253.17
511.30	31428.71
511.47	31751.71
511.64	31618.30
511.82	31613.62
511.99	31505.95
512.17	31604.25
512.34	31351.48
512.51	31728.30
512.69	31751.71
512.86	31962.36
513.04	32135.56
513.21	32395.35
513.38	32091.09
513.56	32063.00
513.73	32119.17
513.90	32119.17
514.08	32009.17
514.25	32493.66
514.43	32872.82
514.60	32507.70
514.77	32374.29
514.95	32776.86
515.12	32779.20
515.29	33345.61
515.47	32987.51
515.64	33734.14
515.81	33275.40
515.99	33621.80
516.16	33163.05
516.33	33212.20
516.51	33340.93
516.68	33165.39
516.85	32685.58
517.03	33031.98
517.20	32957.08
517.37	33628.82
517.54	33909.68
517.72	33380.72
517.89	33715.42
518.06	33696.69
518.24	33631.16
518.41	33759.89
518.58	33525.83
518.75	33888.62
518.93	34497.16
519.10	33940.11
519.27	34359.06
519.45	34487.79
519.62	34258.42
519.79	34593.12
519.96	34878.66
520.14	35063.57
520.31	34410.56
520.48	34885.68
520.65	34761.64
520.83	35255.49
521.00	35337.41
521.17	35321.02
521.34	35215.70
521.52	35573.80
521.69	35463.80
521.86	35557.42
522.03	35449.75
522.20	35622.95
522.38	35791.47
522.55	35852.33
522.72	35732.96
522.89	35971.69
523.07	35566.78
523.24	35945.95
523.41	36123.83
523.58	35646.36
523.75	36442.14
523.92	36280.64
524.10	36870.46
524.27	36170.64
524.44	36540.44
524.61	36856.42
524.78	37282.39
524.96	36823.65
525.13	37420.48
525.30	36921.95
525.47	36957.06
525.64	36744.07
525.81	37308.14
525.98	36514.70
526.16	36947.70
526.33	37034.30
526.50	36898.55
526.67	36996.85
526.84	36928.97
527.01	36816.63
527.18	37125.58
527.36	37933.06
527.53	37289.42
527.70	37890.93
527.87	37839.44
528.04	37787.95
528.21	37654.54
528.38	37581.98
528.55	38298.19
528.72	38019.66
528.89	38279.46
529.07	37956.47
529.24	37989.24
529.41	37902.64
529.58	37921.36
529.75	37684.97
529.92	38139.03
530.09	38508.83
530.26	38815.44
530.43	38314.57
530.60	38064.13
530.77	38689.06
530.94	38604.80
531.11	38623.52
531.28	38698.42
531.46	38703.10
531.63	38761.61
531.80	39213.34
531.97	39012.05
532.14	38836.51
532.31	38506.49
532.48	38735.87
532.65	39058.86
532.82	38686.71
532.99	39367.81
533.16	38522.88
533.33	39419.30
533.50	39517.60
533.67	39257.81
533.84	39030.77
534.01	39618.25
534.18	39164.18
534.35	39849.96
534.52	39660.38
534.69	40144.87
534.86	39739.96
535.03	39800.81
535.20	40210.40
535.37	39910.82
535.54	40488.93
535.71	39681.44
535.88	40383.60
536.05	39966.99
536.22	40311.05
536.38	40177.64
536.55	40093.38
536.72	40161.25
536.89	40088.70
537.06	40018.48
537.23	40217.43
537.40	40463.18
537.57	40282.96
537.74	40292.32
537.91	40631.70
538.08	40662.13
538.25	40252.53
538.42	40502.97
538.59	40814.26
538.75	40687.87
538.92	40547.44
539.09	40582.55
539.26	40643.40
539.43	40739.36
539.60	41053.00
539.77	40730.00
539.94	40652.76
540.11	40971.08
540.28	40720.64
540.44	40788.52
540.61	40671.49
540.78	41071.72
540.95	40994.48
541.12	41172.36
541.29	41230.88
541.46	41155.98
541.62	41163.00
541.79	41755.16
541.96	40896.18
542.13	41118.53
542.30	41415.78
542.47	41331.52
542.63	41441.53
542.80	41869.84
542.97	42066.45
543.14	41897.93
543.31	42129.64
543.48	42375.40
543.64	42604.77
543.81	42586.05
543.98	42246.67
544.15	42005.59
544.32	42256.03
544.48	42351.99
544.65	42401.14
544.82	42522.85
544.99	42286.46
545.16	42506.47
545.32	41593.66
545.49	42609.45
545.66	42801.38
545.83	42656.26
546.00	42747.54
546.16	43047.13
546.33	42087.51
546.50	42146.03
546.67	42768.61
546.83	42054.75
547.00	42586.05
547.17	43250.76
547.34	42497.11
547.50	42763.93
547.67	42777.97
547.84	42829.46
548.00	43201.61
548.17	43430.98
548.34	43091.60
548.51	43433.32
548.67	42780.31
548.84	43599.50
549.01	43161.82
549.18	42983.94
549.34	43243.74
549.51	43267.14
549.68	43805.47
549.84	43613.54
550.01	43533.96
550.18	43557.37
550.34	43419.28
550.51	43494.18
550.68	43428.64
550.84	42913.72
551.01	43182.88
551.18	43777.38
551.34	43793.76
551.51	43751.63
551.68	44011.43
551.84	44142.50
552.01	43438.00
552.18	43845.26
552.34	43449.70
552.51	44004.41
552.68	43423.96
552.84	43756.32
553.01	44266.55
553.18	43798.44
553.34	43807.81
553.51	43833.55
553.67	44165.91
553.84	44224.42
554.01	44266.55
554.17	44186.97
554.34	44676.15
554.51	44318.04
554.67	44273.57
554.84	44072.29
555.00	44107.40
555.17	43655.67
555.33	44215.06
555.50	44629.34
555.67	44236.12
555.83	44612.95
556.00	44339.11
556.16	44315.70
556.33	44524.01
556.50	44755.72
556.66	45045.95
556.83	43875.68
556.99	44626.99
557.16	44481.88
557.32	44161.23
557.49	44797.85
557.65	44425.71
557.82	44463.16
557.98	44444.43
558.15	44470.18
558.32	44718.28
558.48	44779.13
558.65	44734.66
558.81	44341.45
558.98	44760.40
559.14	44638.70
559.31	44521.67
559.47	44973.39
559.64	44964.03
559.80	45155.96
559.97	45191.06
560.13	44788.49
560.30	44797.85
560.46	44655.08
560.63	44498.26
560.79	45385.33
560.96	45223.83
561.12	45038.93
561.29	45085.74
561.45	44933.60
561.61	44858.71
561.78	45258.94
561.94	45050.63
562.11	45045.95
562.27	44797.85
562.44	45074.04
562.60	45521.08
562.77	45371.28
562.93	45359.58
563.10	45411.07
563.26	44858.71
563.42	45488.31
563.59	44809.56
563.75	45368.94
563.92	45280.00
564.08	45469.59
564.24	45626.40
564.41	45219.15
564.57	45291.71
564.74	45347.88
564.90	45310.43
565.07	45595.98
565.23	45088.08
565.39	45099.78
565.56	45553.85
565.72	45385.33
565.88	45254.26
566.05	45387.67
566.21	45507.04
566.38	45233.19
566.54	45422.78
566.70	45275.32
566.87	45977.48
567.03	45586.61
567.19	45989.19
567.36	45736.41
567.52	45586.61
567.68	45900.25
567.85	45392.35
568.01	45551.51
568.17	45364.26
568.34	45876.84
568.50	45724.71
568.66	45275.32
568.83	45790.24
568.99	45184.04
569.15	45340.86
569.32	45544.48
569.48	45181.70
569.64	45853.44
569.81	45530.44
569.97	45399.37
570.13	45720.02
570.30	45666.19
570.46	45649.81
570.62	45074.04
570.78	45265.96
570.95	45371.28
571.11	45801.94
571.27	45244.90
571.43	46143.66
571.60	45652.15
571.76	45567.89
571.92	45668.53
572.09	45684.92
572.25	45518.74
572.41	45640.45
572.57	45968.12
572.74	45872.16
572.90	46033.66
573.06	45900.25
573.22	46003.23
573.38	45565.55
573.55	45382.99
573.71	45965.78
573.87	45502.35
574.03	45516.40
574.20	45839.39
574.36	45436.82
574.52	45528.10
574.68	45745.77
574.84	45855.78
575.01	46094.51
575.17	45492.99
575.33	45677.90
575.49	45914.29
575.65	45823.01
575.82	46094.51
575.98	45605.34
576.14	45801.94
576.30	46110.89
576.46	45893.22
576.62	45682.58
576.79	45874.50
576.95	45071.70
577.11	46288.77
577.27	45717.68
577.43	45949.40
577.59	45874.50
577.75	45759.81
577.92	45397.03
578.08	45698.96
578.24	45588.95
578.40	45970.46
578.56	45975.14
578.72	45806.62
578.88	46232.60
579.04	45914.29
579.21	45591.30
579.37	45991.53
579.53	45347.88
579.69	45766.84
579.85	45668.53
580.01	45907.27
580.17	45970.46
580.33	46096.85
580.49	46036.00
580.65	45542.14
580.82	46057.06
580.98	45595.98
581.14	45675.55
581.30	46176.43
581.46	46211.54
581.62	45839.39
581.78	45813.65
581.94	46277.07
582.10	46115.58
582.26	46153.02
582.42	45942.38
582.58	45958.76
582.74	45656.83
582.90	46160.05
583.06	46188.13
583.22	46080.47
583.38	46185.79
583.54	45977.48
583.70	45897.91
583.86	45797.26
584.02	45584.27
584.18	46232.60
584.34	45907.27
584.50	46040.68
584.66	45696.62
584.82	46082.81
584.98	46167.07
585.14	45970.46
585.30	45691.94
585.46	45778.54
585.62	45989.19
585.78	45759.81
585.94	45411.07
586.10	45949.40
586.26	45963.44
586.42	46136.64
586.58	45804.28
586.74	46307.50
586.90	46234.94
587.06	45663.85
587.22	46169.41
587.38	45577.25
587.54	46438.57
587.70	46356.65
587.86	46220.90
588.02	45904.93
588.18	46363.67
588.34	45677.90
588.49	45595.98
588.65	45546.82
588.81	45572.57
588.97	45401.71
589.13	45415.76
589.29	45851.09
589.45	45979.82
589.61	45975.14
589.77	46129.62
589.93	46134.30
