SpectraSuite Data File
++++++++++++++++++++++++++++++++++++
Date: Fri Oct 25 11:24:03 EDT 2013
User: price-jones
Dark Spectrum Present: No
Reference Spectrum Present: No
Number of Sampled Component Spectra: 1
Spectrometers: USB2+H05261
Integration Time (usec): 100000 (USB2+H05261)
Spectra Averaged: 1 (USB2+H05261)
Boxcar Smoothing: 0 (USB2+H05261)
Correct for Electrical Dark: No (USB2+H05261)
Strobe/Lamp Enabled: No (USB2+H05261)
Correct for Detector Non-linearity: No (USB2+H05261)
Correct for Stray Light: No (USB2+H05261)
Number of Pixels in Processed Spectrum: 2048
>>>>>Begin Processed Spectral Data<<<<<
365.73	245.76
365.92	245.76
366.12	245.76
366.32	93.62
366.52	184.90
366.72	220.01
366.91	119.37
367.11	105.32
367.31	107.66
367.51	25.75
367.70	28.09
367.90	117.03
368.10	117.03
368.30	93.62
368.49	175.54
368.69	114.69
368.89	102.98
369.09	135.75
369.28	210.65
369.48	105.32
369.68	224.69
369.87	217.67
370.07	159.16
370.27	231.71
370.47	297.25
370.66	627.26
370.86	624.92
371.06	655.35
371.25	704.50
371.45	622.58
371.65	755.99
371.84	587.47
372.04	699.82
372.24	741.95
372.44	727.91
372.63	748.97
372.83	847.27
373.03	688.12
373.22	669.39
373.42	725.57
373.62	765.36
373.81	821.53
374.01	798.12
374.21	875.36
374.40	664.71
374.60	863.66
374.79	851.96
374.99	816.85
375.19	760.67
375.38	800.46
375.58	856.64
375.78	887.06
375.97	812.17
376.17	844.93
376.37	847.27
376.56	858.98
376.76	823.87
376.95	926.85
377.15	889.40
377.35	926.85
377.54	966.64
377.74	966.64
377.93	854.30
378.13	945.58
378.33	950.26
378.52	924.51
378.72	924.51
378.91	922.17
379.11	800.46
379.31	957.28
379.50	959.62
379.70	1011.11
379.89	1015.79
380.09	1011.11
380.28	1050.90
380.48	938.55
380.68	959.62
380.87	931.53
381.07	990.05
381.26	1013.45
381.46	997.07
381.65	1036.86
381.85	1029.84
382.04	1083.67
382.24	1057.92
382.43	1027.50
382.63	1093.03
382.83	1067.28
383.02	1097.71
383.22	1109.41
383.41	1170.27
383.61	1160.91
383.80	1125.80
384.00	1057.92
384.19	1069.62
384.39	1088.35
384.58	1111.75
384.78	1132.82
384.97	1165.59
385.17	1181.97
385.36	1160.91
385.56	1078.99
385.75	1130.48
385.95	1193.67
386.14	1219.42
386.34	1198.35
386.53	1221.76
386.72	1219.42
386.92	1196.01
387.11	1270.91
387.31	1252.19
387.50	1217.08
387.70	1315.38
387.89	1327.08
388.09	1308.36
388.28	1245.16
388.48	1334.11
388.67	1282.61
388.86	1254.53
389.06	1401.98
389.25	1425.39
389.45	1366.87
389.64	1397.30
389.84	1479.22
390.03	1418.36
390.22	1409.00
390.42	1327.08
390.61	1420.71
390.81	1324.74
391.00	1369.21
391.19	1394.96
391.39	1502.62
391.58	1554.12
391.78	1516.67
391.97	1481.56
392.16	1486.24
392.36	1533.05
392.55	1556.46
392.75	1474.54
392.94	1561.14
393.13	1554.12
393.33	1472.20
393.52	1572.84
393.71	1509.65
393.91	1652.42
394.10	1633.69
394.29	1657.10
394.49	1598.59
394.68	1645.40
394.88	1657.10
395.07	1582.20
395.26	1565.82
395.46	1694.55
395.65	1682.85
395.84	1823.28
396.04	1813.92
396.23	1778.81
396.42	1778.81
396.62	1806.89
396.81	1839.66
397.00	1729.66
397.19	1757.74
397.39	1806.89
397.58	1834.98
397.77	1680.50
397.97	1930.94
398.16	1865.41
398.35	1905.20
398.55	1928.60
398.74	1975.41
398.93	2062.01
399.12	1834.98
399.32	2022.22
399.51	2015.20
399.70	1989.46
399.90	1956.69
400.09	1973.07
400.28	2029.24
400.47	2008.18
400.67	2031.58
400.86	2040.95
401.05	2010.52
401.24	2050.31
401.44	2181.38
401.63	2069.03
401.82	2078.40
402.01	2062.01
402.21	2174.36
402.40	2181.38
402.59	2165.00
402.78	2143.93
402.97	2155.63
403.17	2286.70
403.36	2298.41
403.55	2394.37
403.74	2452.88
403.93	2326.49
404.13	2326.49
404.32	2347.56
404.51	2380.32
404.70	2452.88
404.89	2427.14
405.09	2469.27
405.28	2513.74
405.47	2576.93
405.66	2504.37
405.85	2509.05
406.05	2392.03
406.24	2640.12
406.43	2532.46
406.62	2700.98
406.81	2658.85
407.00	2649.49
407.20	2661.19
407.39	2642.46
407.58	2757.15
407.77	2696.30
407.96	2848.43
408.15	2757.15
408.34	2778.22
408.54	2850.77
408.73	2693.96
408.92	2738.43
409.11	2832.05
409.30	2902.26
409.49	2951.42
409.68	2801.62
409.87	2860.13
410.07	2988.86
410.26	3035.67
410.45	3019.29
410.64	3141.00
410.83	3143.34
411.02	2967.80
411.21	3098.87
411.40	3087.17
411.59	3262.71
411.78	3178.45
411.98	3143.34
412.17	3225.26
412.36	3206.53
412.55	3389.10
412.74	3346.97
412.93	3342.28
413.12	3229.94
413.31	3494.42
413.50	3447.61
413.69	3536.55
413.88	3531.87
414.07	3646.55
414.26	3641.87
414.45	3566.98
414.64	3630.17
414.83	3698.05
415.02	3693.37
415.22	3868.91
415.41	3920.40
415.60	3679.32
415.79	3875.93
415.98	3896.99
416.17	3957.85
416.36	3866.56
416.55	3995.29
416.74	4011.68
416.93	4021.04
417.12	4086.58
417.31	4294.88
417.50	4079.55
417.69	4369.78
417.88	4231.69
418.07	4421.27
418.26	4245.73
418.45	4472.76
418.64	4421.27
418.83	4360.42
419.02	4329.99
419.21	4468.08
419.39	4594.47
419.58	4437.66
419.77	4582.77
419.96	4561.70
420.15	4643.62
420.34	4589.79
420.53	4599.15
420.72	4744.27
420.91	4718.52
421.10	4835.55
421.29	4748.95
421.48	4814.48
421.67	4821.50
421.86	4798.10
422.05	4882.36
422.24	4826.18
422.43	4980.66
422.61	4873.00
422.80	4865.97
422.99	5029.81
423.18	5083.64
423.37	5053.22
423.56	4966.62
423.75	4858.95
423.94	4805.12
424.13	4854.27
424.32	4762.99
424.50	4975.98
424.69	5027.47
424.88	5069.60
425.07	4959.60
425.26	4851.93
425.45	4964.28
425.64	4865.97
425.83	5020.45
426.01	5060.24
426.20	5198.33
426.39	5132.79
426.58	5036.83
426.77	5055.56
426.96	5081.30
427.15	5055.56
427.33	5224.08
427.52	5081.30
427.71	5298.97
427.90	5181.95
428.09	5277.91
428.28	5301.31
428.46	5214.71
428.65	5411.32
428.84	5533.03
429.03	5572.82
429.22	5296.63
429.40	5607.92
429.59	5551.75
429.78	5284.93
429.97	5254.50
430.16	5392.59
430.34	5530.69
430.53	5668.78
430.72	5558.77
430.91	5717.93
431.10	5624.31
431.28	5797.51
431.47	5753.04
431.66	6029.22
431.85	5689.84
432.03	5877.09
432.22	6148.59
432.41	5834.96
432.60	6071.35
432.79	6029.22
432.97	5975.39
433.16	5998.79
433.35	6097.10
433.54	5970.71
433.72	6061.99
433.91	6176.67
434.10	6176.67
434.28	6087.73
434.47	6169.65
434.66	6270.30
434.85	6480.94
435.03	6284.34
435.22	6251.57
435.41	6436.47
435.59	6497.33
435.78	6387.32
435.97	6427.11
436.16	6401.37
436.34	6417.75
436.53	6595.63
436.72	6663.51
436.90	6544.14
437.09	6530.09
437.28	6457.54
437.46	6497.33
437.65	6698.61
437.84	6810.96
438.02	6668.19
438.21	6883.52
438.40	6843.73
438.58	6906.92
438.77	7129.27
438.96	6850.75
439.14	7030.97
439.33	7112.89
439.52	7176.08
439.70	7222.89
439.89	7426.52
440.08	7501.42
440.26	7515.46
440.45	7321.20
440.63	7499.08
440.82	7632.49
441.01	7566.95
441.19	7541.21
441.38	7815.05
441.57	7751.85
441.75	7719.09
441.94	7747.17
442.12	7929.74
442.31	8271.45
442.50	7978.89
442.68	7953.14
442.87	8074.85
443.05	8234.00
443.24	8140.38
443.43	8201.24
443.61	8128.68
443.80	8564.02
443.98	8098.25
444.17	7882.92
444.35	8269.11
444.54	8430.61
444.73	8437.63
444.91	8362.73
445.10	8292.52
445.28	8161.45
445.47	8159.11
445.65	8411.89
445.84	8489.12
446.02	8381.46
446.21	8428.27
446.39	8461.04
446.58	8596.79
446.77	8416.57
446.95	8212.94
447.14	8592.11
447.32	8468.06
447.51	8367.42
447.69	8638.92
447.88	8542.96
448.06	8723.18
448.25	8582.74
448.43	8835.52
448.62	8592.11
448.80	8821.48
448.99	8643.60
449.17	8695.09
449.36	8552.32
449.54	8833.18
449.73	8985.32
449.91	9177.24
450.10	9076.60
450.28	9006.38
450.46	9128.09
450.65	9067.24
450.83	9001.70
451.02	9151.49
451.20	9305.97
451.39	9256.82
451.57	9090.64
451.76	9121.07
451.94	9184.26
452.13	9212.35
452.31	9320.01
452.49	9268.52
452.68	9247.46
452.86	9455.76
453.05	9427.68
453.23	9352.78
453.42	9369.16
453.60	9497.89
453.78	9432.36
453.97	9359.80
454.15	9521.30
454.34	9446.40
454.52	9837.27
454.70	9764.72
454.89	9643.01
455.07	9668.75
455.26	9958.98
455.44	10008.13
455.62	9844.29
455.81	10029.20
455.99	10085.37
456.17	9973.02
456.36	10059.62
456.54	10181.33
456.73	10312.40
456.91	10260.91
457.09	10202.40
457.28	10686.89
457.46	10326.44
457.64	10450.49
457.83	10431.77
458.01	10424.75
458.19	10677.52
458.38	10700.93
458.56	10707.95
458.74	10810.93
458.93	10743.06
459.11	10675.18
459.29	10712.63
459.48	10684.55
459.66	10827.32
459.84	11068.39
460.03	10963.07
460.21	10874.13
460.39	11037.97
460.57	10860.09
460.76	11157.33
460.94	11080.10
461.12	11136.27
461.31	11147.97
461.49	11288.40
461.67	11227.55
461.85	11672.25
462.04	11473.31
462.22	11658.21
462.40	11831.41
462.59	11524.80
462.77	11410.11
462.95	11756.51
463.13	11597.35
463.32	11658.21
463.50	11751.83
463.68	11667.57
463.86	11946.09
464.05	11857.15
464.23	11751.83
464.41	11660.55
464.59	11658.21
464.78	12126.32
464.96	12091.21
465.14	11784.60
465.32	12011.63
465.50	11955.46
465.69	11967.16
465.87	12142.70
466.05	12264.41
466.23	12278.45
466.41	12318.24
466.60	12346.33
466.78	12276.11
466.96	12119.29
467.14	12222.28
467.32	12463.35
467.51	12542.93
467.69	12077.16
467.87	12430.59
468.05	12606.13
468.23	12376.75
468.41	12648.26
468.60	12514.84
468.78	12879.97
468.96	12477.40
469.14	12636.55
469.32	12812.09
469.50	12760.60
469.69	13109.34
469.87	13427.65
470.05	13298.92
470.23	13343.39
470.41	13378.50
470.59	13378.50
470.77	13174.88
470.95	13369.14
471.14	13401.91
471.32	13158.49
471.50	13671.07
471.68	13472.12
471.86	13745.97
472.04	13898.10
472.22	13862.99
472.40	13469.78
472.58	13900.44
472.77	14106.41
472.95	14232.80
473.13	14693.88
473.31	14122.79
473.49	14118.11
473.67	14354.51
473.85	14534.73
474.03	14391.95
474.21	14670.48
474.39	14698.56
474.57	14705.59
474.75	14665.80
474.93	14855.38
475.12	14991.13
475.30	15115.18
475.48	15075.39
475.66	15286.04
475.84	15384.34
476.02	15349.23
476.20	15213.48
476.38	15740.10
476.56	16018.63
476.74	16006.92
476.92	15885.22
477.10	15815.00
477.28	16690.36
477.46	16273.74
477.64	16409.50
477.82	16641.21
478.00	17121.02
478.18	16877.60
478.36	16971.22
478.54	17256.77
478.72	17263.79
478.90	17324.65
479.08	17792.75
479.26	17689.77
479.44	17750.62
479.62	17912.12
479.80	18106.38
479.98	18700.88
480.16	18586.19
480.34	18288.95
480.52	18663.43
480.70	18633.00
480.88	18525.34
481.06	18656.41
481.24	18787.48
481.41	19110.47
481.59	19342.19
481.77	19641.78
481.95	19662.84
482.13	19978.81
482.31	19789.23
482.49	20343.94
482.67	20283.08
482.85	20446.92
483.03	20828.43
483.21	20629.48
483.39	20982.90
483.57	21102.27
483.74	21392.50
483.92	21408.88
484.10	21018.01
484.28	21975.29
484.46	21986.99
484.64	22214.02
484.82	21862.94
485.00	22600.21
485.18	22820.22
485.35	23239.18
485.53	22864.69
485.71	23283.65
485.89	23557.49
486.07	23784.52
486.25	23573.88
486.43	23557.49
486.61	23903.89
486.78	24355.61
486.96	24046.66
487.14	24599.03
487.32	24379.02
487.50	24790.95
487.68	24931.39
487.85	25469.71
488.03	25755.26
488.21	25940.16
488.39	25965.90
488.57	26260.81
488.75	26412.95
488.92	26380.18
489.10	26651.68
489.28	26951.27
489.46	27248.52
489.64	27227.45
489.81	27889.82
489.99	27819.61
490.17	27594.92
490.35	28393.04
490.53	27772.80
490.70	28577.94
490.88	28643.48
491.06	28898.59
491.24	28989.88
491.41	28849.44
491.59	29521.18
491.77	29228.61
491.95	30129.72
492.13	30038.44
492.30	30263.13
492.48	30279.51
492.66	30239.72
492.84	30398.88
493.01	30773.36
493.19	30323.98
493.37	30904.43
493.54	31447.44
493.72	31625.32
493.90	31632.34
494.08	31887.46
494.25	32158.96
494.43	32203.43
494.61	32137.90
494.79	32669.20
494.96	32238.54
495.14	32793.25
495.32	33362.00
495.49	33436.89
495.67	33151.35
495.85	33851.17
496.02	33806.70
496.20	34057.14
496.38	34239.70
496.55	34398.85
496.73	34700.78
496.91	34438.64
497.09	35068.25
497.26	35110.38
497.44	35274.21
497.62	35688.49
497.79	35964.67
497.97	35349.11
498.14	36079.36
498.32	36360.22
498.50	36477.25
498.67	37097.49
498.85	36526.40
499.03	36549.81
499.20	37118.56
499.38	37165.37
499.56	37029.62
499.73	37359.63
499.91	37621.77
500.08	37862.85
500.26	37294.10
500.44	38057.11
500.61	38199.88
500.79	38000.94
500.97	38075.84
501.14	38361.38
501.32	38534.58
501.49	38401.17
501.67	38890.34
501.84	39093.97
502.02	38679.69
502.20	39171.21
502.37	38904.38
502.55	39337.38
502.72	39899.11
502.90	39313.98
503.07	39590.16
503.25	40023.16
503.43	40065.29
503.60	40009.12
503.78	40020.82
503.95	40236.15
504.13	40521.69
504.30	40910.22
504.48	40671.49
504.65	41261.30
504.83	41490.68
505.01	41394.71
505.18	41656.85
505.36	41207.47
505.53	41816.01
505.71	41614.72
505.88	41900.27
506.06	41523.44
506.23	42251.35
506.41	41745.80
506.58	42101.56
506.76	42291.14
506.93	42253.69
507.11	42246.67
507.28	42967.55
507.46	43016.71
507.63	42871.59
507.81	43206.29
507.98	43103.31
508.16	43681.42
508.33	43487.15
508.50	43330.34
508.68	43856.96
508.85	44322.72
509.03	43924.83
509.20	43814.83
509.38	44428.05
509.55	44289.96
509.73	44336.77
509.90	44755.72
510.08	44650.40
510.25	44540.39
510.42	44914.88
510.60	45027.23
510.77	45179.36
510.95	45528.10
511.12	45104.46
511.30	45502.35
511.47	45823.01
511.64	45485.97
511.82	46000.89
511.99	45694.28
512.17	45787.90
512.34	45923.65
512.51	46602.41
512.69	46770.93
512.86	46635.17
513.04	47028.38
513.21	46953.49
513.38	46997.96
513.56	47028.38
513.73	46983.91
513.90	47260.10
514.08	46937.10
514.25	47653.31
514.43	47704.80
514.60	47494.15
514.77	47339.68
514.95	48135.46
515.12	47650.97
515.29	47608.84
515.47	47805.44
515.64	48404.62
515.81	48100.35
515.99	48367.17
516.16	48638.67
516.33	48154.18
516.51	48868.05
516.68	48409.30
516.85	48718.25
517.03	49029.54
517.20	49001.46
517.37	49116.14
517.54	48926.56
517.72	48772.08
517.89	49347.86
518.06	49574.89
518.24	49202.74
518.41	49420.41
518.58	49724.68
518.75	49642.76
518.93	49544.46
519.10	49333.81
519.27	49729.36
519.45	50160.02
519.62	50117.89
519.79	50209.17
519.96	49588.93
520.14	50134.28
520.31	50380.03
520.48	50351.94
520.65	50560.25
520.83	50670.26
521.00	50541.53
521.17	50447.91
521.34	50845.80
521.52	51171.13
521.69	51140.71
521.86	51182.84
522.03	51325.61
522.20	51466.04
522.38	51896.70
522.55	51592.43
522.72	51283.48
522.89	51592.43
523.07	51976.28
523.24	51480.08
523.41	51655.62
523.58	51648.60
523.75	51800.74
523.92	51641.58
524.10	51880.31
524.27	52247.78
524.44	52310.97
524.61	51999.68
524.78	52252.46
524.96	52463.11
525.13	52477.15
525.30	52545.03
525.47	52638.65
525.64	52781.42
525.81	52336.72
525.98	52982.71
526.16	52774.40
526.33	53010.79
526.50	53256.55
526.67	52861.00
526.84	53221.44
527.01	53001.43
527.18	53034.20
527.36	53361.87
527.53	53158.25
527.70	53371.24
527.87	53460.18
528.04	53347.83
528.21	53586.57
528.38	53371.24
528.55	53682.53
528.72	53523.37
528.89	53490.60
529.07	53361.87
529.24	53387.62
529.41	53794.87
529.58	53605.29
529.75	53584.22
529.92	54017.22
530.09	53939.99
530.26	54021.90
530.43	54251.28
530.60	53787.85
530.77	53893.18
530.94	54181.06
531.11	54326.17
531.28	54372.99
531.46	54251.28
531.63	54361.28
531.80	54581.29
531.97	54197.44
532.14	54518.10
532.31	54475.97
532.48	54490.01
532.65	54672.57
532.82	54939.39
532.99	54679.60
533.16	54754.49
533.33	54972.16
533.50	54887.90
533.67	54972.16
533.84	54712.36
534.01	55124.30
534.18	54892.58
534.35	55063.44
534.52	55398.14
534.69	55100.89
534.86	55281.11
535.03	54951.10
535.20	55306.86
535.37	55592.40
535.54	55405.16
535.71	55316.22
535.88	55688.37
536.05	55524.53
536.22	55833.48
536.38	55728.16
536.55	55496.44
536.72	55906.04
536.89	55594.74
537.06	55716.45
537.23	55688.37
537.40	55547.93
537.57	55842.84
537.74	55941.14
537.91	56051.15
538.08	56013.70
538.25	55681.34
538.42	56151.79
538.59	56095.62
538.75	55952.85
538.92	56362.44
539.09	56442.02
539.26	56158.81
539.43	56346.06
539.60	56214.99
539.77	56385.85
539.94	56491.17
540.11	56453.72
540.28	56638.62
540.44	56640.96
540.61	56507.55
540.78	56598.83
540.95	56549.68
541.12	56711.18
541.29	56624.58
541.46	56851.61
541.62	56633.94
541.79	56910.13
541.96	56346.06
542.13	56598.83
542.30	56687.78
542.47	57064.60
542.63	56603.52
542.80	56996.73
542.97	57116.09
543.14	57333.76
543.31	57162.90
543.48	57352.49
543.64	57394.62
543.81	57422.70
543.98	57558.45
544.15	57315.04
544.32	57506.96
544.48	57708.25
544.65	57301.00
544.82	57612.29
544.99	57382.91
545.16	57705.91
545.32	57359.51
545.49	57703.57
545.66	58000.82
545.83	57612.29
546.00	57537.39
546.16	57822.93
546.33	57411.00
546.50	57528.03
546.67	57574.84
546.83	57375.89
547.00	58033.58
547.17	57839.32
547.34	57846.34
547.50	58134.23
547.67	58190.40
547.84	58012.52
548.00	58375.30
548.17	58239.55
548.34	58272.32
548.51	58197.42
548.67	58333.17
548.84	58042.95
549.01	58192.74
549.18	58225.51
549.34	58363.60
549.51	58468.92
549.68	58480.63
549.84	58375.30
550.01	58548.50
550.18	58494.67
550.34	58480.63
550.51	58735.74
550.68	58475.94
550.84	58473.60
551.01	58731.06
551.18	58599.99
551.34	58464.24
551.51	58621.06
551.68	58590.63
551.84	58609.35
552.01	58564.88
552.18	58913.62
552.34	58431.47
552.51	58686.59
552.68	58541.48
552.84	58801.28
553.01	58981.50
553.18	58845.75
553.34	58972.14
553.51	58838.73
553.67	58808.30
553.84	59096.19
554.01	59007.25
554.17	59000.22
554.34	58908.94
554.51	59091.51
554.67	59386.41
554.84	59274.07
555.00	59063.42
555.17	59189.81
555.33	59164.06
555.50	59016.61
555.67	58939.37
555.83	59168.74
556.00	59206.19
556.16	59391.09
556.33	59405.14
556.50	59271.73
556.66	59435.56
556.83	59166.40
556.99	59320.88
557.16	59538.55
557.32	59573.66
557.49	59812.39
557.65	59341.94
557.82	59433.22
557.98	59316.20
558.15	59545.57
558.32	59578.34
558.48	59599.40
558.65	59618.13
558.81	59461.31
558.98	59634.51
559.14	59770.26
559.31	59625.15
559.47	59810.05
559.64	59681.32
559.80	59950.48
559.97	60009.00
560.13	59678.98
560.30	59908.35
560.46	59842.82
560.63	59866.22
560.79	59721.11
560.96	60081.55
561.12	59770.26
561.29	59791.33
561.45	60074.53
561.61	59866.22
561.78	60011.34
561.94	59746.86
562.11	59756.22
562.27	59987.93
562.44	60053.47
562.60	60016.02
562.77	60261.77
562.93	59749.20
563.10	60114.32
563.26	59959.84
563.42	60322.63
563.59	60114.32
563.75	59936.44
563.92	60032.40
564.08	60130.70
564.24	60350.71
564.41	60294.54
564.57	60250.07
564.74	60231.35
564.90	60310.92
565.07	60205.60
565.23	60243.05
565.39	60224.32
565.56	60273.48
565.72	60346.03
565.88	60437.31
566.05	60030.06
566.21	60156.45
566.38	60327.31
566.54	60533.28
566.70	60381.14
566.87	60385.82
567.03	60324.97
567.19	60472.42
567.36	60346.03
567.52	60399.86
567.68	60608.17
567.85	60477.10
568.01	60512.21
568.17	60369.44
568.34	60371.78
568.50	60411.57
568.66	60294.54
568.83	60446.68
568.99	60458.38
569.15	60353.05
569.32	60460.72
569.48	60339.01
569.64	60743.92
569.81	60439.65
569.97	60341.35
570.13	60757.97
570.30	60523.91
570.46	60364.76
570.62	60516.89
570.78	60315.61
570.95	60741.58
571.11	60706.47
571.27	60432.63
571.43	60647.96
571.60	60671.37
571.76	60554.34
571.92	60844.57
572.09	60598.81
572.25	60647.96
572.41	60654.98
572.57	60526.25
572.74	60851.59
572.90	60739.24
573.06	60917.12
573.22	60725.20
573.38	60727.54
573.55	60526.25
573.71	60874.99
573.87	60687.75
574.03	60509.87
574.20	60617.53
574.36	60523.91
574.52	60818.82
574.68	60867.97
574.84	61139.47
575.01	60764.99
575.17	60877.33
575.33	60704.13
575.49	60928.83
575.65	60619.88
575.82	60977.98
575.98	60736.90
576.14	60928.83
576.30	60863.29
576.46	60860.95
576.62	60664.35
576.79	60790.73
576.95	60722.86
577.11	60900.74
577.27	60814.14
577.43	61013.08
577.59	60823.50
577.75	60790.73
577.92	60823.50
578.08	60818.82
578.24	60905.42
578.40	60949.89
578.56	60980.32
578.72	60903.08
578.88	60832.86
579.04	61048.19
579.21	60987.34
579.37	61050.53
579.53	60846.91
579.69	60877.33
579.85	60842.23
580.01	61020.11
580.17	60755.63
580.33	60917.12
580.49	61165.22
580.65	60877.33
580.82	60893.72
580.98	60977.98
581.14	60844.57
581.30	61041.17
581.46	61050.53
581.62	61095.00
581.78	60992.02
581.94	60963.93
582.10	61073.94
582.26	61146.50
582.42	61085.64
582.58	61083.30
582.74	60975.64
582.90	61076.28
583.06	60949.89
583.22	60954.57
583.38	61038.83
583.54	61113.73
583.70	61254.16
583.86	60992.02
584.02	60874.99
584.18	61174.58
584.34	61027.13
584.50	60963.93
584.66	60956.91
584.82	60734.56
584.98	61205.01
585.14	61102.03
585.30	60959.25
585.46	61055.21
585.62	61104.37
585.78	61265.86
585.94	60961.59
586.10	61254.16
586.26	60989.68
586.42	61104.37
586.58	61188.63
586.74	61055.21
586.90	60975.64
587.06	61148.84
587.22	61219.05
587.38	61179.26
587.54	61282.25
587.70	61352.46
587.86	61097.34
588.02	61113.73
588.18	61090.32
588.34	61008.40
588.49	60999.04
