SpectraSuite Data File
++++++++++++++++++++++++++++++++++++
Date: Fri Oct 25 11:23:09 EDT 2013
User: price-jones
Dark Spectrum Present: No
Reference Spectrum Present: No
Number of Sampled Component Spectra: 1
Spectrometers: USB2+H05261
Integration Time (usec): 100000 (USB2+H05261)
Spectra Averaged: 1 (USB2+H05261)
Boxcar Smoothing: 0 (USB2+H05261)
Correct for Electrical Dark: No (USB2+H05261)
Strobe/Lamp Enabled: No (USB2+H05261)
Correct for Detector Non-linearity: No (USB2+H05261)
Correct for Stray Light: No (USB2+H05261)
Number of Pixels in Processed Spectrum: 2048
>>>>>Begin Processed Spectral Data<<<<<
365.73	184.90
365.92	184.90
366.12	184.90
366.32	154.48
366.52	154.48
366.72	152.13
366.91	112.35
367.11	102.98
367.31	81.92
367.51	131.07
367.70	107.66
367.90	65.54
368.10	119.37
368.30	107.66
368.49	107.66
368.69	159.16
368.89	107.66
369.09	147.45
369.28	173.20
369.48	191.92
369.68	117.03
369.87	227.03
370.07	220.01
370.27	248.10
370.47	360.44
370.66	543.00
370.86	566.41
371.06	641.31
371.25	744.29
371.45	734.93
371.65	704.50
371.84	695.14
372.04	657.69
372.24	688.12
372.44	723.23
372.63	739.61
372.83	821.53
373.03	760.67
373.22	683.44
373.42	786.42
373.62	753.65
373.81	777.06
374.01	755.99
374.21	784.08
374.40	777.06
374.60	854.30
374.79	795.78
374.99	812.17
375.19	875.36
375.38	884.72
375.58	784.08
375.78	858.98
375.97	837.91
376.17	844.93
376.37	835.57
376.56	854.30
376.76	870.68
376.95	873.02
377.15	940.90
377.35	901.11
377.54	877.70
377.74	791.10
377.93	903.45
378.13	919.83
378.33	875.36
378.52	976.00
378.72	922.17
378.91	896.43
379.11	968.98
379.31	1006.43
379.50	954.94
379.70	917.49
379.89	1097.71
380.09	966.64
380.28	976.00
380.48	936.21
380.68	990.05
380.87	936.21
381.07	1025.15
381.26	1135.16
381.46	1097.71
381.65	1043.88
381.85	1046.22
382.04	964.30
382.24	1090.69
382.43	1074.31
382.63	1004.09
382.83	1046.22
383.02	1071.97
383.22	1142.18
383.41	1020.47
383.61	1130.48
383.80	1109.41
384.00	1188.99
384.19	1062.60
384.39	1146.86
384.58	1121.12
384.78	1184.31
384.97	1144.52
385.17	1198.35
385.36	1186.65
385.56	1212.40
385.75	1076.65
385.95	1212.40
386.14	1263.89
386.34	1210.06
386.53	1200.69
386.72	1249.85
386.92	1315.38
387.11	1212.40
387.31	1284.95
387.50	1210.06
387.70	1235.80
387.89	1317.72
388.09	1291.98
388.28	1416.02
388.48	1247.51
388.67	1329.42
388.86	1329.42
389.06	1287.29
389.25	1317.72
389.45	1327.08
389.64	1301.34
389.84	1352.83
390.03	1394.96
390.22	1493.26
390.42	1392.62
390.61	1409.00
390.81	1394.96
391.00	1385.60
391.19	1455.81
391.39	1446.45
391.58	1551.78
391.78	1465.18
391.97	1425.39
392.16	1465.18
392.36	1554.12
392.55	1584.54
392.75	1474.54
392.94	1420.71
393.13	1516.67
393.33	1488.58
393.52	1568.16
393.71	1701.57
393.91	1603.27
394.10	1582.20
394.29	1554.12
394.49	1598.59
394.68	1612.63
394.88	1586.88
395.07	1607.95
395.26	1589.22
395.46	1671.14
395.65	1762.42
395.84	1746.04
396.04	1785.83
396.23	1802.21
396.42	1785.83
396.62	1846.68
396.81	1799.87
397.00	1818.60
397.19	1741.36
397.39	1907.54
397.58	1809.23
397.77	1783.49
397.97	1792.85
398.16	1785.83
398.35	1952.01
398.55	1846.68
398.74	1858.39
398.93	1909.88
399.12	1984.77
399.32	1937.96
399.51	1916.90
399.70	1980.09
399.90	1952.01
400.09	2043.29
400.28	2052.65
400.47	2097.12
400.67	2024.56
400.86	2054.99
401.05	2118.18
401.24	2153.29
401.44	2129.89
401.63	2190.74
401.82	2150.95
402.01	2113.50
402.21	2209.47
402.40	2150.95
402.59	2186.06
402.78	2312.45
402.97	2225.85
403.17	2221.17
403.36	2230.53
403.55	2188.40
403.74	2380.32
403.93	2387.35
404.13	2370.96
404.32	2420.11
404.51	2375.64
404.70	2263.30
404.89	2408.41
405.09	2455.22
405.28	2469.27
405.47	2504.37
405.66	2588.63
405.85	2495.01
406.05	2495.01
406.24	2487.99
406.43	2527.78
406.62	2555.86
406.81	2733.75
407.00	2450.54
407.20	2541.82
407.39	2658.85
407.58	2747.79
407.77	2703.32
407.96	2794.60
408.15	2698.64
408.34	2771.19
408.54	2771.19
408.73	2789.92
408.92	2890.56
409.11	2883.54
409.30	2768.85
409.49	2944.39
409.68	2963.12
409.87	2822.69
410.07	3098.87
410.26	2991.20
410.45	3026.31
410.64	2988.86
410.83	3108.23
411.02	3091.85
411.21	3241.64
411.40	3218.24
411.59	3236.96
411.78	3293.13
411.98	3290.79
412.17	3248.66
412.36	3335.26
412.55	3372.71
412.74	3377.39
412.93	3501.44
413.12	3302.50
413.31	3590.38
413.50	3412.50
413.69	3604.42
413.88	3662.94
414.07	3679.32
414.26	3653.58
414.45	3655.92
414.64	3648.90
414.83	3660.60
415.02	3920.40
415.22	3702.73
415.41	3728.47
415.60	3887.63
415.79	3969.55
415.98	3932.10
416.17	3936.78
416.36	3957.85
416.55	4102.96
416.74	4128.70
416.93	3983.59
417.12	4126.36
417.31	4138.07
417.50	4212.96
417.69	4329.99
417.88	4292.54
418.07	4320.63
418.26	4456.38
418.45	4313.61
418.64	4512.55
418.83	4432.97
419.02	4568.73
419.21	4540.64
419.39	4554.68
419.58	4451.70
419.77	4596.81
419.96	4599.15
420.15	4652.98
420.34	4629.58
420.53	4589.79
420.72	4758.31
420.91	4821.50
421.10	4744.27
421.29	4751.29
421.48	4800.44
421.67	4898.74
421.86	4781.71
422.05	4851.93
422.24	4858.95
422.43	4938.53
422.61	4938.53
422.80	5060.24
422.99	5004.07
423.18	5022.79
423.37	5100.03
423.56	5013.43
423.75	5008.75
423.94	4917.47
424.13	4674.05
424.32	4748.95
424.50	5144.50
424.69	5139.82
424.88	5191.31
425.07	5050.88
425.26	4903.42
425.45	4990.02
425.64	5060.24
425.83	5020.45
426.01	5210.03
426.20	5015.77
426.39	5109.39
426.58	5165.56
426.77	5125.77
426.96	5287.27
427.15	5111.73
427.33	5383.23
427.52	5266.21
427.71	5313.02
427.90	5408.98
428.09	5387.91
428.28	5362.17
428.46	5483.88
428.65	5540.05
428.84	5626.65
429.03	5575.16
429.22	5371.53
429.40	5582.18
429.59	5502.60
429.78	5308.34
429.97	5329.40
430.16	5591.54
430.34	5626.65
430.53	5640.69
430.72	5659.42
430.91	5689.84
431.10	5570.48
431.28	5781.12
431.47	5841.98
431.66	6019.86
431.85	5767.08
432.03	6064.33
432.22	6024.54
432.41	5937.94
432.60	6008.16
432.79	5940.28
432.97	6162.63
433.16	6054.97
433.35	6059.65
433.54	6181.35
433.72	6118.16
433.91	6129.86
434.10	6190.72
434.28	6097.10
434.47	6300.72
434.66	6368.60
434.85	6384.98
435.03	6408.39
435.22	6258.59
435.41	6661.16
435.59	6551.16
435.78	6527.75
435.97	6600.31
436.16	6546.48
436.34	6274.98
436.53	6705.63
436.72	6836.70
436.90	6413.07
437.09	6604.99
437.28	6600.31
437.46	6581.59
437.65	6696.27
437.84	6729.04
438.02	6544.14
438.21	6970.12
438.40	6951.39
438.58	7030.97
438.77	7052.03
438.96	6913.94
439.14	7087.14
439.33	7309.49
439.52	7459.29
439.70	7229.91
439.89	7379.71
440.08	7496.74
440.26	7623.12
440.45	7419.50
440.63	7440.56
440.82	7510.78
441.01	7417.16
441.19	7637.17
441.38	7754.19
441.57	7770.58
441.75	7976.55
441.94	8018.68
442.12	7999.95
442.31	8140.38
442.50	8203.58
442.68	8093.57
442.87	8152.09
443.05	8163.79
443.24	8194.22
443.43	8205.92
443.61	8299.54
443.80	8538.27
443.98	7920.37
444.17	7950.80
444.35	8383.80
444.54	8592.11
444.73	8692.75
444.91	8472.74
445.10	8390.82
445.28	8449.33
445.47	8243.37
445.65	8395.50
445.84	8648.28
446.02	8578.06
446.21	8624.87
446.39	8547.64
446.58	8606.15
446.77	8517.21
446.95	8315.92
447.14	8578.06
447.32	8624.87
447.51	8828.50
447.69	8791.05
447.88	8561.68
448.06	8533.59
448.25	8692.75
448.43	8772.33
448.62	8549.98
448.80	8758.28
448.99	8737.22
449.17	8856.59
449.36	8608.49
449.54	9074.26
449.73	8978.30
449.91	9181.92
450.10	8891.70
450.28	9107.02
450.46	9376.19
450.65	9301.29
450.83	9092.98
451.02	9247.46
451.20	9186.60
451.39	9191.28
451.57	9291.93
451.76	9191.28
451.94	9153.84
452.13	9423.00
452.31	9413.63
452.49	9195.96
452.68	9259.16
452.86	9437.04
453.05	9511.94
453.23	9476.83
453.42	9462.79
453.60	9458.10
453.78	9547.05
453.97	9556.41
454.15	9696.84
454.34	9364.48
454.52	9879.40
454.70	9635.99
454.89	9673.43
455.07	9984.73
455.26	10188.35
455.44	9816.21
455.62	10078.35
455.81	10045.58
455.99	10178.99
456.17	10104.09
456.36	10174.31
456.54	10331.12
456.73	10506.66
456.91	10534.75
457.09	10434.11
457.28	10658.80
457.46	10532.41
457.64	10757.10
457.83	10626.03
458.01	10356.87
458.19	10836.68
458.38	10633.05
458.56	10942.00
458.74	10824.98
458.93	10679.86
459.11	10757.10
459.29	10714.97
459.48	10794.55
459.66	10911.58
459.84	10963.07
460.03	11066.05
460.21	11049.67
460.39	11239.25
460.57	11157.33
460.76	11145.63
460.94	11389.05
461.12	11297.77
461.31	11321.17
461.49	11215.85
461.67	11255.64
461.85	11616.08
462.04	11197.12
462.22	11705.02
462.40	11690.98
462.59	11609.06
462.77	11421.81
462.95	11655.87
463.13	11693.32
463.32	11646.51
463.50	12046.74
463.68	11840.77
463.86	12004.61
464.05	11524.80
464.23	11822.05
464.41	12161.42
464.59	11812.68
464.78	12369.73
464.96	12177.81
465.14	12086.53
465.32	12262.07
465.50	11981.20
465.69	12131.00
465.87	12004.61
466.05	12336.96
466.23	12262.07
466.41	12430.59
466.60	12528.89
466.78	12435.27
466.96	12503.14
467.14	12578.04
467.32	12456.33
467.51	12779.32
467.69	12533.57
467.87	12666.98
468.05	12809.75
468.23	12716.13
468.41	12507.82
468.60	12622.51
468.78	12865.92
468.96	12744.22
469.14	12847.20
469.32	13163.17
469.50	12980.61
469.69	13114.02
469.87	13200.62
470.05	13132.75
470.23	13254.45
470.41	13163.17
470.59	13303.60
470.77	13238.07
470.95	13537.66
471.14	13741.29
471.32	13507.23
471.50	13624.26
471.68	13561.06
471.86	13652.34
472.04	13605.53
472.22	14204.71
472.40	13816.18
472.58	13963.64
472.77	14040.87
472.95	14370.89
473.13	14572.18
473.31	14303.01
473.49	14295.99
473.67	14239.82
473.85	14649.41
474.03	14801.55
474.21	14970.07
474.39	14888.15
474.57	15005.17
474.75	15005.17
474.93	14988.79
475.12	14998.15
475.30	15253.27
475.48	14993.47
475.66	15536.48
475.84	15295.40
476.02	15674.57
476.20	15470.94
476.38	15976.50
476.56	16341.62
476.74	16177.78
476.92	15854.79
477.10	15871.17
477.28	16152.04
477.46	16245.66
477.64	16486.73
477.82	16416.52
478.00	17308.26
478.18	17261.45
478.36	17106.98
478.54	17373.80
478.72	17525.93
478.90	17502.53
479.08	17575.08
479.26	18045.53
479.44	17685.09
479.62	17984.68
479.80	18272.56
479.98	18403.63
480.16	18789.82
480.34	18595.56
480.52	18728.97
480.70	18913.87
480.88	18890.46
481.06	18937.27
481.24	18862.38
481.41	19386.66
481.59	19651.14
481.77	19845.40
481.95	19730.72
482.13	20020.94
482.31	19906.26
482.49	20201.16
482.67	20631.82
482.85	20945.45
483.03	20786.30
483.21	21071.84
483.39	20744.17
483.57	20908.01
483.74	21465.05
483.92	21577.40
484.10	21577.40
484.28	21926.14
484.46	22057.21
484.64	22649.36
484.82	21923.80
485.00	22602.55
485.18	23136.20
485.35	23084.70
485.53	23087.04
485.71	23496.64
485.89	23723.67
486.07	23220.45
486.25	23761.12
486.43	23948.36
486.61	24100.50
486.78	24496.05
486.96	24519.45
487.14	24884.58
487.32	24893.94
487.50	25137.35
487.68	25352.68
487.85	25722.49
488.03	25724.83
488.21	26089.95
488.39	26230.38
488.57	26115.70
488.75	26511.25
488.92	26670.40
489.10	26724.24
489.28	27543.42
489.46	27314.05
489.64	27328.10
489.81	27716.62
489.99	28158.99
490.17	27964.72
490.35	28404.74
490.53	28332.18
490.70	28458.57
490.88	28606.03
491.06	29249.67
491.24	28966.47
491.41	29387.77
491.59	29460.32
491.77	29617.14
491.95	30127.38
492.13	29961.20
492.30	30424.62
492.48	30157.80
492.66	30403.56
492.84	30946.56
493.01	31218.07
493.19	31182.96
493.37	31344.45
493.54	31475.52
493.72	32243.22
493.90	31817.24
494.08	32151.94
494.25	32402.38
494.43	32212.79
494.61	32596.64
494.79	32400.04
494.96	32900.91
495.14	33242.63
495.32	33481.36
495.49	33902.66
495.67	34033.73
495.85	33823.08
496.02	33699.03
496.20	34185.86
496.38	34232.68
496.55	34450.35
496.73	35093.99
496.91	35271.87
497.09	35122.08
497.26	35295.28
497.44	35194.64
497.62	35496.56
497.79	36259.58
497.97	35887.43
498.14	36266.60
498.32	36353.20
498.50	36275.96
498.67	36781.52
498.85	36659.81
499.03	37261.33
499.20	37326.86
499.38	37200.47
499.56	37694.33
499.73	37563.26
499.91	37869.87
500.08	38396.49
500.26	37825.40
500.44	38225.63
500.61	38569.69
500.79	37942.42
500.97	38335.63
501.14	38770.97
501.32	39281.21
501.49	39227.38
501.67	39187.59
501.84	39538.67
502.02	39138.44
502.20	39629.95
502.37	39613.57
502.55	39683.78
502.72	39782.09
502.90	40374.24
503.07	39707.19
503.25	40091.04
503.43	39957.63
503.60	40182.32
503.78	40697.24
503.95	40624.68
504.13	40879.80
504.30	41155.98
504.48	40933.63
504.65	41244.92
504.83	41413.44
505.01	41736.43
505.18	41694.30
505.36	41947.08
505.53	41628.77
505.71	42349.65
505.88	42564.98
506.06	41991.55
506.23	42312.20
506.41	42513.49
506.58	42464.34
506.76	42775.63
506.93	42588.39
507.11	42185.82
507.28	43009.68
507.46	42876.27
507.63	43452.05
507.81	43789.08
507.98	43159.48
508.16	43606.52
508.33	43732.91
508.50	43737.59
508.68	43908.45
508.85	44360.17
509.03	44360.17
509.20	44470.18
509.38	45090.42
509.55	44509.97
509.73	44645.72
509.90	45109.14
510.08	45055.31
510.25	44786.15
510.42	45436.82
510.60	45155.96
510.77	45574.91
510.95	45874.50
511.12	45251.92
511.30	45670.87
511.47	45954.08
511.64	45696.62
511.82	46342.61
511.99	46108.55
512.17	46131.96
512.34	46316.86
512.51	46611.77
512.69	46698.37
512.86	46719.43
513.04	47330.31
513.21	47016.68
513.38	46862.21
513.56	47547.98
513.73	47496.49
513.90	47767.99
514.08	47082.22
514.25	47882.68
514.43	47966.94
514.60	47976.30
514.77	47826.51
514.95	48364.83
515.12	48456.11
515.29	48210.35
515.47	48708.89
515.64	48369.51
515.81	48472.49
515.99	48624.63
516.16	49038.90
516.33	48687.82
516.51	48942.94
516.68	49272.96
516.85	49158.27
517.03	49162.95
517.20	49158.27
517.37	48809.53
517.54	49155.93
517.72	49244.87
517.89	49469.56
518.06	49647.44
518.24	49851.07
518.41	49785.54
518.58	49668.51
518.75	49855.75
518.93	49900.22
519.10	49794.90
519.27	50071.08
519.45	50078.10
519.62	50312.16
519.79	50440.89
519.96	50499.40
520.14	50674.94
520.31	50258.32
520.48	50869.20
520.65	50623.45
520.83	51395.82
521.00	50944.10
521.17	51100.92
521.34	51201.56
521.52	51473.06
521.69	51285.82
521.86	51510.51
522.03	51669.67
522.20	51405.19
522.38	51966.91
522.55	51711.80
522.72	51711.80
522.89	51896.70
523.07	52186.92
523.24	51985.64
523.41	52095.64
523.58	51833.50
523.75	52130.75
523.92	52367.15
524.10	52231.40
524.27	52308.63
524.44	52552.05
524.61	52643.33
524.78	52367.15
524.96	52533.32
525.13	53102.07
525.30	52786.10
525.47	53134.84
525.64	52776.74
525.81	52814.19
525.98	53095.05
526.16	52608.22
526.33	53169.95
526.50	53294.00
526.67	52879.72
526.84	53378.26
527.01	53069.31
527.18	53284.64
527.36	53394.64
527.53	53141.86
527.70	53560.82
527.87	53680.19
528.04	53364.21
528.21	53654.44
528.38	53619.33
528.55	53937.65
528.72	53614.65
528.89	53755.08
529.07	53633.38
529.24	53687.21
529.41	53982.12
529.58	53996.16
529.75	54012.54
529.92	54064.03
530.09	54204.47
530.26	54490.01
530.43	54204.47
530.60	53907.22
530.77	54286.39
530.94	54431.50
531.11	54548.53
531.28	54588.31
531.46	54478.31
531.63	54939.39
531.80	54787.26
531.97	54616.40
532.14	54997.91
532.31	54796.62
532.48	54873.86
532.65	55093.87
532.82	54646.83
532.99	54972.16
533.16	54749.81
533.33	54972.16
533.50	55234.30
533.67	55192.17
533.84	54915.99
534.01	54990.89
534.18	55061.10
534.35	55758.58
534.52	55220.26
534.69	55517.51
534.86	55838.16
535.03	55449.63
535.20	55538.57
535.37	55552.62
535.54	55538.57
535.71	55552.62
535.88	55765.60
536.05	55702.41
536.22	55667.30
536.38	55990.30
536.55	55913.06
536.72	56039.45
536.89	56107.32
537.06	55868.59
537.23	56191.58
537.40	56020.72
537.57	55751.56
537.74	55910.72
537.91	56364.78
538.08	56608.20
538.25	56193.92
538.42	56175.20
538.59	56577.77
538.75	56193.92
538.92	56392.87
539.09	56685.43
539.26	56411.59
539.43	56348.40
539.60	56360.10
539.77	56582.45
539.94	56757.99
540.11	56596.49
540.28	56809.48
540.44	56521.60
540.61	56631.60
540.78	56734.59
540.95	56844.59
541.12	56907.79
541.29	56582.45
541.46	56886.72
541.62	56940.55
541.79	56996.73
541.96	56706.50
542.13	56896.08
542.30	57134.82
542.47	57099.71
542.63	56966.30
542.80	57050.56
542.97	57413.34
543.14	57394.62
543.31	57331.42
543.48	57694.21
543.64	57738.68
543.81	57591.22
543.98	57694.21
544.15	57577.18
544.32	57392.28
544.48	57818.25
544.65	57544.41
544.82	57855.70
544.99	57560.79
545.16	57736.34
545.32	57792.51
545.49	58007.84
545.66	58176.36
545.83	57900.17
546.00	58134.23
546.16	58056.99
546.33	57729.31
546.50	57661.44
546.67	57951.66
546.83	57729.31
547.00	58152.95
547.17	58080.39
547.34	58382.32
547.50	58255.93
547.67	58277.00
547.84	58239.55
548.00	58508.71
548.17	58401.05
548.34	58651.48
548.51	58513.39
548.67	58394.03
548.84	58672.55
549.01	58328.49
549.18	58122.52
549.34	58635.10
549.51	58431.47
549.68	58693.61
549.84	58534.46
550.01	58864.47
550.18	58520.41
550.34	58588.29
550.51	58763.83
550.68	58658.51
550.84	58562.54
551.01	58803.62
551.18	59021.29
551.34	58876.18
551.51	58864.47
551.68	58815.32
551.84	58653.82
552.01	58578.93
552.18	59049.38
552.34	58749.79
552.51	58911.28
552.68	59058.74
552.84	58726.38
553.01	59292.79
553.18	59040.01
553.34	59171.08
553.51	59178.10
553.67	59112.57
553.84	59245.98
554.01	59187.47
554.17	59175.76
554.34	59215.55
554.51	59238.96
554.67	59138.32
554.84	59400.46
555.00	59178.10
555.17	59138.32
555.33	59451.95
555.50	59187.47
555.67	59096.19
555.83	59316.20
556.00	59538.55
556.16	59573.66
556.33	59676.64
556.50	59430.88
556.66	59592.38
556.83	59437.90
556.99	59910.69
557.16	59559.61
557.32	59828.77
557.49	59866.22
557.65	59781.96
557.82	59683.66
557.98	59592.38
558.15	59709.41
558.32	59952.82
558.48	59498.76
558.65	59765.58
558.81	59683.66
558.98	59819.41
559.14	59891.97
559.31	60172.83
559.47	59877.93
559.64	59969.21
559.80	59847.50
559.97	59920.05
560.13	59936.44
560.30	60055.81
560.46	59999.63
560.63	60259.43
560.79	60189.22
560.96	60205.60
561.12	60273.48
561.29	60140.07
561.45	60245.39
561.61	60259.43
561.78	60095.60
561.94	59971.55
562.11	60151.77
562.27	60114.32
562.44	60282.84
562.60	60369.44
562.77	60317.95
562.93	59943.46
563.10	59945.80
563.26	60310.92
563.42	60362.42
563.59	60446.68
563.75	60229.01
563.92	60287.52
564.08	60306.24
564.24	60631.58
564.41	60402.21
564.57	60479.44
564.74	60402.21
564.90	60280.50
565.07	60514.55
565.23	60271.14
565.39	60402.21
565.56	60465.40
565.72	60367.10
565.88	60399.86
566.05	60453.70
566.21	60467.74
566.38	60474.76
566.54	60444.33
566.70	60477.10
566.87	60722.86
567.03	60409.23
567.19	60701.79
567.36	60416.25
567.52	60437.31
567.68	60767.33
567.85	60636.26
568.01	60809.46
568.17	60416.25
568.34	60690.09
568.50	60654.98
568.66	60542.64
568.83	60647.96
568.99	60643.28
569.15	60692.43
569.32	60552.00
569.48	60774.35
569.64	60704.13
569.81	60617.53
569.97	60692.43
570.13	60713.50
570.30	60654.98
570.46	60935.85
570.62	60795.42
570.78	60779.03
570.95	60568.38
571.11	60671.37
571.27	60982.66
571.43	60898.40
571.60	61146.50
571.76	60643.28
571.92	61006.06
572.09	60741.58
572.25	60949.89
572.41	60952.23
572.57	60853.93
572.74	60940.53
572.90	60793.07
573.06	60837.54
573.22	60893.72
573.38	60914.78
573.55	61001.38
573.71	61261.18
573.87	60832.86
574.03	60760.31
574.20	60961.59
574.36	60774.35
574.52	60987.34
574.68	60914.78
574.84	61240.12
575.01	61015.43
575.17	60870.31
575.33	61052.87
575.49	60896.06
575.65	61006.06
575.82	61036.49
575.98	60924.14
576.14	61176.92
576.30	61176.92
576.46	61043.51
576.62	61055.21
576.79	61003.72
576.95	60694.77
577.11	61087.98
577.27	60982.66
577.43	61066.92
577.59	60926.49
577.75	60865.63
577.92	60837.54
578.08	61008.40
578.24	61045.85
578.40	61158.20
578.56	61158.20
578.72	60896.06
578.88	61352.46
579.04	61441.40
579.21	61186.28
579.37	61158.20
579.53	61286.93
579.69	60961.59
579.85	61069.26
580.01	61095.00
580.17	61130.11
580.33	61193.31
580.49	61427.36
580.65	61219.05
580.82	61111.39
580.98	61041.17
581.14	61221.39
581.30	61167.56
581.46	61036.49
581.62	61305.65
581.78	60992.02
581.94	61331.40
582.10	61268.20
582.26	61228.41
582.42	61104.37
582.58	61226.07
582.74	61125.43
582.90	61062.24
583.06	61235.44
583.22	61148.84
583.38	61249.48
583.54	60996.70
583.70	61155.86
583.86	61340.76
584.02	61146.50
584.18	61389.91
584.34	61322.04
584.50	61366.51
584.66	61221.39
584.82	60989.68
584.98	61354.80
585.14	61291.61
585.30	61106.71
585.46	61226.07
585.62	61310.33
585.78	61661.41
585.94	61165.22
586.10	61333.74
586.26	61329.06
586.42	61249.48
586.58	61200.33
586.74	61307.99
586.90	61125.43
587.06	61268.20
587.22	61382.89
587.38	61312.67
587.54	61513.96
587.70	61551.41
587.86	61368.85
588.02	61242.46
588.18	61553.75
588.34	61167.56
