SpectraSuite Data File
++++++++++++++++++++++++++++++++++++
Date: Fri Oct 25 10:47:10 EDT 2013
User: price-jones
Dark Spectrum Present: No
Reference Spectrum Present: No
Number of Sampled Component Spectra: 1
Spectrometers: USB2+H05261
Integration Time (usec): 100000 (USB2+H05261)
Spectra Averaged: 1 (USB2+H05261)
Boxcar Smoothing: 0 (USB2+H05261)
Correct for Electrical Dark: No (USB2+H05261)
Strobe/Lamp Enabled: No (USB2+H05261)
Correct for Detector Non-linearity: No (USB2+H05261)
Correct for Stray Light: No (USB2+H05261)
Number of Pixels in Processed Spectrum: 2048
>>>>>Begin Processed Spectral Data<<<<<
365.73	184.90
365.92	184.90
366.12	184.90
366.32	39.79
366.52	0.00
366.72	46.81
366.91	35.11
367.11	44.47
367.31	53.83
367.51	110.01
367.70	37.45
367.90	86.60
368.10	93.62
368.30	154.48
368.49	42.13
368.69	95.96
368.89	72.56
369.09	86.60
369.28	140.43
369.48	32.77
369.68	93.62
369.87	112.35
370.07	88.94
370.27	149.79
370.47	212.99
370.66	374.49
370.86	365.12
371.06	463.43
371.25	528.96
371.45	461.09
371.65	552.37
371.84	421.30
372.04	489.17
372.24	493.85
372.44	498.53
372.63	547.69
372.83	468.11
373.03	500.87
373.22	456.40
373.42	564.07
373.62	456.40
373.81	521.94
374.01	526.62
374.21	521.94
374.40	489.17
374.60	526.62
374.79	533.64
374.99	608.54
375.19	594.50
375.38	512.58
375.58	465.77
375.78	543.00
375.97	491.51
376.17	655.35
376.37	559.39
376.56	559.39
376.76	521.94
376.95	587.47
377.15	634.29
377.35	594.50
377.54	615.56
377.74	545.34
377.93	557.05
378.13	645.99
378.33	610.88
378.52	650.67
378.72	638.97
378.91	638.97
379.11	620.24
379.31	692.80
379.50	596.84
379.70	624.92
379.89	627.26
380.09	643.65
380.28	664.71
380.48	634.29
380.68	606.20
380.87	575.77
381.07	676.41
381.26	681.10
381.46	676.41
381.65	748.97
381.85	739.61
382.04	676.41
382.24	664.71
382.43	669.39
382.63	641.31
382.83	746.63
383.02	709.18
383.22	664.71
383.41	655.35
383.61	653.01
383.80	732.59
384.00	809.83
384.19	774.72
384.39	760.67
384.58	772.38
384.78	791.10
384.97	779.40
385.17	760.67
385.36	732.59
385.56	727.91
385.75	739.61
385.95	779.40
386.14	840.25
386.34	716.20
386.53	858.98
386.72	772.38
386.92	767.70
387.11	777.06
387.31	868.34
387.50	784.08
387.70	730.25
387.89	835.57
388.09	851.96
388.28	816.85
388.48	819.19
388.67	802.80
388.86	910.47
389.06	847.27
389.25	866.00
389.45	919.83
389.64	931.53
389.84	891.74
390.03	917.49
390.22	891.74
390.42	915.15
390.61	919.83
390.81	844.93
391.00	938.55
391.19	875.36
391.39	1039.20
391.58	1055.58
391.78	945.58
391.97	1008.77
392.16	961.96
392.36	957.28
392.55	957.28
392.75	1025.15
392.94	980.68
393.13	976.00
393.33	957.28
393.52	1041.54
393.71	992.39
393.91	1034.52
394.10	1020.47
394.29	971.32
394.49	1027.50
394.68	1111.75
394.88	1142.18
395.07	1083.67
395.26	1109.41
395.46	1039.20
395.65	1095.37
395.84	1217.08
396.04	1167.93
396.23	1118.78
396.42	1118.78
396.62	1181.97
396.81	1158.57
397.00	1165.59
397.19	1210.06
397.39	1179.63
397.58	1277.93
397.77	1151.54
397.97	1252.19
398.16	1301.34
398.35	1327.08
398.55	1306.02
398.74	1320.06
398.93	1373.89
399.12	1345.81
399.32	1270.91
399.51	1364.53
399.70	1427.73
399.90	1345.81
400.09	1301.34
400.28	1404.32
400.47	1432.41
400.67	1474.54
400.86	1413.68
401.05	1364.53
401.24	1549.43
401.44	1448.79
401.63	1401.98
401.82	1558.80
402.01	1458.15
402.21	1465.18
402.40	1497.94
402.59	1479.22
402.78	1612.63
402.97	1528.37
403.17	1526.03
403.36	1476.88
403.55	1565.82
403.74	1626.67
403.93	1624.33
404.13	1640.72
404.32	1586.88
404.51	1596.25
404.70	1715.61
404.89	1678.16
405.09	1647.74
405.28	1680.50
405.47	1748.38
405.66	1732.00
405.85	1722.63
406.05	1708.59
406.24	1715.61
406.43	1701.57
406.62	1781.15
406.81	1849.02
407.00	1790.51
407.20	1710.93
407.39	1739.02
407.58	1839.66
407.77	1879.45
407.96	1916.90
408.15	1923.92
408.34	1916.90
408.54	1872.43
408.73	1895.83
408.92	1919.24
409.11	2024.56
409.30	1975.41
409.49	1991.80
409.68	2080.74
409.87	1919.24
410.07	2136.91
410.26	2066.69
410.45	2064.35
410.64	2139.25
410.83	2085.42
411.02	2155.63
411.21	2221.17
411.40	2162.66
411.59	2223.51
411.78	2136.91
411.98	2176.70
412.17	2375.64
412.36	2380.32
412.55	2352.24
412.74	2370.96
412.93	2473.95
413.12	2431.82
413.31	2509.05
413.50	2448.20
413.69	2558.21
413.88	2492.67
414.07	2485.65
414.26	2525.44
414.45	2626.08
414.64	2537.14
414.83	2609.70
415.02	2567.57
415.22	2658.85
415.41	2832.05
415.60	2708.00
415.79	2752.47
415.98	2768.85
416.17	2810.98
416.36	2829.71
416.55	2754.81
416.74	2883.54
416.93	2846.09
417.12	2904.60
417.31	2946.73
417.50	2874.18
417.69	3054.40
417.88	2991.20
418.07	2949.08
418.26	2981.84
418.45	3059.08
418.64	3190.15
418.83	3047.38
419.02	3075.46
419.21	3267.39
419.39	3084.83
419.58	3225.26
419.77	3094.19
419.96	3213.56
420.15	3255.69
420.34	3204.19
420.53	3286.11
420.72	3335.26
420.91	3300.16
421.10	3330.58
421.29	3431.23
421.48	3323.56
421.67	3293.13
421.86	3365.69
422.05	3393.78
422.24	3344.63
422.43	3405.48
422.61	3281.43
422.80	3461.65
422.99	3440.59
423.18	3412.50
423.37	3463.99
423.56	3370.37
423.75	3440.59
423.94	3625.49
424.13	3129.30
424.32	3300.16
424.50	3517.83
424.69	3609.11
424.88	3712.09
425.07	3499.10
425.26	3405.48
425.45	3452.29
425.64	3492.08
425.83	3449.95
426.01	3548.25
426.20	3574.00
426.39	3625.49
426.58	3510.80
426.77	3665.28
426.96	3435.91
427.15	3536.55
427.33	3634.85
427.52	3688.68
427.71	3686.34
427.90	3634.85
428.09	3768.26
428.28	3660.60
428.46	3679.32
428.65	3705.07
428.84	3796.35
429.03	3840.82
429.22	3674.64
429.40	3845.50
429.59	3716.77
429.78	3602.08
429.97	3534.21
430.16	3662.94
430.34	3796.35
430.53	3826.78
430.72	3854.86
430.91	3845.50
431.10	3932.10
431.28	3943.80
431.47	4030.40
431.66	4053.81
431.85	3978.91
432.03	4145.09
432.22	4107.64
432.41	4028.06
432.60	4194.24
432.79	4053.81
432.97	4285.52
433.16	4107.64
433.35	4147.43
433.54	4168.49
433.72	4208.28
433.91	4238.71
434.10	4292.54
434.28	4386.16
434.47	4229.35
434.66	4327.65
434.85	4432.97
435.03	4259.78
435.22	4294.88
435.41	4512.55
435.59	4486.81
435.78	4454.04
435.97	4505.53
436.16	4397.87
436.34	4470.42
436.53	4554.68
436.72	4669.37
436.90	4592.13
437.09	4720.86
437.28	4526.60
437.46	4596.81
437.65	4638.94
437.84	4662.35
438.02	4580.43
438.21	4554.68
438.40	4723.20
438.58	4835.55
438.77	4608.51
438.96	4880.02
439.14	5034.49
439.33	4985.34
439.52	4898.74
439.70	5029.81
439.89	5137.48
440.08	4973.64
440.26	5050.88
440.45	4912.78
440.63	5167.90
440.82	5221.74
441.01	5210.03
441.19	5163.22
441.38	5345.78
441.57	5348.12
441.75	5373.87
441.94	5530.69
442.12	5514.30
442.31	5497.92
442.50	5647.71
442.68	5511.96
442.87	5565.79
443.05	5427.70
443.24	5518.98
443.43	5708.57
443.61	5596.22
443.80	5799.85
443.98	5523.66
444.17	5371.53
444.35	5783.46
444.54	5776.44
444.73	5785.80
444.91	5717.93
445.10	5696.86
445.28	5701.54
445.47	5563.45
445.65	5753.04
445.84	5584.52
446.02	5809.21
446.21	5832.62
446.39	5804.53
446.58	5717.93
446.77	5680.48
446.95	5699.20
447.14	5694.52
447.32	5963.68
447.51	5998.79
447.69	5769.42
447.88	5769.42
448.06	5860.70
448.25	5905.17
448.43	6003.47
448.62	5867.72
448.80	5863.04
448.99	6003.47
449.17	5989.43
449.36	5916.87
449.54	6181.35
449.73	6076.03
449.91	6186.04
450.10	6368.60
450.28	6396.68
450.46	6406.05
450.65	6272.64
450.83	6176.67
451.02	6136.88
451.20	6471.58
451.39	6349.87
451.57	6345.19
451.76	6361.58
451.94	6223.48
452.13	6387.32
452.31	6384.98
452.49	6300.72
452.68	6516.05
452.86	6583.93
453.05	6438.81
453.23	6448.18
453.42	6424.77
453.60	6478.60
453.78	6619.04
453.97	6558.18
454.15	6534.78
454.34	6511.37
454.52	6476.26
454.70	6649.46
454.89	6693.93
455.07	6534.78
455.26	6815.64
455.44	6871.81
455.62	6717.34
455.81	6878.83
455.99	6827.34
456.17	7030.97
456.36	6897.56
456.54	6988.84
456.73	6998.20
456.91	7033.31
457.09	7211.19
457.28	7304.81
457.46	7112.89
457.64	7169.06
457.83	7321.20
458.01	7108.21
458.19	7370.35
458.38	7178.42
458.56	7281.41
458.74	7325.88
458.93	7101.19
459.11	7414.82
459.29	7344.60
459.48	7321.20
459.66	7515.46
459.84	7377.37
460.03	7648.87
460.21	7506.10
460.39	7482.69
460.57	7576.31
460.76	7581.00
460.94	7803.35
461.12	7625.47
461.31	7662.91
461.49	7604.40
461.67	7707.38
461.85	7810.37
462.04	7721.43
462.22	8238.69
462.40	7878.24
462.59	7826.75
462.77	7709.72
462.95	7796.32
463.13	7796.32
463.32	7941.44
463.50	7955.48
463.68	8035.06
463.86	8037.40
464.05	8006.97
464.23	7941.44
464.41	8156.77
464.59	8025.70
464.78	8170.81
464.96	8166.13
465.14	8184.85
465.32	8100.59
465.50	8187.19
465.69	8210.60
465.87	8187.19
466.05	8145.06
466.23	8243.37
466.41	8290.18
466.60	8465.72
466.78	8175.49
466.96	8285.50
467.14	8238.69
467.32	8463.38
467.51	8475.08
467.69	8102.93
467.87	8456.36
468.05	8535.93
468.23	8290.18
468.41	8388.48
468.60	8524.23
468.78	8662.32
468.96	8528.91
469.14	8716.16
469.32	8648.28
469.50	8425.93
469.69	8580.40
469.87	8847.22
470.05	8858.93
470.23	8805.10
470.41	8748.92
470.59	8856.59
470.77	8847.22
470.95	9027.45
471.14	8856.59
471.32	8936.17
471.50	9156.18
471.68	8933.82
471.86	9170.22
472.04	9137.45
472.22	9348.10
472.40	9195.96
472.58	9233.41
472.77	9308.31
472.95	9540.02
473.13	9682.80
473.31	9451.08
473.49	9413.63
473.67	9500.23
473.85	9493.21
474.03	9841.95
474.21	9795.14
474.39	9717.90
474.57	9830.25
474.75	9893.44
474.93	10106.43
475.12	9994.09
475.30	10118.14
475.48	10136.86
475.66	10188.35
475.84	9898.13
476.02	10167.29
476.20	10291.34
476.38	10611.99
476.56	10682.20
476.74	10534.75
476.92	10490.28
477.10	10492.62
477.28	10534.75
477.46	10759.44
477.64	10771.15
477.82	10939.66
478.00	11169.04
478.18	11187.76
478.36	11267.34
478.54	11438.20
478.72	11527.14
478.90	11688.64
479.08	11583.31
479.26	11873.54
479.44	11618.42
479.62	11726.08
479.80	11693.32
479.98	12091.21
480.16	12329.94
480.34	12161.42
480.52	12271.43
480.70	12379.09
480.88	11901.62
481.06	12500.80
481.24	12442.29
481.41	12556.97
481.59	12716.13
481.77	12760.60
481.95	12872.95
482.13	12901.03
482.31	13137.43
482.49	13327.01
482.67	13467.44
482.85	13270.84
483.03	13336.37
483.21	13703.84
483.39	14015.13
483.57	13916.83
483.74	13661.71
483.92	14153.22
484.10	14085.34
484.28	14225.78
484.46	14141.52
484.64	14740.69
484.82	14523.02
485.00	14696.22
485.18	14839.00
485.35	15192.42
485.53	14654.09
485.71	14885.81
485.89	15187.74
486.07	15356.25
486.25	15147.95
486.43	15297.74
486.61	15552.86
486.78	15494.35
486.96	15845.43
487.14	15976.50
487.32	16081.82
487.50	16388.43
487.68	16395.45
487.85	16212.89
488.03	16753.55
488.21	16952.50
488.39	17006.33
488.57	16872.92
488.75	17111.66
488.92	17170.17
489.10	17399.54
489.28	17645.30
489.46	17682.75
489.64	17619.55
489.81	18005.74
489.99	18094.68
490.17	18146.17
490.35	18462.15
490.53	18349.80
490.70	18546.40
490.88	18293.63
491.06	18909.19
491.24	18710.24
491.41	18775.78
491.59	19234.52
491.77	18869.40
491.95	19073.03
492.13	19433.47
492.30	19618.37
492.48	19468.58
492.66	19770.51
492.84	19400.70
493.01	20238.61
493.19	19901.58
493.37	20327.55
493.54	20210.53
493.72	20369.68
493.90	20493.73
494.08	20985.24
494.25	20685.65
494.43	20875.24
494.61	20985.24
494.79	21167.80
494.96	21010.99
495.14	21266.11
495.32	21624.21
495.49	21586.76
495.67	21668.68
495.85	21884.01
496.02	21841.88
496.20	22097.00
496.38	21860.60
496.55	22396.59
496.73	22600.21
496.91	22590.85
497.09	22508.93
497.26	22735.96
497.44	22707.88
497.62	22955.97
497.79	23054.28
497.97	22845.97
498.14	23250.88
498.32	23559.83
498.50	23227.48
498.67	23358.55
498.85	23599.62
499.03	23843.04
499.20	24074.75
499.38	23669.84
499.56	24030.28
499.73	24229.23
499.91	23939.00
500.08	24147.31
500.26	24105.18
500.44	24362.64
500.61	24477.32
500.79	24507.75
500.97	24477.32
501.14	25017.99
501.32	25057.78
501.49	24694.99
501.67	24893.94
501.84	24924.36
502.02	25336.30
502.20	25240.34
502.37	25727.17
502.55	25275.45
502.72	25408.86
502.90	25432.26
503.07	25717.81
503.25	25301.19
503.43	25575.03
503.60	26054.84
503.78	25523.54
503.95	25926.11
504.13	26307.62
504.30	26183.57
504.48	26160.17
504.65	26714.87
504.83	26419.97
505.01	26476.14
505.18	26487.84
505.36	26974.67
505.53	26916.16
505.71	26981.70
505.88	27234.47
506.06	27026.17
506.23	27445.12
506.41	27023.83
506.58	27255.54
506.76	27707.26
506.93	27576.19
507.11	27410.01
507.28	27611.30
507.46	27520.02
507.63	27772.80
507.81	27805.56
507.98	27665.13
508.16	27796.20
508.33	28208.14
508.50	27957.70
508.68	28032.60
508.85	28673.90
509.03	28261.97
509.20	28540.49
509.38	28760.50
509.55	28421.13
509.73	28992.22
509.90	28610.71
510.08	28835.40
510.25	28802.63
510.42	29113.92
510.60	29130.31
510.77	29497.77
510.95	29687.36
511.12	29237.97
511.30	29479.05
511.47	29729.48
511.64	30010.35
511.82	29645.23
511.99	29750.55
512.17	29741.19
512.34	29582.03
512.51	30071.20
512.69	30115.67
512.86	30108.65
513.04	30445.69
513.21	30433.99
513.38	30244.40
513.56	30569.74
513.73	30153.12
513.90	30705.49
514.08	30483.14
514.25	31220.41
514.43	30403.56
514.60	30628.25
514.77	30721.87
514.95	31250.83
515.12	31335.09
515.29	30539.31
515.47	31484.89
515.64	31501.27
515.81	31248.49
515.99	31370.20
516.16	31442.76
516.33	31363.18
516.51	31702.56
516.68	31143.17
516.85	31150.19
517.03	31379.56
517.20	31662.77
517.37	31920.23
517.54	32184.71
517.72	31807.88
517.89	31662.77
518.06	31873.42
518.24	31793.84
518.41	31810.22
518.58	32123.85
518.75	32116.83
518.93	32512.38
519.10	32360.25
519.27	32842.40
519.45	32369.61
519.62	32959.42
519.79	32528.77
519.96	32910.27
520.14	33146.67
520.31	33207.52
520.48	33015.60
520.65	33296.46
520.83	33411.15
521.00	32847.08
521.17	33453.28
521.34	33460.30
521.52	33663.93
521.69	33607.75
521.86	33865.21
522.03	33663.93
522.20	34015.01
522.38	33869.89
522.55	34141.39
522.72	34005.64
522.89	33940.11
523.07	34007.98
523.24	33563.28
523.41	33912.02
523.58	33865.21
523.75	34572.05
523.92	34251.40
524.10	34675.04
524.27	34480.77
524.44	34497.16
524.61	34888.03
524.78	34726.53
524.96	35241.45
525.13	34761.64
525.30	35138.46
525.47	35171.23
525.64	34916.11
525.81	35360.81
525.98	35468.48
526.16	35086.97
526.33	35033.14
526.50	35407.62
526.67	35105.70
526.84	35077.61
527.01	35395.92
527.18	35433.37
527.36	35566.78
527.53	35857.01
527.70	35887.43
527.87	35784.45
528.04	35695.51
528.21	35777.43
528.38	35751.68
528.55	36449.16
528.72	35742.32
528.89	36362.56
529.07	36467.89
529.24	36130.85
529.41	36404.69
529.58	36266.60
529.75	36079.36
529.92	36165.96
530.09	36407.03
530.26	36229.15
530.43	36460.87
530.60	36601.30
530.77	36343.84
530.94	36928.97
531.11	36821.31
531.28	36730.03
531.46	36814.29
531.63	36973.44
531.80	36919.61
531.97	37013.23
532.14	37146.64
532.31	36706.62
532.48	37027.28
532.65	37050.68
532.82	36940.68
532.99	37268.35
533.16	36928.97
533.33	37287.07
533.50	37460.27
533.67	37425.17
533.84	37244.94
534.01	37411.12
534.18	37289.42
534.35	38258.40
534.52	37811.35
534.69	37502.40
534.86	38036.05
535.03	37741.14
535.20	38050.09
535.37	38183.50
535.54	38333.29
535.71	38204.56
535.88	37851.14
536.05	37813.70
536.22	38422.23
536.38	38129.67
536.55	38045.41
536.72	38356.70
536.89	38223.29
537.06	38494.79
537.23	38548.62
537.40	38295.85
537.57	38672.67
537.74	38738.21
537.91	38548.62
538.08	38609.48
538.25	37956.47
538.42	39002.69
538.59	38904.38
538.75	38396.49
538.92	38925.45
539.09	39110.35
539.26	38808.42
539.43	39257.81
539.60	38838.85
539.77	38576.71
539.94	39056.52
540.11	38602.46
540.28	39318.66
540.44	39393.56
540.61	39091.63
540.78	39100.99
540.95	39407.60
541.12	39330.36
541.29	39267.17
541.46	39229.72
541.62	39428.66
541.79	39632.29
541.96	39229.72
542.13	39590.16
542.30	39360.79
542.47	39856.98
542.63	39835.92
542.80	39922.52
542.97	40231.47
543.14	40350.84
543.31	40069.97
543.48	40643.40
543.64	40631.70
543.81	40432.75
543.98	40662.13
544.15	40184.66
544.32	40465.52
544.48	40800.22
544.65	40299.34
544.82	40322.75
544.99	40294.66
545.16	40804.90
545.32	40556.80
545.49	40968.74
545.66	40781.49
545.83	40692.55
546.00	41366.63
546.16	40807.24
546.33	40353.18
546.50	40458.50
546.67	40781.49
546.83	40533.40
547.00	40694.89
547.17	40886.82
547.34	41132.57
547.50	41036.61
547.67	41310.46
547.84	41202.79
548.00	41387.69
548.17	41481.31
548.34	41214.49
548.51	41787.92
548.67	41420.46
548.84	41511.74
549.01	41212.15
549.18	41333.86
549.34	41654.51
549.51	41893.25
549.68	40971.08
549.84	41708.35
550.01	41560.89
550.18	41357.27
550.34	41385.35
550.51	41603.02
550.68	41305.77
550.84	41488.34
551.01	41708.35
551.18	41949.42
551.34	41422.80
551.51	41867.50
551.68	41965.81
551.84	41706.01
552.01	41507.06
552.18	41869.84
552.34	41591.32
552.51	42307.52
552.68	42230.29
552.84	42384.76
553.01	42351.99
553.18	42450.30
553.34	42223.26
553.51	41972.83
553.67	42438.59
553.84	42319.23
554.01	42244.33
554.17	42630.52
554.34	42726.48
554.51	42387.10
554.67	42766.27
554.84	42553.28
555.00	42127.30
555.17	42113.26
555.33	42787.33
555.50	42686.69
555.67	42710.10
555.83	42777.97
556.00	42635.20
556.16	43002.66
556.33	43206.29
556.50	42539.24
556.66	42773.29
556.83	42082.83
556.99	42997.98
557.16	42995.64
557.32	42815.42
557.49	42674.99
557.65	42665.63
557.82	42974.58
557.98	42567.32
558.15	42752.23
558.32	43667.37
558.48	43260.12
558.65	43086.92
558.81	42579.03
558.98	43384.17
559.14	42904.36
559.31	42880.95
559.47	42920.74
559.64	43189.91
559.80	43477.79
559.97	43339.70
560.13	43438.00
560.30	42925.42
560.46	43012.02
560.63	43234.38
560.79	43363.11
560.96	43702.48
561.12	43199.27
561.29	43306.93
561.45	43615.88
561.61	43484.81
561.78	43407.58
561.94	43220.33
562.11	43292.89
562.27	43531.62
562.44	43428.64
562.60	43973.98
562.77	43576.09
562.93	43079.90
563.10	43386.51
563.26	42904.36
563.42	43601.84
563.59	43430.98
563.75	43386.51
563.92	43482.47
564.08	43707.16
564.24	43686.10
564.41	44013.77
564.57	43515.24
564.74	43833.55
564.90	43704.82
565.07	43840.57
565.23	43182.88
565.39	43646.31
565.56	43723.55
565.72	43569.07
565.88	43438.00
566.05	43852.28
566.21	43833.55
566.38	43672.06
566.54	43552.69
566.70	44091.01
566.87	43999.73
567.03	43744.61
567.19	44390.60
567.36	44175.27
567.52	44069.95
567.68	43908.45
567.85	43819.51
568.01	43833.55
568.17	43882.70
568.34	44079.31
568.50	44467.84
568.66	44020.80
568.83	44203.36
568.99	44076.97
569.15	44037.18
569.32	44353.15
569.48	43871.00
569.64	44196.34
569.81	44259.53
569.97	44004.41
570.13	43533.96
570.30	43833.55
570.46	43917.81
570.62	43810.15
570.78	43936.54
570.95	44081.65
571.11	43854.62
571.27	44107.40
571.43	44444.43
571.60	44254.85
571.76	43732.91
571.92	44229.10
572.09	43971.64
572.25	43981.01
572.41	43702.48
572.57	44458.48
572.74	44924.24
572.90	43969.30
573.06	44201.02
573.22	44311.02
573.38	43732.91
573.55	43367.79
573.71	44177.61
573.87	43768.02
574.03	44116.76
574.20	44435.07
574.36	44091.01
574.52	44453.79
574.68	44591.89
574.84	44147.18
575.01	44348.47
575.17	44472.52
575.33	43833.55
575.49	44229.10
575.65	44362.51
575.82	44493.58
575.98	44603.59
576.14	44446.77
576.30	43957.60
576.46	44025.48
576.62	44236.12
576.79	44521.67
576.95	43854.62
577.11	44320.38
577.27	44332.09
577.43	44222.08
577.59	44294.64
577.75	44339.11
577.92	44212.72
578.08	44224.42
578.24	44041.86
578.40	44205.70
578.56	44458.48
578.72	44343.79
578.88	44467.84
579.04	44568.48
579.21	43913.13
579.37	44500.61
579.53	44076.97
579.69	44121.44
579.85	44416.35
580.01	44488.90
580.17	44697.21
580.33	44512.31
580.49	44851.69
580.65	44643.38
580.82	44320.38
580.98	44095.69
581.14	44201.02
581.30	44650.40
581.46	44521.67
581.62	44519.33
581.78	44847.00
581.94	44617.63
582.10	44680.83
582.26	44320.38
582.42	44842.32
582.58	44830.62
582.74	44025.48
582.90	44292.30
583.06	44676.15
583.22	44079.31
583.38	45078.72
583.54	44744.02
583.70	44404.64
583.86	44271.23
584.02	43793.76
584.18	44163.57
584.34	44701.89
584.50	44355.49
584.66	44528.69
584.82	44346.13
584.98	44830.62
585.14	44765.09
585.30	44591.89
585.46	44140.16
585.62	44357.83
585.78	44495.92
585.94	44247.83
586.10	44484.22
586.26	44463.16
586.42	44259.53
586.58	44823.60
586.74	44519.33
586.90	44369.54
587.06	44357.83
587.22	44865.73
587.38	44467.84
587.54	44835.30
587.70	44769.77
587.86	44598.91
588.02	44566.14
588.18	44439.75
588.34	44615.29
588.49	44460.82
588.65	44472.52
588.81	44334.43
588.97	44554.44
589.13	44025.48
589.29	44598.91
589.45	44409.32
589.61	44406.98
589.77	44961.69
589.93	44884.45
590.08	44884.45
590.24	45184.04
