SpectraSuite Data File
++++++++++++++++++++++++++++++++++++
Date: Fri Oct 25 10:48:09 EDT 2013
User: price-jones
Dark Spectrum Present: No
Reference Spectrum Present: No
Number of Sampled Component Spectra: 1
Spectrometers: USB2+H05261
Integration Time (usec): 100000 (USB2+H05261)
Spectra Averaged: 1 (USB2+H05261)
Boxcar Smoothing: 0 (USB2+H05261)
Correct for Electrical Dark: No (USB2+H05261)
Strobe/Lamp Enabled: No (USB2+H05261)
Correct for Detector Non-linearity: No (USB2+H05261)
Correct for Stray Light: No (USB2+H05261)
Number of Pixels in Processed Spectrum: 2048
>>>>>Begin Processed Spectral Data<<<<<
365.73	168.52
365.92	168.52
366.12	168.52
366.32	102.98
366.52	7.02
366.72	77.24
366.91	53.83
367.11	117.03
367.31	102.98
367.51	79.58
367.70	58.51
367.90	105.32
368.10	131.07
368.30	32.77
368.49	37.45
368.69	100.64
368.89	44.47
369.09	35.11
369.28	25.75
369.48	49.15
369.68	77.24
369.87	35.11
370.07	135.75
370.27	159.16
370.47	173.20
370.66	409.59
370.86	397.89
371.06	503.22
371.25	507.90
371.45	442.36
371.65	479.81
371.84	409.59
372.04	454.06
372.24	442.36
372.44	465.77
372.63	507.90
372.83	559.39
373.03	491.51
373.22	477.47
373.42	491.51
373.62	514.92
373.81	423.64
374.01	547.69
374.21	592.16
374.40	540.66
374.60	557.05
374.79	482.15
374.99	479.81
375.19	554.71
375.38	491.51
375.58	594.50
375.78	561.73
375.97	477.47
376.17	655.35
376.37	599.18
376.56	564.07
376.76	552.37
376.95	535.98
377.15	617.90
377.35	615.56
377.54	601.52
377.74	571.09
377.93	610.88
378.13	585.13
378.33	568.75
378.52	540.66
378.72	589.82
378.91	648.33
379.11	543.00
379.31	566.41
379.50	475.13
379.70	608.54
379.89	634.29
380.09	627.26
380.28	594.50
380.48	718.54
380.68	725.57
380.87	629.60
381.07	655.35
381.26	585.13
381.46	613.22
381.65	655.35
381.85	641.31
382.04	608.54
382.24	697.48
382.43	748.97
382.63	601.52
382.83	676.41
383.02	767.70
383.22	734.93
383.41	723.23
383.61	739.61
383.80	809.83
384.00	716.20
384.19	765.36
384.39	671.73
384.58	784.08
384.78	763.01
384.97	837.91
385.17	758.33
385.36	734.93
385.56	779.40
385.75	741.95
385.95	793.44
386.14	786.42
386.34	781.74
386.53	770.04
386.72	744.29
386.92	805.14
387.11	758.33
387.31	765.36
387.50	851.96
387.70	784.08
387.89	823.87
388.09	802.80
388.28	744.29
388.48	863.66
388.67	812.17
388.86	840.25
389.06	905.79
389.25	915.15
389.45	840.25
389.64	847.27
389.84	842.59
390.03	919.83
390.22	826.21
390.42	943.24
390.61	922.17
390.81	842.59
391.00	1062.60
391.19	912.81
391.39	968.98
391.58	997.07
391.78	976.00
391.97	992.39
392.16	947.92
392.36	1008.77
392.55	931.53
392.75	905.79
392.94	961.96
393.13	985.37
393.33	943.24
393.52	954.94
393.71	1011.11
393.91	952.60
394.10	954.94
394.29	999.41
394.49	992.39
394.68	992.39
394.88	1015.79
395.07	1158.57
395.26	952.60
395.46	1142.18
395.65	1160.91
395.84	1118.78
396.04	1158.57
396.23	1048.56
396.42	1121.12
396.62	1130.48
396.81	1083.67
397.00	1121.12
397.19	1149.20
397.39	1207.72
397.58	1153.88
397.77	1212.40
397.97	1238.14
398.16	1289.64
398.35	1294.32
398.55	1238.14
398.74	1371.55
398.93	1345.81
399.12	1329.42
399.32	1284.95
399.51	1275.59
399.70	1397.30
399.90	1376.24
400.09	1394.96
400.28	1369.21
400.47	1334.11
400.67	1547.09
400.86	1432.41
401.05	1409.00
401.24	1511.99
401.44	1439.43
401.63	1540.07
401.82	1488.58
402.01	1455.81
402.21	1486.24
402.40	1558.80
402.59	1397.30
402.78	1427.73
402.97	1540.07
403.17	1605.61
403.36	1640.72
403.55	1572.84
403.74	1502.62
403.93	1542.41
404.13	1640.72
404.32	1687.53
404.51	1577.52
404.70	1713.27
404.89	1710.93
405.09	1643.06
405.28	1650.08
405.47	1678.16
405.66	1710.93
405.85	1734.34
406.05	1722.63
406.24	1703.91
406.43	1739.02
406.62	1797.53
406.81	1813.92
407.00	1771.79
407.20	1792.85
407.39	1888.81
407.58	1813.92
407.77	1905.20
407.96	1849.02
408.15	1966.05
408.34	1877.11
408.54	1961.37
408.73	1933.28
408.92	1987.11
409.11	1982.43
409.30	1991.80
409.49	2113.50
409.68	1914.56
409.87	2045.63
410.07	2012.86
410.26	2078.40
410.45	2139.25
410.64	2087.76
410.83	2111.16
411.02	2209.47
411.21	2272.66
411.40	2218.83
411.59	2153.29
411.78	2218.83
411.98	2305.43
412.17	2324.15
412.36	2167.34
412.55	2300.75
412.74	2441.18
412.93	2326.49
413.12	2317.13
413.31	2495.01
413.50	2349.90
413.69	2448.20
413.88	2438.84
414.07	2654.17
414.26	2595.65
414.45	2574.59
414.64	2642.46
414.83	2633.10
415.02	2729.06
415.22	2677.57
415.41	2682.25
415.60	2806.30
415.79	2686.94
415.98	2855.45
416.17	2705.66
416.36	2832.05
416.55	2853.11
416.74	2965.46
416.93	2722.04
417.12	2953.76
417.31	2991.20
417.50	2960.78
417.69	2979.50
417.88	3023.97
418.07	2881.20
418.26	2960.78
418.45	3075.46
418.64	3204.19
418.83	3119.93
419.02	3059.08
419.21	3183.13
419.39	3152.70
419.58	3026.31
419.77	3021.63
419.96	3227.60
420.15	3290.79
420.34	3197.17
420.53	3199.51
420.72	3372.71
420.91	3304.84
421.10	3344.63
421.29	3386.76
421.48	3253.34
421.67	3346.97
421.86	3208.87
422.05	3283.77
422.24	3372.71
422.43	3370.37
422.61	3346.97
422.80	3445.27
422.99	3456.97
423.18	3358.67
423.37	3456.97
423.56	3485.06
423.75	3482.72
423.94	3386.76
424.13	3241.64
424.32	3506.12
424.50	3501.44
424.69	3618.47
424.88	3510.80
425.07	3412.50
425.26	3405.48
425.45	3529.53
425.64	3419.52
425.83	3445.27
426.01	3513.14
426.20	3520.17
426.39	3365.69
426.58	3475.70
426.77	3550.59
426.96	3576.34
427.15	3674.64
427.33	3644.21
427.52	3599.74
427.71	3581.02
427.90	3709.75
428.09	3737.84
428.28	3550.59
428.46	3728.47
428.65	3684.00
428.84	3838.48
429.03	3939.12
429.22	3749.54
429.40	3632.51
429.59	3772.94
429.78	3606.77
429.97	3485.06
430.16	3634.85
430.34	3730.81
430.53	3758.90
430.72	3840.82
430.91	3824.44
431.10	3885.29
431.28	3932.10
431.47	3995.29
431.66	4030.40
431.85	3859.54
432.03	4262.12
432.22	4126.36
432.41	3915.72
432.60	4011.68
432.79	4058.49
432.97	4306.59
433.16	4227.01
433.35	4079.55
433.54	4147.43
433.72	4032.74
433.91	4117.00
434.10	4264.46
434.28	4217.65
434.47	4236.37
434.66	4278.50
434.85	4428.29
435.03	4489.15
435.22	4362.76
435.41	4603.83
435.59	4428.29
435.78	4404.89
435.97	4416.59
436.16	4580.43
436.34	4482.13
436.53	4582.77
436.72	4716.18
436.90	4550.00
437.09	4622.56
437.28	4519.57
437.46	4629.58
437.65	4589.79
437.84	4564.04
438.02	4561.70
438.21	4709.16
438.40	4592.13
438.58	4795.76
438.77	4648.30
438.96	4741.93
439.14	5004.07
439.33	5083.64
439.52	5160.88
439.70	4978.32
439.89	5100.03
440.08	5032.15
440.26	5137.48
440.45	4961.94
440.63	5191.31
440.82	5420.68
441.01	5305.99
441.19	5240.46
441.38	5277.91
441.57	5291.95
441.75	5380.89
441.94	5495.58
442.12	5378.55
442.31	5497.92
442.50	5542.39
442.68	5439.40
442.87	5603.24
443.05	5500.26
443.24	5706.23
443.43	5657.07
443.61	5593.88
443.80	5837.30
443.98	5626.65
444.17	5451.11
444.35	5841.98
444.54	5841.98
444.73	5713.25
444.91	5568.13
445.10	5593.88
445.28	5849.00
445.47	5767.08
445.65	5755.38
445.84	5809.21
446.02	5879.43
446.21	5654.73
446.39	5729.63
446.58	5942.62
446.77	5844.32
446.95	5727.29
447.14	5825.59
447.32	5884.11
447.51	5841.98
447.69	5895.81
447.88	5771.76
448.06	5860.70
448.25	5879.43
448.43	6090.07
448.62	5809.21
448.80	5956.66
448.99	5975.39
449.17	6230.51
449.36	6057.31
449.54	6057.31
449.73	6129.86
449.91	6277.32
450.10	6265.61
450.28	6427.11
450.46	6218.80
450.65	6331.15
450.83	6382.64
451.02	6305.40
451.20	6326.47
451.39	6450.52
451.57	6380.30
451.76	6270.30
451.94	6392.00
452.13	6466.90
452.31	6345.19
452.49	6487.96
452.68	6363.92
452.86	6401.37
453.05	6375.62
453.23	6406.05
453.42	6452.86
453.60	6392.00
453.78	6319.45
453.97	6518.39
454.15	6485.62
454.34	6604.99
454.52	6548.82
454.70	6597.97
454.89	6590.95
455.07	6698.61
455.26	6761.81
455.44	6705.63
455.62	6810.96
455.81	6867.13
455.99	6967.77
456.17	6988.84
456.36	7000.54
456.54	6932.67
456.73	7035.65
456.91	7389.07
457.09	7124.59
457.28	7363.33
457.46	6920.96
457.64	7215.87
457.83	7145.66
458.01	7187.79
458.19	7262.68
458.38	7112.89
458.56	7421.84
458.74	7302.47
458.93	7339.92
459.11	7183.10
459.29	7508.44
459.48	7363.33
459.66	7412.48
459.84	7393.75
460.03	7351.62
460.21	7641.85
460.39	7456.95
460.57	7655.89
460.76	7522.48
460.94	7492.05
461.12	7590.36
461.31	7557.59
461.49	7564.61
461.67	7604.40
461.85	7927.39
462.04	7705.04
462.22	8339.33
462.40	7864.20
462.59	7915.69
462.77	7864.20
462.95	7786.96
463.13	7831.43
463.32	7833.77
463.50	7808.03
463.68	8058.46
463.86	7962.50
464.05	7801.01
464.23	8004.63
464.41	8023.36
464.59	8011.65
464.78	8138.04
464.96	8028.04
465.14	8175.49
465.32	8056.12
465.50	8013.99
465.69	8379.12
465.87	8184.85
466.05	7967.18
466.23	8091.23
466.41	8196.56
466.60	8479.76
466.78	7992.93
466.96	8292.52
467.14	8393.16
467.32	8353.37
467.51	8320.60
467.69	8236.35
467.87	8404.86
468.05	8470.40
468.23	8360.39
468.41	8599.13
468.60	8538.27
468.78	8629.56
468.96	8512.53
469.14	8762.97
469.32	8547.64
469.50	8561.68
469.69	8650.62
469.87	8767.65
470.05	8706.79
470.23	8887.01
470.41	8952.55
470.59	8786.37
470.77	8676.37
470.95	8917.44
471.14	8964.25
471.32	8922.12
471.50	9085.96
471.68	9137.45
471.86	9193.62
472.04	9158.52
472.22	9479.17
472.40	9242.78
472.58	8975.95
472.77	9458.10
472.95	9411.29
473.13	9579.81
473.31	9291.93
473.49	9504.92
473.67	9434.70
473.85	9460.45
474.03	9582.15
474.21	9839.61
474.39	9823.23
474.57	9827.91
474.75	9865.36
474.93	9975.36
475.12	9771.74
475.30	10120.48
475.48	9893.44
475.66	10289.00
475.84	10076.01
476.02	10094.73
476.20	9984.73
476.38	10352.19
476.56	10541.77
476.74	10640.08
476.92	10459.85
477.10	10499.64
477.28	10703.27
477.46	10700.93
477.64	10827.32
477.82	10988.82
478.00	11171.38
478.18	11190.10
478.36	11250.96
478.54	11386.71
478.72	11260.32
478.90	11461.60
479.08	11913.33
479.26	11836.09
479.44	11683.95
479.62	11913.33
479.80	11885.24
479.98	11826.73
480.16	12131.00
480.34	12152.06
480.52	12184.83
480.70	12245.68
480.88	12205.89
481.06	12596.76
481.24	12416.54
481.41	12802.73
481.59	12699.75
481.77	12681.02
481.95	12964.23
482.13	12985.29
482.31	13104.66
482.49	13516.59
482.67	13282.54
482.85	13291.90
483.03	13523.62
483.21	13722.56
483.39	13767.03
483.57	13788.10
483.74	14012.79
483.92	14176.62
484.10	13888.74
484.28	14050.24
484.46	14396.64
484.64	14649.41
484.82	14394.29
485.00	14623.67
485.18	14913.89
485.35	15194.76
485.53	14764.10
485.71	14766.44
485.89	15257.95
486.07	15176.03
486.25	14998.15
486.43	15218.16
486.61	15377.32
486.78	15620.74
486.96	15609.03
487.14	15929.69
487.32	15826.70
487.50	16294.81
487.68	16430.56
487.85	16746.53
488.03	16599.08
488.21	16599.08
488.39	16865.90
488.57	16828.45
488.75	16798.02
488.92	17401.88
489.10	17518.91
489.28	17291.88
489.46	17649.98
489.64	17851.27
489.81	18223.41
489.99	18036.17
490.17	18267.88
490.35	18647.05
490.53	18071.28
490.70	18445.76
490.88	18630.66
491.06	18740.67
491.24	18813.23
491.41	18853.02
491.59	18586.19
491.77	19117.50
491.95	19173.67
492.13	19524.75
492.30	19421.77
492.48	19557.52
492.66	19901.58
492.84	19791.57
493.01	19976.47
493.19	19768.16
493.37	20191.80
493.54	20063.07
493.72	20526.50
493.90	20489.05
494.08	20842.47
494.25	21018.01
494.43	20865.88
494.61	21233.34
494.79	20805.02
494.96	21170.15
495.14	21441.65
495.32	21427.60
495.49	21422.92
495.67	21713.15
495.85	21626.55
496.02	21720.17
496.20	21930.82
496.38	22277.22
496.55	22302.96
496.73	22920.87
496.91	22405.95
497.09	22288.92
497.26	22782.77
497.44	22986.40
497.62	22752.35
497.79	23559.83
497.97	23103.43
498.14	22958.31
498.32	23463.87
498.50	23075.34
498.67	23885.17
498.85	23587.92
499.03	23737.71
499.20	23761.12
499.38	23826.65
499.56	24065.39
499.73	24109.86
499.91	24180.07
500.08	24374.34
500.26	24297.10
500.44	24437.53
500.61	24559.24
500.79	24278.38
500.97	24926.71
501.14	24814.36
501.32	25085.86
501.49	24872.87
501.67	24772.23
501.84	25366.73
502.02	25507.16
502.20	25198.21
502.37	25497.80
502.55	25507.16
502.72	25633.55
502.90	25612.48
503.07	25394.81
503.25	25568.01
503.43	25502.48
503.60	26134.42
503.78	26246.77
503.95	25991.65
504.13	26050.16
504.30	26050.16
504.48	25954.20
504.65	26204.64
504.83	26410.60
505.01	26749.98
505.18	26822.54
505.36	27119.79
505.53	26707.85
505.71	27215.75
505.88	27515.34
506.06	26672.74
506.23	27103.40
506.41	26902.12
506.58	27510.66
506.76	27035.53
506.93	27377.25
507.11	27328.10
507.28	27452.14
507.46	27353.84
507.63	27367.88
507.81	27843.01
507.98	27931.95
508.16	28058.34
508.33	27765.78
508.50	28261.97
508.68	28032.60
508.85	28332.18
509.03	28336.87
509.20	28348.57
509.38	28669.22
509.55	28526.45
509.73	28744.12
509.90	28975.83
510.08	28636.45
510.25	29010.94
510.42	29097.54
510.60	29308.19
510.77	29179.46
510.95	29425.22
511.12	29184.14
511.30	29415.85
511.47	29919.07
511.64	29757.57
511.82	29993.97
511.99	29237.97
512.17	30176.53
512.34	29647.57
512.51	29773.95
512.69	30230.36
512.86	29869.92
513.04	30448.03
513.21	30522.93
513.38	30632.93
513.56	30160.14
513.73	30352.07
513.90	30532.29
514.08	30808.47
514.25	30897.41
514.43	30363.77
514.60	30794.43
514.77	30810.81
514.95	31072.95
515.12	31007.42
515.29	30778.04
515.47	31234.45
515.64	31501.27
515.81	31000.40
515.99	31435.74
516.16	31342.11
516.33	31459.14
516.51	31405.31
516.68	31241.47
516.85	31417.01
517.03	31374.88
517.20	31606.59
517.37	31564.46
517.54	31913.20
517.72	32077.04
517.89	31585.53
518.06	32011.51
518.24	31716.60
518.41	31765.75
518.58	32149.60
518.75	31969.38
518.93	32774.52
519.10	32620.05
519.27	32692.60
519.45	32596.64
519.62	32582.60
519.79	32844.74
519.96	32758.14
520.14	33076.45
520.31	32849.42
520.48	33123.26
520.65	33280.08
520.83	33338.59
521.00	33640.52
521.17	33055.39
521.34	33549.24
521.52	33675.63
521.69	33720.10
521.86	33696.69
522.03	33881.60
522.20	33755.21
522.38	33855.85
522.55	34670.36
522.72	33926.07
522.89	33855.85
523.07	34164.80
523.24	33986.92
523.41	34106.29
523.58	33900.32
523.75	34543.97
523.92	34408.22
524.10	34747.59
524.27	34824.83
524.44	34389.49
524.61	34653.97
524.78	35082.29
524.96	34941.86
525.13	35323.36
525.30	35194.64
525.47	35526.99
525.64	34878.66
525.81	35632.32
525.98	35070.59
526.16	35168.89
526.33	35496.56
526.50	35325.71
526.67	34909.09
526.84	35019.10
527.01	35309.32
527.18	35534.01
527.36	35576.14
527.53	35480.18
527.70	35435.71
527.87	35983.40
528.04	35952.97
528.21	36112.13
528.38	35864.03
528.55	36222.13
528.72	36011.48
528.89	36224.47
529.07	36397.67
529.24	35990.42
529.41	36259.58
529.58	36219.79
529.75	36280.64
529.92	36231.49
530.09	36479.59
530.26	36481.93
530.43	36430.44
530.60	36205.75
530.77	36671.51
530.94	36774.50
531.11	36664.49
531.28	36945.36
531.46	37074.09
531.63	36973.44
531.80	37408.78
531.97	36884.50
532.14	36928.97
532.31	37041.32
532.48	36858.76
532.65	37624.11
532.82	37287.07
532.99	37308.14
533.16	36943.02
533.33	37509.43
533.50	37809.01
533.67	37579.64
533.84	37151.32
534.01	37371.33
534.18	37495.38
534.35	38101.58
534.52	37493.04
534.69	37778.59
534.86	37970.51
535.03	37801.99
535.20	37893.27
535.37	38029.02
535.54	38291.16
535.71	37970.51
535.88	37720.07
536.05	38178.82
536.22	38302.87
536.38	38377.76
536.55	38352.02
536.72	38244.35
536.89	38352.02
537.06	38459.68
537.23	38450.32
537.40	38157.75
537.57	38003.28
537.74	38611.82
537.91	38864.60
538.08	38733.53
538.25	38185.84
538.42	38822.47
538.59	38607.14
538.75	38286.48
538.92	39028.43
539.09	38857.57
539.26	39473.13
539.43	38787.36
539.60	38747.57
539.77	38972.26
539.94	38953.54
540.11	38909.07
540.28	38792.04
540.44	39023.75
540.61	39297.59
540.78	39225.04
540.95	38848.21
541.12	39541.01
541.29	39164.18
541.46	39239.08
541.62	39899.11
541.79	39484.84
541.96	39028.43
542.13	39023.75
542.30	39903.79
542.47	39732.93
542.63	39826.56
542.80	39983.37
542.97	40257.21
543.14	40409.35
543.31	39735.27
543.48	40147.21
543.64	40327.43
543.81	40198.70
543.98	40514.67
544.15	40203.38
544.32	40680.85
544.48	40634.04
544.65	40409.35
544.82	40624.68
544.99	40098.06
545.16	40526.38
545.32	40069.97
545.49	40837.67
545.66	40580.21
545.83	40760.43
546.00	40832.99
546.16	40821.28
546.33	41071.72
546.50	41060.02
546.67	40849.37
546.83	40423.39
547.00	41146.62
547.17	40725.32
547.34	40683.19
547.50	41127.89
547.67	41261.30
547.84	40912.56
548.00	41319.82
548.17	41446.21
548.34	41160.66
548.51	41617.07
548.67	41354.93
548.84	41495.36
549.01	41315.14
549.18	41315.14
549.34	41287.05
549.51	41532.81
549.68	41106.83
549.84	42082.83
550.01	41457.91
550.18	41500.04
550.34	41532.81
550.51	41347.90
550.68	41500.04
550.84	41251.94
551.01	41713.03
551.18	41918.99
551.34	41556.21
551.51	42160.07
551.68	41694.30
551.84	42279.44
552.01	41811.33
552.18	41949.42
552.34	41916.65
552.51	42281.78
552.68	41436.84
552.84	42312.20
553.01	42426.89
553.18	42335.61
553.34	42646.90
553.51	42216.24
553.67	42164.75
553.84	42218.58
554.01	42361.36
554.17	42682.01
554.34	42745.20
554.51	42272.42
554.67	42611.79
554.84	42497.11
555.00	42387.10
555.17	42213.90
555.33	42550.94
555.50	42447.96
555.67	42625.84
555.83	42497.11
556.00	42494.77
556.16	42843.51
556.33	42927.77
556.50	42784.99
556.66	42546.26
556.83	42564.98
556.99	42913.72
557.16	42710.10
557.32	43136.07
557.49	42981.60
557.65	42572.00
557.82	42784.99
557.98	43077.56
558.15	42656.26
558.32	43037.77
558.48	42670.31
558.65	42667.97
558.81	43026.07
558.98	42911.38
559.14	42897.34
559.31	43002.66
559.47	43452.05
559.64	43704.82
559.80	43749.29
559.97	43330.34
560.13	42766.27
560.30	43171.18
560.46	43082.24
560.63	43201.61
560.79	43538.65
560.96	43306.93
561.12	43440.34
561.29	43763.34
561.45	43288.21
561.61	43274.16
561.78	43119.69
561.94	43365.45
562.11	43100.97
562.27	43494.18
562.44	43311.61
562.60	43489.49
562.77	43758.66
562.93	43892.07
563.10	43543.33
563.26	43423.96
563.42	43856.96
563.59	43419.28
563.75	43658.01
563.92	44165.91
564.08	43543.33
564.24	43564.39
564.41	43681.42
564.57	43704.82
564.74	43636.95
564.90	43550.35
565.07	43906.11
565.23	43796.10
565.39	43599.50
565.56	43744.61
565.72	43856.96
565.88	43585.46
566.05	44006.75
566.21	43529.28
566.38	43814.83
566.54	43887.39
566.70	43700.14
566.87	44360.17
567.03	43686.10
567.19	44191.65
567.36	43903.77
567.52	43232.04
567.68	43758.66
567.85	43817.17
568.01	43768.02
568.17	44044.20
568.34	44444.43
568.50	43606.52
568.66	44156.55
568.83	43400.55
568.99	43669.72
569.15	44154.21
569.32	43856.96
569.48	43936.54
569.64	43735.25
569.81	43758.66
569.97	43840.57
570.13	43852.28
570.30	43466.09
570.46	43548.01
570.62	43772.70
570.78	43838.23
570.95	43569.07
571.11	43730.57
571.27	44027.82
571.43	43789.08
571.60	44149.53
571.76	43941.22
571.92	44179.95
572.09	44189.31
572.25	44362.51
572.41	44147.18
572.57	44163.57
572.74	44727.64
572.90	44538.05
573.06	44079.31
573.22	44322.72
573.38	43997.39
573.55	44186.97
573.71	44119.10
573.87	43875.68
574.03	44095.69
574.20	44233.78
574.36	43878.02
574.52	44107.40
574.68	44563.80
574.84	44507.63
575.01	44332.09
575.17	44238.47
575.33	43714.19
575.49	44311.02
575.65	44832.96
575.82	44648.06
575.98	44486.56
576.14	44554.44
576.30	44191.65
576.46	44205.70
576.62	43973.98
576.79	44093.35
576.95	43838.23
577.11	43861.64
577.27	44219.74
577.43	44236.12
577.59	44023.14
577.75	44151.87
577.92	43812.49
578.08	43929.51
578.24	44128.46
578.40	44041.86
578.56	44304.00
578.72	44467.84
578.88	44526.35
579.04	44289.96
579.21	44676.15
579.37	44327.41
579.53	44378.90
579.69	44329.75
579.85	43777.38
580.01	44524.01
580.17	44339.11
580.33	44811.90
580.49	44315.70
580.65	44886.79
580.82	44584.86
580.98	44098.03
581.14	44205.70
581.30	44442.09
581.46	44402.30
581.62	44477.20
581.78	44662.10
581.94	44465.50
582.10	44538.05
582.26	44676.15
582.42	44978.07
582.58	44470.18
582.74	44781.47
582.90	44863.39
583.06	44664.44
583.22	44547.42
583.38	44868.07
583.54	44945.31
583.70	44287.62
583.86	44418.69
584.02	44158.89
584.18	44521.67
584.34	44119.10
584.50	44465.50
584.66	44437.41
584.82	44402.30
584.98	44397.62
585.14	44767.43
585.30	44495.92
585.46	44261.87
585.62	44402.30
585.78	44582.52
585.94	44215.06
586.10	44194.00
586.26	44315.70
586.42	44357.83
586.58	44369.54
586.74	44383.58
586.90	44201.02
587.06	44240.81
587.22	44659.76
587.38	44334.43
587.54	44858.71
587.70	44788.49
587.86	44013.77
588.02	44355.49
588.18	44631.68
588.34	44367.20
588.49	44495.92
588.65	44215.06
588.81	44289.96
588.97	44446.77
589.13	44779.13
589.29	44624.65
589.45	44121.44
589.61	44779.13
589.77	45001.48
589.93	44554.44
590.08	44622.31
590.24	45333.84
590.40	44641.04
