SpectraSuite Data File
++++++++++++++++++++++++++++++++++++
Date: Fri Oct 25 11:22:53 EDT 2013
User: price-jones
Dark Spectrum Present: No
Reference Spectrum Present: No
Number of Sampled Component Spectra: 1
Spectrometers: USB2+H05261
Integration Time (usec): 100000 (USB2+H05261)
Spectra Averaged: 1 (USB2+H05261)
Boxcar Smoothing: 0 (USB2+H05261)
Correct for Electrical Dark: No (USB2+H05261)
Strobe/Lamp Enabled: No (USB2+H05261)
Correct for Detector Non-linearity: No (USB2+H05261)
Correct for Stray Light: No (USB2+H05261)
Number of Pixels in Processed Spectrum: 2048
>>>>>Begin Processed Spectral Data<<<<<
365.73	222.35
365.92	222.35
366.12	222.35
366.32	140.43
366.52	145.11
366.72	173.20
366.91	110.01
367.11	81.92
367.31	86.60
367.51	107.66
367.70	201.29
367.90	154.48
368.10	147.45
368.30	105.32
368.49	159.16
368.69	154.48
368.89	98.30
369.09	110.01
369.28	124.05
369.48	121.71
369.68	189.58
369.87	205.97
370.07	166.18
370.27	292.57
370.47	355.76
370.66	585.13
370.86	653.01
371.06	575.77
371.25	615.56
371.45	622.58
371.65	727.91
371.84	690.46
372.04	613.22
372.24	725.57
372.44	645.99
372.63	681.10
372.83	791.10
373.03	784.08
373.22	667.05
373.42	781.74
373.62	716.20
373.81	826.21
374.01	779.40
374.21	830.89
374.40	748.97
374.60	828.55
374.79	884.72
374.99	809.83
375.19	821.53
375.38	875.36
375.58	887.06
375.78	793.44
375.97	933.87
376.17	851.96
376.37	903.45
376.56	877.70
376.76	830.89
376.95	922.17
377.15	875.36
377.35	971.32
377.54	929.19
377.74	915.15
377.93	954.94
378.13	901.11
378.33	1020.47
378.52	978.34
378.72	931.53
378.91	954.94
379.11	926.85
379.31	891.74
379.50	875.36
379.70	999.41
379.89	964.30
380.09	992.39
380.28	1008.77
380.48	968.98
380.68	940.90
380.87	1095.37
381.07	915.15
381.26	1008.77
381.46	952.60
381.65	1050.90
381.85	1029.84
382.04	1088.35
382.24	994.73
382.43	961.96
382.63	1107.07
382.83	1078.99
383.02	1146.86
383.22	1090.69
383.41	1149.20
383.61	1226.44
383.80	1118.78
384.00	1146.86
384.19	1210.06
384.39	1163.25
384.58	1135.16
384.78	1114.10
384.97	1090.69
385.17	1027.50
385.36	1114.10
385.56	1128.14
385.75	1172.61
385.95	1308.36
386.14	1214.74
386.34	1198.35
386.53	1238.14
386.72	1188.99
386.92	1219.42
387.11	1233.46
387.31	1235.80
387.50	1252.19
387.70	1200.69
387.89	1200.69
388.09	1275.59
388.28	1301.34
388.48	1254.53
388.67	1205.38
388.86	1277.93
389.06	1352.83
389.25	1315.38
389.45	1343.47
389.64	1362.19
389.84	1397.30
390.03	1371.55
390.22	1341.13
390.42	1409.00
390.61	1441.77
390.81	1362.19
391.00	1493.26
391.19	1537.73
391.39	1467.52
391.58	1444.11
391.78	1460.49
391.97	1509.65
392.16	1465.18
392.36	1528.37
392.55	1575.18
392.75	1490.92
392.94	1530.71
393.13	1530.71
393.33	1519.01
393.52	1511.99
393.71	1629.01
393.91	1528.37
394.10	1563.48
394.29	1640.72
394.49	1687.53
394.68	1621.99
394.88	1614.97
395.07	1666.46
395.26	1732.00
395.46	1633.69
395.65	1809.23
395.84	1715.61
396.04	1769.44
396.23	1713.27
396.42	1682.85
396.62	1884.13
396.81	1888.81
397.00	1834.98
397.19	1825.62
397.39	1732.00
397.58	1914.56
397.77	1729.66
397.97	1856.04
398.16	1891.15
398.35	1914.56
398.55	1874.77
398.74	1921.58
398.93	1975.41
399.12	1923.92
399.32	1837.32
399.51	1884.13
399.70	1984.77
399.90	2010.52
400.09	1956.69
400.28	2036.27
400.47	1968.39
400.67	2115.84
400.86	2022.22
401.05	1977.75
401.24	2050.31
401.44	2150.95
401.63	2122.87
401.82	2169.68
402.01	2115.84
402.21	2155.63
402.40	2230.53
402.59	2244.57
402.78	2284.36
402.97	2260.96
403.17	2242.23
403.36	2307.77
403.55	2267.98
403.74	2338.20
403.93	2321.81
404.13	2413.09
404.32	2403.73
404.51	2415.43
404.70	2516.08
404.89	2417.77
405.09	2480.97
405.28	2539.48
405.47	2452.88
405.66	2565.23
405.85	2546.50
406.05	2450.54
406.24	2546.50
406.43	2672.89
406.62	2597.99
406.81	2827.37
407.00	2546.50
407.20	2572.25
407.39	2729.06
407.58	2810.98
407.77	2703.32
407.96	2822.69
408.15	2785.24
408.34	2670.55
408.54	2848.43
408.73	2874.18
408.92	2803.96
409.11	2843.75
409.30	2857.79
409.49	2967.80
409.68	2792.26
409.87	2942.05
410.07	3054.40
410.26	3061.42
410.45	2986.52
410.64	2979.50
410.83	3075.46
411.02	3150.36
411.21	3281.43
411.40	3183.13
411.59	3185.47
411.78	3220.58
411.98	3197.17
412.17	3274.41
412.36	3421.86
412.55	3358.67
412.74	3356.33
412.93	3426.54
413.12	3346.97
413.31	3590.38
413.50	3433.57
413.69	3478.04
413.88	3669.96
414.07	3515.48
414.26	3588.04
414.45	3651.24
414.64	3674.64
414.83	3719.11
415.02	3786.99
415.22	3784.65
415.41	3932.10
415.60	3847.84
415.79	3969.55
415.98	3929.76
416.17	4037.42
416.36	4028.06
416.55	4007.00
416.74	4100.62
416.93	4161.47
417.12	4198.92
417.31	4121.68
417.50	4299.56
417.69	4250.41
417.88	4271.48
418.07	4334.67
418.26	4381.48
418.45	4334.67
418.64	4430.63
418.83	4428.29
419.02	4299.56
419.21	4521.92
419.39	4482.13
419.58	4580.43
419.77	4580.43
419.96	4678.73
420.15	4788.74
420.34	4585.11
420.53	4748.95
420.72	4760.65
420.91	4690.43
421.10	4748.95
421.29	4798.10
421.48	4793.42
421.67	4961.94
421.86	4840.23
422.05	4884.70
422.24	4847.25
422.43	4940.87
422.61	4830.87
422.80	4980.66
422.99	4975.98
423.18	5050.88
423.37	5004.07
423.56	4964.28
423.75	4966.62
423.94	4999.38
424.13	4676.39
424.32	4781.71
424.50	5043.85
424.69	5085.98
424.88	5076.62
425.07	5041.51
425.26	5039.17
425.45	4961.94
425.64	4851.93
425.83	4964.28
426.01	5018.11
426.20	5088.32
426.39	5043.85
426.58	5022.79
426.77	5093.01
426.96	5118.75
427.15	5233.44
427.33	5217.05
427.52	5357.49
427.71	5193.65
427.90	5336.42
428.09	5341.10
428.28	5523.66
428.46	5366.85
428.65	5425.36
428.84	5362.17
429.03	5568.13
429.22	5254.50
429.40	5502.60
429.59	5497.92
429.78	5437.06
429.97	5287.27
430.16	5509.62
430.34	5540.05
430.53	5671.12
430.72	5724.95
430.91	5727.29
431.10	5607.92
431.28	5621.97
431.47	5816.23
431.66	5870.06
431.85	5757.72
432.03	5973.05
432.22	6003.47
432.41	5987.09
432.60	5989.43
432.79	5991.77
432.97	6239.87
433.16	6085.39
433.35	6031.56
433.54	6127.52
433.72	6202.42
433.91	6099.44
434.10	6221.14
434.28	6106.46
434.47	6392.00
434.66	6389.66
434.85	6190.72
435.03	6382.64
435.22	6296.04
435.41	6387.32
435.59	6408.39
435.78	6595.63
435.97	6619.04
436.16	6494.99
436.34	6607.33
436.53	6504.35
436.72	6722.02
436.90	6422.43
437.09	6628.40
437.28	6696.27
437.46	6604.99
437.65	6754.79
437.84	6850.75
438.02	6672.87
438.21	6597.97
438.40	6703.29
438.58	7030.97
438.77	7056.72
438.96	7005.22
439.14	7110.55
439.33	7241.62
439.52	7194.81
439.70	7229.91
439.89	7515.46
440.08	7449.93
440.26	7557.59
440.45	7414.82
440.63	7595.04
440.82	7709.72
441.01	7566.95
441.19	7817.39
441.38	7618.44
441.57	7616.10
441.75	7861.86
441.94	7962.50
442.12	8028.04
442.31	8182.51
442.50	8135.70
442.68	8116.98
442.87	8081.87
443.05	8187.19
443.24	8154.43
443.43	8196.56
443.61	8365.07
443.80	8409.54
443.98	7894.63
444.17	7873.56
444.35	8430.61
444.54	8468.06
444.73	8365.07
444.91	8276.13
445.10	8353.37
445.28	8381.46
445.47	8271.45
445.65	8423.59
445.84	8397.84
446.02	8664.66
446.21	8514.87
446.39	8472.74
446.58	8624.87
446.77	8535.93
446.95	8376.78
447.14	8629.56
447.32	8760.63
447.51	8535.93
447.69	8451.67
447.88	8814.46
448.06	8578.06
448.25	8699.77
448.43	8709.13
448.62	8533.59
448.80	8568.70
448.99	8798.07
449.17	8865.95
449.36	8613.17
449.54	8858.93
449.73	9210.01
449.91	8973.61
450.10	9062.55
450.28	9104.68
450.46	9160.86
450.65	9060.21
450.83	9170.22
451.02	8985.32
451.20	9170.22
451.39	9233.41
451.57	9226.39
451.76	9195.96
451.94	9394.91
452.13	9406.61
452.31	9465.13
452.49	9142.13
452.68	9327.03
452.86	9589.17
453.05	9476.83
453.23	9441.72
453.42	9549.39
453.60	9387.89
453.78	9607.90
453.97	9411.29
454.15	9701.52
454.34	9458.10
454.52	9804.50
454.70	9736.63
454.89	9874.72
455.07	9996.43
455.26	9729.61
455.44	10099.41
455.62	9905.15
455.81	9996.43
455.99	10141.54
456.17	9994.09
456.36	10118.14
456.54	10176.65
456.73	10370.91
456.91	10677.52
457.09	10462.19
457.28	10569.86
457.46	10361.55
457.64	10480.92
457.83	10574.54
458.01	10579.22
458.19	10927.96
458.38	10511.35
458.56	10717.31
458.74	10810.93
458.93	10696.25
459.11	10700.93
459.29	10937.32
459.48	10857.75
459.66	10881.15
459.84	11066.05
460.03	11225.21
460.21	11047.33
460.39	10960.73
460.57	11293.08
460.76	11433.52
460.94	11152.65
461.12	11243.93
461.31	11201.80
461.49	11538.84
461.67	11140.95
461.85	11426.50
462.04	11447.56
462.22	11864.18
462.40	11613.74
462.59	11482.67
462.77	11393.73
462.95	11583.31
463.13	11840.77
463.32	11688.64
463.50	11882.90
463.68	11763.53
463.86	11932.05
464.05	11882.90
464.23	11815.02
464.41	12107.59
464.59	11786.94
464.78	12416.54
464.96	12013.97
465.14	11997.59
465.32	12154.40
465.50	12306.54
465.69	12217.60
465.87	12411.86
466.05	12271.43
466.23	12348.67
466.41	12442.29
466.60	12533.57
466.78	12266.75
466.96	12416.54
467.14	12491.44
467.32	12376.75
467.51	12692.73
467.69	12233.98
467.87	12425.90
468.05	12856.56
468.23	12589.74
468.41	12772.30
468.60	12798.05
468.78	12868.27
468.96	12699.75
469.14	12954.87
469.32	12908.05
469.50	13043.81
469.69	13135.09
469.87	13397.23
470.05	13170.19
470.23	13619.58
470.41	13235.73
470.59	13540.00
470.77	13142.11
470.95	13549.36
471.14	13385.52
471.32	13252.11
471.50	13706.18
471.68	13535.32
471.86	13874.70
472.04	13752.99
472.22	14012.79
472.40	13797.46
472.58	14111.09
472.77	14239.82
472.95	14342.80
473.13	14628.35
473.31	14356.85
473.49	14354.51
473.67	14284.29
473.85	14450.47
474.03	14918.57
474.21	14876.44
474.39	14920.92
474.57	14750.06
474.75	14855.38
474.93	15185.40
475.12	15091.77
475.30	15316.47
475.48	15330.51
475.66	15510.73
475.84	15185.40
476.02	15428.81
476.20	15527.11
476.38	16088.84
476.56	16329.92
476.74	16215.23
476.92	16250.34
477.10	15925.00
477.28	16531.20
477.46	16320.56
477.64	16404.81
477.82	16814.41
478.00	17060.16
478.18	16762.92
478.36	17186.55
478.54	17308.26
478.72	17132.72
478.90	17399.54
479.08	17867.65
479.26	17657.00
479.44	18012.76
479.62	18068.94
479.80	18317.03
479.98	18148.51
480.16	18834.29
480.34	18682.16
480.52	18616.62
480.70	18597.90
480.88	18361.50
481.06	18764.07
481.24	18838.97
481.41	19253.25
481.59	19346.87
481.77	19594.96
481.95	20004.56
482.13	20046.69
482.31	20060.73
482.49	20100.52
482.67	20278.40
482.85	20746.51
483.03	20772.25
483.21	20879.92
483.39	21481.44
483.57	20945.45
483.74	21418.24
483.92	21502.50
484.10	21451.01
484.28	21958.91
484.46	22314.67
484.64	22515.95
484.82	22232.75
485.00	22778.09
485.18	22934.91
485.35	23133.86
485.53	23098.75
485.71	23414.72
485.89	23887.51
486.07	23255.56
486.25	23601.96
486.43	23899.21
486.61	24070.07
486.78	24144.97
486.96	24563.92
487.14	24952.45
487.32	24863.51
487.50	25266.08
487.68	25486.09
487.85	25479.07
488.03	26036.12
488.21	26232.72
488.39	25996.33
488.57	26328.69
488.75	26260.81
488.92	26932.54
489.10	26740.62
489.28	26941.91
489.46	27466.19
489.64	27379.59
489.81	28231.54
489.99	28065.36
490.17	27756.41
490.35	28687.95
490.53	28484.32
490.70	28533.47
490.88	28552.20
491.06	28856.46
491.24	28922.00
491.41	29408.83
491.59	29624.16
491.77	29525.86
491.95	29788.00
492.13	30040.78
492.30	30284.19
492.48	30260.79
492.66	30518.25
492.84	30520.59
493.01	30979.33
493.19	31192.32
493.37	31374.88
493.54	31700.22
493.72	31723.62
493.90	31695.53
494.08	31943.63
494.25	32493.66
494.43	32765.16
494.61	32877.51
494.79	32987.51
494.96	32755.80
495.14	33095.18
495.32	33720.10
495.49	33216.88
495.67	33387.74
495.85	33902.66
496.02	34171.82
496.20	34335.66
496.38	34225.65
496.55	34349.70
496.73	35185.27
496.91	34948.88
497.09	35154.85
497.26	35580.82
497.44	35297.62
497.62	35494.22
497.79	36266.60
497.97	35864.03
498.14	36381.29
498.32	36264.26
498.50	36512.36
498.67	36755.77
498.85	37125.58
499.03	36907.91
499.20	36928.97
499.38	37202.82
499.56	37427.51
499.73	37427.51
499.91	38192.86
500.08	38436.28
500.26	37427.51
500.44	38274.78
500.61	38590.75
500.79	38164.78
500.97	38274.78
501.14	39021.41
501.32	38829.49
501.49	39016.73
501.67	38885.66
501.84	39040.14
502.02	39096.31
502.20	39515.26
502.37	39711.87
502.55	39524.63
502.72	39826.56
502.90	40566.16
503.07	40231.47
503.25	40023.16
503.43	40212.74
503.60	40737.02
503.78	40690.21
503.95	40945.33
504.13	40079.33
504.30	40858.73
504.48	40748.73
504.65	40994.48
504.83	41375.99
505.01	41387.69
505.18	41144.28
505.36	41811.33
505.53	41104.49
505.71	42241.99
505.88	42225.60
506.06	41956.44
506.23	41977.51
506.41	42440.93
506.58	42445.62
506.76	42562.64
506.93	42918.40
507.11	42532.22
507.28	42838.83
507.46	43503.54
507.63	43337.36
507.81	43475.45
507.98	43290.55
508.16	43302.25
508.33	43763.34
508.50	44184.63
508.68	44231.44
508.85	44428.05
509.03	44128.46
509.20	44020.80
509.38	44811.90
509.55	44701.89
509.73	44477.20
509.90	44935.95
510.08	44746.36
510.25	44994.46
510.42	45167.66
510.60	45588.95
510.77	45886.20
510.95	45914.29
511.12	45223.83
511.30	45727.05
511.47	45677.90
511.64	45776.20
511.82	46389.42
511.99	46117.92
512.17	46225.58
512.34	46146.00
512.51	46335.59
512.69	46653.90
512.86	46789.65
513.04	47175.84
513.21	46925.40
513.38	47297.55
513.56	47419.25
513.73	47236.69
513.90	47477.77
514.08	47112.64
514.25	47861.61
514.43	47573.73
514.60	47763.31
514.77	47744.59
514.95	48067.58
515.12	47737.57
515.29	47985.66
515.47	48769.74
515.64	48472.49
515.81	47966.94
515.99	48762.72
516.16	48875.07
516.33	48694.85
516.51	49247.21
516.68	49008.48
516.85	49090.40
517.03	49104.44
517.20	49392.33
517.37	49607.65
517.54	49219.13
517.72	49652.12
517.89	48992.09
518.06	49497.65
518.24	49951.71
518.41	49591.27
518.58	49551.48
518.75	49794.90
518.93	50171.72
519.10	49771.49
519.27	50480.67
519.45	50483.01
519.62	50410.46
519.79	50424.50
519.96	50274.71
520.14	50529.83
520.31	50492.38
520.48	50731.11
520.65	50820.05
520.83	50953.46
521.00	51227.31
521.17	50834.10
521.34	50904.31
521.52	51199.22
521.69	50967.51
521.86	51522.21
522.03	51379.44
522.20	51498.81
522.38	51718.82
522.55	51959.89
522.72	51356.03
522.89	51693.07
523.07	52030.11
523.24	51835.84
523.41	52306.29
523.58	51697.75
523.75	52240.76
523.92	52093.30
524.10	52493.54
524.27	52205.65
524.44	52310.97
524.61	52444.38
524.78	52278.21
524.96	52268.84
525.13	52603.54
525.30	52818.87
525.47	52851.64
525.64	53055.26
525.81	52926.53
525.98	53069.31
526.16	52945.26
526.33	53116.12
526.50	53434.43
526.67	53106.76
526.84	53221.44
527.01	52828.23
527.18	53469.54
527.36	53319.74
527.53	53324.43
527.70	53879.13
527.87	53588.91
528.04	53567.84
528.21	53862.75
528.38	53675.51
528.55	53879.13
528.72	53572.52
528.89	53792.53
529.07	53902.54
529.24	53588.91
529.41	54031.27
529.58	53769.13
529.75	53815.94
529.92	54103.82
530.09	54293.41
530.26	54190.42
530.43	54522.78
530.60	54045.31
530.77	54199.79
530.94	54267.66
531.11	54223.19
531.28	54471.29
531.46	54560.23
531.63	54567.25
531.80	54504.06
531.97	54855.14
532.14	54883.22
532.31	54855.14
532.48	54777.90
532.65	54937.05
532.82	54927.69
532.99	54899.61
533.16	54817.69
533.33	54927.69
533.50	55150.04
533.67	55290.48
533.84	54995.57
534.01	55274.09
534.18	55014.29
534.35	55716.45
534.52	55292.82
534.69	55285.79
534.86	55683.69
535.03	55213.24
535.20	55510.49
535.37	55592.40
535.54	55758.58
535.71	55428.57
535.88	55571.34
536.05	55770.28
536.22	55906.04
536.38	55868.59
536.55	55838.16
536.72	56062.85
536.89	55854.54
537.06	55976.25
537.23	56116.68
537.40	56095.62
537.57	55962.21
537.74	56102.64
537.91	56425.64
538.08	56114.34
538.25	56023.06
538.42	55994.98
538.59	56650.33
538.75	56149.45
538.92	56500.53
539.09	56556.70
539.26	56327.33
539.43	56392.87
539.60	56547.34
539.77	56458.40
539.94	56465.42
540.11	56542.66
540.28	56797.78
540.44	56783.74
540.61	56547.34
540.78	56755.65
540.95	56755.65
541.12	56680.75
541.29	56741.61
541.46	56657.35
541.62	56814.16
541.79	56692.46
541.96	56636.28
542.13	56830.55
542.30	57120.77
542.47	57162.90
542.63	57003.75
542.80	57148.86
542.97	57492.92
543.14	57425.04
543.31	57249.50
543.48	57256.53
543.64	57577.18
543.81	57453.13
543.98	57364.19
544.15	57853.36
544.32	57729.31
544.48	57848.68
544.65	57621.65
544.82	57762.08
544.99	57661.44
545.16	57640.37
545.32	57689.52
545.49	57954.00
545.66	57900.17
545.83	57771.44
546.00	57836.98
546.16	57923.58
546.33	57806.55
546.50	57708.25
546.67	57939.96
546.83	57818.25
547.00	57951.66
547.17	58108.48
547.34	58005.50
547.50	58349.56
547.67	58358.92
547.84	58562.54
548.00	58267.64
548.17	58686.59
548.34	58466.58
548.51	58557.86
548.67	58525.10
548.84	58326.15
549.01	58347.21
549.18	58457.22
549.34	58679.57
549.51	58536.80
549.68	58726.38
549.84	58714.68
550.01	58564.88
550.18	58599.99
550.34	58644.46
550.51	58803.62
550.68	58539.14
550.84	58450.20
551.01	58925.33
551.18	58915.96
551.34	58787.24
551.51	58688.93
551.68	58939.37
551.84	58761.49
552.01	58651.48
552.18	58883.20
552.34	58808.30
552.51	58934.69
552.68	58745.11
552.84	59025.97
553.01	59140.66
553.18	59133.63
553.34	59306.83
553.51	58719.36
553.67	59288.11
553.84	59243.64
554.01	59222.58
554.17	59278.75
554.34	59281.09
554.51	59117.25
554.67	59454.29
554.84	59269.39
555.00	59271.73
555.17	59098.53
555.33	59363.01
555.50	59107.89
555.67	59250.66
555.83	59269.39
556.00	59320.88
556.16	59550.25
556.33	59370.03
556.50	59583.02
556.66	59655.57
556.83	59430.88
556.99	59737.49
557.16	59737.49
557.32	59686.00
557.49	59906.01
557.65	59634.51
557.82	59686.00
557.98	59629.83
558.15	59681.32
558.32	59781.96
558.48	59641.53
558.65	59856.86
558.81	59597.06
558.98	59868.56
559.14	59943.46
559.31	59924.74
559.47	59906.01
559.64	60121.34
559.80	60111.98
559.97	60023.04
560.13	59753.88
560.30	59814.73
560.46	59971.55
560.63	59938.78
560.79	60119.00
560.96	59980.91
561.12	60093.25
561.29	60093.25
561.45	60114.32
561.61	59877.93
561.78	60018.36
561.94	60158.79
562.11	60053.47
562.27	60257.09
562.44	60111.98
562.60	60329.65
562.77	60044.10
562.93	60074.53
563.10	60093.25
563.26	60041.76
563.42	60392.84
563.59	60189.22
563.75	60245.39
563.92	60484.12
564.08	60079.21
564.24	60353.05
564.41	60493.49
564.57	60292.20
564.74	60399.86
564.90	60566.04
565.07	60245.39
565.23	60519.23
565.39	60257.09
565.56	60446.68
565.72	60383.48
565.88	60523.91
566.05	60456.04
566.21	60390.50
566.38	60542.64
566.54	60378.80
566.70	60542.64
566.87	60605.83
567.03	60346.03
567.19	60830.52
567.36	60362.42
567.52	60479.44
567.68	60575.40
567.85	60404.55
568.01	60500.51
568.17	60353.05
568.34	60596.47
568.50	60556.68
568.66	60587.11
568.83	60598.81
568.99	60596.47
569.15	60671.37
569.32	60732.22
569.48	60547.32
569.64	60790.73
569.81	60664.35
569.97	60528.59
570.13	60523.91
570.30	60626.90
570.46	60755.63
570.62	60921.80
570.78	60893.72
570.95	60800.10
571.11	60832.86
571.27	60729.88
571.43	60645.62
571.60	60928.83
571.76	60755.63
571.92	60584.77
572.09	60694.77
572.25	60896.06
572.41	60947.55
572.57	60821.16
572.74	60961.59
572.90	60891.38
573.06	61116.07
573.22	60858.61
573.38	60814.14
573.55	60818.82
573.71	61275.22
573.87	60940.53
574.03	60743.92
574.20	60860.95
574.36	60977.98
574.52	60999.04
574.68	61167.56
574.84	60924.14
575.01	60804.78
575.17	61001.38
575.33	60961.59
575.49	60921.80
575.65	60968.61
575.82	61123.09
575.98	60835.20
576.14	60996.70
576.30	61137.13
576.46	61001.38
576.62	60872.65
576.79	60877.33
576.95	60891.38
577.11	61120.75
577.27	60992.02
577.43	61034.15
577.59	60945.21
577.75	60790.73
577.92	60989.68
578.08	60935.85
578.24	60924.14
578.40	61214.37
578.56	61240.12
578.72	61230.75
578.88	61066.92
579.04	61249.48
579.21	61169.90
579.37	61284.59
579.53	61263.52
579.69	60992.02
579.85	61099.68
580.01	61022.45
580.17	60989.68
580.33	61073.94
580.49	61235.44
580.65	61179.26
580.82	61090.32
580.98	61092.66
581.14	60977.98
581.30	61240.12
581.46	61127.77
581.62	61202.67
581.78	61013.08
581.94	61263.52
582.10	61076.28
582.26	61233.10
582.42	61172.24
582.58	61095.00
582.74	61076.28
582.90	61331.40
583.06	61247.14
583.22	61055.21
583.38	61378.21
583.54	61162.88
583.70	61319.70
583.86	61207.35
584.02	61029.47
584.18	61490.55
584.34	61160.54
584.50	61148.84
584.66	60989.68
584.82	60945.21
584.98	61226.07
585.14	61221.39
585.30	60919.46
585.46	61408.64
585.62	61176.92
585.78	61460.13
585.94	61167.56
586.10	61090.32
586.26	61261.18
586.42	61366.51
586.58	61279.91
586.74	61219.05
586.90	61160.54
587.06	61235.44
587.22	61333.74
587.38	61359.48
587.54	61558.43
587.70	61474.17
587.86	61183.94
588.02	61427.36
588.18	61389.91
588.34	61375.87
588.49	61322.04
