SpectraSuite Data File
++++++++++++++++++++++++++++++++++++
Date: Fri Oct 25 11:33:47 EDT 2013
User: price-jones
Dark Spectrum Present: No
Reference Spectrum Present: No
Number of Sampled Component Spectra: 1
Spectrometers: USB2+H05261
Integration Time (usec): 100000 (USB2+H05261)
Spectra Averaged: 1 (USB2+H05261)
Boxcar Smoothing: 0 (USB2+H05261)
Correct for Electrical Dark: No (USB2+H05261)
Strobe/Lamp Enabled: No (USB2+H05261)
Correct for Detector Non-linearity: No (USB2+H05261)
Correct for Stray Light: No (USB2+H05261)
Number of Pixels in Processed Spectrum: 2048
>>>>>Begin Processed Spectral Data<<<<<
365.73	297.25
365.92	297.25
366.12	297.25
366.32	227.03
366.52	170.86
366.72	205.97
366.91	147.45
367.11	161.50
367.31	198.95
367.51	180.22
367.70	198.95
367.90	187.24
368.10	142.77
368.30	189.58
368.49	128.73
368.69	191.92
368.89	121.71
369.09	147.45
369.28	210.65
369.48	161.50
369.68	201.29
369.87	189.58
370.07	259.80
370.27	266.82
370.47	372.15
370.66	456.40
370.86	533.64
371.06	596.84
371.25	599.18
371.45	524.28
371.65	547.69
371.84	554.71
372.04	582.79
372.24	599.18
372.44	526.62
372.63	533.64
372.83	676.41
373.03	573.43
373.22	552.37
373.42	559.39
373.62	636.63
373.81	613.22
374.01	573.43
374.21	603.86
374.40	650.67
374.60	622.58
374.79	688.12
374.99	713.86
375.19	641.31
375.38	662.37
375.58	657.69
375.78	755.99
375.97	678.76
376.17	732.59
376.37	812.17
376.56	702.16
376.76	638.97
376.95	653.01
377.15	678.76
377.35	613.22
377.54	692.80
377.74	727.91
377.93	636.63
378.13	599.18
378.33	702.16
378.52	702.16
378.72	746.63
378.91	758.33
379.11	723.23
379.31	716.20
379.50	758.33
379.70	620.24
379.89	685.78
380.09	746.63
380.28	751.31
380.48	643.65
380.68	685.78
380.87	667.05
381.07	767.70
381.26	772.38
381.46	786.42
381.65	751.31
381.85	755.99
382.04	781.74
382.24	805.14
382.43	800.46
382.63	786.42
382.83	767.70
383.02	753.65
383.22	732.59
383.41	816.85
383.61	760.67
383.80	793.44
384.00	807.48
384.19	870.68
384.39	840.25
384.58	830.89
384.78	791.10
384.97	837.91
385.17	851.96
385.36	842.59
385.56	929.19
385.75	798.12
385.95	809.83
386.14	889.40
386.34	849.61
386.53	901.11
386.72	844.93
386.92	973.66
387.11	889.40
387.31	851.96
387.50	833.23
387.70	844.93
387.89	903.45
388.09	826.21
388.28	851.96
388.48	924.51
388.67	924.51
388.86	931.53
389.06	910.47
389.25	954.94
389.45	901.11
389.64	978.34
389.84	1032.18
390.03	875.36
390.22	973.66
390.42	971.32
390.61	1029.84
390.81	1104.73
391.00	968.98
391.19	1062.60
391.39	1046.22
391.58	1121.12
391.78	992.39
391.97	1046.22
392.16	976.00
392.36	938.55
392.55	1025.15
392.75	1135.16
392.94	1060.26
393.13	1034.52
393.33	943.24
393.52	1050.90
393.71	1093.03
393.91	1086.01
394.10	1022.81
394.29	1132.82
394.49	1165.59
394.68	1100.05
394.88	1137.50
395.07	1160.91
395.26	1170.27
395.46	1135.16
395.65	1069.62
395.84	1170.27
396.04	1233.46
396.23	1158.57
396.42	1210.06
396.62	1217.08
396.81	1219.42
397.00	1329.42
397.19	1231.12
397.39	1249.85
397.58	1287.29
397.77	1280.27
397.97	1308.36
398.16	1270.91
398.35	1198.35
398.55	1268.57
398.74	1327.08
398.93	1352.83
399.12	1270.91
399.32	1259.21
399.51	1376.24
399.70	1273.25
399.90	1357.51
400.09	1352.83
400.28	1420.71
400.47	1359.85
400.67	1453.47
400.86	1409.00
401.05	1434.75
401.24	1369.21
401.44	1423.05
401.63	1493.26
401.82	1371.55
402.01	1392.62
402.21	1409.00
402.40	1497.94
402.59	1486.24
402.78	1465.18
402.97	1490.92
403.17	1586.88
403.36	1593.90
403.55	1535.39
403.74	1657.10
403.93	1626.67
404.13	1589.22
404.32	1544.75
404.51	1626.67
404.70	1643.06
404.89	1556.46
405.09	1743.70
405.28	1753.06
405.47	1586.88
405.66	1666.46
405.85	1678.16
406.05	1788.17
406.24	1818.60
406.43	1818.60
406.62	1881.79
406.81	1872.43
407.00	1877.11
407.20	1834.98
407.39	1778.81
407.58	1872.43
407.77	1834.98
407.96	1895.83
408.15	1923.92
408.34	1804.55
408.54	1912.22
408.73	1949.67
408.92	1863.07
409.11	1900.52
409.30	2010.52
409.49	2139.25
409.68	1994.14
409.87	2108.82
410.07	2080.74
410.26	2043.29
410.45	2038.61
410.64	2069.03
410.83	2087.76
411.02	2097.12
411.21	2108.82
411.40	2162.66
411.59	2150.95
411.78	2214.15
411.98	2136.91
412.17	2239.89
412.36	2246.91
412.55	2380.32
412.74	2286.70
412.93	2380.32
413.12	2347.56
413.31	2495.01
413.50	2296.07
413.69	2455.22
413.88	2513.74
414.07	2511.39
414.26	2342.88
414.45	2452.88
414.64	2497.35
414.83	2605.02
415.02	2574.59
415.22	2551.18
415.41	2700.98
415.60	2576.93
415.79	2677.57
415.98	2782.90
416.17	2775.88
416.36	2740.77
416.55	2705.66
416.74	2834.39
416.93	2775.88
417.12	2855.45
417.31	2942.05
417.50	2874.18
417.69	2960.78
417.88	3084.83
418.07	2832.05
418.26	2897.58
418.45	2970.14
418.64	3136.32
418.83	3047.38
419.02	3131.64
419.21	3082.49
419.39	3077.80
419.58	3068.44
419.77	3023.97
419.96	3068.44
420.15	3258.03
420.34	3164.40
420.53	3150.36
420.72	3204.19
420.91	3253.34
421.10	3309.52
421.29	3108.23
421.48	3187.81
421.67	3199.51
421.86	3251.00
422.05	3375.05
422.24	3246.32
422.43	3368.03
422.61	3314.20
422.80	3398.46
422.99	3398.46
423.18	3449.95
423.37	3538.89
423.56	3499.10
423.75	3566.98
423.94	3363.35
424.13	3253.34
424.32	3442.93
424.50	3445.27
424.69	3393.78
424.88	3459.31
425.07	3414.84
425.26	3499.10
425.45	3459.31
425.64	3339.94
425.83	3414.84
426.01	3471.01
426.20	3471.01
426.39	3499.10
426.58	3571.66
426.77	3513.14
426.96	3442.93
427.15	3576.34
427.33	3524.85
427.52	3548.25
427.71	3772.94
427.90	3592.72
428.09	3485.06
428.28	3606.77
428.46	3775.28
428.65	3749.54
428.84	3857.20
429.03	3702.73
429.22	3686.34
429.40	3758.90
429.59	3679.32
429.78	3702.73
429.97	3702.73
430.16	3770.60
430.34	3763.58
430.53	3911.04
430.72	3932.10
430.91	3875.93
431.10	3934.44
431.28	3805.71
431.47	3833.80
431.66	3983.59
431.85	3941.46
432.03	4203.60
432.22	4166.15
432.41	4058.49
432.60	4044.45
432.79	4100.62
432.97	4126.36
433.16	4093.60
433.35	3999.98
433.54	4131.05
433.72	4154.45
433.91	4187.22
434.10	4086.58
434.28	4168.49
434.47	4145.09
434.66	4379.14
434.85	4351.06
435.03	4332.33
435.22	4388.50
435.41	4376.80
435.59	4409.57
435.78	4407.23
435.97	4465.74
436.16	4435.32
436.34	4404.89
436.53	4461.06
436.72	4498.51
436.90	4425.95
437.09	4449.36
437.28	4315.95
437.46	4580.43
437.65	4578.09
437.84	4652.98
438.02	4561.70
438.21	4627.24
438.40	4465.74
438.58	4657.67
438.77	4798.10
438.96	4830.87
439.14	4924.49
439.33	4863.63
439.52	4945.55
439.70	4828.53
439.89	5095.35
440.08	4793.42
440.26	5015.77
440.45	4966.62
440.63	4985.34
440.82	5153.86
441.01	5067.26
441.19	5174.92
441.38	5158.54
441.57	5163.22
441.75	5301.31
441.94	5315.36
442.12	5376.21
442.31	5416.00
442.50	5645.37
442.68	5352.81
442.87	5483.88
443.05	5678.14
443.24	5668.78
443.43	5509.62
443.61	5628.99
443.80	5713.25
443.98	5371.53
444.17	5317.70
444.35	5586.86
444.54	5731.97
444.73	5727.29
444.91	5668.78
445.10	5668.78
445.28	5813.89
445.47	5572.82
445.65	5568.13
445.84	5657.07
446.02	5724.95
446.21	5841.98
446.39	5650.05
446.58	5806.87
446.77	5724.95
446.95	5570.48
447.14	5675.80
447.32	5893.47
447.51	5544.73
447.69	5659.42
447.88	5844.32
448.06	5858.36
448.25	5722.61
448.43	5685.16
448.62	5694.52
448.80	5916.87
448.99	5888.79
449.17	5991.77
449.36	5982.41
449.54	5973.05
449.73	6239.87
449.91	6106.46
450.10	6059.65
450.28	6202.42
450.46	6174.33
450.65	6235.19
450.83	6026.88
451.02	5975.39
451.20	6188.38
451.39	6190.72
451.57	6277.32
451.76	6143.91
451.94	6298.38
452.13	6179.01
452.31	6310.08
452.49	6235.19
452.68	6352.21
452.86	6345.19
453.05	6457.54
453.23	6387.32
453.42	6466.90
453.60	6436.47
453.78	6377.96
453.97	6312.42
454.15	6532.44
454.34	6331.15
454.52	6705.63
454.70	6499.67
454.89	6600.31
455.07	6604.99
455.26	6565.20
455.44	6502.01
455.62	6672.87
455.81	6829.68
455.99	6764.15
456.17	6813.30
456.36	6979.48
456.54	6808.62
456.73	6890.54
456.91	7035.65
457.09	6876.49
457.28	6946.71
457.46	7005.22
457.64	7152.68
457.83	7000.54
458.01	6984.16
458.19	7262.68
458.38	6986.50
458.56	7105.87
458.74	7255.66
458.93	7166.72
459.11	7405.46
459.29	7353.96
459.48	7304.81
459.66	7199.49
459.84	7330.56
460.03	7332.90
460.21	7342.26
460.39	7293.11
460.57	7321.20
460.76	7641.85
460.94	7625.47
461.12	7590.36
461.31	7445.24
461.49	7403.11
461.67	7637.17
461.85	7698.02
462.04	7499.08
462.22	8021.02
462.40	7953.14
462.59	7723.77
462.77	7623.12
462.95	7730.79
463.13	7815.05
463.32	7719.09
463.50	7791.64
463.68	7976.55
463.86	8046.76
464.05	7758.88
464.23	7964.84
464.41	7992.93
464.59	7786.96
464.78	7976.55
464.96	7922.71
465.14	7939.10
465.32	8386.14
465.50	8297.20
465.69	8219.96
465.87	8116.98
466.05	8105.28
466.23	8255.07
466.41	8212.94
466.60	8255.07
466.78	8226.98
466.96	8231.66
467.14	8187.19
467.32	8273.79
467.51	8322.94
467.69	8147.40
467.87	8313.58
468.05	8379.12
468.23	8470.40
468.41	8423.59
468.60	8381.46
468.78	8521.89
468.96	8503.17
469.14	8657.64
469.32	8765.31
469.50	8458.70
469.69	8814.46
469.87	8767.65
470.05	8746.58
470.23	8842.54
470.41	8842.54
470.59	8877.65
470.77	8739.56
470.95	8727.86
471.14	9195.96
471.32	8816.80
471.50	8950.21
471.68	9107.02
471.86	9224.05
472.04	9207.67
472.22	9458.10
472.40	8947.87
472.58	9144.47
472.77	9437.04
472.95	9373.85
473.13	9687.48
473.31	9437.04
473.49	9589.17
473.67	9359.80
473.85	9682.80
474.03	9867.70
474.21	9837.27
474.39	9762.37
474.57	9783.44
474.75	9830.25
474.93	9900.47
475.12	9898.13
475.30	9991.75
475.48	10015.15
475.66	9841.95
475.84	9816.21
476.02	10424.75
476.20	10317.08
476.38	10539.43
476.56	10473.90
476.74	10560.50
476.92	10480.92
477.10	10480.92
477.28	10841.36
477.46	10843.70
477.64	10679.86
477.82	10834.34
478.00	11236.91
478.18	11197.12
478.36	11253.30
478.54	11056.69
478.72	11522.46
478.90	11611.40
479.08	11845.45
479.26	11782.26
479.44	11730.76
479.62	11882.90
479.80	11688.64
479.98	11831.41
480.16	12269.09
480.34	12292.49
480.52	12341.64
480.70	12444.63
480.88	12002.27
481.06	12276.11
481.24	12472.71
481.41	12662.30
481.59	12716.13
481.77	12889.33
481.95	12683.36
482.13	13158.49
482.31	13018.06
482.49	13240.41
482.67	13282.54
482.85	13511.91
483.03	13647.66
483.21	13568.09
483.39	13937.89
483.57	13757.67
483.74	13729.58
483.92	14108.75
484.10	13809.16
484.28	14363.87
484.46	14291.31
484.64	14726.65
484.82	14471.53
485.00	14658.78
485.18	14993.47
485.35	15044.96
485.53	15187.74
485.71	15246.25
485.89	15218.16
486.07	15307.10
486.25	15714.36
486.43	15620.74
486.61	15489.67
486.78	15906.28
486.96	16049.05
487.14	16259.70
487.32	16376.73
487.50	16262.04
487.68	16329.92
487.85	16886.97
488.03	16884.62
488.21	16830.79
488.39	17097.61
488.57	17025.06
488.75	17149.11
488.92	17497.84
489.10	17500.19
489.28	17624.23
489.46	17713.17
489.64	17687.43
489.81	18136.81
489.99	18125.11
490.17	18244.48
490.35	18373.21
490.53	18448.10
490.70	18558.11
490.88	18623.64
491.06	18925.57
491.24	19066.00
491.41	18684.50
491.59	19323.46
491.77	19061.32
491.95	19302.40
492.13	19377.30
492.30	19721.35
492.48	19604.33
492.66	19721.35
492.84	19695.61
493.01	20390.75
493.19	20383.73
493.37	20348.62
493.54	20350.96
493.72	20507.77
493.90	20606.08
494.08	20657.57
494.25	21055.46
494.43	20943.11
494.61	21369.09
494.79	21329.30
494.96	21305.90
495.14	21874.65
495.32	21666.34
495.49	21633.57
495.67	21645.27
495.85	22127.42
496.02	22092.32
496.20	22345.09
496.38	22471.48
496.55	22441.06
496.73	23040.23
496.91	22867.03
497.09	23080.02
497.26	22955.97
497.44	22637.66
497.62	23000.44
497.79	23241.52
497.97	23269.61
498.14	23700.26
498.32	23527.06
498.50	23789.20
498.67	24114.54
498.85	23658.14
499.03	23875.80
499.20	23878.15
499.38	23964.75
499.56	24271.36
499.73	24364.98
499.91	24634.14
500.08	24975.86
500.26	24636.48
500.44	24769.89
500.61	24690.31
500.79	24807.34
500.97	24601.37
501.14	25200.55
501.32	25315.23
501.49	24910.32
501.67	25373.75
501.84	25626.53
502.02	25741.21
502.20	25671.00
502.37	25603.12
502.55	25703.76
502.72	26043.14
502.90	26001.01
503.07	26003.35
503.25	26522.95
503.43	26122.72
503.60	26621.25
503.78	26403.58
503.95	26403.58
504.13	26616.57
504.30	26742.96
504.48	26647.00
504.65	26998.08
504.83	26838.92
505.01	27295.33
505.18	27274.26
505.36	27260.22
505.53	26981.70
505.71	27632.36
505.88	27552.79
506.06	27159.58
506.23	27433.42
506.41	27674.49
506.58	27700.24
506.76	27442.78
506.93	28072.39
507.11	27924.93
507.28	28243.24
507.46	28198.77
507.63	28395.38
507.81	28311.12
507.98	28393.04
508.16	28371.97
508.33	28575.60
508.50	28755.82
508.68	28985.19
508.85	29113.92
509.03	29003.92
509.20	29111.58
509.38	29610.12
509.55	29392.45
509.73	29530.54
509.90	29170.10
510.08	29415.85
510.25	29619.48
510.42	29357.34
510.60	29816.08
510.77	29666.29
510.95	30361.43
511.12	29886.30
511.30	29553.94
511.47	30206.95
511.64	30232.70
511.82	30232.70
511.99	30384.83
512.17	30560.37
512.34	30455.05
512.51	30721.87
512.69	31302.32
512.86	30841.24
513.04	30859.96
513.21	31040.18
513.38	30920.82
513.56	31349.14
513.73	31035.50
513.90	31150.19
514.08	31056.57
514.25	31276.58
514.43	31714.26
514.60	31770.43
514.77	31880.44
514.95	32013.85
515.12	31718.94
515.29	31672.13
515.47	31761.07
515.64	32283.01
515.81	31936.61
515.99	32311.10
516.16	32479.61
516.33	32505.36
516.51	32638.77
516.68	32446.85
516.85	32872.82
517.03	32680.90
517.20	32755.80
517.37	32610.68
517.54	32430.46
517.72	32921.98
517.89	33357.32
518.06	33113.90
518.24	33074.11
518.41	33102.20
518.58	33369.02
518.75	33055.39
518.93	33165.39
519.10	33081.13
519.27	33340.93
519.45	33970.54
519.62	33673.29
519.79	33970.54
519.96	33818.40
520.14	33862.87
520.31	33535.20
520.48	34223.31
520.65	33804.36
520.83	34487.79
521.00	34316.93
521.17	34478.43
521.34	34567.37
521.52	34368.43
521.69	34478.43
521.86	34843.56
522.03	35070.59
522.20	34330.98
522.38	35068.25
522.55	34951.22
522.72	35243.79
522.89	35044.84
523.07	35583.16
523.24	35260.17
523.41	35435.71
523.58	35056.54
523.75	35468.48
523.92	35454.44
524.10	35793.81
524.27	35732.96
524.44	35819.56
524.61	35728.28
524.78	35952.97
524.96	36065.31
525.13	36034.89
525.30	36409.37
525.47	35962.33
525.64	36177.66
525.81	36091.06
525.98	36098.08
526.16	36187.02
526.33	36086.38
526.50	36446.82
526.67	36708.96
526.84	36563.85
527.01	36921.95
527.18	36657.47
527.36	36786.20
527.53	36531.08
527.70	37574.96
527.87	37160.69
528.04	36891.52
528.21	36943.02
528.38	37055.36
528.55	37504.74
528.72	36886.84
528.89	37244.94
529.07	37191.11
529.24	37092.81
529.41	37549.21
529.58	37464.96
529.75	37448.57
529.92	37371.33
530.09	37617.09
530.26	37907.32
530.43	37853.48
530.60	37769.22
530.77	37532.83
530.94	37853.48
531.11	37563.26
531.28	38094.56
531.46	37916.68
531.63	38253.72
531.80	37542.19
531.97	38677.35
532.14	38433.94
532.31	38178.82
532.48	38155.41
532.65	38672.67
532.82	38185.84
532.99	38494.79
533.16	38621.18
533.33	38707.78
533.50	38883.32
533.67	38754.59
533.84	38567.35
534.01	39122.05
534.18	38932.47
534.35	39239.08
534.52	39061.20
534.69	39964.65
534.86	39531.65
535.03	39402.92
535.20	39545.69
535.37	39332.70
535.54	39548.03
535.71	39763.36
535.88	39590.16
536.05	39440.37
536.22	40238.49
536.38	40282.96
536.55	40018.48
536.72	39538.67
536.89	39981.03
537.06	39842.94
537.23	40254.87
537.40	39845.28
537.57	39964.65
537.74	39803.15
537.91	40081.67
538.08	40074.65
538.25	39775.06
538.42	39849.96
538.59	40858.73
538.75	39934.22
538.92	40477.22
539.09	40311.05
539.26	40514.67
539.43	40528.72
539.60	40498.29
539.77	40741.71
539.94	40975.76
540.11	41034.27
540.28	41071.72
540.44	40498.29
540.61	40701.92
540.78	40933.63
540.95	41008.53
541.12	40832.99
541.29	40559.14
541.46	41415.78
541.62	41125.55
541.79	41933.04
541.96	41155.98
542.13	40598.93
542.30	40917.25
542.47	41368.97
542.63	41390.03
542.80	40966.40
542.97	42171.77
543.14	42092.19
543.31	41755.16
543.48	41696.64
543.64	42225.60
543.81	42087.51
543.98	42356.67
544.15	41408.76
544.32	42258.37
544.48	42639.88
544.65	41549.19
544.82	42625.84
544.99	41928.36
545.16	41993.89
545.32	42422.21
545.49	42532.22
545.66	42955.85
545.83	42850.53
546.00	42244.33
546.16	42665.63
546.33	42417.53
546.50	42630.52
546.67	42642.22
546.83	42712.44
547.00	42562.64
547.17	42508.81
547.34	42770.95
547.50	42897.34
547.67	43054.15
547.84	42792.01
548.00	43166.50
548.17	43129.05
548.34	43180.54
548.51	43358.42
548.67	43133.73
548.84	43423.96
549.01	43213.31
549.18	43007.34
549.34	43594.82
549.51	43636.95
549.68	43592.48
549.84	43367.79
550.01	43711.84
550.18	42836.48
550.34	43948.24
550.51	43856.96
550.68	44009.09
550.84	43409.92
551.01	43929.51
551.18	43765.68
551.34	43789.08
551.51	43751.63
551.68	43915.47
551.84	43786.74
552.01	44102.71
552.18	44006.75
552.34	43786.74
552.51	43875.68
552.68	43868.66
552.84	44130.80
553.01	44222.08
553.18	44060.58
553.34	44238.47
553.51	44137.82
553.67	44074.63
553.84	44713.59
554.01	44198.68
554.17	44446.77
554.34	44509.97
554.51	44605.93
554.67	44781.47
554.84	44542.74
555.00	44252.51
555.17	44463.16
555.33	44690.19
555.50	44463.16
555.67	45134.89
555.83	44568.48
556.00	44535.71
556.16	45448.52
556.33	44898.50
556.50	44992.12
556.66	44715.93
556.83	44816.58
556.99	45485.97
557.16	44769.77
557.32	44837.64
557.49	45045.95
557.65	44985.10
557.82	44933.60
557.98	45076.38
558.15	45067.02
558.32	45366.60
558.48	45404.05
558.65	45240.21
558.81	45411.07
558.98	45270.64
559.14	45471.93
559.31	45038.93
559.47	45469.59
559.64	45258.94
559.80	45663.85
559.97	45635.77
560.13	45296.39
560.30	45317.45
560.46	45813.65
560.63	45518.74
560.79	45607.68
560.96	45965.78
561.12	45621.72
561.29	45925.99
561.45	45783.22
561.61	46045.36
561.78	45743.43
561.94	45448.52
562.11	45242.56
562.27	45675.55
562.44	45921.31
562.60	46160.05
562.77	45881.52
562.93	45186.38
563.10	45907.27
563.26	45815.99
563.42	46005.57
563.59	45785.56
563.75	45862.80
563.92	45579.59
564.08	46230.26
564.24	46260.69
564.41	45736.41
564.57	46087.49
564.74	45820.67
564.90	45825.35
565.07	45907.27
565.23	46176.43
565.39	46110.89
565.56	46122.60
565.72	45949.40
565.88	46319.20
566.05	46284.09
566.21	46127.28
566.38	46120.26
566.54	46260.69
566.70	46461.97
566.87	46862.21
567.03	45996.21
567.19	46571.98
567.36	46323.88
567.52	46553.26
567.68	46813.05
567.85	46419.84
568.01	46712.41
568.17	46227.92
568.34	46651.56
568.50	46256.01
568.66	46286.43
568.83	46508.79
568.99	46466.66
569.15	46398.78
569.32	46780.29
569.48	46103.87
569.64	46775.61
569.81	46323.88
569.97	46450.27
570.13	46513.47
570.30	46202.18
570.46	46459.63
570.62	46689.01
570.78	46644.54
570.95	46742.84
571.11	46864.55
571.27	46930.08
571.43	46616.45
571.60	46822.42
571.76	46492.40
571.92	46522.83
572.09	46635.17
572.25	46817.74
572.41	46550.91
572.57	46567.30
572.74	47110.30
572.90	46590.70
573.06	46801.35
573.22	47016.68
573.38	46869.23
573.55	46883.27
573.71	47543.30
573.87	47358.40
574.03	47030.72
574.20	47012.00
574.36	46827.10
574.52	47110.30
574.68	47173.50
574.84	47232.01
575.01	47096.26
575.17	47349.04
575.33	47019.02
575.49	46469.00
575.65	46873.91
575.82	46899.65
575.98	46466.66
576.14	47009.66
576.30	47426.28
576.46	46883.27
576.62	46614.11
576.79	46965.19
576.95	46899.65
577.11	46916.04
577.27	47110.30
577.43	47189.88
577.59	47168.82
577.75	46787.31
577.92	46791.99
578.08	46948.81
578.24	47325.63
578.40	46878.59
578.56	47571.39
578.72	46824.76
578.88	47089.24
579.04	46756.88
579.21	46909.02
579.37	47213.29
579.53	47208.61
579.69	47047.11
579.85	47131.37
580.01	47061.15
580.17	47122.01
580.33	47255.42
580.49	47655.65
580.65	47379.46
580.82	47019.02
580.98	47026.04
581.14	46593.04
581.30	47255.42
581.46	47042.43
581.62	47136.05
581.78	47393.51
581.94	47278.82
582.10	47201.58
582.26	47203.92
582.42	47702.46
582.58	47332.65
582.74	47559.69
582.90	47297.55
583.06	47309.25
583.22	47217.97
583.38	47482.45
583.54	47232.01
583.70	47459.04
583.86	47386.49
584.02	47138.39
584.18	47695.44
584.34	47510.53
584.50	47491.81
584.66	47634.58
584.82	46993.28
584.98	47735.23
585.14	47302.23
585.30	47215.63
585.46	47636.92
585.62	47292.86
585.78	47421.59
585.94	47262.44
586.10	47660.33
586.26	47086.90
586.42	46932.42
586.58	47482.45
586.74	47433.30
586.90	47395.85
587.06	47381.80
587.22	47557.35
587.38	47217.97
587.54	47714.16
587.70	47477.77
587.86	47522.24
588.02	47026.04
588.18	47779.70
588.34	47496.49
588.49	47473.09
588.65	47391.17
588.81	47229.67
588.97	47702.46
589.13	47381.80
589.29	47786.72
589.45	47767.99
589.61	47807.78
589.77	48072.26
589.93	47849.91
590.08	47728.20
