SpectraSuite Data File
++++++++++++++++++++++++++++++++++++
Date: Fri Oct 25 10:48:01 EDT 2013
User: price-jones
Dark Spectrum Present: No
Reference Spectrum Present: No
Number of Sampled Component Spectra: 1
Spectrometers: USB2+H05261
Integration Time (usec): 100000 (USB2+H05261)
Spectra Averaged: 1 (USB2+H05261)
Boxcar Smoothing: 0 (USB2+H05261)
Correct for Electrical Dark: No (USB2+H05261)
Strobe/Lamp Enabled: No (USB2+H05261)
Correct for Detector Non-linearity: No (USB2+H05261)
Correct for Stray Light: No (USB2+H05261)
Number of Pixels in Processed Spectrum: 2048
>>>>>Begin Processed Spectral Data<<<<<
365.73	170.86
365.92	170.86
366.12	170.86
366.32	14.04
366.52	9.36
366.72	16.38
366.91	46.81
367.11	32.77
367.31	25.75
367.51	18.72
367.70	95.96
367.90	102.98
368.10	0.00
368.30	93.62
368.49	74.90
368.69	37.45
368.89	81.92
369.09	23.41
369.28	44.47
369.48	79.58
369.68	135.75
369.87	128.73
370.07	100.64
370.27	159.16
370.47	243.42
370.66	334.70
370.86	416.62
371.06	493.85
371.25	510.24
371.45	390.87
371.65	505.56
371.84	503.22
372.04	479.81
372.24	498.53
372.44	510.24
372.63	454.06
372.83	550.03
373.03	528.96
373.22	528.96
373.42	491.51
373.62	592.16
373.81	561.73
374.01	493.85
374.21	433.00
374.40	552.37
374.60	582.79
374.79	482.15
374.99	543.00
375.19	500.87
375.38	573.43
375.58	629.60
375.78	610.88
375.97	592.16
376.17	634.29
376.37	662.37
376.56	554.71
376.76	617.90
376.95	603.86
377.15	564.07
377.35	580.45
377.54	629.60
377.74	596.84
377.93	554.71
378.13	557.05
378.33	617.90
378.52	596.84
378.72	638.97
378.91	545.34
379.11	704.50
379.31	582.79
379.50	568.75
379.70	601.52
379.89	669.39
380.09	681.10
380.28	608.54
380.48	723.23
380.68	606.20
380.87	557.05
381.07	671.73
381.26	690.46
381.46	660.03
381.65	650.67
381.85	697.48
382.04	699.82
382.24	690.46
382.43	711.52
382.63	746.63
382.83	669.39
383.02	629.60
383.22	713.86
383.41	697.48
383.61	744.29
383.80	678.76
384.00	781.74
384.19	641.31
384.39	800.46
384.58	755.99
384.78	786.42
384.97	781.74
385.17	636.63
385.36	765.36
385.56	809.83
385.75	638.97
385.95	844.93
386.14	678.76
386.34	807.48
386.53	760.67
386.72	828.55
386.92	807.48
387.11	873.02
387.31	882.38
387.50	767.70
387.70	725.57
387.89	767.70
388.09	802.80
388.28	716.20
388.48	823.87
388.67	856.64
388.86	830.89
389.06	917.49
389.25	849.61
389.45	880.04
389.64	987.71
389.84	926.85
390.03	929.19
390.22	858.98
390.42	964.30
390.61	964.30
390.81	844.93
391.00	908.13
391.19	898.77
391.39	917.49
391.58	1018.13
391.78	891.74
391.97	976.00
392.16	908.13
392.36	994.73
392.55	931.53
392.75	912.81
392.94	943.24
393.13	976.00
393.33	851.96
393.52	1008.77
393.71	1060.26
393.91	1067.28
394.10	973.66
394.29	978.34
394.49	1055.58
394.68	1170.27
394.88	1186.65
395.07	1083.67
395.26	1146.86
395.46	1121.12
395.65	1111.75
395.84	1174.95
396.04	1226.44
396.23	1165.59
396.42	1149.20
396.62	1191.33
396.81	1160.91
397.00	1107.07
397.19	1041.54
397.39	1158.57
397.58	1362.19
397.77	1231.12
397.97	1282.61
398.16	1270.91
398.35	1198.35
398.55	1273.25
398.74	1203.04
398.93	1282.61
399.12	1289.64
399.32	1303.68
399.51	1310.70
399.70	1378.58
399.90	1392.62
400.09	1357.51
400.28	1401.98
400.47	1289.64
400.67	1427.73
400.86	1460.49
401.05	1451.13
401.24	1465.18
401.44	1533.05
401.63	1437.09
401.82	1495.60
402.01	1490.92
402.21	1542.41
402.40	1624.33
402.59	1514.33
402.78	1476.88
402.97	1439.43
403.17	1556.46
403.36	1526.03
403.55	1603.27
403.74	1572.84
403.93	1682.85
404.13	1617.31
404.32	1596.25
404.51	1666.46
404.70	1703.91
404.89	1551.78
405.09	1755.40
405.28	1647.74
405.47	1654.76
405.66	1724.97
405.85	1710.93
406.05	1818.60
406.24	1806.89
406.43	1785.83
406.62	1788.17
406.81	1844.34
407.00	1797.53
407.20	1806.89
407.39	1870.09
407.58	1846.68
407.77	1935.62
407.96	1820.94
408.15	1886.47
408.34	1921.58
408.54	2010.52
408.73	2101.80
408.92	1937.96
409.11	2026.90
409.30	1937.96
409.49	2043.29
409.68	2024.56
409.87	2005.84
410.07	2090.10
410.26	2033.93
410.45	2045.63
410.64	2139.25
410.83	2167.34
411.02	2186.06
411.21	2235.21
411.40	2277.34
411.59	2256.28
411.78	2251.60
411.98	2349.90
412.17	2331.17
412.36	2267.98
412.55	2345.22
412.74	2389.69
412.93	2382.67
413.12	2356.92
413.31	2506.71
413.50	2534.80
413.69	2450.54
413.88	2499.69
414.07	2633.10
414.26	2628.42
414.45	2672.89
414.64	2572.25
414.83	2663.53
415.02	2569.91
415.22	2644.81
415.41	2787.58
415.60	2597.99
415.79	2684.59
415.98	2738.43
416.17	2785.24
416.36	2792.26
416.55	2906.95
416.74	2942.05
416.93	2778.22
417.12	2841.41
417.31	2963.12
417.50	2841.41
417.69	3117.59
417.88	2906.95
418.07	2986.52
418.26	3042.70
418.45	3019.29
418.64	3194.83
418.83	3040.36
419.02	3173.77
419.21	3082.49
419.39	3122.27
419.58	3159.72
419.77	3112.91
419.96	3126.96
420.15	3300.16
420.34	3265.05
420.53	3339.94
420.72	3274.41
420.91	3297.81
421.10	3279.09
421.29	3389.10
421.48	3267.39
421.67	3461.65
421.86	3445.27
422.05	3346.97
422.24	3412.50
422.43	3393.78
422.61	3389.10
422.80	3442.93
422.99	3398.46
423.18	3524.85
423.37	3459.31
423.56	3548.25
423.75	3487.40
423.94	3485.06
424.13	3302.50
424.32	3307.18
424.50	3456.97
424.69	3592.72
424.88	3574.00
425.07	3398.46
425.26	3382.07
425.45	3424.20
425.64	3513.14
425.83	3585.70
426.01	3541.23
426.20	3559.95
426.39	3417.18
426.58	3463.99
426.77	3616.13
426.96	3686.34
427.15	3618.47
427.33	3541.23
427.52	3658.26
427.71	3639.53
427.90	3693.37
428.09	3700.39
428.28	3599.74
428.46	3726.13
428.65	3826.78
428.84	3850.18
429.03	3899.33
429.22	3662.94
429.40	3779.97
429.59	3691.02
429.78	3658.26
429.97	3527.19
430.16	3658.26
430.34	3847.84
430.53	3702.73
430.72	3777.62
430.91	3698.05
431.10	3882.95
431.28	4025.72
431.47	4002.32
431.66	4023.38
431.85	3960.19
432.03	4135.73
432.22	4140.41
432.41	4147.43
432.60	4168.49
432.79	4140.41
432.97	4140.41
433.16	4063.17
433.35	4339.35
433.54	4313.61
433.72	4311.27
433.91	4194.24
434.10	4252.75
434.28	4161.47
434.47	4337.01
434.66	4367.44
434.85	4353.40
435.03	4285.52
435.22	4325.31
435.41	4421.27
435.59	4395.53
435.78	4472.76
435.97	4454.04
436.16	4571.07
436.34	4538.30
436.53	4592.13
436.72	4685.75
436.90	4461.06
437.09	4620.22
437.28	4470.42
437.46	4641.28
437.65	4479.79
437.84	4634.26
438.02	4624.90
438.21	4500.85
438.40	4620.22
438.58	4695.11
438.77	4821.50
438.96	4870.65
439.14	5067.26
439.33	5064.92
439.52	4990.02
439.70	5018.11
439.89	5043.85
440.08	5142.16
440.26	4983.00
440.45	5170.24
440.63	5069.60
440.82	5324.72
441.01	5205.35
441.19	5266.21
441.38	5315.36
441.57	5315.36
441.75	5263.86
441.94	5462.81
442.12	5603.24
442.31	5675.80
442.50	5481.53
442.68	5575.16
442.87	5570.48
443.05	5497.92
443.24	5729.63
443.43	5748.36
443.61	5781.12
443.80	5790.49
443.98	5554.09
444.17	5650.05
444.35	5930.92
444.54	5991.77
444.73	5661.76
444.91	5909.85
445.10	5706.23
445.28	5713.25
445.47	5839.64
445.65	5778.78
445.84	5722.61
446.02	5884.11
446.21	5776.44
446.39	5654.73
446.58	5802.19
446.77	5750.70
446.95	5774.10
447.14	5858.36
447.32	5987.09
447.51	5860.70
447.69	5764.74
447.88	5877.09
448.06	6052.63
448.25	5942.62
448.43	5937.94
448.62	5874.74
448.80	5968.37
448.99	6132.20
449.17	6026.88
449.36	6094.76
449.54	6108.80
449.73	6260.93
449.91	6104.12
450.10	6155.61
450.28	6193.06
450.46	6239.87
450.65	6228.17
450.83	6244.55
451.02	6277.32
451.20	6324.13
451.39	6354.55
451.57	6282.00
451.76	6230.51
451.94	6279.66
452.13	6342.85
452.31	6429.45
452.49	6328.81
452.68	6340.51
452.86	6274.98
453.05	6494.99
453.23	6506.69
453.42	6492.65
453.60	6539.46
453.78	6567.54
453.97	6473.92
454.15	6551.16
454.34	6452.86
454.52	6771.17
454.70	6654.14
454.89	6745.42
455.07	6686.91
455.26	6602.65
455.44	6988.84
455.62	6736.06
455.81	6780.53
455.99	6843.73
456.17	6738.40
456.36	7005.22
456.54	6981.82
456.73	7014.59
456.91	7138.63
457.09	6963.09
457.28	7145.66
457.46	7075.44
457.64	7276.73
457.83	6979.48
458.01	7119.91
458.19	7222.89
458.38	7199.49
458.56	7339.92
458.74	7211.19
458.93	7276.73
459.11	7360.98
459.29	7227.57
459.48	7307.15
459.66	7176.08
459.84	7494.40
460.03	7681.64
460.21	7419.50
460.39	7489.71
460.57	7389.07
460.76	7597.38
460.94	7658.23
461.12	7623.12
461.31	7662.91
461.49	7536.52
461.67	7524.82
461.85	7737.81
462.04	7843.14
462.22	8315.92
462.40	7822.07
462.59	7763.56
462.77	7859.52
462.95	7983.57
463.13	7796.32
463.32	7927.39
463.50	8035.06
463.68	7772.92
463.86	8142.72
464.05	7985.91
464.23	7789.30
464.41	8004.63
464.59	7702.70
464.78	8252.73
464.96	7997.61
465.14	7948.46
465.32	8051.44
465.50	8102.93
465.69	8142.72
465.87	8170.81
466.05	8107.62
466.23	8205.92
466.41	8315.92
466.60	8659.98
466.78	8198.90
466.96	8262.09
467.14	8376.78
467.32	8411.89
467.51	8507.85
467.69	8142.72
467.87	8535.93
468.05	8524.23
468.23	8322.94
468.41	8442.31
468.60	8606.15
468.78	8517.21
468.96	8329.97
469.14	8559.34
469.32	8819.14
469.50	8320.60
469.69	8800.41
469.87	8901.06
470.05	8903.40
470.23	8758.28
470.41	8781.69
470.59	8938.51
470.77	8823.82
470.95	8917.44
471.14	9015.74
471.32	8964.25
471.50	9231.07
471.68	8999.36
471.86	9071.92
472.04	9338.74
472.22	9472.15
472.40	8985.32
472.58	9142.13
472.77	9383.21
472.95	9500.23
473.13	9579.81
473.31	9139.79
473.49	9401.93
473.67	9533.00
473.85	9720.24
474.03	9968.34
474.21	9874.72
474.39	9956.64
474.57	10015.15
474.75	9755.35
474.93	10085.37
475.12	9987.07
475.30	10092.39
475.48	10115.80
475.66	10108.77
475.84	10176.65
476.02	10333.47
476.20	10052.60
476.38	10223.46
476.56	10532.41
476.74	10462.19
476.92	10478.58
477.10	10546.45
477.28	10832.00
477.46	10642.42
477.64	10867.11
477.82	11157.33
478.00	11215.85
478.18	11295.43
478.36	11199.46
478.54	11089.46
478.72	11241.59
478.90	11648.85
479.08	11698.00
479.26	11740.13
479.44	11887.58
479.62	11964.82
479.80	11964.82
479.98	12030.35
480.16	12285.47
480.34	12280.79
480.52	12299.52
480.70	12383.77
480.88	12280.79
481.06	12496.12
481.24	12294.83
481.41	12709.11
481.59	12758.26
481.77	13123.38
481.95	13036.78
482.13	13057.85
482.31	13130.41
482.49	13305.95
482.67	13411.27
482.85	13483.83
483.03	13846.61
483.21	13713.20
483.39	13839.59
483.57	14129.81
483.74	14050.24
483.92	14272.59
484.10	13902.78
484.28	14085.34
484.46	14331.10
484.64	14607.28
484.82	14384.93
485.00	14794.53
485.18	14862.40
485.35	15185.40
485.53	14834.32
485.71	14988.79
485.89	14958.36
486.07	15332.85
486.25	15171.35
486.43	15580.95
486.61	15609.03
486.78	15936.71
486.96	15789.25
487.14	16243.32
487.32	15971.82
487.50	16306.51
487.68	16498.44
487.85	16418.86
488.03	16636.53
488.21	16985.27
488.39	16823.77
488.57	16964.20
488.75	17167.83
488.92	17446.35
489.10	17284.86
489.28	17418.27
489.46	17687.43
489.64	17692.11
489.81	18153.20
489.99	17951.91
490.17	18050.21
490.35	18834.29
490.53	18136.81
490.70	18735.99
490.88	18097.02
491.06	18740.67
491.24	18979.40
491.41	18829.61
491.59	18771.10
491.77	18927.91
491.95	19358.57
492.13	19447.51
492.30	19346.87
492.48	19735.40
492.66	19487.30
492.84	19779.87
493.01	19995.20
493.19	19747.10
493.37	20334.57
493.54	20369.68
493.72	20329.89
493.90	20430.54
494.08	20868.22
494.25	20861.19
494.43	20989.92
494.61	21027.37
494.79	20802.68
494.96	21167.80
495.14	21516.54
495.32	21434.63
495.49	21523.57
495.67	21537.61
495.85	21642.93
496.02	21785.71
496.20	22223.39
496.38	22106.36
496.55	21998.70
496.73	22759.37
496.91	22539.36
497.09	22590.85
497.26	22625.96
497.44	22813.20
497.62	23119.81
497.79	23080.02
497.97	22728.94
498.14	23278.97
498.32	23290.67
498.50	23524.72
498.67	23541.11
498.85	23548.13
499.03	23494.30
499.20	23864.10
499.38	23824.31
499.56	23924.96
499.73	24053.69
499.91	23861.76
500.08	24276.04
500.26	24018.58
500.44	24362.64
500.61	24170.71
500.79	24156.67
500.97	24776.91
501.14	24858.83
501.32	25240.34
501.49	24802.66
501.67	24994.58
501.84	25186.50
502.02	25074.16
502.20	25195.87
502.37	25465.03
502.55	25333.96
502.72	25357.36
502.90	25916.75
503.07	25301.19
503.25	25720.15
503.43	25788.02
503.60	25731.85
503.78	26162.51
503.95	25869.94
504.13	26230.38
504.30	25848.88
504.48	26164.85
504.65	26403.58
504.83	26771.05
505.01	26443.37
505.18	26635.30
505.36	26874.03
505.53	27044.89
505.71	27054.25
505.88	26838.92
506.06	27058.93
506.23	27042.55
506.41	27330.44
506.58	27653.43
506.76	27197.02
506.93	27489.59
507.11	27627.68
507.28	27896.85
507.46	27513.00
507.63	27391.29
507.81	27517.68
507.98	27864.08
508.16	27936.63
508.33	28233.88
508.50	28479.64
508.68	28091.11
508.85	28697.31
509.03	28294.74
509.20	28180.05
509.38	28634.11
509.55	28596.67
509.73	28819.02
509.90	28680.92
510.08	29130.31
510.25	29003.92
510.42	29137.33
510.60	29331.59
510.77	29315.21
510.95	29179.46
511.12	28910.30
511.30	29490.75
511.47	29708.42
511.64	30101.63
511.82	29827.79
511.99	29621.82
512.17	30101.63
512.34	29823.11
512.51	30368.45
512.69	30326.32
512.86	30398.88
513.04	30213.98
513.21	30148.44
513.38	29734.17
513.56	30370.79
513.73	30445.69
513.90	30658.68
514.08	30588.46
514.25	30483.14
514.43	30843.58
514.60	30448.03
514.77	30764.00
514.95	31257.85
515.12	31510.63
515.29	30995.71
515.47	31288.28
515.64	31578.51
515.81	31402.97
515.99	31197.00
516.16	31536.38
516.33	31417.01
516.51	31122.10
516.68	31072.95
516.85	31545.74
517.03	31103.38
517.20	31920.23
517.37	31732.98
517.54	31976.40
517.72	31964.70
517.89	32074.70
518.06	31786.82
518.24	31880.44
518.41	31716.60
518.58	32034.91
518.75	32215.13
518.93	32589.62
519.10	32299.39
519.27	32343.86
519.45	32580.26
519.62	32783.88
519.79	32858.78
519.96	33017.94
520.14	32884.53
520.31	32982.83
520.48	33137.30
520.65	33071.77
520.83	33493.07
521.00	33710.74
521.17	33291.78
521.34	33146.67
521.52	33336.25
521.69	33703.71
521.86	33469.66
522.03	33809.04
522.20	33521.15
522.38	34115.65
522.55	33942.45
522.72	34038.41
522.89	33949.47
523.07	33928.41
523.24	33736.48
523.41	34237.36
523.58	33947.13
523.75	34246.72
523.92	34560.35
524.10	34918.45
524.27	34394.17
524.44	35009.73
524.61	34621.20
524.78	35035.48
524.96	35002.71
525.13	35241.45
525.30	34948.88
525.47	34752.27
525.64	34918.45
525.81	34962.92
525.98	35065.91
526.16	35166.55
526.33	34892.71
526.50	35585.50
526.67	35147.82
526.84	35007.39
527.01	35157.19
527.18	35386.56
527.36	35592.53
527.53	35353.79
527.70	36226.81
527.87	36084.04
528.04	35751.68
528.21	35709.55
528.38	36128.51
528.55	36079.36
528.72	35571.46
528.89	36044.25
529.07	36004.46
529.24	35777.43
529.41	36428.10
529.58	36315.75
529.75	36205.75
529.92	36353.20
530.09	36512.36
530.26	36617.68
530.43	36350.86
530.60	36570.87
530.77	36613.00
530.94	36966.42
531.11	36449.16
531.28	36730.03
531.46	36912.59
531.63	37113.87
531.80	37329.20
531.97	36917.27
532.14	36950.04
532.31	36751.09
532.48	37106.85
532.65	37266.01
532.82	36851.73
532.99	37008.55
533.16	36755.77
533.33	37207.50
533.50	37855.82
533.67	37219.20
533.84	37324.52
534.01	37570.28
534.18	37806.67
534.35	37743.48
534.52	37745.82
534.69	37673.26
534.86	37792.63
535.03	37607.73
535.20	37982.21
535.37	38424.57
535.54	38139.03
535.71	38302.87
535.88	37656.88
536.05	37666.24
536.22	38010.30
536.38	38094.56
536.55	38038.39
536.72	38204.56
536.89	38260.74
537.06	38405.85
537.23	38480.75
537.40	38429.26
537.57	38728.84
537.74	38438.62
537.91	38604.80
538.08	39075.24
538.25	38113.28
538.42	38653.95
538.59	39049.50
538.75	38766.29
538.92	39051.84
539.09	39267.17
539.26	38990.98
539.43	39349.09
539.60	38909.07
539.77	39257.81
539.94	38920.77
540.11	38857.57
540.28	38787.36
540.44	39082.27
540.61	39311.64
540.78	39276.53
540.95	39007.37
541.12	39257.81
541.29	39115.03
541.46	39386.54
541.62	38993.32
541.79	39402.92
541.96	39194.61
542.13	39770.38
542.30	39267.17
542.47	39798.47
542.63	39697.83
542.80	40041.88
542.97	39995.07
543.14	40385.94
543.31	40184.66
543.48	40229.13
543.64	40720.64
543.81	40521.69
543.98	40404.67
544.15	40622.34
544.32	40556.80
544.48	40692.55
544.65	40540.42
544.82	40900.86
544.99	40484.25
545.16	40339.13
545.32	40835.33
545.49	41001.50
545.66	40924.27
545.83	40748.73
546.00	41244.92
546.16	40907.88
546.33	40418.71
546.50	40528.72
546.67	40942.99
546.83	40334.45
547.00	40746.39
547.17	40886.82
547.34	40987.46
547.50	41031.93
547.67	41036.61
547.84	41359.61
548.00	41766.86
548.17	41425.14
548.34	40959.38
548.51	41567.91
548.67	41530.47
548.84	41598.34
549.01	41336.20
549.18	41633.45
549.34	41626.43
549.51	41846.44
549.68	41446.21
549.84	41677.92
550.01	41979.85
550.18	41448.55
550.34	41539.83
550.51	41333.86
550.68	41614.72
550.84	41289.39
551.01	41394.71
551.18	41830.05
551.34	41654.51
551.51	41663.88
551.68	42382.42
551.84	42101.56
552.01	42014.96
552.18	41897.93
552.34	41954.10
552.51	41769.20
552.68	42115.60
552.84	41916.65
553.01	42305.18
553.18	41862.82
553.34	42202.20
553.51	42110.92
553.67	42127.30
553.84	42363.70
554.01	42525.19
554.17	42763.93
554.34	42635.20
554.51	42550.94
554.67	42429.23
554.84	42674.99
555.00	42831.80
555.17	42714.78
555.33	42487.74
555.50	42597.75
555.67	42478.38
555.83	42691.37
556.00	42813.08
556.16	43255.44
556.33	43026.07
556.50	42644.56
556.66	42511.15
556.83	42618.81
556.99	42983.94
557.16	43086.92
557.32	43227.35
557.49	42775.63
557.65	42698.39
557.82	42614.13
557.98	43082.24
558.15	42600.09
558.32	43040.11
558.48	42658.60
558.65	42906.70
558.81	43161.82
558.98	42756.91
559.14	43253.10
559.31	43091.60
559.47	43271.82
559.64	43538.65
559.80	43423.96
559.97	43405.23
560.13	43030.75
560.30	42965.21
560.46	43070.54
560.63	42911.38
560.79	43426.30
560.96	43299.91
561.12	43379.49
561.29	43510.56
561.45	43152.46
561.61	43531.62
561.78	43360.76
561.94	42813.08
562.11	43311.61
562.27	43892.07
562.44	43447.36
562.60	43875.68
562.77	43559.71
562.93	43562.05
563.10	44041.86
563.26	43189.91
563.42	43796.10
563.59	43381.83
563.75	43845.26
563.92	43445.02
564.08	43643.97
564.24	43377.15
564.41	43526.94
564.57	43882.70
564.74	43990.37
564.90	43407.58
565.07	43892.07
565.23	43871.00
565.39	43576.09
565.56	43995.05
565.72	43548.01
565.88	43672.06
566.05	43421.62
566.21	43548.01
566.38	44023.14
566.54	44154.21
566.70	44313.36
566.87	44477.20
567.03	43861.64
567.19	44121.44
567.36	43782.06
567.52	43871.00
567.68	44161.23
567.85	43868.66
568.01	43913.13
568.17	44329.75
568.34	44437.41
568.50	43941.22
568.66	43831.21
568.83	43885.04
568.99	43473.11
569.15	43812.49
569.32	43721.21
569.48	43718.87
569.64	44041.86
569.81	44336.77
569.97	44086.33
570.13	44023.14
570.30	44069.95
570.46	43880.36
570.62	43723.55
570.78	43728.23
570.95	43789.08
571.11	44130.80
571.27	43688.44
571.43	44484.22
571.60	44264.21
571.76	44130.80
571.92	43718.87
572.09	43955.26
572.25	44020.80
572.41	44170.59
572.57	44287.62
572.74	44641.04
572.90	44371.88
573.06	44430.39
573.22	44275.91
573.38	44093.35
573.55	44137.82
573.71	44245.49
573.87	43981.01
574.03	43702.48
574.20	44205.70
574.36	43758.66
574.52	44531.03
574.68	44060.58
574.84	44280.60
575.01	44423.37
575.17	44343.79
575.33	44105.06
575.49	44325.07
575.65	44622.31
575.82	44486.56
575.98	44343.79
576.14	44371.88
576.30	44509.97
576.46	44201.02
576.62	43985.69
576.79	44355.49
576.95	44353.15
577.11	43997.39
577.27	44041.86
577.43	44854.03
577.59	44109.74
577.75	44217.40
577.92	43796.10
578.08	44034.84
578.24	43959.94
578.40	44481.88
578.56	44299.32
578.72	44208.04
578.88	44512.31
579.04	44659.76
579.21	43814.83
579.37	44194.00
579.53	44011.43
579.69	43878.02
579.85	44201.02
580.01	44566.14
580.17	44275.91
580.33	44509.97
580.49	44428.05
580.65	44856.37
580.82	44566.14
580.98	44388.26
581.14	44566.14
581.30	44346.13
581.46	44753.38
581.62	44360.17
581.78	44432.73
581.94	44938.29
582.10	44439.75
582.26	44491.24
582.42	44559.12
582.58	44399.96
582.74	44458.48
582.90	44406.98
583.06	44704.23
583.22	44488.90
583.38	45162.98
583.54	44357.83
583.70	44514.65
583.86	44037.18
584.02	44217.40
584.18	44446.77
584.34	44509.97
584.50	44395.28
584.66	44722.96
584.82	44458.48
584.98	44919.56
585.14	44807.22
585.30	44704.23
585.46	44395.28
585.62	44123.78
585.78	44002.07
585.94	44273.57
586.10	44437.41
586.26	44208.04
586.42	44287.62
586.58	44409.32
586.74	44823.60
586.90	44690.19
587.06	44222.08
587.22	44701.89
587.38	44135.48
587.54	44465.50
587.70	44725.30
587.86	44526.35
588.02	44685.51
588.18	44704.23
588.34	44390.60
588.49	44650.40
588.65	44196.34
588.81	44477.20
588.97	44648.06
589.13	44385.92
589.29	44762.75
589.45	44655.08
589.61	44495.92
589.77	44821.26
589.93	44608.27
590.08	44802.53
590.24	44919.56
