SpectraSuite Data File
++++++++++++++++++++++++++++++++++++
Date: Fri Oct 25 11:23:02 EDT 2013
User: price-jones
Dark Spectrum Present: No
Reference Spectrum Present: No
Number of Sampled Component Spectra: 1
Spectrometers: USB2+H05261
Integration Time (usec): 100000 (USB2+H05261)
Spectra Averaged: 1 (USB2+H05261)
Boxcar Smoothing: 0 (USB2+H05261)
Correct for Electrical Dark: No (USB2+H05261)
Strobe/Lamp Enabled: No (USB2+H05261)
Correct for Detector Non-linearity: No (USB2+H05261)
Correct for Stray Light: No (USB2+H05261)
Number of Pixels in Processed Spectrum: 2048
>>>>>Begin Processed Spectral Data<<<<<
365.73	255.12
365.92	255.12
366.12	255.12
366.32	154.48
366.52	163.84
366.72	187.24
366.91	74.90
367.11	142.77
367.31	131.07
367.51	51.49
367.70	126.39
367.90	126.39
368.10	140.43
368.30	154.48
368.49	175.54
368.69	191.92
368.89	145.11
369.09	63.19
369.28	166.18
369.48	187.24
369.68	140.43
369.87	180.22
370.07	184.90
370.27	217.67
370.47	238.73
370.66	521.94
370.86	688.12
371.06	681.10
371.25	627.26
371.45	629.60
371.65	725.57
371.84	650.67
372.04	671.73
372.24	685.78
372.44	676.41
372.63	725.57
372.83	732.59
373.03	727.91
373.22	758.33
373.42	758.33
373.62	697.48
373.81	858.98
374.01	732.59
374.21	795.78
374.40	830.89
374.60	837.91
374.79	770.04
374.99	765.36
375.19	802.80
375.38	816.85
375.58	903.45
375.78	840.25
375.97	905.79
376.17	929.19
376.37	830.89
376.56	936.21
376.76	809.83
376.95	821.53
377.15	870.68
377.35	931.53
377.54	945.58
377.74	931.53
377.93	947.92
378.13	866.00
378.33	915.15
378.52	908.13
378.72	894.08
378.91	894.08
379.11	926.85
379.31	959.62
379.50	919.83
379.70	999.41
379.89	945.58
380.09	968.98
380.28	990.05
380.48	952.60
380.68	987.71
380.87	994.73
381.07	1022.81
381.26	1071.97
381.46	938.55
381.65	971.32
381.85	1116.44
382.04	1039.20
382.24	1053.24
382.43	1095.37
382.63	957.28
382.83	1078.99
383.02	1130.48
383.22	1100.05
383.41	1060.26
383.61	1078.99
383.80	1135.16
384.00	1111.75
384.19	1123.46
384.39	1118.78
384.58	1144.52
384.78	1144.52
384.97	1186.65
385.17	1130.48
385.36	1167.93
385.56	1203.04
385.75	1139.84
385.95	1144.52
386.14	1256.87
386.34	1221.76
386.53	1294.32
386.72	1191.33
386.92	1212.40
387.11	1144.52
387.31	1306.02
387.50	1291.98
387.70	1280.27
387.89	1296.66
388.09	1282.61
388.28	1266.23
388.48	1277.93
388.67	1329.42
388.86	1366.87
389.06	1310.70
389.25	1392.62
389.45	1275.59
389.64	1313.04
389.84	1324.74
390.03	1331.76
390.22	1369.21
390.42	1291.98
390.61	1320.06
390.81	1369.21
391.00	1430.07
391.19	1434.75
391.39	1495.60
391.58	1455.81
391.78	1373.89
391.97	1399.64
392.16	1444.11
392.36	1460.49
392.55	1383.26
392.75	1504.96
392.94	1561.14
393.13	1540.07
393.33	1490.92
393.52	1563.48
393.71	1713.27
393.91	1650.08
394.10	1568.16
394.29	1565.82
394.49	1535.39
394.68	1493.26
394.88	1607.95
395.07	1717.95
395.26	1671.14
395.46	1668.80
395.65	1722.63
395.84	1717.95
396.04	1776.47
396.23	1671.14
396.42	1706.25
396.62	1696.89
396.81	1760.08
397.00	1785.83
397.19	1792.85
397.39	1827.96
397.58	1811.57
397.77	1797.53
397.97	1790.51
398.16	1844.34
398.35	1849.02
398.55	1926.26
398.74	1926.26
398.93	1975.41
399.12	1921.58
399.32	1851.36
399.51	2003.50
399.70	2005.84
399.90	1895.83
400.09	2031.58
400.28	2008.18
400.47	2024.56
400.67	2078.40
400.86	2148.61
401.05	1984.77
401.24	2092.44
401.44	2092.44
401.63	2125.21
401.82	2122.87
402.01	2153.29
402.21	2120.53
402.40	2162.66
402.59	2279.68
402.78	2176.70
402.97	2216.49
403.17	2356.92
403.36	2207.13
403.55	2218.83
403.74	2298.41
403.93	2399.05
404.13	2363.94
404.32	2434.16
404.51	2314.79
404.70	2410.75
404.89	2516.08
405.09	2506.71
405.28	2548.84
405.47	2462.24
405.66	2530.12
405.85	2544.16
406.05	2516.08
406.24	2551.18
406.43	2534.80
406.62	2525.44
406.81	2658.85
407.00	2609.70
407.20	2679.91
407.39	2773.53
407.58	2750.13
407.77	2768.85
407.96	2785.24
408.15	2708.00
408.34	2656.51
408.54	2822.69
408.73	2846.09
408.92	2862.48
409.11	2822.69
409.30	2981.84
409.49	2953.76
409.68	3087.17
409.87	2909.29
410.07	3063.76
410.26	3136.32
410.45	3077.80
410.64	3012.27
410.83	3098.87
411.02	3091.85
411.21	3082.49
411.40	3082.49
411.59	3192.49
411.78	3122.27
411.98	3171.43
412.17	3389.10
412.36	3349.31
412.55	3405.48
412.74	3358.67
412.93	3412.50
413.12	3379.73
413.31	3513.14
413.50	3449.95
413.69	3426.54
413.88	3611.45
414.07	3618.47
414.26	3616.13
414.45	3681.66
414.64	3625.49
414.83	3702.73
415.02	3630.17
415.22	3777.62
415.41	3997.64
415.60	3901.67
415.79	3941.46
415.98	4147.43
416.17	4067.85
416.36	3955.51
416.55	4065.51
416.74	4114.66
416.93	4007.00
417.12	4023.38
417.31	4145.09
417.50	4196.58
417.69	4294.88
417.88	4264.46
418.07	4112.32
418.26	4454.04
418.45	4355.74
418.64	4470.42
418.83	4411.91
419.02	4458.72
419.21	4587.45
419.39	4662.35
419.58	4519.57
419.77	4568.73
419.96	4592.13
420.15	4732.56
420.34	4610.86
420.53	4655.33
420.72	4660.01
420.91	4582.77
421.10	4779.37
421.29	4870.65
421.48	4727.88
421.67	4877.68
421.86	4807.46
422.05	4887.04
422.24	4826.18
422.43	4896.40
422.61	4734.90
422.80	5046.20
422.99	5001.72
423.18	4959.60
423.37	5076.62
423.56	4868.31
423.75	5029.81
423.94	4814.48
424.13	4793.42
424.32	4877.68
424.50	5160.88
424.69	5144.50
424.88	5088.32
425.07	4966.62
425.26	4858.95
425.45	4917.47
425.64	4947.89
425.83	4959.60
426.01	4961.94
426.20	5055.56
426.39	5212.37
426.58	5137.48
426.77	5163.22
426.96	5273.23
427.15	5195.99
427.33	5282.59
427.52	5114.07
427.71	5266.21
427.90	5057.90
428.09	5252.16
428.28	5490.90
428.46	5399.62
428.65	5338.76
428.84	5654.73
429.03	5533.03
429.22	5488.56
429.40	5462.81
429.59	5668.78
429.78	5565.79
429.97	5413.66
430.16	5420.68
430.34	5706.23
430.53	5612.60
430.72	5685.16
430.91	5612.60
431.10	5518.98
431.28	5706.23
431.47	5816.23
431.66	5914.53
431.85	5874.74
432.03	5928.58
432.22	6022.20
432.41	5895.81
432.60	6057.31
432.79	5914.53
432.97	6010.50
433.16	6090.07
433.35	5973.05
433.54	6162.63
433.72	6221.14
433.91	6017.52
434.10	6251.57
434.28	6169.65
434.47	6225.82
434.66	6242.21
434.85	6251.57
435.03	6506.69
435.22	6242.21
435.41	6572.22
435.59	6284.34
435.78	6380.30
435.97	6356.90
436.16	6480.94
436.34	6253.91
436.53	6616.69
436.72	6654.14
436.90	6548.82
437.09	6909.26
437.28	6546.48
437.46	6813.30
437.65	6696.27
437.84	6918.62
438.02	6696.27
438.21	6736.06
438.40	6586.27
438.58	7227.57
438.77	6946.71
438.96	7005.22
439.14	7035.65
439.33	7258.00
439.52	7258.00
439.70	7213.53
439.89	7407.80
440.08	7377.37
440.26	7414.82
440.45	7693.34
440.63	7545.89
440.82	7644.19
441.01	7669.94
441.19	7730.79
441.38	7829.09
441.57	7880.58
441.75	7880.58
441.94	8114.64
442.12	7953.14
442.31	8056.12
442.50	8217.62
442.68	8023.36
442.87	8051.44
443.05	8428.27
443.24	8112.30
443.43	8187.19
443.61	8446.99
443.80	8278.47
443.98	8065.49
444.17	7901.65
444.35	8156.77
444.54	8512.53
444.73	8273.79
444.91	8496.14
445.10	8325.29
445.28	8388.48
445.47	8484.44
445.65	8285.50
445.84	8491.46
446.02	8557.00
446.21	8564.02
446.39	8468.06
446.58	8631.90
446.77	8631.90
446.95	8435.29
447.14	8638.92
447.32	8678.71
447.51	8615.51
447.69	8486.78
447.88	8573.38
448.06	8571.04
448.25	8557.00
448.43	8765.31
448.62	8592.11
448.80	8425.93
448.99	8734.88
449.17	8648.28
449.36	8676.37
449.54	8861.27
449.73	9088.30
449.91	8964.25
450.10	9137.45
450.28	9064.89
450.46	9320.01
450.65	9095.32
450.83	9186.60
451.02	9081.28
451.20	9312.99
451.39	9069.58
451.57	9069.58
451.76	9043.83
451.94	9369.16
452.13	9270.86
452.31	9329.38
452.49	9092.98
452.68	9430.02
452.86	9488.53
453.05	9568.11
453.23	9476.83
453.42	9350.44
453.60	9652.37
453.78	9769.40
453.97	9376.19
454.15	9575.13
454.34	9472.15
454.52	9635.99
454.70	9694.50
454.89	9671.09
455.07	9977.70
455.26	9914.51
455.44	9818.55
455.62	9877.06
455.81	10141.54
455.99	10146.22
456.17	10026.86
456.36	10183.67
456.54	10111.11
456.73	10169.63
456.91	10696.25
457.09	10420.06
457.28	10506.66
457.46	10590.92
457.64	10684.55
457.83	10703.27
458.01	10436.45
458.19	10946.69
458.38	10780.51
458.56	10972.43
458.74	10647.10
458.93	10726.68
459.11	11009.88
459.29	10836.68
459.48	10981.79
459.66	10771.15
459.84	11105.84
460.03	11332.87
460.21	11243.93
460.39	10939.66
460.57	11382.03
460.76	11265.00
460.94	11389.05
461.12	11143.29
461.31	11316.49
461.49	11211.17
461.67	11243.93
461.85	11543.52
462.04	11417.13
462.22	11784.60
462.40	11520.12
462.59	11777.58
462.77	11463.94
462.95	11683.95
463.13	11728.42
463.32	11728.42
463.50	11826.73
463.68	11850.13
463.86	11850.13
464.05	11580.97
464.23	11576.29
464.41	12081.85
464.59	11840.77
464.78	12252.70
464.96	12072.48
465.14	11903.96
465.32	12018.65
465.50	12238.66
465.69	12369.73
465.87	12297.17
466.05	12292.49
466.23	12184.83
466.41	12423.56
466.60	12585.06
466.78	12421.22
466.96	12140.36
467.14	12456.33
467.32	12453.99
467.51	12498.46
467.69	12175.47
467.87	12671.66
468.05	12493.78
468.23	12617.83
468.41	12575.70
468.60	12755.92
468.78	12748.90
468.96	12861.24
469.14	12987.63
469.32	12924.44
469.50	12613.15
469.69	12910.40
469.87	13114.02
470.05	13200.62
470.23	13298.92
470.41	13179.56
470.59	13383.18
470.77	13275.52
470.95	13282.54
471.14	13591.49
471.32	13448.72
471.50	13816.18
471.68	13664.05
471.86	13713.20
472.04	13706.18
472.22	14143.86
472.40	14108.75
472.58	13870.01
472.77	14003.43
472.95	14176.62
473.13	14607.28
473.31	14284.29
473.49	14277.27
473.67	14214.07
473.85	14459.83
474.03	14679.84
474.21	14686.86
474.39	14981.77
474.57	15211.14
474.75	15152.63
474.93	15150.29
475.12	15129.22
475.30	14949.00
475.48	15257.95
475.66	15154.97
475.84	15332.85
476.02	15592.65
476.20	15665.21
476.38	15934.37
476.56	16189.49
476.74	16018.63
476.92	15803.30
477.10	15676.91
477.28	16196.51
477.46	16152.04
477.64	16243.32
477.82	16720.79
478.00	17212.30
478.18	16975.91
478.36	17050.80
478.54	17289.54
478.72	17453.37
478.90	17600.83
479.08	17909.78
479.26	17923.82
479.44	17844.24
479.62	17909.78
479.80	18331.08
479.98	18082.98
480.16	18735.99
480.34	18644.71
480.52	18703.22
480.70	18888.12
480.88	18604.92
481.06	19131.54
481.24	18801.52
481.41	19316.44
481.59	19391.34
481.77	19819.66
481.95	19604.33
482.13	19843.06
482.31	19850.08
482.49	20643.52
482.67	20376.70
482.85	20538.20
483.03	20608.42
483.21	20903.32
483.39	21053.12
483.57	21163.12
483.74	21312.92
483.92	21642.93
484.10	21514.20
484.28	22115.72
484.46	22448.08
484.64	22462.12
484.82	22120.40
485.00	22380.20
485.18	22897.46
485.35	23068.32
485.53	23019.17
485.71	23152.58
485.89	23541.11
486.07	23754.10
486.25	23665.16
486.43	23679.20
486.61	23934.32
486.78	24336.89
486.96	24261.99
487.14	24720.74
487.32	24730.10
487.50	25184.16
487.68	25060.12
487.85	25418.22
488.03	25481.41
488.21	26148.46
488.39	26279.54
488.57	25895.69
488.75	26450.39
488.92	26850.63
489.10	26848.29
489.28	26883.39
489.46	27522.36
489.64	27285.97
489.81	27934.29
489.99	27515.34
490.17	28187.07
490.35	28411.76
490.53	28390.70
490.70	28591.98
490.88	28584.96
491.06	28802.63
491.24	29053.07
491.41	29427.56
491.59	29600.76
491.77	29350.32
491.95	29563.31
492.13	29816.08
492.30	30316.96
492.48	30761.66
492.66	30466.75
492.84	30541.65
493.01	30782.73
493.19	30859.96
493.37	31222.75
493.54	31639.36
493.72	31761.07
493.90	31861.71
494.08	31704.90
494.25	32294.71
494.43	32016.19
494.61	32591.96
494.79	32833.04
494.96	32804.95
495.14	32854.10
495.32	33345.61
495.49	33633.50
495.67	33502.43
495.85	33951.81
496.02	34213.95
496.20	34213.95
496.38	34267.78
496.55	34281.83
496.73	35398.26
496.91	34618.86
497.09	35239.11
497.26	35370.18
497.44	35138.46
497.62	35747.00
497.79	35665.08
497.97	35873.39
498.14	36336.82
498.32	36411.71
498.50	36542.78
498.67	36643.43
498.85	36519.38
499.03	37160.69
499.20	36926.63
499.38	36947.70
499.56	37240.26
499.73	37603.05
499.91	37514.11
500.08	37947.11
500.26	37954.13
500.44	37951.79
500.61	38352.02
500.79	37844.12
500.97	38768.63
501.14	38806.08
501.32	38829.49
501.49	39054.18
501.67	39119.71
501.84	39459.09
502.02	38937.15
502.20	39501.22
502.37	39618.25
502.55	39721.23
502.72	39990.39
502.90	39648.68
503.07	39768.04
503.25	39714.21
503.43	40184.66
503.60	40210.40
503.78	40786.18
503.95	40605.95
504.13	41113.85
504.30	40896.18
504.48	40828.30
504.65	41228.54
504.83	41720.05
505.01	41797.29
505.18	41200.45
505.36	41474.29
505.53	41434.50
505.71	42021.98
505.88	42024.32
506.06	41776.22
506.23	42387.10
506.41	42281.78
506.58	42356.67
506.76	43021.39
506.93	42834.14
507.11	42705.41
507.28	43005.00
507.46	42892.66
507.63	43377.15
507.81	43765.68
507.98	43253.10
508.16	43438.00
508.33	43847.60
508.50	43622.90
508.68	43863.98
508.85	44224.42
509.03	44280.60
509.20	44226.76
509.38	44847.00
509.55	45001.48
509.73	44868.07
509.90	44938.29
510.08	44879.77
510.25	44989.78
510.42	45350.22
510.60	45333.84
510.77	45535.12
510.95	45855.78
511.12	45366.60
511.30	45352.56
511.47	45619.38
511.64	45998.55
511.82	46270.05
511.99	45680.24
512.17	46136.64
512.34	46330.90
512.51	46660.92
512.69	46190.47
512.86	46726.46
513.04	47075.19
513.21	46909.02
513.38	47000.30
513.56	47377.12
513.73	46953.49
513.90	47248.39
514.08	47054.13
514.25	47828.85
514.43	47597.13
514.60	47688.42
514.77	47510.53
514.95	48137.80
515.12	47852.25
515.29	47767.99
515.47	48161.20
515.64	48102.69
515.81	48332.06
515.99	48435.05
516.16	48744.00
516.33	48807.19
516.51	49017.84
516.68	48851.66
516.85	48633.99
517.03	49123.16
517.20	48996.77
517.37	49048.27
517.54	49195.72
517.72	49221.47
517.89	49148.91
518.06	49712.98
518.24	49539.78
518.41	49631.06
518.58	49542.12
518.75	49495.31
518.93	49705.96
519.10	49942.35
519.27	50241.94
519.45	50169.38
519.62	50443.23
519.79	50227.90
519.96	50204.49
520.14	50511.10
520.31	50520.46
520.48	50487.70
520.65	50649.19
520.83	50752.18
521.00	50913.67
521.17	51178.15
521.34	51103.26
521.52	51044.74
521.69	51100.92
521.86	51339.65
522.03	51625.20
522.20	51414.55
522.38	51887.34
522.55	51622.86
522.72	51646.26
522.89	51461.36
523.07	51515.19
523.24	51807.76
523.41	52090.96
523.58	51608.81
523.75	51943.51
523.92	51985.64
524.10	52399.91
524.27	51852.23
524.44	52423.32
524.61	52369.49
524.78	52617.58
524.96	52425.66
525.13	52523.96
525.30	52320.34
525.47	52842.27
525.64	52528.64
525.81	52776.74
525.98	52989.73
526.16	53111.44
526.33	52963.98
526.50	53263.57
526.67	53095.05
526.84	53176.97
527.01	53249.53
527.18	53160.59
527.36	53085.69
527.53	53169.95
527.70	53712.95
527.87	53588.91
528.04	53354.85
528.21	53567.84
528.38	53593.59
528.55	53495.28
528.72	53666.14
528.89	53624.01
529.07	53621.67
529.24	53712.95
529.41	54059.35
529.58	53773.81
529.75	54035.95
529.92	54136.59
530.09	54272.34
530.26	54155.32
530.43	54124.89
530.60	54160.00
530.77	54099.14
530.94	54330.86
531.11	54211.49
531.28	54443.20
531.46	54452.56
531.63	54504.06
531.80	54314.47
531.97	54597.68
532.14	54663.21
532.31	54698.32
532.48	54831.73
532.65	54822.37
532.82	54621.08
532.99	54845.77
533.16	54955.78
533.33	55103.23
533.50	55421.55
533.67	55030.68
533.84	54834.07
534.01	54740.45
534.18	55126.64
534.35	55395.80
534.52	55515.17
534.69	55414.52
534.86	55501.12
535.03	55168.77
535.20	55339.63
535.37	55597.09
535.54	55543.25
535.71	55154.72
535.88	55449.63
536.05	55660.28
536.22	56048.81
536.38	55913.06
536.55	55824.12
536.72	56037.11
536.89	55643.90
537.06	55976.25
537.23	56072.21
537.40	55667.30
537.57	55938.80
537.74	55983.27
537.91	56186.90
538.08	56123.71
538.25	55875.61
538.42	56177.54
538.59	56327.33
538.75	55987.95
538.92	56257.12
539.09	56505.21
539.26	56229.03
539.43	56282.86
539.60	56465.42
539.77	56446.70
539.94	56788.42
540.11	56570.75
540.28	56687.78
540.44	56816.50
540.61	56371.80
540.78	56362.44
540.95	56762.67
541.12	56697.14
541.29	56647.99
541.46	56729.90
541.62	56835.23
541.79	56711.18
541.96	56633.94
542.13	56800.12
542.30	56858.63
542.47	57179.29
542.63	56793.10
542.80	57064.60
542.97	57516.32
543.14	57418.02
543.31	57226.10
543.48	57441.43
543.64	57420.36
543.81	57551.43
543.98	57401.64
544.15	57530.37
544.32	57411.00
544.48	57839.32
544.65	57549.09
544.82	57490.58
544.99	57418.02
545.16	57640.37
545.32	57668.46
545.49	57790.17
545.66	58003.16
545.83	57907.19
546.00	58024.22
546.16	57951.66
546.33	57680.16
546.50	57733.99
546.67	57867.40
546.83	57546.75
547.00	58094.44
547.17	57825.28
547.34	58277.00
547.50	58040.60
547.67	58134.23
547.84	58199.76
548.00	58443.18
548.17	58422.11
548.34	58291.04
548.51	58342.53
548.67	58480.63
548.84	58370.62
549.01	58122.52
549.18	58419.77
549.34	58150.61
549.51	58410.41
549.68	58557.86
549.84	58672.55
550.01	58841.07
550.18	58618.72
550.34	58518.07
550.51	58838.73
550.68	58700.64
550.84	58649.14
551.01	58815.32
551.18	58679.57
551.34	58777.87
551.51	58871.49
551.68	58822.34
551.84	58915.96
552.01	58651.48
552.18	58969.80
552.34	58836.39
552.51	58958.09
552.68	58747.45
552.84	58829.37
553.01	59196.83
553.18	59192.15
553.34	59032.99
553.51	58962.78
553.67	58962.78
553.84	59110.23
554.01	59086.82
554.17	59166.40
554.34	59407.48
554.51	59227.26
554.67	59276.41
554.84	59196.83
555.00	58988.52
555.17	59126.61
555.33	59126.61
555.50	59250.66
555.67	59285.77
555.83	59437.90
556.00	59264.70
556.16	59475.35
556.33	59456.63
556.50	59351.30
556.66	59456.63
556.83	59341.94
556.99	59592.38
557.16	59678.98
557.32	59571.32
557.49	59779.62
557.65	59442.59
557.82	59676.64
557.98	59491.74
558.15	59533.87
558.32	59590.04
558.48	59554.93
558.65	59566.63
558.81	59718.77
558.98	59465.99
559.14	59622.81
559.31	59847.50
559.47	60025.38
559.64	60102.62
559.80	59983.25
559.97	60130.70
560.13	59751.54
560.30	59786.64
560.46	60004.31
560.63	59980.91
560.79	59962.18
560.96	60147.09
561.12	60116.66
561.29	59906.01
561.45	59936.44
561.61	59884.95
561.78	60149.43
561.94	60009.00
562.11	60137.72
562.27	60140.07
562.44	60247.73
562.60	60285.18
562.77	60147.09
562.93	60053.47
563.10	60310.92
563.26	60041.76
563.42	60441.99
563.59	60273.48
563.75	60205.60
563.92	60247.73
564.08	60259.43
564.24	60420.93
564.41	60271.14
564.57	60346.03
564.74	60102.62
564.90	60271.14
565.07	60257.09
565.23	60292.20
565.39	60250.07
565.56	60392.84
565.72	60360.08
565.88	60322.63
566.05	60140.07
566.21	60395.18
566.38	60741.58
566.54	60491.15
566.70	60645.62
566.87	60580.09
567.03	60388.16
567.19	60739.24
567.36	60434.97
567.52	60481.78
567.68	60669.03
567.85	60591.79
568.01	60685.41
568.17	60523.91
568.34	60519.23
568.50	60645.62
568.66	60418.59
568.83	60598.81
568.99	60544.98
569.15	60463.06
569.32	60329.65
569.48	60580.09
569.64	60633.92
569.81	60699.45
569.97	60488.80
570.13	60697.11
570.30	60481.78
570.46	60903.08
570.62	60856.27
570.78	60699.45
570.95	60577.75
571.11	60891.38
571.27	60769.67
571.43	60753.29
571.60	60954.57
571.76	60776.69
571.92	60898.40
572.09	60985.00
572.25	60926.49
572.41	60727.54
572.57	60727.54
572.74	61123.09
572.90	60889.04
573.06	60839.89
573.22	60762.65
573.38	60877.33
573.55	60886.70
573.71	60907.76
573.87	60954.57
574.03	60727.54
574.20	60884.36
574.36	60994.36
574.52	60891.38
574.68	61048.19
574.84	61010.74
575.01	60961.59
575.17	61031.81
575.33	60956.91
575.49	60853.93
575.65	61120.75
575.82	60842.23
575.98	61038.83
576.14	61183.94
576.30	61036.49
576.46	60818.82
576.62	61036.49
576.79	60945.21
576.95	60804.78
577.11	61080.96
577.27	61130.11
577.43	60994.36
577.59	60959.25
577.75	60942.87
577.92	60727.54
578.08	60832.86
578.24	61029.47
578.40	61031.81
578.56	61275.22
578.72	60966.27
578.88	61167.56
579.04	61102.03
579.21	61212.03
579.37	61312.67
579.53	61275.22
579.69	60938.19
579.85	60963.93
580.01	60949.89
580.17	60982.66
580.33	61312.67
580.49	61099.68
580.65	61249.48
580.82	61050.53
580.98	60872.65
581.14	60884.36
581.30	61401.61
581.46	61027.13
581.62	60952.23
581.78	61036.49
581.94	61200.33
582.10	60938.19
582.26	61092.66
582.42	61043.51
582.58	60992.02
582.74	61181.60
582.90	61024.79
583.06	61062.24
583.22	61001.38
583.38	61137.13
583.54	61214.37
583.70	61118.41
583.86	61291.61
584.02	60942.87
584.18	61406.30
584.34	61233.10
584.50	61268.20
584.66	60870.31
584.82	61050.53
584.98	61324.38
585.14	61303.31
585.30	61176.92
585.46	61195.65
585.62	61312.67
585.78	61418.00
585.94	61027.13
586.10	61368.85
586.26	61041.17
586.42	61357.14
586.58	61357.14
586.74	61483.53
586.90	61216.71
587.06	61144.16
587.22	61315.01
587.38	61240.12
587.54	61378.21
587.70	61336.08
587.86	61394.59
588.02	61200.33
588.18	61256.50
588.34	61263.52
588.49	61347.78
