SpectraSuite Data File
++++++++++++++++++++++++++++++++++++
Date: Fri Oct 25 11:25:06 EDT 2013
User: price-jones
Dark Spectrum Present: No
Reference Spectrum Present: No
Number of Sampled Component Spectra: 1
Spectrometers: USB2+H05261
Integration Time (usec): 100000 (USB2+H05261)
Spectra Averaged: 1 (USB2+H05261)
Boxcar Smoothing: 0 (USB2+H05261)
Correct for Electrical Dark: No (USB2+H05261)
Strobe/Lamp Enabled: No (USB2+H05261)
Correct for Detector Non-linearity: No (USB2+H05261)
Correct for Stray Light: No (USB2+H05261)
Number of Pixels in Processed Spectrum: 2048
>>>>>Begin Processed Spectral Data<<<<<
365.73	245.76
365.92	245.76
366.12	245.76
366.32	208.31
366.52	74.90
366.72	170.86
366.91	154.48
367.11	163.84
367.31	135.75
367.51	131.07
367.70	198.95
367.90	119.37
368.10	110.01
368.30	140.43
368.49	88.94
368.69	114.69
368.89	142.77
369.09	149.79
369.28	208.31
369.48	163.84
369.68	180.22
369.87	152.13
370.07	156.82
370.27	257.46
370.47	304.27
370.66	531.30
370.86	531.30
371.06	690.46
371.25	615.56
371.45	688.12
371.65	713.86
371.84	664.71
372.04	697.48
372.24	763.01
372.44	711.52
372.63	732.59
372.83	774.72
373.03	765.36
373.22	706.84
373.42	770.04
373.62	739.61
373.81	725.57
374.01	800.46
374.21	816.85
374.40	887.06
374.60	828.55
374.79	739.61
374.99	814.51
375.19	755.99
375.38	873.02
375.58	861.32
375.78	842.59
375.97	847.27
376.17	915.15
376.37	896.43
376.56	908.13
376.76	884.72
376.95	887.06
377.15	910.47
377.35	894.08
377.54	849.61
377.74	835.57
377.93	898.77
378.13	896.43
378.33	880.04
378.52	966.64
378.72	992.39
378.91	940.90
379.11	929.19
379.31	919.83
379.50	940.90
379.70	1048.56
379.89	1001.75
380.09	926.85
380.28	894.08
380.48	1027.50
380.68	1011.11
380.87	1034.52
381.07	1013.45
381.26	999.41
381.46	901.11
381.65	922.17
381.85	1043.88
382.04	1050.90
382.24	971.32
382.43	1013.45
382.63	992.39
382.83	1032.18
383.02	1132.82
383.22	1149.20
383.41	1090.69
383.61	966.64
383.80	1135.16
384.00	1102.39
384.19	1151.54
384.39	1174.95
384.58	1186.65
384.78	1086.01
384.97	1151.54
385.17	1074.31
385.36	1179.63
385.56	1088.35
385.75	1184.31
385.95	1198.35
386.14	1252.19
386.34	1142.18
386.53	1203.04
386.72	1188.99
386.92	1263.89
387.11	1249.85
387.31	1252.19
387.50	1177.29
387.70	1313.04
387.89	1226.44
388.09	1238.14
388.28	1254.53
388.48	1188.99
388.67	1245.16
388.86	1331.76
389.06	1329.42
389.25	1280.27
389.45	1275.59
389.64	1348.15
389.84	1366.87
390.03	1362.19
390.22	1404.32
390.42	1331.76
390.61	1380.92
390.81	1455.81
391.00	1465.18
391.19	1451.13
391.39	1427.73
391.58	1495.60
391.78	1399.64
391.97	1476.88
392.16	1511.99
392.36	1460.49
392.55	1624.33
392.75	1425.39
392.94	1497.94
393.13	1577.52
393.33	1507.30
393.52	1614.97
393.71	1621.99
393.91	1629.01
394.10	1486.24
394.29	1563.48
394.49	1570.50
394.68	1610.29
394.88	1549.43
395.07	1645.40
395.26	1720.29
395.46	1715.61
395.65	1689.87
395.84	1664.12
396.04	1764.76
396.23	1811.57
396.42	1696.89
396.62	1778.81
396.81	1717.95
397.00	1785.83
397.19	1727.32
397.39	1797.53
397.58	1790.51
397.77	1736.68
397.97	1827.96
398.16	1891.15
398.35	1842.00
398.55	1825.62
398.74	1895.83
398.93	1933.28
399.12	1877.11
399.32	1856.04
399.51	1916.90
399.70	1942.64
399.90	1975.41
400.09	1977.75
400.28	2015.20
400.47	2029.24
400.67	1973.07
400.86	2115.84
401.05	2162.66
401.24	2129.89
401.44	2176.70
401.63	2174.36
401.82	2080.74
402.01	2134.57
402.21	2160.31
402.40	2179.04
402.59	2211.81
402.78	2157.97
402.97	2263.30
403.17	2331.17
403.36	2270.32
403.55	2389.69
403.74	2270.32
403.93	2347.56
404.13	2312.45
404.32	2298.41
404.51	2293.72
404.70	2385.01
404.89	2401.39
405.09	2356.92
405.28	2406.07
405.47	2429.48
405.66	2459.90
405.85	2539.48
406.05	2469.27
406.24	2513.74
406.43	2651.83
406.62	2626.08
406.81	2593.31
407.00	2691.62
407.20	2607.36
407.39	2616.72
407.58	2771.19
407.77	2672.89
407.96	2700.98
408.15	2513.74
408.34	2656.51
408.54	2633.10
408.73	2848.43
408.92	2799.28
409.11	2979.50
409.30	2902.26
409.49	2855.45
409.68	2944.39
409.87	2916.31
410.07	3026.31
410.26	3021.63
410.45	2939.71
410.64	3133.98
410.83	3204.19
411.02	3042.70
411.21	3173.77
411.40	3138.66
411.59	3101.21
411.78	3183.13
411.98	3136.32
412.17	3206.53
412.36	3290.79
412.55	3445.27
412.74	3398.46
412.93	3262.71
413.12	3307.18
413.31	3473.36
413.50	3513.14
413.69	3552.93
413.88	3578.68
414.07	3651.24
414.26	3543.57
414.45	3599.74
414.64	3585.70
414.83	3805.71
415.02	3688.68
415.22	3782.31
415.41	3829.12
415.60	3861.88
415.79	3922.74
415.98	3922.74
416.17	3829.12
416.36	4044.45
416.55	3915.72
416.74	4009.34
416.93	3992.95
417.12	4117.00
417.31	4124.02
417.50	4133.39
417.69	4283.18
417.88	4229.35
418.07	4285.52
418.26	4203.60
418.45	4283.18
418.64	4456.38
418.83	4479.79
419.02	4311.27
419.21	4486.81
419.39	4578.09
419.58	4528.94
419.77	4458.72
419.96	4514.89
420.15	4535.96
420.34	4573.41
420.53	4578.09
420.72	4622.56
420.91	4643.62
421.10	4737.24
421.29	4795.76
421.48	4676.39
421.67	4835.55
421.86	4702.14
422.05	4737.24
422.24	4802.78
422.43	4753.63
422.61	4856.61
422.80	4816.82
422.99	4903.42
423.18	4877.68
423.37	4954.91
423.56	4940.87
423.75	4896.40
423.94	4734.90
424.13	4430.63
424.32	4734.90
424.50	5036.83
424.69	5135.14
424.88	5181.95
425.07	4999.38
425.26	4873.00
425.45	4805.12
425.64	4908.10
425.83	4816.82
426.01	4973.64
426.20	5011.09
426.39	5013.43
426.58	5114.07
426.77	4889.38
426.96	5032.15
427.15	5144.50
427.33	5200.67
427.52	5193.65
427.71	5247.48
427.90	5310.68
428.09	5322.38
428.28	5385.57
428.46	5284.93
428.65	5343.44
428.84	5397.28
429.03	5467.49
429.22	5483.88
429.40	5430.04
429.59	5423.02
429.78	5177.26
429.97	5128.11
430.16	5441.75
430.34	5397.28
430.53	5549.41
430.72	5792.83
430.91	5853.68
431.10	5664.10
431.28	5612.60
431.47	5603.24
431.66	5825.59
431.85	5750.70
432.03	5783.46
432.22	5856.02
432.41	5937.94
432.60	5783.46
432.79	5841.98
432.97	6029.22
433.16	5959.00
433.35	5916.87
433.54	6141.57
433.72	6136.88
433.91	6033.90
434.10	6153.27
434.28	5956.66
434.47	6071.35
434.66	6338.17
434.85	6300.72
435.03	6129.86
435.22	6246.89
435.41	6548.82
435.59	6356.90
435.78	6225.82
435.97	6408.39
436.16	6338.17
436.34	6232.85
436.53	6544.14
436.72	6698.61
436.90	6464.56
437.09	6593.29
437.28	6434.13
437.46	6616.69
437.65	6740.74
437.84	6703.29
438.02	6806.28
438.21	6775.85
438.40	6626.06
438.58	6724.36
438.77	7033.31
438.96	6946.71
439.14	7045.01
439.33	7155.02
439.52	7180.76
439.70	7180.76
439.89	7449.93
440.08	7274.38
440.26	7236.94
440.45	7365.67
440.63	7396.09
440.82	7499.08
441.01	7372.69
441.19	7452.27
441.38	7707.38
441.57	7581.00
441.75	7618.44
441.94	7906.33
442.12	7960.16
442.31	8079.53
442.50	7969.52
442.68	7922.71
442.87	7810.37
443.05	7920.37
443.24	8006.97
443.43	8086.55
443.61	8107.62
443.80	8407.20
443.98	7953.14
444.17	7880.58
444.35	8154.43
444.54	8449.33
444.73	8304.22
444.91	8226.98
445.10	8255.07
445.28	8318.26
445.47	8156.77
445.65	8269.11
445.84	8304.22
446.02	8414.23
446.21	8409.54
446.39	8365.07
446.58	8587.43
446.77	8231.66
446.95	8360.39
447.14	8355.71
447.32	8273.79
447.51	8643.60
447.69	8503.17
447.88	8528.91
448.06	8348.69
448.25	8346.35
448.43	8652.96
448.62	8437.63
448.80	8575.72
448.99	8779.35
449.17	8610.83
449.36	8449.33
449.54	8690.41
449.73	9057.87
449.91	8968.93
450.10	8987.66
450.28	9095.32
450.46	9020.42
450.65	8971.27
450.83	8994.68
451.02	8931.48
451.20	9060.21
451.39	9128.09
451.57	9228.73
451.76	8973.61
451.94	9217.03
452.13	9282.56
452.31	9130.43
452.49	9130.43
452.68	9090.64
452.86	9179.58
453.05	9460.45
453.23	9488.53
453.42	9352.78
453.60	9371.50
453.78	9348.10
453.97	9472.15
454.15	9289.59
454.34	9240.44
454.52	9554.07
454.70	9530.66
454.89	9652.37
455.07	9666.41
455.26	9797.48
455.44	10015.15
455.62	9860.68
455.81	9949.62
455.99	10099.41
456.17	9769.40
456.36	9914.51
456.54	10232.82
456.73	10326.44
456.91	10420.06
457.09	10429.43
457.28	10324.10
457.46	10312.40
457.64	10457.51
457.83	10429.43
458.01	10391.98
458.19	10635.39
458.38	10445.81
458.56	10654.12
458.74	10523.05
458.93	10602.63
459.11	10679.86
459.29	10714.97
459.48	10860.09
459.66	10640.08
459.84	10775.83
460.03	11080.10
460.21	10780.51
460.39	10864.77
460.57	10743.06
460.76	11016.90
460.94	11150.31
461.12	10906.90
461.31	11227.55
461.49	11318.83
461.67	11220.53
461.85	11431.18
462.04	11295.43
462.22	11716.72
462.40	11379.68
462.59	11459.26
462.77	11225.21
462.95	11447.56
463.13	11325.85
463.32	11564.59
463.50	11571.61
463.68	11761.19
463.86	11782.26
464.05	11571.61
464.23	11648.85
464.41	11702.68
464.59	11426.50
464.78	11957.80
464.96	11803.32
465.14	11681.61
465.32	12084.19
465.50	11742.47
465.69	12081.85
465.87	12095.89
466.05	12126.32
466.23	12044.40
466.41	12051.42
466.60	12461.01
466.78	12145.04
466.96	12004.61
467.14	12095.89
467.32	12416.54
467.51	12503.14
467.69	12077.16
467.87	12395.48
468.05	12276.11
468.23	12526.55
468.41	12311.22
468.60	12713.79
468.78	12573.36
468.96	12676.34
469.14	12470.37
469.32	12870.61
469.50	12800.39
469.69	12901.03
469.87	13081.25
470.05	12954.87
470.23	13011.04
470.41	12987.63
470.59	13209.98
470.77	12858.90
470.95	13317.65
471.14	13661.71
471.32	13355.10
471.50	13245.09
471.68	13659.37
471.86	13745.97
472.04	13427.65
472.22	14064.28
472.40	13593.83
472.58	13788.10
472.77	13760.01
472.95	14111.09
473.13	14314.72
473.31	14176.62
473.49	14211.73
473.67	14129.81
473.85	14146.20
474.03	14129.81
474.21	14438.76
474.39	14759.42
474.57	14328.76
474.75	15037.94
474.93	15206.46
475.12	14883.47
475.30	15222.84
475.48	14733.67
475.66	14846.02
475.84	14831.97
476.02	15173.69
476.20	15335.19
476.38	15325.83
476.56	15894.58
476.74	15676.91
476.92	15817.34
477.10	15599.67
477.28	16039.69
477.46	16278.43
477.64	16430.56
477.82	16383.75
478.00	16830.79
478.18	16521.84
478.36	16568.65
478.54	17015.69
478.72	17015.69
478.90	17179.53
479.08	17256.77
479.26	17713.17
479.44	17577.42
479.62	17486.14
479.80	17825.52
479.98	17980.00
480.16	18370.86
480.34	17846.58
480.52	18277.24
480.70	18443.42
480.88	18389.59
481.06	18665.77
481.24	18731.31
481.41	19105.79
481.59	19234.52
481.77	19349.21
481.95	19433.47
482.13	19723.69
482.31	19609.01
482.49	19995.20
482.67	20081.80
482.85	20336.91
483.03	20655.23
483.21	20812.04
483.39	21034.39
483.57	20879.92
483.74	21165.46
483.92	21486.12
484.10	21010.99
484.28	21617.19
484.46	21898.05
484.64	22401.27
484.82	21528.25
485.00	22335.73
485.18	22567.45
485.35	22932.57
485.53	22530.00
485.71	22733.62
485.89	23271.95
486.07	23260.24
486.25	23484.94
486.43	23718.99
486.61	23473.23
486.78	23843.04
486.96	24254.97
487.14	24308.80
487.32	24680.95
487.50	24603.71
487.68	24737.12
487.85	24917.34
488.03	25607.80
488.21	25663.97
488.39	25783.34
488.57	25876.96
488.75	26197.62
488.92	26286.56
489.10	26492.52
489.28	26583.80
489.46	26883.39
489.64	27056.59
489.81	27391.29
489.99	27520.02
490.17	27576.19
490.35	28154.30
490.53	28224.52
490.70	28259.63
490.88	28027.92
491.06	29053.07
491.24	28767.52
491.41	28800.29
491.59	29324.57
491.77	29504.79
491.95	29600.76
492.13	29399.47
492.30	29762.25
492.48	29881.62
492.66	30176.53
492.84	30429.30
493.01	30373.13
493.19	30436.33
493.37	30480.80
493.54	31297.64
493.72	31204.02
493.90	31330.41
494.08	31601.91
494.25	31854.69
494.43	31824.26
494.61	32133.21
494.79	32271.31
494.96	32275.99
495.14	32610.68
495.32	32711.33
495.49	32849.42
495.67	33090.49
495.85	33577.33
496.02	33759.89
496.20	33535.20
496.38	34005.64
496.55	33645.20
496.73	34796.74
496.91	34291.19
497.09	34593.12
497.26	34951.22
497.44	34845.90
497.62	34586.10
497.79	35611.25
497.97	35026.12
498.14	35763.39
498.32	35679.13
498.50	35798.49
498.67	36266.60
498.85	36154.26
499.03	36521.72
499.20	36545.12
499.38	36739.39
499.56	36985.15
499.73	36980.46
499.91	37216.86
500.08	37188.77
500.26	37333.89
500.44	37249.63
500.61	37837.10
500.79	37682.62
500.97	37977.53
501.14	38288.82
501.32	38476.07
501.49	38101.58
501.67	38747.57
501.84	38986.30
502.02	38780.34
502.20	38873.96
502.37	38660.97
502.55	38857.57
502.72	39220.36
502.90	39480.16
503.07	39416.96
503.25	39548.03
503.43	39433.35
503.60	39751.66
503.78	39845.28
503.95	40126.14
504.13	40470.20
504.30	40547.44
504.48	40203.38
504.65	40795.54
504.83	40540.42
505.01	40615.32
505.18	40996.82
505.36	41546.85
505.53	41127.89
505.71	41120.87
505.88	41553.87
506.06	41198.11
506.23	41694.30
506.41	41820.69
506.58	41909.63
506.76	41682.60
506.93	42562.64
507.11	42080.49
507.28	42560.30
507.46	42433.91
507.63	42487.74
507.81	43100.97
507.98	42674.99
508.16	43014.37
508.33	42904.36
508.50	43309.27
508.68	43175.86
508.85	43791.42
509.03	43625.25
509.20	43587.80
509.38	44018.46
509.55	43938.88
509.73	44032.50
509.90	44680.83
510.08	43873.34
510.25	44755.72
510.42	44655.08
510.60	44746.36
510.77	44989.78
510.95	45193.40
511.12	44870.41
511.30	44863.39
511.47	45471.93
511.64	45221.49
511.82	45624.06
511.99	45771.52
512.17	45598.32
512.34	45874.50
512.51	46602.41
512.69	46581.34
512.86	46115.58
513.04	46536.87
513.21	46293.46
513.38	46557.94
513.56	46328.56
513.73	46321.54
513.90	46574.32
514.08	46806.03
514.25	47122.01
514.43	46913.70
514.60	47035.41
514.77	47400.53
514.95	47239.03
515.12	47339.68
515.29	47110.30
515.47	47524.58
515.64	48034.81
515.81	47856.93
515.99	47955.24
516.16	48144.82
516.33	47922.47
516.51	48418.66
516.68	47995.03
516.85	48266.53
517.03	48502.92
517.20	48559.09
517.37	48856.34
517.54	48381.21
517.72	48521.65
517.89	48652.72
518.06	49179.34
518.24	49385.30
518.41	48999.12
518.58	49153.59
518.75	48715.91
518.93	49593.61
519.10	49294.02
519.27	49710.64
519.45	49373.60
519.62	49406.37
519.79	49734.04
519.96	49743.41
520.14	49879.16
520.31	50024.27
520.48	50181.09
520.65	50342.58
520.83	50216.19
521.00	50557.91
521.17	50506.42
521.34	50417.48
521.52	50370.67
521.69	50445.57
521.86	50878.57
522.03	50831.75
522.20	51332.63
522.38	51051.76
522.55	51253.05
522.72	51178.15
522.89	51316.25
523.07	51264.75
523.24	51262.41
523.41	51585.41
523.58	51398.16
523.75	51657.96
523.92	51753.93
524.10	51774.99
524.27	51875.63
524.44	52093.30
524.61	51889.68
524.78	51903.72
524.96	51987.98
525.13	52200.97
525.30	52051.17
525.47	52383.53
525.64	52140.11
525.81	52317.99
525.98	52619.92
526.16	52498.22
526.33	52425.66
526.50	52921.85
526.67	52493.54
526.84	52678.44
527.01	52729.93
527.18	52825.89
527.36	52601.20
527.53	52928.87
527.70	53085.69
527.87	53076.33
528.04	53013.13
528.21	53020.16
528.38	53169.95
528.55	53387.62
528.72	53350.17
528.89	53219.10
529.07	53223.78
529.24	53202.72
529.41	53542.10
529.58	53286.98
529.75	53544.44
529.92	53535.07
530.09	53771.47
530.26	53773.81
530.43	53820.62
530.60	53670.82
530.77	53862.75
530.94	53895.52
531.11	53851.05
531.28	53862.75
531.46	53815.94
531.63	54204.47
531.80	54145.95
531.97	54227.87
532.14	54167.02
532.31	54365.96
532.48	54258.30
532.65	54433.84
532.82	54052.33
532.99	54480.65
533.16	54536.82
533.33	54475.97
533.50	54796.62
533.67	54609.38
533.84	54665.55
534.01	54553.21
534.18	54784.92
534.35	55009.61
534.52	55051.74
534.69	55061.10
534.86	55058.76
535.03	54913.65
535.20	55061.10
535.37	55241.32
535.54	55075.15
535.71	55257.71
535.88	55199.19
536.05	55196.85
536.22	55526.87
536.38	55288.13
536.55	55592.40
536.72	55547.93
536.89	55475.38
537.06	55433.25
537.23	55770.28
537.40	55491.76
537.57	55707.09
537.74	55522.19
537.91	55863.91
538.08	55781.99
538.25	55421.55
538.42	55679.00
538.59	55992.64
538.75	55653.26
538.92	56067.53
539.09	56156.47
539.26	56065.19
539.43	55884.97
539.60	55828.80
539.77	56009.02
539.94	56231.37
540.11	56069.87
540.28	56154.13
540.44	56100.30
540.61	56388.19
540.78	56334.35
540.95	56135.41
541.12	56317.97
541.29	56247.75
541.46	56339.04
541.62	56453.72
541.79	56409.25
541.96	56280.52
542.13	56315.63
542.30	56526.28
542.47	56545.00
542.63	56470.11
542.80	56860.97
542.97	56919.49
543.14	57172.27
543.31	56734.59
543.48	57013.11
543.64	57195.67
543.81	57256.53
543.98	57050.56
544.15	57233.12
544.32	57247.16
544.48	57350.15
544.65	57195.67
544.82	57256.53
544.99	57031.83
545.16	57308.02
545.32	57158.22
545.49	57570.16
545.66	57684.84
545.83	57455.47
546.00	57425.04
546.16	57605.26
546.33	57153.54
546.50	57221.42
546.67	57858.04
546.83	57544.41
547.00	57724.63
547.17	57595.90
547.34	57642.71
547.50	57696.55
547.67	57752.72
547.84	58003.16
548.00	58059.33
548.17	58071.03
548.34	57925.92
548.51	58061.67
548.67	58204.44
548.84	58021.88
549.01	57911.88
549.18	58078.05
549.34	58157.63
549.51	58211.46
549.68	57954.00
549.84	58178.70
550.01	58248.91
550.18	58141.25
550.34	58417.43
550.51	58361.26
550.68	58344.87
550.84	58026.56
551.01	58323.81
551.18	58220.83
551.34	58494.67
551.51	58391.68
551.68	58422.11
551.84	58550.84
552.01	58234.87
552.18	58553.18
552.34	58543.82
552.51	58632.76
552.68	58293.38
552.84	58578.93
553.01	58705.32
553.18	58679.57
553.34	58588.29
553.51	58679.57
553.67	58726.38
553.84	58794.26
554.01	58791.92
554.17	58972.14
554.34	58937.03
554.51	58838.73
554.67	58986.18
554.84	58712.34
555.00	58801.28
555.17	58958.09
555.33	59103.21
555.50	58869.15
555.67	58878.52
555.83	58766.17
556.00	59014.27
556.16	59025.97
556.33	59047.04
556.50	59131.29
556.66	59330.24
556.83	59152.36
556.99	59037.67
557.16	59220.23
557.32	59234.28
557.49	59353.65
557.65	59320.88
557.82	59288.11
557.98	59391.09
558.15	59416.84
558.32	59363.01
558.48	59337.26
558.65	59330.24
558.81	59290.45
558.98	59384.07
559.14	59671.96
559.31	59381.73
559.47	59568.97
559.64	59615.79
559.80	59533.87
559.97	59538.55
560.13	59524.50
560.30	59690.68
560.46	59498.76
560.63	59803.03
560.79	59917.71
560.96	59709.41
561.12	59608.76
561.29	59573.66
561.45	59611.10
561.61	59657.91
561.78	59786.64
561.94	59854.52
562.11	59849.84
562.27	59938.78
562.44	59901.33
562.60	59980.91
562.77	59880.27
562.93	59765.58
563.10	59746.86
563.26	59742.17
563.42	60221.98
563.59	59765.58
563.75	59873.24
563.92	59817.07
564.08	59810.05
564.24	60018.36
564.41	60109.64
564.57	60058.15
564.74	60062.83
564.90	60039.42
565.07	59957.50
565.23	60041.76
565.39	60037.08
565.56	60060.49
565.72	60004.31
565.88	60165.81
566.05	60147.09
566.21	60058.15
566.38	60177.51
566.54	60123.68
566.70	60093.25
566.87	60086.23
567.03	59969.21
567.19	60427.95
567.36	60175.17
567.52	59929.42
567.68	60505.19
567.85	60294.54
568.01	60303.90
568.17	60140.07
568.34	60133.04
568.50	60193.90
568.66	60406.89
568.83	60451.36
568.99	60257.09
569.15	60392.84
569.32	60130.70
569.48	60247.73
569.64	60259.43
569.81	60250.07
569.97	60301.56
570.13	60250.07
570.30	60301.56
570.46	60299.22
570.62	60310.92
570.78	60498.17
570.95	60343.69
571.11	60580.09
571.27	60264.11
571.43	60348.37
571.60	60566.04
571.76	60343.69
571.92	60533.28
572.09	60486.46
572.25	60451.36
572.41	60467.74
572.57	60584.77
572.74	60615.19
572.90	60341.35
573.06	60573.06
573.22	60388.16
573.38	60477.10
573.55	60500.51
573.71	60697.11
573.87	60587.11
574.03	60474.76
574.20	60680.73
574.36	60495.83
574.52	60432.63
574.68	60523.91
574.84	60786.05
575.01	60767.33
575.17	60582.43
575.33	60456.04
575.49	60481.78
575.65	60537.96
575.82	60821.16
575.98	60720.52
576.14	60905.42
576.30	60692.43
576.46	60647.96
576.62	60774.35
576.79	60638.60
576.95	60540.30
577.11	60701.79
577.27	60633.92
577.43	60552.00
577.59	60722.86
577.75	60537.96
577.92	60561.36
578.08	60591.79
578.24	60659.66
578.40	60638.60
578.56	60891.38
578.72	60708.82
578.88	60879.67
579.04	60992.02
579.21	60732.22
579.37	60748.60
579.53	60720.52
579.69	60477.10
579.85	60470.08
580.01	60554.34
580.17	60713.50
580.33	60804.78
580.49	60694.77
580.65	60919.46
580.82	60633.92
580.98	60622.22
581.14	60772.01
581.30	61078.62
581.46	60879.67
581.62	60748.60
581.78	60746.26
581.94	60893.72
582.10	60718.18
582.26	60615.19
582.42	60711.16
582.58	60851.59
582.74	60725.20
582.90	60980.32
583.06	60636.26
583.22	60736.90
583.38	60811.80
583.54	60926.49
583.70	60750.94
583.86	60844.57
584.02	60729.88
584.18	60907.76
584.34	60926.49
584.50	60954.57
584.66	60814.14
584.82	60809.46
584.98	61085.64
585.14	60804.78
585.30	60811.80
585.46	60903.08
585.62	60804.78
585.78	60912.44
585.94	60678.39
586.10	60966.27
586.26	60928.83
586.42	61059.90
586.58	60975.64
586.74	61020.11
586.90	60853.93
587.06	60809.46
587.22	61176.92
587.38	61155.86
587.54	61064.58
587.70	61102.03
587.86	61080.96
588.02	60874.99
588.18	61066.92
588.34	60889.04
588.49	60961.59
