SpectraSuite Data File
++++++++++++++++++++++++++++++++++++
Date: Fri Oct 25 11:34:46 EDT 2013
User: price-jones
Dark Spectrum Present: No
Reference Spectrum Present: No
Number of Sampled Component Spectra: 1
Spectrometers: USB2+H05261
Integration Time (usec): 100000 (USB2+H05261)
Spectra Averaged: 1 (USB2+H05261)
Boxcar Smoothing: 0 (USB2+H05261)
Correct for Electrical Dark: No (USB2+H05261)
Strobe/Lamp Enabled: No (USB2+H05261)
Correct for Detector Non-linearity: No (USB2+H05261)
Correct for Stray Light: No (USB2+H05261)
Number of Pixels in Processed Spectrum: 2048
>>>>>Begin Processed Spectral Data<<<<<
365.73	271.50
365.92	271.50
366.12	271.50
366.32	173.20
366.52	208.31
366.72	243.42
366.91	184.90
367.11	191.92
367.31	117.03
367.51	131.07
367.70	236.39
367.90	201.29
368.10	236.39
368.30	227.03
368.49	184.90
368.69	210.65
368.89	208.31
369.09	191.92
369.28	180.22
369.48	203.63
369.68	182.56
369.87	196.60
370.07	273.84
370.27	315.97
370.47	306.61
370.66	442.36
370.86	425.98
371.06	517.26
371.25	519.60
371.45	547.69
371.65	538.32
371.84	545.34
372.04	566.41
372.24	617.90
372.44	566.41
372.63	573.43
372.83	571.09
373.03	568.75
373.22	610.88
373.42	622.58
373.62	636.63
373.81	669.39
374.01	610.88
374.21	634.29
374.40	592.16
374.60	653.01
374.79	568.75
374.99	709.18
375.19	667.05
375.38	690.46
375.58	704.50
375.78	641.31
375.97	624.92
376.17	674.07
376.37	681.10
376.56	671.73
376.76	592.16
376.95	695.14
377.15	664.71
377.35	697.48
377.54	653.01
377.74	669.39
377.93	781.74
378.13	667.05
378.33	643.65
378.52	676.41
378.72	648.33
378.91	709.18
379.11	734.93
379.31	629.60
379.50	697.48
379.70	732.59
379.89	753.65
380.09	688.12
380.28	751.31
380.48	669.39
380.68	720.88
380.87	734.93
381.07	734.93
381.26	746.63
381.46	730.25
381.65	755.99
381.85	763.01
382.04	739.61
382.24	671.73
382.43	765.36
382.63	788.76
382.83	793.44
383.02	784.08
383.22	683.44
383.41	765.36
383.61	744.29
383.80	814.51
384.00	720.88
384.19	784.08
384.39	889.40
384.58	830.89
384.78	788.76
384.97	823.87
385.17	734.93
385.36	774.72
385.56	786.42
385.75	828.55
385.95	851.96
386.14	856.64
386.34	795.78
386.53	798.12
386.72	805.14
386.92	779.40
387.11	807.48
387.31	821.53
387.50	866.00
387.70	887.06
387.89	924.51
388.09	891.74
388.28	870.68
388.48	844.93
388.67	980.68
388.86	968.98
389.06	894.08
389.25	863.66
389.45	882.38
389.64	938.55
389.84	952.60
390.03	936.21
390.22	954.94
390.42	954.94
390.61	994.73
390.81	882.38
391.00	917.49
391.19	980.68
391.39	959.62
391.58	971.32
391.78	1020.47
391.97	985.37
392.16	903.45
392.36	1027.50
392.55	985.37
392.75	985.37
392.94	954.94
393.13	1022.81
393.33	1025.15
393.52	954.94
393.71	1006.43
393.91	1074.31
394.10	1055.58
394.29	1015.79
394.49	1090.69
394.68	1060.26
394.88	1076.65
395.07	1069.62
395.26	1095.37
395.46	1043.88
395.65	1116.44
395.84	1109.41
396.04	1191.33
396.23	1083.67
396.42	1233.46
396.62	1132.82
396.81	1165.59
397.00	1107.07
397.19	1160.91
397.39	1235.80
397.58	1172.61
397.77	1146.86
397.97	1214.74
398.16	1214.74
398.35	1261.55
398.55	1238.14
398.74	1280.27
398.93	1277.93
399.12	1247.51
399.32	1188.99
399.51	1233.46
399.70	1280.27
399.90	1263.89
400.09	1273.25
400.28	1336.45
400.47	1331.76
400.67	1324.74
400.86	1247.51
401.05	1362.19
401.24	1390.28
401.44	1263.89
401.63	1364.53
401.82	1336.45
402.01	1317.72
402.21	1413.68
402.40	1488.58
402.59	1432.41
402.78	1399.64
402.97	1514.33
403.17	1493.26
403.36	1540.07
403.55	1542.41
403.74	1497.94
403.93	1579.86
404.13	1523.69
404.32	1476.88
404.51	1554.12
404.70	1600.93
404.89	1542.41
405.09	1526.03
405.28	1530.71
405.47	1556.46
405.66	1673.48
405.85	1647.74
406.05	1612.63
406.24	1678.16
406.43	1664.12
406.62	1706.25
406.81	1750.72
407.00	1685.19
407.20	1764.76
407.39	1673.48
407.58	1792.85
407.77	1797.53
407.96	1799.87
408.15	1888.81
408.34	1799.87
408.54	1755.40
408.73	1912.22
408.92	1856.04
409.11	1746.04
409.30	1842.00
409.49	1865.41
409.68	1942.64
409.87	1858.39
410.07	1893.49
410.26	2076.06
410.45	1952.01
410.64	1900.52
410.83	2090.10
411.02	1996.48
411.21	2092.44
411.40	2022.22
411.59	2150.95
411.78	2040.95
411.98	2111.16
412.17	2087.76
412.36	2174.36
412.55	2157.97
412.74	2181.38
412.93	2242.23
413.12	2230.53
413.31	2298.41
413.50	2228.19
413.69	2291.38
413.88	2354.58
414.07	2352.24
414.26	2368.62
414.45	2387.35
414.64	2342.88
414.83	2553.52
415.02	2492.67
415.22	2466.92
415.41	2574.59
415.60	2434.16
415.79	2579.27
415.98	2682.25
416.17	2595.65
416.36	2555.86
416.55	2534.80
416.74	2775.88
416.93	2565.23
417.12	2668.21
417.31	2607.36
417.50	2612.04
417.69	2803.96
417.88	2878.86
418.07	2808.64
418.26	2820.35
418.45	2801.62
418.64	2843.75
418.83	2904.60
419.02	2810.98
419.21	2855.45
419.39	2979.50
419.58	2876.52
419.77	2897.58
419.96	2928.01
420.15	3019.29
420.34	2958.44
420.53	2972.48
420.72	3049.72
420.91	2988.86
421.10	3075.46
421.29	3105.89
421.48	3112.91
421.67	3019.29
421.86	3192.49
422.05	3176.11
422.24	3220.58
422.43	3164.40
422.61	3087.17
422.80	3180.79
422.99	3335.26
423.18	3318.88
423.37	3131.64
423.56	3260.37
423.75	3325.90
423.94	3190.15
424.13	3042.70
424.32	3110.57
424.50	3229.94
424.69	3213.56
424.88	3375.05
425.07	3323.56
425.26	3194.83
425.45	3213.56
425.64	3286.11
425.83	3356.33
426.01	3307.18
426.20	3386.76
426.39	3396.12
426.58	3384.41
426.77	3339.94
426.96	3403.14
427.15	3356.33
427.33	3407.82
427.52	3403.14
427.71	3555.27
427.90	3585.70
428.09	3494.42
428.28	3536.55
428.46	3492.08
428.65	3445.27
428.84	3559.95
429.03	3527.19
429.22	3463.99
429.40	3508.46
429.59	3506.12
429.78	3506.12
429.97	3564.64
430.16	3522.51
430.34	3658.26
430.53	3581.02
430.72	3700.39
430.91	3651.24
431.10	3688.68
431.28	3756.56
431.47	3735.50
431.66	3801.03
431.85	3667.62
432.03	3901.67
432.22	3927.42
432.41	3810.39
432.60	3829.12
432.79	3751.88
432.97	3932.10
433.16	3934.44
433.35	3803.37
433.54	4084.23
433.72	4128.70
433.91	4037.42
434.10	3929.76
434.28	3911.04
434.47	4175.52
434.66	3997.64
434.85	4081.89
435.03	4140.41
435.22	4070.19
435.41	4152.11
435.59	4187.22
435.78	4196.58
435.97	4217.65
436.16	4119.34
436.34	4170.83
436.53	4259.78
436.72	4203.60
436.90	4294.88
437.09	4416.59
437.28	4227.01
437.46	4217.65
437.65	4287.86
437.84	4507.87
438.02	4297.22
438.21	4348.72
438.40	4311.27
438.58	4458.72
438.77	4542.98
438.96	4468.08
439.14	4505.53
439.33	4566.39
439.52	4645.96
439.70	4606.17
439.89	4816.82
440.08	4690.43
440.26	4798.10
440.45	4681.07
440.63	4709.16
440.82	4837.89
441.01	4809.80
441.19	5015.77
441.38	4952.57
441.57	4924.49
441.75	5013.43
441.94	5261.52
442.12	5093.01
442.31	5128.11
442.50	5006.41
442.68	5151.52
442.87	5226.42
443.05	5261.52
443.24	5207.69
443.43	5280.25
443.61	5294.29
443.80	5507.28
443.98	5100.03
444.17	5013.43
444.35	5444.09
444.54	5476.85
444.73	5476.85
444.91	5366.85
445.10	5453.45
445.28	5270.89
445.47	5366.85
445.65	5469.83
445.84	5528.35
446.02	5282.59
446.21	5497.92
446.39	5373.87
446.58	5495.58
446.77	5369.19
446.95	5287.27
447.14	5336.42
447.32	5500.26
447.51	5476.85
447.69	5497.92
447.88	5502.60
448.06	5420.68
448.25	5355.15
448.43	5612.60
448.62	5425.36
448.80	5526.00
448.99	5535.37
449.17	5593.88
449.36	5526.00
449.54	5820.91
449.73	5809.21
449.91	5792.83
450.10	5748.36
450.28	5809.21
450.46	5870.06
450.65	5909.85
450.83	5727.29
451.02	5870.06
451.20	5856.02
451.39	5928.58
451.57	5771.76
451.76	5699.20
451.94	5841.98
452.13	6031.56
452.31	6120.50
452.49	5879.43
452.68	5980.07
452.86	5916.87
453.05	6047.94
453.23	6001.13
453.42	5898.15
453.60	5982.41
453.78	6061.99
453.97	6015.18
454.15	6080.71
454.34	5987.09
454.52	6143.91
454.70	6090.07
454.89	6181.35
455.07	6218.80
455.26	6401.37
455.44	6342.85
455.62	6441.15
455.81	6317.11
455.99	6420.09
456.17	6473.92
456.36	6312.42
456.54	6457.54
456.73	6499.67
456.91	6619.04
457.09	6572.22
457.28	6794.58
457.46	6506.69
457.64	6623.72
457.83	6530.09
458.01	6654.14
458.19	6778.19
458.38	6782.87
458.56	6794.58
458.74	6810.96
458.93	6743.08
459.11	6822.66
459.29	6717.34
459.48	6911.60
459.66	6963.09
459.84	7063.74
460.03	6965.43
460.21	6916.28
460.39	6958.41
460.57	7157.36
460.76	7183.10
460.94	6979.48
461.12	7045.01
461.31	7117.57
461.49	7007.56
461.67	7192.47
461.85	7400.77
462.04	7023.95
462.22	7330.56
462.40	7307.15
462.59	7260.34
462.77	7328.22
462.95	7372.69
463.13	7267.36
463.32	7449.93
463.50	7372.69
463.68	7353.96
463.86	7742.49
464.05	7269.70
464.23	7276.73
464.41	7557.59
464.59	7417.16
464.78	7728.45
464.96	7562.27
465.14	7489.71
465.32	7611.42
465.50	7756.54
465.69	7578.65
465.87	7768.24
466.05	7770.58
466.23	7609.08
466.41	7866.54
466.60	8021.02
466.78	7655.89
466.96	7751.85
467.14	7798.66
467.32	7831.43
467.51	7805.69
467.69	7679.30
467.87	7679.30
468.05	7847.82
468.23	7953.14
468.41	7768.24
468.60	7845.48
468.78	7866.54
468.96	7988.25
469.14	8140.38
469.32	8187.19
469.50	8149.75
469.69	8138.04
469.87	8266.77
470.05	8346.35
470.23	8327.63
470.41	8241.03
470.59	8388.48
470.77	8341.67
470.95	8229.32
471.14	8615.51
471.32	8226.98
471.50	8549.98
471.68	8538.27
471.86	8620.19
472.04	8706.79
472.22	8809.78
472.40	8697.43
472.58	8741.90
472.77	8669.34
472.95	8868.29
473.13	8978.30
473.31	8826.16
473.49	8910.42
473.67	8856.59
473.85	9034.47
474.03	9195.96
474.21	9165.54
474.39	9107.02
474.57	9411.29
474.75	9420.66
474.93	9348.10
475.12	9525.98
475.30	9432.36
475.48	9425.34
475.66	9542.36
475.84	9610.24
476.02	9804.50
476.20	9825.57
476.38	9799.82
476.56	9926.21
476.74	10008.13
476.92	9872.38
477.10	9778.76
477.28	10204.74
477.46	10015.15
477.64	10181.33
477.82	10289.00
478.00	10424.75
478.18	10539.43
478.36	10621.35
478.54	10539.43
478.72	10759.44
478.90	10824.98
479.08	10740.72
479.26	11007.54
479.44	10988.82
479.62	11002.86
479.80	11112.86
479.98	11297.77
480.16	11520.12
480.34	11367.98
480.52	11599.70
480.70	11466.28
480.88	11508.41
481.06	11667.57
481.24	11744.81
481.41	11932.05
481.59	12056.10
481.77	12020.99
481.95	11995.25
482.13	12224.62
482.31	12191.85
482.49	12526.55
482.67	12372.07
482.85	12414.20
483.03	12634.21
483.21	12730.17
483.39	12889.33
483.57	12882.31
483.74	13121.04
483.92	13013.38
484.10	13228.71
484.28	13731.92
484.46	13654.69
484.64	13926.19
484.82	13633.62
485.00	13713.20
485.18	13853.63
485.35	14239.82
485.53	14181.31
485.71	14211.73
485.89	14473.87
486.07	14242.16
486.25	14420.04
486.43	14497.28
486.61	14593.24
486.78	14876.44
486.96	14904.53
487.14	15183.06
487.32	15051.99
487.50	15234.55
487.68	15382.00
487.85	15700.31
488.03	15768.19
488.21	15906.28
488.39	16107.57
488.57	16339.28
488.75	16339.28
488.92	16299.49
489.10	16219.91
489.28	16561.63
489.46	16854.20
489.64	16847.18
489.81	17106.98
489.99	17095.27
490.17	17132.72
490.35	17432.31
490.53	17514.23
490.70	17741.26
490.88	17193.58
491.06	17874.67
491.24	17781.05
491.41	17877.01
491.59	18192.98
491.77	17956.59
491.95	18097.02
492.13	18417.68
492.30	18382.57
492.48	18396.61
492.66	18560.45
492.84	18689.18
493.01	18937.27
493.19	18944.30
493.37	19009.83
493.54	19147.92
493.72	19463.90
493.90	19573.90
494.08	19751.78
494.25	19655.82
494.43	19765.82
494.61	19892.21
494.79	19941.36
494.96	19873.49
495.14	20573.31
495.32	20435.22
495.49	20732.47
495.67	20514.80
495.85	20912.69
496.02	20748.85
496.20	20966.52
496.38	20961.84
496.55	21139.72
496.73	21413.56
496.91	21296.53
497.09	21275.47
497.26	21675.70
497.44	21490.80
497.62	21462.71
497.79	22094.66
497.97	21717.83
498.14	21954.22
498.32	22120.40
498.50	22279.56
498.67	22616.60
498.85	22478.50
499.03	22714.90
499.20	22717.24
499.38	23140.88
499.56	22546.38
499.73	23166.62
499.91	23101.09
500.08	23487.28
500.26	23290.67
500.44	23274.29
500.61	23466.21
500.79	23234.50
500.97	23601.96
501.14	23880.49
501.32	23939.00
501.49	23672.18
501.67	23988.15
501.84	24144.97
502.02	24074.75
502.20	23852.40
502.37	24130.92
502.55	24306.46
502.72	24622.44
502.90	24474.98
503.07	24608.39
503.25	24390.72
503.43	24180.07
503.60	24889.26
503.78	24987.56
503.95	24606.05
504.13	24886.92
504.30	25111.61
504.48	25135.01
504.65	25266.08
504.83	25352.68
505.01	25862.92
505.18	25483.75
505.36	25832.49
505.53	25476.73
505.71	25893.35
505.88	26008.03
506.06	25804.41
506.23	25776.32
506.41	25605.46
506.58	26199.96
506.76	26036.12
506.93	26384.86
507.11	26551.04
507.28	26518.27
507.46	26656.36
507.63	26558.06
507.81	26916.16
507.98	26628.27
508.16	26848.29
508.33	26644.66
508.50	26932.54
508.68	26766.37
508.85	27159.58
509.03	27218.09
509.20	27676.83
509.38	27351.50
509.55	27688.54
509.73	27875.78
509.90	27578.53
510.08	27658.11
510.25	27950.68
510.42	27880.46
510.60	28109.83
510.77	27997.49
510.95	28346.23
511.12	28409.42
511.30	27709.60
511.47	28493.68
511.64	28032.60
511.82	28196.43
511.99	28521.77
512.17	28444.53
512.34	28741.78
512.51	29057.75
512.69	29053.07
512.86	28980.51
513.04	29198.18
513.21	29041.37
513.38	29233.29
513.56	29397.13
513.73	29109.24
513.90	29333.93
514.08	29228.61
514.25	29415.85
514.43	29813.74
514.60	29722.46
514.77	29455.64
514.95	29881.62
515.12	29443.94
515.29	29827.79
515.47	29792.68
515.64	30487.82
515.81	29996.31
515.99	30099.29
516.16	30679.74
516.33	30501.86
516.51	30511.22
516.68	30333.34
516.85	30321.64
517.03	30445.69
517.20	30738.26
517.37	30396.54
517.54	30714.85
517.72	31147.85
517.89	31033.16
518.06	31213.38
518.24	31402.97
518.41	31459.14
518.58	30984.01
518.75	30815.49
518.93	31250.83
519.10	31405.31
519.27	31253.17
519.45	31606.59
519.62	31625.32
519.79	31917.89
519.96	31545.74
520.14	31615.96
520.31	31510.63
520.48	31772.77
520.65	32044.27
520.83	32517.06
521.00	32531.11
521.17	32198.75
521.34	32362.59
521.52	32444.51
521.69	32608.34
521.86	32414.08
522.03	32692.60
522.20	32575.58
522.38	33092.83
522.55	32779.20
522.72	33064.75
522.89	33111.56
523.07	33397.10
523.24	32840.06
523.41	33521.15
523.58	32842.40
523.75	33600.73
523.92	32900.91
524.10	33418.17
524.27	33516.47
524.44	33631.16
524.61	33748.18
524.78	33415.83
524.96	33900.32
525.13	33935.43
525.30	34309.91
525.47	34162.46
525.64	33961.17
525.81	34211.61
525.98	34230.33
526.16	34384.81
526.33	34015.01
526.50	34340.34
526.67	34195.23
526.84	34272.46
527.01	34574.39
527.18	34426.94
527.36	34614.18
527.53	34321.62
527.70	34480.77
527.87	34960.58
528.04	34724.19
528.21	35079.95
528.38	34632.91
528.55	34621.20
528.72	35262.51
528.89	35379.54
529.07	35349.11
529.24	35030.80
529.41	35264.85
529.58	35349.11
529.75	35079.95
529.92	35227.40
530.09	35262.51
530.26	35548.06
530.43	35885.09
530.60	35271.87
530.77	35129.10
530.94	35950.63
531.11	35278.89
531.28	35885.09
531.46	35864.03
531.63	36107.44
531.80	36046.59
531.97	35482.52
532.14	35601.89
532.31	36182.34
532.48	36601.30
532.65	36130.85
532.82	36116.81
532.99	35857.01
533.16	36102.76
533.33	36058.29
533.50	36610.66
533.67	36643.43
533.84	35971.69
534.01	36238.51
534.18	36533.42
534.35	36638.75
534.52	36889.18
534.69	37069.40
534.86	37174.73
535.03	36378.95
535.20	37076.43
535.37	37345.59
535.54	36891.52
535.71	36907.91
535.88	36964.08
536.05	36830.67
536.22	37570.28
536.38	37736.46
536.55	37940.08
536.72	37074.09
536.89	37120.90
537.06	37537.51
537.23	37589.00
537.40	37361.97
537.57	37188.77
537.74	37361.97
537.91	37961.15
538.08	37949.45
538.25	37144.30
538.42	37848.80
538.59	37888.59
538.75	38033.71
538.92	38117.96
539.09	38031.36
539.26	38124.99
539.43	38089.88
539.60	38007.96
539.77	38003.28
539.94	38359.04
540.11	38483.09
540.28	38508.83
540.44	38171.80
540.61	38469.04
540.78	37947.11
540.95	38813.10
541.12	38270.10
541.29	38670.33
541.46	38675.01
541.62	38478.41
541.79	38899.70
541.96	38440.96
542.13	38565.01
542.30	38618.84
542.47	38782.68
542.63	38899.70
542.80	39089.29
542.97	39374.83
543.14	39475.48
543.31	39210.99
543.48	39105.67
543.64	39517.60
543.81	39330.36
543.98	39363.13
544.15	39274.19
544.32	39725.91
544.48	39880.39
544.65	39541.01
544.82	39763.36
544.99	39639.31
545.16	39672.08
545.32	39824.22
545.49	40636.38
545.66	40271.26
545.83	40198.70
546.00	39981.03
546.16	40385.94
546.33	39533.99
546.50	39910.82
546.67	40463.18
546.83	40201.04
547.00	39814.85
547.17	40374.24
547.34	40184.66
547.50	40076.99
547.67	40751.07
547.84	40856.39
548.00	40257.21
548.17	40870.43
548.34	41097.47
548.51	40701.92
548.67	40851.71
548.84	40662.13
549.01	40142.53
549.18	40835.33
549.34	41378.33
549.51	41202.79
549.68	40978.10
549.84	40634.04
550.01	41067.04
550.18	40577.87
550.34	40942.99
550.51	41256.62
550.68	41425.14
550.84	40797.88
551.01	41242.58
551.18	41361.95
551.34	41036.61
551.51	41326.84
551.68	41017.89
551.84	41462.59
552.01	41200.45
552.18	41497.70
552.34	41263.64
552.51	41591.32
552.68	41397.06
552.84	41181.73
553.01	41738.77
553.18	41713.03
553.34	41514.08
553.51	41502.38
553.67	41415.78
553.84	41359.61
554.01	41837.08
554.17	41457.91
554.34	41811.33
554.51	42007.94
554.67	41921.34
554.84	42127.30
555.00	41816.01
555.17	41736.43
555.33	41851.12
555.50	41991.55
555.67	42366.04
555.83	42092.19
556.00	42014.96
556.16	42604.77
556.33	42454.98
556.50	42674.99
556.66	42354.33
556.83	42185.82
556.99	42473.70
557.16	42532.22
557.32	42281.78
557.49	42377.74
557.65	42396.46
557.82	42670.31
557.98	42326.25
558.15	42653.92
558.32	42843.51
558.48	42742.86
558.65	42759.25
558.81	42518.17
558.98	42529.87
559.14	42438.59
559.31	42410.51
559.47	42866.91
559.64	43005.00
559.80	42958.19
559.97	42925.42
560.13	42616.47
560.30	42576.69
560.46	42684.35
560.63	42824.78
560.79	43161.82
560.96	42972.24
561.12	43641.63
561.29	43295.23
561.45	43494.18
561.61	42883.30
561.78	42958.19
561.94	43129.05
562.11	43058.84
562.27	43028.41
562.44	43351.40
562.60	43119.69
562.77	43349.06
562.93	43089.26
563.10	43194.59
563.26	43119.69
563.42	43985.69
563.59	42995.64
563.75	42775.63
563.92	43217.99
564.08	43435.66
564.24	43292.89
564.41	43267.14
564.57	43658.01
564.74	43782.06
564.90	43344.38
565.07	43342.04
565.23	43770.36
565.39	43587.80
565.56	43545.67
565.72	43697.80
565.88	43761.00
566.05	43360.76
566.21	43924.83
566.38	43358.42
566.54	43505.88
566.70	43742.27
566.87	43826.53
567.03	43400.55
567.19	43826.53
567.36	43971.64
567.52	43627.59
567.68	43716.53
567.85	43674.40
568.01	43461.41
568.17	43770.36
568.34	44065.27
568.50	43496.52
568.66	43260.12
568.83	43793.76
568.99	43693.12
569.15	43562.05
569.32	43798.44
569.48	43470.77
569.64	44210.38
569.81	43910.79
569.97	43861.64
570.13	44194.00
570.30	43889.73
570.46	44072.29
570.62	44467.84
570.78	43672.06
570.95	43716.53
571.11	44144.84
571.27	44135.48
571.43	43543.33
571.60	43686.10
571.76	43512.90
571.92	43854.62
572.09	44161.23
572.25	44222.08
572.41	43854.62
572.57	43894.41
572.74	44868.07
572.90	44144.84
573.06	44301.66
573.22	44568.48
573.38	44147.18
573.55	44229.10
573.71	44402.30
573.87	44559.12
574.03	43920.15
574.20	44371.88
574.36	43751.63
574.52	44112.08
574.68	44325.07
574.84	44404.64
575.01	44715.93
575.17	44456.14
575.33	44615.29
575.49	44175.27
575.65	44605.93
575.82	44612.95
575.98	44247.83
576.14	44531.03
576.30	44509.97
576.46	44516.99
576.62	44402.30
576.79	44243.15
576.95	43943.56
577.11	44194.00
577.27	44442.09
577.43	44278.25
577.59	44421.03
577.75	44224.42
577.92	44406.98
578.08	44947.65
578.24	44531.03
578.40	44545.08
578.56	45083.40
578.72	44664.44
578.88	44648.06
579.04	44392.94
579.21	44596.57
579.37	44271.23
579.53	44332.09
579.69	44100.37
579.85	44194.00
580.01	44451.45
580.17	44304.00
580.33	44837.64
580.49	44514.65
580.65	44465.50
580.82	44156.55
580.98	44336.77
581.14	44404.64
581.30	44626.99
581.46	44531.03
581.62	44414.01
581.78	44308.68
581.94	44587.21
582.10	44128.46
582.26	44402.30
582.42	44779.13
582.58	44554.44
582.74	44928.92
582.90	44488.90
583.06	44495.92
583.22	44414.01
583.38	44804.88
583.54	44711.25
583.70	44683.17
583.86	45226.17
584.02	44697.21
584.18	44928.92
584.34	45010.84
584.50	44718.28
584.66	44842.32
584.82	44744.02
584.98	45015.52
585.14	44978.07
585.30	44264.21
585.46	44851.69
585.62	44374.22
585.78	44758.06
585.94	44594.23
586.10	45055.31
586.26	44781.47
586.42	44304.00
586.58	44875.09
586.74	44404.64
586.90	44488.90
587.06	44500.61
587.22	44996.80
587.38	44685.51
587.54	44872.75
587.70	45380.65
587.86	44762.75
588.02	44746.36
588.18	44973.39
588.34	45055.31
588.49	44832.96
588.65	44339.11
588.81	44383.58
588.97	45001.48
589.13	44858.71
589.29	44912.54
589.45	44868.07
589.61	44856.37
589.77	45146.59
589.93	44769.77
590.08	44844.66
590.24	45010.84
