SpectraSuite Data File
++++++++++++++++++++++++++++++++++++
Date: Fri Oct 25 11:26:39 EDT 2013
User: price-jones
Dark Spectrum Present: No
Reference Spectrum Present: No
Number of Sampled Component Spectra: 1
Spectrometers: USB2+H05261
Integration Time (usec): 100000 (USB2+H05261)
Spectra Averaged: 1 (USB2+H05261)
Boxcar Smoothing: 0 (USB2+H05261)
Correct for Electrical Dark: No (USB2+H05261)
Strobe/Lamp Enabled: No (USB2+H05261)
Correct for Detector Non-linearity: No (USB2+H05261)
Correct for Stray Light: No (USB2+H05261)
Number of Pixels in Processed Spectrum: 2048
>>>>>Begin Processed Spectral Data<<<<<
365.73	227.03
365.92	227.03
366.12	227.03
366.32	212.99
366.52	222.35
366.72	145.11
366.91	112.35
367.11	112.35
367.31	100.64
367.51	175.54
367.70	102.98
367.90	142.77
368.10	110.01
368.30	147.45
368.49	166.18
368.69	175.54
368.89	147.45
369.09	198.95
369.28	194.26
369.48	187.24
369.68	276.18
369.87	245.76
370.07	149.79
370.27	227.03
370.47	372.15
370.66	613.22
370.86	641.31
371.06	725.57
371.25	655.35
371.45	631.94
371.65	660.03
371.84	697.48
372.04	767.70
372.24	741.95
372.44	678.76
372.63	758.33
372.83	725.57
373.03	765.36
373.22	662.37
373.42	725.57
373.62	746.63
373.81	821.53
374.01	844.93
374.21	861.32
374.40	887.06
374.60	849.61
374.79	791.10
374.99	802.80
375.19	814.51
375.38	882.38
375.58	763.01
375.78	856.64
375.97	819.19
376.17	887.06
376.37	884.72
376.56	849.61
376.76	809.83
376.95	847.27
377.15	915.15
377.35	889.40
377.54	919.83
377.74	875.36
377.93	870.68
378.13	875.36
378.33	924.51
378.52	931.53
378.72	901.11
378.91	976.00
379.11	952.60
379.31	985.37
379.50	978.34
379.70	905.79
379.89	966.64
380.09	980.68
380.28	961.96
380.48	964.30
380.68	954.94
380.87	1032.18
381.07	1027.50
381.26	1006.43
381.46	1050.90
381.65	1041.54
381.85	1081.33
382.04	1018.13
382.24	1086.01
382.43	1060.26
382.63	1158.57
382.83	1086.01
383.02	1116.44
383.22	1076.65
383.41	1057.92
383.61	1139.84
383.80	1041.54
384.00	1034.52
384.19	1111.75
384.39	1153.88
384.58	1238.14
384.78	1270.91
384.97	1259.21
385.17	1203.04
385.36	1196.01
385.56	1217.08
385.75	1217.08
385.95	1252.19
386.14	1217.08
386.34	1233.46
386.53	1210.06
386.72	1174.95
386.92	1310.70
387.11	1212.40
387.31	1270.91
387.50	1238.14
387.70	1348.15
387.89	1214.74
388.09	1268.57
388.28	1238.14
388.48	1378.58
388.67	1320.06
388.86	1359.85
389.06	1284.95
389.25	1352.83
389.45	1336.45
389.64	1315.38
389.84	1427.73
390.03	1427.73
390.22	1394.96
390.42	1376.24
390.61	1338.79
390.81	1416.02
391.00	1404.32
391.19	1432.41
391.39	1516.67
391.58	1495.60
391.78	1490.92
391.97	1444.11
392.16	1526.03
392.36	1472.20
392.55	1591.56
392.75	1549.43
392.94	1509.65
393.13	1495.60
393.33	1561.14
393.52	1577.52
393.71	1621.99
393.91	1568.16
394.10	1589.22
394.29	1603.27
394.49	1610.29
394.68	1596.25
394.88	1645.40
395.07	1682.85
395.26	1757.74
395.46	1617.31
395.65	1668.80
395.84	1760.08
396.04	1834.98
396.23	1736.68
396.42	1760.08
396.62	1750.72
396.81	1750.72
397.00	1802.21
397.19	1799.87
397.39	1825.62
397.58	1757.74
397.77	1813.92
397.97	1912.22
398.16	1849.02
398.35	1863.07
398.55	1790.51
398.74	1863.07
398.93	2012.86
399.12	1944.99
399.32	1949.67
399.51	1933.28
399.70	2066.69
399.90	1947.33
400.09	1926.26
400.28	2005.84
400.47	2026.90
400.67	2085.42
400.86	2162.66
401.05	2078.40
401.24	2094.78
401.44	2193.08
401.63	2099.46
401.82	2214.15
402.01	2181.38
402.21	2216.49
402.40	2244.57
402.59	2204.78
402.78	2230.53
402.97	2260.96
403.17	2289.04
403.36	2207.13
403.55	2298.41
403.74	2385.01
403.93	2415.43
404.13	2394.37
404.32	2424.80
404.51	2394.37
404.70	2368.62
404.89	2373.30
405.09	2480.97
405.28	2532.46
405.47	2431.82
405.66	2445.86
405.85	2565.23
406.05	2317.13
406.24	2534.80
406.43	2516.08
406.62	2679.91
406.81	2588.63
407.00	2633.10
407.20	2597.99
407.39	2738.43
407.58	2778.22
407.77	2691.62
407.96	2818.00
408.15	2836.73
408.34	2698.64
408.54	2799.28
408.73	2864.82
408.92	2874.18
409.11	2825.03
409.30	2939.71
409.49	2773.53
409.68	3028.65
409.87	2928.01
410.07	3038.02
410.26	3040.36
410.45	2995.89
410.64	3061.42
410.83	3096.53
411.02	3038.02
411.21	2993.55
411.40	3133.98
411.59	3229.94
411.78	3164.40
411.98	3225.26
412.17	3239.30
412.36	3419.52
412.55	3311.86
412.74	3309.52
412.93	3375.05
413.12	3255.69
413.31	3534.21
413.50	3515.48
413.69	3534.21
413.88	3646.55
414.07	3496.76
414.26	3520.17
414.45	3691.02
414.64	3796.35
414.83	3805.71
415.02	3728.47
415.22	3899.33
415.41	4002.32
415.60	4028.06
415.79	3964.87
415.98	3906.35
416.17	4065.51
416.36	3929.76
416.55	3948.48
416.74	4112.32
416.93	4119.34
417.12	4252.75
417.31	4198.92
417.50	4341.69
417.69	4276.16
417.88	4217.65
418.07	4238.71
418.26	4276.16
418.45	4423.61
418.64	4442.34
418.83	4278.50
419.02	4489.15
419.21	4449.36
419.39	4571.07
419.58	4638.94
419.77	4528.94
419.96	4557.02
420.15	4702.14
420.34	4592.13
420.53	4685.75
420.72	4594.47
420.91	4720.86
421.10	4786.40
421.29	4877.68
421.48	4784.06
421.67	4777.03
421.86	4652.98
422.05	4835.55
422.24	4744.27
422.43	4938.53
422.61	4905.76
422.80	4950.23
422.99	4971.30
423.18	4891.72
423.37	4994.70
423.56	4821.50
423.75	4994.70
423.94	4798.10
424.13	4631.92
424.32	4662.35
424.50	5085.98
424.69	5158.54
424.88	5107.05
425.07	4945.55
425.26	4915.12
425.45	4973.64
425.64	4908.10
425.83	5029.81
426.01	5093.01
426.20	4971.30
426.39	5071.94
426.58	5252.16
426.77	4992.36
426.96	5266.21
427.15	5228.76
427.33	5301.31
427.52	5170.24
427.71	5263.86
427.90	5095.35
428.09	5504.94
428.28	5308.34
428.46	5420.68
428.65	5413.66
428.84	5577.50
429.03	5561.11
429.22	5394.93
429.40	5591.54
429.59	5378.55
429.78	5165.56
429.97	5376.21
430.16	5476.85
430.34	5591.54
430.53	5458.13
430.72	5661.76
430.91	5563.45
431.10	5614.95
431.28	5715.59
431.47	5743.67
431.66	5975.39
431.85	5769.42
432.03	5905.17
432.22	6008.16
432.41	5893.47
432.60	6073.69
432.79	6143.91
432.97	6141.57
433.16	5937.94
433.35	6094.76
433.54	6054.97
433.72	6307.74
433.91	6059.65
434.10	6157.95
434.28	6003.47
434.47	6148.59
434.66	6204.76
434.85	6132.20
435.03	6457.54
435.22	6286.68
435.41	6607.33
435.59	6438.81
435.78	6394.34
435.97	6452.86
436.16	6239.87
436.34	6457.54
436.53	6633.08
436.72	6586.27
436.90	6485.62
437.09	6590.95
437.28	6534.78
437.46	6616.69
437.65	6558.18
437.84	6778.19
438.02	6651.80
438.21	6927.99
438.40	6670.53
438.58	7211.19
438.77	7037.99
438.96	7143.32
439.14	7096.50
439.33	7117.57
439.52	7222.89
439.70	7190.13
439.89	7421.84
440.08	7360.98
440.26	7431.20
440.45	7356.30
440.63	7599.72
440.82	7824.41
441.01	7424.18
441.19	7557.59
441.38	7698.02
441.57	7805.69
441.75	7850.16
441.94	8028.04
442.12	7852.50
442.31	8194.22
442.50	8088.89
442.68	8056.12
442.87	8011.65
443.05	7978.89
443.24	7999.95
443.43	8208.26
443.61	8102.93
443.80	8517.21
443.98	8180.17
444.17	7761.22
444.35	8109.96
444.54	8252.73
444.73	8152.09
444.91	8210.60
445.10	8329.97
445.28	8430.61
445.47	8290.18
445.65	8250.39
445.84	8315.92
446.02	8362.73
446.21	8624.87
446.39	8521.89
446.58	8538.27
446.77	8486.78
446.95	8404.86
447.14	8346.35
447.32	8638.92
447.51	8500.83
447.69	8325.29
447.88	8442.31
448.06	8528.91
448.25	8273.79
448.43	8702.11
448.62	8741.90
448.80	8601.47
448.99	8802.75
449.17	8807.44
449.36	8648.28
449.54	8805.10
449.73	8957.23
449.91	9067.24
450.10	9036.81
450.28	9149.15
450.46	9107.02
450.65	9081.28
450.83	9034.47
451.02	8828.50
451.20	9296.61
451.39	9128.09
451.57	9310.65
451.76	9277.88
451.94	9200.65
452.13	9135.11
452.31	9291.93
452.49	9217.03
452.68	9441.72
452.86	9137.45
453.05	9394.91
453.23	9558.75
453.42	9493.21
453.60	9352.78
453.78	9624.28
453.97	9324.69
454.15	9486.19
454.34	9390.23
454.52	9430.02
454.70	9617.26
454.89	9753.01
455.07	9795.14
455.26	9872.38
455.44	10066.64
455.62	9958.98
455.81	9961.32
455.99	9823.23
456.17	9919.19
456.36	10338.15
456.54	10272.61
456.73	10242.18
456.91	10656.46
457.09	10487.94
457.28	10462.19
457.46	10380.28
457.64	10642.42
457.83	10558.16
458.01	10225.80
458.19	10729.02
458.38	10682.20
458.56	10789.87
458.74	10817.96
458.93	10527.73
459.11	10520.71
459.29	10640.08
459.48	10824.98
459.66	10747.74
459.84	10934.98
460.03	10934.98
460.21	11159.67
460.39	10998.18
460.57	11000.52
460.76	11213.51
460.94	11241.59
461.12	11089.46
461.31	11131.59
461.49	11159.67
461.67	11213.51
461.85	11517.78
462.04	11227.55
462.22	11719.06
462.40	11580.97
462.59	11616.08
462.77	11250.96
462.95	11784.60
463.13	11562.25
463.32	11630.12
463.50	11824.39
463.68	11939.07
463.86	11894.60
464.05	11557.57
464.23	11901.62
464.41	11929.71
464.59	11861.84
464.78	11981.20
464.96	12252.70
465.14	11871.20
465.32	11859.49
465.50	12102.91
465.69	12292.49
465.87	12077.16
466.05	11960.14
466.23	12255.04
466.41	12004.61
466.60	12552.29
466.78	12231.64
466.96	12304.20
467.14	12596.76
467.32	12528.89
467.51	12287.81
467.69	12372.07
467.87	12507.82
468.05	12599.10
468.23	12388.46
468.41	12442.29
468.60	12526.55
468.78	12788.69
468.96	12409.52
469.14	13004.02
469.32	12961.89
469.50	12650.60
469.69	12865.92
469.87	13200.62
470.05	13125.72
470.23	13303.60
470.41	13334.03
470.59	13469.78
470.77	13083.59
470.95	13235.73
471.14	13448.72
471.32	13331.69
471.50	13701.50
471.68	13429.99
471.86	13671.07
472.04	13888.74
472.22	14087.68
472.40	13736.60
472.58	13900.44
472.77	14038.53
472.95	14281.95
473.13	14483.24
473.31	14141.52
473.49	14164.92
473.67	14068.96
473.85	14347.48
474.03	14511.32
474.21	14618.99
474.39	14846.02
474.57	14604.94
474.75	14822.61
474.93	14759.42
475.12	14904.53
475.30	15056.67
475.48	14927.94
475.66	15234.55
475.84	15290.72
476.02	15356.25
476.20	15435.83
476.38	15716.70
476.56	16114.59
476.74	15960.11
476.92	15606.69
477.10	15646.48
477.28	16250.34
477.46	16222.25
477.64	16372.05
477.82	16346.30
478.00	16933.78
478.18	16566.31
478.36	17025.06
478.54	17263.79
478.72	17268.47
478.90	17404.22
479.08	17341.03
479.26	17577.42
479.44	17699.13
479.62	18010.42
479.80	17949.57
479.98	18146.17
480.16	18682.16
480.34	18551.09
480.52	18562.79
480.70	18953.66
480.88	18607.26
481.06	18778.12
481.24	18822.59
481.41	19370.27
481.59	19601.99
481.77	19358.57
481.95	19658.16
482.13	19838.38
482.31	19676.88
482.49	20196.48
482.67	20203.50
482.85	20613.10
483.03	20526.50
483.21	20746.51
483.39	20910.35
483.57	21200.57
483.74	21427.60
483.92	21205.25
484.10	21366.75
484.28	21626.55
484.46	22012.74
484.64	22668.09
484.82	22082.95
485.00	22721.92
485.18	22661.07
485.35	23344.50
485.53	22998.10
485.71	23262.58
485.89	23484.94
486.07	23501.32
486.25	23398.34
486.43	23805.59
486.61	24114.54
486.78	24149.65
486.96	24123.90
487.14	24713.72
487.32	24584.99
487.50	24592.01
487.68	25130.33
487.85	25462.69
488.03	25539.93
488.21	25993.99
488.39	25795.04
488.57	25947.18
488.75	26141.44
488.92	26445.71
489.10	26635.30
489.28	26721.90
489.46	27356.18
489.64	27438.10
489.81	27922.59
489.99	27873.44
490.17	27805.56
490.35	28130.90
490.53	28077.07
490.70	28175.37
490.88	28393.04
491.06	28774.55
491.24	28854.12
491.41	28814.34
491.59	29399.47
491.77	29567.99
491.95	29755.23
492.13	29858.21
492.30	30270.15
492.48	30008.01
492.66	30384.83
492.84	30410.58
493.01	30789.75
493.19	31065.93
493.37	30995.71
493.54	31197.00
493.72	31400.63
493.90	31728.30
494.08	31896.82
494.25	32336.84
494.43	31866.39
494.61	32418.76
494.79	32868.14
494.96	32704.31
495.14	33205.18
495.32	33109.22
495.49	33378.38
495.67	33354.97
495.85	33846.49
496.02	33509.45
496.20	33977.56
496.38	34330.98
496.55	34066.50
496.73	34836.53
496.91	34888.03
497.09	34710.14
497.26	34927.81
497.44	34801.43
497.62	35063.57
497.79	35840.62
497.97	35433.37
498.14	36180.00
498.32	36428.10
498.50	36102.76
498.67	36507.68
498.85	36889.18
499.03	36790.88
499.20	37212.18
499.38	37099.83
499.56	37280.05
499.73	37579.64
499.91	37429.85
500.08	37495.38
500.26	37556.24
500.44	37579.64
500.61	38064.13
500.79	37748.16
500.97	38216.27
501.14	38597.77
501.32	38487.77
501.49	38642.24
501.67	38721.82
501.84	38803.74
502.02	39086.95
502.20	38677.35
502.37	39171.21
502.55	39297.59
502.72	39421.64
502.90	39805.49
503.07	39695.49
503.25	39543.35
503.43	39913.16
503.60	40156.57
503.78	40376.58
503.95	40048.91
504.13	40481.91
504.30	40830.65
504.48	40390.62
504.65	40737.02
504.83	40882.14
505.01	41511.74
505.18	41539.83
505.36	41427.48
505.53	41221.52
505.71	41968.15
505.88	41801.97
506.06	41560.89
506.23	41961.12
506.41	42307.52
506.58	42014.96
506.76	42452.64
506.93	42714.78
507.11	42031.34
507.28	42693.71
507.46	43077.56
507.63	42820.10
507.81	43517.58
507.98	43093.94
508.16	43058.84
508.33	43477.79
508.50	43749.29
508.68	43531.62
508.85	43704.82
509.03	44081.65
509.20	44327.41
509.38	44594.23
509.55	44371.88
509.73	44767.43
509.90	44339.11
510.08	44690.19
510.25	44683.17
510.42	45167.66
510.60	45179.36
510.77	45352.56
510.95	45413.41
511.12	45404.05
511.30	45357.24
511.47	45347.88
511.64	45500.01
511.82	45858.12
511.99	45804.28
512.17	46167.07
512.34	45713.00
512.51	46279.41
512.69	46354.31
512.86	46586.02
513.04	46658.58
513.21	46635.17
513.38	46492.40
513.56	47114.98
513.73	46625.81
513.90	46944.12
514.08	46976.89
514.25	47552.66
514.43	47367.76
514.60	47711.82
514.77	47728.20
514.95	47646.29
515.12	47468.40
515.29	47964.60
515.47	48142.48
515.64	48217.38
515.81	47786.72
515.99	48006.73
516.16	48500.58
516.33	48648.03
516.51	48671.44
516.68	48685.48
516.85	48650.38
517.03	48664.42
517.20	49263.60
517.37	48846.98
517.54	49144.23
517.72	49251.89
517.89	48989.75
518.06	49621.70
518.24	49413.39
518.41	49216.78
518.58	49066.99
518.75	49198.06
518.93	49881.50
519.10	49567.87
519.27	49766.81
519.45	49502.33
519.62	50007.89
519.79	50127.25
519.96	49876.82
520.14	50171.72
520.31	50143.64
520.48	50644.51
520.65	50660.90
520.83	50754.52
521.00	50740.47
521.17	50396.42
521.34	50787.28
521.52	50705.37
521.69	50630.47
521.86	51136.02
522.03	51201.56
522.20	51185.18
522.38	51332.63
522.55	51681.37
522.72	51093.89
522.89	50981.55
523.07	51529.23
523.24	51599.45
523.41	51646.26
523.58	51470.72
523.75	51887.34
523.92	51817.12
524.10	51899.04
524.27	52065.22
524.44	52039.47
524.61	52168.20
524.78	52093.30
524.96	52547.37
525.13	52198.63
525.30	52432.68
525.47	52697.16
525.64	52619.92
525.81	52289.91
525.98	52811.85
526.16	52767.38
526.33	52856.32
526.50	52802.49
526.67	52750.99
526.84	52924.19
527.01	52811.85
527.18	52861.00
527.36	53006.11
527.53	53043.56
527.70	53715.29
527.87	53340.81
528.04	53254.21
528.21	53563.16
528.38	53420.39
528.55	54007.86
528.72	53565.50
528.89	53883.81
529.07	53567.84
529.24	53970.41
529.41	53619.33
529.58	53853.39
529.75	53752.74
529.92	54073.40
530.09	53829.98
530.26	54106.16
530.43	53911.90
530.60	53717.64
530.77	53872.11
530.94	54251.28
531.11	54007.86
531.28	54085.10
531.46	54370.64
531.63	54199.79
531.80	54103.82
531.97	54548.53
532.14	54377.67
532.31	54731.09
532.48	54433.84
532.65	54536.82
532.82	54499.37
532.99	54628.10
533.16	54770.88
533.33	54766.20
533.50	54857.48
533.67	54930.03
533.84	54564.91
534.01	54656.19
534.18	55040.04
534.35	55353.67
534.52	55030.68
534.69	55215.58
534.86	55182.81
535.03	55089.19
535.20	55297.50
535.37	55117.28
535.54	55480.06
535.71	55405.16
535.88	55327.92
536.05	55650.92
536.22	55667.30
536.38	55817.10
536.55	55714.11
536.72	55749.22
536.89	55405.16
537.06	55901.36
537.23	55758.58
537.40	55604.11
537.57	55753.90
537.74	55763.26
537.91	55959.87
538.08	56039.45
538.25	56041.79
538.42	56236.05
538.59	56076.90
538.75	55922.42
538.92	56207.97
539.09	56240.73
539.26	56247.75
539.43	56425.64
539.60	56404.57
539.77	56453.72
539.94	56507.55
540.11	56411.59
540.28	56392.87
540.44	56453.72
540.61	56383.51
540.78	56432.66
540.95	56402.23
541.12	56622.24
541.29	56350.74
541.46	56669.05
541.62	56779.06
541.79	56671.39
541.96	56315.63
542.13	56367.12
542.30	56807.14
542.47	56987.36
542.63	57090.35
542.80	57029.49
542.97	57169.93
543.14	57174.61
543.31	57303.34
543.48	57305.68
543.64	57396.96
543.81	57113.75
543.98	57563.14
544.15	57354.83
544.32	57656.76
544.48	57649.74
544.65	57382.91
544.82	57455.47
544.99	57350.15
545.16	57509.30
545.32	57396.96
545.49	57799.53
545.66	57757.40
545.83	57799.53
546.00	57935.28
546.16	57518.67
546.33	57607.61
546.50	57710.59
546.67	57609.95
546.83	57785.49
547.00	57773.78
547.17	57616.97
547.34	57879.11
547.50	57883.79
547.67	58211.46
547.84	57989.11
548.00	58017.20
548.17	58129.54
548.34	57930.60
548.51	58396.37
548.67	58223.17
548.84	58087.42
549.01	58150.61
549.18	58279.34
549.34	58387.00
549.51	58206.78
549.68	58347.21
549.84	58365.94
550.01	58513.39
550.18	58478.28
550.34	58473.60
550.51	58326.15
550.68	58499.35
550.84	58078.05
551.01	58504.03
551.18	58438.50
551.34	58415.09
551.51	58721.70
551.68	58534.46
551.84	58578.93
552.01	58576.59
552.18	58637.44
552.34	58485.31
552.51	58815.32
552.68	58436.16
552.84	58848.09
553.01	58864.47
553.18	58925.33
553.34	58955.75
553.51	58848.09
553.67	58869.15
553.84	59131.29
554.01	58990.86
554.17	59150.02
554.34	59217.89
554.51	59241.30
554.67	59152.36
554.84	58841.07
555.00	59168.74
555.17	59093.85
555.33	59063.42
555.50	58958.09
555.67	59032.99
555.83	59175.76
556.00	59370.03
556.16	59442.59
556.33	59250.66
556.50	59250.66
556.66	59224.92
556.83	59161.72
556.99	59512.80
557.16	59456.63
557.32	59627.49
557.49	59664.94
557.65	59370.03
557.82	59646.21
557.98	59381.73
558.15	59409.82
558.32	59826.43
558.48	59395.77
558.65	59451.95
558.81	59765.58
558.98	59681.32
559.14	59611.10
559.31	59601.74
559.47	59627.49
559.64	59845.16
559.80	59889.63
559.97	59896.65
560.13	59597.06
560.30	59664.94
560.46	59688.34
560.63	59852.18
560.79	59891.97
560.96	60048.78
561.12	59714.09
561.29	59842.82
561.45	59796.01
561.61	60074.53
561.78	59655.57
561.94	59856.86
562.11	59945.80
562.27	60025.38
562.44	60186.88
562.60	59990.27
562.77	60046.44
562.93	59756.22
563.10	60158.79
563.26	59739.83
563.42	60425.61
563.59	60119.00
563.75	59992.61
563.92	60001.97
564.08	60137.72
564.24	60313.26
564.41	60147.09
564.57	59950.48
564.74	60093.25
564.90	60149.43
565.07	60034.74
565.23	60360.08
565.39	60140.07
565.56	60388.16
565.72	60280.50
565.88	60275.82
566.05	60011.34
566.21	60126.02
566.38	60343.69
566.54	60329.65
566.70	60467.74
566.87	60441.99
567.03	60261.77
567.19	60385.82
567.36	60294.54
567.52	60416.25
567.68	60587.11
567.85	60486.46
568.01	60423.27
568.17	60383.48
568.34	60725.20
568.50	60252.41
568.66	60303.90
568.83	60573.06
568.99	60416.25
569.15	60692.43
569.32	60322.63
569.48	60331.99
569.64	60381.14
569.81	60465.40
569.97	60547.32
570.13	60643.28
570.30	60388.16
570.46	60582.43
570.62	60507.53
570.78	60514.55
570.95	60678.39
571.11	60657.32
571.27	60587.11
571.43	60519.23
571.60	60706.47
571.76	60750.94
571.92	60678.39
572.09	60690.09
572.25	60697.11
572.41	60509.87
572.57	60566.04
572.74	60786.05
572.90	60711.16
573.06	60727.54
573.22	60559.02
573.38	60690.09
573.55	60760.31
573.71	60963.93
573.87	60673.71
574.03	60882.02
574.20	60512.21
574.36	60694.77
574.52	60760.31
574.68	60968.61
574.84	61076.28
575.01	60767.33
575.17	60919.46
575.33	60584.77
575.49	60788.39
575.65	60727.54
575.82	60729.88
575.98	60720.52
576.14	60992.02
576.30	60893.72
576.46	60732.22
576.62	60594.13
576.79	60772.01
576.95	60687.75
577.11	60753.29
577.27	60790.73
577.43	60762.65
577.59	60657.32
577.75	60807.12
577.92	60832.86
578.08	60760.31
578.24	60732.22
578.40	60938.19
578.56	61109.05
578.72	60884.36
578.88	60933.51
579.04	60956.91
579.21	60891.38
579.37	60949.89
579.53	61010.74
579.69	60631.58
579.85	60882.02
580.01	60877.33
580.17	60727.54
580.33	60867.97
580.49	60994.36
580.65	61237.78
580.82	60882.02
580.98	60793.07
581.14	60985.00
581.30	60905.42
581.46	60779.03
581.62	60987.34
581.78	60741.58
581.94	60992.02
582.10	60987.34
582.26	60797.76
582.42	60879.67
582.58	61090.32
582.74	60987.34
582.90	60884.36
583.06	60889.04
583.22	60903.08
583.38	60853.93
583.54	60903.08
583.70	61123.09
583.86	61148.84
584.02	61097.34
584.18	60846.91
584.34	61020.11
584.50	61073.94
584.66	60956.91
584.82	60912.44
584.98	61102.03
585.14	61116.07
585.30	60811.80
585.46	61109.05
585.62	60973.30
585.78	61029.47
585.94	60849.25
586.10	60926.49
586.26	61066.92
586.42	60985.00
586.58	61057.56
586.74	61127.77
586.90	60786.05
587.06	60989.68
587.22	61001.38
587.38	60865.63
587.54	61216.71
587.70	61460.13
587.86	61132.45
588.02	61151.18
588.18	61141.81
588.34	61064.58
588.49	61099.68
