SpectraSuite Data File
++++++++++++++++++++++++++++++++++++
Date: Fri Oct 25 11:23:13 EDT 2013
User: price-jones
Dark Spectrum Present: No
Reference Spectrum Present: No
Number of Sampled Component Spectra: 1
Spectrometers: USB2+H05261
Integration Time (usec): 100000 (USB2+H05261)
Spectra Averaged: 1 (USB2+H05261)
Boxcar Smoothing: 0 (USB2+H05261)
Correct for Electrical Dark: No (USB2+H05261)
Strobe/Lamp Enabled: No (USB2+H05261)
Correct for Detector Non-linearity: No (USB2+H05261)
Correct for Stray Light: No (USB2+H05261)
Number of Pixels in Processed Spectrum: 2048
>>>>>Begin Processed Spectral Data<<<<<
365.73	259.80
365.92	259.80
366.12	259.80
366.32	149.79
366.52	145.11
366.72	142.77
366.91	124.05
367.11	154.48
367.31	110.01
367.51	98.30
367.70	128.73
367.90	147.45
368.10	74.90
368.30	100.64
368.49	102.98
368.69	84.26
368.89	161.50
369.09	147.45
369.28	133.41
369.48	142.77
369.68	147.45
369.87	161.50
370.07	196.60
370.27	231.71
370.47	280.86
370.66	592.16
370.86	641.31
371.06	648.33
371.25	688.12
371.45	697.48
371.65	692.80
371.84	641.31
372.04	629.60
372.24	660.03
372.44	657.69
372.63	730.25
372.83	786.42
373.03	704.50
373.22	706.84
373.42	720.88
373.62	791.10
373.81	849.61
374.01	837.91
374.21	791.10
374.40	748.97
374.60	781.74
374.79	807.48
374.99	814.51
375.19	847.27
375.38	929.19
375.58	802.80
375.78	880.04
375.97	889.40
376.17	954.94
376.37	868.34
376.56	863.66
376.76	954.94
376.95	870.68
377.15	919.83
377.35	964.30
377.54	952.60
377.74	936.21
377.93	896.43
378.13	887.06
378.33	964.30
378.52	898.77
378.72	898.77
378.91	950.26
379.11	957.28
379.31	847.27
379.50	966.64
379.70	950.26
379.89	1027.50
380.09	889.40
380.28	880.04
380.48	924.51
380.68	945.58
380.87	1067.28
381.07	1027.50
381.26	1083.67
381.46	1116.44
381.65	1050.90
381.85	1074.31
382.04	1104.73
382.24	1116.44
382.43	1062.60
382.63	1064.94
382.83	1008.77
383.02	1090.69
383.22	1137.50
383.41	1125.80
383.61	1102.39
383.80	1109.41
384.00	1142.18
384.19	1008.77
384.39	1146.86
384.58	1132.82
384.78	1083.67
384.97	1149.20
385.17	1137.50
385.36	1107.07
385.56	1153.88
385.75	1130.48
385.95	1196.01
386.14	1226.44
386.34	1242.82
386.53	1219.42
386.72	1193.67
386.92	1240.48
387.11	1221.76
387.31	1252.19
387.50	1238.14
387.70	1263.89
387.89	1270.91
388.09	1308.36
388.28	1371.55
388.48	1287.29
388.67	1315.38
388.86	1345.81
389.06	1369.21
389.25	1308.36
389.45	1380.92
389.64	1357.51
389.84	1322.40
390.03	1437.09
390.22	1352.83
390.42	1451.13
390.61	1357.51
390.81	1537.73
391.00	1490.92
391.19	1490.92
391.39	1521.35
391.58	1446.45
391.78	1404.32
391.97	1540.07
392.16	1516.67
392.36	1631.35
392.55	1568.16
392.75	1519.01
392.94	1544.75
393.13	1530.71
393.33	1497.94
393.52	1533.05
393.71	1526.03
393.91	1533.05
394.10	1626.67
394.29	1528.37
394.49	1577.52
394.68	1631.35
394.88	1619.65
395.07	1631.35
395.26	1617.31
395.46	1682.85
395.65	1748.38
395.84	1736.68
396.04	1755.40
396.23	1804.55
396.42	1792.85
396.62	1732.00
396.81	1792.85
397.00	1795.19
397.19	1856.04
397.39	1797.53
397.58	1774.13
397.77	1804.55
397.97	1898.17
398.16	1916.90
398.35	1839.66
398.55	1921.58
398.74	1790.51
398.93	1926.26
399.12	1919.24
399.32	1898.17
399.51	1952.01
399.70	1977.75
399.90	2017.54
400.09	1987.11
400.28	1954.35
400.47	2141.59
400.67	2157.97
400.86	2106.48
401.05	1994.14
401.24	2134.57
401.44	2094.78
401.63	2239.89
401.82	2174.36
402.01	2078.40
402.21	2143.93
402.40	2146.27
402.59	2244.57
402.78	2153.29
402.97	2237.55
403.17	2127.55
403.36	2289.04
403.55	2293.72
403.74	2326.49
403.93	2401.39
404.13	2356.92
404.32	2366.28
404.51	2410.75
404.70	2464.58
404.89	2389.69
405.09	2401.39
405.28	2478.63
405.47	2518.42
405.66	2574.59
405.85	2457.56
406.05	2548.84
406.24	2665.87
406.43	2546.50
406.62	2661.19
406.81	2675.23
407.00	2597.99
407.20	2635.44
407.39	2534.80
407.58	2729.06
407.77	2630.76
407.96	2773.53
408.15	2780.56
408.34	2806.30
408.54	2829.71
408.73	2848.43
408.92	2878.86
409.11	2864.82
409.30	2951.42
409.49	2995.89
409.68	2937.37
409.87	2970.14
410.07	3009.93
410.26	2993.55
410.45	2981.84
410.64	2974.82
410.83	3122.27
411.02	3105.89
411.21	3152.70
411.40	3108.23
411.59	3211.22
411.78	3159.72
411.98	3180.79
412.17	3192.49
412.36	3316.54
412.55	3353.99
412.74	3421.86
412.93	3452.29
413.12	3363.35
413.31	3684.00
413.50	3632.51
413.69	3583.36
413.88	3625.49
414.07	3611.45
414.26	3620.81
414.45	3646.55
414.64	3691.02
414.83	3789.33
415.02	3705.07
415.22	3794.01
415.41	3896.99
415.60	3880.61
415.79	3988.27
415.98	4098.28
416.17	3941.46
416.36	4105.30
416.55	3981.25
416.74	4058.49
416.93	4060.83
417.12	4112.32
417.31	4241.05
417.50	4252.75
417.69	4283.18
417.88	4161.47
418.07	4332.33
418.26	4362.76
418.45	4311.27
418.64	4437.66
418.83	4470.42
419.02	4416.59
419.21	4557.02
419.39	4521.92
419.58	4526.60
419.77	4526.60
419.96	4617.88
420.15	4774.69
420.34	4601.49
420.53	4603.83
420.72	4737.24
420.91	4657.67
421.10	4760.65
421.29	4744.27
421.48	4622.56
421.67	4737.24
421.86	4828.53
422.05	4915.12
422.24	4854.27
422.43	4711.50
422.61	4835.55
422.80	4919.81
422.99	4938.53
423.18	4952.57
423.37	4994.70
423.56	4997.04
423.75	4943.21
423.94	4863.63
424.13	4503.19
424.32	4835.55
424.50	4901.08
424.69	5142.16
424.88	5118.75
425.07	5149.18
425.26	4929.17
425.45	4957.25
425.64	4987.68
425.83	5111.73
426.01	5100.03
426.20	5083.64
426.39	4985.34
426.58	5128.11
426.77	5228.76
426.96	5273.23
427.15	5261.52
427.33	5210.03
427.52	5313.02
427.71	5359.83
427.90	5437.06
428.09	5355.15
428.28	5350.46
428.46	5514.30
428.65	5315.36
428.84	5526.00
429.03	5624.31
429.22	5408.98
429.40	5516.64
429.59	5664.10
429.78	5453.45
429.97	5430.04
430.16	5291.95
430.34	5568.13
430.53	5481.53
430.72	5685.16
430.91	5781.12
431.10	5640.69
431.28	5685.16
431.47	5767.08
431.66	5858.36
431.85	5825.59
432.03	6113.48
432.22	6136.88
432.41	5907.51
432.60	6003.47
432.79	6001.13
432.97	6010.50
433.16	6183.70
433.35	6150.93
433.54	6050.28
433.72	6186.04
433.91	6190.72
434.10	6127.52
434.28	6106.46
434.47	6267.95
434.66	6279.66
434.85	6345.19
435.03	6466.90
435.22	6375.62
435.41	6436.47
435.59	6593.29
435.78	6609.67
435.97	6492.65
436.16	6431.79
436.34	6427.11
436.53	6438.81
436.72	6654.14
436.90	6621.38
437.09	6626.06
437.28	6410.73
437.46	6490.31
437.65	6796.92
437.84	6771.17
438.02	6752.45
438.21	6785.21
438.40	6857.77
438.58	7045.01
438.77	7077.78
438.96	7045.01
439.14	7056.72
439.33	7360.98
439.52	7227.57
439.70	7332.90
439.89	7527.16
440.08	7461.63
440.26	7470.99
440.45	7304.81
440.63	7566.95
440.82	7676.96
441.01	7571.63
441.19	7728.45
441.38	7578.65
441.57	7786.96
441.75	7754.19
441.94	8133.36
442.12	7908.67
442.31	8002.29
442.50	8126.34
442.68	8081.87
442.87	8119.32
443.05	8245.71
443.24	8205.92
443.43	8222.30
443.61	8397.84
443.80	8367.42
443.98	8201.24
444.17	7751.85
444.35	8283.16
444.54	8411.89
444.73	8531.25
444.91	8421.25
445.10	8421.25
445.28	8463.38
445.47	8318.26
445.65	8432.95
445.84	8793.39
446.02	8697.43
446.21	8674.03
446.39	8552.32
446.58	8549.98
446.77	8748.92
446.95	8505.51
447.14	8470.40
447.32	8592.11
447.51	8411.89
447.69	8521.89
447.88	8685.73
448.06	8713.81
448.25	8517.21
448.43	8671.68
448.62	8587.43
448.80	8599.13
448.99	8882.33
449.17	8741.90
449.36	8910.42
449.54	9060.21
449.73	8882.33
449.91	8994.68
450.10	9076.60
450.28	9114.05
450.46	9179.58
450.65	9074.26
450.83	9282.56
451.02	9224.05
451.20	9240.44
451.39	9219.37
451.57	9254.48
451.76	9195.96
451.94	9231.07
452.13	9554.07
452.31	9287.25
452.49	9252.14
452.68	9458.10
452.86	9427.68
453.05	9575.13
453.23	9671.09
453.42	9369.16
453.60	9334.06
453.78	9764.72
453.97	9643.01
454.15	9514.28
454.34	9474.49
454.52	10022.17
454.70	9738.97
454.89	10019.83
455.07	9755.35
455.26	9987.07
455.44	10019.83
455.62	9820.89
455.81	9916.85
455.99	10026.86
456.17	10155.58
456.36	10209.42
456.54	10312.40
456.73	10356.87
456.91	10340.49
457.09	10724.33
457.28	10644.76
457.46	10635.39
457.64	10668.16
457.83	10579.22
458.01	10448.15
458.19	10661.14
458.38	10752.42
458.56	10794.55
458.74	10815.62
458.93	10614.33
459.11	10883.49
459.29	10820.30
459.48	10998.18
459.66	11063.71
459.84	11082.44
460.03	11136.27
460.21	11005.20
460.39	11007.54
460.57	11241.59
460.76	11098.82
460.94	11199.46
461.12	11367.98
461.31	11108.18
461.49	11030.94
461.67	11293.08
461.85	11487.35
462.04	11536.50
462.22	11534.16
462.40	11772.89
462.59	11658.21
462.77	11630.12
462.95	11620.76
463.13	11756.51
463.32	11747.15
463.50	11812.68
463.68	11992.90
463.86	12114.61
464.05	11915.67
464.23	12241.00
464.41	12009.29
464.59	11906.31
464.78	12212.92
464.96	12107.59
465.14	12018.65
465.32	12299.52
465.50	12135.68
465.69	12451.65
465.87	12201.21
466.05	12278.45
466.23	12325.26
466.41	12292.49
466.60	12470.37
466.78	12219.94
466.96	12252.70
467.14	12652.94
467.32	12489.10
467.51	12713.79
467.69	12203.55
467.87	12468.03
468.05	12798.05
468.23	12627.19
468.41	12741.88
468.60	12734.85
468.78	12910.40
468.96	12711.45
469.14	13095.30
469.32	13116.36
469.50	12758.26
469.69	13153.81
469.87	13015.72
470.05	13163.17
470.23	13240.41
470.41	13434.68
470.59	13282.54
470.77	13481.49
470.95	13301.26
471.14	13558.72
471.32	13238.07
471.50	13802.14
471.68	13516.59
471.86	13710.86
472.04	13994.06
472.22	14190.67
472.40	13991.72
472.58	13879.38
472.77	13820.86
472.95	14263.22
473.13	14855.38
473.31	14279.61
473.49	14380.25
473.67	14314.72
473.85	14604.94
474.03	14853.04
474.21	14743.03
474.39	14803.89
474.57	15007.52
474.75	14986.45
474.93	15073.05
475.12	14939.64
475.30	15290.72
475.48	15054.33
475.66	15445.20
475.84	15358.60
476.02	15344.55
476.20	15410.09
476.38	15957.77
476.56	16056.08
476.74	15948.41
476.92	16112.25
477.10	16149.70
477.28	16381.41
477.46	16390.77
477.64	16655.25
477.82	16662.27
478.00	17020.38
478.18	17043.78
478.36	17167.83
478.54	17298.90
478.72	17315.28
478.90	17561.04
479.08	17661.68
479.26	17797.43
479.44	18122.77
479.62	17530.61
479.80	18244.48
479.98	18270.22
480.16	18836.63
480.34	18132.13
480.52	18780.46
480.70	18743.01
480.88	18735.99
481.06	19398.36
481.24	18750.03
481.41	19276.65
481.59	19508.37
481.77	19543.47
481.95	20161.37
482.13	19971.79
482.31	19775.19
482.49	20233.93
482.67	20367.34
482.85	20484.37
483.03	20922.05
483.21	21158.44
483.39	21422.92
483.57	21153.76
483.74	21371.43
483.92	21392.50
484.10	21362.07
484.28	21745.92
484.46	22146.15
484.64	22338.07
484.82	21984.65
485.00	22773.41
485.18	23007.47
485.35	23227.48
485.53	23274.29
485.71	23323.44
485.89	23821.97
486.07	23543.45
486.25	23716.65
486.43	23838.36
486.61	23777.50
486.78	24121.56
486.96	24311.14
487.14	24713.72
487.32	24889.26
487.50	24947.77
487.68	25319.92
487.85	25401.83
488.03	25865.26
488.21	26258.47
488.39	26211.66
488.57	26085.27
488.75	26522.95
488.92	26962.97
489.10	26773.39
489.28	27204.05
489.46	27604.28
489.64	27686.20
489.81	27934.29
489.99	28058.34
490.17	28030.26
490.35	28816.68
490.53	28463.25
490.70	28877.53
490.88	28517.09
491.06	29064.77
491.24	29125.63
491.41	29205.20
491.59	29748.21
491.77	29376.06
491.95	29949.50
492.13	29923.75
492.30	29977.58
492.48	30185.89
492.66	30382.49
492.84	30651.66
493.01	31079.97
493.19	30698.47
493.37	31393.61
493.54	31117.42
493.72	31962.36
493.90	31938.95
494.08	31840.65
494.25	32381.31
494.43	32580.26
494.61	32474.93
494.79	32732.39
494.96	32767.50
495.14	33160.71
495.32	33280.08
495.49	33141.99
495.67	33219.22
495.85	33872.23
496.02	34078.20
496.20	34396.51
496.38	34525.24
496.55	34834.19
496.73	34862.28
496.91	34721.85
497.09	35290.60
497.26	35470.82
497.44	35260.17
497.62	35512.95
497.79	36341.50
497.97	35679.13
498.14	36423.42
498.32	36479.59
498.50	36821.31
498.67	36416.40
498.85	37034.30
499.03	37013.23
499.20	36730.03
499.38	37633.47
499.56	37474.32
499.73	37427.51
499.91	37696.67
500.08	37904.98
500.26	37935.40
500.44	38274.78
500.61	38012.64
500.79	37968.17
500.97	38770.97
501.14	38998.01
501.32	38611.82
501.49	38520.54
501.67	38967.58
501.84	39398.24
502.02	39505.90
502.20	39157.16
502.37	39391.22
502.55	39522.29
502.72	39620.59
502.90	39913.16
503.07	39805.49
503.25	40430.41
503.43	40055.93
503.60	40531.06
503.78	40697.24
503.95	40622.34
504.13	40917.25
504.30	41235.56
504.48	41118.53
504.65	41207.47
504.83	41394.71
505.01	41570.25
505.18	41322.16
505.36	42059.43
505.53	41682.60
505.71	42061.77
505.88	41989.21
506.06	41778.56
506.23	42080.49
506.41	42075.81
506.58	42363.70
506.76	42337.95
506.93	42752.23
507.11	42726.48
507.28	42958.19
507.46	42906.70
507.63	43285.87
507.81	44198.68
507.98	43194.59
508.16	43416.94
508.33	43983.35
508.50	44252.51
508.68	44231.44
508.85	44102.71
509.03	44540.39
509.20	44224.42
509.38	44666.78
509.55	44744.02
509.73	45050.63
509.90	44694.87
510.08	45287.03
510.25	45418.10
510.42	45272.98
510.60	45277.66
510.77	45645.13
510.95	46036.00
511.12	45404.05
511.30	45652.15
511.47	45638.11
511.64	45649.81
511.82	46459.63
511.99	45914.29
512.17	46230.26
512.34	46223.24
512.51	46696.03
512.69	46555.60
512.86	46555.60
513.04	46890.29
513.21	46981.57
513.38	47129.03
513.56	47629.90
513.73	46871.57
513.90	47395.85
514.08	47220.31
514.25	47533.94
514.43	47622.88
514.60	47547.98
514.77	47526.92
514.95	47873.32
515.12	47695.44
515.29	47941.19
515.47	48303.98
515.64	48268.87
515.81	48531.01
515.99	48711.23
516.16	48949.96
516.33	48645.69
516.51	49031.88
516.68	48797.83
516.85	48896.13
517.03	49408.71
517.20	49111.46
517.37	49301.04
517.54	48971.03
517.72	49043.59
517.89	49467.22
518.06	49406.37
518.24	50010.23
518.41	49574.89
518.58	49439.14
518.75	49357.22
518.93	50019.59
519.10	50078.10
519.27	50199.81
519.45	50012.57
519.62	50600.04
519.79	50356.63
519.96	50499.40
520.14	50719.41
520.31	50588.34
520.48	50866.86
520.65	50520.46
520.83	50920.70
521.00	51112.62
521.17	50639.83
521.34	51084.53
521.52	51131.34
521.69	50946.44
521.86	51540.94
522.03	51653.28
522.20	51683.71
522.38	51437.95
522.55	51585.41
522.72	51606.47
522.89	51962.23
523.07	52086.28
523.24	51723.50
523.41	52079.26
523.58	51828.82
523.75	52074.58
523.92	52006.70
524.10	52016.07
524.27	52526.30
524.44	52315.65
524.61	52325.02
524.78	52493.54
524.96	52069.90
525.13	52456.09
525.30	52563.75
525.47	53003.77
525.64	52828.23
525.81	52872.70
525.98	53134.84
526.16	52931.22
526.33	53148.88
526.50	53326.77
526.67	53031.86
526.84	53242.51
527.01	52992.07
527.18	53078.67
527.36	53090.37
527.53	53420.39
527.70	53418.05
527.87	53535.07
528.04	53340.81
528.21	53876.79
528.38	53483.58
528.55	53914.24
528.72	53581.88
528.89	53811.26
529.07	53729.34
529.24	53932.96
529.41	54178.72
529.58	53979.78
529.75	54040.63
529.92	53979.78
530.09	54059.35
530.26	53975.09
530.43	54216.17
530.60	54000.84
530.77	54143.61
530.94	54260.64
531.11	54103.82
531.28	54368.30
531.46	54370.64
531.63	54588.31
531.80	54274.68
531.97	54719.38
532.14	54801.30
532.31	54461.93
532.48	54653.85
532.65	54972.16
532.82	54763.85
532.99	55086.85
533.16	54855.14
533.33	55049.40
533.50	55264.73
533.67	54953.44
533.84	54981.52
534.01	55379.42
534.18	55281.11
534.35	55601.77
534.52	55377.08
534.69	55622.83
534.86	55360.69
535.03	55227.28
535.20	55489.42
535.37	55697.73
535.54	55669.64
535.71	55494.10
535.88	55683.69
536.05	55571.34
536.22	55899.01
536.38	55800.71
536.55	55606.45
536.72	55765.60
536.89	55458.99
537.06	55824.12
537.23	55929.44
537.40	55695.39
537.57	55985.61
537.74	56135.41
537.91	56399.89
538.08	56072.21
538.25	55990.30
538.42	56191.58
538.59	56420.95
538.75	56186.90
538.92	56346.06
539.09	56610.54
539.26	56179.88
539.43	56229.03
539.60	56388.19
539.77	56575.43
539.94	56753.31
540.11	56685.43
540.28	56713.52
540.44	56697.14
540.61	56844.59
540.78	56451.38
540.95	56638.62
541.12	56655.01
541.29	56657.35
541.46	56694.80
541.62	56750.97
541.79	56992.04
541.96	56446.70
542.13	56788.42
542.30	56814.16
542.47	57125.46
542.63	57106.73
542.80	57240.14
542.97	57387.60
543.14	57680.16
543.31	57443.77
543.48	57476.54
543.64	57488.24
543.81	57392.28
543.98	57717.61
544.15	57556.11
544.32	57719.95
544.48	57916.56
544.65	57478.88
544.82	57485.90
544.99	57368.87
545.16	57804.21
545.32	57537.39
545.49	57991.45
545.66	57860.38
545.83	57918.90
546.00	58073.37
546.16	57914.22
546.33	57895.49
546.50	57705.91
546.67	58122.52
546.83	57836.98
547.00	58145.93
547.17	58028.90
547.34	58124.86
547.50	58080.39
547.67	58155.29
547.84	58174.02
548.00	58225.51
548.17	58529.78
548.34	58349.56
548.51	58344.87
548.67	58473.60
548.84	58342.53
549.01	58365.94
549.18	58403.39
549.34	58497.01
549.51	58518.07
549.68	58702.98
549.84	58576.59
550.01	58836.39
550.18	58480.63
550.34	58754.47
550.51	58759.15
550.68	58607.01
550.84	58670.21
551.01	58944.05
551.18	58812.98
551.34	58843.41
551.51	58953.41
551.68	58939.37
551.84	58756.81
552.01	58859.79
552.18	59107.89
552.34	58721.70
552.51	59091.51
552.68	58836.39
552.84	58691.27
553.01	59203.85
553.18	59103.21
553.34	59065.76
553.51	59054.06
553.67	58745.11
553.84	59292.79
554.01	59133.63
554.17	59084.48
554.34	59288.11
554.51	59201.51
554.67	59355.99
554.84	59283.43
555.00	59014.27
555.17	58951.07
555.33	59255.34
555.50	59306.83
555.67	59299.81
555.83	59175.76
556.00	59346.62
556.16	59634.51
556.33	59735.15
556.50	59430.88
556.66	59503.44
556.83	59470.67
556.99	59543.23
557.16	59700.04
557.32	59568.97
557.49	59845.16
557.65	59271.73
557.82	59496.42
557.98	59615.79
558.15	59697.70
558.32	59704.73
558.48	59749.20
558.65	59613.44
558.81	59845.16
558.98	59796.01
559.14	59842.82
559.31	59915.37
559.47	59971.55
559.64	59952.82
559.80	59948.14
559.97	59791.33
560.13	59826.43
560.30	59934.10
560.46	59999.63
560.63	60079.21
560.79	59863.88
560.96	59955.16
561.12	59910.69
561.29	59887.29
561.45	60051.12
561.61	60055.81
561.78	59969.21
561.94	59980.91
562.11	60041.76
562.27	60109.64
562.44	60259.43
562.60	60128.36
562.77	60350.71
562.93	60095.60
563.10	60275.82
563.26	59913.03
563.42	60406.89
563.59	60069.85
563.75	60121.34
563.92	60200.92
564.08	60100.28
564.24	60378.80
564.41	60453.70
564.57	60460.72
564.74	60441.99
564.90	60324.97
565.07	60278.16
565.23	60261.77
565.39	60292.20
565.56	60474.76
565.72	60397.52
565.88	60399.86
566.05	60537.96
566.21	60229.01
566.38	60526.25
566.54	60467.74
566.70	60430.29
566.87	60598.81
567.03	60257.09
567.19	60713.50
567.36	60484.12
567.52	60397.52
567.68	60814.14
567.85	60437.31
568.01	60804.78
568.17	60575.40
568.34	60647.96
568.50	60645.62
568.66	60542.64
568.83	60612.85
568.99	60430.29
569.15	60694.77
569.32	60706.47
569.48	60509.87
569.64	60977.98
569.81	60718.18
569.97	60753.29
570.13	60746.26
570.30	60640.94
570.46	60474.76
570.62	60764.99
570.78	60704.13
570.95	60793.07
571.11	60886.70
571.27	60912.44
571.43	60671.37
571.60	60720.52
571.76	60624.56
571.92	60732.22
572.09	60867.97
572.25	60720.52
572.41	60903.08
572.57	60863.29
572.74	61134.79
572.90	61050.53
573.06	60708.82
573.22	60874.99
573.38	60842.23
573.55	60725.20
573.71	61085.64
573.87	60715.84
574.03	60598.81
574.20	60793.07
574.36	60935.85
574.52	60867.97
574.68	60790.73
574.84	60945.21
575.01	60891.38
575.17	60949.89
575.33	60926.49
575.49	60985.00
575.65	60926.49
575.82	61066.92
575.98	60926.49
576.14	61233.10
576.30	61144.16
576.46	60666.69
576.62	60697.11
576.79	60781.37
576.95	60924.14
577.11	61034.15
577.27	61155.86
577.43	60968.61
577.59	61090.32
577.75	60898.40
577.92	60867.97
578.08	60910.10
578.24	61062.24
578.40	61066.92
578.56	61200.33
578.72	61095.00
578.88	61127.77
579.04	61256.50
579.21	61013.08
579.37	61240.12
579.53	61193.31
579.69	61158.20
579.85	60931.17
580.01	61202.67
580.17	60996.70
580.33	61139.47
580.49	61298.63
580.65	61158.20
580.82	60992.02
580.98	61116.07
581.14	61202.67
581.30	61282.25
581.46	61197.99
581.62	61118.41
581.78	61097.34
581.94	61123.09
582.10	61247.14
582.26	61022.45
582.42	61179.26
582.58	61111.39
582.74	61240.12
582.90	61099.68
583.06	61155.86
583.22	60989.68
583.38	61256.50
583.54	61073.94
583.70	61183.94
583.86	61240.12
584.02	61066.92
584.18	61141.81
584.34	61298.63
584.50	61057.56
584.66	61279.91
584.82	60835.20
584.98	61221.39
585.14	61326.72
585.30	61123.09
585.46	61207.35
585.62	61165.22
585.78	61317.35
585.94	61087.98
586.10	61179.26
586.26	61310.33
586.42	61165.22
586.58	61481.19
586.74	61298.63
586.90	61293.95
587.06	61188.63
587.22	61490.55
587.38	61310.33
587.54	61408.64
587.70	61354.80
587.86	61216.71
588.02	61317.35
588.18	61649.71
588.34	61485.87
