SpectraSuite Data File
++++++++++++++++++++++++++++++++++++
Date: Fri Oct 25 11:25:41 EDT 2013
User: price-jones
Dark Spectrum Present: No
Reference Spectrum Present: No
Number of Sampled Component Spectra: 1
Spectrometers: USB2+H05261
Integration Time (usec): 100000 (USB2+H05261)
Spectra Averaged: 1 (USB2+H05261)
Boxcar Smoothing: 0 (USB2+H05261)
Correct for Electrical Dark: No (USB2+H05261)
Strobe/Lamp Enabled: No (USB2+H05261)
Correct for Detector Non-linearity: No (USB2+H05261)
Correct for Stray Light: No (USB2+H05261)
Number of Pixels in Processed Spectrum: 2048
>>>>>Begin Processed Spectral Data<<<<<
365.73	205.97
365.92	205.97
366.12	205.97
366.32	126.39
366.52	133.41
366.72	135.75
366.91	74.90
367.11	110.01
367.31	142.77
367.51	133.41
367.70	65.54
367.90	168.52
368.10	126.39
368.30	119.37
368.49	159.16
368.69	98.30
368.89	77.24
369.09	81.92
369.28	201.29
369.48	191.92
369.68	229.37
369.87	196.60
370.07	161.50
370.27	259.80
370.47	374.49
370.66	645.99
370.86	669.39
371.06	697.48
371.25	699.82
371.45	650.67
371.65	692.80
371.84	683.44
372.04	683.44
372.24	692.80
372.44	856.64
372.63	760.67
372.83	688.12
373.03	765.36
373.22	765.36
373.42	802.80
373.62	713.86
373.81	786.42
374.01	800.46
374.21	795.78
374.40	791.10
374.60	814.51
374.79	821.53
374.99	847.27
375.19	830.89
375.38	854.30
375.58	840.25
375.78	861.32
375.97	858.98
376.17	933.87
376.37	784.08
376.56	868.34
376.76	891.74
376.95	882.38
377.15	887.06
377.35	926.85
377.54	868.34
377.74	915.15
377.93	863.66
378.13	940.90
378.33	952.60
378.52	959.62
378.72	940.90
378.91	910.47
379.11	940.90
379.31	952.60
379.50	875.36
379.70	1008.77
379.89	931.53
380.09	1032.18
380.28	800.46
380.48	877.70
380.68	924.51
380.87	968.98
381.07	938.55
381.26	1020.47
381.46	1064.94
381.65	1039.20
381.85	1100.05
382.04	1015.79
382.24	1116.44
382.43	1078.99
382.63	1027.50
382.83	1015.79
383.02	1116.44
383.22	1111.75
383.41	1095.37
383.61	1022.81
383.80	1149.20
384.00	1153.88
384.19	1228.78
384.39	1142.18
384.58	1069.62
384.78	1181.97
384.97	1090.69
385.17	1135.16
385.36	1132.82
385.56	1210.06
385.75	1146.86
385.95	1104.73
386.14	1046.22
386.34	1158.57
386.53	1219.42
386.72	1128.14
386.92	1156.22
387.11	1212.40
387.31	1188.99
387.50	1184.31
387.70	1261.55
387.89	1308.36
388.09	1193.67
388.28	1193.67
388.48	1221.76
388.67	1385.60
388.86	1277.93
389.06	1324.74
389.25	1282.61
389.45	1355.17
389.64	1352.83
389.84	1366.87
390.03	1301.34
390.22	1423.05
390.42	1366.87
390.61	1383.26
390.81	1376.24
391.00	1406.66
391.19	1416.02
391.39	1416.02
391.58	1441.77
391.78	1537.73
391.97	1465.18
392.16	1490.92
392.36	1514.33
392.55	1544.75
392.75	1540.07
392.94	1500.28
393.13	1432.41
393.33	1519.01
393.52	1579.86
393.71	1621.99
393.91	1629.01
394.10	1563.48
394.29	1561.14
394.49	1586.88
394.68	1610.29
394.88	1565.82
395.07	1685.19
395.26	1680.50
395.46	1612.63
395.65	1685.19
395.84	1685.19
396.04	1739.02
396.23	1685.19
396.42	1710.93
396.62	1673.48
396.81	1839.66
397.00	1769.44
397.19	1710.93
397.39	1729.66
397.58	1797.53
397.77	1785.83
397.97	1781.15
398.16	1860.73
398.35	1774.13
398.55	1884.13
398.74	1935.62
398.93	1916.90
399.12	1940.30
399.32	1842.00
399.51	1944.99
399.70	2050.31
399.90	1949.67
400.09	1909.88
400.28	1989.46
400.47	2045.63
400.67	2083.08
400.86	2062.01
401.05	2097.12
401.24	2104.14
401.44	2097.12
401.63	2101.80
401.82	2104.14
402.01	2169.68
402.21	2120.53
402.40	2165.00
402.59	2092.44
402.78	2251.60
402.97	2188.40
403.17	2282.02
403.36	2310.11
403.55	2340.54
403.74	2396.71
403.93	2352.24
404.13	2408.41
404.32	2359.26
404.51	2347.56
404.70	2307.77
404.89	2275.00
405.09	2445.86
405.28	2438.84
405.47	2485.65
405.66	2516.08
405.85	2560.55
406.05	2443.52
406.24	2546.50
406.43	2520.76
406.62	2672.89
406.81	2640.12
407.00	2619.06
407.20	2537.14
407.39	2635.44
407.58	2658.85
407.77	2740.77
407.96	2745.45
408.15	2815.66
408.34	2675.23
408.54	2775.88
408.73	2792.26
408.92	2773.53
409.11	2881.20
409.30	2754.81
409.49	2911.63
409.68	2853.11
409.87	3030.99
410.07	3080.14
410.26	2942.05
410.45	2944.39
410.64	3042.70
410.83	3016.95
411.02	3082.49
411.21	3218.24
411.40	3038.02
411.59	3262.71
411.78	3136.32
411.98	3087.17
412.17	3155.04
412.36	3325.90
412.55	3419.52
412.74	3403.14
412.93	3356.33
413.12	3361.01
413.31	3471.01
413.50	3534.21
413.69	3463.99
413.88	3632.51
414.07	3592.72
414.26	3684.00
414.45	3681.66
414.64	3583.36
414.83	3768.26
415.02	3791.67
415.22	3758.90
415.41	3782.31
415.60	3808.05
415.79	3777.62
415.98	3892.31
416.17	4021.04
416.36	3960.19
416.55	3836.14
416.74	4007.00
416.93	3946.14
417.12	4119.34
417.31	4060.83
417.50	4173.18
417.69	4315.95
417.88	4397.87
418.07	4315.95
418.26	4299.56
418.45	4353.40
418.64	4526.60
418.83	4409.57
419.02	4311.27
419.21	4507.87
419.39	4542.98
419.58	4507.87
419.77	4465.74
419.96	4568.73
420.15	4503.19
420.34	4608.51
420.53	4594.47
420.72	4517.23
420.91	4772.35
421.10	4720.86
421.29	4758.31
421.48	4601.49
421.67	4652.98
421.86	4622.56
422.05	4770.01
422.24	4833.21
422.43	4732.56
422.61	4912.78
422.80	4898.74
422.99	4971.30
423.18	4929.17
423.37	5008.75
423.56	4891.72
423.75	4999.38
423.94	4791.08
424.13	4561.70
424.32	4795.76
424.50	4983.00
424.69	5025.13
424.88	5050.88
425.07	5006.41
425.26	4943.21
425.45	4950.23
425.64	4954.91
425.83	5008.75
426.01	5004.07
426.20	5231.10
426.39	5177.26
426.58	4924.49
426.77	5167.90
426.96	5163.22
427.15	4959.60
427.33	5163.22
427.52	5186.63
427.71	5310.68
427.90	5210.03
428.09	5273.23
428.28	5345.78
428.46	5305.99
428.65	5284.93
428.84	5650.05
429.03	5523.66
429.22	5153.86
429.40	5401.96
429.59	5472.17
429.78	5289.61
429.97	5359.83
430.16	5472.17
430.34	5689.84
430.53	5657.07
430.72	5617.29
430.91	5650.05
431.10	5579.84
431.28	5713.25
431.47	5600.90
431.66	5921.56
431.85	5818.57
432.03	5804.53
432.22	5933.26
432.41	5884.11
432.60	6061.99
432.79	5916.87
432.97	5933.26
433.16	6047.94
433.35	6036.24
433.54	5919.21
433.72	6221.14
433.91	5977.73
434.10	6066.67
434.28	6029.22
434.47	6143.91
434.66	6263.27
434.85	6263.27
435.03	6333.49
435.22	6169.65
435.41	6595.63
435.59	6445.84
435.78	6455.20
435.97	6359.24
436.16	6305.40
436.34	6532.44
436.53	6513.71
436.72	6764.15
436.90	6445.84
437.09	6600.31
437.28	6572.22
437.46	6619.04
437.65	6640.10
437.84	6736.06
438.02	6729.04
438.21	6595.63
438.40	6752.45
438.58	6977.14
438.77	7119.91
438.96	6839.05
439.14	6984.16
439.33	7122.25
439.52	7243.96
439.70	7232.26
439.89	7286.09
440.08	7454.61
440.26	7276.73
440.45	7258.00
440.63	7286.09
440.82	7517.80
441.01	7321.20
441.19	7438.22
441.38	7583.34
441.57	7506.10
441.75	7808.03
441.94	7969.52
442.12	7796.32
442.31	8009.31
442.50	7903.99
442.68	7985.91
442.87	8126.34
443.05	8203.58
443.24	8269.11
443.43	7939.10
443.61	8138.04
443.80	8210.60
443.98	8060.80
444.17	8098.25
444.35	8018.68
444.54	8236.35
444.73	8226.98
444.91	8231.66
445.10	8381.46
445.28	8329.97
445.47	8093.57
445.65	8269.11
445.84	8409.54
446.02	8594.45
446.21	8271.45
446.39	8606.15
446.58	8496.14
446.77	8528.91
446.95	8313.58
447.14	8339.33
447.32	8484.44
447.51	8374.44
447.69	8411.89
447.88	8439.97
448.06	8547.64
448.25	8615.51
448.43	8493.80
448.62	8332.31
448.80	8484.44
448.99	8667.00
449.17	8587.43
449.36	8755.94
449.54	8713.81
449.73	8931.48
449.91	8938.51
450.10	8912.76
450.28	8961.91
450.46	8917.44
450.65	9074.26
450.83	8905.74
451.02	8854.25
451.20	9046.17
451.39	9081.28
451.57	9050.85
451.76	8982.98
451.94	9067.24
452.13	9261.50
452.31	9324.69
452.49	9116.39
452.68	9111.71
452.86	9231.07
453.05	9341.08
453.23	9465.13
453.42	9383.21
453.60	9291.93
453.78	9731.95
453.97	9298.95
454.15	9474.49
454.34	9291.93
454.52	9748.33
454.70	9736.63
454.89	9624.28
455.07	9872.38
455.26	9783.44
455.44	9907.49
455.62	9870.04
455.81	9757.69
455.99	9783.44
456.17	10052.60
456.36	9921.53
456.54	10221.12
456.73	10230.48
456.91	10499.64
457.09	10270.27
457.28	10410.70
457.46	10197.71
457.64	10310.06
457.83	10487.94
458.01	10181.33
458.19	10745.40
458.38	10534.75
458.56	10565.18
458.74	10616.67
458.93	10630.71
459.11	10600.29
459.29	10747.74
459.48	10794.55
459.66	10635.39
459.84	10700.93
460.03	10878.81
460.21	11037.97
460.39	10764.12
460.57	10846.04
460.76	11143.29
460.94	11112.86
461.12	11314.15
461.31	11250.96
461.49	11063.71
461.67	11248.61
461.85	11353.94
462.04	11145.63
462.22	11756.51
462.40	11522.46
462.59	11559.91
462.77	11620.76
462.95	11784.60
463.13	11613.74
463.32	11637.14
463.50	11623.10
463.68	11918.01
463.86	11803.32
464.05	11527.14
464.23	11716.72
464.41	11705.02
464.59	11777.58
464.78	12224.62
464.96	11824.39
465.14	11815.02
465.32	11847.79
465.50	12175.47
465.69	11988.22
465.87	11925.03
466.05	12126.32
466.23	12276.11
466.41	12175.47
466.60	12453.99
466.78	12259.73
466.96	12250.36
467.14	12299.52
467.32	12119.29
467.51	12561.66
467.69	12163.76
467.87	12283.13
468.05	12706.77
468.23	12521.87
468.41	12566.34
468.60	12753.58
468.78	12603.78
468.96	12758.26
469.14	12585.06
469.32	12898.69
469.50	12397.82
469.69	12999.34
469.87	13027.42
470.05	13467.44
470.23	13083.59
470.41	13118.70
470.59	13099.98
470.77	13268.50
470.95	13270.84
471.14	13448.72
471.32	12996.99
471.50	13523.62
471.68	13645.32
471.86	13476.80
472.04	13731.92
472.22	14104.07
472.40	13715.54
472.58	13731.92
472.77	13717.88
472.95	14115.77
473.13	14518.34
473.31	13785.76
473.49	14295.99
473.67	13923.85
473.85	14361.53
474.03	14623.67
474.21	14380.25
474.39	14635.37
474.57	14436.42
474.75	14846.02
474.93	14899.85
475.12	14668.14
475.30	14759.42
475.48	14949.00
475.66	14965.39
475.84	15222.84
476.02	15356.25
476.20	15391.36
476.38	15712.02
476.56	16142.67
476.74	15786.91
476.92	15695.63
477.10	15761.17
477.28	16348.64
477.46	16137.99
477.64	16145.02
477.82	16329.92
478.00	16664.61
478.18	16776.96
478.36	16643.55
478.54	16830.79
478.72	17041.44
478.90	17219.32
479.08	17319.96
479.26	17605.51
479.44	17507.21
479.62	17703.81
479.80	17991.70
479.98	18202.35
480.16	18457.46
480.34	18221.07
480.52	18436.40
480.70	18394.27
480.88	18366.18
481.06	18642.37
481.24	18759.39
481.41	19295.38
481.59	19522.41
481.77	19447.51
481.95	19407.72
482.13	19653.48
482.31	19466.24
482.49	19840.72
482.67	20243.29
482.85	20388.41
483.03	20404.79
483.21	20802.68
483.39	20905.66
483.57	20559.27
483.74	21142.06
483.92	21362.07
484.10	21102.27
484.28	21612.51
484.46	21879.33
484.64	22157.85
484.82	21949.54
485.00	22394.25
485.18	22829.59
485.35	22679.79
485.53	22642.34
485.71	22913.84
485.89	23150.24
486.07	22637.66
486.25	23351.52
486.43	23365.57
486.61	23697.92
486.78	23934.32
486.96	24411.79
487.14	24809.68
487.32	24439.87
487.50	24706.70
487.68	24964.15
487.85	25167.78
488.03	25488.43
488.21	25692.06
488.39	25869.94
488.57	26120.38
488.75	26293.58
488.92	26679.77
489.10	26597.85
489.28	26541.68
489.46	27103.40
489.64	26951.27
489.81	27601.94
489.99	27793.86
490.17	27417.04
490.35	28175.37
490.53	28084.09
490.70	28229.20
490.88	28198.77
491.06	28891.57
491.24	28641.14
491.41	29296.49
491.59	29137.33
491.77	29146.69
491.95	29610.12
492.13	29249.67
492.30	29647.57
492.48	29839.49
492.66	30075.88
492.84	30307.60
493.01	30485.48
493.19	30738.26
493.37	30941.88
493.54	31133.81
493.72	31449.78
493.90	31704.90
494.08	31711.92
494.25	31651.06
494.43	31807.88
494.61	32268.97
494.79	32587.28
494.96	32601.32
495.14	32741.75
495.32	33235.61
495.49	32980.49
495.67	33078.79
495.85	33118.58
496.02	33734.14
496.20	34003.30
496.38	33933.09
496.55	33991.60
496.73	34691.42
496.91	34286.51
497.09	34426.94
497.26	34782.70
497.44	34916.11
497.62	35089.31
497.79	35489.54
497.97	35468.48
498.14	35819.56
498.32	35812.54
498.50	36205.75
498.67	36465.55
498.85	36208.09
499.03	36449.16
499.20	36849.39
499.38	36790.88
499.56	36723.01
499.73	36985.15
499.91	37130.26
500.08	37303.46
500.26	36903.23
500.44	37303.46
500.61	37656.88
500.79	37364.31
500.97	38068.81
501.14	38480.75
501.32	38595.43
501.49	38565.01
501.67	38401.17
501.84	38665.65
502.02	39229.72
502.20	39030.77
502.37	39433.35
502.55	38986.30
502.72	38962.90
502.90	39725.91
503.07	39009.71
503.25	39674.42
503.43	39665.06
503.60	39681.44
503.78	40294.66
503.95	39868.69
504.13	40179.98
504.30	40240.83
504.48	40697.24
504.65	40390.62
504.83	40793.20
505.01	41249.60
505.18	40605.95
505.36	41076.40
505.53	41048.32
505.71	41862.82
505.88	41682.60
506.06	41303.43
506.23	41642.81
506.41	41731.75
506.58	41909.63
506.76	42050.06
506.93	42005.59
507.11	41703.67
507.28	42230.29
507.46	42197.52
507.63	43061.18
507.81	42770.95
507.98	42691.37
508.16	43030.75
508.33	43601.84
508.50	43412.26
508.68	43545.67
508.85	43742.27
509.03	43489.49
509.20	43814.83
509.38	44634.02
509.55	44091.01
509.73	44318.04
509.90	44825.94
510.08	44512.31
510.25	44437.41
510.42	44449.11
510.60	44959.35
510.77	45249.58
510.95	45399.37
511.12	44900.84
511.30	44999.14
511.47	45247.24
511.64	45181.70
511.82	45340.86
511.99	45530.44
512.17	45940.04
512.34	45663.85
512.51	45991.53
512.69	46300.48
512.86	45951.74
513.04	46501.76
513.21	46138.98
513.38	46415.16
513.56	46625.81
513.73	46525.17
513.90	47110.30
514.08	46492.40
514.25	47175.84
514.43	47302.23
514.60	46838.80
514.77	47114.98
514.95	47983.32
515.12	47613.52
515.29	47271.80
515.47	47636.92
515.64	48088.65
515.81	47852.25
515.99	47920.13
516.16	48292.27
516.33	48149.50
516.51	48645.69
516.68	47983.32
516.85	48257.17
517.03	48617.61
517.20	48662.08
517.37	48648.03
517.54	48488.88
517.72	48708.89
517.89	48942.94
518.06	48699.53
518.24	49336.15
518.41	49202.74
518.58	49319.77
518.75	49092.74
518.93	49689.57
519.10	49373.60
519.27	49783.19
519.45	49612.34
519.62	49610.00
519.79	49682.55
519.96	50003.20
520.14	49947.03
520.31	49684.89
520.48	50373.01
520.65	50192.79
520.83	50246.62
521.00	50415.14
521.17	50363.65
521.34	50445.57
521.52	50426.84
521.69	50658.56
521.86	50770.90
522.03	51288.16
522.20	51224.96
522.38	51426.25
522.55	51344.33
522.72	51140.71
522.89	51253.05
523.07	51566.68
523.24	51262.41
523.41	51587.75
523.58	51264.75
523.75	51508.17
523.92	51674.35
524.10	51377.10
524.27	51753.93
524.44	51814.78
524.61	52172.88
524.78	52140.11
524.96	52002.02
525.13	52186.92
525.30	52306.29
525.47	52215.01
525.64	52413.96
525.81	52278.21
525.98	52657.37
526.16	52378.85
526.33	52416.30
526.50	53013.13
526.67	52512.26
526.84	52685.46
527.01	52790.78
527.18	52743.97
527.36	52821.21
527.53	52645.67
527.70	53298.68
527.87	53476.56
528.04	52893.77
528.21	53188.67
528.38	53350.17
528.55	53373.58
528.72	53340.81
528.89	53209.74
529.07	53251.87
529.24	53160.59
529.41	53563.16
529.58	53549.12
529.75	53642.74
529.92	53312.72
530.09	53682.53
530.26	54021.90
530.43	53914.24
530.60	53719.98
530.77	53705.93
530.94	54094.46
531.11	54012.54
531.28	53996.16
531.46	53982.12
531.63	54237.23
531.80	54372.99
531.97	54160.00
532.14	54237.23
532.31	54398.73
532.48	54176.38
532.65	54571.93
532.82	54155.32
532.99	54330.86
533.16	54340.22
533.33	54508.74
533.50	54457.24
533.67	54660.87
533.84	54859.82
534.01	54745.13
534.18	54625.76
534.35	55068.12
534.52	54845.77
534.69	55185.15
534.86	55412.18
535.03	55049.40
535.20	55054.08
535.37	55374.73
535.54	55461.33
535.71	55093.87
535.88	55297.50
536.05	55339.63
536.22	55405.16
536.38	55599.43
536.55	55573.68
536.72	55238.98
536.89	55323.24
537.06	55370.05
537.23	55468.36
537.40	55580.70
537.57	55510.49
537.74	55655.60
537.91	55875.61
538.08	55929.44
538.25	55653.26
538.42	55849.86
538.59	56093.28
538.75	55805.39
538.92	55838.16
539.09	56027.74
539.26	55994.98
539.43	55941.14
539.60	56072.21
539.77	56053.49
539.94	56612.88
540.11	56395.21
540.28	56186.90
540.44	56198.60
540.61	56418.61
540.78	56268.82
540.95	56315.63
541.12	56200.94
541.29	56278.18
541.46	56411.59
541.62	56165.84
541.79	56519.26
541.96	56275.84
542.13	56381.16
542.30	56765.01
542.47	56631.60
542.63	57064.60
542.80	56601.18
542.97	56772.03
543.14	57073.96
543.31	57104.39
543.48	57069.28
543.64	57293.97
543.81	57340.78
543.98	57193.33
544.15	57160.56
544.32	57326.74
544.48	57584.20
544.65	57214.40
544.82	57282.27
544.99	57104.39
545.16	57469.51
545.32	57275.25
545.49	57783.15
545.66	57820.59
545.83	57513.98
546.00	57666.12
546.16	57570.16
546.33	57268.23
546.50	57113.75
546.67	57525.69
546.83	57469.51
547.00	57588.88
547.17	57549.09
547.34	57907.19
547.50	57904.85
547.67	57932.94
547.84	57900.17
548.00	57895.49
548.17	58052.31
548.34	57827.62
548.51	58241.89
548.67	58209.12
548.84	58092.10
549.01	57834.64
549.18	58335.51
549.34	58066.35
549.51	58328.49
549.68	57965.71
549.84	58195.08
550.01	58272.32
550.18	58188.06
550.34	58368.28
550.51	58354.24
550.68	58515.73
550.84	58225.51
551.01	58454.88
551.18	58344.87
551.34	58541.48
551.51	58522.76
551.68	58660.85
551.84	58539.14
552.01	58347.21
552.18	58557.86
552.34	58515.73
552.51	58700.64
552.68	58459.56
552.84	58728.72
553.01	58934.69
553.18	58515.73
553.34	58911.28
553.51	58387.00
553.67	58787.24
553.84	58834.05
554.01	58756.81
554.17	58887.88
554.34	59051.72
554.51	58908.94
554.67	59105.55
554.84	58768.51
555.00	59056.40
555.17	58951.07
555.33	59070.44
555.50	58824.68
555.67	58726.38
555.83	58944.05
556.00	58965.12
556.16	59248.32
556.33	59217.89
556.50	59260.02
556.66	58864.47
556.83	59098.53
556.99	59480.03
557.16	59288.11
557.32	59255.34
557.49	59313.86
557.65	59070.44
557.82	59447.27
557.98	59168.74
558.15	59222.58
558.32	59402.80
558.48	59316.20
558.65	59428.54
558.81	59522.16
558.98	59234.28
559.14	59409.82
559.31	59707.07
559.47	59676.64
559.64	59573.66
559.80	59496.42
559.97	59515.14
560.13	59430.88
560.30	59475.35
560.46	59407.48
560.63	59702.38
560.79	59554.93
560.96	59849.84
561.12	59781.96
561.29	59915.37
561.45	59557.27
561.61	59653.23
561.78	59742.17
561.94	59489.40
562.11	59718.77
562.27	59779.62
562.44	59852.18
562.60	59742.17
562.77	59971.55
562.93	59711.75
563.10	60016.02
563.26	59744.51
563.42	60175.17
563.59	59929.42
563.75	59828.77
563.92	59774.94
564.08	59952.82
564.24	60093.25
564.41	60179.85
564.57	60083.89
564.74	60004.31
564.90	60100.28
565.07	59924.74
565.23	60069.85
565.39	60069.85
565.56	60121.34
565.72	59903.67
565.88	59957.50
566.05	59772.60
566.21	60151.77
566.38	60030.06
566.54	60116.66
566.70	60233.69
566.87	60432.63
567.03	60011.34
567.19	60331.99
567.36	60231.35
567.52	60226.66
567.68	60449.02
567.85	60463.06
568.01	60449.02
568.17	60072.19
568.34	60385.82
568.50	60214.96
568.66	60147.09
568.83	60154.11
568.99	60320.29
569.15	60402.21
569.32	60406.89
569.48	60413.91
569.64	60254.75
569.81	60219.64
569.97	60233.69
570.13	60420.93
570.30	60451.36
570.46	60381.14
570.62	60268.79
570.78	60303.90
570.95	60289.86
571.11	60636.26
571.27	60425.61
571.43	60430.29
571.60	60449.02
571.76	60425.61
571.92	60505.19
572.09	60676.05
572.25	60437.31
572.41	60348.37
572.57	60460.72
572.74	60734.56
572.90	60552.00
573.06	60636.26
573.22	60549.66
573.38	60282.84
573.55	60739.24
573.71	60851.59
573.87	60619.88
574.03	60381.14
574.20	60612.85
574.36	60570.72
574.52	60535.62
574.68	60566.04
574.84	60729.88
575.01	60757.97
575.17	60605.83
575.33	60591.79
575.49	60491.15
575.65	60617.53
575.82	60767.33
575.98	60687.75
576.14	60879.67
576.30	60772.01
576.46	60727.54
576.62	60673.71
576.79	60643.28
576.95	60643.28
577.11	60825.84
577.27	60739.24
577.43	60842.23
577.59	60626.90
577.75	60640.94
577.92	60659.66
578.08	60694.77
578.24	60711.16
578.40	60832.86
578.56	60856.27
578.72	60704.13
578.88	60832.86
579.04	61090.32
579.21	60767.33
579.37	60963.93
579.53	60961.59
579.69	60523.91
579.85	60743.92
580.01	60748.60
580.17	60811.80
580.33	60774.35
580.49	60678.39
580.65	60673.71
580.82	60640.94
580.98	60734.56
581.14	60704.13
581.30	60844.57
581.46	60809.46
581.62	60823.50
581.78	60626.90
581.94	60629.24
582.10	60739.24
582.26	60762.65
582.42	60764.99
582.58	60924.14
582.74	60654.98
582.90	60914.78
583.06	60720.52
583.22	60673.71
583.38	60851.59
583.54	60750.94
583.70	60828.18
583.86	60945.21
584.02	60608.17
584.18	60807.12
584.34	60959.25
584.50	60762.65
584.66	60790.73
584.82	60729.88
584.98	60966.27
585.14	60907.76
585.30	60818.82
585.46	61001.38
585.62	60825.84
585.78	61073.94
585.94	60821.16
586.10	60917.12
586.26	60739.24
586.42	60966.27
586.58	61057.56
586.74	60882.02
586.90	60769.67
587.06	60846.91
587.22	61118.41
587.38	61029.47
587.54	60977.98
587.70	61183.94
587.86	60917.12
588.02	60963.93
588.18	61092.66
588.34	60809.46
588.49	60945.21
