SpectraSuite Data File
++++++++++++++++++++++++++++++++++++
Date: Fri Oct 25 11:33:57 EDT 2013
User: price-jones
Dark Spectrum Present: No
Reference Spectrum Present: No
Number of Sampled Component Spectra: 1
Spectrometers: USB2+H05261
Integration Time (usec): 100000 (USB2+H05261)
Spectra Averaged: 1 (USB2+H05261)
Boxcar Smoothing: 0 (USB2+H05261)
Correct for Electrical Dark: No (USB2+H05261)
Strobe/Lamp Enabled: No (USB2+H05261)
Correct for Detector Non-linearity: No (USB2+H05261)
Correct for Stray Light: No (USB2+H05261)
Number of Pixels in Processed Spectrum: 2048
>>>>>Begin Processed Spectral Data<<<<<
365.73	248.10
365.92	248.10
366.12	248.10
366.32	196.60
366.52	184.90
366.72	224.69
366.91	119.37
367.11	163.84
367.31	133.41
367.51	198.95
367.70	147.45
367.90	175.54
368.10	182.56
368.30	175.54
368.49	126.39
368.69	156.82
368.89	175.54
369.09	182.56
369.28	255.12
369.48	168.52
369.68	266.82
369.87	266.82
370.07	238.73
370.27	252.78
370.47	327.68
370.66	437.68
370.86	447.04
371.06	545.34
371.25	496.19
371.45	566.41
371.65	559.39
371.84	573.43
372.04	545.34
372.24	617.90
372.44	566.41
372.63	641.31
372.83	627.26
373.03	564.07
373.22	561.73
373.42	578.11
373.62	524.28
373.81	664.71
374.01	688.12
374.21	655.35
374.40	695.14
374.60	688.12
374.79	695.14
374.99	645.99
375.19	636.63
375.38	711.52
375.58	667.05
375.78	685.78
375.97	636.63
376.17	744.29
376.37	692.80
376.56	746.63
376.76	695.14
376.95	678.76
377.15	772.38
377.35	695.14
377.54	692.80
377.74	585.13
377.93	716.20
378.13	702.16
378.33	690.46
378.52	678.76
378.72	732.59
378.91	650.67
379.11	645.99
379.31	683.44
379.50	587.47
379.70	695.14
379.89	702.16
380.09	706.84
380.28	662.37
380.48	711.52
380.68	713.86
380.87	727.91
381.07	734.93
381.26	800.46
381.46	723.23
381.65	833.23
381.85	741.95
382.04	744.29
382.24	807.48
382.43	753.65
382.63	826.21
382.83	755.99
383.02	748.97
383.22	807.48
383.41	863.66
383.61	833.23
383.80	877.70
384.00	844.93
384.19	875.36
384.39	866.00
384.58	877.70
384.78	793.44
384.97	828.55
385.17	795.78
385.36	784.08
385.56	849.61
385.75	861.32
385.95	828.55
386.14	896.43
386.34	800.46
386.53	873.02
386.72	758.33
386.92	840.25
387.11	858.98
387.31	844.93
387.50	957.28
387.70	933.87
387.89	877.70
388.09	952.60
388.28	933.87
388.48	863.66
388.67	896.43
388.86	861.32
389.06	933.87
389.25	999.41
389.45	999.41
389.64	870.68
389.84	1032.18
390.03	957.28
390.22	929.19
390.42	915.15
390.61	968.98
390.81	990.05
391.00	891.74
391.19	976.00
391.39	971.32
391.58	1057.92
391.78	980.68
391.97	940.90
392.16	1039.20
392.36	1057.92
392.55	1081.33
392.75	1015.79
392.94	1100.05
393.13	978.34
393.33	1149.20
393.52	1064.94
393.71	1057.92
393.91	1132.82
394.10	1034.52
394.29	1043.88
394.49	1057.92
394.68	1116.44
394.88	1130.48
395.07	1123.46
395.26	1172.61
395.46	1076.65
395.65	1205.38
395.84	1249.85
396.04	1146.86
396.23	1156.22
396.42	1214.74
396.62	1282.61
396.81	1172.61
397.00	1193.67
397.19	1181.97
397.39	1174.95
397.58	1284.95
397.77	1273.25
397.97	1249.85
398.16	1252.19
398.35	1256.87
398.55	1179.63
398.74	1306.02
398.93	1310.70
399.12	1296.66
399.32	1273.25
399.51	1291.98
399.70	1392.62
399.90	1362.19
400.09	1423.05
400.28	1434.75
400.47	1355.17
400.67	1359.85
400.86	1315.38
401.05	1423.05
401.24	1455.81
401.44	1409.00
401.63	1483.90
401.82	1430.07
402.01	1369.21
402.21	1547.09
402.40	1430.07
402.59	1558.80
402.78	1474.54
402.97	1504.96
403.17	1474.54
403.36	1483.90
403.55	1490.92
403.74	1699.23
403.93	1619.65
404.13	1575.18
404.32	1600.93
404.51	1664.12
404.70	1701.57
404.89	1537.73
405.09	1640.72
405.28	1678.16
405.47	1762.42
405.66	1685.19
405.85	1729.66
406.05	1722.63
406.24	1713.27
406.43	1788.17
406.62	1792.85
406.81	1797.53
407.00	1748.38
407.20	1776.47
407.39	1715.61
407.58	1818.60
407.77	1823.28
407.96	1858.39
408.15	1874.77
408.34	1874.77
408.54	1802.21
408.73	1879.45
408.92	1909.88
409.11	1977.75
409.30	2012.86
409.49	1996.48
409.68	1963.71
409.87	1966.05
410.07	2099.46
410.26	2071.37
410.45	1991.80
410.64	2073.71
410.83	2083.08
411.02	2050.31
411.21	2200.10
411.40	2120.53
411.59	2071.37
411.78	2153.29
411.98	2165.00
412.17	2179.04
412.36	2237.55
412.55	2359.26
412.74	2321.81
412.93	2321.81
413.12	2244.57
413.31	2333.51
413.50	2310.11
413.69	2417.77
413.88	2466.92
414.07	2466.92
414.26	2282.02
414.45	2534.80
414.64	2686.94
414.83	2499.69
415.02	2586.29
415.22	2621.40
415.41	2593.31
415.60	2677.57
415.79	2717.36
415.98	2829.71
416.17	2689.28
416.36	2675.23
416.55	2761.83
416.74	2815.66
416.93	2661.19
417.12	2764.17
417.31	2822.69
417.50	2895.24
417.69	2986.52
417.88	3009.93
418.07	2883.54
418.26	2930.35
418.45	2916.31
418.64	3096.53
418.83	3105.89
419.02	3023.97
419.21	3218.24
419.39	3119.93
419.58	2963.12
419.77	3042.70
419.96	3098.87
420.15	3220.58
420.34	3286.11
420.53	3180.79
420.72	3162.06
420.91	3194.83
421.10	3119.93
421.29	3236.96
421.48	3222.92
421.67	3269.73
421.86	3272.07
422.05	3283.77
422.24	3258.03
422.43	3403.14
422.61	3403.14
422.80	3564.64
422.99	3485.06
423.18	3314.20
423.37	3442.93
423.56	3396.12
423.75	3276.75
423.94	3332.92
424.13	3108.23
424.32	3112.91
424.50	3449.95
424.69	3396.12
424.88	3510.80
425.07	3445.27
425.26	3363.35
425.45	3375.05
425.64	3346.97
425.83	3452.29
426.01	3368.03
426.20	3513.14
426.39	3487.40
426.58	3454.63
426.77	3492.08
426.96	3496.76
427.15	3702.73
427.33	3578.68
427.52	3658.26
427.71	3597.40
427.90	3859.54
428.09	3609.11
428.28	3730.81
428.46	3620.81
428.65	3623.15
428.84	3716.77
429.03	3702.73
429.22	3595.06
429.40	3648.90
429.59	3885.29
429.78	3665.28
429.97	3700.39
430.16	3728.47
430.34	3775.28
430.53	3782.31
430.72	3854.86
430.91	3836.14
431.10	4025.72
431.28	3859.54
431.47	3950.82
431.66	4072.53
431.85	3854.86
432.03	3936.78
432.22	4063.17
432.41	4163.81
432.60	3948.48
432.79	4028.06
432.97	4168.49
433.16	4140.41
433.35	4147.43
433.54	4081.89
433.72	4255.09
433.91	4135.73
434.10	4152.11
434.28	4046.79
434.47	4021.04
434.66	4161.47
434.85	4257.43
435.03	4138.07
435.22	4315.95
435.41	4503.19
435.59	4435.32
435.78	4280.84
435.97	4329.99
436.16	4292.54
436.34	4400.21
436.53	4404.89
436.72	4528.94
436.90	4252.75
437.09	4409.57
437.28	4362.76
437.46	4491.49
437.65	4421.27
437.84	4505.53
438.02	4559.36
438.21	4561.70
438.40	4311.27
438.58	4851.93
438.77	4774.69
438.96	4664.69
439.14	4863.63
439.33	4770.01
439.52	4922.15
439.70	4842.57
439.89	5071.94
440.08	4985.34
440.26	4877.68
440.45	4795.76
440.63	5163.22
440.82	5177.26
441.01	4997.04
441.19	5146.84
441.38	5207.69
441.57	5165.56
441.75	5350.46
441.94	5359.83
442.12	5493.24
442.31	5406.64
442.50	5350.46
442.68	5474.51
442.87	5427.70
443.05	5509.62
443.24	5497.92
443.43	5528.35
443.61	5343.44
443.80	5678.14
443.98	5497.92
444.17	5324.72
444.35	5495.58
444.54	5577.50
444.73	5481.53
444.91	5610.26
445.10	5664.10
445.28	5734.31
445.47	5500.26
445.65	5753.04
445.84	5682.82
446.02	5731.97
446.21	5701.54
446.39	5687.50
446.58	5696.86
446.77	5584.52
446.95	5577.50
447.14	5767.08
447.32	5701.54
447.51	5607.92
447.69	5565.79
447.88	5675.80
448.06	5722.61
448.25	5736.65
448.43	5785.80
448.62	5621.97
448.80	5753.04
448.99	5799.85
449.17	5888.79
449.36	5731.97
449.54	6017.52
449.73	5797.51
449.91	5928.58
450.10	6069.01
450.28	6132.20
450.46	6073.69
450.65	5954.32
450.83	6160.29
451.02	6033.90
451.20	6164.97
451.39	6136.88
451.57	6087.73
451.76	6230.51
451.94	6246.89
452.13	6284.34
452.31	6282.00
452.49	6181.35
452.68	6328.81
452.86	6338.17
453.05	6321.79
453.23	6410.73
453.42	6394.34
453.60	6356.90
453.78	6333.49
453.97	6368.60
454.15	6370.94
454.34	6293.70
454.52	6457.54
454.70	6473.92
454.89	6518.39
455.07	6693.93
455.26	6420.09
455.44	6459.88
455.62	6574.56
455.81	6555.84
455.99	6656.48
456.17	6853.09
456.36	6738.40
456.54	6637.76
456.73	6860.11
456.91	7000.54
457.09	6876.49
457.28	7105.87
457.46	6958.41
457.64	7133.95
457.83	7236.94
458.01	6991.18
458.19	7138.63
458.38	7061.40
458.56	7098.84
458.74	7112.89
458.93	7155.02
459.11	7215.87
459.29	7199.49
459.48	7068.42
459.66	7236.94
459.84	7173.74
460.03	7269.70
460.21	7384.39
460.39	7433.54
460.57	7239.28
460.76	7185.44
460.94	7314.17
461.12	7370.35
461.31	7522.48
461.49	7510.78
461.67	7403.11
461.85	7534.18
462.04	7538.87
462.22	7801.01
462.40	7576.31
462.59	7676.96
462.77	7637.17
462.95	7894.63
463.13	7634.83
463.32	7648.87
463.50	7845.48
463.68	7885.26
463.86	7733.13
464.05	7761.22
464.23	7747.17
464.41	7976.55
464.59	7784.62
464.78	8116.98
464.96	7999.95
465.14	7796.32
465.32	8107.62
465.50	8021.02
465.69	8025.70
465.87	8018.68
466.05	8042.08
466.23	8093.57
466.41	7929.74
466.60	8133.36
466.78	7999.95
466.96	8086.55
467.14	8189.53
467.32	8224.64
467.51	8252.73
467.69	8243.37
467.87	8278.47
468.05	8226.98
468.23	8287.84
468.41	8301.88
468.60	8140.38
468.78	8465.72
468.96	8503.17
469.14	8631.90
469.32	8599.13
469.50	8283.16
469.69	8676.37
469.87	8727.86
470.05	8610.83
470.23	8535.93
470.41	8739.56
470.59	8678.71
470.77	8844.88
470.95	8791.05
471.14	9139.79
471.32	8643.60
471.50	9041.49
471.68	9109.36
471.86	9039.15
472.04	9053.19
472.22	9359.80
472.40	9050.85
472.58	9207.67
472.77	9240.44
472.95	9329.38
473.13	9661.73
473.31	9308.31
473.49	9308.31
473.67	9291.93
473.85	9467.47
474.03	9451.08
474.21	9635.99
474.39	9748.33
474.57	9898.13
474.75	9942.60
474.93	9977.70
475.12	9790.46
475.30	10012.81
475.48	9839.61
475.66	10038.56
475.84	10085.37
476.02	10099.41
476.20	10136.86
476.38	10111.11
476.56	10506.66
476.74	10572.20
476.92	10443.47
477.10	10356.87
477.28	10485.60
477.46	10539.43
477.64	10607.31
477.82	10693.91
478.00	11061.37
478.18	10949.03
478.36	11063.71
478.54	11159.67
478.72	11269.68
478.90	11485.01
479.08	11506.07
479.26	11428.84
479.44	11550.54
479.62	11566.93
479.80	11779.92
479.98	11878.22
480.16	12271.43
480.34	11953.12
480.52	12311.22
480.70	12180.15
480.88	11838.43
481.06	12140.36
481.24	12362.71
481.41	12627.19
481.59	12510.16
481.77	12655.28
481.95	12847.20
482.13	13018.06
482.31	12833.16
482.49	13219.35
482.67	13184.24
482.85	13104.66
483.03	13317.65
483.21	13671.07
483.39	13752.99
483.57	13757.67
483.74	13965.98
483.92	13844.27
484.10	13797.46
484.28	14092.37
484.46	14118.11
484.64	14448.13
484.82	14487.92
485.00	14696.22
485.18	14831.97
485.35	14864.74
485.53	14991.13
485.71	15075.39
485.89	15253.27
486.07	15552.86
486.25	15159.65
486.43	15279.02
486.61	15726.06
486.78	15662.86
486.96	15810.32
487.14	15955.43
487.32	16107.57
487.50	16205.87
487.68	16299.49
487.85	16322.90
488.03	16748.87
488.21	16940.80
488.39	16947.82
488.57	17104.64
488.75	17088.25
488.92	17221.66
489.10	17500.19
489.28	17563.38
489.46	17970.63
489.64	17741.26
489.81	18125.11
489.99	17963.61
490.17	18113.41
490.35	18476.19
490.53	18272.56
490.70	18586.19
490.88	17987.02
491.06	18633.00
491.24	18740.67
491.41	18759.39
491.59	19087.07
491.77	19208.78
491.95	19051.96
492.13	19440.49
492.30	19637.09
492.48	19403.04
492.66	19637.09
492.84	19651.14
493.01	20154.35
493.19	19786.89
493.37	20105.20
493.54	20156.69
493.72	20760.55
493.90	20451.60
494.08	20697.36
494.25	20814.38
494.43	20893.96
494.61	20879.92
494.79	21137.38
494.96	21207.59
495.14	21539.95
495.32	21678.04
495.49	21626.55
495.67	21619.53
495.85	21869.97
496.02	21916.78
496.20	21994.01
496.38	22380.20
496.55	22141.47
496.73	22785.12
496.91	22518.29
497.09	22544.04
497.26	22513.61
497.44	22651.70
497.62	23005.13
497.79	23119.81
497.97	23007.47
498.14	23515.36
498.32	23283.65
498.50	22953.63
498.67	23718.99
498.85	23321.10
499.03	24013.90
499.20	24011.56
499.38	23873.46
499.56	24114.54
499.73	23761.12
499.91	24276.04
500.08	24755.85
500.26	24121.56
500.44	24484.34
500.61	24753.51
500.79	24744.14
500.97	25006.28
501.14	25099.90
501.32	24947.77
501.49	25120.97
501.67	24952.45
501.84	25090.54
502.02	25525.88
502.20	25369.07
502.37	25422.90
502.55	25387.79
502.72	25710.78
502.90	25741.21
503.07	25645.25
503.25	25675.68
503.43	25682.70
503.60	26209.32
503.78	26111.02
503.95	25989.31
504.13	26501.89
504.30	26504.23
504.48	26373.16
504.65	26693.81
504.83	27129.15
505.01	26918.50
505.18	26731.26
505.36	27220.43
505.53	26911.48
505.71	27182.98
505.88	27206.39
506.06	26794.45
506.23	27459.16
506.41	27527.04
506.58	27398.31
506.76	27688.54
506.93	27924.93
507.11	27817.27
507.28	27697.90
507.46	28205.80
507.63	28369.63
507.81	28189.41
507.98	28100.47
508.16	27866.42
508.33	28465.60
508.50	28554.54
508.68	28631.77
508.85	28627.09
509.03	28561.56
509.20	28725.39
509.38	28989.88
509.55	29067.11
509.73	29029.66
509.90	29284.78
510.08	28884.55
510.25	29177.12
510.42	29656.93
510.60	29310.53
510.77	29813.74
510.95	29773.95
511.12	29507.13
511.30	29495.43
511.47	30000.99
511.64	30192.91
511.82	30263.13
511.99	30230.36
512.17	30202.27
512.34	30188.23
512.51	30396.54
512.69	30546.33
512.86	30492.50
513.04	30726.55
513.21	30656.34
513.38	30654.00
513.56	30862.30
513.73	30436.33
513.90	30820.17
514.08	31166.57
514.25	30960.61
514.43	31360.84
514.60	31606.59
514.77	31414.67
514.95	31662.77
515.12	31630.00
515.29	31559.78
515.47	31637.02
515.64	31510.63
515.81	31459.14
515.99	31845.33
516.16	32086.40
516.33	31730.64
516.51	32474.93
516.68	31751.71
516.85	32130.87
517.03	32369.61
517.20	32877.51
517.37	32149.60
517.54	32708.99
517.72	32936.02
517.89	32568.55
518.06	32402.38
518.24	32755.80
518.41	32818.99
518.58	32842.40
518.75	32814.31
518.93	33010.92
519.10	32943.04
519.27	33163.05
519.45	33436.89
519.62	33455.62
519.79	33584.35
519.96	33425.19
520.14	33378.38
520.31	33291.78
520.48	33631.16
520.65	33565.62
520.83	34038.41
521.00	34115.65
521.17	33984.58
521.34	34211.61
521.52	34485.45
521.69	34017.35
521.86	34684.40
522.03	34522.90
522.20	34274.80
522.38	34625.89
522.55	34796.74
522.72	34466.73
522.89	34511.20
523.07	34848.24
523.24	34937.18
523.41	34817.81
523.58	34998.03
523.75	35309.32
523.92	35194.64
524.10	35143.14
524.27	35154.85
524.44	35529.33
524.61	35728.28
524.78	35365.49
524.96	35798.49
525.13	35370.18
525.30	36109.78
525.47	35959.99
525.64	35749.34
525.81	36053.61
525.98	35999.78
526.16	36004.46
526.33	35962.33
526.50	35967.01
526.67	36189.36
526.84	36180.00
527.01	35725.94
527.18	36390.65
527.36	36603.64
527.53	36231.49
527.70	36947.70
527.87	36758.11
528.04	36280.64
528.21	36898.55
528.38	36407.03
528.55	36910.25
528.72	37148.98
528.89	37230.90
529.07	36666.83
529.24	36823.65
529.41	37258.99
529.58	37074.09
529.75	37347.93
529.92	37144.30
530.09	37198.13
530.26	37352.61
530.43	37443.89
530.60	37195.79
530.77	37156.00
530.94	37233.24
531.11	37560.92
531.28	37343.25
531.46	37429.85
531.63	38045.41
531.80	37708.37
531.97	38043.07
532.14	38106.26
532.31	38017.32
532.48	38141.37
532.65	38382.45
532.82	37862.85
532.99	38141.37
533.16	38146.05
533.33	38384.79
533.50	38440.96
533.67	38637.56
533.84	38405.85
534.01	38815.44
534.18	38607.14
534.35	39201.63
534.52	38724.16
534.69	39129.08
534.86	38941.83
535.03	38801.40
535.20	39267.17
535.37	38979.28
535.54	39632.29
535.71	39058.86
535.88	39269.51
536.05	39519.95
536.22	39505.90
536.38	39349.09
536.55	39318.66
536.72	39227.38
536.89	39323.34
537.06	39276.53
537.23	39590.16
537.40	39257.81
537.57	39384.19
537.74	39597.18
537.91	39732.93
538.08	39723.57
538.25	39337.38
538.42	39744.64
538.59	39913.16
538.75	39742.30
538.92	40069.97
539.09	40163.59
539.26	40044.23
539.43	39564.42
539.60	40109.76
539.77	40222.11
539.94	40620.00
540.11	40121.46
540.28	40561.48
540.44	40657.45
540.61	40612.98
540.78	40350.84
540.95	40383.60
541.12	40734.68
541.29	40390.62
541.46	40870.43
541.62	40102.74
541.79	40547.44
541.96	40645.74
542.13	40584.89
542.30	40517.01
542.47	40734.68
542.63	41270.67
542.80	40996.82
542.97	41045.97
543.14	41518.76
543.31	41486.00
543.48	41406.42
543.64	41722.39
543.81	41757.50
543.98	41621.75
544.15	41539.83
544.32	41963.46
544.48	41694.30
544.65	41750.48
544.82	41965.81
544.99	41514.08
545.16	42031.34
545.32	42150.71
545.49	42216.24
545.66	42682.01
545.83	42026.66
546.00	42440.93
546.16	42249.01
546.33	42066.45
546.50	42284.12
546.67	42569.66
546.83	41694.30
547.00	42106.24
547.17	42330.93
547.34	42646.90
547.50	42703.07
547.67	42869.25
547.84	42642.22
548.00	42539.24
548.17	42979.26
548.34	42731.16
548.51	43138.41
548.67	42639.88
548.84	42925.42
549.01	42560.30
549.18	42899.68
549.34	43196.93
549.51	42857.55
549.68	42965.21
549.84	42852.87
550.01	42913.72
550.18	42476.04
550.34	43180.54
550.51	43086.92
550.68	43746.95
550.84	42801.38
551.01	43370.13
551.18	43250.76
551.34	43330.34
551.51	43438.00
551.68	43318.64
551.84	43461.41
552.01	43812.49
552.18	43559.71
552.34	43119.69
552.51	43122.03
552.68	43627.59
552.84	43908.45
553.01	43845.26
553.18	43398.21
553.34	43749.29
553.51	44013.77
553.67	43629.93
553.84	44208.04
554.01	44142.50
554.17	43924.83
554.34	44179.95
554.51	43962.28
554.67	44311.02
554.84	44002.07
555.00	44304.00
555.17	44334.43
555.33	44683.17
555.50	44275.91
555.67	44161.23
555.83	44671.46
556.00	44212.72
556.16	44933.60
556.33	44605.93
556.50	44793.17
556.66	44261.87
556.83	44561.46
556.99	44615.29
557.16	44992.12
557.32	44870.41
557.49	44519.33
557.65	44589.55
557.82	44680.83
557.98	44673.81
558.15	44711.25
558.32	44556.78
558.48	44744.02
558.65	44650.40
558.81	44566.14
558.98	45144.25
559.14	44786.15
559.31	45123.19
559.47	45052.97
559.64	45083.40
559.80	45083.40
559.97	45270.64
560.13	44708.91
560.30	45013.18
560.46	45373.63
560.63	45207.45
560.79	45088.08
560.96	45415.76
561.12	45319.79
561.29	45490.65
561.45	45558.53
561.61	44954.67
561.78	45382.99
561.94	44926.58
562.11	45041.27
562.27	45310.43
562.44	45216.81
562.60	45528.10
562.77	45642.79
562.93	45434.48
563.10	45397.03
563.26	45270.64
563.42	45471.93
563.59	45263.62
563.75	45200.43
563.92	45722.37
564.08	45240.21
564.24	45291.71
564.41	45347.88
564.57	45610.02
564.74	45928.33
564.90	45420.44
565.07	45965.78
565.23	45469.59
565.39	45858.12
565.56	45677.90
565.72	45900.25
565.88	45991.53
566.05	45879.18
566.21	45823.01
566.38	46026.63
566.54	45996.21
566.70	45900.25
566.87	45752.79
567.03	46017.27
567.19	46146.00
567.36	45923.65
567.52	45888.54
567.68	46209.20
567.85	46094.51
568.01	45904.93
568.17	45794.92
568.34	46012.59
568.50	46071.10
568.66	45595.98
568.83	46164.73
568.99	45897.91
569.15	46054.72
569.32	46248.99
569.48	45773.86
569.64	46117.92
569.81	45858.12
569.97	46876.25
570.13	46223.24
570.30	46366.01
570.46	46389.42
570.62	46541.55
570.78	46492.40
570.95	45947.06
571.11	46707.73
571.27	46440.91
571.43	46377.72
571.60	46017.27
571.76	46417.50
571.92	46136.64
572.09	46424.53
572.25	46286.43
572.41	46178.77
572.57	46246.65
572.74	46438.57
572.90	46028.98
573.06	46586.02
573.22	46511.13
573.38	46571.98
573.55	46501.76
573.71	46731.14
573.87	46244.30
574.03	46712.41
574.20	46445.59
574.36	46415.16
574.52	46597.73
574.68	46614.11
574.84	46674.96
575.01	47019.02
575.17	46955.83
575.33	46728.80
575.49	46644.54
575.65	46813.05
575.82	46656.24
575.98	46274.73
576.14	46677.30
576.30	47189.88
576.46	46885.61
576.62	46520.49
576.79	46681.98
576.95	46513.47
577.11	46700.71
577.27	47098.60
577.43	46930.08
577.59	46480.70
577.75	46541.55
577.92	46447.93
578.08	46747.52
578.24	46195.15
578.40	46773.27
578.56	46754.54
578.72	46429.21
578.88	46571.98
579.04	47107.96
579.21	46614.11
579.37	46754.54
579.53	46878.59
579.69	46820.08
579.85	46536.87
580.01	46721.77
580.17	46485.38
580.33	46784.97
580.49	46674.96
580.65	46707.73
580.82	46571.98
580.98	46754.54
581.14	46349.63
581.30	46916.04
581.46	46784.97
581.62	46838.80
581.78	46277.07
581.94	46710.07
582.10	46749.86
582.26	46923.06
582.42	46637.51
582.58	46911.36
582.74	46852.84
582.90	46735.82
583.06	47159.45
583.22	46651.56
583.38	46787.31
583.54	46747.52
583.70	46944.12
583.86	47187.54
584.02	46777.95
584.18	47124.35
584.34	47096.26
584.50	47241.37
584.66	47009.66
584.82	47248.39
584.98	47150.09
585.14	47152.43
585.30	46808.37
585.46	47196.90
585.62	47051.79
585.78	46848.16
585.94	46880.93
586.10	46976.89
586.26	46878.59
586.42	46934.76
586.58	47175.84
586.74	46862.21
586.90	46756.88
587.06	47157.11
587.22	47091.58
587.38	46873.91
587.54	46887.95
587.70	47370.10
587.86	47152.43
588.02	47075.19
588.18	47377.12
588.34	46902.00
588.49	46696.03
588.65	46681.98
588.81	46965.19
588.97	47122.01
589.13	46885.61
589.29	47199.24
589.45	47349.04
589.61	47608.84
589.77	47070.51
589.93	47260.10
590.08	47208.61
