SpectraSuite Data File
++++++++++++++++++++++++++++++++++++
Date: Fri Oct 25 10:48:08 EDT 2013
User: price-jones
Dark Spectrum Present: No
Reference Spectrum Present: No
Number of Sampled Component Spectra: 1
Spectrometers: USB2+H05261
Integration Time (usec): 100000 (USB2+H05261)
Spectra Averaged: 1 (USB2+H05261)
Boxcar Smoothing: 0 (USB2+H05261)
Correct for Electrical Dark: No (USB2+H05261)
Strobe/Lamp Enabled: No (USB2+H05261)
Correct for Detector Non-linearity: No (USB2+H05261)
Correct for Stray Light: No (USB2+H05261)
Number of Pixels in Processed Spectrum: 2048
>>>>>Begin Processed Spectral Data<<<<<
365.73	84.26
365.92	84.26
366.12	84.26
366.32	102.98
366.52	0.00
366.72	49.15
366.91	102.98
367.11	23.41
367.31	42.13
367.51	46.81
367.70	49.15
367.90	35.11
368.10	25.75
368.30	46.81
368.49	0.00
368.69	93.62
368.89	30.43
369.09	28.09
369.28	72.56
369.48	95.96
369.68	67.88
369.87	25.75
370.07	119.37
370.27	105.32
370.47	238.73
370.66	360.44
370.86	468.11
371.06	365.12
371.25	475.13
371.45	430.66
371.65	451.72
371.84	428.32
372.04	442.36
372.24	447.04
372.44	493.85
372.63	458.74
372.83	477.47
373.03	543.00
373.22	433.00
373.42	519.60
373.62	514.92
373.81	489.17
374.01	554.71
374.21	603.86
374.40	535.98
374.60	599.18
374.79	540.66
374.99	519.60
375.19	538.32
375.38	599.18
375.58	587.47
375.78	615.56
375.97	599.18
376.17	603.86
376.37	521.94
376.56	561.73
376.76	554.71
376.95	624.92
377.15	660.03
377.35	613.22
377.54	699.82
377.74	648.33
377.93	589.82
378.13	575.77
378.33	617.90
378.52	578.11
378.72	601.52
378.91	697.48
379.11	634.29
379.31	557.05
379.50	592.16
379.70	723.23
379.89	634.29
380.09	664.71
380.28	645.99
380.48	657.69
380.68	688.12
380.87	594.50
381.07	641.31
381.26	678.76
381.46	660.03
381.65	685.78
381.85	564.07
382.04	716.20
382.24	709.18
382.43	711.52
382.63	603.86
382.83	727.91
383.02	702.16
383.22	774.72
383.41	702.16
383.61	674.07
383.80	624.92
384.00	709.18
384.19	697.48
384.39	695.14
384.58	739.61
384.78	751.31
384.97	695.14
385.17	727.91
385.36	741.95
385.56	657.69
385.75	713.86
385.95	774.72
386.14	774.72
386.34	755.99
386.53	767.70
386.72	723.23
386.92	854.30
387.11	711.52
387.31	781.74
387.50	791.10
387.70	800.46
387.89	798.12
388.09	821.53
388.28	851.96
388.48	802.80
388.67	849.61
388.86	814.51
389.06	873.02
389.25	835.57
389.45	889.40
389.64	919.83
389.84	877.70
390.03	940.90
390.22	936.21
390.42	903.45
390.61	931.53
390.81	940.90
391.00	922.17
391.19	917.49
391.39	987.71
391.58	966.64
391.78	891.74
391.97	1001.75
392.16	971.32
392.36	985.37
392.55	1013.45
392.75	938.55
392.94	1006.43
393.13	973.66
393.33	917.49
393.52	936.21
393.71	983.02
393.91	1001.75
394.10	983.02
394.29	1128.14
394.49	1086.01
394.68	1116.44
394.88	1095.37
395.07	1146.86
395.26	1018.13
395.46	1062.60
395.65	1121.12
395.84	1186.65
396.04	1179.63
396.23	1163.25
396.42	1172.61
396.62	1139.84
396.81	1165.59
397.00	1114.10
397.19	1193.67
397.39	1181.97
397.58	1193.67
397.77	1193.67
397.97	1156.22
398.16	1221.76
398.35	1242.82
398.55	1287.29
398.74	1231.12
398.93	1296.66
399.12	1359.85
399.32	1287.29
399.51	1282.61
399.70	1359.85
399.90	1350.49
400.09	1385.60
400.28	1462.83
400.47	1472.20
400.67	1362.19
400.86	1362.19
401.05	1439.43
401.24	1399.64
401.44	1493.26
401.63	1511.99
401.82	1488.58
402.01	1469.86
402.21	1479.22
402.40	1385.60
402.59	1420.71
402.78	1519.01
402.97	1537.73
403.17	1544.75
403.36	1521.35
403.55	1678.16
403.74	1600.93
403.93	1607.95
404.13	1636.03
404.32	1636.03
404.51	1540.07
404.70	1694.55
404.89	1685.19
405.09	1586.88
405.28	1636.03
405.47	1713.27
405.66	1717.95
405.85	1732.00
406.05	1668.80
406.24	1804.55
406.43	1710.93
406.62	1720.29
406.81	1818.60
407.00	1717.95
407.20	1785.83
407.39	1842.00
407.58	1947.33
407.77	1902.86
407.96	1851.36
408.15	2059.67
408.34	1926.26
408.54	1966.05
408.73	1952.01
408.92	1921.58
409.11	1980.09
409.30	2038.61
409.49	1919.24
409.68	2024.56
409.87	1998.82
410.07	2113.50
410.26	2080.74
410.45	2022.22
410.64	2139.25
410.83	2087.76
411.02	2132.23
411.21	2324.15
411.40	2160.31
411.59	2303.09
411.78	2244.57
411.98	2216.49
412.17	2382.67
412.36	2298.41
412.55	2363.94
412.74	2434.16
412.93	2424.80
413.12	2263.30
413.31	2473.95
413.50	2452.88
413.69	2448.20
413.88	2588.63
414.07	2551.18
414.26	2553.52
414.45	2504.37
414.64	2553.52
414.83	2626.08
415.02	2710.34
415.22	2679.91
415.41	2668.21
415.60	2605.02
415.79	2726.72
415.98	2881.20
416.17	2909.29
416.36	2850.77
416.55	2782.90
416.74	2768.85
416.93	2850.77
417.12	2981.84
417.31	2937.37
417.50	2843.75
417.69	2956.10
417.88	3002.91
418.07	3045.04
418.26	3007.59
418.45	3131.64
418.64	3162.06
418.83	3133.98
419.02	3075.46
419.21	3162.06
419.39	3098.87
419.58	3084.83
419.77	3087.17
419.96	3150.36
420.15	3204.19
420.34	3255.69
420.53	3269.73
420.72	3342.28
420.91	3211.22
421.10	3363.35
421.29	3361.01
421.48	3290.79
421.67	3269.73
421.86	3272.07
422.05	3234.62
422.24	3414.84
422.43	3323.56
422.61	3487.40
422.80	3440.59
422.99	3499.10
423.18	3527.19
423.37	3543.57
423.56	3412.50
423.75	3323.56
423.94	3396.12
424.13	3208.87
424.32	3342.28
424.50	3590.38
424.69	3604.42
424.88	3618.47
425.07	3606.77
425.26	3428.88
425.45	3433.57
425.64	3391.44
425.83	3463.99
426.01	3520.17
426.20	3517.83
426.39	3548.25
426.58	3503.78
426.77	3517.83
426.96	3529.53
427.15	3562.30
427.33	3641.87
427.52	3632.51
427.71	3719.11
427.90	3534.21
428.09	3747.20
428.28	3599.74
428.46	3819.75
428.65	3616.13
428.84	3756.56
429.03	3719.11
429.22	3506.12
429.40	3775.28
429.59	3765.92
429.78	3616.13
429.97	3606.77
430.16	3676.98
430.34	3838.48
430.53	3751.88
430.72	3875.93
430.91	3824.44
431.10	3843.16
431.28	3866.56
431.47	4037.42
431.66	4091.26
431.85	3936.78
432.03	3978.91
432.22	4070.19
432.41	4196.58
432.60	4084.23
432.79	4161.47
432.97	4133.39
433.16	4049.13
433.35	4021.04
433.54	4208.28
433.72	4224.67
433.91	4318.29
434.10	4114.66
434.28	4042.11
434.47	4388.50
434.66	4294.88
434.85	4477.44
435.03	4290.20
435.22	4416.59
435.41	4517.23
435.59	4582.77
435.78	4463.40
435.97	4645.96
436.16	4517.23
436.34	4528.94
436.53	4538.30
436.72	4664.69
436.90	4468.08
437.09	4503.19
437.28	4381.48
437.46	4606.17
437.65	4599.15
437.84	4678.73
438.02	4571.07
438.21	4678.73
438.40	4711.50
438.58	4699.80
438.77	4805.12
438.96	4748.95
439.14	4973.64
439.33	4912.78
439.52	4936.19
439.70	4926.83
439.89	5144.50
440.08	5055.56
440.26	5167.90
440.45	5078.96
440.63	5181.95
440.82	5177.26
441.01	5095.35
441.19	5231.10
441.38	5210.03
441.57	5404.30
441.75	5448.77
441.94	5455.79
442.12	5572.82
442.31	5624.31
442.50	5607.92
442.68	5589.20
442.87	5558.77
443.05	5589.20
443.24	5830.27
443.43	5558.77
443.61	5626.65
443.80	5865.38
443.98	5661.76
444.17	5495.58
444.35	5722.61
444.54	5886.45
444.73	5743.67
444.91	5631.33
445.10	5846.66
445.28	5626.65
445.47	5708.57
445.65	5762.40
445.84	5874.74
446.02	5860.70
446.21	5837.30
446.39	5689.84
446.58	5802.19
446.77	5853.68
446.95	5774.10
447.14	5579.84
447.32	5926.24
447.51	5818.57
447.69	5696.86
447.88	5849.00
448.06	5944.96
448.25	5781.12
448.43	5987.09
448.62	5748.36
448.80	5891.13
448.99	5994.11
449.17	5977.73
449.36	5879.43
449.54	6092.41
449.73	6136.88
449.91	6251.57
450.10	6230.51
450.28	6349.87
450.46	6197.74
450.65	6293.70
450.83	6202.42
451.02	6382.64
451.20	6286.68
451.39	6420.09
451.57	6408.39
451.76	6359.24
451.94	6127.52
452.13	6328.81
452.31	6410.73
452.49	6244.55
452.68	6349.87
452.86	6202.42
453.05	6511.37
453.23	6537.12
453.42	6604.99
453.60	6279.66
453.78	6532.44
453.97	6590.95
454.15	6441.15
454.34	6401.37
454.52	6691.59
454.70	6485.62
454.89	6637.76
455.07	6593.29
455.26	6586.27
455.44	6712.66
455.62	6696.27
455.81	6841.39
455.99	6871.81
456.17	6899.90
456.36	6993.52
456.54	6949.05
456.73	7049.69
456.91	7234.60
457.09	7054.37
457.28	7255.66
457.46	7150.34
457.64	7152.68
457.83	7105.87
458.01	7140.97
458.19	7421.84
458.38	7021.61
458.56	7382.05
458.74	7255.66
458.93	7258.00
459.11	7431.20
459.29	7288.43
459.48	7248.64
459.66	7438.22
459.84	7279.07
460.03	7475.67
460.21	7419.50
460.39	7403.11
460.57	7309.49
460.76	7545.89
460.94	7751.85
461.12	7658.23
461.31	7688.66
461.49	7445.24
461.67	7625.47
461.85	7648.87
462.04	7611.42
462.22	8248.05
462.40	7999.95
462.59	7810.37
462.77	7939.10
462.95	7892.29
463.13	7976.55
463.32	7990.59
463.50	7894.63
463.68	7983.57
463.86	7920.37
464.05	7749.51
464.23	7854.84
464.41	8121.66
464.59	7829.09
464.78	8091.23
464.96	7997.61
465.14	8046.76
465.32	8039.74
465.50	8259.75
465.69	8280.82
465.87	8128.68
466.05	8168.47
466.23	8311.24
466.41	8243.37
466.60	8386.14
466.78	8358.05
466.96	8461.04
467.14	8212.94
467.32	8475.08
467.51	8662.32
467.69	8196.56
467.87	8484.44
468.05	8587.43
468.23	8250.39
468.41	8306.56
468.60	8627.21
468.78	8641.26
468.96	8493.80
469.14	8690.41
469.32	8748.92
469.50	8390.82
469.69	8641.26
469.87	8695.09
470.05	8823.82
470.23	8840.20
470.41	8858.93
470.59	8826.16
470.77	8755.94
470.95	8875.31
471.14	8982.98
471.32	8924.46
471.50	9170.22
471.68	9018.08
471.86	9305.97
472.04	9034.47
472.22	9493.21
472.40	9294.27
472.58	9394.91
472.77	9238.09
472.95	9467.47
473.13	9607.90
473.31	9341.08
473.49	9378.53
473.67	9378.53
473.85	9490.87
474.03	9750.67
474.21	9827.91
474.39	9944.94
474.57	9802.16
474.75	9895.78
474.93	10001.11
475.12	10148.56
475.30	10209.42
475.48	9912.17
475.66	10200.05
475.84	10354.53
476.02	10045.58
476.20	10193.03
476.38	10352.19
476.56	10675.18
476.74	10565.18
476.92	10438.79
477.10	10541.77
477.28	10745.40
477.46	10733.70
477.64	10778.17
477.82	11073.07
478.00	11197.12
478.18	11009.88
478.36	11297.77
478.54	11098.82
478.72	11524.80
478.90	11552.88
479.08	11826.73
479.26	11676.93
479.44	11918.01
479.62	11681.61
479.80	12091.21
479.98	12016.31
480.16	12163.76
480.34	12049.08
480.52	12285.47
480.70	12486.76
480.88	12283.13
481.06	12449.31
481.24	12695.07
481.41	12465.69
481.59	12699.75
481.77	12475.06
481.95	12772.30
482.13	13099.98
482.31	12973.59
482.49	13327.01
482.67	13167.85
482.85	13617.24
483.03	13343.39
483.21	13521.27
483.39	13514.25
483.57	13813.84
483.74	14146.20
483.92	13961.30
484.10	13752.99
484.28	14272.59
484.46	14361.53
484.64	14448.13
484.82	14319.40
485.00	14686.86
485.18	14871.76
485.35	14960.70
485.53	14785.16
485.71	14754.74
485.89	14937.30
486.07	15122.20
486.25	15068.37
486.43	15314.13
486.61	15431.15
486.78	15527.11
486.96	15590.31
487.14	16163.74
487.32	16032.67
487.50	16152.04
487.68	16416.52
487.85	16470.35
488.03	16809.73
488.21	16739.51
488.39	16631.85
488.57	17076.55
488.75	16912.71
488.92	17191.23
489.10	17462.74
489.28	17418.27
489.46	17647.64
489.64	17657.00
489.81	18082.98
489.99	17984.68
490.17	17984.68
490.35	18427.04
490.53	18345.12
490.70	18403.63
490.88	18579.17
491.06	18792.16
491.24	18609.60
491.41	18766.42
491.59	18497.25
491.77	18738.33
491.95	19157.28
492.13	19321.12
492.30	19674.54
492.48	19578.58
492.66	19688.59
492.84	19714.33
493.01	19967.11
493.19	19999.88
493.37	20238.61
493.54	20432.88
493.72	20601.40
493.90	20257.34
494.08	20493.73
494.25	20886.94
494.43	20608.42
494.61	21116.31
494.79	21233.34
494.96	20828.43
495.14	20947.79
495.32	21427.60
495.49	21399.52
495.67	21682.72
495.85	21741.24
496.02	21675.70
496.20	22099.34
496.38	21706.13
496.55	22361.48
496.73	22691.49
496.91	22497.23
497.09	23040.23
497.26	22778.09
497.44	22771.07
497.62	22628.30
497.79	22731.28
497.97	23019.17
498.14	23204.07
498.32	23426.42
498.50	23484.94
498.67	23388.97
498.85	23749.42
499.03	23777.50
499.20	23730.69
499.38	23740.05
499.56	24063.05
499.73	24269.01
499.91	24123.90
500.08	24442.21
500.26	23798.57
500.44	24320.51
500.61	24318.17
500.79	24336.89
500.97	24376.68
501.14	24807.34
501.32	25043.73
501.49	24980.54
501.67	25057.78
501.84	25507.16
502.02	25156.08
502.20	25195.87
502.37	25214.59
502.55	25366.73
502.72	25362.04
502.90	25652.27
503.07	25865.26
503.25	25509.50
503.43	25706.10
503.60	26047.82
503.78	25694.40
503.95	25909.73
504.13	26040.80
504.30	25919.09
504.48	26003.35
504.65	26223.36
504.83	26363.79
505.01	26572.10
505.18	26525.29
505.36	26466.78
505.53	26827.22
505.71	26698.49
505.88	27367.88
506.06	26993.40
506.23	27129.15
506.41	26742.96
506.58	27129.15
506.76	27246.18
506.93	27398.31
507.11	27187.66
507.28	27583.21
507.46	27676.83
507.63	27438.10
507.81	27763.43
507.98	27534.06
508.16	28023.23
508.33	27992.81
508.50	27978.76
508.68	28538.15
508.85	28322.82
509.03	28280.69
509.20	28470.28
509.38	28493.68
509.55	29062.43
509.73	28891.57
509.90	28957.11
510.08	28858.81
510.25	28730.08
510.42	29149.03
510.60	29263.72
510.77	28903.28
510.95	29530.54
511.12	28863.49
511.30	29558.63
511.47	29612.46
511.64	29799.70
511.82	30115.67
511.99	29514.16
512.17	29883.96
512.34	29888.64
512.51	29649.91
512.69	29921.41
512.86	29940.13
513.04	30244.40
513.21	30646.97
513.38	30338.02
513.56	30288.87
513.73	30459.73
513.90	30520.59
514.08	30417.60
514.25	30455.05
514.43	30735.92
514.60	30932.52
514.77	30396.54
514.95	31232.11
515.12	30796.77
515.29	30995.71
515.47	31311.69
515.64	31571.49
515.81	31543.40
515.99	31339.77
516.16	31669.79
516.33	31236.79
516.51	31646.38
516.68	31414.67
516.85	31077.63
517.03	31428.71
517.20	31634.68
517.37	32027.89
517.54	31962.36
517.72	31824.26
517.89	31878.10
518.06	32004.49
518.24	31630.00
518.41	31878.10
518.58	32177.68
518.75	32320.46
518.93	32439.82
519.10	32165.98
519.27	32645.79
519.45	32367.27
519.62	32818.99
519.79	32753.46
519.96	33160.71
520.14	33113.90
520.31	33036.66
520.48	32954.74
520.65	32847.08
520.83	33195.82
521.00	33558.60
521.17	33354.97
521.34	33303.48
521.52	33949.47
521.69	33902.66
521.86	33745.84
522.03	33776.27
522.20	33729.46
522.38	34274.80
522.55	34235.02
522.72	33930.75
522.89	33900.32
523.07	34085.22
523.24	33984.58
523.41	34155.44
523.58	33752.87
523.75	34377.79
523.92	34330.98
524.10	34644.61
524.27	34639.93
524.44	34670.36
524.61	34876.32
524.78	34834.19
524.96	34581.42
525.13	35051.86
525.30	35196.98
525.47	35124.42
525.64	35042.50
525.81	35115.06
525.98	34983.99
526.16	34876.32
526.33	34782.70
526.50	35414.65
526.67	35112.72
526.84	35241.45
527.01	35288.26
527.18	35388.90
527.36	35321.02
527.53	35440.39
527.70	35805.52
527.87	35943.61
528.04	35728.28
528.21	35812.54
528.38	35786.79
528.55	35983.40
528.72	35831.26
528.89	36360.22
529.07	36191.70
529.24	36130.85
529.41	36030.21
529.58	36517.04
529.75	36039.57
529.92	36311.07
530.09	36348.52
530.26	36807.26
530.43	36369.58
530.60	36266.60
530.77	36182.34
530.94	36842.37
531.11	36989.83
531.28	37193.45
531.46	36800.24
531.63	37408.78
531.80	37219.20
531.97	36814.29
532.14	36840.03
532.31	37024.93
532.48	36751.09
532.65	37310.48
532.82	36935.99
532.99	37125.58
533.16	37303.46
533.33	37495.38
533.50	37689.65
533.67	37350.27
533.84	37270.69
534.01	37373.67
534.18	37773.91
534.35	37778.59
534.52	37900.29
534.69	37376.01
534.86	37598.37
535.03	37397.08
535.20	38068.81
535.37	38096.90
535.54	37858.17
535.71	38272.44
535.88	38033.71
536.05	37701.35
536.22	38281.80
536.38	37961.15
536.55	38080.52
536.72	38124.99
536.89	38199.88
537.06	37921.36
537.23	38483.09
537.40	38150.73
537.57	38553.30
537.74	38508.83
537.91	38880.98
538.08	38581.39
538.25	38174.14
538.42	38504.15
538.59	39105.67
538.75	38536.92
538.92	38494.79
539.09	39021.41
539.26	39159.50
539.43	38808.42
539.60	38892.68
539.77	38719.48
539.94	38864.60
540.11	38719.48
540.28	39147.80
540.44	39236.74
540.61	38660.97
540.78	38983.96
540.95	38848.21
541.12	39140.78
541.29	39154.82
541.46	39409.94
541.62	39620.59
541.79	39431.01
541.96	39274.19
542.13	39669.74
542.30	39803.15
542.47	39798.47
542.63	39660.38
542.80	40009.12
542.97	40062.95
543.14	40151.89
543.31	40084.01
543.48	40198.70
543.64	40428.07
543.81	40231.47
543.98	40311.05
544.15	40432.75
544.32	40479.57
544.48	40669.15
544.65	40779.15
544.82	40685.53
544.99	40755.75
545.16	40465.52
545.32	40404.67
545.49	41041.29
545.66	40617.66
545.83	40615.32
546.00	40467.86
546.16	40950.01
546.33	40669.15
546.50	40832.99
546.67	40257.21
546.83	40325.09
547.00	40835.33
547.17	40713.62
547.34	40708.94
547.50	41127.89
547.67	41294.07
547.84	40919.59
548.00	41214.49
548.17	41116.19
548.34	41099.81
548.51	41425.14
548.67	40903.20
548.84	41546.85
549.01	41191.09
549.18	41200.45
549.34	41448.55
549.51	41694.30
549.68	41523.44
549.84	41425.14
550.01	41666.22
550.18	41584.30
550.34	41486.00
550.51	41610.04
550.68	41591.32
550.84	41303.43
551.01	41738.77
551.18	42258.37
551.34	41462.59
551.51	41701.32
551.68	42068.79
551.84	41888.57
552.01	41862.82
552.18	42337.95
552.34	41897.93
552.51	42241.99
552.68	42131.98
552.84	42260.71
553.01	42677.33
553.18	42321.57
553.34	41724.73
553.51	42328.59
553.67	41851.12
553.84	42176.45
554.01	42061.77
554.17	42087.51
554.34	42806.06
554.51	42302.84
554.67	42742.86
554.84	42487.74
555.00	42302.84
555.17	42356.67
555.33	42478.38
555.50	42366.04
555.67	42284.12
555.83	42813.08
556.00	42298.16
556.16	42852.87
556.33	42714.78
556.50	42726.48
556.66	42822.44
556.83	42499.45
556.99	42756.91
557.16	43257.78
557.32	42773.29
557.49	43283.53
557.65	42539.24
557.82	42670.31
557.98	42293.48
558.15	43115.01
558.32	42932.45
558.48	42684.35
558.65	42895.00
558.81	43271.82
558.98	43236.72
559.14	43393.53
559.31	42904.36
559.47	43180.54
559.64	43325.66
559.80	43152.46
559.97	43002.66
560.13	43049.47
560.30	43220.33
560.46	43159.48
560.63	42628.18
560.79	43515.24
560.96	43250.76
561.12	43133.73
561.29	43276.51
561.45	43105.65
561.61	42824.78
561.78	43374.81
561.94	43360.76
562.11	43065.86
562.27	43325.66
562.44	43353.74
562.60	43655.67
562.77	43566.73
562.93	43402.89
563.10	43749.29
563.26	43402.89
563.42	43395.87
563.59	43299.91
563.75	43484.81
563.92	43761.00
564.08	43559.71
564.24	44002.07
564.41	43618.22
564.57	43533.96
564.74	43405.23
564.90	43976.33
565.07	43887.39
565.23	43871.00
565.39	43583.12
565.56	43880.36
565.72	43449.70
565.88	43466.09
566.05	43906.11
566.21	43885.04
566.38	43679.08
566.54	43580.78
566.70	44133.14
566.87	44205.70
567.03	43828.87
567.19	44128.46
567.36	43847.60
567.52	43758.66
567.68	44191.65
567.85	43992.71
568.01	44292.30
568.17	43316.29
568.34	44051.22
568.50	43784.40
568.66	43693.12
568.83	43821.85
568.99	43517.58
569.15	43674.40
569.32	44203.36
569.48	43473.11
569.64	43812.49
569.81	43901.43
569.97	43491.83
570.13	44109.74
570.30	43756.32
570.46	43976.33
570.62	43917.81
570.78	44011.43
570.95	44091.01
571.11	44327.41
571.27	44477.20
571.43	43606.52
571.60	44446.77
571.76	43803.13
571.92	43920.15
572.09	44053.56
572.25	44037.18
572.41	44112.08
572.57	44240.81
572.74	44671.46
572.90	44266.55
573.06	44463.16
573.22	44638.70
573.38	44327.41
573.55	43892.07
573.71	44282.94
573.87	44041.86
574.03	44273.57
574.20	43992.71
574.36	43938.88
574.52	44683.17
574.68	44116.76
574.84	44238.47
575.01	44126.12
575.17	43971.64
575.33	44137.82
575.49	43807.81
575.65	44947.65
575.82	44786.15
575.98	44406.98
576.14	44463.16
576.30	44048.88
576.46	44189.31
576.62	44264.21
576.79	44203.36
576.95	43557.37
577.11	44238.47
577.27	44250.17
577.43	43936.54
577.59	44568.48
577.75	44137.82
577.92	43636.95
578.08	44067.61
578.24	44100.37
578.40	44500.61
578.56	44414.01
578.72	44177.61
578.88	44350.81
579.04	44165.91
579.21	43924.83
579.37	44369.54
579.53	44392.94
579.69	44411.67
579.85	43903.77
580.01	44280.60
580.17	44261.87
580.33	44208.04
580.49	44285.28
580.65	44362.51
580.82	44540.39
580.98	44119.10
581.14	44259.53
581.30	44704.23
581.46	44596.57
581.62	44505.29
581.78	44435.07
581.94	44753.38
582.10	44390.60
582.26	44378.90
582.42	44535.71
582.58	44531.03
582.74	43899.09
582.90	44861.05
583.06	44357.83
583.22	44395.28
583.38	44751.04
583.54	44360.17
583.70	44783.81
583.86	44634.02
584.02	44147.18
584.18	44615.29
584.34	44938.29
584.50	44568.48
584.66	44360.17
584.82	44367.20
584.98	45006.16
585.14	44362.51
585.30	44524.01
585.46	44472.52
585.62	44095.69
585.78	44367.20
585.94	43672.06
586.10	44552.10
586.26	44133.14
586.42	44610.61
586.58	44053.56
586.74	44348.47
586.90	44788.49
587.06	43847.60
587.22	44058.24
587.38	44451.45
587.54	44737.00
587.70	44280.60
587.86	44577.84
588.02	44704.23
588.18	44718.28
588.34	44453.79
588.49	44519.33
588.65	44495.92
588.81	44388.26
588.97	44467.84
589.13	44446.77
589.29	44318.04
589.45	44472.52
589.61	44737.00
589.77	44802.53
589.93	44793.17
590.08	44910.20
590.24	44463.16
590.40	44706.57
