SpectraSuite Data File
++++++++++++++++++++++++++++++++++++
Date: Fri Oct 25 10:44:16 EDT 2013
User: price-jones
Dark Spectrum Present: No
Reference Spectrum Present: No
Number of Sampled Component Spectra: 1
Spectrometers: USB2+H05261
Integration Time (usec): 100000 (USB2+H05261)
Spectra Averaged: 1 (USB2+H05261)
Boxcar Smoothing: 0 (USB2+H05261)
Correct for Electrical Dark: No (USB2+H05261)
Strobe/Lamp Enabled: No (USB2+H05261)
Correct for Detector Non-linearity: No (USB2+H05261)
Correct for Stray Light: No (USB2+H05261)
Number of Pixels in Processed Spectrum: 2048
>>>>>Begin Processed Spectral Data<<<<<
365.73	110.01
365.92	110.01
366.12	110.01
366.32	0.00
366.52	37.45
366.72	0.00
366.91	0.00
367.11	65.54
367.31	42.13
367.51	4.68
367.70	65.54
367.90	9.36
368.10	37.45
368.30	51.49
368.49	35.11
368.69	51.49
368.89	25.75
369.09	16.38
369.28	2.34
369.48	0.00
369.68	46.81
369.87	107.66
370.07	117.03
370.27	142.77
370.47	187.24
370.66	362.78
370.86	369.80
371.06	533.64
371.25	524.28
371.45	425.98
371.65	425.98
371.84	442.36
372.04	454.06
372.24	444.70
372.44	479.81
372.63	550.03
372.83	440.02
373.03	617.90
373.22	463.43
373.42	505.56
373.62	566.41
373.81	627.26
374.01	596.84
374.21	543.00
374.40	463.43
374.60	557.05
374.79	470.45
374.99	636.63
375.19	592.16
375.38	669.39
375.58	580.45
375.78	547.69
375.97	662.37
376.17	622.58
376.37	622.58
376.56	608.54
376.76	564.07
376.95	702.16
377.15	592.16
377.35	603.86
377.54	613.22
377.74	578.11
377.93	589.82
378.13	727.91
378.33	664.71
378.52	650.67
378.72	564.07
378.91	615.56
379.11	667.05
379.31	655.35
379.50	711.52
379.70	725.57
379.89	713.86
380.09	671.73
380.28	688.12
380.48	685.78
380.68	688.12
380.87	699.82
381.07	737.27
381.26	718.54
381.46	681.10
381.65	697.48
381.85	758.33
382.04	704.50
382.24	641.31
382.43	636.63
382.63	830.89
382.83	730.25
383.02	709.18
383.22	788.76
383.41	638.97
383.61	753.65
383.80	830.89
384.00	739.61
384.19	795.78
384.39	793.44
384.58	826.21
384.78	786.42
384.97	739.61
385.17	781.74
385.36	763.01
385.56	835.57
385.75	854.30
385.95	779.40
386.14	772.38
386.34	863.66
386.53	851.96
386.72	875.36
386.92	922.17
387.11	875.36
387.31	809.83
387.50	802.80
387.70	889.40
387.89	880.04
388.09	779.40
388.28	966.64
388.48	908.13
388.67	868.34
388.86	938.55
389.06	978.34
389.25	945.58
389.45	943.24
389.64	1050.90
389.84	1050.90
390.03	1041.54
390.22	983.02
390.42	1057.92
390.61	1039.20
390.81	922.17
391.00	1057.92
391.19	1039.20
391.39	1102.39
391.58	1029.84
391.78	968.98
391.97	1041.54
392.16	1015.79
392.36	1090.69
392.55	950.26
392.75	1034.52
392.94	940.90
393.13	1097.71
393.33	919.83
393.52	1025.15
393.71	1100.05
393.91	1064.94
394.10	1156.22
394.29	1181.97
394.49	1121.12
394.68	1242.82
394.88	1217.08
395.07	1291.98
395.26	1203.04
395.46	1266.23
395.65	1266.23
395.84	1163.25
396.04	1308.36
396.23	1191.33
396.42	1095.37
396.62	1256.87
396.81	1233.46
397.00	1331.76
397.19	1231.12
397.39	1268.57
397.58	1413.68
397.77	1387.94
397.97	1425.39
398.16	1446.45
398.35	1423.05
398.55	1416.02
398.74	1462.83
398.93	1572.84
399.12	1439.43
399.32	1483.90
399.51	1626.67
399.70	1572.84
399.90	1511.99
400.09	1598.59
400.28	1720.29
400.47	1643.06
400.67	1661.78
400.86	1603.27
401.05	1614.97
401.24	1699.23
401.44	1720.29
401.63	1717.95
401.82	1741.36
402.01	1687.53
402.21	1657.10
402.40	1795.19
402.59	1743.70
402.78	1724.97
402.97	1806.89
403.17	1783.49
403.36	1818.60
403.55	1783.49
403.74	1849.02
403.93	1959.03
404.13	1820.94
404.32	1921.58
404.51	1914.56
404.70	1888.81
404.89	1937.96
405.09	1926.26
405.28	1818.60
405.47	1956.69
405.66	1893.49
405.85	1832.64
406.05	1905.20
406.24	2043.29
406.43	2047.97
406.62	2094.78
406.81	2094.78
407.00	2092.44
407.20	2076.06
407.39	2024.56
407.58	2132.23
407.77	2155.63
407.96	2242.23
408.15	2155.63
408.34	2239.89
408.54	2125.21
408.73	2293.72
408.92	2207.13
409.11	2195.42
409.30	2321.81
409.49	2258.62
409.68	2331.17
409.87	2321.81
410.07	2345.22
410.26	2321.81
410.45	2427.14
410.64	2352.24
410.83	2497.35
411.02	2574.59
411.21	2452.88
411.40	2483.31
411.59	2656.51
411.78	2525.44
411.98	2520.76
412.17	2569.91
412.36	2623.74
412.55	2605.02
412.74	2733.75
412.93	2825.03
413.12	2757.15
413.31	2848.43
413.50	2862.48
413.69	2780.56
413.88	2876.52
414.07	2930.35
414.26	2946.73
414.45	2932.69
414.64	3028.65
414.83	3112.91
415.02	3045.04
415.22	3066.10
415.41	3101.21
415.60	3056.74
415.79	3173.77
415.98	3243.98
416.17	3281.43
416.36	3199.51
416.55	3194.83
416.74	3375.05
416.93	3260.37
417.12	3248.66
417.31	3403.14
417.50	3309.52
417.69	3398.46
417.88	3447.61
418.07	3293.13
418.26	3363.35
418.45	3529.53
418.64	3562.30
418.83	3447.61
419.02	3506.12
419.21	3531.87
419.39	3524.85
419.58	3492.08
419.77	3541.23
419.96	3639.53
420.15	3728.47
420.34	3765.92
420.53	3588.04
420.72	3819.75
420.91	3712.09
421.10	3803.37
421.29	3885.29
421.48	3782.31
421.67	3831.46
421.86	3843.16
422.05	3754.22
422.24	3667.62
422.43	3772.94
422.61	3751.88
422.80	3904.01
422.99	3831.46
423.18	3831.46
423.37	4004.66
423.56	3850.18
423.75	3908.69
423.94	3868.91
424.13	3646.55
424.32	3756.56
424.50	3915.72
424.69	3920.40
424.88	3885.29
425.07	4025.72
425.26	3957.85
425.45	3955.51
425.64	4002.32
425.83	3894.65
426.01	4049.13
426.20	4095.94
426.39	4032.74
426.58	3955.51
426.77	3906.35
426.96	3962.53
427.15	4053.81
427.33	4107.64
427.52	4152.11
427.71	3946.14
427.90	4177.86
428.09	4147.43
428.28	4222.33
428.46	4180.20
428.65	4133.39
428.84	4259.78
429.03	4341.69
429.22	4205.94
429.40	4257.43
429.59	4133.39
429.78	4077.21
429.97	3957.85
430.16	4074.87
430.34	4028.06
430.53	4264.46
430.72	4280.84
430.91	4327.65
431.10	4315.95
431.28	4411.91
431.47	4622.56
431.66	4512.55
431.85	4519.57
432.03	4664.69
432.22	4615.54
432.41	4638.94
432.60	4704.48
432.79	4732.56
432.97	4587.45
433.16	4730.22
433.35	4631.92
433.54	4624.90
433.72	4631.92
433.91	4737.24
434.10	4706.82
434.28	4734.90
434.47	4966.62
434.66	4903.42
434.85	4908.10
435.03	5029.81
435.22	4924.49
435.41	5170.24
435.59	5011.09
435.78	5064.92
435.97	5041.51
436.16	5008.75
436.34	5093.01
436.53	5247.48
436.72	5362.17
436.90	4952.57
437.09	5046.20
437.28	5219.39
437.46	5263.86
437.65	5245.14
437.84	5174.92
438.02	4959.60
438.21	5320.04
438.40	5181.95
438.58	5390.25
438.77	5444.09
438.96	5345.78
439.14	5481.53
439.33	5589.20
439.52	5645.37
439.70	5671.12
439.89	5708.57
440.08	5734.31
440.26	5734.31
440.45	5865.38
440.63	5741.33
440.82	5895.81
441.01	5799.85
441.19	5802.19
441.38	6148.59
441.57	6050.28
441.75	6300.72
441.94	6270.30
442.12	6340.51
442.31	6188.38
442.50	6291.36
442.68	6347.53
442.87	6413.07
443.05	6328.81
443.24	6408.39
443.43	6509.03
443.61	6623.72
443.80	6619.04
443.98	6354.55
444.17	6249.23
444.35	6541.80
444.54	6679.89
444.73	6509.03
444.91	6539.46
445.10	6413.07
445.28	6392.00
445.47	6401.37
445.65	6417.75
445.84	6349.87
446.02	6750.10
446.21	6476.26
446.39	6649.46
446.58	6604.99
446.77	6525.41
446.95	6359.24
447.14	6609.67
447.32	6736.06
447.51	6780.53
447.69	6700.95
447.88	6796.92
448.06	6696.27
448.25	6738.40
448.43	6630.74
448.62	6609.67
448.80	6630.74
448.99	6839.05
449.17	6834.36
449.36	6862.45
449.54	6843.73
449.73	7091.82
449.91	7194.81
450.10	7208.85
450.28	7227.57
450.46	7119.91
450.65	7265.02
450.83	7215.87
451.02	7080.12
451.20	7353.96
451.39	7201.83
451.57	7300.13
451.76	7269.70
451.94	7110.55
452.13	7356.30
452.31	7199.49
452.49	7061.40
452.68	7126.93
452.86	7162.04
453.05	7213.53
453.23	7260.34
453.42	7243.96
453.60	7246.30
453.78	7391.41
453.97	7166.72
454.15	7304.81
454.34	7449.93
454.52	7358.64
454.70	7480.35
454.89	7559.93
455.07	7524.82
455.26	7625.47
455.44	7728.45
455.62	7854.84
455.81	7599.72
455.99	7822.07
456.17	7632.49
456.36	7667.60
456.54	7988.25
456.73	8011.65
456.91	8198.90
457.09	8234.00
457.28	8407.20
457.46	7981.23
457.64	8067.83
457.83	8217.62
458.01	7962.50
458.19	8147.40
458.38	8018.68
458.56	8152.09
458.74	8215.28
458.93	8255.07
459.11	8262.09
459.29	8315.92
459.48	8379.12
459.66	8273.79
459.84	8339.33
460.03	8524.23
460.21	8311.24
460.39	8514.87
460.57	8496.14
460.76	8477.42
460.94	8636.58
461.12	8791.05
461.31	8767.65
461.49	8472.74
461.67	8870.63
461.85	8662.32
462.04	8779.35
462.22	8943.19
462.40	8987.66
462.59	8758.28
462.77	8655.30
462.95	8908.08
463.13	8879.99
463.32	8798.07
463.50	8957.23
463.68	9118.73
463.86	8966.59
464.05	8964.25
464.23	8887.01
464.41	8945.53
464.59	8912.76
464.78	9200.65
464.96	9081.28
465.14	9116.39
465.32	9228.73
465.50	9200.65
465.69	9224.05
465.87	9146.81
466.05	9153.84
466.23	9067.24
466.41	9184.26
466.60	9338.74
466.78	9212.35
466.96	9317.67
467.14	9273.20
467.32	9551.73
467.51	9502.58
467.69	9177.24
467.87	9331.72
468.05	9657.05
468.23	9413.63
468.41	9280.22
468.60	9696.84
468.78	9514.28
468.96	9448.74
469.14	9860.68
469.32	9654.71
469.50	9392.57
469.69	9687.48
469.87	9738.97
470.05	9907.49
470.23	9851.31
470.41	9834.93
470.59	9891.10
470.77	9935.57
470.95	10064.30
471.14	10134.52
471.32	9867.70
471.50	10211.76
471.68	10232.82
471.86	10406.02
472.04	10445.81
472.22	10693.91
472.40	10352.19
472.58	10394.32
472.77	10221.12
472.95	10296.02
473.13	10663.48
473.31	10635.39
473.49	10492.62
473.67	10597.95
473.85	10930.30
474.03	11122.23
474.21	10747.74
474.39	11117.54
474.57	11073.07
474.75	11248.61
474.93	11370.32
475.12	11068.39
475.30	11180.74
475.48	11138.61
475.66	11227.55
475.84	11176.06
476.02	11513.10
476.20	11241.59
476.38	11382.03
476.56	11803.32
476.74	11693.32
476.92	11845.45
477.10	11969.50
477.28	11950.78
477.46	12121.63
477.64	12306.54
477.82	12276.11
478.00	12585.06
478.18	12271.43
478.36	12559.31
478.54	12919.76
478.72	12772.30
478.90	12929.12
479.08	12877.63
479.26	13188.92
479.44	12985.29
479.62	13146.79
479.80	13153.81
479.98	13317.65
480.16	13547.02
480.34	13357.44
480.52	13603.19
480.70	13605.53
480.88	13474.46
481.06	13874.70
481.24	14005.77
481.41	14225.78
481.59	14270.25
481.77	14553.45
481.95	14204.71
482.13	14707.93
482.31	14553.45
482.49	14934.96
482.67	14895.17
482.85	15014.54
483.03	14918.57
483.21	15541.16
483.39	15255.61
483.57	15358.60
483.74	15634.78
483.92	15704.99
484.10	15735.42
484.28	16042.03
484.46	16025.65
484.64	16212.89
484.82	15974.16
485.00	16128.63
485.18	16428.22
485.35	16243.32
485.53	16086.50
485.71	16032.67
485.89	16594.40
486.07	16456.31
486.25	16788.66
486.43	16779.30
486.61	16994.63
486.78	17315.28
486.96	17451.03
487.14	17724.88
487.32	17692.11
487.50	18349.80
487.68	18157.88
487.85	18401.29
488.03	18494.91
488.21	18455.12
488.39	18527.68
488.57	18895.14
488.75	18796.84
488.92	19026.21
489.10	19288.35
489.28	19204.10
489.46	19515.39
489.64	19948.39
489.81	20247.97
489.99	20102.86
490.17	20091.16
490.35	20362.66
490.53	20369.68
490.70	20559.27
490.88	20559.27
491.06	20746.51
491.24	20790.98
491.41	20500.75
491.59	20816.72
491.77	20650.55
491.95	21083.55
492.13	21139.72
492.30	21509.52
492.48	21703.79
492.66	21785.71
492.84	21692.08
493.01	21839.54
493.19	22029.12
493.37	22115.72
493.54	22317.01
493.72	22530.00
493.90	22558.08
494.08	23138.54
494.25	23192.37
494.43	23269.61
494.61	23491.96
494.79	23674.52
494.96	23180.67
495.14	23274.29
495.32	23580.90
495.49	23623.03
495.67	23688.56
495.85	24318.17
496.02	24205.82
496.20	24311.14
496.38	24500.73
496.55	24430.51
496.73	25102.25
496.91	24671.59
497.09	25249.70
497.26	25064.80
497.44	24819.04
497.62	25144.38
497.79	25060.12
497.97	24936.07
498.14	25371.41
498.32	25425.24
498.50	25671.00
498.67	26078.25
498.85	25912.07
499.03	26169.53
499.20	26225.70
499.38	26160.17
499.56	26485.50
499.73	26595.51
499.91	26536.99
500.08	26434.01
500.26	26466.78
500.44	26396.56
500.61	27009.78
500.79	26242.09
500.97	26691.47
501.14	27154.90
501.32	27211.07
501.49	27005.10
501.67	27129.15
501.84	27552.79
502.02	27091.70
502.20	27695.56
502.37	27826.63
502.55	27704.92
502.72	27758.75
502.90	28056.00
503.07	28100.47
503.25	28133.24
503.43	28130.90
503.60	28121.54
503.78	28151.96
503.95	28182.39
504.13	28460.91
504.30	28725.39
504.48	28861.15
504.65	29010.94
504.83	29118.60
505.01	29495.43
505.18	29256.70
505.36	29605.44
505.53	29200.52
505.71	29692.04
505.88	29926.09
506.06	29408.83
506.23	29408.83
506.41	29343.30
506.58	29905.02
506.76	29715.44
506.93	29799.70
507.11	30141.42
507.28	30246.74
507.46	29783.32
507.63	30136.74
507.81	30221.00
507.98	30120.35
508.16	30281.85
508.33	30352.07
508.50	30761.66
508.68	30705.49
508.85	31229.77
509.03	31058.91
509.20	31398.29
509.38	30909.11
509.55	30806.13
509.73	31402.97
509.90	31164.23
510.08	31173.60
510.25	31402.97
510.42	31482.55
510.60	31910.86
510.77	31742.35
510.95	32107.47
511.12	31714.26
511.30	32032.57
511.47	32397.70
511.64	32306.41
511.82	32285.35
511.99	32257.26
512.17	32617.71
512.34	32079.38
512.51	32458.55
512.69	32835.38
512.86	32760.48
513.04	32741.75
513.21	32381.31
513.38	32601.32
513.56	33228.59
513.73	32694.94
513.90	32924.32
514.08	32914.95
514.25	33216.88
514.43	33422.85
514.60	32975.81
514.77	33785.63
514.95	33787.97
515.12	33352.63
515.29	33656.90
515.47	34178.84
515.64	34033.73
515.81	33703.71
515.99	33818.40
516.16	33694.35
516.33	33970.54
516.51	33823.08
516.68	33383.06
516.85	33411.15
517.03	33567.96
517.20	33919.04
517.37	34263.10
517.54	34712.49
517.72	34576.73
517.89	34031.39
518.06	34005.64
518.24	34300.55
518.41	34075.86
518.58	34536.94
518.75	34684.40
518.93	34813.13
519.10	34579.07
519.27	35051.86
519.45	35267.19
519.62	35442.73
519.79	35274.21
519.96	35295.28
520.14	35791.47
520.31	35196.98
520.48	35285.92
520.65	35412.31
520.83	35711.89
521.00	35868.71
521.17	36011.48
521.34	36180.00
521.52	36556.83
521.69	36472.57
521.86	36570.87
522.03	35901.48
522.20	35938.93
522.38	36580.23
522.55	36247.88
522.72	36556.83
522.89	36290.01
523.07	36861.10
523.24	36465.55
523.41	36706.62
523.58	36795.56
523.75	37235.58
523.92	37188.77
524.10	37551.56
524.27	37127.92
524.44	37181.75
524.61	37207.50
524.78	37759.86
524.96	37738.80
525.13	37525.81
525.30	38190.52
525.47	38012.64
525.64	37638.15
525.81	37617.09
525.98	37469.64
526.16	37411.12
526.33	36751.09
526.50	37258.99
526.67	37315.16
526.84	37165.37
527.01	37804.33
527.18	37879.23
527.36	38419.89
527.53	38567.35
527.70	38536.92
527.87	38295.85
528.04	38267.76
528.21	38684.37
528.38	38602.46
528.55	39166.52
528.72	38543.94
528.89	39255.46
529.07	38733.53
529.24	38799.06
529.41	38724.16
529.58	38731.18
529.75	38941.83
529.92	39288.23
530.09	38726.50
530.26	38913.75
530.43	39573.78
530.60	38923.11
530.77	39178.23
530.94	39541.01
531.11	39264.83
531.28	39510.58
531.46	39632.29
531.63	39508.24
531.80	39225.04
531.97	39641.65
532.14	39477.82
532.31	39494.20
532.48	39756.34
532.65	39351.43
532.82	39665.06
532.99	40088.70
533.16	39695.49
533.33	39873.37
533.50	40294.66
533.67	40004.44
533.84	39651.02
534.01	40346.15
534.18	39873.37
534.35	40559.14
534.52	40402.33
534.69	40664.47
534.86	40526.38
535.03	40451.48
535.20	40753.41
535.37	41200.45
535.54	41095.13
535.71	40247.85
535.88	40629.36
536.05	40877.46
536.22	40961.72
536.38	40610.64
536.55	40500.63
536.72	40795.54
536.89	40863.41
537.06	40804.90
537.23	40835.33
537.40	40964.06
537.57	41265.99
537.74	41155.98
537.91	41537.49
538.08	41490.68
538.25	41383.01
538.42	41209.81
538.59	41797.29
538.75	40954.69
538.92	41282.37
539.09	41579.62
539.26	41610.04
539.43	41607.70
539.60	41378.33
539.77	41177.04
539.94	41605.36
540.11	41448.55
540.28	41530.47
540.44	41359.61
540.61	41394.71
540.78	41593.66
540.95	41642.81
541.12	41750.48
541.29	41729.41
541.46	41530.47
541.62	42012.62
541.79	41881.55
541.96	41544.51
542.13	41820.69
542.30	41911.97
542.47	42087.51
542.63	42293.48
542.80	42384.76
542.97	42410.51
543.14	43084.58
543.31	42511.15
543.48	42604.77
543.64	43147.78
543.81	42855.21
543.98	42969.90
544.15	42948.83
544.32	42864.57
544.48	43154.80
544.65	43330.34
544.82	43138.41
544.99	42820.10
545.16	43447.36
545.32	43124.37
545.49	43433.32
545.66	43985.69
545.83	43430.98
546.00	43290.55
546.16	43332.68
546.33	42775.63
546.50	42803.72
546.67	43349.06
546.83	42616.47
547.00	43566.73
547.17	43042.45
547.34	43573.75
547.50	43571.41
547.67	43700.14
547.84	43538.65
548.00	43604.18
548.17	43878.02
548.34	43856.96
548.51	44135.48
548.67	44032.50
548.84	43842.92
549.01	43817.17
549.18	43831.21
549.34	43775.04
549.51	44259.53
549.68	44208.04
549.84	43732.91
550.01	44306.34
550.18	43856.96
550.34	44074.63
550.51	43863.98
550.68	43882.70
550.84	43753.97
551.01	44266.55
551.18	44233.78
551.34	44268.89
551.51	43856.96
551.68	43810.15
551.84	44624.65
552.01	44191.65
552.18	44397.62
552.34	43803.13
552.51	44453.79
552.68	44374.22
552.84	44559.12
553.01	44718.28
553.18	44524.01
553.34	44893.82
553.51	44406.98
553.67	44699.55
553.84	44947.65
554.01	44561.46
554.17	45059.99
554.34	44973.39
554.51	44980.42
554.67	44626.99
554.84	44849.35
555.00	44727.64
555.17	44669.12
555.33	44704.23
555.50	44591.89
555.67	44662.10
555.83	45036.59
556.00	45134.89
556.16	45420.44
556.33	44996.80
556.50	44584.86
556.66	45162.98
556.83	44549.76
556.99	45017.86
557.16	45261.28
557.32	45432.14
557.49	45387.67
557.65	44865.73
557.82	44870.41
557.98	45265.96
558.15	45193.40
558.32	44989.78
558.48	44982.76
558.65	44896.16
558.81	44924.24
558.98	45031.91
559.14	44931.26
559.31	45050.63
559.47	45420.44
559.64	45408.73
559.80	45631.08
559.97	45471.93
560.13	45319.79
560.30	44872.75
560.46	45600.66
560.63	45485.97
560.79	45879.18
560.96	45684.92
561.12	45675.55
561.29	45530.44
561.45	45411.07
561.61	45457.88
561.78	45347.88
561.94	45539.80
562.11	45691.94
562.27	45696.62
562.44	45649.81
562.60	45893.22
562.77	45514.06
562.93	45574.91
563.10	45663.85
563.26	45434.48
563.42	45998.55
563.59	45710.66
563.75	45467.25
563.92	45794.92
564.08	45680.24
564.24	45846.41
564.41	46204.52
564.57	45727.05
564.74	45778.54
564.90	45930.67
565.07	45464.91
565.23	45460.23
565.39	45713.00
565.56	45979.82
565.72	45497.67
565.88	45315.11
566.05	45495.33
566.21	45701.30
566.38	45949.40
566.54	45663.85
566.70	46115.58
566.87	46040.68
567.03	45909.61
567.19	46038.34
567.36	45890.88
567.52	45745.77
567.68	46415.16
567.85	45603.00
568.01	45968.12
568.17	45666.19
568.34	45762.15
568.50	46075.79
568.66	45546.82
568.83	45523.42
568.99	45399.37
569.15	45581.93
569.32	45944.72
569.48	45921.31
569.64	46094.51
569.81	46581.34
569.97	46211.54
570.13	46155.36
570.30	45455.54
570.46	45607.68
570.62	45815.99
570.78	45937.69
570.95	45570.23
571.11	46141.32
571.27	45738.75
571.43	45673.21
571.60	46085.15
571.76	46192.81
571.92	46153.02
572.09	45710.66
572.25	45930.67
572.41	46031.32
572.57	46239.62
572.74	46244.30
572.90	46162.39
573.06	46326.22
573.22	45907.27
573.38	45940.04
573.55	45963.44
573.71	45935.35
573.87	45944.72
574.03	46099.19
574.20	45961.10
574.36	46220.90
574.52	46148.34
574.68	46068.76
574.84	45670.87
575.01	46286.43
575.17	45930.67
575.33	46033.66
575.49	46319.20
575.65	46080.47
575.82	46356.65
575.98	46241.96
576.14	46307.50
576.30	46464.32
576.46	46487.72
576.62	46080.47
576.79	46387.08
576.95	46003.23
577.11	46309.84
577.27	46199.83
577.43	46117.92
577.59	45727.05
577.75	45979.82
577.92	45549.17
578.08	45813.65
578.24	45904.93
578.40	46089.83
578.56	45963.44
578.72	46036.00
578.88	46546.23
579.04	46148.34
579.21	46045.36
579.37	46227.92
579.53	46253.67
579.69	45909.61
579.85	46160.05
580.01	46141.32
580.17	45949.40
580.33	46305.16
580.49	46211.54
580.65	46202.18
580.82	46124.94
580.98	46092.17
581.14	46148.34
581.30	46672.62
581.46	46391.76
581.62	46630.49
581.78	46064.08
581.94	46387.08
582.10	46176.43
582.26	46199.83
582.42	46354.31
582.58	46279.41
582.74	46293.46
582.90	46223.24
583.06	46616.45
583.22	46260.69
583.38	46571.98
583.54	46040.68
583.70	46445.59
583.86	46579.00
584.02	46026.63
584.18	46260.69
584.34	46251.33
584.50	45853.44
584.66	46263.03
584.82	45851.09
584.98	46361.33
585.14	46209.20
585.30	46366.01
585.46	46607.09
585.62	46274.73
585.78	46211.54
585.94	45535.12
586.10	46103.87
586.26	46045.36
586.42	46604.75
586.58	46817.74
586.74	46616.45
586.90	46300.48
587.06	45708.32
587.22	46476.02
587.38	45921.31
587.54	46237.28
587.70	46532.19
587.86	46213.88
588.02	46124.94
588.18	46209.20
588.34	46052.38
588.49	45904.93
588.65	45492.99
588.81	45485.97
588.97	45942.38
589.13	45677.90
589.29	46106.21
589.45	45787.90
589.61	46087.49
589.77	46120.26
589.93	46375.37
