SpectraSuite Data File
++++++++++++++++++++++++++++++++++++
Date: Fri Oct 25 11:24:04 EDT 2013
User: price-jones
Dark Spectrum Present: No
Reference Spectrum Present: No
Number of Sampled Component Spectra: 1
Spectrometers: USB2+H05261
Integration Time (usec): 100000 (USB2+H05261)
Spectra Averaged: 1 (USB2+H05261)
Boxcar Smoothing: 0 (USB2+H05261)
Correct for Electrical Dark: No (USB2+H05261)
Strobe/Lamp Enabled: No (USB2+H05261)
Correct for Detector Non-linearity: No (USB2+H05261)
Correct for Stray Light: No (USB2+H05261)
Number of Pixels in Processed Spectrum: 2048
>>>>>Begin Processed Spectral Data<<<<<
365.73	252.78
365.92	252.78
366.12	252.78
366.32	138.09
366.52	152.13
366.72	224.69
366.91	140.43
367.11	128.73
367.31	46.81
367.51	147.45
367.70	175.54
367.90	154.48
368.10	152.13
368.30	140.43
368.49	201.29
368.69	250.44
368.89	126.39
369.09	126.39
369.28	170.86
369.48	142.77
369.68	191.92
369.87	285.55
370.07	170.86
370.27	203.63
370.47	334.70
370.66	615.56
370.86	636.63
371.06	594.50
371.25	744.29
371.45	638.97
371.65	655.35
371.84	620.24
372.04	706.84
372.24	669.39
372.44	669.39
372.63	688.12
372.83	704.50
373.03	711.52
373.22	746.63
373.42	758.33
373.62	807.48
373.81	882.38
374.01	891.74
374.21	727.91
374.40	699.82
374.60	816.85
374.79	763.01
374.99	765.36
375.19	833.23
375.38	835.57
375.58	781.74
375.78	833.23
375.97	821.53
376.17	961.96
376.37	889.40
376.56	866.00
376.76	870.68
376.95	849.61
377.15	877.70
377.35	924.51
377.54	882.38
377.74	828.55
377.93	961.96
378.13	966.64
378.33	961.96
378.52	917.49
378.72	924.51
378.91	973.66
379.11	1008.77
379.31	919.83
379.50	898.77
379.70	971.32
379.89	931.53
380.09	917.49
380.28	966.64
380.48	926.85
380.68	978.34
380.87	926.85
381.07	1043.88
381.26	1039.20
381.46	1036.86
381.65	1011.11
381.85	1069.62
382.04	994.73
382.24	1069.62
382.43	1078.99
382.63	1078.99
382.83	1006.43
383.02	1128.14
383.22	1158.57
383.41	1083.67
383.61	1069.62
383.80	1203.04
384.00	1158.57
384.19	1203.04
384.39	1102.39
384.58	1174.95
384.78	1186.65
384.97	1186.65
385.17	1144.52
385.36	1186.65
385.56	1144.52
385.75	1184.31
385.95	1165.59
386.14	1193.67
386.34	1224.10
386.53	1203.04
386.72	1263.89
386.92	1291.98
387.11	1240.48
387.31	1268.57
387.50	1177.29
387.70	1296.66
387.89	1165.59
388.09	1273.25
388.28	1315.38
388.48	1212.40
388.67	1348.15
388.86	1252.19
389.06	1301.34
389.25	1310.70
389.45	1270.91
389.64	1397.30
389.84	1465.18
390.03	1406.66
390.22	1308.36
390.42	1329.42
390.61	1392.62
390.81	1423.05
391.00	1439.43
391.19	1472.20
391.39	1357.51
391.58	1434.75
391.78	1519.01
391.97	1451.13
392.16	1502.62
392.36	1549.43
392.55	1490.92
392.75	1511.99
392.94	1481.56
393.13	1610.29
393.33	1472.20
393.52	1544.75
393.71	1624.33
393.91	1694.55
394.10	1598.59
394.29	1582.20
394.49	1549.43
394.68	1612.63
394.88	1558.80
395.07	1682.85
395.26	1701.57
395.46	1673.48
395.65	1755.40
395.84	1682.85
396.04	1905.20
396.23	1776.47
396.42	1713.27
396.62	1781.15
396.81	1778.81
397.00	1722.63
397.19	1809.23
397.39	1785.83
397.58	1748.38
397.77	1905.20
397.97	1867.75
398.16	1930.94
398.35	1886.47
398.55	1867.75
398.74	1930.94
398.93	1865.41
399.12	2003.50
399.32	1863.07
399.51	1916.90
399.70	1968.39
399.90	1998.82
400.09	2010.52
400.28	1994.14
400.47	1907.54
400.67	2062.01
400.86	2047.97
401.05	2127.55
401.24	2054.99
401.44	2003.50
401.63	2172.02
401.82	2132.23
402.01	2092.44
402.21	2223.51
402.40	2225.85
402.59	2122.87
402.78	2183.72
402.97	2300.75
403.17	2265.64
403.36	2218.83
403.55	2354.58
403.74	2380.32
403.93	2392.03
404.13	2354.58
404.32	2363.94
404.51	2307.77
404.70	2499.69
404.89	2485.65
405.09	2464.58
405.28	2572.25
405.47	2434.16
405.66	2553.52
405.85	2450.54
406.05	2682.25
406.24	2565.23
406.43	2520.76
406.62	2602.68
406.81	2635.44
407.00	2750.13
407.20	2679.91
407.39	2569.91
407.58	2759.49
407.77	2832.05
407.96	2719.70
408.15	2843.75
408.34	2661.19
408.54	2810.98
408.73	2644.81
408.92	2876.52
409.11	2708.00
409.30	2853.11
409.49	2942.05
409.68	2883.54
409.87	2916.31
410.07	3016.95
410.26	3007.59
410.45	2888.22
410.64	3063.76
410.83	3080.14
411.02	3157.38
411.21	3220.58
411.40	3204.19
411.59	3066.10
411.78	3173.77
411.98	3215.90
412.17	3290.79
412.36	3368.03
412.55	3290.79
412.74	3332.92
412.93	3456.97
413.12	3375.05
413.31	3510.80
413.50	3581.02
413.69	3508.46
413.88	3592.72
414.07	3557.61
414.26	3641.87
414.45	3761.24
414.64	3826.78
414.83	3812.73
415.02	3822.09
415.22	3761.24
415.41	3915.72
415.60	3847.84
415.79	3868.91
415.98	4018.70
416.17	3892.31
416.36	4025.72
416.55	3969.55
416.74	4051.47
416.93	4156.79
417.12	4037.42
417.31	4180.20
417.50	4234.03
417.69	4259.78
417.88	4203.60
418.07	4318.29
418.26	4409.57
418.45	4313.61
418.64	4561.70
418.83	4461.06
419.02	4524.26
419.21	4358.08
419.39	4566.39
419.58	4533.62
419.77	4360.42
419.96	4634.26
420.15	4723.20
420.34	4746.61
420.53	4547.66
420.72	4723.20
420.91	4734.90
421.10	4739.58
421.29	4643.62
421.48	4840.23
421.67	4812.14
421.86	4692.77
422.05	4884.70
422.24	4814.48
422.43	4929.17
422.61	4865.97
422.80	5025.13
422.99	4940.87
423.18	4999.38
423.37	5046.20
423.56	5093.01
423.75	4912.78
423.94	4807.46
424.13	4669.37
424.32	4678.73
424.50	5053.22
424.69	5142.16
424.88	5153.86
425.07	4992.36
425.26	4910.44
425.45	5060.24
425.64	4926.83
425.83	4917.47
426.01	5088.32
426.20	5107.05
426.39	5053.22
426.58	5191.31
426.77	5001.72
426.96	5102.37
427.15	5076.62
427.33	5135.14
427.52	5228.76
427.71	5212.37
427.90	5329.40
428.09	5287.27
428.28	5373.87
428.46	5322.38
428.65	5352.81
428.84	5542.39
429.03	5495.58
429.22	5467.49
429.40	5591.54
429.59	5373.87
429.78	5476.85
429.97	5240.46
430.16	5411.32
430.34	5516.64
430.53	5657.07
430.72	5657.07
430.91	5643.03
431.10	5624.31
431.28	5708.57
431.47	5928.58
431.66	5870.06
431.85	5907.51
432.03	5886.45
432.22	5935.60
432.41	5987.09
432.60	5975.39
432.79	5982.41
432.97	6136.88
433.16	6076.03
433.35	6019.86
433.54	6207.10
433.72	6118.16
433.91	6239.87
434.10	6211.78
434.28	6193.06
434.47	6225.82
434.66	6258.59
434.85	6195.40
435.03	6469.24
435.22	6333.49
435.41	6459.88
435.59	6424.77
435.78	6530.09
435.97	6427.11
436.16	6537.12
436.34	6490.31
436.53	6663.51
436.72	6792.23
436.90	6523.07
437.09	6511.37
437.28	6621.38
437.46	6532.44
437.65	6782.87
437.84	6810.96
438.02	6782.87
438.21	6740.74
438.40	6677.55
438.58	7014.59
438.77	7023.95
438.96	6862.45
439.14	7073.10
439.33	7302.47
439.52	7178.42
439.70	7250.98
439.89	7269.70
440.08	7300.13
440.26	7302.47
440.45	7403.11
440.63	7506.10
440.82	7707.38
441.01	7433.54
441.19	7775.26
441.38	7911.01
441.57	7976.55
441.75	8016.33
441.94	8011.65
442.12	8018.68
442.31	8035.06
442.50	8126.34
442.68	8006.97
442.87	8170.81
443.05	8114.64
443.24	8067.83
443.43	8079.53
443.61	8297.20
443.80	8379.12
443.98	8039.74
444.17	7922.71
444.35	8379.12
444.54	8475.08
444.73	8383.80
444.91	8283.16
445.10	8409.54
445.28	8388.48
445.47	8425.93
445.65	8496.14
445.84	8557.00
446.02	8482.10
446.21	8294.86
446.39	8578.06
446.58	8615.51
446.77	8437.63
446.95	8278.47
447.14	8475.08
447.32	8479.76
447.51	8416.57
447.69	8526.57
447.88	8477.42
448.06	8517.21
448.25	8547.64
448.43	8734.88
448.62	8720.84
448.80	8676.37
448.99	8641.26
449.17	8968.93
449.36	8727.86
449.54	8891.70
449.73	9046.17
449.91	9048.51
450.10	9062.55
450.28	8975.95
450.46	9020.42
450.65	9177.24
450.83	9074.26
451.02	8992.34
451.20	9036.81
451.39	9266.18
451.57	9067.24
451.76	9266.18
451.94	9434.70
452.13	9481.51
452.31	9114.05
452.49	9289.59
452.68	9509.60
452.86	9371.50
453.05	9516.62
453.23	9617.26
453.42	9352.78
453.60	9469.81
453.78	9762.37
453.97	9516.62
454.15	9575.13
454.34	9469.81
454.52	9947.28
454.70	9774.08
454.89	9643.01
455.07	9881.74
455.26	9806.84
455.44	9951.96
455.62	10104.09
455.81	9680.46
455.99	9956.64
456.17	10181.33
456.36	10204.74
456.54	10214.10
456.73	10146.22
456.91	10394.32
457.09	10471.56
457.28	10775.83
457.46	10431.77
457.64	10789.87
457.83	10501.98
458.01	10434.11
458.19	10656.46
458.38	10581.56
458.56	10619.01
458.74	10747.74
458.93	10937.32
459.11	10719.65
459.29	10668.16
459.48	10714.97
459.66	10733.70
459.84	10885.83
460.03	11154.99
460.21	11215.85
460.39	11059.03
460.57	10724.33
460.76	11143.29
460.94	11204.14
461.12	11314.15
461.31	11169.04
461.49	11157.33
461.67	11150.31
461.85	11515.44
462.04	11351.60
462.22	11606.72
462.40	11641.82
462.59	11580.97
462.77	11419.47
462.95	12109.93
463.13	11693.32
463.32	11698.00
463.50	11896.94
463.68	11655.87
463.86	11765.87
464.05	11616.08
464.23	11653.53
464.41	11882.90
464.59	11587.99
464.78	12262.07
464.96	12063.12
465.14	11637.14
465.32	12140.36
465.50	12123.98
465.69	12453.99
465.87	12138.02
466.05	12079.50
466.23	12250.36
466.41	12343.99
466.60	12655.28
466.78	12203.55
466.96	12233.98
467.14	12388.46
467.32	12395.48
467.51	12456.33
467.69	12161.42
467.87	12271.43
468.05	12599.10
468.23	12624.85
468.41	12416.54
468.60	12641.23
468.78	13048.49
468.96	12435.27
469.14	13008.70
469.32	13107.00
469.50	12685.70
469.69	13025.08
469.87	13034.44
470.05	13277.86
470.23	13439.36
470.41	13366.80
470.59	13493.19
470.77	13331.69
470.95	13153.81
471.14	13687.45
471.32	13233.39
471.50	13575.11
471.68	13624.26
471.86	13734.26
472.04	13762.35
472.22	14104.07
472.40	13760.01
472.58	14279.61
472.77	13942.57
472.95	14279.61
473.13	14757.08
473.31	14256.20
473.49	14270.25
473.67	14356.85
473.85	14178.97
474.03	14635.37
474.21	14555.79
474.39	14995.81
474.57	14731.33
474.75	15131.56
474.93	15180.71
475.12	14953.68
475.30	15201.78
475.48	15016.88
475.66	15180.71
475.84	15066.03
476.02	15424.13
476.20	15410.09
476.38	15653.50
476.56	16248.00
476.74	16248.00
476.92	15960.11
477.10	15861.81
477.28	16175.44
477.46	16299.49
477.64	16264.38
477.82	16840.15
478.00	17242.73
478.18	16964.20
478.36	17046.12
478.54	17301.24
478.72	17015.69
478.90	17357.41
479.08	17657.00
479.26	17516.57
479.44	18031.49
479.62	17706.15
479.80	18024.47
479.98	18265.54
480.16	18766.42
480.34	18520.66
480.52	18815.57
480.70	18600.24
480.88	18405.97
481.06	18888.12
481.24	18918.55
481.41	19002.81
481.59	19260.27
481.77	19316.44
481.95	19817.32
482.13	19749.44
482.31	19791.57
482.49	20320.53
482.67	20372.02
482.85	20402.45
483.03	20793.32
483.21	21034.39
483.39	21195.89
483.57	20739.49
483.74	21495.48
483.92	21518.89
484.10	21233.34
484.28	21881.67
484.46	22274.88
484.64	22434.03
484.82	22443.40
485.00	22340.41
485.18	22890.44
485.35	23000.44
485.53	23091.73
485.71	23007.47
485.89	23627.71
486.07	23536.43
486.25	23721.33
486.43	24091.13
486.61	24121.56
486.78	24095.82
486.96	24306.46
487.14	24741.80
487.32	24842.45
487.50	24868.19
487.68	25170.12
487.85	25432.26
488.03	25879.30
488.21	26181.23
488.39	25556.31
488.57	26286.56
488.75	26628.27
488.92	26707.85
489.10	26941.91
489.28	26902.12
489.46	27082.34
489.64	26946.59
489.81	27852.38
489.99	27908.55
490.17	27929.61
490.35	28039.62
490.53	28720.71
490.70	28765.18
490.88	28486.66
491.06	28975.83
491.24	28975.83
491.41	29579.69
491.59	29228.61
491.77	29701.40
491.95	29706.08
492.13	30045.46
492.30	30033.75
492.48	30312.28
492.66	30672.72
492.84	30806.13
493.01	30583.78
493.19	31094.02
493.37	31171.25
493.54	31309.35
493.72	31758.73
493.90	31789.16
494.08	31868.73
494.25	31955.33
494.43	32301.73
494.61	32257.26
494.79	32774.52
494.96	32720.69
495.14	33046.02
495.32	33687.33
495.49	33486.04
495.67	33331.57
495.85	33509.45
496.02	33841.81
496.20	34260.76
496.38	34108.63
496.55	34466.73
496.73	34969.94
496.91	34429.28
497.09	34965.26
497.26	35030.80
497.44	34906.75
497.62	35629.98
497.79	36154.26
497.97	35894.46
498.14	36198.73
498.32	36114.47
498.50	36350.86
498.67	36605.98
498.85	36624.70
499.03	37319.84
499.20	37095.15
499.38	36914.93
499.56	37549.21
499.73	37495.38
499.91	37397.08
500.08	37893.27
500.26	38323.93
500.44	37902.64
500.61	38014.98
500.79	37921.36
500.97	38909.07
501.14	38387.13
501.32	39208.65
501.49	38972.26
501.67	38473.73
501.84	39295.25
502.02	39321.00
502.20	39365.47
502.37	39702.51
502.55	39349.09
502.72	40107.42
502.90	40147.21
503.07	39681.44
503.25	39739.96
503.43	39906.13
503.60	40519.35
503.78	40832.99
503.95	40727.66
504.13	40657.45
504.30	41106.83
504.48	40737.02
504.65	41275.35
504.83	41390.03
505.01	41635.79
505.18	41244.92
505.36	41752.82
505.53	41418.12
505.71	41837.08
505.88	41907.29
506.06	41937.72
506.23	42047.72
506.41	42122.62
506.58	42192.84
506.76	42579.03
506.93	42569.66
507.11	42349.65
507.28	42433.91
507.46	42789.67
507.63	42906.70
507.81	43328.00
507.98	43215.65
508.16	43365.45
508.33	43856.96
508.50	43662.69
508.68	43578.43
508.85	44287.62
509.03	43824.19
509.20	44250.17
509.38	44964.03
509.55	44676.15
509.73	44783.81
509.90	45017.86
510.08	44830.62
510.25	44903.18
510.42	44830.62
510.60	45001.48
510.77	45387.67
510.95	45558.53
511.12	45301.07
511.30	45366.60
511.47	45277.66
511.64	46024.29
511.82	46258.35
511.99	46087.49
512.17	46356.65
512.34	46302.82
512.51	46529.85
512.69	46799.01
512.86	46546.23
513.04	46829.44
513.21	46731.14
513.38	47009.66
513.56	47175.84
513.73	46845.82
513.90	47093.92
514.08	46822.42
514.25	47030.72
514.43	47540.96
514.60	47592.45
514.77	47721.18
514.95	47784.38
515.12	47789.06
515.29	47849.91
515.47	48346.11
515.64	48128.44
515.81	47742.25
515.99	48563.78
516.16	48879.75
516.33	48399.94
516.51	49071.67
516.68	48643.35
516.85	48657.40
517.03	48942.94
517.20	49235.51
517.37	49041.24
517.54	49310.41
517.72	49226.15
517.89	49284.66
518.06	49523.40
518.24	49602.97
518.41	49551.48
518.58	49581.91
518.75	49563.18
518.93	49710.64
519.10	49523.40
519.27	50066.40
519.45	49827.66
519.62	50110.87
519.79	50265.34
519.96	50274.71
520.14	50740.47
520.31	50492.38
520.48	50405.78
520.65	50525.14
520.83	50916.01
521.00	50415.14
521.17	51096.24
521.34	50745.15
521.52	50972.19
521.69	51405.19
521.86	51224.96
522.03	51297.52
522.20	51693.07
522.38	51388.80
522.55	51625.20
522.72	51585.41
522.89	51379.44
523.07	51821.80
523.24	51922.44
523.41	51742.22
523.58	51662.64
523.75	52212.67
523.92	52006.70
524.10	52154.16
524.27	52420.98
524.44	52437.36
524.61	52226.71
524.78	52463.11
524.96	52271.18
525.13	52636.31
525.30	52729.93
525.47	52437.36
525.64	52425.66
525.81	52584.82
525.98	52961.64
526.16	52486.51
526.33	52872.70
526.50	52851.64
526.67	52879.72
526.84	53050.58
527.01	52968.66
527.18	53081.01
527.36	53144.20
527.53	53228.46
527.70	53460.18
527.87	53624.01
528.04	53277.61
528.21	53469.54
528.38	53443.79
528.55	53687.21
528.72	53624.01
528.89	53825.30
529.07	53673.16
529.24	53766.79
529.41	53841.68
529.58	53799.55
529.75	53780.83
529.92	53759.76
530.09	53996.16
530.26	54134.25
530.43	54218.51
530.60	54176.38
530.77	54169.36
530.94	54251.28
531.11	54134.25
531.28	54475.97
531.46	54277.02
531.63	54555.55
531.80	54307.45
531.97	54475.97
532.14	54468.95
532.31	54541.50
532.48	54642.15
532.65	54930.03
532.82	54576.61
532.99	54829.39
533.16	54775.56
533.33	54791.94
533.50	54953.44
533.67	55110.25
533.84	54773.22
534.01	55014.29
534.18	55058.76
534.35	55316.22
534.52	55187.49
534.69	55215.58
534.86	55454.31
535.03	55192.17
535.20	55353.67
535.37	55491.76
535.54	55463.67
535.71	55508.14
535.88	55725.81
536.05	55608.79
536.22	55781.99
536.38	55643.90
536.55	55590.06
536.72	55784.33
536.89	55721.13
537.06	55774.97
537.23	55882.63
537.40	55608.79
537.57	55945.83
537.74	55931.78
537.91	56292.22
538.08	56086.26
538.25	56004.34
538.42	56002.00
538.59	56222.01
538.75	55894.33
538.92	56102.64
539.09	56285.20
539.26	56292.22
539.43	56243.07
539.60	56488.83
539.77	56498.19
539.94	56647.99
540.11	56322.65
540.28	56528.62
540.44	56432.66
540.61	56540.32
540.78	56432.66
540.95	56512.23
541.12	56362.44
541.29	56776.72
541.46	56542.66
541.62	56931.19
541.79	56938.21
541.96	56603.52
542.13	56605.86
542.30	57073.96
542.47	56692.46
542.63	57073.96
542.80	57036.51
542.97	57219.08
543.14	57485.90
543.31	57439.09
543.48	57319.72
543.64	57628.67
543.81	57584.20
543.98	57509.30
544.15	57516.32
544.32	57453.13
544.48	57752.72
544.65	57511.64
544.82	57509.30
544.99	57418.02
545.16	57333.76
545.32	57804.21
545.49	57778.46
545.66	58007.84
545.83	57928.26
546.00	57808.89
546.16	57645.05
546.33	57869.75
546.50	57666.12
546.67	57766.76
546.83	57560.79
547.00	58035.92
547.17	57696.55
547.34	57822.93
547.50	58141.25
547.67	58246.57
547.84	58183.38
548.00	58157.63
548.17	58265.30
548.34	58164.65
548.51	58480.63
548.67	58209.12
548.84	58227.85
549.01	58183.38
549.18	58440.84
549.34	58286.36
549.51	58295.72
549.68	58347.21
549.84	58377.64
550.01	58473.60
550.18	58492.33
550.34	58749.79
550.51	58712.34
550.68	58752.13
550.84	58412.75
551.01	58714.68
551.18	58625.74
551.34	58677.23
551.51	58621.06
551.68	58621.06
551.84	58595.31
552.01	58667.87
552.18	58639.78
552.34	58768.51
552.51	58745.11
552.68	58459.56
552.84	59056.40
553.01	59091.51
553.18	58901.92
553.34	58951.07
553.51	58859.79
553.67	58951.07
553.84	59091.51
554.01	58932.35
554.17	59131.29
554.34	59217.89
554.51	59121.93
554.67	59365.35
554.84	58995.54
555.00	59030.65
555.17	59313.86
555.33	59344.28
555.50	59220.23
555.67	59128.95
555.83	59288.11
556.00	59444.93
556.16	59421.52
556.33	59473.01
556.50	59398.12
556.66	59515.14
556.83	59236.62
556.99	59533.87
557.16	59550.25
557.32	59601.74
557.49	59959.84
557.65	59201.51
557.82	59419.18
557.98	59444.93
558.15	59480.03
558.32	59655.57
558.48	59442.59
558.65	59781.96
558.81	59578.34
558.98	59498.76
559.14	59697.70
559.31	59784.30
559.47	59800.69
559.64	59870.90
559.80	59901.33
559.97	60053.47
560.13	59702.38
560.30	59447.27
560.46	60095.60
560.63	60016.02
560.79	60004.31
560.96	59957.50
561.12	59856.86
561.29	59735.15
561.45	60107.30
561.61	60039.42
561.78	59826.43
561.94	59992.61
562.11	59852.18
562.27	59948.14
562.44	60144.75
562.60	60076.87
562.77	60310.92
562.93	60044.10
563.10	60182.19
563.26	60020.70
563.42	60299.22
563.59	60111.98
563.75	60053.47
563.92	60107.30
564.08	60032.40
564.24	60273.48
564.41	60226.66
564.57	60156.45
564.74	60156.45
564.90	60350.71
565.07	60189.22
565.23	60233.69
565.39	60072.19
565.56	60341.35
565.72	60315.61
565.88	60313.26
566.05	60315.61
566.21	60486.46
566.38	60257.09
566.54	60367.10
566.70	60479.44
566.87	60409.23
567.03	60238.37
567.19	60669.03
567.36	60423.27
567.52	60346.03
567.68	60535.62
567.85	60626.90
568.01	60636.26
568.17	60395.18
568.34	60514.55
568.50	60638.60
568.66	60430.29
568.83	60694.77
568.99	60540.30
569.15	60441.99
569.32	60643.28
569.48	60479.44
569.64	60643.28
569.81	60608.17
569.97	60757.97
570.13	60690.09
570.30	60535.62
570.46	60568.38
570.62	60790.73
570.78	60692.43
570.95	60633.92
571.11	60741.58
571.27	60594.13
571.43	60767.33
571.60	60893.72
571.76	60537.96
571.92	60757.97
572.09	60706.47
572.25	60666.69
572.41	60622.22
572.57	60673.71
572.74	61003.72
572.90	60657.32
573.06	60678.39
573.22	60706.47
573.38	60708.82
573.55	60729.88
573.71	60912.44
573.87	60851.59
574.03	60715.84
574.20	60650.30
574.36	60762.65
574.52	60811.80
574.68	60910.10
574.84	60926.49
575.01	60954.57
575.17	60718.18
575.33	60729.88
575.49	60636.26
575.65	60970.96
575.82	60938.19
575.98	60725.20
576.14	61109.05
576.30	61017.77
576.46	60865.63
576.62	60825.84
576.79	61059.90
576.95	60921.80
577.11	60949.89
577.27	60966.27
577.43	60935.85
577.59	60905.42
577.75	60837.54
577.92	60795.42
578.08	60952.23
578.24	61066.92
578.40	61095.00
578.56	61097.34
578.72	60912.44
578.88	61015.43
579.04	61064.58
579.21	61338.42
579.37	61165.22
579.53	61169.90
579.69	60750.94
579.85	61006.06
580.01	60889.04
580.17	60832.86
580.33	61029.47
580.49	61034.15
580.65	61069.26
580.82	60973.30
580.98	61078.62
581.14	60856.27
581.30	61038.83
581.46	61013.08
581.62	61172.24
581.78	61048.19
581.94	61118.41
582.10	61242.46
582.26	60966.27
582.42	60975.64
582.58	61125.43
582.74	61102.03
582.90	61095.00
583.06	60940.53
583.22	60919.46
583.38	61146.50
583.54	61139.47
583.70	61303.31
583.86	61078.62
584.02	60776.69
584.18	61165.22
584.34	61118.41
584.50	61006.06
584.66	61043.51
584.82	60989.68
584.98	61095.00
585.14	61190.97
585.30	61034.15
585.46	61127.77
585.62	61172.24
585.78	61352.46
585.94	61038.83
586.10	61029.47
586.26	61305.65
586.42	61244.80
586.58	61343.10
586.74	61268.20
586.90	61162.88
587.06	61052.87
587.22	61272.88
587.38	61120.75
587.54	61165.22
587.70	61296.29
587.86	61221.39
588.02	61116.07
588.18	61230.75
588.34	61055.21
588.49	61219.05
