SpectraSuite Data File
++++++++++++++++++++++++++++++++++++
Date: Fri Oct 25 11:34:00 EDT 2013
User: price-jones
Dark Spectrum Present: No
Reference Spectrum Present: No
Number of Sampled Component Spectra: 1
Spectrometers: USB2+H05261
Integration Time (usec): 100000 (USB2+H05261)
Spectra Averaged: 1 (USB2+H05261)
Boxcar Smoothing: 0 (USB2+H05261)
Correct for Electrical Dark: No (USB2+H05261)
Strobe/Lamp Enabled: No (USB2+H05261)
Correct for Detector Non-linearity: No (USB2+H05261)
Correct for Stray Light: No (USB2+H05261)
Number of Pixels in Processed Spectrum: 2048
>>>>>Begin Processed Spectral Data<<<<<
365.73	238.73
365.92	238.73
366.12	238.73
366.32	187.24
366.52	117.03
366.72	234.05
366.91	147.45
367.11	222.35
367.31	196.60
367.51	245.76
367.70	187.24
367.90	163.84
368.10	273.84
368.30	133.41
368.49	163.84
368.69	248.10
368.89	180.22
369.09	229.37
369.28	205.97
369.48	187.24
369.68	198.95
369.87	196.60
370.07	276.18
370.27	355.76
370.47	362.78
370.66	498.53
370.86	503.22
371.06	451.72
371.25	552.37
371.45	493.85
371.65	535.98
371.84	484.49
372.04	580.45
372.24	596.84
372.44	545.34
372.63	648.33
372.83	568.75
373.03	564.07
373.22	608.54
373.42	657.69
373.62	610.88
373.81	629.60
374.01	662.37
374.21	578.11
374.40	685.78
374.60	688.12
374.79	660.03
374.99	685.78
375.19	617.90
375.38	589.82
375.58	674.07
375.78	702.16
375.97	702.16
376.17	678.76
376.37	657.69
376.56	674.07
376.76	634.29
376.95	706.84
377.15	681.10
377.35	678.76
377.54	692.80
377.74	716.20
377.93	674.07
378.13	765.36
378.33	713.86
378.52	760.67
378.72	737.27
378.91	772.38
379.11	727.91
379.31	669.39
379.50	638.97
379.70	751.31
379.89	772.38
380.09	662.37
380.28	678.76
380.48	685.78
380.68	751.31
380.87	725.57
381.07	763.01
381.26	713.86
381.46	779.40
381.65	802.80
381.85	788.76
382.04	802.80
382.24	753.65
382.43	779.40
382.63	781.74
382.83	765.36
383.02	765.36
383.22	847.27
383.41	805.14
383.61	763.01
383.80	880.04
384.00	840.25
384.19	683.44
384.39	802.80
384.58	812.17
384.78	737.27
384.97	842.59
385.17	809.83
385.36	826.21
385.56	880.04
385.75	835.57
385.95	826.21
386.14	940.90
386.34	819.19
386.53	858.98
386.72	823.87
386.92	840.25
387.11	887.06
387.31	947.92
387.50	891.74
387.70	933.87
387.89	819.19
388.09	826.21
388.28	910.47
388.48	910.47
388.67	938.55
388.86	903.45
389.06	882.38
389.25	976.00
389.45	915.15
389.64	889.40
389.84	964.30
390.03	968.98
390.22	882.38
390.42	1029.84
390.61	971.32
390.81	997.07
391.00	1046.22
391.19	1015.79
391.39	978.34
391.58	947.92
391.78	978.34
391.97	1034.52
392.16	1027.50
392.36	1111.75
392.55	931.53
392.75	1111.75
392.94	1041.54
393.13	1036.86
393.33	1039.20
393.52	1053.24
393.71	1104.73
393.91	1130.48
394.10	1114.10
394.29	1034.52
394.49	1121.12
394.68	1128.14
394.88	1170.27
395.07	1111.75
395.26	1064.94
395.46	1132.82
395.65	1188.99
395.84	1231.12
396.04	1242.82
396.23	1238.14
396.42	1151.54
396.62	1174.95
396.81	1172.61
397.00	1226.44
397.19	1174.95
397.39	1179.63
397.58	1235.80
397.77	1228.78
397.97	1174.95
398.16	1245.16
398.35	1322.40
398.55	1177.29
398.74	1310.70
398.93	1310.70
399.12	1224.10
399.32	1277.93
399.51	1303.68
399.70	1352.83
399.90	1322.40
400.09	1371.55
400.28	1352.83
400.47	1380.92
400.67	1385.60
400.86	1387.94
401.05	1336.45
401.24	1364.53
401.44	1416.02
401.63	1490.92
401.82	1467.52
402.01	1362.19
402.21	1444.11
402.40	1394.96
402.59	1434.75
402.78	1511.99
402.97	1458.15
403.17	1582.20
403.36	1528.37
403.55	1495.60
403.74	1598.59
403.93	1514.33
404.13	1577.52
404.32	1570.50
404.51	1502.62
404.70	1584.54
404.89	1610.29
405.09	1659.44
405.28	1689.87
405.47	1687.53
405.66	1710.93
405.85	1715.61
406.05	1748.38
406.24	1720.29
406.43	1788.17
406.62	1846.68
406.81	1818.60
407.00	1785.83
407.20	1762.42
407.39	1703.91
407.58	1795.19
407.77	1809.23
407.96	1863.07
408.15	1816.26
408.34	1858.39
408.54	1914.56
408.73	1900.52
408.92	1907.54
409.11	1959.03
409.30	2040.95
409.49	1956.69
409.68	2132.23
409.87	1975.41
410.07	2155.63
410.26	1977.75
410.45	1961.37
410.64	2022.22
410.83	2026.90
411.02	2101.80
411.21	2143.93
411.40	2174.36
411.59	2141.59
411.78	2228.19
411.98	2143.93
412.17	2169.68
412.36	2125.21
412.55	2305.43
412.74	2256.28
412.93	2225.85
413.12	2326.49
413.31	2314.79
413.50	2375.64
413.69	2293.72
413.88	2520.76
414.07	2401.39
414.26	2436.50
414.45	2478.63
414.64	2478.63
414.83	2551.18
415.02	2532.46
415.22	2525.44
415.41	2579.27
415.60	2450.54
415.79	2562.89
415.98	2672.89
416.17	2768.85
416.36	2731.41
416.55	2808.64
416.74	2715.02
416.93	2796.94
417.12	2761.83
417.31	2794.60
417.50	2813.32
417.69	2878.86
417.88	2942.05
418.07	2892.90
418.26	2813.32
418.45	3028.65
418.64	2932.69
418.83	3045.04
419.02	3066.10
419.21	3040.36
419.39	2988.86
419.58	2974.82
419.77	3038.02
419.96	3204.19
420.15	3080.14
420.34	3091.85
420.53	3061.42
420.72	3108.23
420.91	3234.62
421.10	3201.85
421.29	3323.56
421.48	3232.28
421.67	3082.49
421.86	3248.66
422.05	3332.92
422.24	3187.81
422.43	3314.20
422.61	3400.80
422.80	3487.40
422.99	3335.26
423.18	3442.93
423.37	3389.10
423.56	3386.76
423.75	3396.12
423.94	3370.37
424.13	3169.09
424.32	3293.13
424.50	3358.67
424.69	3548.25
424.88	3473.36
425.07	3307.18
425.26	3342.28
425.45	3300.16
425.64	3307.18
425.83	3445.27
426.01	3489.74
426.20	3442.93
426.39	3384.41
426.58	3346.97
426.77	3438.25
426.96	3494.42
427.15	3316.54
427.33	3531.87
427.52	3515.48
427.71	3686.34
427.90	3529.53
428.09	3676.98
428.28	3676.98
428.46	3541.23
428.65	3620.81
428.84	3829.12
429.03	3719.11
429.22	3620.81
429.40	3665.28
429.59	3758.90
429.78	3648.90
429.97	3669.96
430.16	3817.41
430.34	3798.69
430.53	3819.75
430.72	3840.82
430.91	3913.38
431.10	3801.03
431.28	3995.29
431.47	3904.01
431.66	3936.78
431.85	3831.46
432.03	4023.38
432.22	4037.42
432.41	3955.51
432.60	3875.93
432.79	3964.87
432.97	4072.53
433.16	3971.89
433.35	4049.13
433.54	3976.57
433.72	4201.26
433.91	4032.74
434.10	4135.73
434.28	4035.08
434.47	4266.80
434.66	4154.45
434.85	4376.80
435.03	4308.93
435.22	4351.06
435.41	4320.63
435.59	4194.24
435.78	4311.27
435.97	4301.90
436.16	4311.27
436.34	4351.06
436.53	4278.50
436.72	4437.66
436.90	4468.08
437.09	4470.42
437.28	4454.04
437.46	4355.74
437.65	4475.10
437.84	4451.70
438.02	4573.41
438.21	4638.94
438.40	4435.32
438.58	4739.58
438.77	4678.73
438.96	4648.30
439.14	4774.69
439.33	4760.65
439.52	4727.88
439.70	4779.37
439.89	4901.08
440.08	4943.21
440.26	4877.68
440.45	4945.55
440.63	5174.92
440.82	5032.15
441.01	5142.16
441.19	5013.43
441.38	5097.69
441.57	5085.98
441.75	5163.22
441.94	5441.75
442.12	5369.19
442.31	5256.84
442.50	5472.17
442.68	5378.55
442.87	5411.32
443.05	5408.98
443.24	5432.38
443.43	5469.83
443.61	5500.26
443.80	5533.03
443.98	5408.98
444.17	5275.57
444.35	5530.69
444.54	5420.68
444.73	5474.51
444.91	5511.96
445.10	5636.01
445.28	5406.64
445.47	5706.23
445.65	5558.77
445.84	5657.07
446.02	5673.46
446.21	5598.56
446.39	5607.92
446.58	5621.97
446.77	5619.63
446.95	5392.59
447.14	5699.20
447.32	5619.63
447.51	5666.44
447.69	5764.74
447.88	5741.33
448.06	5830.27
448.25	5638.35
448.43	5682.82
448.62	5729.63
448.80	5696.86
448.99	5708.57
449.17	5867.72
449.36	5673.46
449.54	5914.53
449.73	5947.30
449.91	6026.88
450.10	5809.21
450.28	6071.35
450.46	6043.26
450.65	5956.66
450.83	6094.76
451.02	6052.63
451.20	6225.82
451.39	6122.84
451.57	6038.58
451.76	6085.39
451.94	6073.69
452.13	6094.76
452.31	6282.00
452.49	6099.44
452.68	6193.06
452.86	6139.23
453.05	6368.60
453.23	6310.08
453.42	6181.35
453.60	6143.91
453.78	6314.77
453.97	6314.77
454.15	6363.92
454.34	6251.57
454.52	6523.07
454.70	6445.84
454.89	6612.01
455.07	6431.79
455.26	6513.71
455.44	6586.27
455.62	6466.90
455.81	6682.23
455.99	6548.82
456.17	6855.43
456.36	6583.93
456.54	6792.23
456.73	6860.11
456.91	6963.09
457.09	6984.16
457.28	7073.10
457.46	6703.29
457.64	7169.06
457.83	6951.39
458.01	6942.03
458.19	7129.27
458.38	6817.98
458.56	7005.22
458.74	7225.23
458.93	7117.57
459.11	7091.82
459.29	7075.44
459.48	7162.04
459.66	6988.84
459.84	7155.02
460.03	7227.57
460.21	7258.00
460.39	7185.44
460.57	7513.12
460.76	7246.30
460.94	7311.83
461.12	7522.48
461.31	7379.71
461.49	7368.01
461.67	7461.63
461.85	7616.10
462.04	7573.97
462.22	7992.93
462.40	7742.49
462.59	7503.76
462.77	7510.78
462.95	7793.98
463.13	7801.01
463.32	7705.04
463.50	7822.07
463.68	7782.28
463.86	7793.98
464.05	7712.07
464.23	7887.61
464.41	7892.29
464.59	7817.39
464.78	7878.24
464.96	7964.84
465.14	7726.11
465.32	7934.42
465.50	7833.77
465.69	7913.35
465.87	8084.21
466.05	7836.11
466.23	7943.78
466.41	7941.44
466.60	8255.07
466.78	8063.15
466.96	8154.43
467.14	7948.46
467.32	8217.62
467.51	8395.50
467.69	8077.19
467.87	8187.19
468.05	8439.97
468.23	8028.04
468.41	8091.23
468.60	8044.42
468.78	8503.17
468.96	8318.26
469.14	8411.89
469.32	8575.72
469.50	8423.59
469.69	8664.66
469.87	8559.34
470.05	8531.25
470.23	8540.61
470.41	8578.06
470.59	8741.90
470.77	8568.70
470.95	8762.97
471.14	8837.86
471.32	8685.73
471.50	8882.33
471.68	8741.90
471.86	9029.79
472.04	8915.10
472.22	9027.45
472.40	8922.12
472.58	9114.05
472.77	9151.49
472.95	9193.62
473.13	9500.23
473.31	9202.99
473.49	9509.60
473.67	9186.60
473.85	9446.40
474.03	9418.32
474.21	9647.69
474.39	9631.30
474.57	9558.75
474.75	9703.86
474.93	9846.63
475.12	9734.29
475.30	9863.02
475.48	9748.33
475.66	10045.58
475.84	9830.25
476.02	9930.89
476.20	10071.33
476.38	10080.69
476.56	10296.02
476.74	10352.19
476.92	10251.55
477.10	10296.02
477.28	10438.79
477.46	10743.06
477.64	10658.80
477.82	10733.70
478.00	10860.09
478.18	11030.94
478.36	11147.97
478.54	11108.18
478.72	11098.82
478.90	11150.31
479.08	11295.43
479.26	11566.93
479.44	11419.47
479.62	11445.22
479.80	11719.06
479.98	11810.34
480.16	11983.54
480.34	11873.54
480.52	12109.93
480.70	12077.16
480.88	11985.88
481.06	12259.73
481.24	12198.87
481.41	12329.94
481.59	12671.66
481.77	12400.16
481.95	12688.04
482.13	12968.91
482.31	12795.71
482.49	13109.34
482.67	13046.15
482.85	13385.52
483.03	13404.25
483.21	13441.70
483.39	13486.17
483.57	13434.68
483.74	13687.45
483.92	13752.99
484.10	13657.03
484.28	14090.02
484.46	14260.88
484.64	14443.45
484.82	14080.66
485.00	14539.41
485.18	14853.04
485.35	14911.55
485.53	14876.44
485.71	14743.03
485.89	14956.02
486.07	15178.37
486.25	15236.89
486.43	15309.44
486.61	15599.67
486.78	15176.03
486.96	15494.35
487.14	15529.45
487.32	16023.31
487.50	15747.12
487.68	16046.71
487.85	16088.84
488.03	16552.27
488.21	16720.79
488.39	16739.51
488.57	17074.21
488.75	17003.99
488.92	17294.22
489.10	17294.22
489.28	17401.88
489.46	17561.04
489.64	17392.52
489.81	17706.15
489.99	17984.68
490.17	18211.71
490.35	17970.63
490.53	18352.14
490.70	18338.10
490.88	18499.59
491.06	18567.47
491.24	18780.46
491.41	18586.19
491.59	18946.64
491.77	19171.33
491.95	19009.83
492.13	19295.38
492.30	19300.06
492.48	19199.41
492.66	19531.77
492.84	19374.95
493.01	20219.89
493.19	20051.37
493.37	20166.06
493.54	20247.97
493.72	20322.87
493.90	20304.15
494.08	20514.80
494.25	20503.09
494.43	20833.11
494.61	20968.86
494.79	21055.46
494.96	21104.61
495.14	21081.21
495.32	21280.15
495.49	21357.39
495.67	21256.75
495.85	21523.57
496.02	21762.30
496.20	21809.11
496.38	21947.20
496.55	22412.97
496.73	22047.85
496.91	22539.36
497.09	22431.69
497.26	22632.98
497.44	22558.08
497.62	22581.49
497.79	23218.11
497.97	22742.99
498.14	22904.48
498.32	23360.89
498.50	23489.62
498.67	23398.34
498.85	23510.68
499.03	23903.89
499.20	23814.95
499.38	24079.43
499.56	23555.15
499.73	24170.71
499.91	24292.42
500.08	24114.54
500.26	24229.23
500.44	24304.12
500.61	24404.77
500.79	24666.91
500.97	24673.93
501.14	25170.12
501.32	24982.88
501.49	24713.72
501.67	25036.71
501.84	25205.23
502.02	25179.48
502.20	25652.27
502.37	25013.31
502.55	25111.61
502.72	25781.00
502.90	25362.04
503.07	25605.46
503.25	25748.23
503.43	25528.22
503.60	26010.37
503.78	26181.23
503.95	25748.23
504.13	26066.55
504.30	26216.34
504.48	26136.76
504.65	26239.75
504.83	26635.30
505.01	26562.74
505.18	26757.00
505.36	26668.06
505.53	26726.58
505.71	26920.84
505.88	26984.04
506.06	26904.46
506.23	27220.43
506.41	27096.38
506.58	27400.65
506.76	27590.24
506.93	27564.49
507.11	27358.52
507.28	27723.65
507.46	27819.61
507.63	27922.59
507.81	28271.33
507.98	28079.41
508.16	27969.40
508.33	28065.36
508.50	28217.50
508.68	28322.82
508.85	28439.85
509.03	28236.22
509.20	28449.21
509.38	28840.08
509.55	28933.70
509.73	29214.57
509.90	29099.88
510.08	28854.12
510.25	28877.53
510.42	29088.18
510.60	29481.39
510.77	29170.10
510.95	29694.38
511.12	29422.87
511.30	29413.51
511.47	29589.05
511.64	29467.34
511.82	30335.68
511.99	30160.14
512.17	29799.70
512.34	30071.20
512.51	30270.15
512.69	30789.75
512.86	30352.07
513.04	30852.94
513.21	30513.56
513.38	30773.36
513.56	31000.40
513.73	30431.65
513.90	30298.23
514.08	30726.55
514.25	31150.19
514.43	31103.38
514.60	30785.07
514.77	30969.97
514.95	31283.60
515.12	31316.37
515.29	31400.63
515.47	31232.11
515.64	31882.78
515.81	31189.98
515.99	31770.43
516.16	32175.34
516.33	31913.20
516.51	31992.78
516.68	32102.79
516.85	31920.23
517.03	32105.13
517.20	32128.53
517.37	32156.62
517.54	32198.75
517.72	32388.33
517.89	32692.60
518.06	32493.66
518.24	32699.62
518.41	32329.82
518.58	32423.44
518.75	32648.13
518.93	33109.22
519.10	32863.46
519.27	33216.88
519.45	32917.29
519.62	33247.31
519.79	33177.09
519.96	33153.69
520.14	33483.70
520.31	33174.75
520.48	33673.29
520.65	33364.34
520.83	34153.10
521.00	33862.87
521.17	33858.19
521.34	33586.69
521.52	34143.74
521.69	33933.09
521.86	34043.09
522.03	34270.12
522.20	34239.70
522.38	34476.09
522.55	34354.38
522.72	34574.39
522.89	34398.85
523.07	34630.57
523.24	34848.24
523.41	34937.18
523.58	34373.11
523.75	34672.70
523.92	34604.82
524.10	35346.77
524.27	35014.41
524.44	35302.30
524.61	34932.50
524.78	35531.67
524.96	35318.68
525.13	35496.56
525.30	35739.98
525.47	35709.55
525.64	35386.56
525.81	35697.85
525.98	35892.12
526.16	35641.68
526.33	35840.62
526.50	35840.62
526.67	35906.16
526.84	35842.96
527.01	36037.23
527.18	36423.42
527.36	36236.17
527.53	36425.76
527.70	37013.23
527.87	36320.43
528.04	36084.04
528.21	36556.83
528.38	36212.77
528.55	36608.32
528.72	36772.16
528.89	36652.79
529.07	36521.72
529.24	36645.77
529.41	36767.48
529.58	36715.98
529.75	36879.82
529.92	36945.36
530.09	36926.63
530.26	37102.17
530.43	37057.70
530.60	36849.39
530.77	36999.19
530.94	37439.21
531.11	37090.47
531.28	37216.86
531.46	37572.62
531.63	37600.71
531.80	37708.37
531.97	37729.44
532.14	37486.02
532.31	38117.96
532.48	38143.71
532.65	37762.20
532.82	37954.13
532.99	37867.53
533.16	38047.75
533.33	37907.32
533.50	38532.24
533.67	37972.85
533.84	37919.02
534.01	38206.90
534.18	38192.86
534.35	38562.67
534.52	38476.07
534.69	38642.24
534.86	38770.97
535.03	38380.10
535.20	38925.45
535.37	38689.06
535.54	38913.75
535.71	38518.20
535.88	39136.10
536.05	38960.56
536.22	38965.24
536.38	39215.68
536.55	38944.17
536.72	38948.85
536.89	39246.10
537.06	39026.09
537.23	39564.42
537.40	39138.44
537.57	39651.02
537.74	39206.31
537.91	39487.18
538.08	39746.98
538.25	39239.08
538.42	39604.20
538.59	39922.52
538.75	39704.85
538.92	39665.06
539.09	40313.39
539.26	39856.98
539.43	39971.67
539.60	39398.24
539.77	39920.18
539.94	40484.25
540.11	39945.92
540.28	40069.97
540.44	40018.48
540.61	39964.65
540.78	39950.60
540.95	40147.21
541.12	40156.57
541.29	40304.02
541.46	40645.74
541.62	40399.99
541.79	40533.40
541.96	40453.82
542.13	40458.50
542.30	40741.71
542.47	40376.58
542.63	40879.80
542.80	40818.94
542.97	41579.62
543.14	40903.20
543.31	41177.04
543.48	41270.67
543.64	41895.59
543.81	41024.91
543.98	41006.19
544.15	41691.96
544.32	41165.34
544.48	41961.12
544.65	41851.12
544.82	41991.55
544.99	41422.80
545.16	41155.98
545.32	41434.50
545.49	41970.49
545.66	42106.24
545.83	41827.71
546.00	42307.52
546.16	41518.76
546.33	41434.50
546.50	41937.72
546.67	42148.37
546.83	41696.64
547.00	41879.21
547.17	41853.46
547.34	41972.83
547.50	41816.01
547.67	42323.91
547.84	42586.05
548.00	42370.72
548.17	42836.48
548.34	42747.54
548.51	42684.35
548.67	42974.58
548.84	42754.57
549.01	42506.47
549.18	42614.13
549.34	42749.88
549.51	42953.51
549.68	42471.36
549.84	42656.26
550.01	42974.58
550.18	42700.73
550.34	42534.56
550.51	42934.79
550.68	42784.99
550.84	42932.45
551.01	42972.24
551.18	43096.28
551.34	42822.44
551.51	42738.18
551.68	43044.79
551.84	42836.48
552.01	43026.07
552.18	43159.48
552.34	43166.50
552.51	43281.19
552.68	42780.31
552.84	43452.05
553.01	43449.70
553.18	43335.02
553.34	43400.55
553.51	43459.07
553.67	43508.22
553.84	43978.67
554.01	43807.81
554.17	43367.79
554.34	43842.92
554.51	43625.25
554.67	44657.42
554.84	43978.67
555.00	43796.10
555.17	43597.16
555.33	43840.57
555.50	43838.23
555.67	43938.88
555.83	43913.13
556.00	43688.44
556.16	44666.78
556.33	44357.83
556.50	43716.53
556.66	43981.01
556.83	43999.73
556.99	44336.77
557.16	44598.91
557.32	44540.39
557.49	44273.57
557.65	44512.31
557.82	44259.53
557.98	44739.34
558.15	44648.06
558.32	44711.25
558.48	44210.38
558.65	44406.98
558.81	44259.53
558.98	44767.43
559.14	44561.46
559.31	44589.55
559.47	44418.69
559.64	44589.55
559.80	44634.02
559.97	44645.72
560.13	44381.24
560.30	44790.83
560.46	45170.00
560.63	45022.54
560.79	45059.99
560.96	44966.37
561.12	45401.71
561.29	44921.90
561.45	45144.25
561.61	45045.95
561.78	44706.57
561.94	45151.27
562.11	45120.85
562.27	44954.67
562.44	44722.96
562.60	45382.99
562.77	45661.51
562.93	44610.61
563.10	45375.97
563.26	44957.01
563.42	45490.65
563.59	45361.92
563.75	45743.43
563.92	44912.54
564.08	45769.18
564.24	45565.55
564.41	44919.56
564.57	45500.01
564.74	45390.01
564.90	45303.41
565.07	44966.37
565.23	45270.64
565.39	45404.05
565.56	45570.23
565.72	45291.71
565.88	45851.09
566.05	45539.80
566.21	45553.85
566.38	45343.20
566.54	45595.98
566.70	45741.09
566.87	45385.33
567.03	45595.98
567.19	45605.34
567.36	45677.90
567.52	45769.18
567.68	45595.98
567.85	45645.13
568.01	45937.69
568.17	45853.44
568.34	45778.54
568.50	45757.47
568.66	45481.29
568.83	46064.08
568.99	45556.19
569.15	46019.61
569.32	46071.10
569.48	45918.97
569.64	46277.07
569.81	45862.80
569.97	45902.59
570.13	46389.42
570.30	45586.61
570.46	45785.56
570.62	46080.47
570.78	45989.19
570.95	45937.69
571.11	46337.93
571.27	45565.55
571.43	46138.98
571.60	46375.37
571.76	45839.39
571.92	46106.21
572.09	45436.82
572.25	45762.15
572.41	45511.72
572.57	45811.31
572.74	46506.44
572.90	46005.57
573.06	45853.44
573.22	46567.30
573.38	46410.48
573.55	46279.41
573.71	46602.41
573.87	46234.94
574.03	46122.60
574.20	46370.69
574.36	46246.65
574.52	46078.13
574.68	46864.55
574.84	46663.26
575.01	46529.85
575.17	46515.81
575.33	46419.84
575.49	46342.61
575.65	46450.27
575.82	46373.03
575.98	46394.10
576.14	46389.42
576.30	46064.08
576.46	46461.97
576.62	46326.22
576.79	46143.66
576.95	46176.43
577.11	45837.05
577.27	45975.14
577.43	46326.22
577.59	46494.74
577.75	46366.01
577.92	45921.31
578.08	46543.89
578.24	46286.43
578.40	46302.82
578.56	46899.65
578.72	45984.51
578.88	46204.52
579.04	46511.13
579.21	46579.00
579.37	46637.51
579.53	46607.09
579.69	46113.23
579.85	46536.87
580.01	46738.16
580.17	45965.78
580.33	46979.23
580.49	46899.65
580.65	46412.82
580.82	46579.00
580.98	46227.92
581.14	45904.93
581.30	46480.70
581.46	46218.56
581.62	46508.79
581.78	46892.63
581.94	46436.23
582.10	46436.23
582.26	46873.91
582.42	47058.81
582.58	46590.70
582.74	46745.18
582.90	46745.18
583.06	46520.49
583.22	46738.16
583.38	46473.68
583.54	46508.79
583.70	46822.42
583.86	46454.95
584.02	46588.36
584.18	47068.17
584.34	47131.37
584.50	47232.01
584.66	46557.94
584.82	46986.25
584.98	46714.75
585.14	46815.40
585.30	45954.08
585.46	46855.18
585.62	46330.90
585.78	46686.67
585.94	46478.36
586.10	46794.33
586.26	46457.29
586.42	46986.25
586.58	46618.79
586.74	46813.05
586.90	46574.32
587.06	46625.81
587.22	46930.08
587.38	46719.43
587.54	47168.82
587.70	46742.84
587.86	46827.10
588.02	46850.50
588.18	46813.05
588.34	47002.64
588.49	46969.87
588.65	47271.80
588.81	46555.60
588.97	46323.88
589.13	46412.82
589.29	46550.91
589.45	47084.56
589.61	46958.17
589.77	47487.13
589.93	47054.13
590.08	47501.17
