SpectraSuite Data File
++++++++++++++++++++++++++++++++++++
Date: Fri Oct 25 11:26:08 EDT 2013
User: price-jones
Dark Spectrum Present: No
Reference Spectrum Present: No
Number of Sampled Component Spectra: 1
Spectrometers: USB2+H05261
Integration Time (usec): 100000 (USB2+H05261)
Spectra Averaged: 1 (USB2+H05261)
Boxcar Smoothing: 0 (USB2+H05261)
Correct for Electrical Dark: No (USB2+H05261)
Strobe/Lamp Enabled: No (USB2+H05261)
Correct for Detector Non-linearity: No (USB2+H05261)
Correct for Stray Light: No (USB2+H05261)
Number of Pixels in Processed Spectrum: 2048
>>>>>Begin Processed Spectral Data<<<<<
365.73	229.37
365.92	229.37
366.12	229.37
366.32	173.20
366.52	110.01
366.72	201.29
366.91	126.39
367.11	149.79
367.31	147.45
367.51	196.60
367.70	93.62
367.90	149.79
368.10	79.58
368.30	102.98
368.49	142.77
368.69	166.18
368.89	173.20
369.09	133.41
369.28	173.20
369.48	166.18
369.68	194.26
369.87	217.67
370.07	196.60
370.27	236.39
370.47	360.44
370.66	631.94
370.86	645.99
371.06	734.93
371.25	660.03
371.45	629.60
371.65	685.78
371.84	690.46
372.04	777.06
372.24	702.16
372.44	746.63
372.63	744.29
372.83	688.12
373.03	807.48
373.22	718.54
373.42	870.68
373.62	760.67
373.81	816.85
374.01	854.30
374.21	823.87
374.40	765.36
374.60	828.55
374.79	751.31
374.99	847.27
375.19	823.87
375.38	854.30
375.58	875.36
375.78	929.19
375.97	823.87
376.17	950.26
376.37	800.46
376.56	842.59
376.76	833.23
376.95	887.06
377.15	931.53
377.35	940.90
377.54	929.19
377.74	957.28
377.93	910.47
378.13	866.00
378.33	894.08
378.52	978.34
378.72	929.19
378.91	959.62
379.11	1022.81
379.31	999.41
379.50	931.53
379.70	1011.11
379.89	1008.77
380.09	1008.77
380.28	978.34
380.48	931.53
380.68	992.39
380.87	992.39
381.07	952.60
381.26	1086.01
381.46	987.71
381.65	1013.45
381.85	999.41
382.04	1055.58
382.24	1013.45
382.43	1090.69
382.63	1048.56
382.83	1107.07
383.02	1034.52
383.22	1179.63
383.41	1064.94
383.61	1074.31
383.80	1111.75
384.00	1149.20
384.19	1163.25
384.39	1165.59
384.58	1191.33
384.78	1116.44
384.97	1055.58
385.17	1167.93
385.36	1207.72
385.56	1193.67
385.75	1137.50
385.95	1188.99
386.14	1277.93
386.34	1214.74
386.53	1235.80
386.72	1186.65
386.92	1163.25
387.11	1277.93
387.31	1224.10
387.50	1203.04
387.70	1226.44
387.89	1310.70
388.09	1240.48
388.28	1348.15
388.48	1341.13
388.67	1362.19
388.86	1277.93
389.06	1296.66
389.25	1376.24
389.45	1296.66
389.64	1313.04
389.84	1387.94
390.03	1401.98
390.22	1413.68
390.42	1348.15
390.61	1296.66
390.81	1390.28
391.00	1416.02
391.19	1413.68
391.39	1469.86
391.58	1476.88
391.78	1460.49
391.97	1472.20
392.16	1476.88
392.36	1584.54
392.55	1439.43
392.75	1586.88
392.94	1497.94
393.13	1467.52
393.33	1645.40
393.52	1497.94
393.71	1659.44
393.91	1624.33
394.10	1617.31
394.29	1629.01
394.49	1643.06
394.68	1570.50
394.88	1605.61
395.07	1584.54
395.26	1610.29
395.46	1584.54
395.65	1629.01
395.84	1746.04
396.04	1699.23
396.23	1844.34
396.42	1734.34
396.62	1809.23
396.81	1820.94
397.00	1781.15
397.19	1781.15
397.39	1750.72
397.58	1860.73
397.77	1963.71
397.97	1863.07
398.16	1858.39
398.35	1739.02
398.55	1900.52
398.74	1884.13
398.93	1891.15
399.12	2066.69
399.32	1844.34
399.51	1968.39
399.70	2036.27
399.90	1940.30
400.09	1982.43
400.28	1919.24
400.47	2045.63
400.67	2038.61
400.86	1987.11
401.05	2008.18
401.24	2026.90
401.44	2139.25
401.63	2099.46
401.82	2113.50
402.01	2125.21
402.21	2179.04
402.40	2244.57
402.59	2076.06
402.78	2181.38
402.97	2331.17
403.17	2186.06
403.36	2305.43
403.55	2272.66
403.74	2356.92
403.93	2314.79
404.13	2272.66
404.32	2342.88
404.51	2448.20
404.70	2455.22
404.89	2392.03
405.09	2455.22
405.28	2525.44
405.47	2420.11
405.66	2408.41
405.85	2597.99
406.05	2541.82
406.24	2518.42
406.43	2607.36
406.62	2569.91
406.81	2614.38
407.00	2677.57
407.20	2729.06
407.39	2630.76
407.58	2633.10
407.77	2668.21
407.96	2750.13
408.15	2775.88
408.34	2712.68
408.54	2799.28
408.73	2771.19
408.92	2761.83
409.11	2902.26
409.30	2827.37
409.49	2942.05
409.68	2775.88
409.87	2841.41
410.07	2906.95
410.26	2911.63
410.45	3054.40
410.64	2956.10
410.83	3068.44
411.02	2984.18
411.21	3190.15
411.40	3068.44
411.59	3164.40
411.78	3199.51
411.98	3133.98
412.17	3265.05
412.36	3304.84
412.55	3307.18
412.74	3461.65
412.93	3424.20
413.12	3403.14
413.31	3531.87
413.50	3506.12
413.69	3403.14
413.88	3487.40
414.07	3517.83
414.26	3726.13
414.45	3644.21
414.64	3754.22
414.83	3602.08
415.02	3604.42
415.22	3726.13
415.41	3742.52
415.60	3889.97
415.79	3880.61
415.98	3955.51
416.17	3920.40
416.36	3873.59
416.55	3983.59
416.74	4067.85
416.93	4046.79
417.12	3971.89
417.31	4205.94
417.50	4056.15
417.69	4365.10
417.88	4168.49
418.07	4163.81
418.26	4376.80
418.45	4337.01
418.64	4578.09
418.83	4374.46
419.02	4369.78
419.21	4468.08
419.39	4557.02
419.58	4430.63
419.77	4376.80
419.96	4650.64
420.15	4559.36
420.34	4542.98
420.53	4472.76
420.72	4751.29
420.91	4655.33
421.10	4760.65
421.29	4821.50
421.48	4793.42
421.67	4734.90
421.86	4765.33
422.05	4699.80
422.24	4770.01
422.43	4905.76
422.61	4964.28
422.80	4933.85
422.99	4980.66
423.18	4973.64
423.37	4945.55
423.56	4915.12
423.75	4891.72
423.94	4781.71
424.13	4526.60
424.32	4678.73
424.50	5132.79
424.69	5025.13
424.88	5043.85
425.07	4947.89
425.26	4938.53
425.45	5006.41
425.64	4898.74
425.83	4994.70
426.01	4931.51
426.20	5057.90
426.39	5177.26
426.58	4994.70
426.77	5093.01
426.96	5111.73
427.15	5025.13
427.33	5034.49
427.52	5310.68
427.71	5226.42
427.90	5139.82
428.09	5303.65
428.28	5195.99
428.46	5418.34
428.65	5327.06
428.84	5460.47
429.03	5465.15
429.22	5418.34
429.40	5502.60
429.59	5425.36
429.78	5305.99
429.97	5240.46
430.16	5383.23
430.34	5549.41
430.53	5643.03
430.72	5654.73
430.91	5750.70
431.10	5703.89
431.28	5664.10
431.47	5914.53
431.66	5636.01
431.85	5748.36
432.03	6104.12
432.22	5832.62
432.41	5837.30
432.60	5865.38
432.79	5923.90
432.97	6118.16
433.16	6005.81
433.35	6026.88
433.54	6019.86
433.72	6174.33
433.91	6134.54
434.10	6057.31
434.28	6043.26
434.47	6113.48
434.66	6181.35
434.85	6338.17
435.03	6303.06
435.22	6209.44
435.41	6551.16
435.59	6340.51
435.78	6345.19
435.97	6216.46
436.16	6197.74
436.34	6457.54
436.53	6361.58
436.72	6583.93
436.90	6354.55
437.09	6544.14
437.28	6413.07
437.46	6707.98
437.65	6525.41
437.84	6754.79
438.02	6722.02
438.21	6710.32
438.40	6745.42
438.58	7124.59
438.77	6956.07
438.96	6904.58
439.14	7070.76
439.33	7094.16
439.52	7192.47
439.70	7234.60
439.89	7379.71
440.08	7260.34
440.26	7386.73
440.45	7368.01
440.63	7737.81
440.82	7583.34
441.01	7307.15
441.19	7669.94
441.38	7723.77
441.57	7801.01
441.75	7974.21
441.94	7770.58
442.12	7728.45
442.31	7964.84
442.50	8051.44
442.68	8149.75
442.87	7957.82
443.05	8299.54
443.24	8196.56
443.43	8093.57
443.61	8107.62
443.80	8564.02
443.98	8013.99
444.17	7793.98
444.35	8084.21
444.54	8222.30
444.73	8222.30
444.91	8344.01
445.10	8161.45
445.28	8154.43
445.47	8222.30
445.65	8306.56
445.84	8484.44
446.02	8372.10
446.21	8231.66
446.39	8376.78
446.58	8587.43
446.77	8336.99
446.95	8229.32
447.14	8294.86
447.32	8407.20
447.51	8390.82
447.69	8332.31
447.88	8486.78
448.06	8444.65
448.25	8425.93
448.43	8573.38
448.62	8542.96
448.80	8535.93
448.99	8559.34
449.17	8835.52
449.36	8435.29
449.54	8868.29
449.73	9032.13
449.91	8933.82
450.10	9118.73
450.28	8912.76
450.46	9041.49
450.65	8898.72
450.83	9022.77
451.02	8990.00
451.20	9266.18
451.39	9015.74
451.57	8961.91
451.76	8994.68
451.94	9177.24
452.13	9289.59
452.31	9355.12
452.49	9104.68
452.68	9565.77
452.86	9188.94
453.05	9247.46
453.23	9446.40
453.42	9415.98
453.60	9266.18
453.78	9561.09
453.97	9561.09
454.15	9680.46
454.34	9315.33
454.52	9554.07
454.70	9577.47
454.89	9853.66
455.07	9762.37
455.26	9783.44
455.44	9928.55
455.62	10043.24
455.81	9706.20
455.99	9804.50
456.17	9991.75
456.36	10057.28
456.54	10373.25
456.73	10118.14
456.91	10349.85
457.09	10342.83
457.28	10438.79
457.46	10415.38
457.64	10380.28
457.83	10569.86
458.01	10324.10
458.19	10668.16
458.38	10581.56
458.56	10689.23
458.74	10691.57
458.93	10501.98
459.11	10782.85
459.29	10747.74
459.48	10754.76
459.66	10576.88
459.84	10752.42
460.03	11084.78
460.21	10974.77
460.39	10956.05
460.57	10911.58
460.76	11049.67
460.94	11040.31
461.12	11218.19
461.31	11019.24
461.49	10897.53
461.67	11119.89
461.85	11461.60
462.04	11321.17
462.22	11910.99
462.40	11618.42
462.59	11562.25
462.77	11571.61
462.95	11426.50
463.13	11314.15
463.32	11632.46
463.50	11644.17
463.68	11737.79
463.86	11875.88
464.05	11611.40
464.23	11651.19
464.41	11957.80
464.59	11662.89
464.78	12098.23
464.96	11901.62
465.14	11597.35
465.32	12058.44
465.50	12116.95
465.69	12105.25
465.87	12238.66
466.05	12313.56
466.23	12133.34
466.41	12294.83
466.60	12528.89
466.78	12142.70
466.96	12435.27
467.14	12217.60
467.32	12170.79
467.51	12486.76
467.69	12194.19
467.87	12376.75
468.05	12709.11
468.23	12432.93
468.41	12470.37
468.60	12648.26
468.78	12774.64
468.96	12533.57
469.14	12641.23
469.32	12748.90
469.50	12589.74
469.69	13078.91
469.87	12788.69
470.05	13287.22
470.23	13125.72
470.41	12999.34
470.59	13025.08
470.77	13219.35
470.95	13116.36
471.14	13439.36
471.32	13385.52
471.50	13486.17
471.68	13738.94
471.86	13657.03
472.04	13432.33
472.22	14061.94
472.40	13525.96
472.58	13715.54
472.77	13867.67
472.95	14134.50
473.13	14469.19
473.31	13818.52
473.49	14188.33
473.67	13947.25
473.85	14300.67
474.03	14626.01
474.21	14590.90
474.39	15005.17
474.57	14661.12
474.75	14801.55
474.93	14932.62
475.12	14951.34
475.30	15033.26
475.48	14862.40
475.66	15208.80
475.84	15337.53
476.02	15367.96
476.20	15353.91
476.38	15655.84
476.56	15796.28
476.74	15796.28
476.92	15597.33
477.10	15948.41
477.28	16191.83
477.46	16123.95
477.64	16018.63
477.82	16620.14
478.00	16652.91
478.18	16491.41
478.36	16884.62
478.54	17099.95
478.72	17018.04
478.90	17160.81
479.08	17462.74
479.26	17715.51
479.44	17734.24
479.62	17991.70
479.80	18108.72
479.98	17972.97
480.16	18368.52
480.34	18019.78
480.52	18441.08
480.70	18595.56
480.88	18497.25
481.06	18717.26
481.24	18656.41
481.41	19075.37
481.59	19466.24
481.77	19583.26
481.95	19461.55
482.13	19929.66
482.31	19639.44
482.49	20266.70
482.67	20233.93
482.85	20166.06
483.03	20638.84
483.21	20601.40
483.39	20774.60
483.57	20685.65
483.74	21399.52
483.92	21310.58
484.10	21287.17
484.28	21235.68
484.46	21556.33
484.64	22134.45
484.82	21809.11
485.00	22120.40
485.18	22459.78
485.35	23005.13
485.53	22778.09
485.71	23112.79
485.89	23681.54
486.07	22895.12
486.25	23194.71
486.43	23428.76
486.61	24056.03
486.78	24159.01
486.96	24184.76
487.14	24615.41
487.32	24570.94
487.50	24734.78
487.68	25015.65
487.85	24863.51
488.03	25839.51
488.21	25563.33
488.39	25757.60
488.57	25893.35
488.75	26024.42
488.92	26258.47
489.10	26443.37
489.28	26630.62
489.46	26885.73
489.64	26834.24
489.81	27494.27
489.99	27445.12
490.17	27999.83
490.35	27700.24
490.53	28100.47
490.70	28364.95
490.88	28070.04
491.06	28734.76
491.24	28821.36
491.41	29032.00
491.59	28992.22
491.77	29064.77
491.95	29411.17
492.13	29687.36
492.30	29970.56
492.48	29525.86
492.66	30223.34
492.84	30190.57
493.01	30527.61
493.19	30232.70
493.37	30827.20
493.54	30780.39
493.72	31187.64
493.90	31145.51
494.08	31807.88
494.25	32158.96
494.43	32023.21
494.61	32196.41
494.79	32285.35
494.96	32608.34
495.14	32102.79
495.32	33067.09
495.49	33062.41
495.67	33074.11
495.85	33132.62
496.02	33319.87
496.20	33890.96
496.38	34061.82
496.55	33961.17
496.73	34464.39
496.91	34426.94
497.09	34534.60
497.26	34932.50
497.44	34742.91
497.62	35215.70
497.79	35269.53
497.97	35316.34
498.14	35768.07
498.32	35676.79
498.50	36062.97
498.67	36355.54
498.85	35929.56
499.03	36423.42
499.20	36343.84
499.38	36893.86
499.56	36928.97
499.73	36804.92
499.91	37034.30
500.08	36921.95
500.26	37067.06
500.44	37663.90
500.61	37642.84
500.79	37801.99
500.97	37771.57
501.14	38223.29
501.32	38293.50
501.49	38272.44
501.67	38630.54
501.84	39187.59
502.02	38368.40
502.20	38768.63
502.37	39145.46
502.55	39061.20
502.72	39138.44
502.90	39438.03
503.07	38967.58
503.25	39597.18
503.43	39435.69
503.60	39959.97
503.78	40004.44
503.95	40268.92
504.13	40254.87
504.30	40229.13
504.48	40149.55
504.65	40650.42
504.83	40816.60
505.01	40886.82
505.18	41055.34
505.36	41486.00
505.53	40730.00
505.71	41280.03
505.88	41429.82
506.06	41099.81
506.23	41773.88
506.41	41729.41
506.58	42045.38
506.76	42204.54
506.93	42660.94
507.11	41975.17
507.28	42082.83
507.46	42560.30
507.63	43061.18
507.81	42749.88
507.98	43182.88
508.16	42829.46
508.33	43253.10
508.50	42986.28
508.68	43749.29
508.85	43763.34
509.03	43414.60
509.20	43812.49
509.38	44201.02
509.55	44088.67
509.73	44563.80
509.90	44231.44
510.08	44399.96
510.25	44697.21
510.42	44767.43
510.60	45191.06
510.77	44690.19
510.95	45408.73
511.12	45322.13
511.30	44931.26
511.47	45088.08
511.64	45233.19
511.82	45717.68
511.99	45574.91
512.17	46129.62
512.34	45848.75
512.51	46150.68
512.69	46167.07
512.86	46267.71
513.04	46529.85
513.21	46518.15
513.38	46820.08
513.56	46820.08
513.73	46733.48
513.90	46923.06
514.08	46948.81
514.25	47306.91
514.43	47217.97
514.60	47192.22
514.77	47295.21
514.95	47683.73
515.12	47365.42
515.29	47648.63
515.47	47817.14
515.64	48144.82
515.81	47660.33
515.99	48135.46
516.16	48198.65
516.33	48224.40
516.51	48507.60
516.68	48306.32
516.85	48332.06
517.03	48666.76
517.20	48278.23
517.37	48502.92
517.54	48500.58
517.72	48535.69
517.89	48584.84
518.06	48671.44
518.24	48980.39
518.41	49071.67
518.58	49059.97
518.75	49132.53
518.93	49420.41
519.10	49085.72
519.27	49389.98
519.45	49394.67
519.62	49918.95
519.79	50068.74
519.96	49897.88
520.14	50167.04
520.31	49755.11
520.48	50323.86
520.65	49888.52
520.83	50646.85
521.00	50040.65
521.17	50295.77
521.34	50740.47
521.52	50529.83
521.69	50445.57
521.86	50822.39
522.03	51257.73
522.20	50848.14
522.38	51360.72
522.55	51201.56
522.72	51121.98
522.89	51370.08
523.07	51697.75
523.24	51182.84
523.41	51100.92
523.58	51224.96
523.75	51826.48
523.92	51449.66
524.10	51660.30
524.27	52030.11
524.44	51908.40
524.61	52053.51
524.78	51973.94
524.96	51901.38
525.13	52079.26
525.30	52348.42
525.47	52222.03
525.64	52547.37
525.81	52179.90
525.98	52353.10
526.16	52432.68
526.33	52685.46
526.50	52772.06
526.67	52610.56
526.84	52666.73
527.01	52648.01
527.18	52659.71
527.36	52912.49
527.53	53055.26
527.70	53368.90
527.87	53471.88
528.04	53200.38
528.21	53448.47
528.38	52959.30
528.55	53352.51
528.72	53303.36
528.89	53432.09
529.07	53183.99
529.24	53261.23
529.41	53647.42
529.58	53808.92
529.75	53563.16
529.92	53628.69
530.09	53581.88
530.26	53862.75
530.43	53811.26
530.60	53680.19
530.77	53832.32
530.94	54038.29
531.11	53837.00
531.28	53883.81
531.46	53939.99
531.63	53939.99
531.80	54323.83
531.97	54239.57
532.14	54319.15
532.31	53956.37
532.48	54546.18
532.65	54665.55
532.82	54351.92
532.99	54752.15
533.16	54492.35
533.33	54623.42
533.50	54663.21
533.67	54688.96
533.84	54784.92
534.01	54738.11
534.18	54543.84
534.35	54878.54
534.52	55138.34
534.69	55166.43
534.86	55161.75
535.03	54976.84
535.20	55054.08
535.37	55025.99
535.54	55185.15
535.71	55194.51
535.88	55487.08
536.05	55433.25
536.22	55442.61
536.38	55393.46
536.55	55337.29
536.72	55487.08
536.89	55604.11
537.06	55597.09
537.23	55704.75
537.40	55246.00
537.57	55524.53
537.74	55494.10
537.91	55763.26
538.08	55777.31
538.25	55526.87
538.42	55798.37
538.59	55964.55
538.75	55866.25
538.92	55735.18
539.09	55994.98
539.26	55950.51
539.43	56023.06
539.60	56009.02
539.77	56093.28
539.94	56336.69
540.11	56289.88
540.28	56360.10
540.44	56369.46
540.61	56065.19
540.78	56484.15
540.95	56294.56
541.12	56315.63
541.29	56420.95
541.46	56671.39
541.62	56523.94
541.79	56765.01
541.96	56488.83
542.13	56470.11
542.30	56655.01
542.47	56673.73
542.63	56935.87
542.80	56802.46
542.97	56816.50
543.14	56989.70
543.31	57368.87
543.48	57027.15
543.64	57366.53
543.81	57401.64
543.98	57368.87
544.15	57038.86
544.32	57324.40
544.48	57331.42
544.65	57359.51
544.82	57221.42
544.99	57216.74
545.16	57453.13
545.32	57352.49
545.49	57357.17
545.66	57640.37
545.83	57420.36
546.00	57602.92
546.16	57418.02
546.33	57399.30
546.50	57340.78
546.67	57476.54
546.83	57394.62
547.00	57902.51
547.17	57574.84
547.34	57921.24
547.50	57954.00
547.67	58218.49
547.84	57979.75
548.00	57825.28
548.17	58234.87
548.34	57851.02
548.51	58101.46
548.67	58333.17
548.84	57984.43
549.01	57815.91
549.18	57876.77
549.34	58155.29
549.51	58204.44
549.68	58134.23
549.84	58305.09
550.01	58279.34
550.18	58136.57
550.34	58293.38
550.51	58494.67
550.68	58422.11
550.84	58101.46
551.01	58457.22
551.18	58237.21
551.34	58342.53
551.51	58450.20
551.68	58464.24
551.84	58621.06
552.01	58454.88
552.18	58482.97
552.34	58459.56
552.51	58564.88
552.68	58307.43
552.84	58658.51
553.01	58707.66
553.18	58635.10
553.34	58759.15
553.51	58733.40
553.67	58658.51
553.84	58986.18
554.01	58953.41
554.17	58766.17
554.34	58899.58
554.51	58883.20
554.67	58944.05
554.84	58850.43
555.00	58653.82
555.17	58735.74
555.33	58805.96
555.50	58756.81
555.67	58820.00
555.83	58782.55
556.00	58911.28
556.16	59353.65
556.33	59274.07
556.50	59171.08
556.66	59302.15
556.83	58695.95
556.99	59311.52
557.16	59384.07
557.32	59339.60
557.49	59636.85
557.65	59278.75
557.82	59334.92
557.98	59290.45
558.15	59346.62
558.32	59257.68
558.48	59320.88
558.65	59234.28
558.81	59245.98
558.98	59458.97
559.14	59468.33
559.31	59491.74
559.47	59655.57
559.64	59517.48
559.80	59568.97
559.97	59578.34
560.13	59601.74
560.30	59592.38
560.46	59700.04
560.63	59564.29
560.79	59590.04
560.96	59704.73
561.12	59632.17
561.29	59793.67
561.45	59824.09
561.61	59702.38
561.78	59777.28
561.94	59880.27
562.11	59840.48
562.27	59758.56
562.44	59842.82
562.60	59889.63
562.77	59917.71
562.93	59501.10
563.10	60046.44
563.26	59868.56
563.42	60025.38
563.59	59997.29
563.75	59964.52
563.92	59971.55
564.08	59810.05
564.24	59969.21
564.41	60067.51
564.57	59845.16
564.74	59955.16
564.90	60292.20
565.07	60041.76
565.23	60009.00
565.39	60030.06
565.56	60039.42
565.72	60004.31
565.88	60144.75
566.05	60062.83
566.21	59980.91
566.38	60123.68
566.54	60221.98
566.70	60030.06
566.87	60177.51
567.03	60093.25
567.19	60411.57
567.36	60170.49
567.52	60205.60
567.68	60479.44
567.85	60268.79
568.01	60229.01
568.17	60254.75
568.34	60444.33
568.50	60111.98
568.66	60123.68
568.83	60327.31
568.99	60360.08
569.15	60406.89
569.32	60308.58
569.48	60413.91
569.64	60509.87
569.81	60456.04
569.97	60170.49
570.13	60257.09
570.30	60341.35
570.46	60509.87
570.62	60367.10
570.78	60306.24
570.95	60390.50
571.11	60514.55
571.27	60126.02
571.43	60353.05
571.60	60697.11
571.76	60453.70
571.92	60434.97
572.09	60633.92
572.25	60645.62
572.41	60381.14
572.57	60472.42
572.74	60713.50
572.90	60491.15
573.06	60568.38
573.22	60502.85
573.38	60474.76
573.55	60498.17
573.71	60692.43
573.87	60547.32
574.03	60444.33
574.20	60659.66
574.36	60465.40
574.52	60786.05
574.68	60561.36
574.84	60746.26
575.01	60633.92
575.17	60713.50
575.33	60629.24
575.49	60388.16
575.65	60741.58
575.82	60692.43
575.98	60795.42
576.14	61022.45
576.30	60814.14
576.46	60554.34
576.62	60491.15
576.79	60764.99
576.95	60664.35
577.11	60498.17
577.27	60893.72
577.43	60725.20
577.59	60767.33
577.75	60573.06
577.92	60547.32
578.08	60486.46
578.24	60680.73
578.40	60830.52
578.56	60783.71
578.72	60540.30
578.88	60889.04
579.04	60952.23
579.21	60797.76
579.37	60985.00
579.53	60889.04
579.69	60638.60
579.85	60842.23
580.01	60867.97
580.17	60797.76
580.33	60783.71
580.49	60910.10
580.65	60839.89
580.82	60640.94
580.98	60891.38
581.14	60800.10
581.30	61038.83
581.46	60521.57
581.62	60736.90
581.78	60683.07
581.94	60832.86
582.10	60872.65
582.26	60900.74
582.42	60853.93
582.58	60814.14
582.74	60725.20
582.90	60912.44
583.06	60654.98
583.22	60544.98
583.38	60891.38
583.54	60629.24
583.70	60795.42
583.86	60807.12
584.02	60622.22
584.18	61031.81
584.34	60734.56
584.50	60718.18
584.66	60797.76
584.82	60860.95
584.98	61073.94
585.14	60825.84
585.30	60889.04
585.46	61057.56
585.62	61055.21
585.78	60999.04
585.94	60678.39
586.10	60823.50
586.26	60793.07
586.42	60935.85
586.58	61045.85
586.74	60985.00
586.90	60842.23
587.06	60818.82
587.22	61059.90
587.38	60835.20
587.54	60947.55
587.70	61155.86
587.86	60994.36
588.02	60924.14
588.18	61113.73
588.34	60956.91
588.49	61008.40
