SpectraSuite Data File
++++++++++++++++++++++++++++++++++++
Date: Fri Oct 25 10:47:22 EDT 2013
User: price-jones
Dark Spectrum Present: No
Reference Spectrum Present: No
Number of Sampled Component Spectra: 1
Spectrometers: USB2+H05261
Integration Time (usec): 100000 (USB2+H05261)
Spectra Averaged: 1 (USB2+H05261)
Boxcar Smoothing: 0 (USB2+H05261)
Correct for Electrical Dark: No (USB2+H05261)
Strobe/Lamp Enabled: No (USB2+H05261)
Correct for Detector Non-linearity: No (USB2+H05261)
Correct for Stray Light: No (USB2+H05261)
Number of Pixels in Processed Spectrum: 2048
>>>>>Begin Processed Spectral Data<<<<<
365.73	131.07
365.92	131.07
366.12	131.07
366.32	23.41
366.52	88.94
366.72	77.24
366.91	88.94
367.11	42.13
367.31	72.56
367.51	0.00
367.70	39.79
367.90	105.32
368.10	18.72
368.30	67.88
368.49	16.38
368.69	53.83
368.89	93.62
369.09	72.56
369.28	23.41
369.48	60.85
369.68	93.62
369.87	133.41
370.07	138.09
370.27	187.24
370.47	128.73
370.66	344.06
370.86	390.87
371.06	430.66
371.25	428.32
371.45	440.02
371.65	465.77
371.84	414.27
372.04	383.85
372.24	463.43
372.44	456.40
372.63	402.57
372.83	470.45
373.03	533.64
373.22	507.90
373.42	449.38
373.62	540.66
373.81	528.96
374.01	540.66
374.21	510.24
374.40	561.73
374.60	571.09
374.79	535.98
374.99	526.62
375.19	557.05
375.38	526.62
375.58	491.51
375.78	610.88
375.97	606.20
376.17	660.03
376.37	482.15
376.56	629.60
376.76	524.28
376.95	587.47
377.15	603.86
377.35	568.75
377.54	692.80
377.74	528.96
377.93	620.24
378.13	585.13
378.33	634.29
378.52	716.20
378.72	566.41
378.91	575.77
379.11	657.69
379.31	667.05
379.50	613.22
379.70	585.13
379.89	592.16
380.09	650.67
380.28	751.31
380.48	631.94
380.68	720.88
380.87	624.92
381.07	667.05
381.26	620.24
381.46	631.94
381.65	699.82
381.85	725.57
382.04	697.48
382.24	660.03
382.43	713.86
382.63	643.65
382.83	608.54
383.02	697.48
383.22	615.56
383.41	720.88
383.61	697.48
383.80	772.38
384.00	713.86
384.19	767.70
384.39	702.16
384.58	739.61
384.78	821.53
384.97	805.14
385.17	774.72
385.36	730.25
385.56	779.40
385.75	758.33
385.95	739.61
386.14	767.70
386.34	746.63
386.53	739.61
386.72	730.25
386.92	849.61
387.11	763.01
387.31	828.55
387.50	807.48
387.70	887.06
387.89	835.57
388.09	851.96
388.28	877.70
388.48	730.25
388.67	854.30
388.86	870.68
389.06	887.06
389.25	840.25
389.45	943.24
389.64	870.68
389.84	922.17
390.03	891.74
390.22	936.21
390.42	901.11
390.61	929.19
390.81	910.47
391.00	938.55
391.19	964.30
391.39	936.21
391.58	964.30
391.78	959.62
391.97	973.66
392.16	896.43
392.36	980.68
392.55	1074.31
392.75	959.62
392.94	954.94
393.13	959.62
393.33	912.81
393.52	922.17
393.71	1006.43
393.91	898.77
394.10	999.41
394.29	1067.28
394.49	1041.54
394.68	1064.94
394.88	1153.88
395.07	1123.46
395.26	1069.62
395.46	1074.31
395.65	1116.44
395.84	1160.91
396.04	1231.12
396.23	1146.86
396.42	1071.97
396.62	1100.05
396.81	1114.10
397.00	1128.14
397.19	1132.82
397.39	1193.67
397.58	1224.10
397.77	1277.93
397.97	1231.12
398.16	1238.14
398.35	1240.48
398.55	1242.82
398.74	1289.64
398.93	1275.59
399.12	1320.06
399.32	1238.14
399.51	1327.08
399.70	1310.70
399.90	1261.55
400.09	1306.02
400.28	1385.60
400.47	1343.47
400.67	1479.22
400.86	1378.58
401.05	1399.64
401.24	1413.68
401.44	1423.05
401.63	1458.15
401.82	1465.18
402.01	1441.77
402.21	1455.81
402.40	1544.75
402.59	1495.60
402.78	1479.22
402.97	1500.28
403.17	1570.50
403.36	1570.50
403.55	1535.39
403.74	1619.65
403.93	1614.97
404.13	1626.67
404.32	1612.63
404.51	1727.32
404.70	1703.91
404.89	1593.90
405.09	1722.63
405.28	1699.23
405.47	1816.26
405.66	1664.12
405.85	1802.21
406.05	1624.33
406.24	1736.68
406.43	1708.59
406.62	1764.76
406.81	1851.36
407.00	1776.47
407.20	1914.56
407.39	1851.36
407.58	1909.88
407.77	1827.96
407.96	1870.09
408.15	1874.77
408.34	1842.00
408.54	1963.71
408.73	1963.71
408.92	1966.05
409.11	1930.94
409.30	1940.30
409.49	2069.03
409.68	1998.82
409.87	1959.03
410.07	2069.03
410.26	2090.10
410.45	2125.21
410.64	2176.70
410.83	2162.66
411.02	2260.96
411.21	2143.93
411.40	2204.78
411.59	2277.34
411.78	2197.76
411.98	2183.72
412.17	2275.00
412.36	2438.84
412.55	2361.60
412.74	2373.30
412.93	2417.77
413.12	2455.22
413.31	2424.80
413.50	2574.59
413.69	2466.92
413.88	2574.59
414.07	2490.33
414.26	2429.48
414.45	2530.12
414.64	2555.86
414.83	2562.89
415.02	2665.87
415.22	2600.34
415.41	2726.72
415.60	2649.49
415.79	2794.60
415.98	2890.56
416.17	2836.73
416.36	2745.45
416.55	2752.47
416.74	2949.08
416.93	2862.48
417.12	2995.89
417.31	2956.10
417.50	2892.90
417.69	3138.66
417.88	2967.80
418.07	3040.36
418.26	3016.95
418.45	3145.68
418.64	3234.62
418.83	3204.19
419.02	3155.04
419.21	3136.32
419.39	3155.04
419.58	3269.73
419.77	3063.76
419.96	3183.13
420.15	3225.26
420.34	3141.00
420.53	3309.52
420.72	3316.54
420.91	3349.31
421.10	3328.24
421.29	3370.37
421.48	3307.18
421.67	3480.38
421.86	3346.97
422.05	3302.50
422.24	3375.05
422.43	3304.84
422.61	3384.41
422.80	3508.46
422.99	3506.12
423.18	3442.93
423.37	3431.23
423.56	3538.89
423.75	3379.73
423.94	3463.99
424.13	3325.90
424.32	3269.73
424.50	3499.10
424.69	3609.11
424.88	3595.06
425.07	3372.71
425.26	3396.12
425.45	3494.42
425.64	3445.27
425.83	3503.78
426.01	3574.00
426.20	3620.81
426.39	3590.38
426.58	3543.57
426.77	3494.42
426.96	3695.71
427.15	3611.45
427.33	3658.26
427.52	3531.87
427.71	3786.99
427.90	3641.87
428.09	3686.34
428.28	3758.90
428.46	3648.90
428.65	3637.19
428.84	3803.37
429.03	3747.20
429.22	3698.05
429.40	3761.24
429.59	3737.84
429.78	3557.61
429.97	3463.99
430.16	3749.54
430.34	3808.05
430.53	3772.94
430.72	3824.44
430.91	3929.76
431.10	3826.78
431.28	3974.23
431.47	3934.44
431.66	4095.94
431.85	3974.23
432.03	4180.20
432.22	4280.84
432.41	4074.87
432.60	4067.85
432.79	4044.45
432.97	4259.78
433.16	4257.43
433.35	4131.05
433.54	4142.75
433.72	4182.54
433.91	4126.36
434.10	4231.69
434.28	4252.75
434.47	4346.37
434.66	4313.61
434.85	4334.67
435.03	4236.37
435.22	4365.10
435.41	4676.39
435.59	4571.07
435.78	4568.73
435.97	4517.23
436.16	4414.25
436.34	4538.30
436.53	4564.04
436.72	4514.89
436.90	4435.32
437.09	4704.48
437.28	4489.15
437.46	4608.51
437.65	4643.62
437.84	4671.71
438.02	4535.96
438.21	4631.92
438.40	4568.73
438.58	4781.71
438.77	4737.24
438.96	4854.27
439.14	5008.75
439.33	4931.51
439.52	5081.30
439.70	5018.11
439.89	4997.04
440.08	5083.64
440.26	4924.49
440.45	5167.90
440.63	5210.03
440.82	5284.93
441.01	5261.52
441.19	5280.25
441.38	5195.99
441.57	5282.59
441.75	5186.63
441.94	5628.99
442.12	5544.73
442.31	5561.11
442.50	5554.09
442.68	5687.50
442.87	5650.05
443.05	5554.09
443.24	5746.02
443.43	5774.10
443.61	5640.69
443.80	5827.93
443.98	5713.25
444.17	5404.30
444.35	5757.72
444.54	5921.56
444.73	5668.78
444.91	5600.90
445.10	5600.90
445.28	5783.46
445.47	5755.38
445.65	5760.06
445.84	5748.36
446.02	5900.49
446.21	5832.62
446.39	5790.49
446.58	5898.15
446.77	5900.49
446.95	5797.51
447.14	5951.98
447.32	5951.98
447.51	5888.79
447.69	5919.21
447.88	6169.65
448.06	5940.28
448.25	5881.77
448.43	6113.48
448.62	6078.37
448.80	6019.86
448.99	6122.84
449.17	6209.44
449.36	6134.54
449.54	6073.69
449.73	6237.53
449.91	6272.64
450.10	6338.17
450.28	6366.26
450.46	6162.63
450.65	6160.29
450.83	6310.08
451.02	6328.81
451.20	6401.37
451.39	6310.08
451.57	6164.97
451.76	6265.61
451.94	6387.32
452.13	6368.60
452.31	6377.96
452.49	6347.53
452.68	6331.15
452.86	6307.74
453.05	6431.79
453.23	6553.50
453.42	6562.86
453.60	6504.35
453.78	6640.10
453.97	6443.49
454.15	6621.38
454.34	6441.15
454.52	6628.40
454.70	6651.80
454.89	6750.10
455.07	6712.66
455.26	6619.04
455.44	6808.62
455.62	6658.82
455.81	6640.10
455.99	7028.63
456.17	7000.54
456.36	6876.49
456.54	7075.44
456.73	7133.95
456.91	7166.72
457.09	7194.81
457.28	7225.23
457.46	7021.61
457.64	7164.38
457.83	7171.40
458.01	7215.87
458.19	7438.22
458.38	7124.59
458.56	7377.37
458.74	7255.66
458.93	7309.49
459.11	7250.98
459.29	7288.43
459.48	7506.10
459.66	7431.20
459.84	7461.63
460.03	7583.34
460.21	7449.93
460.39	7499.08
460.57	7379.71
460.76	7473.33
460.94	7868.88
461.12	7515.46
461.31	7723.77
461.49	7585.68
461.67	7728.45
461.85	7943.78
462.04	7527.16
462.22	8219.96
462.40	8009.31
462.59	7889.95
462.77	7756.54
462.95	8053.78
463.13	7784.62
463.32	7808.03
463.50	8035.06
463.68	8006.97
463.86	8109.96
464.05	7983.57
464.23	7932.08
464.41	7906.33
464.59	7908.67
464.78	8035.06
464.96	8170.81
465.14	7943.78
465.32	8238.69
465.50	8177.83
465.69	8074.85
465.87	8184.85
466.05	8308.90
466.23	8201.24
466.41	8147.40
466.60	8397.84
466.78	8243.37
466.96	8262.09
467.14	8196.56
467.32	8322.94
467.51	8374.44
467.69	8163.79
467.87	8475.08
468.05	8552.32
468.23	8383.80
468.41	8299.54
468.60	8365.07
468.78	8535.93
468.96	8699.77
469.14	8528.91
469.32	8699.77
469.50	8402.52
469.69	8655.30
469.87	8788.71
470.05	8676.37
470.23	8758.28
470.41	8919.78
470.59	8861.27
470.77	8924.46
470.95	8833.18
471.14	9064.89
471.32	8657.64
471.50	9371.50
471.68	9226.39
471.86	9076.60
472.04	9252.14
472.22	9312.99
472.40	9221.71
472.58	9123.41
472.77	9266.18
472.95	9530.66
473.13	9825.57
473.31	9465.13
473.49	9533.00
473.67	9425.34
473.85	9544.70
474.03	9951.96
474.21	9750.67
474.39	9984.73
474.57	9848.97
474.75	10038.56
474.93	9947.28
475.12	9991.75
475.30	10015.15
475.48	10143.88
475.66	10134.52
475.84	10143.88
476.02	10148.56
476.20	10193.03
476.38	10321.76
476.56	10721.99
476.74	10368.57
476.92	10497.30
477.10	10476.24
477.28	10707.95
477.46	10913.92
477.64	10874.13
477.82	11002.86
478.00	11052.01
478.18	11199.46
478.36	11257.98
478.54	11309.47
478.72	11482.67
478.90	11513.10
479.08	11719.06
479.26	11681.61
479.44	11606.72
479.62	11777.58
479.80	11955.46
479.98	11899.28
480.16	12236.32
480.34	12264.41
480.52	12367.39
480.70	12489.10
480.88	12088.87
481.06	12376.75
481.24	12365.05
481.41	12657.62
481.59	12872.95
481.77	12947.84
481.95	12748.90
482.13	13078.91
482.31	13027.42
482.49	13151.47
482.67	13404.25
482.85	13554.04
483.03	13547.02
483.21	13914.48
483.39	13907.46
483.57	14195.35
483.74	14078.32
483.92	14125.13
484.10	13944.91
484.28	14317.06
484.46	14422.38
484.64	14518.34
484.82	14319.40
485.00	14413.02
485.18	14728.99
485.35	14728.99
485.53	14714.95
485.71	14801.55
485.89	15103.48
486.07	15066.03
486.25	15138.58
486.43	15241.57
486.61	15529.45
486.78	15723.72
486.96	15719.04
487.14	16039.69
487.32	15793.94
487.50	16121.61
487.68	16100.55
487.85	16734.83
488.03	16730.15
488.21	16950.16
488.39	16704.40
488.57	16915.05
488.75	17137.40
488.92	17067.19
489.10	17432.31
489.28	17383.16
489.46	17736.58
489.64	17881.69
489.81	18209.37
489.99	18295.97
490.17	18302.99
490.35	18497.25
490.53	18150.85
490.70	18286.61
490.88	18518.32
491.06	18665.77
491.24	18684.50
491.41	18651.73
491.59	18829.61
491.77	19002.81
491.95	19293.04
492.13	19672.20
492.30	19428.79
492.48	19665.18
492.66	19510.71
492.84	19782.21
493.01	19992.86
493.19	19667.52
493.37	20236.27
493.54	20077.12
493.72	20411.81
493.90	20561.61
494.08	20547.56
494.25	20634.16
494.43	20933.75
494.61	20945.45
494.79	21385.47
494.96	21263.77
495.14	20893.96
495.32	21366.75
495.49	21853.58
495.67	21502.50
495.85	21720.17
496.02	21872.31
496.20	21855.92
496.38	22045.51
496.55	22490.21
496.73	22483.19
496.91	22295.94
497.09	22527.66
497.26	22890.44
497.44	22911.50
497.62	22632.98
497.79	22972.36
497.97	22888.10
498.14	23271.95
498.32	23157.26
498.50	23311.74
498.67	23733.03
498.85	23580.90
499.03	24233.91
499.20	23524.72
499.38	23777.50
499.56	23931.98
499.73	23810.27
499.91	24009.22
500.08	24266.67
500.26	24053.69
500.44	24664.57
500.61	24498.39
500.79	24545.20
500.97	24404.77
501.14	24687.97
501.32	24971.18
501.49	24746.48
501.67	24922.02
501.84	25165.44
502.02	25465.03
502.20	25256.72
502.37	25600.78
502.55	25170.12
502.72	25553.97
502.90	25373.75
503.07	25408.86
503.25	25462.69
503.43	25544.61
503.60	25958.88
503.78	25745.89
503.95	25663.97
504.13	26036.12
504.30	26368.48
504.48	25671.00
504.65	26314.64
504.83	26775.73
505.01	26780.41
505.18	26274.85
505.36	26885.73
505.53	26593.17
505.71	26984.04
505.88	27550.45
506.06	26707.85
506.23	27091.70
506.41	26768.71
506.58	27197.02
506.76	27072.98
506.93	27473.21
507.11	27311.71
507.28	27637.05
507.46	27030.85
507.63	27466.19
507.81	27517.68
507.98	27740.03
508.16	27826.63
508.33	27835.99
508.50	28013.87
508.68	27950.68
508.85	28388.36
509.03	28395.38
509.20	28535.81
509.38	28341.55
509.55	28781.57
509.73	28730.08
509.90	28947.75
510.08	28746.46
510.25	28187.07
510.42	28662.20
510.60	29317.55
510.77	28978.17
510.95	29528.20
511.12	29062.43
511.30	29483.73
511.47	29769.27
511.64	29329.25
511.82	29940.13
511.99	29575.01
512.17	29855.87
512.34	29589.05
512.51	30026.73
512.69	29998.65
512.86	30150.78
513.04	30125.04
513.21	29986.94
513.38	30321.64
513.56	30178.87
513.73	29984.60
513.90	30164.82
514.08	30546.33
514.25	30511.22
514.43	30326.32
514.60	30558.03
514.77	30361.43
514.95	30827.20
515.12	31119.76
515.29	31098.70
515.47	31250.83
515.64	31229.77
515.81	31189.98
515.99	30869.33
516.16	31534.04
516.33	31491.91
516.51	31005.08
516.68	30881.03
516.85	31044.87
517.03	31194.66
517.20	31477.86
517.37	31915.54
517.54	31772.77
517.72	31414.67
517.89	31723.62
518.06	31559.78
518.24	31770.43
518.41	31796.18
518.58	31805.54
518.75	31868.73
518.93	32343.86
519.10	32016.19
519.27	31941.29
519.45	32470.25
519.62	32786.22
519.79	33029.64
519.96	32676.22
520.14	32877.51
520.31	32840.06
520.48	32671.54
520.65	32723.03
520.83	32994.53
521.00	33542.22
521.17	33179.43
521.34	33149.01
521.52	33413.49
521.69	33523.49
521.86	33354.97
522.03	33511.79
522.20	33680.31
522.38	33886.28
522.55	33567.96
522.72	33647.54
522.89	33921.38
523.07	33947.13
523.24	34157.78
523.41	34012.66
523.58	33383.06
523.75	34466.73
523.92	34232.68
524.10	34424.60
524.27	34375.45
524.44	34527.58
524.61	34553.33
524.78	34583.76
524.96	34745.25
525.13	34810.79
525.30	35253.15
525.47	35306.98
525.64	34693.76
525.81	34794.40
525.98	34698.44
526.16	34801.43
526.33	35093.99
526.50	34925.47
526.67	34895.05
526.84	34829.51
527.01	34986.33
527.18	34988.67
527.36	35466.14
527.53	35578.48
527.70	35835.94
527.87	35620.61
528.04	35611.25
528.21	35959.99
528.38	35550.40
528.55	35847.64
528.72	35920.20
528.89	35878.07
529.07	35637.00
529.24	35585.50
529.41	36030.21
529.58	35915.52
529.75	35784.45
529.92	36320.43
530.09	35896.80
530.26	36456.18
530.43	36484.27
530.60	36254.90
530.77	36353.20
530.94	36833.01
531.11	36589.59
531.28	36772.16
531.46	36723.01
531.63	36514.70
531.80	36783.86
531.97	37067.06
532.14	36540.44
532.31	36304.05
532.48	36804.92
532.65	37291.76
532.82	36645.77
532.99	36996.85
533.16	36577.89
533.33	37034.30
533.50	37212.18
533.67	37434.53
533.84	36793.22
534.01	37474.32
534.18	37216.86
534.35	37581.98
534.52	37205.16
534.69	37551.56
534.86	37457.93
535.03	37483.68
535.20	38096.90
535.37	37858.17
535.54	38195.20
535.71	38087.54
535.88	37935.40
536.05	38141.37
536.22	38256.06
536.38	38244.35
536.55	38103.92
536.72	37848.80
536.89	38045.41
537.06	38129.67
537.23	38621.18
537.40	38139.03
537.57	38230.31
537.74	38120.31
537.91	38796.72
538.08	38462.02
538.25	38167.12
538.42	38572.03
538.59	38885.66
538.75	38323.93
538.92	39007.37
539.09	38749.91
539.26	38693.74
539.43	38745.23
539.60	38778.00
539.77	38696.08
539.94	38890.34
540.11	38232.65
540.28	38845.87
540.44	38726.50
540.61	38398.83
540.78	38920.77
540.95	39051.84
541.12	39098.65
541.29	38897.36
541.46	38930.13
541.62	39313.98
541.79	39452.07
541.96	38850.55
542.13	39030.77
542.30	39728.25
542.47	39093.97
542.63	39292.91
542.80	39503.56
542.97	39573.78
543.14	40187.00
543.31	39957.63
543.48	40116.78
543.64	40273.60
543.81	40041.88
543.98	40402.33
544.15	39669.74
544.32	40364.88
544.48	40605.95
544.65	40313.39
544.82	40353.18
544.99	39819.53
545.16	40636.38
545.32	39903.79
545.49	40573.19
545.66	40414.03
545.83	40652.76
546.00	40404.67
546.16	40556.80
546.33	40430.41
546.50	39981.03
546.67	40491.27
546.83	40044.23
547.00	40879.80
547.17	39892.09
547.34	40187.00
547.50	40973.42
547.67	41104.49
547.84	40854.05
548.00	40755.75
548.17	41060.02
548.34	41006.19
548.51	40947.67
548.67	41282.37
548.84	41247.26
549.01	41371.31
549.18	40741.71
549.34	41312.80
549.51	41713.03
549.68	41495.36
549.84	40994.48
550.01	41633.45
550.18	40896.18
550.34	41481.31
550.51	41333.86
550.68	41322.16
550.84	41088.10
551.01	41427.48
551.18	41584.30
551.34	41579.62
551.51	41542.17
551.68	41507.06
551.84	41757.50
552.01	41645.15
552.18	41748.14
552.34	40788.52
552.51	41715.37
552.68	41853.46
552.84	41804.31
553.01	42424.55
553.18	41720.05
553.34	41783.24
553.51	41251.94
553.67	41879.21
553.84	42286.46
554.01	42443.27
554.17	42066.45
554.34	42314.55
554.51	42092.19
554.67	42225.60
554.84	42234.97
555.00	41830.05
555.17	42232.63
555.33	42677.33
555.50	41942.40
555.67	42408.17
555.83	42518.17
556.00	42366.04
556.16	42817.76
556.33	42504.13
556.50	42700.73
556.66	42567.32
556.83	42349.65
556.99	42471.36
557.16	42419.87
557.32	42677.33
557.49	42506.47
557.65	42251.35
557.82	42557.96
557.98	42284.12
558.15	42319.23
558.32	42824.78
558.48	42543.92
558.65	42646.90
558.81	42972.24
558.98	42986.28
559.14	42394.12
559.31	42731.16
559.47	42347.31
559.64	43086.92
559.80	42890.32
559.97	42831.80
560.13	42380.08
560.30	42667.97
560.46	42904.36
560.63	42930.11
560.79	42990.96
560.96	43075.22
561.12	43510.56
561.29	42871.59
561.45	42747.54
561.61	43042.45
561.78	43122.03
561.94	43161.82
562.11	42649.24
562.27	43227.35
562.44	42700.73
562.60	43035.43
562.77	43435.66
562.93	43604.18
563.10	42880.95
563.26	42976.92
563.42	43931.86
563.59	43002.66
563.75	43028.41
563.92	43456.73
564.08	43278.85
564.24	43428.64
564.41	43742.27
564.57	43269.48
564.74	43473.11
564.90	43512.90
565.07	43349.06
565.23	43480.13
565.39	42859.89
565.56	43564.39
565.72	43241.40
565.88	43367.79
566.05	43391.19
566.21	43594.82
566.38	43136.07
566.54	43468.43
566.70	44051.22
566.87	43924.83
567.03	43735.25
567.19	44039.52
567.36	43906.11
567.52	43178.20
567.68	43320.98
567.85	43819.51
568.01	43594.82
568.17	43770.36
568.34	43611.20
568.50	43608.86
568.66	43377.15
568.83	43737.59
568.99	43842.92
569.15	43559.71
569.32	43536.30
569.48	43426.30
569.64	44093.35
569.81	43833.55
569.97	43887.39
570.13	43526.94
570.30	43426.30
570.46	43433.32
570.62	43814.83
570.78	43161.82
570.95	43723.55
571.11	44196.34
571.27	43597.16
571.43	43995.05
571.60	43723.55
571.76	43573.75
571.92	43658.01
572.09	43489.49
572.25	43533.96
572.41	43868.66
572.57	43629.93
572.74	44142.50
572.90	43550.35
573.06	44257.19
573.22	43564.39
573.38	43665.03
573.55	43753.97
573.71	44083.99
573.87	43966.96
574.03	43386.51
574.20	43737.59
574.36	43695.46
574.52	44121.44
574.68	43704.82
574.84	44100.37
575.01	43831.21
575.17	43934.20
575.33	43655.67
575.49	43908.45
575.65	43920.15
575.82	43674.40
575.98	44083.99
576.14	44320.38
576.30	44163.57
576.46	43824.19
576.62	43592.48
576.79	44046.54
576.95	43817.17
577.11	43695.46
577.27	44205.70
577.43	44273.57
577.59	44102.71
577.75	43868.66
577.92	43552.69
578.08	44140.16
578.24	43372.47
578.40	43981.01
578.56	43800.79
578.72	43709.50
578.88	44266.55
579.04	43941.22
579.21	43948.24
579.37	43690.78
579.53	43803.13
579.69	43868.66
579.85	43901.43
580.01	44189.31
580.17	43744.61
580.33	44198.68
580.49	43992.71
580.65	43943.56
580.82	44343.79
580.98	44287.62
581.14	43978.67
581.30	44395.28
581.46	44385.92
581.62	44177.61
581.78	44278.25
581.94	44465.50
582.10	44264.21
582.26	44348.47
582.42	43744.61
582.58	44339.11
582.74	43466.09
582.90	43814.83
583.06	44474.86
583.22	44105.06
583.38	44634.02
583.54	44374.22
583.70	43887.39
583.86	43964.62
584.02	43746.95
584.18	44088.67
584.34	44130.80
584.50	44196.34
584.66	44446.77
584.82	43494.18
584.98	44432.73
585.14	44009.09
585.30	43995.05
585.46	43866.32
585.62	43711.84
585.78	43973.98
585.94	43672.06
586.10	43807.81
586.26	43988.03
586.42	44744.02
586.58	44275.91
586.74	44177.61
586.90	43878.02
587.06	43903.77
587.22	44135.48
587.38	43667.37
587.54	44278.25
587.70	44343.79
587.86	44301.66
588.02	44186.97
588.18	44460.82
588.34	44102.71
588.49	44051.22
588.65	43704.82
588.81	43742.27
588.97	43889.73
589.13	43887.39
589.29	43742.27
589.45	44184.63
589.61	44591.89
589.77	44470.18
589.93	44369.54
590.08	44823.60
590.24	44861.05
