SpectraSuite Data File
++++++++++++++++++++++++++++++++++++
Date: Fri Oct 25 10:43:32 EDT 2013
User: price-jones
Dark Spectrum Present: No
Reference Spectrum Present: No
Number of Sampled Component Spectra: 1
Spectrometers: USB2+H05261
Integration Time (usec): 100000 (USB2+H05261)
Spectra Averaged: 1 (USB2+H05261)
Boxcar Smoothing: 0 (USB2+H05261)
Correct for Electrical Dark: No (USB2+H05261)
Strobe/Lamp Enabled: No (USB2+H05261)
Correct for Detector Non-linearity: No (USB2+H05261)
Correct for Stray Light: No (USB2+H05261)
Number of Pixels in Processed Spectrum: 2048
>>>>>Begin Processed Spectral Data<<<<<
365.73	117.03
365.92	117.03
366.12	117.03
366.32	4.68
366.52	0.00
366.72	72.56
366.91	9.36
367.11	42.13
367.31	25.75
367.51	9.36
367.70	51.49
367.90	28.09
368.10	49.15
368.30	25.75
368.49	0.00
368.69	98.30
368.89	39.79
369.09	117.03
369.28	18.72
369.48	7.02
369.68	0.00
369.87	65.54
370.07	0.00
370.27	63.19
370.47	175.54
370.66	397.89
370.86	390.87
371.06	475.13
371.25	468.11
371.45	493.85
371.65	477.47
371.84	400.23
372.04	428.32
372.24	465.77
372.44	486.83
372.63	535.98
372.83	552.37
373.03	552.37
373.22	526.62
373.42	496.19
373.62	463.43
373.81	564.07
374.01	531.30
374.21	564.07
374.40	538.32
374.60	624.92
374.79	622.58
374.99	601.52
375.19	606.20
375.38	526.62
375.58	589.82
375.78	655.35
375.97	678.76
376.17	617.90
376.37	571.09
376.56	610.88
376.76	573.43
376.95	566.41
377.15	631.94
377.35	545.34
377.54	533.64
377.74	655.35
377.93	608.54
378.13	566.41
378.33	671.73
378.52	624.92
378.72	671.73
378.91	645.99
379.11	573.43
379.31	603.86
379.50	624.92
379.70	655.35
379.89	627.26
380.09	690.46
380.28	777.06
380.48	732.59
380.68	624.92
380.87	741.95
381.07	770.04
381.26	791.10
381.46	781.74
381.65	709.18
381.85	671.73
382.04	814.51
382.24	676.41
382.43	636.63
382.63	723.23
382.83	603.86
383.02	758.33
383.22	760.67
383.41	751.31
383.61	781.74
383.80	791.10
384.00	814.51
384.19	795.78
384.39	795.78
384.58	844.93
384.78	779.40
384.97	840.25
385.17	807.48
385.36	770.04
385.56	816.85
385.75	784.08
385.95	809.83
386.14	870.68
386.34	837.91
386.53	802.80
386.72	856.64
386.92	912.81
387.11	812.17
387.31	901.11
387.50	795.78
387.70	814.51
387.89	880.04
388.09	819.19
388.28	908.13
388.48	835.57
388.67	889.40
388.86	966.64
389.06	936.21
389.25	936.21
389.45	943.24
389.64	976.00
389.84	990.05
390.03	938.55
390.22	912.81
390.42	987.71
390.61	940.90
390.81	908.13
391.00	1013.45
391.19	1032.18
391.39	1137.50
391.58	1172.61
391.78	1086.01
391.97	1013.45
392.16	954.94
392.36	1027.50
392.55	1074.31
392.75	1034.52
392.94	1060.26
393.13	976.00
393.33	954.94
393.52	1029.84
393.71	1107.07
393.91	1137.50
394.10	1179.63
394.29	1163.25
394.49	1116.44
394.68	1146.86
394.88	1254.53
395.07	1315.38
395.26	1196.01
395.46	1240.48
395.65	1261.55
395.84	1217.08
396.04	1160.91
396.23	1252.19
396.42	1160.91
396.62	1156.22
396.81	1231.12
397.00	1266.23
397.19	1186.65
397.39	1366.87
397.58	1313.04
397.77	1413.68
397.97	1338.79
398.16	1397.30
398.35	1423.05
398.55	1451.13
398.74	1481.56
398.93	1486.24
399.12	1565.82
399.32	1444.11
399.51	1493.26
399.70	1528.37
399.90	1481.56
400.09	1617.31
400.28	1612.63
400.47	1483.90
400.67	1631.35
400.86	1685.19
401.05	1631.35
401.24	1722.63
401.44	1701.57
401.63	1703.91
401.82	1734.34
402.01	1715.61
402.21	1701.57
402.40	1722.63
402.59	1717.95
402.78	1825.62
402.97	1748.38
403.17	1778.81
403.36	1753.06
403.55	1795.19
403.74	1886.47
403.93	1963.71
404.13	1820.94
404.32	1820.94
404.51	1879.45
404.70	1914.56
404.89	1881.79
405.09	2012.86
405.28	2062.01
405.47	1923.92
405.66	1916.90
405.85	1940.30
406.05	2050.31
406.24	1966.05
406.43	1930.94
406.62	2092.44
406.81	2209.47
407.00	2101.80
407.20	2029.24
407.39	2125.21
407.58	2146.27
407.77	2148.61
407.96	2267.98
408.15	2253.94
408.34	2165.00
408.54	2204.78
408.73	2246.91
408.92	2359.26
409.11	2263.30
409.30	2370.96
409.49	2331.17
409.68	2183.72
409.87	2260.96
410.07	2352.24
410.26	2387.35
410.45	2373.30
410.64	2499.69
410.83	2518.42
411.02	2473.95
411.21	2546.50
411.40	2525.44
411.59	2630.76
411.78	2705.66
411.98	2609.70
412.17	2656.51
412.36	2684.59
412.55	2679.91
412.74	2637.78
412.93	2808.64
413.12	2729.06
413.31	2700.98
413.50	2745.45
413.69	2843.75
413.88	2836.73
414.07	2904.60
414.26	2939.71
414.45	2949.08
414.64	2899.92
414.83	3042.70
415.02	3021.63
415.22	3091.85
415.41	3145.68
415.60	3169.09
415.79	3213.56
415.98	3222.92
416.17	3290.79
416.36	3208.87
416.55	3187.81
416.74	3351.65
416.93	3288.45
417.12	3180.79
417.31	3393.78
417.50	3344.63
417.69	3606.77
417.88	3349.31
418.07	3375.05
418.26	3447.61
418.45	3389.10
418.64	3651.24
418.83	3562.30
419.02	3581.02
419.21	3637.19
419.39	3637.19
419.58	3658.26
419.77	3487.40
419.96	3705.07
420.15	3620.81
420.34	3801.03
420.53	3805.71
420.72	3889.97
420.91	3772.94
421.10	3765.92
421.29	3988.27
421.48	3801.03
421.67	3899.33
421.86	3700.39
422.05	3815.07
422.24	3756.56
422.43	3836.14
422.61	3735.50
422.80	3985.93
422.99	3983.59
423.18	3925.08
423.37	4004.66
423.56	3920.40
423.75	3889.97
423.94	3969.55
424.13	3557.61
424.32	3716.77
424.50	3964.87
424.69	4084.23
424.88	3934.44
425.07	3911.04
425.26	3824.44
425.45	3974.23
425.64	3925.08
425.83	3904.01
426.01	4093.60
426.20	4138.07
426.39	3887.63
426.58	3978.91
426.77	3955.51
426.96	3983.59
427.15	3950.82
427.33	4063.17
427.52	4091.26
427.71	4011.68
427.90	4147.43
428.09	4175.52
428.28	4205.94
428.46	4138.07
428.65	4180.20
428.84	4227.01
429.03	4208.28
429.22	4021.04
429.40	4107.64
429.59	4156.79
429.78	3976.57
429.97	3955.51
430.16	3943.80
430.34	4035.08
430.53	4088.92
430.72	4184.88
430.91	4175.52
431.10	4362.76
431.28	4634.26
431.47	4599.15
431.66	4521.92
431.85	4535.96
432.03	4674.05
432.22	4552.34
432.41	4629.58
432.60	4615.54
432.79	4748.95
432.97	4648.30
433.16	4809.80
433.35	4716.18
433.54	4664.69
433.72	4718.52
433.91	4718.52
434.10	4730.22
434.28	4840.23
434.47	4844.91
434.66	4868.31
434.85	4910.44
435.03	5081.30
435.22	5090.67
435.41	5114.07
435.59	5142.16
435.78	5085.98
435.97	5362.17
436.16	5132.79
436.34	5088.32
436.53	5074.28
436.72	5322.38
436.90	5130.45
437.09	5228.76
437.28	5203.01
437.46	5135.14
437.65	5186.63
437.84	5392.59
438.02	5097.69
438.21	5022.79
438.40	5142.16
438.58	5191.31
438.77	5336.42
438.96	5544.73
439.14	5603.24
439.33	5605.58
439.52	5591.54
439.70	5640.69
439.89	5493.24
440.08	5760.06
440.26	5619.63
440.45	5724.95
440.63	5806.87
440.82	6026.88
441.01	5734.31
441.19	6111.14
441.38	6143.91
441.57	6146.25
441.75	6235.19
441.94	6188.38
442.12	6476.26
442.31	6387.32
442.50	6335.83
442.68	6307.74
442.87	6338.17
443.05	6478.60
443.24	6438.81
443.43	6403.71
443.61	6471.58
443.80	6647.12
443.98	6370.94
444.17	6298.38
444.35	6277.32
444.54	6614.35
444.73	6462.22
444.91	6459.88
445.10	6497.33
445.28	6525.41
445.47	6303.06
445.65	6286.68
445.84	6548.82
446.02	6600.31
446.21	6602.65
446.39	6504.35
446.58	6483.28
446.77	6700.95
446.95	6565.20
447.14	6588.61
447.32	6675.21
447.51	6452.86
447.69	6478.60
447.88	6705.63
448.06	6731.38
448.25	6759.47
448.43	6693.93
448.62	6848.41
448.80	6722.02
448.99	6906.92
449.17	6803.94
449.36	6885.86
449.54	6979.48
449.73	6970.12
449.91	7136.29
450.10	6949.05
450.28	7166.72
450.46	7213.53
450.65	7260.34
450.83	7199.49
451.02	7234.60
451.20	7234.60
451.39	7126.93
451.57	7295.45
451.76	7145.66
451.94	7122.25
452.13	7274.38
452.31	7222.89
452.49	7042.67
452.68	7101.19
452.86	7283.75
453.05	7222.89
453.23	7353.96
453.42	7129.27
453.60	7250.98
453.78	7578.65
453.97	7382.05
454.15	7368.01
454.34	7145.66
454.52	7592.70
454.70	7524.82
454.89	7698.02
455.07	7513.12
455.26	7653.55
455.44	7817.39
455.62	7737.81
455.81	7545.89
455.99	7833.77
456.17	7770.58
456.36	7878.24
456.54	7934.42
456.73	7868.88
456.91	8243.37
457.09	8070.17
457.28	8189.53
457.46	8023.36
457.64	7985.91
457.83	8133.36
458.01	8175.49
458.19	8409.54
458.38	8238.69
458.56	8425.93
458.74	8084.21
458.93	8369.76
459.11	8336.99
459.29	8173.15
459.48	8372.10
459.66	8292.52
459.84	8503.17
460.03	8535.93
460.21	8390.82
460.39	8767.65
460.57	8683.39
460.76	8620.19
460.94	8561.68
461.12	8540.61
461.31	8741.90
461.49	8779.35
461.67	8592.11
461.85	8919.78
462.04	8762.97
462.22	9444.06
462.40	8901.06
462.59	8922.12
462.77	8769.99
462.95	8908.08
463.13	8854.25
463.32	9029.79
463.50	8978.30
463.68	9249.80
463.86	9081.28
464.05	8990.00
464.23	8908.08
464.41	8964.25
464.59	8950.21
464.78	9172.56
464.96	8966.59
465.14	9191.28
465.32	9212.35
465.50	9254.48
465.69	9425.34
465.87	9287.25
466.05	9158.52
466.23	9277.88
466.41	9018.08
466.60	9343.42
466.78	9401.93
466.96	9160.86
467.14	9270.86
467.32	9441.72
467.51	9418.32
467.69	9085.96
467.87	9448.74
468.05	9338.74
468.23	9411.29
468.41	9525.98
468.60	9657.05
468.78	9682.80
468.96	9502.58
469.14	9680.46
469.32	9870.04
469.50	9371.50
469.69	9701.52
469.87	9816.21
470.05	10033.88
470.23	9827.91
470.41	9717.90
470.59	9947.28
470.77	9884.08
470.95	9977.70
471.14	10253.89
471.32	9891.10
471.50	10366.23
471.68	10230.48
471.86	10270.27
472.04	10455.17
472.22	10656.46
472.40	10162.61
472.58	10499.64
472.77	10497.30
472.95	10530.07
473.13	10839.02
473.31	10686.89
473.49	10534.75
473.67	10675.18
473.85	10628.37
474.03	10909.24
474.21	10986.47
474.39	11201.80
474.57	11112.86
474.75	11098.82
474.93	11108.18
475.12	11260.32
475.30	11405.43
475.48	11250.96
475.66	11293.08
475.84	11246.27
476.02	11510.75
476.20	11485.01
476.38	11595.01
476.56	11899.28
476.74	11641.82
476.92	11810.34
477.10	11674.59
477.28	12002.27
477.46	12063.12
477.64	12294.83
477.82	12411.86
478.00	12699.75
478.18	12437.61
478.36	12746.56
478.54	12659.96
478.72	12791.03
478.90	13055.51
479.08	13018.06
479.26	13390.20
479.44	13121.04
479.62	13022.74
479.80	13345.73
479.98	13474.46
480.16	13912.14
480.34	13369.14
480.52	13642.98
480.70	13717.88
480.88	13425.31
481.06	13760.01
481.24	14106.41
481.41	14340.46
481.59	14265.57
481.77	14520.68
481.95	14368.55
482.13	14534.73
482.31	14626.01
482.49	15014.54
482.67	14864.74
482.85	15059.01
483.03	14951.34
483.21	15281.36
483.39	15309.44
483.57	15241.57
483.74	15346.89
483.92	15637.12
484.10	15557.54
484.28	16109.91
484.46	16194.17
484.64	16468.01
484.82	15896.92
485.00	16016.29
485.18	16437.58
485.35	16505.46
485.53	16084.16
485.71	16030.33
485.89	16318.22
486.07	16231.62
486.25	16795.68
486.43	16561.63
486.61	17106.98
486.78	17184.21
486.96	17532.95
487.14	17689.77
487.32	17673.39
487.50	17869.99
487.68	18052.55
487.85	18476.19
488.03	18312.35
488.21	18853.02
488.39	18553.43
488.57	18602.58
488.75	18593.22
488.92	18902.17
489.10	19339.85
489.28	19367.93
489.46	19613.69
489.64	19726.04
489.81	19985.83
489.99	20184.78
490.17	20299.47
490.35	20641.18
490.53	20283.08
490.70	20545.22
490.88	20334.57
491.06	20856.51
491.24	21050.78
491.41	20884.60
491.59	20664.59
491.77	20587.35
491.95	21151.42
492.13	21495.48
492.30	21542.29
492.48	21472.07
492.66	21577.40
492.84	22089.98
493.01	22099.34
493.19	21879.33
493.37	22197.64
493.54	22567.45
493.72	22342.75
493.90	22480.85
494.08	22497.23
494.25	23061.30
494.43	23204.07
494.61	23508.34
494.79	23503.66
494.96	23295.35
495.14	23328.12
495.32	23583.24
495.49	23798.57
495.67	23735.37
495.85	23805.59
496.02	24180.07
496.20	24182.42
496.38	24608.39
496.55	24355.61
496.73	25095.22
496.91	24746.48
497.09	25144.38
497.26	24779.25
497.44	24851.81
497.62	25209.91
497.79	25294.17
497.97	25373.75
498.14	25560.99
498.32	25579.71
498.50	25671.00
498.67	26033.78
498.85	25832.49
499.03	26309.96
499.20	26251.45
499.38	26096.97
499.56	26494.86
499.73	26560.40
499.91	26445.71
500.08	26412.95
500.26	26328.69
500.44	26639.98
500.61	26611.89
500.79	26611.89
500.97	26422.31
501.14	27175.96
501.32	27028.51
501.49	27164.26
501.67	27433.42
501.84	27342.14
502.02	27468.53
502.20	27805.56
502.37	27723.65
502.55	27831.31
502.72	27798.54
502.90	27971.74
503.07	28198.77
503.25	28053.66
503.43	27885.14
503.60	27995.15
503.78	27927.27
503.95	28151.96
504.13	28416.44
504.30	28381.34
504.48	28542.83
504.65	28922.00
504.83	28690.29
505.01	29474.37
505.18	28980.51
505.36	29392.45
505.53	29427.56
505.71	29762.25
505.88	29738.85
506.06	29443.94
506.23	30036.09
506.41	29584.37
506.58	29832.47
506.76	29731.83
506.93	30043.12
507.11	29996.31
507.28	30085.25
507.46	30377.81
507.63	30136.74
507.81	30059.50
507.98	30125.04
508.16	30047.80
508.33	31016.78
508.50	30621.23
508.68	30682.08
508.85	30857.62
509.03	30782.73
509.20	30855.28
509.38	31229.77
509.55	31339.77
509.73	31246.15
509.90	31330.41
510.08	31400.63
510.25	30979.33
510.42	31318.71
510.60	31730.64
510.77	31587.87
510.95	32149.60
511.12	31910.86
511.30	31868.73
511.47	32297.05
511.64	32212.79
511.82	32299.39
511.99	32570.90
512.17	32212.79
512.34	32510.04
512.51	32615.37
512.69	32683.24
512.86	32858.78
513.04	33111.56
513.21	32912.61
513.38	32603.66
513.56	32730.05
513.73	32711.33
513.90	33090.49
514.08	32692.60
514.25	32814.31
514.43	33312.84
514.60	33429.87
514.77	33397.10
514.95	33633.50
515.12	33298.80
515.29	33539.88
515.47	33949.47
515.64	34373.11
515.81	33589.03
515.99	33780.95
516.16	33755.21
516.33	33315.19
516.51	33457.96
516.68	32964.10
516.85	33322.21
517.03	33434.55
517.20	33954.15
517.37	34199.91
517.54	34279.49
517.72	33996.28
517.89	33933.09
518.06	33741.16
518.24	34085.22
518.41	34663.33
518.58	34609.50
518.75	34560.35
518.93	34459.71
519.10	34848.24
519.27	34871.64
519.45	35007.39
519.62	35185.27
519.79	35583.16
519.96	35065.91
520.14	35337.41
520.31	35512.95
520.48	35644.02
520.65	35246.13
520.83	35952.97
521.00	36016.16
521.17	35913.18
521.34	35835.94
521.52	36072.34
521.69	36175.32
521.86	36353.20
522.03	36655.13
522.20	35976.37
522.38	36392.99
522.55	36126.17
522.72	36697.26
522.89	36254.90
523.07	36495.97
523.24	36690.24
523.41	36690.24
523.58	36627.04
523.75	37167.71
523.92	36882.16
524.10	37291.76
524.27	37134.94
524.44	37088.13
524.61	37614.75
524.78	37474.32
524.96	37809.01
525.13	37593.68
525.30	37586.66
525.47	37401.76
525.64	37394.74
525.81	37696.67
525.98	37504.74
526.16	37331.54
526.33	37251.97
526.50	37345.59
526.67	37287.07
526.84	37385.38
527.01	36870.46
527.18	37853.48
527.36	37706.03
527.53	38653.95
527.70	38630.54
527.87	38234.99
528.04	37816.04
528.21	38672.67
528.38	38148.39
528.55	38815.44
528.72	38466.70
528.89	39035.45
529.07	38670.33
529.24	38806.08
529.41	39140.78
529.58	38628.20
529.75	39173.55
529.92	38878.64
530.09	39405.26
530.26	38754.59
530.43	39093.97
530.60	38810.76
530.77	39538.67
530.94	39585.48
531.11	39615.91
531.28	39807.83
531.46	39463.77
531.63	39805.49
531.80	39627.61
531.97	39433.35
532.14	39452.07
532.31	38883.32
532.48	39632.29
532.65	39250.78
532.82	39613.57
532.99	39892.09
533.16	39927.20
533.33	39988.05
533.50	39735.27
533.67	39920.18
533.84	39599.52
534.01	40257.21
534.18	40275.94
534.35	40746.39
534.52	39779.74
534.69	40428.07
534.86	40650.42
535.03	40444.46
535.20	40657.45
535.37	40657.45
535.54	40678.51
535.71	40378.92
535.88	40697.24
536.05	40322.75
536.22	41074.06
536.38	40914.90
536.55	40381.26
536.72	40154.23
536.89	40561.48
537.06	40652.76
537.23	40931.29
537.40	41340.88
537.57	41003.85
537.74	41134.92
537.91	41537.49
538.08	41242.58
538.25	40669.15
538.42	41265.99
538.59	41223.86
538.75	41247.26
538.92	41425.14
539.09	41415.78
539.26	41155.98
539.43	41415.78
539.60	41474.29
539.77	41083.42
539.94	41591.32
540.11	40954.69
540.28	41647.49
540.44	41404.08
540.61	41202.79
540.78	40868.09
540.95	41509.40
541.12	41596.00
541.29	41488.34
541.46	41640.47
541.62	42092.19
541.79	41956.44
541.96	41806.65
542.13	41818.35
542.30	41970.49
542.47	42092.19
542.63	42337.95
542.80	42064.11
542.97	41855.80
543.14	42717.12
543.31	42183.48
543.48	42300.50
543.64	42384.76
543.81	42567.32
543.98	42630.52
544.15	42300.50
544.32	42789.67
544.48	43044.79
544.65	42859.89
544.82	43122.03
544.99	42462.00
545.16	42728.82
545.32	42660.94
545.49	43136.07
545.66	43260.12
545.83	42876.27
546.00	43105.65
546.16	42918.40
546.33	42740.52
546.50	43042.45
546.67	43430.98
546.83	43093.94
547.00	43138.41
547.17	42995.64
547.34	42752.23
547.50	43438.00
547.67	43826.53
547.84	43395.87
548.00	43384.17
548.17	43981.01
548.34	43337.36
548.51	43819.51
548.67	43643.97
548.84	43604.18
549.01	43959.94
549.18	43690.78
549.34	43487.15
549.51	43625.25
549.68	43906.11
549.84	43840.57
550.01	43718.87
550.18	43672.06
550.34	43878.02
550.51	44025.48
550.68	43969.30
550.84	43662.69
551.01	43765.68
551.18	44353.15
551.34	43777.38
551.51	44058.24
551.68	44100.37
551.84	44142.50
552.01	43845.26
552.18	44175.27
552.34	44442.09
552.51	44304.00
552.68	44170.59
552.84	44655.08
553.01	44521.67
553.18	44201.02
553.34	44016.11
553.51	44067.61
553.67	44477.20
553.84	44872.75
554.01	44327.41
554.17	44877.43
554.34	44643.38
554.51	44865.73
554.67	44877.43
554.84	44694.87
555.00	44418.69
555.17	44746.36
555.33	44811.90
555.50	44610.61
555.67	44729.98
555.83	44428.05
556.00	44832.96
556.16	45090.42
556.33	44718.28
556.50	44678.49
556.66	45043.61
556.83	44547.42
556.99	44694.87
557.16	45338.52
557.32	45244.90
557.49	45275.32
557.65	44816.58
557.82	44568.48
557.98	44804.88
558.15	44919.56
558.32	45027.23
558.48	44926.58
558.65	44692.53
558.81	44865.73
558.98	45050.63
559.14	44755.72
559.31	44687.85
559.47	45326.81
559.64	45200.43
559.80	45284.68
559.97	44954.67
560.13	44839.98
560.30	44961.69
560.46	45436.82
560.63	44884.45
560.79	45319.79
560.96	45368.94
561.12	44821.26
561.29	44589.55
561.45	45287.03
561.61	45174.68
561.78	44779.13
561.94	45022.54
562.11	45097.44
562.27	45228.51
562.44	45172.34
562.60	45471.93
562.77	45294.05
562.93	45340.86
563.10	45361.92
563.26	45230.85
563.42	45736.41
563.59	45289.37
563.75	45443.84
563.92	45656.83
564.08	45598.32
564.24	45722.37
564.41	45408.73
564.57	45570.23
564.74	45635.77
564.90	45745.77
565.07	45338.52
565.23	45717.68
565.39	45413.41
565.56	45191.06
565.72	45083.40
565.88	45528.10
566.05	45221.49
566.21	45361.92
566.38	45783.22
566.54	45401.71
566.70	45787.90
566.87	45977.48
567.03	45380.65
567.19	46075.79
567.36	45837.05
567.52	45780.88
567.68	45834.71
567.85	45478.95
568.01	45621.72
568.17	45626.40
568.34	45881.52
568.50	45450.86
568.66	45347.88
568.83	45776.20
568.99	45329.16
569.15	45411.07
569.32	45570.23
569.48	45432.14
569.64	45951.74
569.81	46099.19
569.97	45570.23
570.13	45963.44
570.30	45202.77
570.46	45598.32
570.62	45148.93
570.78	45144.25
570.95	45315.11
571.11	45640.45
571.27	45235.53
571.43	45481.29
571.60	46038.34
571.76	46024.29
571.92	45918.97
572.09	46000.89
572.25	45654.49
572.41	45748.11
572.57	45972.80
572.74	46417.50
572.90	46438.57
573.06	46082.81
573.22	46031.32
573.38	45750.45
573.55	45680.24
573.71	46188.13
573.87	45970.46
574.03	45404.05
574.20	46241.96
574.36	45834.71
574.52	45841.73
574.68	45780.88
574.84	45715.34
575.01	45961.10
575.17	45858.12
575.33	46225.58
575.49	45696.62
575.65	46284.09
575.82	45755.13
575.98	45399.37
576.14	46490.06
576.30	46190.47
576.46	45591.30
576.62	45977.48
576.79	45968.12
576.95	45675.55
577.11	46185.79
577.27	45858.12
577.43	45715.34
577.59	45689.60
577.75	45935.35
577.92	45539.80
578.08	45900.25
578.24	45642.79
578.40	45879.18
578.56	45869.82
578.72	46028.98
578.88	46279.41
579.04	46295.80
579.21	45743.43
579.37	45998.55
579.53	45764.49
579.69	45626.40
579.85	45610.02
580.01	46110.89
580.17	45815.99
580.33	45724.71
580.49	46021.95
580.65	45392.35
580.82	45935.35
580.98	45621.72
581.14	45937.69
581.30	46206.86
581.46	46059.40
581.62	46146.00
581.78	45815.99
581.94	46415.16
582.10	46169.41
582.26	46256.01
582.42	46375.37
582.58	46073.45
582.74	46068.76
582.90	46417.50
583.06	46050.04
583.22	46401.12
583.38	46443.25
583.54	46206.86
583.70	46138.98
583.86	46391.76
584.02	45848.75
584.18	46279.41
584.34	46293.46
584.50	46071.10
584.66	46087.49
584.82	45586.61
584.98	45900.25
585.14	45951.74
585.30	45626.40
585.46	46265.37
585.62	45682.58
585.78	45825.35
585.94	45696.62
586.10	45879.18
586.26	45935.35
586.42	46057.06
586.58	46169.41
586.74	46150.68
586.90	45851.09
587.06	45972.80
587.22	46342.61
587.38	45897.91
587.54	46099.19
587.70	46103.87
587.86	46050.04
588.02	45963.44
588.18	45736.41
588.34	45923.65
588.49	45523.42
588.65	45647.47
588.81	45394.69
588.97	45516.40
589.13	45492.99
589.29	45574.91
589.45	46007.91
589.61	45984.51
589.77	46237.28
589.93	46092.17
590.08	46174.09
