SpectraSuite Data File
++++++++++++++++++++++++++++++++++++
Date: Fri Oct 25 10:47:11 EDT 2013
User: price-jones
Dark Spectrum Present: No
Reference Spectrum Present: No
Number of Sampled Component Spectra: 1
Spectrometers: USB2+H05261
Integration Time (usec): 100000 (USB2+H05261)
Spectra Averaged: 1 (USB2+H05261)
Boxcar Smoothing: 0 (USB2+H05261)
Correct for Electrical Dark: No (USB2+H05261)
Strobe/Lamp Enabled: No (USB2+H05261)
Correct for Detector Non-linearity: No (USB2+H05261)
Correct for Stray Light: No (USB2+H05261)
Number of Pixels in Processed Spectrum: 2048
>>>>>Begin Processed Spectral Data<<<<<
365.73	86.60
365.92	86.60
366.12	86.60
366.32	42.13
366.52	46.81
366.72	51.49
366.91	16.38
367.11	30.43
367.31	30.43
367.51	0.00
367.70	53.83
367.90	77.24
368.10	56.17
368.30	39.79
368.49	42.13
368.69	72.56
368.89	32.77
369.09	28.09
369.28	46.81
369.48	46.81
369.68	107.66
369.87	114.69
370.07	74.90
370.27	168.52
370.47	107.66
370.66	374.49
370.86	376.83
371.06	454.06
371.25	449.38
371.45	390.87
371.65	482.15
371.84	418.96
372.04	414.27
372.24	484.49
372.44	543.00
372.63	514.92
372.83	540.66
373.03	449.38
373.22	491.51
373.42	521.94
373.62	395.55
373.81	512.58
374.01	496.19
374.21	517.26
374.40	566.41
374.60	564.07
374.79	535.98
374.99	533.64
375.19	545.34
375.38	585.13
375.58	601.52
375.78	596.84
375.97	587.47
376.17	629.60
376.37	601.52
376.56	554.71
376.76	629.60
376.95	503.22
377.15	608.54
377.35	620.24
377.54	533.64
377.74	578.11
377.93	582.79
378.13	627.26
378.33	664.71
378.52	580.45
378.72	603.86
378.91	615.56
379.11	603.86
379.31	671.73
379.50	582.79
379.70	671.73
379.89	634.29
380.09	585.13
380.28	613.22
380.48	772.38
380.68	603.86
380.87	580.45
381.07	720.88
381.26	671.73
381.46	683.44
381.65	601.52
381.85	676.41
382.04	702.16
382.24	730.25
382.43	741.95
382.63	631.94
382.83	727.91
383.02	704.50
383.22	638.97
383.41	599.18
383.61	662.37
383.80	751.31
384.00	755.99
384.19	751.31
384.39	746.63
384.58	699.82
384.78	842.59
384.97	667.05
385.17	709.18
385.36	772.38
385.56	723.23
385.75	758.33
385.95	723.23
386.14	798.12
386.34	739.61
386.53	772.38
386.72	772.38
386.92	851.96
387.11	866.00
387.31	849.61
387.50	826.21
387.70	816.85
387.89	746.63
388.09	840.25
388.28	823.87
388.48	755.99
388.67	798.12
388.86	868.34
389.06	819.19
389.25	858.98
389.45	823.87
389.64	889.40
389.84	889.40
390.03	983.02
390.22	889.40
390.42	868.34
390.61	870.68
390.81	854.30
391.00	926.85
391.19	1050.90
391.39	950.26
391.58	994.73
391.78	1011.11
391.97	915.15
392.16	884.72
392.36	1008.77
392.55	999.41
392.75	924.51
392.94	1018.13
393.13	968.98
393.33	889.40
393.52	917.49
393.71	990.05
393.91	997.07
394.10	1067.28
394.29	1022.81
394.49	1001.75
394.68	1053.24
394.88	1006.43
395.07	1041.54
395.26	1086.01
395.46	1095.37
395.65	1032.18
395.84	1132.82
396.04	1137.50
396.23	1055.58
396.42	1093.03
396.62	1118.78
396.81	1128.14
397.00	1116.44
397.19	1102.39
397.39	1174.95
397.58	1254.53
397.77	1200.69
397.97	1097.71
398.16	1259.21
398.35	1308.36
398.55	1238.14
398.74	1179.63
398.93	1256.87
399.12	1270.91
399.32	1313.04
399.51	1263.89
399.70	1362.19
399.90	1420.71
400.09	1284.95
400.28	1392.62
400.47	1343.47
400.67	1385.60
400.86	1418.36
401.05	1476.88
401.24	1486.24
401.44	1444.11
401.63	1542.41
401.82	1460.49
402.01	1441.77
402.21	1416.02
402.40	1418.36
402.59	1497.94
402.78	1558.80
402.97	1558.80
403.17	1437.09
403.36	1540.07
403.55	1514.33
403.74	1617.31
403.93	1577.52
404.13	1579.86
404.32	1568.16
404.51	1617.31
404.70	1621.99
404.89	1654.76
405.09	1668.80
405.28	1675.82
405.47	1671.14
405.66	1689.87
405.85	1724.97
406.05	1701.57
406.24	1809.23
406.43	1783.49
406.62	1783.49
406.81	1834.98
407.00	1884.13
407.20	1685.19
407.39	1842.00
407.58	1853.70
407.77	1842.00
407.96	1961.37
408.15	1881.79
408.34	1984.77
408.54	1909.88
408.73	1989.46
408.92	2008.18
409.11	2015.20
409.30	1867.75
409.49	1888.81
409.68	1933.28
409.87	1942.64
410.07	2024.56
410.26	2101.80
410.45	2083.08
410.64	2097.12
410.83	2076.06
411.02	2099.46
411.21	2195.42
411.40	2195.42
411.59	2204.78
411.78	2216.49
411.98	2251.60
412.17	2253.94
412.36	2328.83
412.55	2333.51
412.74	2394.37
412.93	2370.96
413.12	2326.49
413.31	2394.37
413.50	2417.77
413.69	2469.27
413.88	2513.74
414.07	2562.89
414.26	2525.44
414.45	2511.39
414.64	2511.39
414.83	2628.42
415.02	2700.98
415.22	2630.76
415.41	2768.85
415.60	2724.38
415.79	2637.78
415.98	2827.37
416.17	2972.48
416.36	2836.73
416.55	2909.29
416.74	2820.35
416.93	2913.97
417.12	2848.43
417.31	3005.25
417.50	3000.57
417.69	3056.74
417.88	3012.27
418.07	2979.50
418.26	3012.27
418.45	3000.57
418.64	3143.34
418.83	3105.89
419.02	3143.34
419.21	3131.64
419.39	3084.83
419.58	3028.65
419.77	3143.34
419.96	3187.81
420.15	3304.84
420.34	3290.79
420.53	3346.97
420.72	3356.33
420.91	3164.40
421.10	3410.16
421.29	3351.65
421.48	3379.73
421.67	3370.37
421.86	3307.18
422.05	3328.24
422.24	3438.25
422.43	3281.43
422.61	3384.41
422.80	3363.35
422.99	3384.41
423.18	3454.63
423.37	3550.59
423.56	3515.48
423.75	3410.16
423.94	3251.00
424.13	3204.19
424.32	3325.90
424.50	3534.21
424.69	3566.98
424.88	3407.82
425.07	3424.20
425.26	3452.29
425.45	3361.01
425.64	3445.27
425.83	3442.93
426.01	3428.88
426.20	3442.93
426.39	3616.13
426.58	3609.11
426.77	3389.10
426.96	3555.27
427.15	3442.93
427.33	3534.21
427.52	3784.65
427.71	3700.39
427.90	3604.42
428.09	3630.17
428.28	3616.13
428.46	3742.52
428.65	3803.37
428.84	3754.22
429.03	3707.41
429.22	3719.11
429.40	3749.54
429.59	3775.28
429.78	3625.49
429.97	3517.83
430.16	3728.47
430.34	3810.39
430.53	3676.98
430.72	3894.65
430.91	3899.33
431.10	3770.60
431.28	3899.33
431.47	4117.00
431.66	4112.32
431.85	3840.82
432.03	3950.82
432.22	4121.68
432.41	4009.34
432.60	4140.41
432.79	4133.39
432.97	4196.58
433.16	4238.71
433.35	4100.62
433.54	4196.58
433.72	4203.60
433.91	4212.96
434.10	4208.28
434.28	4093.60
434.47	4334.67
434.66	4423.61
434.85	4414.25
435.03	4393.19
435.22	4273.82
435.41	4404.89
435.59	4475.10
435.78	4332.33
435.97	4535.96
436.16	4554.68
436.34	4526.60
436.53	4524.26
436.72	4486.81
436.90	4535.96
437.09	4545.32
437.28	4423.61
437.46	4535.96
437.65	4500.85
437.84	4540.64
438.02	4542.98
438.21	4657.67
438.40	4589.79
438.58	4685.75
438.77	4762.99
438.96	4758.31
439.14	4835.55
439.33	4957.25
439.52	4830.87
439.70	5053.22
439.89	5170.24
440.08	5137.48
440.26	5186.63
440.45	5039.17
440.63	4975.98
440.82	5207.69
441.01	5317.70
441.19	5280.25
441.38	5184.29
441.57	5423.02
441.75	5184.29
441.94	5535.37
442.12	5411.32
442.31	5652.39
442.50	5495.58
442.68	5507.28
442.87	5596.22
443.05	5659.42
443.24	5790.49
443.43	5614.95
443.61	5603.24
443.80	5734.31
443.98	5437.06
444.17	5430.04
444.35	5760.06
444.54	5851.34
444.73	5881.77
444.91	5746.02
445.10	5605.58
445.28	5874.74
445.47	5671.12
445.65	5879.43
445.84	5865.38
446.02	5785.80
446.21	5750.70
446.39	5692.18
446.58	5921.56
446.77	5806.87
446.95	5781.12
447.14	5926.24
447.32	5813.89
447.51	5870.06
447.69	5797.51
447.88	5701.54
448.06	5863.04
448.25	5937.94
448.43	5762.40
448.62	5874.74
448.80	5849.00
448.99	5916.87
449.17	6134.54
449.36	5928.58
449.54	6136.88
449.73	6141.57
449.91	6296.04
450.10	6239.87
450.28	6242.21
450.46	6265.61
450.65	6286.68
450.83	6134.54
451.02	6239.87
451.20	6356.90
451.39	6375.62
451.57	6321.79
451.76	6174.33
451.94	6431.79
452.13	6511.37
452.31	6356.90
452.49	6368.60
452.68	6289.02
452.86	6363.92
453.05	6319.45
453.23	6572.22
453.42	6504.35
453.60	6492.65
453.78	6661.16
453.97	6249.23
454.15	6518.39
454.34	6394.34
454.52	6541.80
454.70	6656.48
454.89	6700.95
455.07	6661.16
455.26	6698.61
455.44	6899.90
455.62	6925.65
455.81	6972.46
455.99	6869.47
456.17	6927.99
456.36	6853.09
456.54	7073.10
456.73	7133.95
456.91	7169.06
457.09	7157.36
457.28	7297.79
457.46	7164.38
457.64	7311.83
457.83	7033.31
458.01	7204.17
458.19	7337.58
458.38	7131.61
458.56	7391.41
458.74	7332.90
458.93	7136.29
459.11	7260.34
459.29	7344.60
459.48	7445.24
459.66	7274.38
459.84	7365.67
460.03	7665.25
460.21	7431.20
460.39	7384.39
460.57	7461.63
460.76	7641.85
460.94	7442.90
461.12	7569.29
461.31	7698.02
461.49	7569.29
461.67	7581.00
461.85	7791.64
462.04	7705.04
462.22	8135.70
462.40	7761.22
462.59	7826.75
462.77	7971.86
462.95	7887.61
463.13	7793.98
463.32	7948.46
463.50	7929.74
463.68	8009.31
463.86	7995.27
464.05	7777.60
464.23	7913.35
464.41	8166.13
464.59	7957.82
464.78	8215.28
464.96	8011.65
465.14	8095.91
465.32	8126.34
465.50	8184.85
465.69	8264.43
465.87	8226.98
466.05	8341.67
466.23	8079.53
466.41	8430.61
466.60	8411.89
466.78	8086.55
466.96	8217.62
467.14	8318.26
467.32	8432.95
467.51	8369.76
467.69	8248.05
467.87	8212.94
468.05	8519.55
468.23	8362.73
468.41	8449.33
468.60	8505.51
468.78	8648.28
468.96	8498.49
469.14	8706.79
469.32	8624.87
469.50	8564.02
469.69	8627.21
469.87	8734.88
470.05	8830.84
470.23	8769.99
470.41	8877.65
470.59	8915.10
470.77	8861.27
470.95	9015.74
471.14	8992.34
471.32	8966.59
471.50	9231.07
471.68	9149.15
471.86	9186.60
472.04	9210.01
472.22	9483.85
472.40	8999.36
472.58	9327.03
472.77	9142.13
472.95	9430.02
473.13	9652.37
473.31	9528.32
473.49	9437.04
473.67	9523.64
473.85	9565.77
474.03	9701.52
474.21	9792.80
474.39	9729.61
474.57	9802.16
474.75	9923.87
474.93	9881.74
475.12	9956.64
475.30	10122.82
475.48	9994.09
475.66	9994.09
475.84	10106.43
476.02	10560.50
476.20	10104.09
476.38	10516.03
476.56	10649.44
476.74	10375.59
476.92	10532.41
477.10	10700.93
477.28	10775.83
477.46	10960.73
477.64	11075.42
477.82	11159.67
478.00	11363.30
478.18	11077.76
478.36	11265.00
478.54	11454.58
478.72	11234.57
478.90	11496.71
479.08	11520.12
479.26	11878.22
479.44	11733.11
479.62	11892.26
479.80	11779.92
479.98	11892.26
480.16	12339.30
480.34	11983.54
480.52	12519.53
480.70	12468.03
480.88	12189.51
481.06	12461.01
481.24	12404.84
481.41	12732.51
481.59	12865.92
481.77	12723.15
481.95	12954.87
482.13	12875.29
482.31	12847.20
482.49	13231.05
482.67	13228.71
482.85	13565.74
483.03	13535.32
483.21	13680.43
483.39	13851.29
483.57	13771.71
483.74	13954.27
483.92	14050.24
484.10	13961.30
484.28	14274.93
484.46	14427.06
484.64	14740.69
484.82	14546.43
485.00	14588.56
485.18	14831.97
485.35	14927.94
485.53	14874.10
485.71	14876.44
485.89	15054.33
486.07	15131.56
486.25	15360.94
486.43	15442.85
486.61	15639.46
486.78	15812.66
486.96	15433.49
487.14	16109.91
487.32	16006.92
487.50	15999.90
487.68	16388.43
487.85	16451.63
488.03	16360.34
488.21	16552.27
488.39	16835.47
488.57	16875.26
488.75	17062.51
488.92	17273.15
489.10	17490.82
489.28	17324.65
489.46	17792.75
489.64	17764.67
489.81	18143.83
489.99	18202.35
490.17	18368.52
490.35	18511.30
490.53	18434.06
490.70	18424.70
490.88	18593.22
491.06	18647.05
491.24	18370.86
491.41	18932.59
491.59	18930.25
491.77	18717.26
491.95	19585.60
492.13	19653.48
492.30	19309.42
492.48	19800.93
492.66	19452.19
492.84	19662.84
493.01	19871.15
493.19	20063.07
493.37	20283.08
493.54	20233.93
493.72	20030.30
493.90	20486.71
494.08	20400.11
494.25	20959.50
494.43	20713.74
494.61	20978.22
494.79	21020.35
494.96	21362.07
495.14	21280.15
495.32	21355.05
495.49	21294.19
495.67	21537.61
495.85	21874.65
496.02	21933.16
496.20	22391.91
496.38	22382.54
496.55	22319.35
496.73	22637.66
496.91	22321.69
497.09	22824.90
497.26	22698.52
497.44	22752.35
497.62	23187.69
497.79	23077.68
497.97	23147.90
498.14	23318.76
498.32	23161.94
498.50	23360.89
498.67	23641.75
498.85	23817.29
499.03	23440.47
499.20	23974.11
499.38	23777.50
499.56	23723.67
499.73	24107.52
499.91	24339.23
500.08	24372.00
500.26	24182.42
500.44	24212.84
500.61	24723.08
500.79	24339.23
500.97	24793.29
501.14	24964.15
501.32	25106.93
501.49	24837.76
501.67	24943.09
501.84	25345.66
502.02	25050.75
502.20	25198.21
502.37	25369.07
502.55	25577.37
502.72	25467.37
502.90	25436.94
503.07	25827.81
503.25	25881.64
503.43	25773.98
503.60	26024.42
503.78	26237.41
503.95	25539.93
504.13	26103.99
504.30	26178.89
504.48	26108.68
504.65	26419.97
504.83	26611.89
505.01	26902.12
505.18	26614.23
505.36	26724.24
505.53	26696.15
505.71	26993.40
505.88	27363.20
506.06	27075.32
506.23	27325.75
506.41	26834.24
506.58	27229.79
506.76	27150.21
506.93	27051.91
507.11	27484.91
507.28	27737.69
507.46	27737.69
507.63	27695.56
507.81	28025.57
507.98	27824.29
508.16	28058.34
508.33	27819.61
508.50	27927.27
508.68	28339.21
508.85	28313.46
509.03	28556.88
509.20	28542.83
509.38	28570.92
509.55	29083.50
509.73	28912.64
509.90	28568.58
510.08	28577.94
510.25	28957.11
510.42	29242.65
510.60	29078.82
510.77	29275.42
510.95	29563.31
511.12	29256.70
511.30	29170.10
511.47	29902.68
511.64	29998.65
511.82	30005.67
511.99	29727.14
512.17	29853.53
512.34	29872.26
512.51	29837.15
512.69	29855.87
512.86	30237.38
513.04	30188.23
513.21	30174.19
513.38	30302.92
513.56	30513.56
513.73	30462.07
513.90	30579.10
514.08	30480.80
514.25	30574.42
514.43	30525.27
514.60	30719.53
514.77	30658.68
514.95	30934.86
515.12	31220.41
515.29	31239.13
515.47	31246.15
515.64	31398.29
515.81	30967.63
515.99	31346.79
516.16	31283.60
516.33	31412.33
516.51	31519.99
516.68	31157.21
516.85	31391.26
517.03	31447.44
517.20	31716.60
517.37	31536.38
517.54	32151.94
517.72	32219.81
517.89	31817.24
518.06	31854.69
518.24	32224.50
518.41	32215.13
518.58	32357.91
518.75	31725.96
518.93	32346.20
519.10	32458.55
519.27	32404.72
519.45	32683.24
519.62	32584.94
519.79	32629.41
519.96	33085.81
520.14	33132.62
520.31	32889.21
520.48	33158.37
520.65	33118.58
520.83	33127.94
521.00	33574.98
521.17	33230.93
521.34	33591.37
521.52	33570.30
521.69	33394.76
521.86	34113.31
522.03	33745.84
522.20	33802.02
522.38	33811.38
522.55	33619.46
522.72	33729.46
522.89	33755.21
523.07	34127.35
523.24	34061.82
523.41	34199.91
523.58	34188.21
523.75	34707.80
523.92	34293.53
524.10	34176.50
524.27	34511.20
524.44	34635.25
524.61	34876.32
524.78	34408.22
524.96	34923.13
525.13	34848.24
525.30	35339.75
525.47	35035.48
525.64	35147.82
525.81	35129.10
525.98	35012.07
526.16	34850.58
526.33	34799.08
526.50	35344.43
526.67	34752.27
526.84	35030.80
527.01	35332.73
527.18	35742.32
527.36	35693.17
527.53	35353.79
527.70	35899.14
527.87	36187.02
528.04	35730.62
528.21	35922.54
528.38	35536.35
528.55	35882.75
528.72	36135.53
528.89	36306.39
529.07	35854.67
529.24	36123.83
529.41	36067.66
529.58	36004.46
529.75	36456.18
529.92	36261.92
530.09	36077.02
530.26	36617.68
530.43	36584.91
530.60	36332.14
530.77	36563.85
530.94	36594.28
531.11	36608.32
531.28	36641.09
531.46	36865.78
531.63	36807.26
531.80	36891.52
531.97	37247.29
532.14	36751.09
532.31	36706.62
532.48	37273.03
532.65	37010.89
532.82	36987.49
532.99	37041.32
533.16	36912.59
533.33	37289.42
533.50	38050.09
533.67	37432.19
533.84	37251.97
534.01	37415.80
534.18	37195.79
534.35	37813.70
534.52	37303.46
534.69	37801.99
534.86	37736.46
535.03	37661.56
535.20	37923.70
535.37	38227.97
535.54	38635.22
535.71	38213.93
535.88	38059.45
536.05	38052.43
536.22	38457.34
536.38	38455.00
536.55	38415.21
536.72	38754.59
536.89	38258.40
537.06	38082.86
537.23	38326.27
537.40	38288.82
537.57	38419.89
537.74	38700.76
537.91	38883.32
538.08	38749.91
538.25	38824.81
538.42	38717.14
538.59	38824.81
538.75	38632.88
538.92	38569.69
539.09	39061.20
539.26	38710.12
539.43	38808.42
539.60	39381.85
539.77	39110.35
539.94	38946.51
540.11	39192.27
540.28	39206.31
540.44	39402.92
540.61	39344.41
540.78	39075.24
540.95	39086.95
541.12	39290.57
541.29	39030.77
541.46	39271.85
541.62	39442.71
541.79	40058.27
541.96	39447.39
542.13	39505.90
542.30	39856.98
542.47	39681.44
542.63	39796.13
542.80	39658.04
542.97	39920.18
543.14	39978.69
543.31	39672.08
543.48	40107.42
543.64	40814.26
543.81	40507.65
543.98	40149.55
544.15	40388.28
544.32	40474.88
544.48	40598.93
544.65	40397.65
544.82	40470.20
544.99	40348.50
545.16	40875.12
545.32	40652.76
545.49	40699.58
545.66	40605.95
545.83	40350.84
546.00	40926.61
546.16	41111.51
546.33	40739.36
546.50	40107.42
546.67	40685.53
546.83	40334.45
547.00	40683.19
547.17	40650.42
547.34	40868.09
547.50	40912.56
547.67	41368.97
547.84	41088.10
548.00	40898.52
548.17	41415.78
548.34	41219.17
548.51	41539.83
548.67	41493.02
548.84	41909.63
549.01	41563.23
549.18	41462.59
549.34	41455.57
549.51	42038.36
549.68	41453.23
549.84	42019.64
550.01	41689.62
550.18	41343.22
550.34	41724.73
550.51	41368.97
550.68	41811.33
550.84	41427.48
551.01	41991.55
551.18	41495.36
551.34	41804.31
551.51	41820.69
551.68	42005.59
551.84	41806.65
552.01	42185.82
552.18	41792.61
552.34	41764.52
552.51	42604.77
552.68	41996.23
552.84	42359.02
553.01	42284.12
553.18	42335.61
553.34	42312.20
553.51	42398.80
553.67	42349.65
553.84	42536.90
554.01	42831.80
554.17	42953.51
554.34	42506.47
554.51	42431.57
554.67	42534.56
554.84	42529.87
555.00	42637.54
555.17	42380.08
555.33	42436.25
555.50	42532.22
555.67	42532.22
555.83	42417.53
556.00	42887.98
556.16	42993.30
556.33	42937.13
556.50	42965.21
556.66	42759.25
556.83	42604.77
556.99	43072.88
557.16	42995.64
557.32	42876.27
557.49	43154.80
557.65	42813.08
557.82	42876.27
557.98	42997.98
558.15	42848.19
558.32	43119.69
558.48	43054.15
558.65	42986.28
558.81	42724.14
558.98	42885.64
559.14	43428.64
559.31	43084.58
559.47	43402.89
559.64	43225.01
559.80	43494.18
559.97	43037.77
560.13	42925.42
560.30	42974.58
560.46	42906.70
560.63	43194.59
560.79	43590.14
560.96	43653.33
561.12	43297.57
561.29	43033.09
561.45	43192.25
561.61	43234.38
561.78	43454.39
561.94	43477.79
562.11	43145.44
562.27	43278.85
562.44	43484.81
562.60	43384.17
562.77	43292.89
562.93	43583.12
563.10	42983.94
563.26	43281.19
563.42	43533.96
563.59	42967.55
563.75	43627.59
563.92	43763.34
564.08	43548.01
564.24	43449.70
564.41	43627.59
564.57	43803.13
564.74	43655.67
564.90	43625.25
565.07	44086.33
565.23	43529.28
565.39	43728.23
565.56	43503.54
565.72	43629.93
565.88	43648.65
566.05	43405.23
566.21	43929.51
566.38	43559.71
566.54	43592.48
566.70	44142.50
566.87	43814.83
567.03	44072.29
567.19	44189.31
567.36	44062.93
567.52	43658.01
567.68	44327.41
567.85	43667.37
568.01	43847.60
568.17	43906.11
568.34	43653.33
568.50	43990.37
568.66	43997.39
568.83	43667.37
568.99	43625.25
569.15	43863.98
569.32	44009.09
569.48	43826.53
569.64	44421.03
569.81	44362.51
569.97	43618.22
570.13	43957.60
570.30	43765.68
570.46	43655.67
570.62	43976.33
570.78	43810.15
570.95	43990.37
571.11	44004.41
571.27	43938.88
571.43	44027.82
571.60	44201.02
571.76	44154.21
571.92	43707.16
572.09	43957.60
572.25	43662.69
572.41	43861.64
572.57	44292.30
572.74	44339.11
572.90	44718.28
573.06	43985.69
573.22	44224.42
573.38	43957.60
573.55	43796.10
573.71	44486.56
573.87	44421.03
574.03	43999.73
574.20	43948.24
574.36	44149.53
574.52	43999.73
574.68	44325.07
574.84	44486.56
575.01	44528.69
575.17	44048.88
575.33	43938.88
575.49	44411.67
575.65	44587.21
575.82	44402.30
575.98	44369.54
576.14	44949.99
576.30	44182.29
576.46	44610.61
576.62	44273.57
576.79	44184.63
576.95	43845.26
577.11	44357.83
577.27	43693.12
577.43	44135.48
577.59	44612.95
577.75	44481.88
577.92	44128.46
578.08	44018.46
578.24	44308.68
578.40	43962.28
578.56	44229.10
578.72	44404.64
578.88	44540.39
579.04	44767.43
579.21	43807.81
579.37	44212.72
579.53	44177.61
579.69	43952.92
579.85	44561.46
580.01	44493.58
580.17	44779.13
580.33	44425.71
580.49	44699.55
580.65	44687.85
580.82	44699.55
580.98	44079.31
581.14	44287.62
581.30	44903.18
581.46	43938.88
581.62	44566.14
581.78	44367.20
581.94	44994.46
582.10	44442.09
582.26	44392.94
582.42	44797.85
582.58	43920.15
582.74	44252.51
582.90	44243.15
583.06	44479.54
583.22	44432.73
583.38	45144.25
583.54	44474.86
583.70	44479.54
583.86	43997.39
584.02	44091.01
584.18	44404.64
584.34	44549.76
584.50	44765.09
584.66	44587.21
584.82	44163.57
584.98	44580.18
585.14	44989.78
585.30	44540.39
585.46	44208.04
585.62	44308.68
585.78	44334.43
585.94	44456.14
586.10	44332.09
586.26	44175.27
586.42	44128.46
586.58	44596.57
586.74	44250.17
586.90	44301.66
587.06	44032.50
587.22	44559.12
587.38	44708.91
587.54	45102.12
587.70	45067.02
587.86	44655.08
588.02	44795.51
588.18	44671.46
588.34	44800.19
588.49	44257.19
588.65	44027.82
588.81	44507.63
588.97	44292.30
589.13	44016.11
589.29	44390.60
589.45	44786.15
589.61	44732.32
589.77	44666.78
589.93	45020.20
590.08	45050.63
590.24	44795.51
590.40	44921.90
