SpectraSuite Data File
++++++++++++++++++++++++++++++++++++
Date: Fri Oct 25 11:26:39 EDT 2013
User: price-jones
Dark Spectrum Present: No
Reference Spectrum Present: No
Number of Sampled Component Spectra: 1
Spectrometers: USB2+H05261
Integration Time (usec): 100000 (USB2+H05261)
Spectra Averaged: 1 (USB2+H05261)
Boxcar Smoothing: 0 (USB2+H05261)
Correct for Electrical Dark: No (USB2+H05261)
Strobe/Lamp Enabled: No (USB2+H05261)
Correct for Detector Non-linearity: No (USB2+H05261)
Correct for Stray Light: No (USB2+H05261)
Number of Pixels in Processed Spectrum: 2048
>>>>>Begin Processed Spectral Data<<<<<
365.73	245.76
365.92	245.76
366.12	245.76
366.32	182.56
366.52	102.98
366.72	159.16
366.91	135.75
367.11	58.51
367.31	100.64
367.51	119.37
367.70	168.52
367.90	107.66
368.10	203.63
368.30	135.75
368.49	212.99
368.69	245.76
368.89	191.92
369.09	173.20
369.28	142.77
369.48	236.39
369.68	177.88
369.87	163.84
370.07	182.56
370.27	210.65
370.47	341.72
370.66	601.52
370.86	683.44
371.06	669.39
371.25	645.99
371.45	699.82
371.65	671.73
371.84	627.26
372.04	711.52
372.24	737.27
372.44	730.25
372.63	688.12
372.83	723.23
373.03	828.55
373.22	758.33
373.42	819.19
373.62	877.70
373.81	814.51
374.01	821.53
374.21	751.31
374.40	779.40
374.60	915.15
374.79	800.46
374.99	819.19
375.19	788.76
375.38	823.87
375.58	887.06
375.78	863.66
375.97	858.98
376.17	908.13
376.37	861.32
376.56	896.43
376.76	837.91
376.95	863.66
377.15	973.66
377.35	891.74
377.54	936.21
377.74	854.30
377.93	936.21
378.13	964.30
378.33	971.32
378.52	912.81
378.72	959.62
378.91	990.05
379.11	873.02
379.31	919.83
379.50	947.92
379.70	980.68
379.89	999.41
380.09	952.60
380.28	999.41
380.48	1029.84
380.68	1025.15
380.87	922.17
381.07	1015.79
381.26	976.00
381.46	999.41
381.65	994.73
381.85	1034.52
382.04	1090.69
382.24	1048.56
382.43	1064.94
382.63	976.00
382.83	1090.69
383.02	1114.10
383.22	1076.65
383.41	1123.46
383.61	1121.12
383.80	1160.91
384.00	1146.86
384.19	1186.65
384.39	1116.44
384.58	1149.20
384.78	1205.38
384.97	1078.99
385.17	1055.58
385.36	1149.20
385.56	1224.10
385.75	1163.25
385.95	1306.02
386.14	1219.42
386.34	1224.10
386.53	1163.25
386.72	1158.57
386.92	1224.10
387.11	1289.64
387.31	1289.64
387.50	1268.57
387.70	1338.79
387.89	1217.08
388.09	1308.36
388.28	1308.36
388.48	1315.38
388.67	1329.42
388.86	1380.92
389.06	1308.36
389.25	1350.49
389.45	1355.17
389.64	1348.15
389.84	1425.39
390.03	1420.71
390.22	1451.13
390.42	1418.36
390.61	1322.40
390.81	1364.53
391.00	1481.56
391.19	1446.45
391.39	1533.05
391.58	1493.26
391.78	1413.68
391.97	1488.58
392.16	1521.35
392.36	1556.46
392.55	1542.41
392.75	1593.90
392.94	1460.49
393.13	1507.30
393.33	1579.86
393.52	1605.61
393.71	1556.46
393.91	1659.44
394.10	1610.29
394.29	1666.46
394.49	1607.95
394.68	1624.33
394.88	1448.79
395.07	1671.14
395.26	1619.65
395.46	1696.89
395.65	1739.02
395.84	1701.57
396.04	1771.79
396.23	1762.42
396.42	1734.34
396.62	1741.36
396.81	1839.66
397.00	1825.62
397.19	1816.26
397.39	1788.17
397.58	1792.85
397.77	1935.62
397.97	1928.60
398.16	1865.41
398.35	1858.39
398.55	1923.92
398.74	1870.09
398.93	2010.52
399.12	1961.37
399.32	1923.92
399.51	1884.13
399.70	1998.82
399.90	1905.20
400.09	2118.18
400.28	2038.61
400.47	2054.99
400.67	2092.44
400.86	2136.91
401.05	2064.35
401.24	2052.65
401.44	2071.37
401.63	2125.21
401.82	2157.97
402.01	2249.25
402.21	2221.17
402.40	2150.95
402.59	2150.95
402.78	2097.12
402.97	2195.42
403.17	2286.70
403.36	2293.72
403.55	2174.36
403.74	2492.67
403.93	2436.50
404.13	2307.77
404.32	2394.37
404.51	2424.80
404.70	2518.42
404.89	2551.18
405.09	2546.50
405.28	2438.84
405.47	2469.27
405.66	2502.03
405.85	2495.01
406.05	2537.14
406.24	2654.17
406.43	2480.97
406.62	2719.70
406.81	2754.81
407.00	2579.27
407.20	2686.94
407.39	2656.51
407.58	2752.47
407.77	2733.75
407.96	2708.00
408.15	2822.69
408.34	2813.32
408.54	2867.16
408.73	2771.19
408.92	2848.43
409.11	2883.54
409.30	2806.30
409.49	2862.48
409.68	2935.03
409.87	2897.58
410.07	3019.29
410.26	2972.48
410.45	3023.97
410.64	3084.83
410.83	3131.64
411.02	3148.02
411.21	3265.05
411.40	3059.08
411.59	3262.71
411.78	3208.87
411.98	3262.71
412.17	3178.45
412.36	3393.78
412.55	3318.88
412.74	3335.26
412.93	3531.87
413.12	3258.03
413.31	3555.27
413.50	3555.27
413.69	3463.99
413.88	3613.79
414.07	3613.79
414.26	3702.73
414.45	3719.11
414.64	3660.60
414.83	3695.71
415.02	3878.27
415.22	3953.16
415.41	4077.21
415.60	3875.93
415.79	3819.75
415.98	3852.52
416.17	4142.75
416.36	4025.72
416.55	4166.15
416.74	4025.72
416.93	4112.32
417.12	4149.77
417.31	4180.20
417.50	4180.20
417.69	4325.31
417.88	4327.65
418.07	4322.97
418.26	4271.48
418.45	4430.63
418.64	4376.80
418.83	4423.61
419.02	4430.63
419.21	4475.10
419.39	4594.47
419.58	4416.59
419.77	4514.89
419.96	4608.51
420.15	4711.50
420.34	4681.07
420.53	4575.75
420.72	4723.20
420.91	4706.82
421.10	4648.30
421.29	4863.63
421.48	4676.39
421.67	4709.16
421.86	4762.99
422.05	4971.30
422.24	4741.93
422.43	4983.00
422.61	4863.63
422.80	4896.40
422.99	4947.89
423.18	5097.69
423.37	5048.54
423.56	4983.00
423.75	4985.34
423.94	4901.08
424.13	4622.56
424.32	4643.62
424.50	4975.98
424.69	5139.82
424.88	5027.47
425.07	5013.43
425.26	5097.69
425.45	4919.81
425.64	5055.56
425.83	4908.10
426.01	5025.13
426.20	5132.79
426.39	5011.09
426.58	5060.24
426.77	5109.39
426.96	5193.65
427.15	5088.32
427.33	5107.05
427.52	5172.58
427.71	5247.48
427.90	5327.06
428.09	5376.21
428.28	5284.93
428.46	5226.42
428.65	5460.47
428.84	5462.81
429.03	5441.75
429.22	5413.66
429.40	5483.88
429.59	5504.94
429.78	5535.37
429.97	5245.14
430.16	5472.17
430.34	5530.69
430.53	5722.61
430.72	5750.70
430.91	5621.97
431.10	5479.19
431.28	5827.93
431.47	5792.83
431.66	5937.94
431.85	5813.89
432.03	5909.85
432.22	6050.28
432.41	5951.98
432.60	6083.05
432.79	5926.24
432.97	5959.00
433.16	6090.07
433.35	5935.60
433.54	6017.52
433.72	6134.54
433.91	6033.90
434.10	6148.59
434.28	6291.36
434.47	6296.04
434.66	6349.87
434.85	6399.02
435.03	6335.83
435.22	6289.02
435.41	6464.56
435.59	6448.18
435.78	6429.45
435.97	6422.43
436.16	6427.11
436.34	6384.98
436.53	6459.88
436.72	6602.65
436.90	6619.04
437.09	6698.61
437.28	6691.59
437.46	6602.65
437.65	6747.76
437.84	6906.92
438.02	6848.41
438.21	6883.52
438.40	6715.00
438.58	6942.03
438.77	7047.35
438.96	7033.31
439.14	7059.06
439.33	7164.38
439.52	7059.06
439.70	7243.96
439.89	7201.83
440.08	7557.59
440.26	7487.37
440.45	7447.58
440.63	7576.31
440.82	7712.07
441.01	7637.17
441.19	7784.62
441.38	7892.29
441.57	7737.81
441.75	7765.90
441.94	8079.53
442.12	7988.25
442.31	8339.33
442.50	7932.08
442.68	8100.59
442.87	7955.48
443.05	8168.47
443.24	8184.85
443.43	8194.22
443.61	8138.04
443.80	8439.97
443.98	8077.19
444.17	7929.74
444.35	8159.11
444.54	8582.74
444.73	8292.52
444.91	8372.10
445.10	8390.82
445.28	8257.41
445.47	8276.13
445.65	8336.99
445.84	8519.55
446.02	8416.57
446.21	8407.20
446.39	8322.94
446.58	8505.51
446.77	8517.21
446.95	8166.13
447.14	8444.65
447.32	8695.09
447.51	8456.36
447.69	8582.74
447.88	8486.78
448.06	8624.87
448.25	8587.43
448.43	8711.47
448.62	8599.13
448.80	8699.77
448.99	8723.18
449.17	8854.25
449.36	8847.22
449.54	8887.01
449.73	8957.23
449.91	9118.73
450.10	9013.40
450.28	9172.56
450.46	9144.47
450.65	8994.68
450.83	9055.53
451.02	9186.60
451.20	9268.52
451.39	9252.14
451.57	9165.54
451.76	9259.16
451.94	9228.73
452.13	9366.82
452.31	9338.74
452.49	9233.41
452.68	9191.28
452.86	9294.27
453.05	9441.72
453.23	9570.45
453.42	9366.82
453.60	9554.07
453.78	9626.62
453.97	9296.61
454.15	9469.81
454.34	9706.20
454.52	9736.63
454.70	9577.47
454.89	9762.37
455.07	9764.72
455.26	9785.78
455.44	10047.92
455.62	9930.89
455.81	9886.42
455.99	10171.97
456.17	10118.14
456.36	10186.01
456.54	10176.65
456.73	10317.08
456.91	10588.58
457.09	10590.92
457.28	10368.57
457.46	10448.15
457.64	10485.60
457.83	10494.96
458.01	10296.02
458.19	10677.52
458.38	10574.54
458.56	10796.89
458.74	10782.85
458.93	10766.46
459.11	10799.23
459.29	10752.42
459.48	10860.09
459.66	10611.99
459.84	10778.17
460.03	10958.39
460.21	10883.49
460.39	10862.43
460.57	10874.13
460.76	11052.01
460.94	11162.01
461.12	11351.60
461.31	11080.10
461.49	11061.37
461.67	11173.72
461.85	11604.38
462.04	11494.37
462.22	11723.74
462.40	11796.30
462.59	11449.90
462.77	11496.71
462.95	11662.89
463.13	11412.45
463.32	11527.14
463.50	11536.50
463.68	11983.54
463.86	12025.67
464.05	11833.75
464.23	11578.63
464.41	12018.65
464.59	11433.52
464.78	11990.56
464.96	12205.89
465.14	11922.69
465.32	12145.04
465.50	12098.23
465.69	12343.99
465.87	12123.98
466.05	12191.85
466.23	12006.95
466.41	12217.60
466.60	12578.04
466.78	12210.57
466.96	12301.86
467.14	12423.56
467.32	12053.76
467.51	12599.10
467.69	12297.17
467.87	12638.89
468.05	12629.53
468.23	12545.27
468.41	12505.48
468.60	12769.96
468.78	12737.20
468.96	12484.42
469.14	12964.23
469.32	13032.10
469.50	12603.78
469.69	13224.03
469.87	13153.81
470.05	13184.24
470.23	13209.98
470.41	13266.16
470.59	13572.77
470.77	13231.05
470.95	13516.59
471.14	13612.56
471.32	13411.27
471.50	13727.24
471.68	13811.50
471.86	13441.70
472.04	14036.19
472.22	14270.25
472.40	13788.10
472.58	14291.31
472.77	14420.04
472.95	14216.41
473.13	14555.79
473.31	14001.08
473.49	14326.42
473.67	14274.93
473.85	14413.02
474.03	14721.97
474.21	14658.78
474.39	14738.35
474.57	14721.97
474.75	14986.45
474.93	14949.00
475.12	14953.68
475.30	15051.99
475.48	14972.41
475.66	15276.68
475.84	15108.16
476.02	15304.76
476.20	15421.79
476.38	15360.94
476.56	15920.32
476.74	16147.36
476.92	15920.32
477.10	15873.51
477.28	16453.97
477.46	16372.05
477.64	16652.91
477.82	16535.88
478.00	16926.75
478.18	16919.73
478.36	16854.20
478.54	17179.53
478.72	17371.46
478.90	17481.46
479.08	17830.20
479.26	17762.33
479.44	17937.87
479.62	17921.48
479.80	18324.05
479.98	18490.23
480.16	18567.47
480.34	18052.55
480.52	18740.67
480.70	18972.38
480.88	18377.89
481.06	18792.16
481.24	18682.16
481.41	19700.29
481.59	19323.46
481.77	19372.61
481.95	19770.51
482.13	19812.63
482.31	19861.79
482.49	20149.67
482.67	20292.44
482.85	20393.09
483.03	20847.15
483.21	20814.38
483.39	21113.97
483.57	21184.19
483.74	21331.64
483.92	21245.04
484.10	21490.80
484.28	21675.70
484.46	21949.54
484.64	22317.01
484.82	21989.33
485.00	22518.29
485.18	22731.28
485.35	23096.41
485.53	23201.73
485.71	23295.35
485.89	23669.84
486.07	23351.52
486.25	23522.38
486.43	23548.13
486.61	24009.22
486.78	24093.47
486.96	24372.00
487.14	25113.95
487.32	24704.35
487.50	25163.10
487.68	25294.17
487.85	25535.24
488.03	25696.74
488.21	25830.15
488.39	25902.71
488.57	26125.06
488.75	26087.61
488.92	26307.62
489.10	26654.02
489.28	26485.50
489.46	27159.58
489.64	27438.10
489.81	27941.32
489.99	27316.39
490.17	27817.27
490.35	28013.87
490.53	28362.61
490.70	28528.79
490.88	28374.31
491.06	28788.59
491.24	28814.34
491.41	28833.06
491.59	29394.79
491.77	29291.80
491.95	29369.04
492.13	29825.45
492.30	30359.09
492.48	29890.98
492.66	30661.02
492.84	30623.57
493.01	30808.47
493.19	30810.81
493.37	31136.15
493.54	31108.06
493.72	31763.41
493.90	31604.25
494.08	31922.57
494.25	31749.37
494.43	32130.87
494.61	32098.11
494.79	32477.27
494.96	32849.42
495.14	32982.83
495.32	33118.58
495.49	33151.35
495.67	33153.69
495.85	33659.24
496.02	34094.58
496.20	34293.53
496.38	34113.31
496.55	34426.94
496.73	34890.37
496.91	34906.75
497.09	34515.88
497.26	35306.98
497.44	34972.28
497.62	35274.21
497.79	35938.93
497.97	35803.17
498.14	35981.06
498.32	35887.43
498.50	36004.46
498.67	36910.25
498.85	36470.23
499.03	36744.07
499.20	37003.87
499.38	36629.38
499.56	36879.82
499.73	37432.19
499.91	37434.53
500.08	37727.10
500.26	37481.34
500.44	37846.46
500.61	37879.23
500.79	37876.89
500.97	38373.08
501.14	39002.69
501.32	38565.01
501.49	38581.39
501.67	38600.12
501.84	39096.31
502.02	38979.28
502.20	39215.68
502.37	39517.60
502.55	39290.57
502.72	39838.26
502.90	39817.19
503.07	40163.59
503.25	40086.36
503.43	39665.06
503.60	40381.26
503.78	40456.16
503.95	40133.17
504.13	40542.76
504.30	40987.46
504.48	40664.47
504.65	41055.34
504.83	41212.15
505.01	41366.63
505.18	41256.62
505.36	41663.88
505.53	41439.18
505.71	41698.98
505.88	41642.81
506.06	41680.26
506.23	41799.63
506.41	41715.37
506.58	42089.85
506.76	41961.12
506.93	42988.62
507.11	42672.65
507.28	42857.55
507.46	42663.28
507.63	42588.39
507.81	43695.46
507.98	42988.62
508.16	43374.81
508.33	43552.69
508.50	43873.34
508.68	43828.87
508.85	44170.59
509.03	43854.62
509.20	44264.21
509.38	44655.08
509.55	44381.24
509.73	44488.90
509.90	44814.24
510.08	44748.70
510.25	44542.74
510.42	44959.35
510.60	45146.59
510.77	45443.84
510.95	45553.85
511.12	45441.50
511.30	44966.37
511.47	45862.80
511.64	45642.79
511.82	45949.40
511.99	45869.82
512.17	45977.48
512.34	45989.19
512.51	46265.37
512.69	46515.81
512.86	46696.03
513.04	46923.06
513.21	46625.81
513.38	46930.08
513.56	47189.88
513.73	47173.50
513.90	47063.49
514.08	46845.82
514.25	47264.78
514.43	47618.20
514.60	47428.62
514.77	47402.87
514.95	47983.32
515.12	47440.32
515.29	47688.42
515.47	48189.29
515.64	48479.52
515.81	47828.85
515.99	48067.58
516.16	48701.87
516.33	48652.72
516.51	48694.85
516.68	48474.84
516.85	48626.97
517.03	48624.63
517.20	48966.35
517.37	49160.61
517.54	49111.46
517.72	48851.66
517.89	49420.41
518.06	49378.28
518.24	48875.07
518.41	49244.87
518.58	49382.96
518.75	49698.94
518.93	49743.41
519.10	49689.57
519.27	49932.99
519.45	49563.18
519.62	50167.04
519.79	50260.66
519.96	49998.52
520.14	50433.86
520.31	50080.44
520.48	50504.08
520.65	50387.05
520.83	50773.24
521.00	50534.51
521.17	50784.94
521.34	50745.15
521.52	51049.42
521.69	50747.50
521.86	51051.76
522.03	51267.09
522.20	51288.16
522.38	51676.69
522.55	51180.49
522.72	51440.29
522.89	51337.31
523.07	51908.40
523.24	51805.42
523.41	51585.41
523.58	51667.33
523.75	52273.52
523.92	52037.13
524.10	52058.20
524.27	52156.50
524.44	52243.10
524.61	52222.03
524.78	52495.88
524.96	52142.45
525.13	52484.17
525.30	52364.81
525.47	52739.29
525.64	52708.86
525.81	52842.27
525.98	52479.49
526.16	52629.29
526.33	52821.21
526.50	52921.85
526.67	52809.51
526.84	53010.79
527.01	53020.16
527.18	52900.79
527.36	53186.33
527.53	53207.40
527.70	53764.45
527.87	53593.59
528.04	53132.50
528.21	53771.47
528.38	53436.77
528.55	53944.67
528.72	53591.25
528.89	53464.86
529.07	53471.88
529.24	53478.90
529.41	53890.83
529.58	53666.14
529.75	53609.97
529.92	53935.30
530.09	53757.42
530.26	54010.20
530.43	54080.42
530.60	53979.78
530.77	54047.65
530.94	54160.00
531.11	53944.67
531.28	54227.87
531.46	54527.46
531.63	54349.58
531.80	54258.30
531.97	54581.29
532.14	54461.93
532.31	54541.50
532.48	54808.32
532.65	54782.58
532.82	54841.09
532.99	54637.47
533.16	54553.21
533.33	55023.65
533.50	55023.65
533.67	54827.05
533.84	54831.73
534.01	55068.12
534.18	54967.48
534.35	55320.90
534.52	55093.87
534.69	55334.95
534.86	55332.60
535.03	54899.61
535.20	55033.02
535.37	55318.56
535.54	55341.97
535.71	55540.91
535.88	55618.15
536.05	55524.53
536.22	55437.93
536.38	55686.03
536.55	55688.37
536.72	55700.07
536.89	55458.99
537.06	55882.63
537.23	55697.73
537.40	55791.35
537.57	55966.89
537.74	55917.74
537.91	55887.31
538.08	55889.65
538.25	55840.50
538.42	55929.44
538.59	56112.00
538.75	55800.71
538.92	56170.52
539.09	56388.19
539.26	56261.80
539.43	56032.42
539.60	56310.95
539.77	56423.29
539.94	56486.49
540.11	56397.55
540.28	56350.74
540.44	56816.50
540.61	56474.79
540.78	56582.45
540.95	56624.58
541.12	56310.95
541.29	56598.83
541.46	56790.76
541.62	56882.04
541.79	56568.41
541.96	56610.54
542.13	56552.02
542.30	56835.23
542.47	57017.79
542.63	56823.53
542.80	56835.23
542.97	57155.88
543.14	57415.68
543.31	57279.93
543.48	57443.77
543.64	57411.00
543.81	57350.15
543.98	57411.00
544.15	57546.75
544.32	57495.26
544.48	57631.01
544.65	57329.08
544.82	57504.62
544.99	57190.99
545.16	57586.54
545.32	57572.50
545.49	57710.59
545.66	57841.66
545.83	57708.25
546.00	57900.17
546.16	58031.24
546.33	57621.65
546.50	57708.25
546.67	57860.38
546.83	57415.68
547.00	58019.54
547.17	57925.92
547.34	58049.97
547.50	58171.67
547.67	58169.33
547.84	58024.22
548.00	58094.44
548.17	58269.98
548.34	58101.46
548.51	58178.70
548.67	58164.65
548.84	58019.54
549.01	58342.53
549.18	58099.12
549.34	58370.62
549.51	58471.26
549.68	58209.12
549.84	58349.56
550.01	58354.24
550.18	58459.56
550.34	58543.82
550.51	58305.09
550.68	58731.06
550.84	58267.64
551.01	58438.50
551.18	58660.85
551.34	58623.40
551.51	58630.42
551.68	58681.91
551.84	58695.95
552.01	58798.94
552.18	58763.83
552.34	58473.60
552.51	58735.74
552.68	58604.67
552.84	58820.00
553.01	58794.26
553.18	58920.65
553.34	59140.66
553.51	58756.81
553.67	58951.07
553.84	59049.38
554.01	59264.70
554.17	58885.54
554.34	59309.18
554.51	59014.27
554.67	58962.78
554.84	58995.54
555.00	58958.09
555.17	59157.04
555.33	59131.29
555.50	59058.74
555.67	59082.14
555.83	59089.16
556.00	59007.25
556.16	59320.88
556.33	59334.92
556.50	59274.07
556.66	59437.90
556.83	59192.15
556.99	59430.88
557.16	59821.75
557.32	59583.02
557.49	59580.68
557.65	59458.97
557.82	59430.88
557.98	59487.06
558.15	59519.82
558.32	59592.38
558.48	59501.10
558.65	59660.26
558.81	59639.19
558.98	59473.01
559.14	59730.47
559.31	59664.94
559.47	59770.26
559.64	59742.17
559.80	59927.08
559.97	59920.05
560.13	59739.83
560.30	59686.00
560.46	59732.81
560.63	59814.73
560.79	59868.56
560.96	60013.68
561.12	60046.44
561.29	59781.96
561.45	60006.65
561.61	59796.01
561.78	60009.00
561.94	59786.64
562.11	59990.27
562.27	60067.51
562.44	60039.42
562.60	60074.53
562.77	60147.09
562.93	59908.35
563.10	60102.62
563.26	59901.33
563.42	60250.07
563.59	60196.24
563.75	59999.63
563.92	60133.04
564.08	60051.12
564.24	60172.83
564.41	60154.11
564.57	60170.49
564.74	60266.45
564.90	60133.04
565.07	60163.47
565.23	60317.95
565.39	60102.62
565.56	60151.77
565.72	60243.05
565.88	60334.33
566.05	60317.95
566.21	60306.24
566.38	60156.45
566.54	60315.61
566.70	60472.42
566.87	60449.02
567.03	60320.29
567.19	60484.12
567.36	60240.71
567.52	60509.87
567.68	60647.96
567.85	60296.88
568.01	60491.15
568.17	60388.16
568.34	60467.74
568.50	60210.28
568.66	60331.99
568.83	60451.36
568.99	60313.26
569.15	60343.69
569.32	60458.38
569.48	60477.10
569.64	60687.75
569.81	60348.37
569.97	60388.16
570.13	60605.83
570.30	60289.86
570.46	60399.86
570.62	60584.77
570.78	60484.12
570.95	60589.45
571.11	60629.24
571.27	60355.39
571.43	60523.91
571.60	60734.56
571.76	60418.59
571.92	60701.79
572.09	60594.13
572.25	60559.02
572.41	60790.73
572.57	60669.03
572.74	60858.61
572.90	60488.80
573.06	60739.24
573.22	60753.29
573.38	60640.94
573.55	60832.86
573.71	60872.65
573.87	60856.27
574.03	60701.79
574.20	60818.82
574.36	60626.90
574.52	60753.29
574.68	60732.22
574.84	60893.72
575.01	60842.23
575.17	60692.43
575.33	60554.34
575.49	60903.08
575.65	60722.86
575.82	60853.93
575.98	60956.91
576.14	60720.52
576.30	60809.46
576.46	60832.86
576.62	60886.70
576.79	60654.98
576.95	60732.22
577.11	60690.09
577.27	60647.96
577.43	60980.32
577.59	60610.51
577.75	60886.70
577.92	60676.05
578.08	60772.01
578.24	60842.23
578.40	61038.83
578.56	61003.72
578.72	60938.19
578.88	60970.96
579.04	61092.66
579.21	60912.44
579.37	61022.45
579.53	60954.57
579.69	60671.37
579.85	60821.16
580.01	60867.97
580.17	60811.80
580.33	61181.60
580.49	60989.68
580.65	61109.05
580.82	60797.76
580.98	60907.76
581.14	60807.12
581.30	60968.61
581.46	61106.71
581.62	61069.26
581.78	60891.38
581.94	61106.71
582.10	61013.08
582.26	60963.93
582.42	60940.53
582.58	61080.96
582.74	61104.37
582.90	60945.21
583.06	60996.70
583.22	60739.24
583.38	61209.69
583.54	61001.38
583.70	61099.68
583.86	61134.79
584.02	61022.45
584.18	61167.56
584.34	61013.08
584.50	60968.61
584.66	60882.02
584.82	60821.16
584.98	60999.04
585.14	61066.92
585.30	61062.24
585.46	61064.58
585.62	61055.21
585.78	61263.52
585.94	61001.38
586.10	60926.49
586.26	61265.86
586.42	61195.65
586.58	61113.73
586.74	61076.28
586.90	61055.21
587.06	61188.63
587.22	61293.95
587.38	61048.19
587.54	61371.19
587.70	61169.90
587.86	61169.90
588.02	61394.59
588.18	61251.82
588.34	61038.83
588.49	61190.97
