SpectraSuite Data File
++++++++++++++++++++++++++++++++++++
Date: Fri Oct 25 10:48:26 EDT 2013
User: price-jones
Dark Spectrum Present: No
Reference Spectrum Present: No
Number of Sampled Component Spectra: 1
Spectrometers: USB2+H05261
Integration Time (usec): 100000 (USB2+H05261)
Spectra Averaged: 1 (USB2+H05261)
Boxcar Smoothing: 0 (USB2+H05261)
Correct for Electrical Dark: No (USB2+H05261)
Strobe/Lamp Enabled: No (USB2+H05261)
Correct for Detector Non-linearity: No (USB2+H05261)
Correct for Stray Light: No (USB2+H05261)
Number of Pixels in Processed Spectrum: 2048
>>>>>Begin Processed Spectral Data<<<<<
365.73	121.71
365.92	121.71
366.12	121.71
366.32	114.69
366.52	70.22
366.72	81.92
366.91	0.00
367.11	0.00
367.31	53.83
367.51	79.58
367.70	65.54
367.90	32.77
368.10	124.05
368.30	49.15
368.49	0.00
368.69	81.92
368.89	107.66
369.09	93.62
369.28	63.19
369.48	46.81
369.68	74.90
369.87	93.62
370.07	77.24
370.27	196.60
370.47	215.33
370.66	353.42
370.86	559.39
371.06	454.06
371.25	505.56
371.45	468.11
371.65	456.40
371.84	505.56
372.04	545.34
372.24	496.19
372.44	493.85
372.63	557.05
372.83	557.05
373.03	503.22
373.22	538.32
373.42	484.49
373.62	528.96
373.81	578.11
374.01	648.33
374.21	617.90
374.40	594.50
374.60	653.01
374.79	564.07
374.99	557.05
375.19	631.94
375.38	550.03
375.58	552.37
375.78	617.90
375.97	620.24
376.17	674.07
376.37	629.60
376.56	624.92
376.76	613.22
376.95	655.35
377.15	676.41
377.35	617.90
377.54	608.54
377.74	617.90
377.93	594.50
378.13	688.12
378.33	795.78
378.52	645.99
378.72	645.99
378.91	631.94
379.11	669.39
379.31	627.26
379.50	692.80
379.70	650.67
379.89	671.73
380.09	592.16
380.28	744.29
380.48	734.93
380.68	732.59
380.87	664.71
381.07	737.27
381.26	760.67
381.46	739.61
381.65	690.46
381.85	704.50
382.04	716.20
382.24	786.42
382.43	688.12
382.63	669.39
382.83	634.29
383.02	683.44
383.22	791.10
383.41	737.27
383.61	791.10
383.80	795.78
384.00	802.80
384.19	765.36
384.39	805.14
384.58	725.57
384.78	786.42
384.97	882.38
385.17	866.00
385.36	800.46
385.56	753.65
385.75	688.12
385.95	739.61
386.14	823.87
386.34	809.83
386.53	861.32
386.72	784.08
386.92	826.21
387.11	994.73
387.31	901.11
387.50	915.15
387.70	903.45
387.89	849.61
388.09	894.08
388.28	833.23
388.48	866.00
388.67	985.37
388.86	968.98
389.06	866.00
389.25	997.07
389.45	952.60
389.64	908.13
389.84	896.43
390.03	924.51
390.22	994.73
390.42	1043.88
390.61	1001.75
390.81	1029.84
391.00	1064.94
391.19	1090.69
391.39	966.64
391.58	1013.45
391.78	1015.79
391.97	1015.79
392.16	971.32
392.36	1088.35
392.55	1020.47
392.75	1036.86
392.94	936.21
393.13	1018.13
393.33	987.71
393.52	924.51
393.71	1102.39
393.91	1156.22
394.10	1165.59
394.29	1170.27
394.49	1100.05
394.68	1188.99
394.88	1128.14
395.07	1226.44
395.26	1224.10
395.46	1263.89
395.65	1249.85
395.84	1172.61
396.04	1268.57
396.23	1144.52
396.42	1125.80
396.62	1217.08
396.81	1252.19
397.00	1282.61
397.19	1315.38
397.39	1303.68
397.58	1406.66
397.77	1383.26
397.97	1327.08
398.16	1432.41
398.35	1376.24
398.55	1327.08
398.74	1397.30
398.93	1514.33
399.12	1455.81
399.32	1406.66
399.51	1476.88
399.70	1554.12
399.90	1483.90
400.09	1493.26
400.28	1455.81
400.47	1514.33
400.67	1694.55
400.86	1528.37
401.05	1633.69
401.24	1631.35
401.44	1650.08
401.63	1640.72
401.82	1586.88
402.01	1666.46
402.21	1678.16
402.40	1743.70
402.59	1661.78
402.78	1722.63
402.97	1678.16
403.17	1762.42
403.36	1760.08
403.55	1664.12
403.74	1851.36
403.93	1827.96
404.13	1804.55
404.32	1823.28
404.51	1743.70
404.70	1811.57
404.89	1750.72
405.09	1863.07
405.28	1884.13
405.47	1792.85
405.66	1916.90
405.85	1895.83
406.05	1935.62
406.24	1923.92
406.43	1984.77
406.62	2038.61
406.81	1961.37
407.00	1998.82
407.20	1888.81
407.39	2026.90
407.58	2073.71
407.77	2054.99
407.96	2019.88
408.15	2270.32
408.34	2174.36
408.54	2230.53
408.73	2031.58
408.92	2186.06
409.11	2317.13
409.30	2214.15
409.49	2125.21
409.68	2143.93
409.87	2136.91
410.07	2237.55
410.26	2179.04
410.45	2312.45
410.64	2389.69
410.83	2490.33
411.02	2317.13
411.21	2647.15
411.40	2504.37
411.59	2574.59
411.78	2651.83
411.98	2513.74
412.17	2485.65
412.36	2548.84
412.55	2597.99
412.74	2621.40
412.93	2719.70
413.12	2621.40
413.31	2710.34
413.50	2801.62
413.69	2686.94
413.88	2827.37
414.07	2911.63
414.26	2818.00
414.45	2867.16
414.64	2890.56
414.83	2892.90
415.02	2925.67
415.22	2939.71
415.41	2993.55
415.60	2913.97
415.79	2977.16
415.98	3133.98
416.17	3075.46
416.36	3166.74
416.55	3208.87
416.74	3218.24
416.93	3145.68
417.12	3056.74
417.31	3152.70
417.50	3213.56
417.69	3337.60
417.88	3288.45
418.07	3304.84
418.26	3269.73
418.45	3346.97
418.64	3407.82
418.83	3386.76
419.02	3433.57
419.21	3426.54
419.39	3405.48
419.58	3239.30
419.77	3419.52
419.96	3641.87
420.15	3691.02
420.34	3538.89
420.53	3574.00
420.72	3606.77
420.91	3714.43
421.10	3574.00
421.29	3765.92
421.48	3691.02
421.67	3679.32
421.86	3620.81
422.05	3611.45
422.24	3700.39
422.43	3707.41
422.61	3641.87
422.80	3733.15
422.99	3871.25
423.18	3805.71
423.37	3885.29
423.56	3796.35
423.75	3775.28
423.94	3782.31
424.13	3574.00
424.32	3681.66
424.50	3857.20
424.69	3826.78
424.88	4074.87
425.07	3866.56
425.26	3630.17
425.45	3634.85
425.64	3946.14
425.83	3833.80
426.01	3964.87
426.20	3857.20
426.39	3838.48
426.58	3857.20
426.77	3826.78
426.96	3833.80
427.15	3772.94
427.33	3794.01
427.52	3976.57
427.71	3988.27
427.90	4007.00
428.09	3964.87
428.28	4081.89
428.46	4070.19
428.65	4018.70
428.84	4081.89
429.03	4236.37
429.22	3941.46
429.40	4138.07
429.59	3964.87
429.78	3957.85
429.97	3936.78
430.16	3868.91
430.34	4053.81
430.53	4100.62
430.72	4234.03
430.91	4161.47
431.10	4259.78
431.28	4388.50
431.47	4573.41
431.66	4465.74
431.85	4365.10
432.03	4568.73
432.22	4535.96
432.41	4404.89
432.60	4657.67
432.79	4589.79
432.97	4533.62
433.16	4564.04
433.35	4641.28
433.54	4650.64
433.72	4603.83
433.91	4667.03
434.10	4685.75
434.28	4575.75
434.47	4648.30
434.66	4901.08
434.85	4856.61
435.03	4718.52
435.22	4784.06
435.41	4947.89
435.59	4901.08
435.78	4837.89
435.97	4847.25
436.16	4973.64
436.34	5018.11
436.53	4950.23
436.72	4980.66
436.90	4882.36
437.09	5053.22
437.28	4849.59
437.46	5008.75
437.65	4924.49
437.84	5046.20
438.02	5125.77
438.21	4980.66
438.40	4940.87
438.58	5270.89
438.77	5465.15
438.96	5212.37
439.14	5408.98
439.33	5439.40
439.52	5446.43
439.70	5341.10
439.89	5652.39
440.08	5465.15
440.26	5472.17
440.45	5528.35
440.63	5774.10
440.82	5687.50
441.01	5790.49
441.19	5624.31
441.38	5837.30
441.57	5834.96
441.75	6050.28
441.94	6097.10
442.12	5989.43
442.31	6183.70
442.50	6094.76
442.68	6118.16
442.87	6043.26
443.05	6026.88
443.24	6258.59
443.43	6176.67
443.61	6244.55
443.80	6272.64
443.98	6174.33
444.17	6132.20
444.35	6370.94
444.54	6377.96
444.73	6153.27
444.91	6169.65
445.10	6317.11
445.28	6324.13
445.47	6242.21
445.65	6242.21
445.84	6312.42
446.02	6298.38
446.21	6235.19
446.39	6352.21
446.58	6434.13
446.77	6478.60
446.95	6403.71
447.14	6525.41
447.32	6558.18
447.51	6490.31
447.69	6658.82
447.88	6532.44
448.06	6401.37
448.25	6434.13
448.43	6595.63
448.62	6633.08
448.80	6396.68
448.99	6504.35
449.17	6612.01
449.36	6565.20
449.54	6633.08
449.73	6722.02
449.91	6768.83
450.10	7037.99
450.28	7068.42
450.46	7054.37
450.65	6965.43
450.83	6988.84
451.02	6939.69
451.20	6911.60
451.39	7080.12
451.57	6967.77
451.76	6820.32
451.94	6885.86
452.13	7332.90
452.31	7037.99
452.49	6911.60
452.68	6890.54
452.86	7157.36
453.05	7084.80
453.23	7213.53
453.42	7045.01
453.60	7133.95
453.78	7229.91
453.97	7155.02
454.15	7059.06
454.34	7021.61
454.52	7325.88
454.70	7236.94
454.89	7265.02
455.07	7236.94
455.26	7337.58
455.44	7538.87
455.62	7456.95
455.81	7555.25
455.99	7442.90
456.17	7592.70
456.36	7723.77
456.54	7833.77
456.73	7665.25
456.91	7964.84
457.09	7803.35
457.28	7845.48
457.46	7988.25
457.64	7946.12
457.83	7868.88
458.01	7721.43
458.19	8112.30
458.38	7934.42
458.56	7803.35
458.74	7927.39
458.93	7906.33
459.11	7868.88
459.29	8156.77
459.48	8182.51
459.66	8241.03
459.84	8028.04
460.03	8131.02
460.21	8084.21
460.39	8138.04
460.57	8411.89
460.76	8287.84
460.94	8142.72
461.12	8245.71
461.31	8336.99
461.49	8456.36
461.67	8367.42
461.85	8414.23
462.04	8355.71
462.22	9067.24
462.40	8833.18
462.59	8688.07
462.77	8709.13
462.95	8622.53
463.13	8510.19
463.32	8669.34
463.50	8774.67
463.68	8711.47
463.86	8702.11
464.05	8491.46
464.23	8531.25
464.41	8767.65
464.59	8652.96
464.78	8912.76
464.96	8894.04
465.14	8812.12
465.32	8940.85
465.50	9013.40
465.69	9067.24
465.87	8997.02
466.05	8863.61
466.23	8844.88
466.41	9078.94
466.60	9130.43
466.78	8887.01
466.96	9029.79
467.14	8968.93
467.32	9132.77
467.51	9116.39
467.69	9076.60
467.87	9076.60
468.05	9191.28
468.23	9111.71
468.41	9210.01
468.60	9289.59
468.78	9312.99
468.96	9373.85
469.14	9324.69
469.32	9497.89
469.50	9195.96
469.69	9448.74
469.87	9657.05
470.05	9460.45
470.23	9533.00
470.41	9635.99
470.59	9703.86
470.77	9774.08
470.95	9640.67
471.14	9884.08
471.32	9738.97
471.50	9973.02
471.68	9914.51
471.86	9921.53
472.04	10017.49
472.22	10097.07
472.40	9949.62
472.58	9923.87
472.77	10003.45
472.95	10307.72
473.13	10572.20
473.31	10139.20
473.49	10164.95
473.67	10490.28
473.85	10178.99
474.03	10691.57
474.21	10698.59
474.39	10731.36
474.57	10696.25
474.75	10729.02
474.93	10815.62
475.12	10930.30
475.30	10902.22
475.48	10808.59
475.66	11145.63
475.84	10721.99
476.02	11087.12
476.20	11133.93
476.38	11396.07
476.56	11674.59
476.74	11541.18
476.92	11487.35
477.10	11665.23
477.28	11644.17
477.46	11665.23
477.64	11920.35
477.82	11901.62
478.00	12351.01
478.18	12081.85
478.36	12301.86
478.54	12383.77
478.72	12311.22
478.90	12627.19
479.08	12662.30
479.26	12943.16
479.44	13046.15
479.62	12863.58
479.80	13076.57
479.98	13123.38
480.16	13319.99
480.34	13261.48
480.52	13540.00
480.70	13661.71
480.88	13432.33
481.06	13352.76
481.24	13682.77
481.41	13706.18
481.59	14017.47
481.77	14071.30
481.95	13958.96
482.13	14075.98
482.31	14239.82
482.49	14506.64
482.67	14410.68
482.85	14778.14
483.03	14630.69
483.21	14839.00
483.39	15042.62
483.57	14822.61
483.74	15218.16
483.92	15300.08
484.10	15089.43
484.28	15367.96
484.46	15822.02
484.64	16191.83
484.82	15632.44
485.00	15587.97
485.18	16116.93
485.35	15892.24
485.53	15995.22
485.71	16030.33
485.89	16173.10
486.07	16060.76
486.25	16271.40
486.43	16362.69
486.61	16720.79
486.78	16959.52
486.96	17310.60
487.14	17195.92
487.32	17282.52
487.50	17687.43
487.68	17933.18
487.85	17949.57
488.03	18001.06
488.21	18438.74
488.39	18256.18
488.57	18242.14
488.75	18218.73
488.92	18712.58
489.10	19138.56
489.28	18838.97
489.46	18946.64
489.64	18948.98
489.81	19456.87
489.99	19707.31
490.17	19784.55
490.35	20053.71
490.53	19819.66
490.70	19983.49
490.88	20205.84
491.06	20133.29
491.24	20308.83
491.41	20095.84
491.59	20332.23
491.77	20355.64
491.95	20425.86
492.13	20711.40
492.30	20943.11
492.48	21172.49
492.66	21338.66
492.84	21394.84
493.01	21659.32
493.19	21479.10
493.37	21710.81
493.54	21942.52
493.72	22073.59
493.90	22256.15
494.08	22382.54
494.25	22607.23
494.43	22607.23
494.61	22750.01
494.79	23058.96
494.96	22895.12
495.14	23157.26
495.32	22972.36
495.49	23133.86
495.67	23597.28
495.85	23517.70
496.02	23585.58
496.20	23852.40
496.38	23620.69
496.55	23924.96
496.73	24416.47
496.91	24170.71
497.09	24526.47
497.26	24720.74
497.44	24442.21
497.62	24699.67
497.79	25127.99
497.97	24650.52
498.14	24999.26
498.32	25071.82
498.50	25462.69
498.67	25303.53
498.85	25259.06
499.03	25488.43
499.20	25785.68
499.38	25715.47
499.56	26181.23
499.73	25916.75
499.91	25982.29
500.08	25916.75
500.26	25811.43
500.44	26256.13
500.61	25600.78
500.79	25909.73
500.97	26309.96
501.14	26803.82
501.32	26380.18
501.49	26527.63
501.67	26813.18
501.84	26827.22
502.02	26822.54
502.20	27325.75
502.37	27480.23
502.55	27101.06
502.72	27377.25
502.90	27655.77
503.07	27075.32
503.25	27606.62
503.43	27620.66
503.60	27821.95
503.78	27845.35
503.95	28105.15
504.13	27695.56
504.30	28297.08
504.48	28039.62
504.65	28496.02
504.83	28517.09
505.01	28657.52
505.18	28603.69
505.36	28704.33
505.53	29034.35
505.71	28947.75
505.88	29046.05
506.06	29156.05
506.23	29106.90
506.41	28999.24
506.58	29088.18
506.76	28896.25
506.93	29460.32
507.11	29294.14
507.28	29312.87
507.46	29631.18
507.63	29411.17
507.81	29694.38
507.98	29736.51
508.16	29858.21
508.33	30108.65
508.50	30422.28
508.68	30225.68
508.85	30256.11
509.03	30408.24
509.20	31005.08
509.38	30710.17
509.55	30693.79
509.73	30780.39
509.90	30756.98
510.08	30864.64
510.25	30881.03
510.42	30843.58
510.60	31211.04
510.77	31082.31
510.95	31522.34
511.12	31660.43
511.30	31405.31
511.47	31828.95
511.64	32025.55
511.82	31835.97
511.99	31468.50
512.17	32098.11
512.34	31466.16
512.51	32257.26
512.69	32629.41
512.86	32442.17
513.04	32374.29
513.21	32510.04
513.38	32018.53
513.56	32283.01
513.73	32191.73
513.90	32521.74
514.08	32418.76
514.25	32357.91
514.43	32917.29
514.60	32378.97
514.77	33111.56
514.95	33083.47
515.12	33064.75
515.29	32800.27
515.47	33331.57
515.64	33670.95
515.81	33699.03
515.99	33179.43
516.16	33057.73
516.33	33027.30
516.51	33013.26
516.68	32973.47
516.85	32584.94
517.03	33071.77
517.20	33577.33
517.37	33586.69
517.54	34043.09
517.72	33907.34
517.89	33890.96
518.06	33778.61
518.24	33476.68
518.41	33893.30
518.58	34010.32
518.75	33797.34
518.93	34553.33
519.10	34164.80
519.27	34455.03
519.45	35007.39
519.62	34761.64
519.79	34684.40
519.96	35112.72
520.14	35218.04
520.31	34574.39
520.48	35133.78
520.65	35101.01
520.83	35526.99
521.00	35201.66
521.17	35365.49
521.34	35583.16
521.52	35332.73
521.69	35739.98
521.86	35962.33
522.03	35849.99
522.20	35786.79
522.38	35924.88
522.55	35864.03
522.72	35842.96
522.89	35838.28
523.07	36409.37
523.24	36147.23
523.41	36250.22
523.58	36046.59
523.75	36774.50
523.92	36889.18
524.10	37017.91
524.27	36973.44
524.44	36627.04
524.61	37315.16
524.78	37013.23
524.96	37074.09
525.13	37106.85
525.30	37291.76
525.47	37579.64
525.64	37191.11
525.81	37158.34
525.98	37010.89
526.16	36664.49
526.33	36575.55
526.50	37401.76
526.67	36954.72
526.84	37104.51
527.01	37244.94
527.18	37481.34
527.36	37780.93
527.53	38169.46
527.70	38115.62
527.87	37954.13
528.04	37937.74
528.21	37968.17
528.38	38300.53
528.55	38368.40
528.72	38417.55
528.89	38532.24
529.07	38286.48
529.24	38223.29
529.41	38370.74
529.58	37984.55
529.75	38073.49
529.92	38506.49
530.09	38122.65
530.26	38492.45
530.43	38677.35
530.60	38539.26
530.77	38597.77
530.94	38911.41
531.11	39068.22
531.28	38995.67
531.46	39122.05
531.63	39468.45
531.80	38822.47
531.97	39030.77
532.14	39082.27
532.31	38841.19
532.48	39014.39
532.65	39098.65
532.82	39318.66
532.99	39819.53
533.16	39210.99
533.33	39246.10
533.50	39484.84
533.67	39688.46
533.84	39721.23
534.01	39739.96
534.18	39264.83
534.35	40142.53
534.52	39742.30
534.69	39658.04
534.86	39777.40
535.03	40027.84
535.20	40437.44
535.37	40163.59
535.54	40730.00
535.71	40297.00
535.88	40074.65
536.05	40184.66
536.22	40247.85
536.38	40514.67
536.55	40121.46
536.72	40240.83
536.89	40112.10
537.06	40383.60
537.23	40889.16
537.40	40680.85
537.57	40371.90
537.74	41076.40
537.91	41263.64
538.08	41027.25
538.25	40545.10
538.42	40748.73
538.59	41322.16
538.75	40334.45
538.92	41034.27
539.09	41111.51
539.26	40774.47
539.43	41125.55
539.60	41247.26
539.77	40980.44
539.94	41350.24
540.11	41081.08
540.28	41097.47
540.44	40840.01
540.61	41207.47
540.78	41240.24
540.95	41284.71
541.12	41228.54
541.29	41607.70
541.46	41284.71
541.62	41523.44
541.79	41923.68
541.96	41361.95
542.13	41635.79
542.30	41635.79
542.47	41895.59
542.63	41567.91
542.80	42131.98
542.97	42284.12
543.14	42417.53
543.31	42005.59
543.48	42721.80
543.64	42632.86
543.81	42520.51
543.98	42478.38
544.15	42679.67
544.32	42604.77
544.48	42653.92
544.65	42773.29
544.82	42864.57
544.99	42190.50
545.16	42637.54
545.32	42394.12
545.49	42925.42
545.66	43037.77
545.83	42682.01
546.00	43124.37
546.16	42693.71
546.33	42742.86
546.50	42277.10
546.67	42660.94
546.83	42588.39
547.00	42887.98
547.17	42672.65
547.34	42955.85
547.50	43033.09
547.67	43112.67
547.84	43332.68
548.00	43269.48
548.17	43440.34
548.34	43119.69
548.51	43384.17
548.67	43217.99
548.84	43498.86
549.01	43313.95
549.18	43285.87
549.34	43297.57
549.51	43297.57
549.68	43725.89
549.84	43632.27
550.01	43480.13
550.18	43632.27
550.34	43629.93
550.51	43416.94
550.68	43337.36
550.84	43164.16
551.01	43800.79
551.18	43641.63
551.34	43990.37
551.51	43735.25
551.68	43732.91
551.84	44334.43
552.01	44086.33
552.18	43714.19
552.34	43751.63
552.51	44172.93
552.68	44025.48
552.84	44697.21
553.01	44369.54
553.18	43847.60
553.34	44186.97
553.51	43861.64
553.67	44114.42
553.84	44402.30
554.01	44479.54
554.17	44411.67
554.34	44708.91
554.51	44390.60
554.67	44823.60
554.84	44694.87
555.00	44589.55
555.17	44308.68
555.33	44521.67
555.50	44854.03
555.67	44704.23
555.83	44598.91
556.00	44575.50
556.16	45331.50
556.33	45102.12
556.50	44360.17
556.66	44987.44
556.83	44715.93
556.99	44910.20
557.16	44835.30
557.32	45104.46
557.49	44631.68
557.65	44360.17
557.82	44676.15
557.98	44779.13
558.15	44790.83
558.32	45230.85
558.48	44774.45
558.65	45031.91
558.81	45116.17
558.98	44720.62
559.14	44821.26
559.31	45022.54
559.47	45048.29
559.64	45132.55
559.80	45209.79
559.97	45301.07
560.13	45366.60
560.30	45172.34
560.46	45130.21
560.63	45413.41
560.79	45443.84
560.96	45268.30
561.12	45251.92
561.29	45228.51
561.45	45130.21
561.61	45188.72
561.78	45139.57
561.94	45052.97
562.11	45333.84
562.27	45631.08
562.44	44928.92
562.60	45354.90
562.77	45837.05
562.93	45338.52
563.10	45450.86
563.26	45434.48
563.42	45624.06
563.59	45275.32
563.75	45289.37
563.92	45806.62
564.08	45591.30
564.24	45624.06
564.41	45638.11
564.57	45684.92
564.74	45535.12
564.90	45675.55
565.07	45317.45
565.23	45935.35
565.39	45617.04
565.56	45794.92
565.72	45666.19
565.88	45652.15
566.05	45069.36
566.21	45925.99
566.38	45773.86
566.54	45502.35
566.70	46106.21
566.87	45844.07
567.03	45888.54
567.19	46010.25
567.36	46485.38
567.52	45450.86
567.68	45633.42
567.85	45619.38
568.01	45860.46
568.17	45794.92
568.34	45797.26
568.50	45741.09
568.66	45394.69
568.83	45771.52
568.99	45743.43
569.15	45830.03
569.32	45717.68
569.48	45167.66
569.64	46043.02
569.81	45813.65
569.97	45897.91
570.13	45790.24
570.30	45539.80
570.46	45998.55
570.62	45366.60
570.78	45556.19
570.95	45478.95
571.11	45808.96
571.27	45783.22
571.43	45698.96
571.60	45895.56
571.76	45876.84
571.92	45738.75
572.09	45958.76
572.25	45940.04
572.41	45773.86
572.57	46136.64
572.74	46389.42
572.90	45996.21
573.06	46024.29
573.22	46071.10
573.38	45759.81
573.55	45764.49
573.71	46223.24
573.87	45954.08
574.03	45762.15
574.20	45911.95
574.36	45846.41
574.52	46150.68
574.68	46073.45
574.84	45851.09
575.01	46073.45
575.17	45808.96
575.33	45811.31
575.49	45694.28
575.65	45998.55
575.82	46106.21
575.98	46232.60
576.14	46520.49
576.30	46150.68
576.46	46253.67
576.62	46038.34
576.79	46108.55
576.95	45617.04
577.11	46368.35
577.27	46436.23
577.43	46075.79
577.59	46031.32
577.75	45626.40
577.92	45565.55
578.08	45937.69
578.24	45411.07
578.40	45834.71
578.56	45773.86
578.72	45907.27
578.88	46237.28
579.04	46183.45
579.21	45715.34
579.37	45862.80
579.53	46000.89
579.69	46010.25
579.85	46263.03
580.01	46256.01
580.17	46206.86
580.33	46286.43
580.49	46536.87
580.65	45876.84
580.82	45998.55
580.98	46059.40
581.14	45869.82
581.30	46586.02
581.46	46260.69
581.62	46335.59
581.78	46415.16
581.94	46401.12
582.10	46050.04
582.26	46082.81
582.42	46190.47
582.58	46017.27
582.74	46150.68
582.90	46124.94
583.06	46424.53
583.22	46326.22
583.38	46576.66
583.54	46169.41
583.70	46256.01
583.86	46218.56
584.02	45694.28
584.18	46319.20
584.34	46117.92
584.50	46686.67
584.66	45996.21
584.82	45741.09
584.98	45921.31
585.14	46642.20
585.30	46426.87
585.46	46162.39
585.62	46101.53
585.78	45970.46
585.94	45921.31
586.10	46064.08
586.26	45907.27
586.42	46557.94
586.58	46518.15
586.74	46309.84
586.90	45963.44
587.06	45982.16
587.22	46174.09
587.38	45574.91
587.54	46424.53
587.70	46511.13
587.86	46300.48
588.02	46188.13
588.18	46424.53
588.34	46003.23
588.49	45724.71
588.65	45659.17
588.81	46188.13
588.97	46043.02
589.13	45778.54
589.29	45942.38
589.45	45830.03
589.61	46328.56
589.77	46256.01
589.93	45982.16
590.08	46513.47
