SpectraSuite Data File
++++++++++++++++++++++++++++++++++++
Date: Fri Oct 25 11:22:33 EDT 2013
User: price-jones
Dark Spectrum Present: No
Reference Spectrum Present: No
Number of Sampled Component Spectra: 1
Spectrometers: USB2+H05261
Integration Time (usec): 100000 (USB2+H05261)
Spectra Averaged: 1 (USB2+H05261)
Boxcar Smoothing: 0 (USB2+H05261)
Correct for Electrical Dark: No (USB2+H05261)
Strobe/Lamp Enabled: No (USB2+H05261)
Correct for Detector Non-linearity: No (USB2+H05261)
Correct for Stray Light: No (USB2+H05261)
Number of Pixels in Processed Spectrum: 2048
>>>>>Begin Processed Spectral Data<<<<<
365.73	306.61
365.92	306.61
366.12	306.61
366.32	117.03
366.52	107.66
366.72	166.18
366.91	100.64
367.11	145.11
367.31	121.71
367.51	124.05
367.70	77.24
367.90	131.07
368.10	159.16
368.30	145.11
368.49	161.50
368.69	95.96
368.89	142.77
369.09	91.28
369.28	252.78
369.48	173.20
369.68	170.86
369.87	205.97
370.07	138.09
370.27	210.65
370.47	351.08
370.66	624.92
370.86	608.54
371.06	622.58
371.25	699.82
371.45	617.90
371.65	699.82
371.84	681.10
372.04	667.05
372.24	669.39
372.44	758.33
372.63	702.16
372.83	713.86
373.03	760.67
373.22	711.52
373.42	793.44
373.62	697.48
373.81	844.93
374.01	828.55
374.21	807.48
374.40	774.72
374.60	781.74
374.79	854.30
374.99	823.87
375.19	821.53
375.38	910.47
375.58	840.25
375.78	823.87
375.97	880.04
376.17	858.98
376.37	905.79
376.56	877.70
376.76	826.21
376.95	802.80
377.15	968.98
377.35	917.49
377.54	887.06
377.74	908.13
377.93	854.30
378.13	821.53
378.33	884.72
378.52	908.13
378.72	903.45
378.91	828.55
379.11	943.24
379.31	894.08
379.50	929.19
379.70	957.28
379.89	1039.20
380.09	940.90
380.28	917.49
380.48	1013.45
380.68	1050.90
380.87	968.98
381.07	950.26
381.26	1074.31
381.46	940.90
381.65	1071.97
381.85	997.07
382.04	1011.11
382.24	1022.81
382.43	1039.20
382.63	1008.77
382.83	1043.88
383.02	1114.10
383.22	1135.16
383.41	1088.35
383.61	1055.58
383.80	1179.63
384.00	1111.75
384.19	1200.69
384.39	1156.22
384.58	1172.61
384.78	1144.52
384.97	1200.69
385.17	1142.18
385.36	1205.38
385.56	1160.91
385.75	1090.69
385.95	1139.84
386.14	1184.31
386.34	1186.65
386.53	1226.44
386.72	1188.99
386.92	1256.87
387.11	1313.04
387.31	1322.40
387.50	1306.02
387.70	1235.80
387.89	1261.55
388.09	1224.10
388.28	1261.55
388.48	1334.11
388.67	1287.29
388.86	1397.30
389.06	1364.53
389.25	1369.21
389.45	1355.17
389.64	1301.34
389.84	1383.26
390.03	1444.11
390.22	1394.96
390.42	1406.66
390.61	1373.89
390.81	1472.20
391.00	1441.77
391.19	1479.22
391.39	1430.07
391.58	1465.18
391.78	1535.39
391.97	1486.24
392.16	1462.83
392.36	1460.49
392.55	1479.22
392.75	1479.22
392.94	1521.35
393.13	1584.54
393.33	1556.46
393.52	1519.01
393.71	1600.93
393.91	1582.20
394.10	1671.14
394.29	1572.84
394.49	1621.99
394.68	1671.14
394.88	1617.31
395.07	1654.76
395.26	1633.69
395.46	1715.61
395.65	1757.74
395.84	1762.42
396.04	1839.66
396.23	1645.40
396.42	1734.34
396.62	1804.55
396.81	1888.81
397.00	1898.17
397.19	1832.64
397.39	1846.68
397.58	1839.66
397.77	1832.64
397.97	1834.98
398.16	1895.83
398.35	1975.41
398.55	1832.64
398.74	1865.41
398.93	1905.20
399.12	1982.43
399.32	1935.62
399.51	1851.36
399.70	1909.88
399.90	1996.48
400.09	2115.84
400.28	1909.88
400.47	2015.20
400.67	2043.29
400.86	2052.65
401.05	2223.51
401.24	2040.95
401.44	2059.67
401.63	2040.95
401.82	2162.66
402.01	2026.90
402.21	2125.21
402.40	2218.83
402.59	2174.36
402.78	2237.55
402.97	2361.60
403.17	2230.53
403.36	2326.49
403.55	2256.28
403.74	2314.79
403.93	2270.32
404.13	2303.09
404.32	2478.63
404.51	2422.45
404.70	2551.18
404.89	2347.56
405.09	2546.50
405.28	2551.18
405.47	2356.92
405.66	2525.44
405.85	2448.20
406.05	2560.55
406.24	2731.41
406.43	2651.83
406.62	2619.06
406.81	2665.87
407.00	2612.04
407.20	2579.27
407.39	2644.81
407.58	2743.11
407.77	2780.56
407.96	2796.94
408.15	2913.97
408.34	2810.98
408.54	2782.90
408.73	2771.19
408.92	2883.54
409.11	2951.42
409.30	3014.61
409.49	2972.48
409.68	2972.48
409.87	2899.92
410.07	3094.19
410.26	2928.01
410.45	3026.31
410.64	3023.97
410.83	3243.98
411.02	3129.30
411.21	3145.68
411.40	3141.00
411.59	3449.95
411.78	3218.24
411.98	3274.41
412.17	3325.90
412.36	3309.52
412.55	3342.28
412.74	3438.25
412.93	3524.85
413.12	3414.84
413.31	3684.00
413.50	3541.23
413.69	3620.81
413.88	3625.49
414.07	3503.78
414.26	3845.50
414.45	3639.53
414.64	3770.60
414.83	3749.54
415.02	3925.08
415.22	3857.20
415.41	4072.53
415.60	3805.71
415.79	3978.91
415.98	4091.26
416.17	4032.74
416.36	4004.66
416.55	4072.53
416.74	4159.13
416.93	4063.17
417.12	4100.62
417.31	4189.56
417.50	4297.22
417.69	4318.29
417.88	4283.18
418.07	4290.20
418.26	4124.02
418.45	4362.76
418.64	4512.55
418.83	4521.92
419.02	4440.00
419.21	4498.51
419.39	4535.96
419.58	4627.24
419.77	4533.62
419.96	4538.30
420.15	4753.63
420.34	4631.92
420.53	4695.11
420.72	4826.18
420.91	4863.63
421.10	4746.61
421.29	4889.38
421.48	4868.31
421.67	4837.89
421.86	4870.65
422.05	4957.25
422.24	4762.99
422.43	4922.15
422.61	4924.49
422.80	4898.74
422.99	4964.28
423.18	4875.34
423.37	5069.60
423.56	4901.08
423.75	5029.81
423.94	4844.91
424.13	4713.84
424.32	4730.22
424.50	5153.86
424.69	5116.41
424.88	5118.75
425.07	4912.78
425.26	4903.42
425.45	5104.71
425.64	4865.97
425.83	5074.28
426.01	5130.45
426.20	5188.97
426.39	5125.77
426.58	5135.14
426.77	5111.73
426.96	5210.03
427.15	5191.31
427.33	5280.25
427.52	5125.77
427.71	5371.53
427.90	5359.83
428.09	5231.10
428.28	5439.40
428.46	5392.59
428.65	5518.98
428.84	5554.09
429.03	5497.92
429.22	5411.32
429.40	5621.97
429.59	5589.20
429.78	5460.47
429.97	5376.21
430.16	5523.66
430.34	5743.67
430.53	5720.27
430.72	5706.23
430.91	5750.70
431.10	5654.73
431.28	5736.65
431.47	5881.77
431.66	5902.83
431.85	5975.39
432.03	6038.58
432.22	5968.37
432.41	5975.39
432.60	6017.52
432.79	5900.49
432.97	6148.59
433.16	6202.42
433.35	5998.79
433.54	6200.08
433.72	6256.25
433.91	6164.97
434.10	6223.48
434.28	6190.72
434.47	6272.64
434.66	6340.51
434.85	6396.68
435.03	6319.45
435.22	6345.19
435.41	6562.86
435.59	6490.31
435.78	6604.99
435.97	6562.86
436.16	6473.92
436.34	6637.76
436.53	6457.54
436.72	6703.29
436.90	6382.64
437.09	6684.57
437.28	6518.39
437.46	6574.56
437.65	6740.74
437.84	6731.38
438.02	6981.82
438.21	6747.76
438.40	6803.94
438.58	7152.68
438.77	7180.76
438.96	7094.16
439.14	7098.84
439.33	7368.01
439.52	7276.73
439.70	7258.00
439.89	7300.13
440.08	7410.14
440.26	7510.78
440.45	7597.38
440.63	7545.89
440.82	7714.41
441.01	7517.80
441.19	7566.95
441.38	7698.02
441.57	7859.52
441.75	8161.45
441.94	8060.80
442.12	8203.58
442.31	8112.30
442.50	8098.25
442.68	8248.05
442.87	8163.79
443.05	8032.72
443.24	8411.89
443.43	8191.88
443.61	8116.98
443.80	8430.61
443.98	8257.41
444.17	7981.23
444.35	8264.43
444.54	8514.87
444.73	8336.99
444.91	8449.33
445.10	8468.06
445.28	8475.08
445.47	8372.10
445.65	8386.14
445.84	8486.78
446.02	8613.17
446.21	8505.51
446.39	8468.06
446.58	8585.08
446.77	8601.47
446.95	8491.46
447.14	8688.07
447.32	8802.75
447.51	8688.07
447.69	8779.35
447.88	8594.45
448.06	8744.24
448.25	8725.52
448.43	8746.58
448.62	8716.16
448.80	8624.87
448.99	8793.39
449.17	8924.46
449.36	8720.84
449.54	8802.75
449.73	8978.30
449.91	9139.79
450.10	9064.89
450.28	9146.81
450.46	9198.31
450.65	9078.94
450.83	9130.43
451.02	9004.04
451.20	9128.09
451.39	9282.56
451.57	9221.71
451.76	9224.05
451.94	9413.63
452.13	9280.22
452.31	9165.54
452.49	9320.01
452.68	9465.13
452.86	9261.50
453.05	9659.39
453.23	9411.29
453.42	9270.86
453.60	9542.36
453.78	9582.15
453.97	9657.05
454.15	9715.56
454.34	9729.61
454.52	9977.70
454.70	9898.13
454.89	9778.76
455.07	9757.69
455.26	10106.43
455.44	9841.95
455.62	10178.99
455.81	10010.47
455.99	10040.90
456.17	10164.95
456.36	10202.40
456.54	10452.83
456.73	10258.57
456.91	10766.46
457.09	10368.57
457.28	10651.78
457.46	10249.21
457.64	10820.30
457.83	10651.78
458.01	10445.81
458.19	10988.82
458.38	10714.97
458.56	10913.92
458.74	10850.72
458.93	10832.00
459.11	10867.11
459.29	10977.11
459.48	10911.58
459.66	10960.73
459.84	11075.42
460.03	11035.63
460.21	10909.24
460.39	11250.96
460.57	11150.31
460.76	11396.07
460.94	11255.64
461.12	11360.96
461.31	11344.58
461.49	11257.98
461.67	11316.49
461.85	11653.53
462.04	11492.03
462.22	11826.73
462.40	11836.09
462.59	11761.19
462.77	11730.76
462.95	11791.62
463.13	11800.98
463.32	11822.05
463.50	12084.19
463.68	12116.95
463.86	12025.67
464.05	11838.43
464.23	12028.01
464.41	12180.15
464.59	11513.10
464.78	12393.14
464.96	12327.60
465.14	11934.39
465.32	12358.03
465.50	12217.60
465.69	12283.13
465.87	12067.80
466.05	12112.27
466.23	12353.35
466.41	12327.60
466.60	12690.38
466.78	12236.32
466.96	12442.29
467.14	12535.91
467.32	12788.69
467.51	12886.99
467.69	12383.77
467.87	12566.34
468.05	12624.85
468.23	12528.89
468.41	12692.73
468.60	12959.55
468.78	12954.87
468.96	12737.20
469.14	12968.91
469.32	13153.81
469.50	12863.58
469.69	13174.88
469.87	13195.94
470.05	13200.62
470.23	13303.60
470.41	13315.31
470.59	13666.39
470.77	13329.35
470.95	13408.93
471.14	13731.92
471.32	13263.82
471.50	13912.14
471.68	13682.77
471.86	14019.81
472.04	14073.64
472.22	14312.38
472.40	13748.31
472.58	14214.07
472.77	14368.55
472.95	14228.12
473.13	14719.63
473.31	14534.73
473.49	14347.48
473.67	14270.25
473.85	14520.68
474.03	14703.25
474.21	14899.85
474.39	14897.51
474.57	15002.83
474.75	15023.90
474.93	15325.83
475.12	15178.37
475.30	15241.57
475.48	15403.07
475.66	15428.81
475.84	15428.81
476.02	15676.91
476.20	15559.88
476.38	15864.15
476.56	16130.97
476.74	16329.92
476.92	16280.77
477.10	15800.96
477.28	16566.31
477.46	16285.45
477.64	16636.53
477.82	16709.08
478.00	17029.74
478.18	16903.35
478.36	17261.45
478.54	17259.11
478.72	17289.54
478.90	17820.84
479.08	17748.28
479.26	17980.00
479.44	17855.95
479.62	17961.27
479.80	18286.61
479.98	18396.61
480.16	18981.74
480.34	18731.31
480.52	19019.19
480.70	18810.89
480.88	18691.52
481.06	19145.58
481.24	19066.00
481.41	19208.78
481.59	19782.21
481.77	19609.01
481.95	19805.61
482.13	19901.58
482.31	19955.41
482.49	20430.54
482.67	20432.88
482.85	20692.68
483.03	21001.63
483.21	21167.80
483.39	21158.44
483.57	21149.08
483.74	21301.22
483.92	21949.54
484.10	21392.50
484.28	21813.79
484.46	22274.88
484.64	22562.76
484.82	21968.27
485.00	22923.21
485.18	23234.50
485.35	23264.92
485.53	23185.35
485.71	23164.28
485.89	23775.16
486.07	23424.08
486.25	23953.04
486.43	23908.57
486.61	24458.60
486.78	24369.66
486.96	24364.98
487.14	24856.49
487.32	24971.18
487.50	24973.52
487.68	25308.21
487.85	25603.12
488.03	25804.41
488.21	26132.08
488.39	26621.25
488.57	26764.03
488.75	26333.37
488.92	26508.91
489.10	27274.26
489.28	27302.35
489.46	27349.16
489.64	27505.98
489.81	27826.63
489.99	28247.93
490.17	28271.33
490.35	28774.55
490.53	28524.11
490.70	28884.55
490.88	28709.01
491.06	29689.70
491.24	29160.73
491.41	29404.15
491.59	29528.20
491.77	29741.19
491.95	29785.66
492.13	29921.41
492.30	30288.87
492.48	30354.41
492.66	30675.06
492.84	30881.03
493.01	31232.11
493.19	30878.69
493.37	31653.40
493.54	31695.53
493.72	32006.83
493.90	31786.82
494.08	32341.52
494.25	32524.08
494.43	32442.17
494.61	32793.25
494.79	33261.35
494.96	33111.56
495.14	33219.22
495.32	33993.94
495.49	33530.51
495.67	33149.01
495.85	33984.58
496.02	34314.59
496.20	34363.75
496.38	34541.63
496.55	34909.09
496.73	35480.18
496.91	34806.11
497.09	35454.44
497.26	35370.18
497.44	35229.74
497.62	35512.95
497.79	36215.11
497.97	35620.61
498.14	36402.35
498.32	36608.32
498.50	36673.85
498.67	36786.20
498.85	37310.48
499.03	36779.18
499.20	37418.14
499.38	37350.27
499.56	37240.26
499.73	37104.51
499.91	37834.76
500.08	38398.83
500.26	37902.64
500.44	37984.55
500.61	38752.25
500.79	38480.75
500.97	38560.33
501.14	39136.10
501.32	39260.15
501.49	39150.14
501.67	39124.40
501.84	39730.59
502.02	39311.64
502.20	39503.56
502.37	40044.23
502.55	39632.29
502.72	39892.09
502.90	40254.87
503.07	40126.14
503.25	40318.07
503.43	40502.97
503.60	40421.05
503.78	40664.47
503.95	40875.12
504.13	41181.73
504.30	40961.72
504.48	40802.56
504.65	41258.96
504.83	41640.47
505.01	41853.46
505.18	41846.44
505.36	42092.19
505.53	41771.54
505.71	42307.52
505.88	42026.66
506.06	42136.66
506.23	42202.20
506.41	41741.11
506.58	42417.53
506.76	42529.87
506.93	42946.49
507.11	42895.00
507.28	43126.71
507.46	43178.20
507.63	43302.25
507.81	44165.91
507.98	43782.06
508.16	43601.84
508.33	44186.97
508.50	44306.34
508.68	44362.51
508.85	44601.25
509.03	44570.82
509.20	44549.76
509.38	44968.71
509.55	45083.40
509.73	44601.25
509.90	45015.52
510.08	45148.93
510.25	45401.71
510.42	45041.27
510.60	45521.08
510.77	45776.20
510.95	46328.56
511.12	45708.32
511.30	45558.53
511.47	45900.25
511.64	45708.32
511.82	46171.75
511.99	46202.18
512.17	46454.95
512.34	46595.38
512.51	46714.75
512.69	46843.48
512.86	46813.05
513.04	46955.83
513.21	47152.43
513.38	47491.81
513.56	47753.95
513.73	47051.79
513.90	47491.81
514.08	47817.14
514.25	47779.70
514.43	47901.40
514.60	48196.31
514.77	47917.79
514.95	47913.11
515.12	47861.61
515.29	48456.11
515.47	48442.07
515.64	48751.02
515.81	48545.05
515.99	49106.78
516.16	49074.01
516.33	49289.34
516.51	49188.70
516.68	48832.94
516.85	49069.33
517.03	49738.72
517.20	49326.79
517.37	49258.91
517.54	49378.28
517.72	49509.35
517.89	50012.57
518.06	49743.41
518.24	49399.35
518.41	49331.47
518.58	50384.71
518.75	49785.54
518.93	50124.91
519.10	50143.64
519.27	50253.64
519.45	50333.22
519.62	50312.16
519.79	50134.28
519.96	50253.64
520.14	50820.05
520.31	50171.72
520.48	50761.54
520.65	50813.03
520.83	51311.56
521.00	51323.27
521.17	50979.21
521.34	51110.28
521.52	51334.97
521.69	51133.68
521.86	51618.17
522.03	51435.61
522.20	51877.97
522.38	51910.74
522.55	51927.13
522.72	51817.12
522.89	51987.98
523.07	52090.96
523.24	51805.42
523.41	52016.07
523.58	51695.41
523.75	52282.89
523.92	52013.73
524.10	52516.94
524.27	52542.69
524.44	52610.56
524.61	52509.92
524.78	52575.45
524.96	52594.18
525.13	52760.36
525.30	52898.45
525.47	52952.28
525.64	53176.97
525.81	53251.87
525.98	53198.04
526.16	53099.73
526.33	53120.80
526.50	53558.48
526.67	53165.27
526.84	53207.40
527.01	53326.77
527.18	53415.71
527.36	53434.43
527.53	53310.38
527.70	53834.66
527.87	53860.41
528.04	53691.89
528.21	53642.74
528.38	53624.01
528.55	53876.79
528.72	53504.65
528.89	53867.43
529.07	53696.57
529.24	53607.63
529.41	53963.39
529.58	53928.28
529.75	54178.72
529.92	54188.08
530.09	54183.40
530.26	54195.10
530.43	54546.18
530.60	54300.43
530.77	54454.90
530.94	54312.13
531.11	54499.37
531.28	54443.20
531.46	54609.38
531.63	54986.21
531.80	54735.77
531.97	54637.47
532.14	54955.78
532.31	54923.01
532.48	54955.78
532.65	54869.18
532.82	55061.10
532.99	54967.48
533.16	54911.31
533.33	55224.94
533.50	55714.11
533.67	55105.57
533.84	55082.17
534.01	55091.53
534.18	55281.11
534.35	55821.78
534.52	55552.62
534.69	55447.29
534.86	55765.60
535.03	55238.98
535.20	55454.31
535.37	55812.41
535.54	55742.20
535.71	55571.34
535.88	55861.57
536.05	56119.02
536.22	55964.55
536.38	55763.26
536.55	56041.79
536.72	56102.64
536.89	55702.41
537.06	55903.70
537.23	56292.22
537.40	55983.27
537.57	56112.00
537.74	56332.01
537.91	56224.35
538.08	56332.01
538.25	55992.64
538.42	56250.09
538.59	56437.34
538.75	56224.35
538.92	56453.72
539.09	56526.28
539.26	56507.55
539.43	56488.83
539.60	56519.26
539.77	56495.85
539.94	56762.67
540.11	56629.26
540.28	56741.61
540.44	56811.82
540.61	56762.67
540.78	56640.96
540.95	56741.61
541.12	56603.52
541.29	56945.23
541.46	56734.59
541.62	57036.51
541.79	57319.72
541.96	56891.40
542.13	56860.97
542.30	57235.46
542.47	57144.18
542.63	57116.09
542.80	57240.14
542.97	57237.80
543.14	57567.82
543.31	57521.01
543.48	57462.49
543.64	57626.33
543.81	57546.75
543.98	57621.65
544.15	57663.78
544.32	57844.00
544.48	57944.64
544.65	57677.82
544.82	57804.21
544.99	57572.50
545.16	57729.31
545.32	57881.45
545.49	57888.47
545.66	58143.59
545.83	58152.95
546.00	58049.97
546.16	58024.22
546.33	57923.58
546.50	57766.76
546.67	58190.40
546.83	57778.46
547.00	58005.50
547.17	58232.53
547.34	58169.33
547.50	58293.38
547.67	58459.56
547.84	58438.50
548.00	58440.84
548.17	58674.89
548.34	58511.05
548.51	58499.35
548.67	58494.67
548.84	58508.71
549.01	58461.90
549.18	58546.16
549.34	58555.52
549.51	58843.41
549.68	58597.65
549.84	58688.93
550.01	58885.54
550.18	58702.98
550.34	58564.88
550.51	58913.62
550.68	58915.96
550.84	58684.25
551.01	58908.94
551.18	58714.68
551.34	58855.11
551.51	59084.48
551.68	58740.42
551.84	58841.07
552.01	58944.05
552.18	59037.67
552.34	58784.90
552.51	59171.08
552.68	58784.90
552.84	58883.20
553.01	59255.34
553.18	59135.98
553.34	59112.57
553.51	58927.67
553.67	59175.76
553.84	59166.40
554.01	59255.34
554.17	59196.83
554.34	59213.21
554.51	59386.41
554.67	59192.15
554.84	59224.92
555.00	59391.09
555.17	59271.73
555.33	59250.66
555.50	59320.88
555.67	59353.65
555.83	59271.73
556.00	59538.55
556.16	59611.10
556.33	59571.32
556.50	59629.83
556.66	59863.88
556.83	59526.84
556.99	59686.00
557.16	59854.52
557.32	59751.54
557.49	59934.10
557.65	59824.09
557.82	59758.56
557.98	59639.19
558.15	59793.67
558.32	59777.28
558.48	59480.03
558.65	59700.04
558.81	59753.88
558.98	59957.50
559.14	60126.02
559.31	59922.40
559.47	60093.25
559.64	60126.02
559.80	59990.27
559.97	59964.52
560.13	59887.29
560.30	60079.21
560.46	60060.49
560.63	60032.40
560.79	60093.25
560.96	60196.24
561.12	60432.63
561.29	60324.97
561.45	60083.89
561.61	60088.57
561.78	60184.54
561.94	59950.48
562.11	60030.06
562.27	60107.30
562.44	60343.69
562.60	60364.76
562.77	60486.46
562.93	60243.05
563.10	60434.97
563.26	59955.16
563.42	60561.36
563.59	60362.42
563.75	60046.44
563.92	60320.29
564.08	60343.69
564.24	60364.76
564.41	60378.80
564.57	60523.91
564.74	60406.89
564.90	60439.65
565.07	60259.43
565.23	60605.83
565.39	60268.79
565.56	60486.46
565.72	60484.12
565.88	60331.99
566.05	60512.21
566.21	60470.08
566.38	60542.64
566.54	60755.63
566.70	60636.26
566.87	60741.58
567.03	60570.72
567.19	60654.98
567.36	60619.88
567.52	60683.07
567.68	60774.35
567.85	60666.69
568.01	60755.63
568.17	60615.19
568.34	60594.13
568.50	60640.94
568.66	60631.58
568.83	60652.64
568.99	60650.30
569.15	60629.24
569.32	60797.76
569.48	61020.11
569.64	60788.39
569.81	61010.74
569.97	60591.79
570.13	60999.04
570.30	60804.78
570.46	61080.96
570.62	60804.78
570.78	60816.48
570.95	60816.48
571.11	61036.49
571.27	60779.03
571.43	60844.57
571.60	61080.96
571.76	60736.90
571.92	60996.70
572.09	60956.91
572.25	60945.21
572.41	60734.56
572.57	60996.70
572.74	61027.13
572.90	61106.71
573.06	61087.98
573.22	60928.83
573.38	60987.34
573.55	60811.80
573.71	61188.63
573.87	61097.34
574.03	60851.59
574.20	61015.43
574.36	61076.28
574.52	60839.89
574.68	61085.64
574.84	61092.66
575.01	61006.06
575.17	61006.06
575.33	60977.98
575.49	60860.95
575.65	61181.60
575.82	61137.13
575.98	61155.86
576.14	61277.57
576.30	61228.41
576.46	60900.74
576.62	60956.91
576.79	61064.58
576.95	60985.00
577.11	61205.01
577.27	61160.54
577.43	61268.20
577.59	60928.83
577.75	61153.52
577.92	60968.61
578.08	61095.00
578.24	61066.92
578.40	61190.97
578.56	61216.71
578.72	61057.56
578.88	61172.24
579.04	61249.48
579.21	61029.47
579.37	61216.71
579.53	61247.14
579.69	61169.90
579.85	60987.34
580.01	61155.86
580.17	61151.18
580.33	61317.35
580.49	61443.74
580.65	61298.63
580.82	61141.81
580.98	61279.91
581.14	60919.46
581.30	61270.54
581.46	61167.56
581.62	61268.20
581.78	61284.59
581.94	61282.25
582.10	61193.31
582.26	61235.44
582.42	61151.18
582.58	61296.29
582.74	61202.67
582.90	61205.01
583.06	61329.06
583.22	61151.18
583.38	61214.37
583.54	61432.04
583.70	61434.38
583.86	61319.70
584.02	60992.02
584.18	61333.74
584.34	61013.08
584.50	61385.23
584.66	61104.37
584.82	61095.00
584.98	61640.35
585.14	61242.46
585.30	61247.14
585.46	61415.66
585.62	61193.31
585.78	61656.73
585.94	61212.03
586.10	61322.04
586.26	61315.01
586.42	61216.71
586.58	61441.40
586.74	61291.61
586.90	61268.20
587.06	61439.06
587.22	61415.66
587.38	61310.33
587.54	61485.87
587.70	61392.25
587.86	61432.04
588.02	61190.97
588.18	61418.00
588.34	61434.38
588.49	61455.45
