SpectraSuite Data File
++++++++++++++++++++++++++++++++++++
Date: Fri Oct 25 10:47:44 EDT 2013
User: price-jones
Dark Spectrum Present: No
Reference Spectrum Present: No
Number of Sampled Component Spectra: 1
Spectrometers: USB2+H05261
Integration Time (usec): 100000 (USB2+H05261)
Spectra Averaged: 1 (USB2+H05261)
Boxcar Smoothing: 0 (USB2+H05261)
Correct for Electrical Dark: No (USB2+H05261)
Strobe/Lamp Enabled: No (USB2+H05261)
Correct for Detector Non-linearity: No (USB2+H05261)
Correct for Stray Light: No (USB2+H05261)
Number of Pixels in Processed Spectrum: 2048
>>>>>Begin Processed Spectral Data<<<<<
365.73	198.95
365.92	198.95
366.12	198.95
366.32	25.75
366.52	44.47
366.72	95.96
366.91	2.34
367.11	28.09
367.31	67.88
367.51	21.06
367.70	100.64
367.90	46.81
368.10	60.85
368.30	21.06
368.49	56.17
368.69	14.04
368.89	0.00
369.09	49.15
369.28	110.01
369.48	67.88
369.68	74.90
369.87	88.94
370.07	65.54
370.27	166.18
370.47	227.03
370.66	447.04
370.86	425.98
371.06	418.96
371.25	512.58
371.45	428.32
371.65	477.47
371.84	435.34
372.04	437.68
372.24	475.13
372.44	454.06
372.63	500.87
372.83	564.07
373.03	580.45
373.22	493.85
373.42	566.41
373.62	531.30
373.81	603.86
374.01	535.98
374.21	587.47
374.40	561.73
374.60	552.37
374.79	571.09
374.99	454.06
375.19	594.50
375.38	561.73
375.58	596.84
375.78	594.50
375.97	599.18
376.17	547.69
376.37	629.60
376.56	629.60
376.76	638.97
376.95	636.63
377.15	674.07
377.35	631.94
377.54	631.94
377.74	514.92
377.93	592.16
378.13	596.84
378.33	655.35
378.52	589.82
378.72	657.69
378.91	533.64
379.11	578.11
379.31	638.97
379.50	660.03
379.70	655.35
379.89	678.76
380.09	664.71
380.28	692.80
380.48	702.16
380.68	709.18
380.87	634.29
381.07	629.60
381.26	702.16
381.46	655.35
381.65	695.14
381.85	720.88
382.04	723.23
382.24	664.71
382.43	699.82
382.63	746.63
382.83	638.97
383.02	746.63
383.22	786.42
383.41	734.93
383.61	751.31
383.80	777.06
384.00	720.88
384.19	732.59
384.39	798.12
384.58	814.51
384.78	746.63
384.97	788.76
385.17	784.08
385.36	777.06
385.56	774.72
385.75	770.04
385.95	720.88
386.14	816.85
386.34	704.50
386.53	802.80
386.72	730.25
386.92	795.78
387.11	875.36
387.31	746.63
387.50	800.46
387.70	788.76
387.89	922.17
388.09	880.04
388.28	858.98
388.48	873.02
388.67	798.12
388.86	854.30
389.06	842.59
389.25	924.51
389.45	884.72
389.64	802.80
389.84	905.79
390.03	880.04
390.22	954.94
390.42	922.17
390.61	912.81
390.81	952.60
391.00	910.47
391.19	926.85
391.39	898.77
391.58	966.64
391.78	873.02
391.97	945.58
392.16	917.49
392.36	985.37
392.55	943.24
392.75	999.41
392.94	957.28
393.13	933.87
393.33	1008.77
393.52	945.58
393.71	1025.15
393.91	1029.84
394.10	1008.77
394.29	950.26
394.49	1008.77
394.68	1046.22
394.88	1114.10
395.07	1095.37
395.26	1100.05
395.46	1128.14
395.65	1139.84
395.84	1102.39
396.04	1174.95
396.23	1144.52
396.42	1074.31
396.62	1135.16
396.81	1149.20
397.00	1196.01
397.19	1191.33
397.39	1217.08
397.58	1282.61
397.77	1252.19
397.97	1256.87
398.16	1282.61
398.35	1315.38
398.55	1301.34
398.74	1329.42
398.93	1291.98
399.12	1310.70
399.32	1273.25
399.51	1336.45
399.70	1376.24
399.90	1341.13
400.09	1362.19
400.28	1434.75
400.47	1348.15
400.67	1362.19
400.86	1404.32
401.05	1528.37
401.24	1380.92
401.44	1509.65
401.63	1507.30
401.82	1526.03
402.01	1455.81
402.21	1479.22
402.40	1565.82
402.59	1497.94
402.78	1425.39
402.97	1554.12
403.17	1488.58
403.36	1535.39
403.55	1495.60
403.74	1610.29
403.93	1610.29
404.13	1661.78
404.32	1673.48
404.51	1643.06
404.70	1776.47
404.89	1675.82
405.09	1797.53
405.28	1806.89
405.47	1626.67
405.66	1806.89
405.85	1776.47
406.05	1783.49
406.24	1732.00
406.43	1781.15
406.62	1701.57
406.81	1832.64
407.00	1771.79
407.20	1778.81
407.39	1834.98
407.58	1914.56
407.77	1764.76
407.96	1944.99
408.15	1930.94
408.34	1874.77
408.54	2036.27
408.73	1858.39
408.92	2031.58
409.11	2062.01
409.30	1961.37
409.49	1963.71
409.68	1907.54
409.87	2003.50
410.07	2148.61
410.26	2120.53
410.45	2078.40
410.64	2200.10
410.83	2118.18
411.02	2230.53
411.21	2284.36
411.40	2211.81
411.59	2263.30
411.78	2289.04
411.98	2314.79
412.17	2282.02
412.36	2310.11
412.55	2335.85
412.74	2399.05
412.93	2502.03
413.12	2420.11
413.31	2551.18
413.50	2420.11
413.69	2469.27
413.88	2553.52
414.07	2466.92
414.26	2370.96
414.45	2595.65
414.64	2558.21
414.83	2602.68
415.02	2656.51
415.22	2696.30
415.41	2731.41
415.60	2719.70
415.79	2773.53
415.98	2981.84
416.17	2944.39
416.36	2867.16
416.55	2876.52
416.74	2890.56
416.93	2869.50
417.12	2789.92
417.31	3016.95
417.50	2860.13
417.69	3030.99
417.88	2937.37
418.07	3073.12
418.26	2993.55
418.45	3045.04
418.64	3194.83
418.83	3070.78
419.02	3173.77
419.21	3080.14
419.39	3300.16
419.58	3220.58
419.77	3089.51
419.96	3166.74
420.15	3337.60
420.34	3220.58
420.53	3309.52
420.72	3307.18
420.91	3274.41
421.10	3335.26
421.29	3328.24
421.48	3379.73
421.67	3398.46
421.86	3363.35
422.05	3449.95
422.24	3318.88
422.43	3489.74
422.61	3449.95
422.80	3508.46
422.99	3480.38
423.18	3543.57
423.37	3641.87
423.56	3433.57
423.75	3456.97
423.94	3428.88
424.13	3321.22
424.32	3332.92
424.50	3499.10
424.69	3501.44
424.88	3599.74
425.07	3449.95
425.26	3501.44
425.45	3550.59
425.64	3552.93
425.83	3536.55
426.01	3681.66
426.20	3534.21
426.39	3632.51
426.58	3501.44
426.77	3461.65
426.96	3672.30
427.15	3456.97
427.33	3581.02
427.52	3588.04
427.71	3630.17
427.90	3665.28
428.09	3726.13
428.28	3698.05
428.46	3840.82
428.65	3653.58
428.84	3836.14
429.03	3801.03
429.22	3616.13
429.40	3723.79
429.59	3653.58
429.78	3555.27
429.97	3611.45
430.16	3772.94
430.34	3737.84
430.53	3873.59
430.72	3904.01
430.91	3838.48
431.10	3885.29
431.28	4030.40
431.47	4152.11
431.66	4264.46
431.85	3941.46
432.03	4259.78
432.22	4051.47
432.41	3927.42
432.60	4278.50
432.79	4184.88
432.97	4147.43
433.16	4217.65
433.35	4212.96
433.54	4224.67
433.72	4208.28
433.91	4224.67
434.10	4358.08
434.28	4205.94
434.47	4353.40
434.66	4521.92
434.85	4372.12
435.03	4393.19
435.22	4376.80
435.41	4521.92
435.59	4552.34
435.78	4596.81
435.97	4557.02
436.16	4706.82
436.34	4695.11
436.53	4547.66
436.72	4741.93
436.90	4430.63
437.09	4793.42
437.28	4533.62
437.46	4688.09
437.65	4667.03
437.84	4851.93
438.02	4660.01
438.21	4758.31
438.40	4664.69
438.58	4779.37
438.77	4851.93
438.96	4884.70
439.14	5095.35
439.33	4894.06
439.52	5078.96
439.70	5050.88
439.89	5078.96
440.08	5270.89
440.26	5210.03
440.45	5193.65
440.63	5146.84
440.82	5298.97
441.01	5284.93
441.19	5172.58
441.38	5343.44
441.57	5345.78
441.75	5526.00
441.94	5540.05
442.12	5535.37
442.31	5710.91
442.50	5699.20
442.68	5575.16
442.87	5612.60
443.05	5551.75
443.24	5668.78
443.43	5645.37
443.61	5685.16
443.80	5781.12
443.98	5682.82
444.17	5699.20
444.35	5804.53
444.54	5776.44
444.73	5680.48
444.91	5720.27
445.10	5893.47
445.28	5682.82
445.47	5753.04
445.65	5640.69
445.84	5652.39
446.02	5734.31
446.21	5846.66
446.39	5792.83
446.58	5982.41
446.77	5951.98
446.95	5724.95
447.14	5767.08
447.32	5830.27
447.51	5884.11
447.69	5893.47
447.88	5947.30
448.06	6029.22
448.25	5776.44
448.43	5921.56
448.62	5912.19
448.80	5937.94
448.99	5949.64
449.17	5966.03
449.36	5944.96
449.54	6190.72
449.73	6214.12
449.91	6296.04
450.10	6291.36
450.28	6473.92
450.46	6293.70
450.65	6296.04
450.83	6272.64
451.02	6361.58
451.20	6244.55
451.39	6422.43
451.57	6368.60
451.76	6303.06
451.94	6401.37
452.13	6551.16
452.31	6370.94
452.49	6333.49
452.68	6513.71
452.86	6380.30
453.05	6469.24
453.23	6590.95
453.42	6658.82
453.60	6366.26
453.78	6609.67
453.97	6656.48
454.15	6506.69
454.34	6565.20
454.52	6977.14
454.70	6745.42
454.89	6719.68
455.07	6698.61
455.26	6724.36
455.44	6768.83
455.62	6663.51
455.81	6759.47
455.99	6967.77
456.17	6953.73
456.36	6904.58
456.54	7117.57
456.73	7035.65
456.91	7211.19
457.09	7375.03
457.28	7356.30
457.46	7150.34
457.64	7201.83
457.83	7255.66
458.01	7201.83
458.19	7279.07
458.38	7473.33
458.56	7318.86
458.74	7541.21
458.93	7295.45
459.11	7386.73
459.29	7356.30
459.48	7552.91
459.66	7442.90
459.84	7552.91
460.03	7529.50
460.21	7468.65
460.39	7588.02
460.57	7438.22
460.76	7604.40
460.94	7716.75
461.12	7679.30
461.31	7646.53
461.49	7693.34
461.67	7859.52
461.85	7847.82
462.04	7786.96
462.22	8367.42
462.40	7932.08
462.59	8037.40
462.77	7779.94
462.95	8086.55
463.13	7749.51
463.32	8095.91
463.50	8030.38
463.68	7826.75
463.86	8070.17
464.05	7922.71
464.23	8018.68
464.41	8217.62
464.59	7955.48
464.78	8248.05
464.96	8189.53
465.14	8210.60
465.32	8114.64
465.50	8318.26
465.69	8219.96
465.87	8077.19
466.05	8500.83
466.23	8292.52
466.41	8266.77
466.60	8571.04
466.78	8191.88
466.96	8285.50
467.14	8226.98
467.32	8521.89
467.51	8542.96
467.69	8259.75
467.87	8634.24
468.05	8573.38
468.23	8566.36
468.41	8297.20
468.60	8353.37
468.78	8678.71
468.96	8538.27
469.14	8676.37
469.32	8954.89
469.50	8545.30
469.69	8641.26
469.87	8912.76
470.05	8758.28
470.23	8882.33
470.41	8730.20
470.59	8997.02
470.77	8945.53
470.95	9100.00
471.14	9102.34
471.32	8835.52
471.50	9142.13
471.68	9263.84
471.86	9366.82
472.04	9074.26
472.22	9561.09
472.40	9170.22
472.58	9345.76
472.77	9193.62
472.95	9411.29
473.13	9851.31
473.31	9437.04
473.49	9446.40
473.67	9540.02
473.85	9547.05
474.03	9970.68
474.21	9837.27
474.39	9785.78
474.57	9877.06
474.75	9923.87
474.93	10078.35
475.12	9870.04
475.30	10085.37
475.48	10190.69
475.66	10235.16
475.84	10008.13
476.02	10171.97
476.20	10452.83
476.38	10649.44
476.56	10747.74
476.74	10551.14
476.92	10675.18
477.10	10611.99
477.28	10740.72
477.46	10724.33
477.64	10850.72
477.82	11028.60
478.00	11229.89
478.18	11274.36
478.36	11206.48
478.54	11510.75
478.72	11426.50
478.90	11747.15
479.08	11606.72
479.26	11740.13
479.44	11672.25
479.62	11815.02
479.80	11843.11
479.98	12058.44
480.16	12262.07
480.34	12360.37
480.52	12327.60
480.70	12465.69
480.88	12133.34
481.06	12479.74
481.24	12634.21
481.41	12769.96
481.59	12784.01
481.77	12737.20
481.95	12957.21
482.13	13242.75
482.31	12985.29
482.49	13151.47
482.67	13376.16
482.85	13809.16
483.03	13549.36
483.21	13715.54
483.39	13891.08
483.57	14106.41
483.74	14059.60
483.92	13977.68
484.10	13977.68
484.28	14342.80
484.46	14862.40
484.64	14635.37
484.82	14490.26
485.00	14675.16
485.18	15059.01
485.35	14963.04
485.53	14902.19
485.71	14916.23
485.89	15054.33
486.07	15260.29
486.25	15171.35
486.43	15566.90
486.61	15838.41
486.78	15763.51
486.96	15962.45
487.14	16311.19
487.32	16091.18
487.50	16163.74
487.68	16329.92
487.85	16355.66
488.03	16760.58
488.21	16872.92
488.39	16798.02
488.57	16964.20
488.75	17343.37
488.92	17362.09
489.10	17741.26
489.28	17607.85
489.46	17729.56
489.64	17989.36
489.81	18033.83
489.99	18265.54
490.17	18405.97
490.35	18448.10
490.53	18623.64
490.70	18834.29
490.88	18885.78
491.06	19030.90
491.24	18815.57
491.41	18904.51
491.59	19431.13
491.77	18984.09
491.95	19136.22
492.13	19278.99
492.30	19506.02
492.48	19342.19
492.66	19733.06
492.84	20116.90
493.01	20137.97
493.19	19871.15
493.37	20521.82
493.54	20477.35
493.72	20306.49
493.90	20594.37
494.08	20788.64
494.25	21106.95
494.43	21193.55
494.61	21106.95
494.79	21273.13
494.96	21146.74
495.14	21378.45
495.32	21553.99
495.49	21809.11
495.67	21827.84
495.85	22157.85
496.02	21923.80
496.20	22097.00
496.38	22153.17
496.55	22530.00
496.73	22658.73
496.91	22419.99
497.09	22874.06
497.26	22902.14
497.44	22668.09
497.62	22658.73
497.79	23185.35
497.97	23115.13
498.14	23522.38
498.32	23515.36
498.50	23421.74
498.67	23651.11
498.85	23866.44
499.03	23964.75
499.20	23871.12
499.38	24144.97
499.56	24027.94
499.73	24374.34
499.91	24285.40
500.08	24294.76
500.26	24329.87
500.44	24189.44
500.61	24477.32
500.79	24634.14
500.97	24940.75
501.14	24812.02
501.32	25083.52
501.49	24767.55
501.67	25282.47
501.84	25055.43
502.02	25404.17
502.20	25666.31
502.37	25645.25
502.55	25666.31
502.72	25687.38
502.90	25682.70
503.07	25708.44
503.25	26059.52
503.43	25757.60
503.60	26256.13
503.78	26057.18
503.95	26010.37
504.13	25972.92
504.30	26401.24
504.48	26518.27
504.65	26148.46
504.83	26796.79
505.01	27440.44
505.18	26948.93
505.36	27463.85
505.53	27140.85
505.71	27072.98
505.88	27138.51
506.06	26937.23
506.23	27082.34
506.41	27211.07
506.58	27388.95
506.76	27328.10
506.93	27559.81
507.11	27749.39
507.28	27910.89
507.46	27798.54
507.63	28163.67
507.81	27878.12
507.98	27873.44
508.16	28070.04
508.33	27899.19
508.50	28273.67
508.68	28489.00
508.85	28481.98
509.03	28379.00
509.20	28690.29
509.38	28919.66
509.55	28851.78
509.73	28973.49
509.90	28914.98
510.08	29076.48
510.25	29146.69
510.42	29266.06
510.60	29223.93
510.77	29242.65
510.95	29252.02
511.12	29195.84
511.30	29397.13
511.47	29940.13
511.64	30319.30
511.82	30000.99
511.99	29364.36
512.17	29855.87
512.34	30031.41
512.51	30478.46
512.69	30614.21
512.86	30183.55
513.04	30576.76
513.21	30504.20
513.38	30199.93
513.56	30221.00
513.73	30258.45
513.90	31047.21
514.08	30735.92
514.25	31072.95
514.43	30906.77
514.60	30625.91
514.77	31372.54
514.95	31077.63
515.12	30995.71
515.29	30918.48
515.47	31304.67
515.64	31583.19
515.81	31470.84
515.99	31433.39
516.16	31716.60
516.33	31519.99
516.51	31995.12
516.68	31435.74
516.85	31555.10
517.03	31702.56
517.20	31976.40
517.37	31995.12
517.54	32151.94
517.72	31882.78
517.89	31988.10
518.06	32023.21
518.24	32025.55
518.41	32046.62
518.58	31864.05
518.75	32142.58
518.93	33015.60
519.10	32800.27
519.27	32694.94
519.45	32687.92
519.62	32608.34
519.79	33233.27
519.96	32692.60
520.14	33263.69
520.31	33055.39
520.48	33195.82
520.65	33104.54
520.83	33656.90
521.00	33731.80
521.17	33638.18
521.34	33750.52
521.52	33420.51
521.69	33823.08
521.86	33872.23
522.03	33982.24
522.20	33867.55
522.38	33951.81
522.55	34134.37
522.72	34066.50
522.89	34181.18
523.07	34227.99
523.24	33998.62
523.41	34106.29
523.58	34232.68
523.75	35133.78
523.92	34375.45
524.10	34646.95
524.27	34679.72
524.44	34698.44
524.61	35054.20
524.78	34710.14
524.96	35185.27
525.13	35309.32
525.30	35007.39
525.47	35615.93
525.64	35061.22
525.81	35164.21
525.98	35414.65
526.16	35030.80
526.33	35208.68
526.50	35566.78
526.67	35447.41
526.84	35505.93
527.01	35302.30
527.18	35311.66
527.36	35948.29
527.53	35887.43
527.70	36109.78
527.87	35974.03
528.04	35978.72
528.21	36126.17
528.38	35456.78
528.55	36074.68
528.72	36196.38
528.89	36678.54
529.07	36378.95
529.24	36297.03
529.41	36416.40
529.58	36217.45
529.75	36601.30
529.92	36495.97
530.09	36627.04
530.26	37006.21
530.43	36755.77
530.60	36514.70
530.77	36739.39
530.94	36982.80
531.11	36711.30
531.28	36830.67
531.46	37036.64
531.63	37577.30
531.80	36842.37
531.97	36849.39
532.14	37326.86
532.31	37425.17
532.48	37411.12
532.65	37310.48
532.82	37361.97
532.99	37514.11
533.16	37317.50
533.33	37558.58
533.50	37876.89
533.67	37186.43
533.84	37579.64
534.01	37691.99
534.18	37130.26
534.35	38132.01
534.52	38029.02
534.69	37933.06
534.86	38108.60
535.03	37830.08
535.20	38197.54
535.37	38211.59
535.54	38321.59
535.71	38387.13
535.88	38557.99
536.05	38485.43
536.22	38422.23
536.38	38445.64
536.55	38375.42
536.72	38366.06
536.89	38602.46
537.06	38541.60
537.23	38656.29
537.40	38684.37
537.57	38728.84
537.74	38408.19
537.91	38960.56
538.08	39002.69
538.25	38630.54
538.42	39108.01
538.59	38848.21
538.75	38789.70
538.92	39030.77
539.09	39199.29
539.26	39297.59
539.43	39119.71
539.60	39133.76
539.77	38892.68
539.94	39304.62
540.11	39316.32
540.28	39178.23
540.44	39173.55
540.61	39098.65
540.78	39377.17
540.95	39508.24
541.12	39042.48
541.29	39384.19
541.46	39620.59
541.62	39660.38
541.79	39599.52
541.96	39281.21
542.13	39496.54
542.30	39852.30
542.47	39842.94
542.63	39412.28
542.80	40208.06
542.97	40116.78
543.14	40657.45
543.31	40343.81
543.48	40266.58
543.64	41024.91
543.81	40196.36
543.98	40205.72
544.15	40308.71
544.32	40570.85
544.48	40734.68
544.65	40477.22
544.82	40491.27
544.99	40477.22
545.16	40725.32
545.32	40596.59
545.49	41064.70
545.66	41488.34
545.83	40765.11
546.00	41249.60
546.16	40928.95
546.33	41106.83
546.50	40671.49
546.67	40924.27
546.83	40781.49
547.00	41429.82
547.17	41116.19
547.34	41132.57
547.50	41308.11
547.67	41298.75
547.84	41249.60
548.00	41195.77
548.17	41804.31
548.34	41233.22
548.51	41216.83
548.67	41467.27
548.84	41766.86
549.01	41738.77
549.18	41439.18
549.34	41893.25
549.51	42284.12
549.68	41858.14
549.84	41698.98
550.01	41759.84
550.18	41399.40
550.34	41689.62
550.51	41708.35
550.68	41984.53
550.84	41698.98
551.01	41797.29
551.18	41588.98
551.34	41949.42
551.51	41956.44
551.68	41977.51
551.84	42394.12
552.01	42082.83
552.18	42181.13
552.34	42167.09
552.51	42103.90
552.68	42370.72
552.84	42258.37
553.01	42930.11
553.18	42197.52
553.34	42050.06
553.51	42213.90
553.67	42129.64
553.84	42944.15
554.01	42593.07
554.17	43035.43
554.34	42632.86
554.51	42682.01
554.67	42698.39
554.84	42686.69
555.00	42398.80
555.17	42443.27
555.33	42539.24
555.50	42653.92
555.67	42988.62
555.83	42843.51
556.00	42522.85
556.16	43051.81
556.33	43124.37
556.50	42740.52
556.66	43407.58
556.83	42911.38
556.99	43072.88
557.16	43213.31
557.32	42717.12
557.49	43051.81
557.65	42635.20
557.82	42473.70
557.98	42777.97
558.15	42639.88
558.32	43463.75
558.48	43129.05
558.65	43405.23
558.81	43313.95
558.98	43056.50
559.14	43318.64
559.31	43363.11
559.47	43056.50
559.64	43529.28
559.80	43835.89
559.97	43225.01
560.13	43145.44
560.30	43250.76
560.46	43526.94
560.63	42965.21
560.79	43459.07
560.96	43576.09
561.12	43433.32
561.29	43323.32
561.45	43522.26
561.61	43594.82
561.78	43402.89
561.94	43391.19
562.11	43622.90
562.27	43320.98
562.44	43566.73
562.60	43842.92
562.77	43765.68
562.93	43281.19
563.10	44039.52
563.26	43246.08
563.42	43819.51
563.59	43374.81
563.75	43878.02
563.92	44011.43
564.08	43676.74
564.24	44081.65
564.41	44086.33
564.57	43615.88
564.74	43817.17
564.90	43566.73
565.07	43775.04
565.23	43681.42
565.39	43765.68
565.56	43901.43
565.72	43604.18
565.88	43718.87
566.05	44020.80
566.21	43887.39
566.38	43845.26
566.54	43796.10
566.70	44488.90
566.87	44289.96
567.03	44718.28
567.19	44603.59
567.36	43997.39
567.52	43672.06
567.68	43997.39
567.85	44194.00
568.01	44121.44
568.17	44130.80
568.34	44175.27
568.50	43931.86
568.66	43948.24
568.83	44376.56
568.99	44191.65
569.15	43971.64
569.32	44142.50
569.48	44156.55
569.64	44325.07
569.81	44060.58
569.97	43770.36
570.13	44245.49
570.30	44231.44
570.46	44144.84
570.62	43861.64
570.78	43784.40
570.95	44210.38
571.11	44266.55
571.27	44715.93
571.43	44554.44
571.60	44334.43
571.76	44374.22
571.92	44217.40
572.09	44020.80
572.25	43842.92
572.41	44179.95
572.57	44261.87
572.74	44823.60
572.90	44519.33
573.06	44577.84
573.22	44194.00
573.38	44184.63
573.55	43833.55
573.71	44603.59
573.87	44451.45
574.03	43894.41
574.20	44554.44
574.36	44500.61
574.52	44928.92
574.68	44739.34
574.84	44575.50
575.01	44126.12
575.17	44444.43
575.33	44313.36
575.49	44428.05
575.65	44905.52
575.82	44788.49
575.98	44163.57
576.14	44648.06
576.30	44655.08
576.46	44275.91
576.62	44552.10
576.79	44470.18
576.95	43896.75
577.11	44210.38
577.27	44341.45
577.43	44442.09
577.59	44137.82
577.75	44582.52
577.92	43927.17
578.08	44292.30
578.24	44158.89
578.40	44088.67
578.56	44435.07
578.72	44409.32
578.88	44341.45
579.04	44524.01
579.21	44076.97
579.37	44437.41
579.53	44538.05
579.69	44318.04
579.85	44292.30
580.01	44528.69
580.17	44243.15
580.33	44830.62
580.49	44919.56
580.65	44540.39
580.82	44800.19
580.98	44177.61
581.14	44512.31
581.30	44814.24
581.46	44711.25
581.62	44404.64
581.78	44598.91
581.94	45244.90
582.10	44446.77
582.26	44725.30
582.42	44416.35
582.58	44985.10
582.74	44652.74
582.90	44622.31
583.06	45045.95
583.22	45244.90
583.38	44636.36
583.54	44158.89
583.70	44463.16
583.86	44018.46
584.02	44545.08
584.18	44285.28
584.34	44886.79
584.50	44652.74
584.66	44432.73
584.82	44329.75
584.98	44847.00
585.14	44634.02
585.30	44308.68
585.46	44402.30
585.62	44315.70
585.78	44282.94
585.94	44245.49
586.10	44762.75
586.26	44456.14
586.42	44453.79
586.58	44762.75
586.74	44355.49
586.90	44598.91
587.06	44175.27
587.22	44292.30
587.38	44498.26
587.54	45111.49
587.70	45083.40
587.86	44561.46
588.02	44645.72
588.18	44540.39
588.34	44617.63
588.49	44451.45
588.65	44432.73
588.81	44535.71
588.97	44388.26
589.13	44016.11
589.29	44678.49
589.45	44664.44
589.61	44870.41
589.77	44814.24
589.93	44924.24
590.08	44914.88
590.24	44797.85
