SpectraSuite Data File
++++++++++++++++++++++++++++++++++++
Date: Fri Oct 25 11:34:45 EDT 2013
User: price-jones
Dark Spectrum Present: No
Reference Spectrum Present: No
Number of Sampled Component Spectra: 1
Spectrometers: USB2+H05261
Integration Time (usec): 100000 (USB2+H05261)
Spectra Averaged: 1 (USB2+H05261)
Boxcar Smoothing: 0 (USB2+H05261)
Correct for Electrical Dark: No (USB2+H05261)
Strobe/Lamp Enabled: No (USB2+H05261)
Correct for Detector Non-linearity: No (USB2+H05261)
Correct for Stray Light: No (USB2+H05261)
Number of Pixels in Processed Spectrum: 2048
>>>>>Begin Processed Spectral Data<<<<<
365.73	280.86
365.92	280.86
366.12	280.86
366.32	238.73
366.52	220.01
366.72	196.60
366.91	175.54
367.11	168.52
367.31	163.84
367.51	166.18
367.70	191.92
367.90	140.43
368.10	210.65
368.30	138.09
368.49	189.58
368.69	198.95
368.89	182.56
369.09	161.50
369.28	175.54
369.48	224.69
369.68	271.50
369.87	252.78
370.07	220.01
370.27	327.68
370.47	334.70
370.66	379.17
370.86	564.07
371.06	608.54
371.25	545.34
371.45	510.24
371.65	505.56
371.84	550.03
372.04	517.26
372.24	622.58
372.44	578.11
372.63	613.22
372.83	528.96
373.03	559.39
373.22	617.90
373.42	660.03
373.62	533.64
373.81	655.35
374.01	585.13
374.21	641.31
374.40	711.52
374.60	723.23
374.79	674.07
374.99	606.20
375.19	657.69
375.38	674.07
375.58	613.22
375.78	674.07
375.97	643.65
376.17	746.63
376.37	664.71
376.56	674.07
376.76	601.52
376.95	653.01
377.15	655.35
377.35	704.50
377.54	669.39
377.74	664.71
377.93	695.14
378.13	634.29
378.33	669.39
378.52	608.54
378.72	739.61
378.91	664.71
379.11	622.58
379.31	704.50
379.50	662.37
379.70	695.14
379.89	723.23
380.09	720.88
380.28	748.97
380.48	753.65
380.68	676.41
380.87	648.33
381.07	716.20
381.26	784.08
381.46	805.14
381.65	755.99
381.85	737.27
382.04	716.20
382.24	734.93
382.43	730.25
382.63	784.08
382.83	779.40
383.02	781.74
383.22	795.78
383.41	765.36
383.61	786.42
383.80	755.99
384.00	812.17
384.19	777.06
384.39	788.76
384.58	802.80
384.78	889.40
384.97	826.21
385.17	807.48
385.36	842.59
385.56	835.57
385.75	753.65
385.95	800.46
386.14	837.91
386.34	866.00
386.53	898.77
386.72	849.61
386.92	840.25
387.11	802.80
387.31	912.81
387.50	898.77
387.70	854.30
387.89	938.55
388.09	896.43
388.28	837.91
388.48	875.36
388.67	889.40
388.86	837.91
389.06	866.00
389.25	880.04
389.45	968.98
389.64	931.53
389.84	917.49
390.03	938.55
390.22	926.85
390.42	968.98
390.61	966.64
390.81	987.71
391.00	943.24
391.19	1015.79
391.39	933.87
391.58	943.24
391.78	919.83
391.97	908.13
392.16	945.58
392.36	994.73
392.55	1029.84
392.75	966.64
392.94	1057.92
393.13	1060.26
393.33	994.73
393.52	1006.43
393.71	1083.67
393.91	959.62
394.10	1081.33
394.29	1069.62
394.49	1039.20
394.68	1090.69
394.88	1071.97
395.07	1008.77
395.26	1086.01
395.46	1062.60
395.65	1151.54
395.84	1116.44
396.04	1167.93
396.23	1205.38
396.42	1156.22
396.62	1172.61
396.81	1198.35
397.00	1130.48
397.19	1081.33
397.39	1172.61
397.58	1240.48
397.77	1240.48
397.97	1228.78
398.16	1259.21
398.35	1383.26
398.55	1088.35
398.74	1341.13
398.93	1277.93
399.12	1261.55
399.32	1212.40
399.51	1306.02
399.70	1329.42
399.90	1270.91
400.09	1235.80
400.28	1299.00
400.47	1371.55
400.67	1355.17
400.86	1366.87
401.05	1362.19
401.24	1434.75
401.44	1392.62
401.63	1371.55
401.82	1366.87
402.01	1369.21
402.21	1500.28
402.40	1383.26
402.59	1406.66
402.78	1441.77
402.97	1343.47
403.17	1497.94
403.36	1430.07
403.55	1411.34
403.74	1488.58
403.93	1591.56
404.13	1533.05
404.32	1579.86
404.51	1605.61
404.70	1556.46
404.89	1556.46
405.09	1621.99
405.28	1502.62
405.47	1575.18
405.66	1647.74
405.85	1666.46
406.05	1633.69
406.24	1589.22
406.43	1626.67
406.62	1774.13
406.81	1629.01
407.00	1629.01
407.20	1626.67
407.39	1757.74
407.58	1699.23
407.77	1722.63
407.96	1832.64
408.15	1816.26
408.34	1802.21
408.54	1900.52
408.73	1832.64
408.92	1849.02
409.11	1881.79
409.30	1963.71
409.49	1867.75
409.68	1912.22
409.87	1867.75
410.07	1914.56
410.26	2066.69
410.45	1919.24
410.64	2005.84
410.83	1987.11
411.02	2071.37
411.21	2118.18
411.40	2050.31
411.59	2260.96
411.78	2071.37
411.98	2141.59
412.17	2214.15
412.36	2202.44
412.55	2256.28
412.74	2300.75
412.93	2197.76
413.12	2230.53
413.31	2373.30
413.50	2286.70
413.69	2291.38
413.88	2314.79
414.07	2373.30
414.26	2415.43
414.45	2445.86
414.64	2476.29
414.83	2448.20
415.02	2438.84
415.22	2497.35
415.41	2574.59
415.60	2497.35
415.79	2630.76
415.98	2602.68
416.17	2665.87
416.36	2551.18
416.55	2588.63
416.74	2736.09
416.93	2640.12
417.12	2801.62
417.31	2841.41
417.50	2726.72
417.69	2935.03
417.88	2897.58
418.07	2796.94
418.26	2832.05
418.45	2810.98
418.64	2951.42
418.83	2923.33
419.02	2829.71
419.21	2960.78
419.39	2967.80
419.58	2832.05
419.77	2909.29
419.96	2960.78
420.15	2981.84
420.34	2935.03
420.53	3049.72
420.72	3028.65
420.91	3094.19
421.10	3150.36
421.29	3073.12
421.48	3112.91
421.67	3129.30
421.86	3159.72
422.05	3192.49
422.24	3124.62
422.43	3197.17
422.61	3248.66
422.80	3229.94
422.99	3225.26
423.18	3234.62
423.37	3267.39
423.56	3283.77
423.75	3108.23
423.94	3150.36
424.13	3176.11
424.32	3073.12
424.50	3274.41
424.69	3251.00
424.88	3251.00
425.07	3234.62
425.26	3236.96
425.45	3316.54
425.64	3349.31
425.83	3300.16
426.01	3356.33
426.20	3407.82
426.39	3412.50
426.58	3255.69
426.77	3307.18
426.96	3368.03
427.15	3372.71
427.33	3480.38
427.52	3410.16
427.71	3321.22
427.90	3335.26
428.09	3375.05
428.28	3471.01
428.46	3564.64
428.65	3492.08
428.84	3585.70
429.03	3510.80
429.22	3482.72
429.40	3559.95
429.59	3693.37
429.78	3445.27
429.97	3438.25
430.16	3588.04
430.34	3726.13
430.53	3660.60
430.72	3700.39
430.91	3735.50
431.10	3686.34
431.28	3866.56
431.47	3754.22
431.66	3796.35
431.85	3674.64
432.03	3894.65
432.22	3981.25
432.41	3794.01
432.60	3875.93
432.79	3812.73
432.97	3868.91
433.16	3831.46
433.35	3901.67
433.54	3974.23
433.72	4016.36
433.91	4025.72
434.10	4112.32
434.28	3981.25
434.47	3939.12
434.66	4102.96
434.85	4079.55
435.03	4016.36
435.22	4046.79
435.41	4229.35
435.59	4138.07
435.78	4224.67
435.97	4147.43
436.16	4152.11
436.34	4079.55
436.53	4117.00
436.72	4248.07
436.90	4138.07
437.09	4280.84
437.28	4241.05
437.46	4315.95
437.65	4348.72
437.84	4568.73
438.02	4418.93
438.21	4292.54
438.40	4224.67
438.58	4608.51
438.77	4681.07
438.96	4585.11
439.14	4542.98
439.33	4564.04
439.52	4585.11
439.70	4660.01
439.89	4767.67
440.08	4697.46
440.26	4617.88
440.45	4662.35
440.63	4840.23
440.82	4887.04
441.01	4898.74
441.19	4910.44
441.38	5048.54
441.57	4826.18
441.75	5018.11
441.94	5109.39
442.12	5280.25
442.31	5076.62
442.50	5064.92
442.68	5085.98
442.87	5132.79
443.05	5020.45
443.24	5224.08
443.43	5280.25
443.61	5373.87
443.80	5406.64
443.98	5181.95
444.17	5121.09
444.35	5350.46
444.54	5416.00
444.73	5357.49
444.91	5291.95
445.10	5348.12
445.28	5317.70
445.47	5411.32
445.65	5275.57
445.84	5378.55
446.02	5507.28
446.21	5448.77
446.39	5373.87
446.58	5502.60
446.77	5308.34
446.95	5448.77
447.14	5355.15
447.32	5568.13
447.51	5420.68
447.69	5444.09
447.88	5535.37
448.06	5526.00
448.25	5364.51
448.43	5640.69
448.62	5373.87
448.80	5521.32
448.99	5692.18
449.17	5556.43
449.36	5486.22
449.54	5591.54
449.73	5640.69
449.91	5790.49
450.10	5804.53
450.28	5701.54
450.46	5788.14
450.65	5790.49
450.83	5863.04
451.02	5710.91
451.20	5776.44
451.39	5970.71
451.57	5823.25
451.76	5788.14
451.94	5902.83
452.13	5914.53
452.31	6010.50
452.49	5853.68
452.68	5963.68
452.86	5947.30
453.05	5959.00
453.23	6160.29
453.42	6031.56
453.60	6094.76
453.78	6141.57
453.97	6153.27
454.15	5951.98
454.34	6040.92
454.52	6228.17
454.70	6162.63
454.89	6167.31
455.07	6216.46
455.26	6324.13
455.44	6452.86
455.62	6274.98
455.81	6370.94
455.99	6326.47
456.17	6373.28
456.36	6380.30
456.54	6532.44
456.73	6626.06
456.91	6729.04
457.09	6544.14
457.28	6771.17
457.46	6682.23
457.64	6722.02
457.83	6703.29
458.01	6693.93
458.19	6899.90
458.38	6857.77
458.56	6930.33
458.74	6890.54
458.93	6771.17
459.11	6862.45
459.29	6764.15
459.48	6740.74
459.66	6920.96
459.84	6991.18
460.03	7082.46
460.21	7073.10
460.39	6803.94
460.57	6937.35
460.76	7049.69
460.94	7241.62
461.12	7136.29
461.31	7131.61
461.49	7023.95
461.67	6979.48
461.85	7199.49
462.04	7311.83
462.22	7206.51
462.40	7356.30
462.59	7410.14
462.77	7295.45
462.95	7496.74
463.13	7295.45
463.32	7384.39
463.50	7421.84
463.68	7517.80
463.86	7517.80
464.05	7391.41
464.23	7573.97
464.41	7492.05
464.59	7396.09
464.78	7719.09
464.96	7494.40
465.14	7578.65
465.32	7777.60
465.50	7581.00
465.69	7693.34
465.87	7691.00
466.05	7627.81
466.23	7662.91
466.41	7658.23
466.60	8056.12
466.78	7632.49
466.96	7672.28
467.14	7997.61
467.32	7957.82
467.51	7964.84
467.69	7754.19
467.87	7763.56
468.05	8039.74
468.23	7899.31
468.41	7793.98
468.60	7866.54
468.78	8215.28
468.96	7859.52
469.14	8205.92
469.32	8126.34
469.50	8004.63
469.69	8215.28
469.87	8292.52
470.05	8276.13
470.23	8355.71
470.41	8341.67
470.59	8596.79
470.77	8449.33
470.95	8397.84
471.14	8645.94
471.32	8304.22
471.50	8526.57
471.68	8451.67
471.86	8652.96
472.04	8631.90
472.22	8805.10
472.40	8606.15
472.58	8652.96
472.77	8889.35
472.95	8905.74
473.13	8975.95
473.31	8793.39
473.49	8725.52
473.67	8889.35
473.85	8901.06
474.03	9053.19
474.21	9090.64
474.39	9362.14
474.57	9249.80
474.75	9551.73
474.93	9437.04
475.12	9320.01
475.30	9542.36
475.48	9490.87
475.66	9764.72
475.84	9586.83
476.02	9584.49
476.20	9348.10
476.38	9783.44
476.56	10033.88
476.74	10139.20
476.92	10078.35
477.10	10031.54
477.28	10265.59
477.46	10097.07
477.64	10270.27
477.82	10253.89
478.00	10551.14
478.18	10422.41
478.36	10609.65
478.54	10703.27
478.72	10752.42
478.90	10925.62
479.08	11000.52
479.26	11133.93
479.44	11070.73
479.62	10944.34
479.80	11288.40
479.98	11330.53
480.16	11529.48
480.34	11337.56
480.52	11501.39
480.70	11597.35
480.88	11431.18
481.06	11676.93
481.24	11744.81
481.41	11756.51
481.59	12105.25
481.77	11978.86
481.95	12241.00
482.13	12187.17
482.31	12301.86
482.49	12437.61
482.67	12641.23
482.85	12573.36
483.03	12748.90
483.21	12868.27
483.39	13078.91
483.57	12910.40
483.74	13198.28
483.92	13331.69
484.10	13392.55
484.28	13528.30
484.46	13774.05
484.64	13965.98
484.82	13715.54
485.00	13673.41
485.18	13961.30
485.35	14033.85
485.53	14218.75
485.71	14328.76
485.89	14637.71
486.07	14469.19
486.25	14567.49
486.43	14546.43
486.61	14897.51
486.78	14670.48
486.96	15171.35
487.14	15538.82
487.32	15063.69
487.50	15255.61
487.68	15515.41
487.85	15723.72
488.03	15712.02
488.21	16421.20
488.39	15843.09
488.57	15957.77
488.75	15901.60
488.92	16372.05
489.10	16552.27
489.28	16575.67
489.46	16765.26
489.64	16688.02
489.81	17481.46
489.99	17106.98
490.17	17322.30
490.35	17364.43
490.53	17427.63
490.70	17565.72
490.88	17626.57
491.06	18071.28
491.24	17860.63
491.41	18090.00
491.59	18113.41
491.77	18183.62
491.95	18092.34
492.13	18583.85
492.30	18410.65
492.48	18539.38
492.66	18492.57
492.84	18569.81
493.01	19269.63
493.19	18958.34
493.37	19370.27
493.54	19173.67
493.72	19529.43
493.90	19290.70
494.08	19726.04
494.25	19569.22
494.43	19594.96
494.61	19861.79
494.79	19845.40
494.96	20336.91
495.14	20294.79
495.32	20489.05
495.49	20577.99
495.67	20727.78
495.85	20741.83
496.02	20968.86
496.20	21074.18
496.38	21142.06
496.55	21018.01
496.73	21720.17
496.91	21591.44
497.09	21336.32
497.26	21970.61
497.44	21804.43
497.62	21703.79
497.79	22394.25
497.97	22197.64
498.14	22302.96
498.32	22239.77
498.50	22319.35
498.67	22778.09
498.85	22295.94
499.03	22640.00
499.20	22651.70
499.38	23117.47
499.56	22855.33
499.73	22995.76
499.91	22862.35
500.08	23353.87
500.26	22930.23
500.44	23243.86
500.61	23379.61
500.79	23344.50
500.97	23328.12
501.14	23791.55
501.32	23864.10
501.49	23861.76
501.67	24170.71
501.84	24491.37
502.02	24130.92
502.20	24212.84
502.37	24250.29
502.55	24364.98
502.72	24500.73
502.90	24575.62
503.07	24428.17
503.25	24259.65
503.43	24730.10
503.60	24620.10
503.78	25057.78
503.95	24872.87
504.13	24945.43
504.30	25240.34
504.48	25041.39
504.65	25495.46
504.83	25649.93
505.01	25610.14
505.18	25495.46
505.36	25792.70
505.53	25668.66
505.71	25795.04
505.88	26263.15
506.06	25668.66
506.23	25715.47
506.41	25996.33
506.58	26342.73
506.76	26150.81
506.93	26469.12
507.11	26237.41
507.28	26309.96
507.46	26211.66
507.63	26604.87
507.81	26803.82
507.98	26670.40
508.16	26719.56
508.33	26972.33
508.50	27012.12
508.68	26986.38
508.85	27300.01
509.03	27274.26
509.20	27459.16
509.38	27267.24
509.55	27824.29
509.73	27501.29
509.90	27611.30
510.08	27812.59
510.25	28102.81
510.42	28056.00
510.60	27892.16
510.77	27955.36
510.95	28622.41
511.12	28353.25
511.30	28294.74
511.47	28435.17
511.64	28306.44
511.82	28512.41
511.99	28886.89
512.17	28556.88
512.34	28446.87
512.51	29366.70
512.69	29036.69
512.86	29139.67
513.04	29027.32
513.21	29111.58
513.38	29137.33
513.56	29319.89
513.73	29530.54
513.90	29530.54
514.08	29364.36
514.25	29769.27
514.43	29677.99
514.60	29708.42
514.77	29958.86
514.95	30005.67
515.12	30249.08
515.29	29827.79
515.47	29923.75
515.64	30431.65
515.81	30391.86
515.99	30579.10
516.16	30384.83
516.33	30845.92
516.51	30988.69
516.68	30518.25
516.85	30691.44
517.03	31012.10
517.20	30843.58
517.37	30574.42
517.54	30785.07
517.72	30794.43
517.89	31225.09
518.06	31016.78
518.24	31152.53
518.41	31075.29
518.58	31398.29
518.75	31028.48
518.93	31281.26
519.10	31101.04
519.27	31578.51
519.45	31681.49
519.62	31915.54
519.79	31707.24
519.96	31901.50
520.14	31754.05
520.31	32051.30
520.48	32142.58
520.65	31791.50
520.83	32367.27
521.00	32708.99
521.17	31648.72
521.34	32336.84
521.52	32575.58
521.69	32861.12
521.86	32720.69
522.03	32968.79
522.20	32893.89
522.38	32863.46
522.55	33034.32
522.72	32931.34
522.89	32912.61
523.07	33181.77
523.24	33464.98
523.41	33170.07
523.58	32947.72
523.75	33441.57
523.92	33261.35
524.10	33806.70
524.27	33460.30
524.44	33778.61
524.61	33713.08
524.78	33722.44
524.96	33778.61
525.13	34139.05
525.30	34085.22
525.47	33907.34
525.64	33888.62
525.81	33979.90
525.98	34457.37
526.16	34185.86
526.33	34054.79
526.50	34253.74
526.67	34501.84
526.84	34408.22
527.01	34270.12
527.18	34382.47
527.36	35075.27
527.53	35000.37
527.70	34991.01
527.87	35037.82
528.04	34352.04
528.21	34897.39
528.38	34660.99
528.55	35187.61
528.72	34958.24
528.89	35192.30
529.07	35283.58
529.24	35056.54
529.41	35239.11
529.58	35262.51
529.75	34988.67
529.92	35587.85
530.09	35356.13
530.26	35590.19
530.43	35768.07
530.60	35384.22
530.77	35398.26
530.94	36109.78
531.11	35550.40
531.28	35852.33
531.46	35744.66
531.63	35945.95
531.80	36095.74
531.97	36346.18
532.14	36407.03
532.31	36238.51
532.48	36182.34
532.65	36407.03
532.82	36313.41
532.99	36355.54
533.16	36137.87
533.33	36507.68
533.50	36275.96
533.67	36587.25
533.84	36467.89
534.01	36561.51
534.18	36498.31
534.35	37249.63
534.52	36954.72
534.69	37060.04
534.86	36952.38
535.03	36542.78
535.20	37029.62
535.37	36769.82
535.54	37340.91
535.71	37223.88
535.88	37514.11
536.05	37202.82
536.22	37230.90
536.38	37226.22
536.55	37266.01
536.72	37434.53
536.89	37694.33
537.06	37479.00
537.23	37750.50
537.40	37443.89
537.57	37596.03
537.74	37226.22
537.91	37701.35
538.08	37851.14
538.25	37453.25
538.42	37853.48
538.59	38314.57
538.75	38139.03
538.92	37972.85
539.09	38532.24
539.26	37989.24
539.43	38431.60
539.60	38307.55
539.77	37984.55
539.94	38354.36
540.11	38660.97
540.28	38401.17
540.44	38260.74
540.61	38740.55
540.78	38700.76
540.95	38525.22
541.12	38316.91
541.29	38155.41
541.46	38871.62
541.62	38813.10
541.79	38698.42
541.96	38457.34
542.13	38663.31
542.30	38974.60
542.47	38965.24
542.63	39182.91
542.80	39157.16
542.97	39445.05
543.14	39651.02
543.31	39283.55
543.48	39173.55
543.64	39831.24
543.81	39440.37
543.98	39629.95
544.15	39381.85
544.32	39548.03
544.48	40219.77
544.65	39824.22
544.82	40172.96
544.99	39721.23
545.16	39732.93
545.32	39590.16
545.49	40282.96
545.66	40409.35
545.83	40163.59
546.00	40369.56
546.16	40374.24
546.33	39927.20
546.50	40158.91
546.67	40294.66
546.83	39803.15
547.00	40084.01
547.17	39936.56
547.34	40879.80
547.50	40559.14
547.67	40912.56
547.84	40683.19
548.00	40793.20
548.17	41263.64
548.34	40849.37
548.51	40987.46
548.67	40776.81
548.84	40620.00
549.01	40935.97
549.18	40903.20
549.34	41097.47
549.51	40854.05
549.68	40872.78
549.84	41450.89
550.01	40893.84
550.18	40947.67
550.34	41057.68
550.51	41258.96
550.68	41453.23
550.84	40966.40
551.01	41420.46
551.18	41219.17
551.34	41212.15
551.51	41361.95
551.68	41167.68
551.84	41701.32
552.01	41462.59
552.18	41610.04
552.34	41270.67
552.51	41680.26
552.68	41123.21
552.84	41940.06
553.01	41694.30
553.18	41816.01
553.34	41797.29
553.51	41579.62
553.67	41614.72
553.84	41907.29
554.01	41755.16
554.17	41495.36
554.34	42363.70
554.51	42206.88
554.67	42323.91
554.84	42366.04
555.00	41818.35
555.17	42174.11
555.33	42218.58
555.50	42335.61
555.67	42099.22
555.83	42115.60
556.00	42244.33
556.16	42508.81
556.33	42476.04
556.50	42841.17
556.66	42169.43
556.83	42281.78
556.99	42394.12
557.16	42897.34
557.32	42555.62
557.49	42302.84
557.65	42319.23
557.82	42377.74
557.98	42557.96
558.15	42724.14
558.32	42878.61
558.48	42258.37
558.65	42920.74
558.81	42646.90
558.98	42183.48
559.14	42740.52
559.31	42567.32
559.47	43185.22
559.64	42866.91
559.80	43171.18
559.97	43070.54
560.13	42457.32
560.30	43192.25
560.46	43262.46
560.63	43337.36
560.79	43505.88
560.96	42986.28
561.12	43093.94
561.29	43260.12
561.45	43255.44
561.61	43138.41
561.78	42845.85
561.94	43131.39
562.11	43468.43
562.27	43533.96
562.44	43292.89
562.60	43159.48
562.77	43089.26
562.93	43227.35
563.10	43498.86
563.26	43040.11
563.42	43641.63
563.59	43089.26
563.75	43227.35
563.92	43311.61
564.08	43679.08
564.24	43447.36
564.41	43079.90
564.57	43597.16
564.74	43730.57
564.90	43232.04
565.07	43510.56
565.23	43688.44
565.39	43910.79
565.56	44088.67
565.72	43466.09
565.88	43569.07
566.05	43620.56
566.21	43758.66
566.38	43615.88
566.54	43768.02
566.70	44032.50
566.87	43957.60
567.03	43807.81
567.19	43632.27
567.36	44126.12
567.52	43826.53
567.68	44238.47
567.85	43728.23
568.01	43992.71
568.17	43896.75
568.34	43658.01
568.50	44060.58
568.66	43742.27
568.83	44289.96
568.99	44184.63
569.15	43971.64
569.32	43182.88
569.48	44268.89
569.64	44175.27
569.81	43992.71
569.97	44009.09
570.13	44245.49
570.30	43812.49
570.46	44147.18
570.62	44074.63
570.78	44095.69
570.95	44058.24
571.11	43927.17
571.27	44186.97
571.43	44243.15
571.60	44264.21
571.76	44147.18
571.92	43936.54
572.09	44353.15
572.25	43887.39
572.41	44091.01
572.57	44271.23
572.74	44641.04
572.90	44563.80
573.06	44467.84
573.22	44460.82
573.38	44360.17
573.55	44292.30
573.71	44718.28
573.87	44685.51
574.03	44257.19
574.20	44877.43
574.36	44786.15
574.52	44842.32
574.68	44245.49
574.84	44505.29
575.01	44519.33
575.17	44526.35
575.33	44605.93
575.49	44079.31
575.65	44509.97
575.82	44177.61
575.98	44453.79
576.14	44697.21
576.30	44481.88
576.46	44240.81
576.62	43803.13
576.79	44357.83
576.95	43945.90
577.11	44573.16
577.27	44233.78
577.43	44683.17
577.59	44779.13
577.75	44804.88
577.92	43854.62
578.08	44524.01
578.24	44449.11
578.40	44861.05
578.56	44322.72
578.72	44423.37
578.88	44683.17
579.04	44631.68
579.21	44144.84
579.37	44512.31
579.53	45270.64
579.69	44636.36
579.85	44994.46
580.01	44643.38
580.17	44540.39
580.33	44460.82
580.49	45057.65
580.65	44259.53
580.82	44837.64
580.98	44987.44
581.14	44226.76
581.30	44582.52
581.46	44533.37
581.62	44643.38
581.78	44739.34
581.94	44472.52
582.10	44790.83
582.26	44762.75
582.42	44898.50
582.58	44755.72
582.74	45097.44
582.90	44692.53
583.06	45001.48
583.22	44858.71
583.38	45057.65
583.54	45008.50
583.70	44491.24
583.86	44914.88
584.02	44788.49
584.18	45382.99
584.34	44987.44
584.50	45123.19
584.66	45137.23
584.82	44896.16
584.98	44772.11
585.14	45361.92
585.30	44430.39
585.46	45015.52
585.62	45062.33
585.78	45048.29
585.94	44390.60
586.10	44622.31
586.26	44437.41
586.42	44720.62
586.58	45006.16
586.74	44641.04
586.90	44835.30
587.06	44912.54
587.22	44921.90
587.38	44598.91
587.54	45081.06
587.70	45464.91
587.86	44882.11
588.02	45020.20
588.18	44793.17
588.34	44762.75
588.49	45174.68
588.65	44631.68
588.81	44893.82
588.97	45556.19
589.13	45415.76
589.29	44790.83
589.45	45305.75
589.61	45254.26
589.77	45511.72
589.93	45036.59
590.08	44987.44
