SpectraSuite Data File
++++++++++++++++++++++++++++++++++++
Date: Fri Oct 25 10:47:03 EDT 2013
User: price-jones
Dark Spectrum Present: No
Reference Spectrum Present: No
Number of Sampled Component Spectra: 1
Spectrometers: USB2+H05261
Integration Time (usec): 100000 (USB2+H05261)
Spectra Averaged: 1 (USB2+H05261)
Boxcar Smoothing: 0 (USB2+H05261)
Correct for Electrical Dark: No (USB2+H05261)
Strobe/Lamp Enabled: No (USB2+H05261)
Correct for Detector Non-linearity: No (USB2+H05261)
Correct for Stray Light: No (USB2+H05261)
Number of Pixels in Processed Spectrum: 2048
>>>>>Begin Processed Spectral Data<<<<<
365.73	140.43
365.92	140.43
366.12	140.43
366.32	35.11
366.52	79.58
366.72	67.88
366.91	4.68
367.11	2.34
367.31	77.24
367.51	46.81
367.70	0.00
367.90	49.15
368.10	0.00
368.30	0.00
368.49	11.70
368.69	86.60
368.89	0.00
369.09	77.24
369.28	42.13
369.48	14.04
369.68	88.94
369.87	126.39
370.07	93.62
370.27	170.86
370.47	229.37
370.66	372.15
370.86	444.70
371.06	437.68
371.25	535.98
371.45	404.91
371.65	505.56
371.84	344.06
372.04	451.72
372.24	521.94
372.44	447.04
372.63	435.34
372.83	472.79
373.03	456.40
373.22	512.58
373.42	550.03
373.62	535.98
373.81	477.47
374.01	526.62
374.21	472.79
374.40	456.40
374.60	498.53
374.79	465.77
374.99	613.22
375.19	552.37
375.38	517.26
375.58	540.66
375.78	594.50
375.97	540.66
376.17	638.97
376.37	592.16
376.56	702.16
376.76	620.24
376.95	550.03
377.15	573.43
377.35	653.01
377.54	688.12
377.74	596.84
377.93	573.43
378.13	648.33
378.33	622.58
378.52	648.33
378.72	526.62
378.91	678.76
379.11	664.71
379.31	589.82
379.50	641.31
379.70	739.61
379.89	727.91
380.09	713.86
380.28	582.79
380.48	709.18
380.68	713.86
380.87	638.97
381.07	622.58
381.26	697.48
381.46	711.52
381.65	683.44
381.85	730.25
382.04	688.12
382.24	737.27
382.43	620.24
382.63	737.27
382.83	695.14
383.02	720.88
383.22	763.01
383.41	748.97
383.61	718.54
383.80	765.36
384.00	765.36
384.19	751.31
384.39	758.33
384.58	734.93
384.78	788.76
384.97	746.63
385.17	692.80
385.36	723.23
385.56	809.83
385.75	725.57
385.95	802.80
386.14	837.91
386.34	770.04
386.53	833.23
386.72	805.14
386.92	901.11
387.11	805.14
387.31	823.87
387.50	812.17
387.70	887.06
387.89	875.36
388.09	786.42
388.28	798.12
388.48	779.40
388.67	826.21
388.86	842.59
389.06	873.02
389.25	875.36
389.45	866.00
389.64	826.21
389.84	936.21
390.03	990.05
390.22	983.02
390.42	999.41
390.61	917.49
390.81	954.94
391.00	973.66
391.19	978.34
391.39	952.60
391.58	940.90
391.78	1004.09
391.97	1006.43
392.16	983.02
392.36	994.73
392.55	1025.15
392.75	1053.24
392.94	1057.92
393.13	1027.50
393.33	990.05
393.52	1006.43
393.71	1050.90
393.91	1071.97
394.10	1078.99
394.29	1130.48
394.49	1107.07
394.68	1123.46
394.88	1139.84
395.07	1132.82
395.26	1144.52
395.46	1217.08
395.65	1116.44
395.84	1135.16
396.04	1217.08
396.23	1153.88
396.42	1139.84
396.62	1036.86
396.81	1144.52
397.00	1191.33
397.19	1200.69
397.39	1245.16
397.58	1280.27
397.77	1289.64
397.97	1336.45
398.16	1345.81
398.35	1238.14
398.55	1249.85
398.74	1273.25
398.93	1378.58
399.12	1284.95
399.32	1350.49
399.51	1376.24
399.70	1469.86
399.90	1338.79
400.09	1476.88
400.28	1547.09
400.47	1416.02
400.67	1558.80
400.86	1526.03
401.05	1535.39
401.24	1418.36
401.44	1584.54
401.63	1589.22
401.82	1462.83
402.01	1481.56
402.21	1486.24
402.40	1549.43
402.59	1572.84
402.78	1540.07
402.97	1687.53
403.17	1657.10
403.36	1713.27
403.55	1685.19
403.74	1748.38
403.93	1680.50
404.13	1699.23
404.32	1687.53
404.51	1739.02
404.70	1720.29
404.89	1778.81
405.09	1830.30
405.28	1830.30
405.47	1720.29
405.66	1753.06
405.85	1879.45
406.05	1830.30
406.24	1888.81
406.43	1872.43
406.62	1987.11
406.81	1881.79
407.00	1877.11
407.20	1860.73
407.39	1944.99
407.58	1839.66
407.77	1959.03
407.96	1966.05
408.15	2052.65
408.34	2113.50
408.54	2069.03
408.73	1954.35
408.92	1923.92
409.11	2087.76
409.30	2069.03
409.49	2129.89
409.68	1998.82
409.87	2139.25
410.07	2094.78
410.26	2204.78
410.45	2244.57
410.64	2218.83
410.83	2139.25
411.02	2338.20
411.21	2249.25
411.40	2335.85
411.59	2403.73
411.78	2335.85
411.98	2368.62
412.17	2452.88
412.36	2401.39
412.55	2450.54
412.74	2499.69
412.93	2462.24
413.12	2502.03
413.31	2530.12
413.50	2607.36
413.69	2637.78
413.88	2530.12
414.07	2597.99
414.26	2708.00
414.45	2651.83
414.64	2750.13
414.83	2759.49
415.02	2806.30
415.22	2792.26
415.41	2855.45
415.60	2876.52
415.79	2888.22
415.98	2939.71
416.17	2977.16
416.36	2951.42
416.55	2967.80
416.74	3138.66
416.93	2981.84
417.12	2974.82
417.31	2993.55
417.50	3019.29
417.69	3225.26
417.88	3075.46
418.07	3112.91
418.26	3232.28
418.45	3082.49
418.64	3295.47
418.83	3222.92
419.02	3302.50
419.21	3199.51
419.39	3351.65
419.58	3290.79
419.77	3105.89
419.96	3337.60
420.15	3459.31
420.34	3428.88
420.53	3466.33
420.72	3435.91
420.91	3475.70
421.10	3531.87
421.29	3620.81
421.48	3351.65
421.67	3552.93
421.86	3534.21
422.05	3588.04
422.24	3480.38
422.43	3548.25
422.61	3541.23
422.80	3627.83
422.99	3604.42
423.18	3559.95
423.37	3618.47
423.56	3566.98
423.75	3571.66
423.94	3515.48
424.13	3349.31
424.32	3386.76
424.50	3698.05
424.69	3728.47
424.88	3786.99
425.07	3541.23
425.26	3569.32
425.45	3679.32
425.64	3627.83
425.83	3604.42
426.01	3714.43
426.20	3648.90
426.39	3676.98
426.58	3597.40
426.77	3590.38
426.96	3611.45
427.15	3698.05
427.33	3768.26
427.52	3815.07
427.71	3906.35
427.90	3723.79
428.09	3941.46
428.28	3852.52
428.46	3801.03
428.65	3833.80
428.84	3861.88
429.03	4028.06
429.22	3838.48
429.40	3969.55
429.59	4011.68
429.78	3726.13
429.97	3681.66
430.16	3674.64
430.34	3962.53
430.53	3833.80
430.72	3957.85
430.91	4058.49
431.10	4105.30
431.28	4147.43
431.47	4337.01
431.66	4360.42
431.85	4138.07
432.03	4404.89
432.22	4390.84
432.41	4271.48
432.60	4353.40
432.79	4283.18
432.97	4393.19
433.16	4318.29
433.35	4287.86
433.54	4409.57
433.72	4348.72
433.91	4308.93
434.10	4315.95
434.28	4435.32
434.47	4500.85
434.66	4538.30
434.85	4631.92
435.03	4461.06
435.22	4571.07
435.41	4784.06
435.59	4571.07
435.78	4667.03
435.97	4622.56
436.16	4709.16
436.34	4711.50
436.53	4798.10
436.72	4755.97
436.90	4716.18
437.09	4910.44
437.28	4699.80
437.46	4704.48
437.65	4781.71
437.84	4779.37
438.02	4816.82
438.21	4912.78
438.40	4880.02
438.58	4901.08
438.77	4992.36
438.96	4999.38
439.14	5219.39
439.33	5142.16
439.52	5144.50
439.70	5193.65
439.89	5195.99
440.08	5334.08
440.26	5301.31
440.45	5336.42
440.63	5366.85
440.82	5305.99
441.01	5469.83
441.19	5504.94
441.38	5577.50
441.57	5610.26
441.75	5715.59
441.94	5748.36
442.12	5792.83
442.31	5797.51
442.50	5731.97
442.68	5907.51
442.87	5853.68
443.05	5729.63
443.24	5820.91
443.43	5804.53
443.61	5900.49
443.80	6134.54
443.98	5811.55
444.17	5741.33
444.35	6033.90
444.54	6141.57
444.73	5951.98
444.91	5994.11
445.10	5937.94
445.28	6087.73
445.47	5998.79
445.65	6083.05
445.84	6106.46
446.02	5954.32
446.21	6005.81
446.39	6143.91
446.58	6183.70
446.77	6033.90
446.95	5921.56
447.14	6078.37
447.32	6001.13
447.51	6127.52
447.69	6146.25
447.88	6019.86
448.06	6197.74
448.25	6207.10
448.43	6148.59
448.62	6195.40
448.80	6078.37
448.99	6277.32
449.17	6277.32
449.36	6221.14
449.54	6586.27
449.73	6480.94
449.91	6581.59
450.10	6698.61
450.28	6574.56
450.46	6492.65
450.65	6619.04
450.83	6567.54
451.02	6597.97
451.20	6574.56
451.39	6651.80
451.57	6665.85
451.76	6731.38
451.94	6637.76
452.13	6516.05
452.31	6663.51
452.49	6565.20
452.68	6691.59
452.86	6675.21
453.05	6820.32
453.23	6867.13
453.42	6527.75
453.60	6661.16
453.78	6855.43
453.97	6881.18
454.15	6977.14
454.34	6967.77
454.52	7012.24
454.70	7005.22
454.89	7096.50
455.07	7103.53
455.26	7002.88
455.44	7077.78
455.62	7166.72
455.81	7183.10
455.99	7227.57
456.17	7218.21
456.36	7337.58
456.54	7328.22
456.73	7342.26
456.91	7555.25
457.09	7389.07
457.28	7548.23
457.46	7393.75
457.64	7588.02
457.83	7368.01
458.01	7389.07
458.19	7691.00
458.38	7513.12
458.56	7754.19
458.74	7730.79
458.93	7606.74
459.11	7510.78
459.29	7599.72
459.48	7625.47
459.66	7681.64
459.84	7721.43
460.03	7901.65
460.21	7812.71
460.39	7838.45
460.57	7906.33
460.76	7901.65
460.94	8105.28
461.12	7936.76
461.31	8145.06
461.49	8016.33
461.67	7911.01
461.85	8065.49
462.04	8039.74
462.22	8486.78
462.40	8198.90
462.59	8294.86
462.77	8222.30
462.95	8416.57
463.13	8362.73
463.32	8461.04
463.50	8184.85
463.68	8386.14
463.86	8402.52
464.05	8273.79
464.23	8177.83
464.41	8503.17
464.59	8229.32
464.78	8402.52
464.96	8339.33
465.14	8463.38
465.32	8692.75
465.50	8741.90
465.69	8627.21
465.87	8594.45
466.05	8622.53
466.23	8479.76
466.41	8564.02
466.60	8777.01
466.78	8477.42
466.96	8599.13
467.14	8477.42
467.32	8601.47
467.51	8802.75
467.69	8610.83
467.87	8681.05
468.05	8830.84
468.23	8610.83
468.41	8812.12
468.60	9053.19
468.78	8837.86
468.96	8737.22
469.14	8898.72
469.32	9153.84
469.50	8865.95
469.69	8990.00
469.87	9130.43
470.05	9228.73
470.23	9207.67
470.41	9053.19
470.59	9378.53
470.77	9397.25
470.95	9308.31
471.14	9423.00
471.32	9268.52
471.50	9458.10
471.68	9666.41
471.86	9678.12
472.04	9783.44
472.22	9846.63
472.40	9554.07
472.58	9675.77
472.77	9795.14
472.95	9713.22
473.13	10101.75
473.31	9724.93
473.49	9832.59
473.67	9696.84
473.85	9949.62
474.03	10148.56
474.21	10111.11
474.39	10349.85
474.57	10111.11
474.75	10352.19
474.93	10134.52
475.12	10335.81
475.30	10520.71
475.48	10193.03
475.66	10560.50
475.84	10462.19
476.02	10509.01
476.20	10689.23
476.38	10806.25
476.56	10909.24
476.74	11286.06
476.92	10817.96
477.10	11030.94
477.28	11384.37
477.46	11248.61
477.64	11246.27
477.82	11473.31
478.00	11906.31
478.18	11812.68
478.36	11843.11
478.54	11875.88
478.72	11882.90
478.90	11779.92
479.08	11997.59
479.26	12046.74
479.44	12451.65
479.62	12404.84
479.80	12318.24
479.98	12676.34
480.16	12737.20
480.34	12634.21
480.52	12854.22
480.70	12805.07
480.88	12840.18
481.06	12954.87
481.24	13107.00
481.41	13121.04
481.59	13317.65
481.77	13359.78
481.95	13451.06
482.13	13710.86
482.31	13401.91
482.49	14045.55
482.67	13715.54
482.85	14129.81
483.03	14164.92
483.21	14347.48
483.39	14506.64
483.57	14476.21
483.74	14221.10
483.92	14705.59
484.10	14583.88
484.28	14789.85
484.46	15047.30
484.64	15267.31
484.82	14984.11
485.00	15349.23
485.18	15499.03
485.35	15655.84
485.53	15161.99
485.71	15428.81
485.89	15611.37
486.07	15449.88
486.25	15592.65
486.43	16163.74
486.61	15960.11
486.78	16212.89
486.96	16184.80
487.14	16760.58
487.32	16662.27
487.50	16938.46
487.68	16905.69
487.85	17020.38
488.03	17483.80
488.21	17624.23
488.39	17142.08
488.57	17827.86
488.75	17813.82
488.92	17970.63
489.10	18024.47
489.28	18256.18
489.46	18340.44
489.64	18305.33
489.81	18808.54
489.99	18829.61
490.17	18876.42
490.35	19302.40
490.53	19227.50
490.70	19176.01
490.88	19206.44
491.06	19555.18
491.24	19510.71
491.41	19494.32
491.59	19513.05
491.77	19644.12
491.95	19824.34
492.13	20086.48
492.30	20262.02
492.48	20545.22
492.66	20524.16
492.84	20709.06
493.01	21067.16
493.19	20776.94
493.37	20816.72
493.54	20987.58
493.72	21069.50
493.90	20908.01
494.08	21090.57
494.25	21722.51
494.43	21802.09
494.61	21902.73
494.79	21979.97
494.96	21778.68
495.14	22197.64
495.32	22195.30
495.49	22518.29
495.67	22473.82
495.85	22906.82
496.02	22878.74
496.20	23007.47
496.38	23030.87
496.55	23227.48
496.73	23569.19
496.91	23358.55
497.09	23517.70
497.26	23398.34
497.44	23564.51
497.62	23843.04
497.79	24362.64
497.97	23704.95
498.14	23955.38
498.32	24107.52
498.50	24077.09
498.67	24947.77
498.85	24346.25
499.03	24879.89
499.20	24840.11
499.38	25041.39
499.56	24641.16
499.73	24929.05
499.91	24929.05
500.08	25317.57
500.26	25170.12
500.44	25331.62
500.61	25230.98
500.79	24994.58
500.97	25167.78
501.14	25982.29
501.32	25631.21
501.49	25619.50
501.67	25804.41
501.84	26052.50
502.02	25949.52
502.20	26384.86
502.37	26560.40
502.55	25926.11
502.72	26314.64
502.90	26492.52
503.07	26618.91
503.25	26668.06
503.43	26628.27
503.60	26871.69
503.78	26740.62
503.95	26682.11
504.13	27047.23
504.30	27089.36
504.48	27152.55
504.65	27307.03
504.83	27634.71
505.01	27583.21
505.18	27424.06
505.36	28065.36
505.53	27903.87
505.71	27786.84
505.88	28261.97
506.06	27496.61
506.23	27922.59
506.41	27721.30
506.58	27995.15
506.76	27988.13
506.93	28233.88
507.11	28474.96
507.28	28680.92
507.46	28154.30
507.63	28591.98
507.81	28943.06
507.98	28549.85
508.16	28982.85
508.33	28704.33
508.50	28996.90
508.68	29170.10
508.85	29116.26
509.03	29532.88
509.20	29331.59
509.38	29645.23
509.55	29706.08
509.73	29696.72
509.90	29780.98
510.08	29565.65
510.25	30263.13
510.42	30281.85
510.60	30195.25
510.77	30047.80
510.95	30221.00
511.12	30333.34
511.30	30279.51
511.47	30342.70
511.64	30824.86
511.82	30857.62
511.99	30459.73
512.17	30668.04
512.34	30705.49
512.51	31152.53
512.69	31009.76
512.86	30642.29
513.04	31585.53
513.21	31133.81
513.38	31442.76
513.56	31377.22
513.73	31283.60
513.90	31370.20
514.08	31379.56
514.25	31711.92
514.43	32093.43
514.60	31557.44
514.77	31674.47
514.95	32163.64
515.12	31962.36
515.29	32198.75
515.47	32154.28
515.64	32453.87
515.81	32395.35
515.99	32130.87
516.16	32467.91
516.33	32144.92
516.51	32275.99
516.68	31529.36
516.85	31842.99
517.03	32446.85
517.20	32467.91
517.37	32744.09
517.54	32737.07
517.72	32388.33
517.89	32713.67
518.06	32573.24
518.24	32945.38
518.41	32418.76
518.58	32833.04
518.75	33029.64
518.93	33371.36
519.10	33230.93
519.27	33624.14
519.45	33839.47
519.62	33310.50
519.79	33846.49
519.96	33532.86
520.14	34136.71
520.31	33750.52
520.48	34232.68
520.65	34328.64
520.83	34448.00
521.00	34415.24
521.17	34225.65
521.34	34398.85
521.52	34429.28
521.69	34321.62
521.86	34852.92
522.03	34265.44
522.20	34689.08
522.38	35005.05
522.55	34698.44
522.72	34771.00
522.89	34806.11
523.07	35072.93
523.24	34595.46
523.41	34469.07
523.58	35117.40
523.75	35695.51
523.92	35269.53
524.10	35618.27
524.27	35426.35
524.44	35512.95
524.61	35344.43
524.78	35538.69
524.96	36105.10
525.13	36039.57
525.30	36191.70
525.47	36254.90
525.64	36142.55
525.81	36273.62
525.98	35821.90
526.16	35805.52
526.33	36158.94
526.50	35959.99
526.67	35899.14
526.84	36137.87
527.01	36151.91
527.18	36100.42
527.36	36346.18
527.53	36603.64
527.70	36952.38
527.87	36952.38
528.04	36245.54
528.21	36982.80
528.38	37013.23
528.55	37270.69
528.72	37046.00
528.89	37223.88
529.07	37244.94
529.24	37043.66
529.41	37088.13
529.58	37221.54
529.75	37078.77
529.92	37275.37
530.09	37493.04
530.26	37579.64
530.43	37713.05
530.60	37228.56
530.77	37736.46
530.94	38045.41
531.11	38012.64
531.28	37748.16
531.46	37872.21
531.63	38085.20
531.80	37710.71
531.97	37516.45
532.14	37890.93
532.31	37570.28
532.48	38190.52
532.65	38286.48
532.82	38462.02
532.99	38106.26
533.16	38302.87
533.33	38153.07
533.50	38436.28
533.67	38387.13
533.84	38469.04
534.01	38511.17
534.18	38295.85
534.35	38733.53
534.52	38471.39
534.69	38466.70
534.86	38670.33
535.03	38403.51
535.20	38747.57
535.37	39295.25
535.54	39164.18
535.71	38979.28
535.88	38880.98
536.05	39056.52
536.22	39463.77
536.38	39115.03
536.55	39372.49
536.72	39206.31
536.89	39047.16
537.06	39522.29
537.23	39255.46
537.40	39072.90
537.57	39374.83
537.74	39473.13
537.91	39910.82
538.08	39620.59
538.25	39608.89
538.42	39672.08
538.59	40116.78
538.75	39501.22
538.92	39798.47
539.09	40088.70
539.26	39922.52
539.43	39746.98
539.60	39894.43
539.77	40062.95
539.94	40222.11
540.11	40189.34
540.28	39861.66
540.44	40161.25
540.61	39908.47
540.78	39641.65
540.95	40402.33
541.12	40046.57
541.29	40484.25
541.46	40449.14
541.62	40140.19
541.79	40671.49
541.96	40287.64
542.13	40388.28
542.30	40657.45
542.47	40577.87
542.63	40830.65
542.80	40634.04
542.97	41041.29
543.14	40978.10
543.31	41017.89
543.48	41244.92
543.64	41621.75
543.81	41219.17
543.98	41415.78
544.15	41132.57
544.32	41354.93
544.48	41612.38
544.65	41497.70
544.82	41530.47
544.99	41373.65
545.16	41537.49
545.32	41209.81
545.49	41684.94
545.66	41977.51
545.83	41823.03
546.00	42260.71
546.16	42181.13
546.33	41926.02
546.50	41649.83
546.67	41698.98
546.83	41071.72
547.00	42064.11
547.17	41593.66
547.34	41897.93
547.50	41649.83
547.67	42108.58
547.84	41635.79
548.00	42761.59
548.17	42141.35
548.34	41984.53
548.51	42192.84
548.67	42431.57
548.84	42277.10
549.01	42256.03
549.18	41684.94
549.34	42604.77
549.51	42363.70
549.68	42511.15
549.84	42396.46
550.01	42646.90
550.18	42298.16
550.34	42525.19
550.51	42354.33
550.68	42583.71
550.84	42206.88
551.01	42794.36
551.18	42550.94
551.34	42642.22
551.51	43002.66
551.68	42789.67
551.84	42515.83
552.01	42869.25
552.18	42817.76
552.34	42611.79
552.51	43077.56
552.68	42782.65
552.84	43037.77
553.01	42962.87
553.18	43267.14
553.34	43182.88
553.51	42997.98
553.67	42892.66
553.84	43538.65
554.01	43526.94
554.17	43313.95
554.34	43533.96
554.51	43599.50
554.67	43454.39
554.84	43669.72
555.00	43526.94
555.17	43302.25
555.33	43477.79
555.50	43241.40
555.67	43620.56
555.83	43012.02
556.00	43681.42
556.16	43821.85
556.33	43650.99
556.50	43737.59
556.66	43854.62
556.83	43519.92
556.99	43463.75
557.16	43887.39
557.32	43641.63
557.49	44233.78
557.65	43288.21
557.82	43421.62
557.98	43543.33
558.15	43725.89
558.32	43957.60
558.48	43372.47
558.65	43758.66
558.81	43849.94
558.98	43796.10
559.14	43632.27
559.31	44107.40
559.47	43622.90
559.64	44561.46
559.80	44046.54
559.97	44460.82
560.13	44018.46
560.30	43821.85
560.46	43934.20
560.63	44456.14
560.79	44147.18
560.96	44790.83
561.12	44128.46
561.29	44507.63
561.45	44121.44
561.61	44198.68
561.78	44367.20
561.94	43948.24
562.11	44369.54
562.27	44388.26
562.44	43796.10
562.60	44428.05
562.77	44371.88
562.93	44093.35
563.10	44575.50
563.26	44339.11
563.42	44655.08
563.59	44289.96
563.75	44299.32
563.92	44516.99
564.08	44594.23
564.24	44648.06
564.41	44589.55
564.57	44479.54
564.74	44311.02
564.90	44718.28
565.07	44636.36
565.23	44563.80
565.39	44044.20
565.56	44643.38
565.72	44257.19
565.88	44411.67
566.05	44442.09
566.21	44500.61
566.38	44222.08
566.54	44418.69
566.70	44769.77
566.87	44921.90
567.03	44825.94
567.19	45198.09
567.36	44790.83
567.52	44758.06
567.68	44779.13
567.85	44538.05
568.01	44652.74
568.17	44500.61
568.34	45158.30
568.50	44648.06
568.66	45151.27
568.83	45280.00
568.99	44477.20
569.15	44626.99
569.32	44751.04
569.48	44832.96
569.64	44959.35
569.81	45085.74
569.97	44823.60
570.13	44524.01
570.30	44942.97
570.46	44229.10
570.62	44753.38
570.78	44648.06
570.95	44781.47
571.11	45289.37
571.27	44392.94
571.43	44638.70
571.60	44975.73
571.76	44795.51
571.92	44772.11
572.09	44868.07
572.25	44964.03
572.41	45083.40
572.57	44772.11
572.74	45432.14
572.90	44942.97
573.06	45003.82
573.22	44900.84
573.38	44439.75
573.55	44311.02
573.71	44802.53
573.87	44800.19
574.03	45123.19
574.20	44952.33
574.36	44982.76
574.52	45031.91
574.68	45350.22
574.84	45055.31
575.01	45064.67
575.17	44811.90
575.33	45010.84
575.49	44921.90
575.65	45050.63
575.82	45549.17
575.98	44692.53
576.14	45481.29
576.30	45298.73
576.46	44683.17
576.62	44706.57
576.79	44982.76
576.95	45031.91
577.11	44865.73
577.27	45015.52
577.43	45200.43
577.59	45305.75
577.75	44912.54
577.92	44957.01
578.08	44531.03
578.24	44971.05
578.40	44737.00
578.56	45090.42
578.72	44987.44
578.88	45141.91
579.04	45415.76
579.21	45020.20
579.37	44985.10
579.53	44935.95
579.69	44776.79
579.85	45385.33
580.01	45207.45
580.17	45308.09
580.33	45132.55
580.49	45111.49
580.65	45368.94
580.82	45518.74
580.98	44973.39
581.14	44737.00
581.30	45347.88
581.46	45102.12
581.62	45043.61
581.78	44973.39
581.94	45200.43
582.10	44903.18
582.26	45312.77
582.42	45375.97
582.58	45434.48
582.74	45045.95
582.90	44844.66
583.06	45488.31
583.22	45406.39
583.38	45148.93
583.54	45291.71
583.70	45256.60
583.86	45055.31
584.02	45038.93
584.18	45422.78
584.34	45153.62
584.50	45551.51
584.66	45385.33
584.82	44917.22
584.98	45710.66
585.14	44985.10
585.30	44900.84
585.46	44856.37
585.62	45294.05
585.78	45219.15
585.94	44580.18
586.10	44978.07
586.26	44741.68
586.42	45270.64
586.58	45647.47
586.74	45319.79
586.90	45179.36
587.06	44687.85
587.22	45390.01
587.38	45249.58
587.54	45457.88
587.70	45464.91
587.86	44942.97
588.02	45443.84
588.18	45787.90
588.34	45202.77
588.49	44411.67
588.65	44811.90
588.81	44715.93
588.97	44495.92
589.13	45017.86
589.29	45102.12
589.45	45059.99
589.61	45308.09
589.77	45312.77
589.93	45268.30
590.08	45855.78
590.24	45338.52
