SpectraSuite Data File
++++++++++++++++++++++++++++++++++++
Date: Fri Oct 25 11:23:39 EDT 2013
User: price-jones
Dark Spectrum Present: No
Reference Spectrum Present: No
Number of Sampled Component Spectra: 1
Spectrometers: USB2+H05261
Integration Time (usec): 100000 (USB2+H05261)
Spectra Averaged: 1 (USB2+H05261)
Boxcar Smoothing: 0 (USB2+H05261)
Correct for Electrical Dark: No (USB2+H05261)
Strobe/Lamp Enabled: No (USB2+H05261)
Correct for Detector Non-linearity: No (USB2+H05261)
Correct for Stray Light: No (USB2+H05261)
Number of Pixels in Processed Spectrum: 2048
>>>>>Begin Processed Spectral Data<<<<<
365.73	196.60
365.92	196.60
366.12	196.60
366.32	140.43
366.52	84.26
366.72	168.52
366.91	170.86
367.11	163.84
367.31	72.56
367.51	184.90
367.70	86.60
367.90	100.64
368.10	95.96
368.30	161.50
368.49	175.54
368.69	173.20
368.89	140.43
369.09	166.18
369.28	145.11
369.48	119.37
369.68	147.45
369.87	180.22
370.07	217.67
370.27	245.76
370.47	322.99
370.66	477.47
370.86	608.54
371.06	634.29
371.25	657.69
371.45	669.39
371.65	641.31
371.84	704.50
372.04	613.22
372.24	681.10
372.44	723.23
372.63	727.91
372.83	744.29
373.03	758.33
373.22	723.23
373.42	760.67
373.62	791.10
373.81	788.76
374.01	858.98
374.21	746.63
374.40	739.61
374.60	798.12
374.79	887.06
374.99	837.91
375.19	844.93
375.38	821.53
375.58	748.97
375.78	774.72
375.97	751.31
376.17	842.59
376.37	819.19
376.56	842.59
376.76	873.02
376.95	887.06
377.15	877.70
377.35	912.81
377.54	830.89
377.74	882.38
377.93	819.19
378.13	957.28
378.33	894.08
378.52	936.21
378.72	894.08
378.91	936.21
379.11	910.47
379.31	912.81
379.50	868.34
379.70	968.98
379.89	929.19
380.09	1001.75
380.28	964.30
380.48	943.24
380.68	931.53
380.87	950.26
381.07	999.41
381.26	1029.84
381.46	1060.26
381.65	1022.81
381.85	1048.56
382.04	1132.82
382.24	1128.14
382.43	1029.84
382.63	1032.18
382.83	1036.86
383.02	1090.69
383.22	1205.38
383.41	1067.28
383.61	1144.52
383.80	1069.62
384.00	1104.73
384.19	1245.16
384.39	1149.20
384.58	1111.75
384.78	1181.97
384.97	1153.88
385.17	1135.16
385.36	1144.52
385.56	1193.67
385.75	1123.46
385.95	1137.50
386.14	1196.01
386.34	1167.93
386.53	1226.44
386.72	1261.55
386.92	1245.16
387.11	1137.50
387.31	1198.35
387.50	1181.97
387.70	1221.76
387.89	1275.59
388.09	1299.00
388.28	1301.34
388.48	1352.83
388.67	1266.23
388.86	1355.17
389.06	1268.57
389.25	1299.00
389.45	1282.61
389.64	1235.80
389.84	1490.92
390.03	1430.07
390.22	1331.76
390.42	1406.66
390.61	1380.92
390.81	1366.87
391.00	1481.56
391.19	1481.56
391.39	1483.90
391.58	1453.47
391.78	1441.77
391.97	1409.00
392.16	1439.43
392.36	1502.62
392.55	1437.09
392.75	1579.86
392.94	1486.24
393.13	1516.67
393.33	1500.28
393.52	1591.56
393.71	1624.33
393.91	1514.33
394.10	1645.40
394.29	1647.74
394.49	1526.03
394.68	1631.35
394.88	1680.50
395.07	1685.19
395.26	1713.27
395.46	1556.46
395.65	1715.61
395.84	1603.27
396.04	1727.32
396.23	1694.55
396.42	1720.29
396.62	1661.78
396.81	1781.15
397.00	1685.19
397.19	1703.91
397.39	1746.04
397.58	1851.36
397.77	1781.15
397.97	1874.77
398.16	1891.15
398.35	1891.15
398.55	1816.26
398.74	1905.20
398.93	1968.39
399.12	1881.79
399.32	1877.11
399.51	1935.62
399.70	1975.41
399.90	1966.05
400.09	1928.60
400.28	1907.54
400.47	2001.16
400.67	1989.46
400.86	2036.27
401.05	2040.95
401.24	2012.86
401.44	2064.35
401.63	2090.10
401.82	2111.16
402.01	2026.90
402.21	2249.25
402.40	2122.87
402.59	2230.53
402.78	2228.19
402.97	2211.81
403.17	2237.55
403.36	2253.94
403.55	2314.79
403.74	2394.37
403.93	2396.71
404.13	2333.51
404.32	2319.47
404.51	2420.11
404.70	2387.35
404.89	2462.24
405.09	2464.58
405.28	2462.24
405.47	2450.54
405.66	2476.29
405.85	2548.84
406.05	2509.05
406.24	2480.97
406.43	2612.04
406.62	2544.16
406.81	2621.40
407.00	2558.21
407.20	2689.28
407.39	2654.17
407.58	2731.41
407.77	2677.57
407.96	2686.94
408.15	2773.53
408.34	2717.36
408.54	2745.45
408.73	2860.13
408.92	2878.86
409.11	2925.67
409.30	2899.92
409.49	2843.75
409.68	2979.50
409.87	2951.42
410.07	2899.92
410.26	3028.65
410.45	2998.23
410.64	3049.72
410.83	3162.06
411.02	3112.91
411.21	3119.93
411.40	3150.36
411.59	3152.70
411.78	3234.62
411.98	3300.16
412.17	3445.27
412.36	3279.09
412.55	3314.20
412.74	3412.50
412.93	3398.46
413.12	3260.37
413.31	3501.44
413.50	3382.07
413.69	3555.27
413.88	3609.11
414.07	3590.38
414.26	3646.55
414.45	3648.90
414.64	3754.22
414.83	3756.56
415.02	3730.81
415.22	3854.86
415.41	3836.14
415.60	3866.56
415.79	3904.01
415.98	4032.74
416.17	3976.57
416.36	3852.52
416.55	3995.29
416.74	4016.36
416.93	4042.11
417.12	4091.26
417.31	4056.15
417.50	4180.20
417.69	4451.70
417.88	4149.77
418.07	4182.54
418.26	4327.65
418.45	4444.68
418.64	4472.76
418.83	4503.19
419.02	4430.63
419.21	4528.94
419.39	4447.02
419.58	4545.32
419.77	4655.33
419.96	4533.62
420.15	4622.56
420.34	4571.07
420.53	4552.34
420.72	4575.75
420.91	4648.30
421.10	4753.63
421.29	4821.50
421.48	4622.56
421.67	4683.41
421.86	4753.63
422.05	4734.90
422.24	4704.48
422.43	4793.42
422.61	4912.78
422.80	4854.27
422.99	4807.46
423.18	5013.43
423.37	4987.68
423.56	5006.41
423.75	4983.00
423.94	4922.15
424.13	4596.81
424.32	4751.29
424.50	4910.44
424.69	5046.20
424.88	4954.91
425.07	4936.19
425.26	4971.30
425.45	5083.64
425.64	4898.74
425.83	5057.90
426.01	5102.37
426.20	5048.54
426.39	5102.37
426.58	4905.76
426.77	5057.90
426.96	5172.58
427.15	5118.75
427.33	5172.58
427.52	5305.99
427.71	5217.05
427.90	5322.38
428.09	5266.21
428.28	5324.72
428.46	5416.00
428.65	5303.65
428.84	5596.22
429.03	5575.16
429.22	5221.74
429.40	5476.85
429.59	5497.92
429.78	5240.46
429.97	5186.63
430.16	5565.79
430.34	5584.52
430.53	5717.93
430.72	5741.33
430.91	5593.88
431.10	5607.92
431.28	5748.36
431.47	5919.21
431.66	5785.80
431.85	5748.36
432.03	5937.94
432.22	5923.90
432.41	5998.79
432.60	5769.42
432.79	5921.56
432.97	5944.96
433.16	6038.58
433.35	5970.71
433.54	6043.26
433.72	6174.33
433.91	5954.32
434.10	6181.35
434.28	6108.80
434.47	6141.57
434.66	6279.66
434.85	6317.11
435.03	6246.89
435.22	6272.64
435.41	6504.35
435.59	6464.56
435.78	6263.27
435.97	6473.92
436.16	6431.79
436.34	6396.68
436.53	6621.38
436.72	6656.48
436.90	6410.73
437.09	6504.35
437.28	6562.86
437.46	6691.59
437.65	6745.42
437.84	6885.86
438.02	6754.79
438.21	6717.34
438.40	6775.85
438.58	6944.37
438.77	7227.57
438.96	6988.84
439.14	7016.93
439.33	6930.33
439.52	7290.77
439.70	7377.37
439.89	7356.30
440.08	7421.84
440.26	7447.58
440.45	7272.04
440.63	7419.50
440.82	7723.77
441.01	7344.60
441.19	7805.69
441.38	7637.17
441.57	7648.87
441.75	7824.41
441.94	7978.89
442.12	8056.12
442.31	8044.42
442.50	7985.91
442.68	7990.59
442.87	8142.72
443.05	8348.69
443.24	8290.18
443.43	8138.04
443.61	8348.69
443.80	8442.31
443.98	8217.62
444.17	7845.48
444.35	8224.64
444.54	8381.46
444.73	8435.29
444.91	8311.24
445.10	8170.81
445.28	8215.28
445.47	8322.94
445.65	8503.17
445.84	8484.44
446.02	8636.58
446.21	8486.78
446.39	8451.67
446.58	8629.56
446.77	8444.65
446.95	8212.94
447.14	8327.63
447.32	8582.74
447.51	8531.25
447.69	8386.14
447.88	8348.69
448.06	8549.98
448.25	8435.29
448.43	8454.02
448.62	8318.26
448.80	8725.52
448.99	8479.76
449.17	8730.20
449.36	8578.06
449.54	8854.25
449.73	9107.02
449.91	8896.38
450.10	9004.04
450.28	9027.45
450.46	9043.83
450.65	8933.82
450.83	9128.09
451.02	8992.34
451.20	9062.55
451.39	9043.83
451.57	9055.53
451.76	9041.49
451.94	9170.22
452.13	9275.54
452.31	9430.02
452.49	9242.78
452.68	9348.10
452.86	9249.80
453.05	9460.45
453.23	9322.35
453.42	9334.06
453.60	9334.06
453.78	9708.54
453.97	9575.13
454.15	9481.51
454.34	9392.57
454.52	9764.72
454.70	9465.13
454.89	9809.19
455.07	9727.27
455.26	10029.20
455.44	10047.92
455.62	9949.62
455.81	9977.70
455.99	9928.55
456.17	10054.94
456.36	10064.30
456.54	10143.88
456.73	10047.92
456.91	10441.13
457.09	10441.13
457.28	10637.73
457.46	10237.50
457.64	10242.18
457.83	10319.42
458.01	10644.76
458.19	10668.16
458.38	10736.04
458.56	10640.08
458.74	10729.02
458.93	10803.91
459.11	10691.57
459.29	10883.49
459.48	10827.32
459.66	10824.98
459.84	10960.73
460.03	11103.50
460.21	10946.69
460.39	11143.29
460.57	11061.37
460.76	11014.56
460.94	11382.03
461.12	11232.23
461.31	11098.82
461.49	11297.77
461.67	11066.05
461.85	11559.91
462.04	11295.43
462.22	11571.61
462.40	11389.05
462.59	11428.84
462.77	11527.14
462.95	11751.83
463.13	11569.27
463.32	11569.27
463.50	11775.24
463.68	11735.45
463.86	11843.11
464.05	11756.51
464.23	11482.67
464.41	11882.90
464.59	11707.36
464.78	12287.81
464.96	12182.49
465.14	11934.39
465.32	12063.12
465.50	12074.82
465.69	12159.08
465.87	12002.27
466.05	12266.75
466.23	12245.68
466.41	12147.38
466.60	12503.14
466.78	12138.02
466.96	12280.79
467.14	12383.77
467.32	12458.67
467.51	12491.44
467.69	12243.34
467.87	12290.15
468.05	12788.69
468.23	12351.01
468.41	12692.73
468.60	12524.21
468.78	12503.14
468.96	12613.15
469.14	12821.45
469.32	13064.87
469.50	12510.16
469.69	13055.51
469.87	13184.24
470.05	13074.23
470.23	13198.28
470.41	13130.41
470.59	13376.16
470.77	13233.39
470.95	13420.63
471.14	13500.21
471.32	13235.73
471.50	13598.51
471.68	13458.08
471.86	13516.59
472.04	13579.79
472.22	13989.38
472.40	13661.71
472.58	13900.44
472.77	14031.51
472.95	14293.65
473.13	14686.86
473.31	14029.17
473.49	14083.00
473.67	14176.62
473.85	14373.23
474.03	14647.07
474.21	14635.37
474.39	14829.63
474.57	14689.20
474.75	14815.59
474.93	14871.76
475.12	15012.20
475.30	15133.90
475.48	15082.41
475.66	15145.61
475.84	15248.59
476.02	15389.02
476.20	15438.17
476.38	15917.98
476.56	15660.52
476.74	15995.22
476.92	15735.42
477.10	16215.23
477.28	16030.33
477.46	16105.23
477.64	16346.30
477.82	16510.14
478.00	16816.75
478.18	17018.04
478.36	16957.18
478.54	17207.62
478.72	17305.92
478.90	17371.46
479.08	17717.86
479.26	17720.20
479.44	17666.36
479.62	18111.07
479.80	18078.30
479.98	17881.69
480.16	18663.43
480.34	18263.20
480.52	18504.28
480.70	18794.50
480.88	18410.65
481.06	18815.57
481.24	18981.74
481.41	19213.46
481.59	19068.34
481.77	19660.50
481.95	19475.60
482.13	19875.83
482.31	19887.53
482.49	20287.76
482.67	20128.61
482.85	20489.05
483.03	20582.67
483.21	20961.84
483.39	20947.79
483.57	21010.99
483.74	21275.47
483.92	21591.44
484.10	21184.19
484.28	21783.37
484.46	22197.64
484.64	22089.98
484.82	21872.31
485.00	22494.89
485.18	22836.61
485.35	23204.07
485.53	22923.21
485.71	22984.06
485.89	23253.22
486.07	23215.77
486.25	23494.30
486.43	23440.47
486.61	23690.90
486.78	24011.56
486.96	24116.88
487.14	24807.34
487.32	24709.04
487.50	24826.06
487.68	25006.28
487.85	25200.55
488.03	25436.94
488.21	25869.94
488.39	25565.67
488.57	25979.95
488.75	26415.29
488.92	26539.33
489.10	26735.94
489.28	26897.44
489.46	27232.13
489.64	27208.73
489.81	27733.01
489.99	27543.42
490.17	27871.10
490.35	27920.25
490.53	27946.00
490.70	28257.29
490.88	28126.22
491.06	29039.03
491.24	29010.94
491.41	28971.15
491.59	29263.72
491.77	29291.80
491.95	29764.59
492.13	29788.00
492.30	29921.41
492.48	29900.34
492.66	30267.81
492.84	30377.81
493.01	31030.82
493.19	30799.11
493.37	31178.28
493.54	31026.14
493.72	32093.43
493.90	31632.34
494.08	31866.39
494.25	31711.92
494.43	32318.12
494.61	32414.08
494.79	32526.42
494.96	32458.55
495.14	32692.60
495.32	33455.62
495.49	33015.60
495.67	32875.16
495.85	33708.40
496.02	33853.51
496.20	33982.24
496.38	34068.84
496.55	34288.85
496.73	34775.68
496.91	34258.42
497.09	34906.75
497.26	35442.73
497.44	35407.62
497.62	35295.28
497.79	35845.30
497.97	35543.38
498.14	36074.68
498.32	36371.92
498.50	36425.76
498.67	36458.52
498.85	36521.72
499.03	36776.84
499.20	36493.63
499.38	36746.41
499.56	37275.37
499.73	37390.06
499.91	37546.87
500.08	38005.62
500.26	37717.73
500.44	37691.99
500.61	38082.86
500.79	37722.41
500.97	38298.19
501.14	38506.49
501.32	38607.14
501.49	38960.56
501.67	38452.66
501.84	39175.89
502.02	39367.81
502.20	39110.35
502.37	39220.36
502.55	39117.37
502.72	39484.84
502.90	39526.97
503.07	39140.78
503.25	39927.20
503.43	40205.72
503.60	39805.49
503.78	40294.66
503.95	40261.90
504.13	40978.10
504.30	40423.39
504.48	40889.16
504.65	40758.09
504.83	41118.53
505.01	41118.53
505.18	41088.10
505.36	41429.82
505.53	41120.87
505.71	41771.54
505.88	41944.74
506.06	41603.02
506.23	42134.32
506.41	41874.52
506.58	42043.04
506.76	42663.28
506.93	42644.56
507.11	42342.63
507.28	42831.80
507.46	42953.51
507.63	43028.41
507.81	43320.98
507.98	43161.82
508.16	43239.06
508.33	43632.27
508.50	43676.74
508.68	44055.90
508.85	43812.49
509.03	43796.10
509.20	43920.15
509.38	44006.75
509.55	44418.69
509.73	44470.18
509.90	44573.16
510.08	45102.12
510.25	44830.62
510.42	44851.69
510.60	44999.14
510.77	44755.72
510.95	45591.30
511.12	45088.08
511.30	45027.23
511.47	45773.86
511.64	45769.18
511.82	45691.94
511.99	45549.17
512.17	46232.60
512.34	45542.14
512.51	46412.82
512.69	46862.21
512.86	46211.54
513.04	46696.03
513.21	46410.48
513.38	46885.61
513.56	47187.54
513.73	46873.91
513.90	47276.48
514.08	46726.46
514.25	47283.50
514.43	47222.65
514.60	47477.77
514.77	47180.52
514.95	47494.15
515.12	47767.99
515.29	47615.86
515.47	47908.43
515.64	48385.89
515.81	47538.62
515.99	48112.05
516.16	49041.24
516.33	48531.01
516.51	48919.54
516.68	48603.56
516.85	48538.03
517.03	48760.38
517.20	48945.28
517.37	49202.74
517.54	48671.44
517.72	49160.61
517.89	49038.90
518.06	49467.22
518.24	49757.45
518.41	49474.24
518.58	49837.03
518.75	49333.81
518.93	49808.94
519.10	49361.90
519.27	50075.76
519.45	49972.78
519.62	50078.10
519.79	50169.38
519.96	50171.72
520.14	50328.54
520.31	50394.07
520.48	50073.42
520.65	50483.01
520.83	50691.32
521.00	50988.57
521.17	50564.93
521.34	50934.74
521.52	50763.88
521.69	50724.09
521.86	50974.53
522.03	50981.55
522.20	51189.86
522.38	51316.25
522.55	51405.19
522.72	51611.15
522.89	51437.95
523.07	51856.91
523.24	51683.71
523.41	51709.46
523.58	51681.37
523.75	52196.29
523.92	51777.33
524.10	52004.36
524.27	52175.22
524.44	52032.45
524.61	52320.34
524.78	52367.15
524.96	52371.83
525.13	52416.30
525.30	52428.00
525.47	52343.74
525.64	52355.44
525.81	52701.84
525.98	52746.31
526.16	52659.71
526.33	52720.57
526.50	53090.37
526.67	52821.21
526.84	53015.47
527.01	52727.59
527.18	52882.06
527.36	52746.31
527.53	53064.63
527.70	53282.30
527.87	53504.65
528.04	53193.36
528.21	53516.35
528.38	53214.42
528.55	53743.38
528.72	53682.53
528.89	53380.60
529.07	53329.11
529.24	53584.22
529.41	53860.41
529.58	53762.11
529.75	53965.73
529.92	53731.68
530.09	53872.11
530.26	54007.86
530.43	54162.34
530.60	53673.16
530.77	53951.69
530.94	54216.17
531.11	54113.19
531.28	54073.40
531.46	54075.74
531.63	54279.36
531.80	54401.07
531.97	54553.21
532.14	54541.50
532.31	54555.55
532.48	54693.64
532.65	54621.08
532.82	54482.99
532.99	54843.43
533.16	54969.82
533.33	54848.11
533.50	54993.23
533.67	54834.07
533.84	54855.14
534.01	54962.80
534.18	55222.60
534.35	55063.44
534.52	55119.62
534.69	55157.06
534.86	55353.67
535.03	55323.24
535.20	55189.83
535.37	55384.10
535.54	55482.40
535.71	55391.12
535.88	55503.46
536.05	55351.33
536.22	55526.87
536.38	55814.76
536.55	55648.58
536.72	55728.16
536.89	55552.62
537.06	55674.32
537.23	55901.36
537.40	55688.37
537.57	55608.79
537.74	55826.46
537.91	56140.09
538.08	55945.83
538.25	55753.90
538.42	55877.95
538.59	56037.11
538.75	55966.89
538.92	56179.88
539.09	56250.09
539.26	56355.42
539.43	56170.52
539.60	56107.32
539.77	56420.95
539.94	56533.30
540.11	56301.59
540.28	56521.60
540.44	56381.16
540.61	56214.99
540.78	56385.85
540.95	56643.30
541.12	56486.49
541.29	56509.89
541.46	56533.30
541.62	56643.30
541.79	56591.81
541.96	56739.27
542.13	56514.58
542.30	56865.66
542.47	56839.91
542.63	57020.13
542.80	57130.14
542.97	56989.70
543.14	57382.91
543.31	57340.78
543.48	57148.86
543.64	57396.96
543.81	57254.18
543.98	57230.78
544.15	57478.88
544.32	57609.95
544.48	57654.42
544.65	57392.28
544.82	57483.56
544.99	57275.25
545.16	57600.58
545.32	57528.03
545.49	57888.47
545.66	57836.98
545.83	57733.99
546.00	57687.18
546.16	57853.36
546.33	57715.27
546.50	57513.98
546.67	57427.38
546.83	57399.30
547.00	57757.40
547.17	57738.68
547.34	57909.53
547.50	57979.75
547.67	58120.18
547.84	57956.35
548.00	58398.71
548.17	58274.66
548.34	58096.78
548.51	58419.77
548.67	58335.51
548.84	58166.99
549.01	58042.95
549.18	58056.99
549.34	58295.72
549.51	58482.97
549.68	58382.32
549.84	58365.94
550.01	58363.60
550.18	58351.90
550.34	58480.63
550.51	58557.86
550.68	58649.14
550.84	58323.81
551.01	58639.78
551.18	58408.07
551.34	58824.68
551.51	58628.08
551.68	58515.73
551.84	58555.52
552.01	58499.35
552.18	58791.92
552.34	58780.21
552.51	58763.83
552.68	58574.25
552.84	58681.91
553.01	58728.72
553.18	58827.02
553.34	58775.53
553.51	58665.53
553.67	58674.89
553.84	58962.78
554.01	58979.16
554.17	58932.35
554.34	59096.19
554.51	59154.70
554.67	59042.35
554.84	58983.84
555.00	59206.19
555.17	58969.80
555.33	59189.81
555.50	59011.93
555.67	59133.63
555.83	59145.34
556.00	59112.57
556.16	59494.08
556.33	59398.12
556.50	59260.02
556.66	59323.22
556.83	59290.45
556.99	59674.30
557.16	59381.73
557.32	59536.21
557.49	59512.80
557.65	59274.07
557.82	59419.18
557.98	59461.31
558.15	59470.67
558.32	59433.22
558.48	59327.90
558.65	59355.99
558.81	59353.65
558.98	59620.47
559.14	59753.88
559.31	59723.45
559.47	59571.32
559.64	59753.88
559.80	59686.00
559.97	59657.91
560.13	59491.74
560.30	59538.55
560.46	59948.14
560.63	59833.46
560.79	59540.89
560.96	59966.87
561.12	60072.19
561.29	60051.12
561.45	59746.86
561.61	60030.06
561.78	59817.07
561.94	59840.48
562.11	59788.98
562.27	59952.82
562.44	59896.65
562.60	59887.29
562.77	60060.49
562.93	60088.57
563.10	60081.55
563.26	60006.65
563.42	60111.98
563.59	59929.42
563.75	60214.96
563.92	60205.60
564.08	59987.93
564.24	60292.20
564.41	59990.27
564.57	60210.28
564.74	60280.50
564.90	60076.87
565.07	60154.11
565.23	60053.47
565.39	60137.72
565.56	60280.50
565.72	60093.25
565.88	60254.75
566.05	60172.83
566.21	60301.56
566.38	60336.67
566.54	60259.43
566.70	60486.46
566.87	60402.21
567.03	60184.54
567.19	60495.83
567.36	60458.38
567.52	60259.43
567.68	60683.07
567.85	60268.79
568.01	60355.39
568.17	60409.23
568.34	60514.55
568.50	60441.99
568.66	60418.59
568.83	60451.36
568.99	60439.65
569.15	60411.57
569.32	60388.16
569.48	60271.14
569.64	60575.40
569.81	60371.78
569.97	60500.51
570.13	60427.95
570.30	60467.74
570.46	60598.81
570.62	60633.92
570.78	60533.28
570.95	60523.91
571.11	60619.88
571.27	60598.81
571.43	60617.53
571.60	60729.88
571.76	60612.85
571.92	60598.81
572.09	60652.64
572.25	60575.40
572.41	60640.94
572.57	60636.26
572.74	60821.16
572.90	60589.45
573.06	60631.58
573.22	60671.37
573.38	60715.84
573.55	60795.42
573.71	60851.59
573.87	60678.39
574.03	60631.58
574.20	60961.59
574.36	60610.51
574.52	60917.12
574.68	60818.82
574.84	60816.48
575.01	60694.77
575.17	60774.35
575.33	60683.07
575.49	60748.60
575.65	60842.23
575.82	60893.72
575.98	60865.63
576.14	61045.85
576.30	60884.36
576.46	60753.29
576.62	60753.29
576.79	60734.56
576.95	60622.22
577.11	60781.37
577.27	60900.74
577.43	60900.74
577.59	60535.62
577.75	60877.33
577.92	60762.65
578.08	60591.79
578.24	60940.53
578.40	60945.21
578.56	60931.17
578.72	60882.02
578.88	60893.72
579.04	60928.83
579.21	61001.38
579.37	61127.77
579.53	61071.60
579.69	60846.91
579.85	61055.21
580.01	60720.52
580.17	60837.54
580.33	60952.23
580.49	61006.06
580.65	61076.28
580.82	60921.80
580.98	60882.02
581.14	60779.03
581.30	61045.85
581.46	60966.27
581.62	60973.30
581.78	60999.04
581.94	61045.85
582.10	60935.85
582.26	61193.31
582.42	60769.67
582.58	60968.61
582.74	60980.32
582.90	60797.76
583.06	61036.49
583.22	60804.78
583.38	61214.37
583.54	60977.98
583.70	61099.68
583.86	61076.28
584.02	61013.08
584.18	61080.96
584.34	61069.26
584.50	61015.43
584.66	60989.68
584.82	60783.71
584.98	61130.11
585.14	61193.31
585.30	60860.95
585.46	60961.59
585.62	61097.34
585.78	61272.88
585.94	60996.70
586.10	61113.73
586.26	61167.56
586.42	60996.70
586.58	61083.30
586.74	61064.58
586.90	61062.24
587.06	61118.41
587.22	61165.22
587.38	61155.86
587.54	61186.28
587.70	61296.29
587.86	61031.81
588.02	61024.79
588.18	61357.14
588.34	61090.32
588.49	61083.30
