SpectraSuite Data File
++++++++++++++++++++++++++++++++++++
Date: Fri Oct 25 11:26:33 EDT 2013
User: price-jones
Dark Spectrum Present: No
Reference Spectrum Present: No
Number of Sampled Component Spectra: 1
Spectrometers: USB2+H05261
Integration Time (usec): 100000 (USB2+H05261)
Spectra Averaged: 1 (USB2+H05261)
Boxcar Smoothing: 0 (USB2+H05261)
Correct for Electrical Dark: No (USB2+H05261)
Strobe/Lamp Enabled: No (USB2+H05261)
Correct for Detector Non-linearity: No (USB2+H05261)
Correct for Stray Light: No (USB2+H05261)
Number of Pixels in Processed Spectrum: 2048
>>>>>Begin Processed Spectral Data<<<<<
365.73	205.97
365.92	205.97
366.12	205.97
366.32	231.71
366.52	133.41
366.72	180.22
366.91	131.07
367.11	147.45
367.31	173.20
367.51	184.90
367.70	154.48
367.90	259.80
368.10	112.35
368.30	138.09
368.49	147.45
368.69	159.16
368.89	196.60
369.09	198.95
369.28	159.16
369.48	135.75
369.68	166.18
369.87	243.42
370.07	147.45
370.27	234.05
370.47	294.91
370.66	622.58
370.86	643.65
371.06	723.23
371.25	779.40
371.45	692.80
371.65	692.80
371.84	688.12
372.04	688.12
372.24	730.25
372.44	648.33
372.63	737.27
372.83	734.93
373.03	765.36
373.22	777.06
373.42	849.61
373.62	835.57
373.81	737.27
374.01	894.08
374.21	795.78
374.40	774.72
374.60	908.13
374.79	833.23
374.99	849.61
375.19	835.57
375.38	830.89
375.58	842.59
375.78	908.13
375.97	954.94
376.17	924.51
376.37	894.08
376.56	880.04
376.76	795.78
376.95	978.34
377.15	931.53
377.35	910.47
377.54	952.60
377.74	898.77
377.93	908.13
378.13	931.53
378.33	931.53
378.52	952.60
378.72	1025.15
378.91	947.92
379.11	905.79
379.31	940.90
379.50	997.07
379.70	994.73
379.89	1022.81
380.09	1064.94
380.28	978.34
380.48	1015.79
380.68	1027.50
380.87	1050.90
381.07	924.51
381.26	1090.69
381.46	999.41
381.65	1083.67
381.85	1041.54
382.04	1111.75
382.24	1083.67
382.43	1076.65
382.63	1043.88
382.83	1043.88
383.02	1088.35
383.22	1111.75
383.41	1029.84
383.61	1057.92
383.80	1174.95
384.00	1095.37
384.19	1130.48
384.39	1137.50
384.58	1203.04
384.78	1165.59
384.97	1238.14
385.17	1179.63
385.36	1107.07
385.56	1167.93
385.75	1231.12
385.95	1200.69
386.14	1184.31
386.34	1163.25
386.53	1217.08
386.72	1301.34
386.92	1284.95
387.11	1287.29
387.31	1280.27
387.50	1296.66
387.70	1270.91
387.89	1261.55
388.09	1263.89
388.28	1249.85
388.48	1322.40
388.67	1369.21
388.86	1301.34
389.06	1284.95
389.25	1329.42
389.45	1306.02
389.64	1322.40
389.84	1371.55
390.03	1467.52
390.22	1387.94
390.42	1462.83
390.61	1385.60
390.81	1324.74
391.00	1453.47
391.19	1519.01
391.39	1427.73
391.58	1462.83
391.78	1371.55
391.97	1474.54
392.16	1586.88
392.36	1584.54
392.55	1521.35
392.75	1526.03
392.94	1636.03
393.13	1483.90
393.33	1530.71
393.52	1528.37
393.71	1589.22
393.91	1593.90
394.10	1556.46
394.29	1579.86
394.49	1603.27
394.68	1596.25
394.88	1619.65
395.07	1638.38
395.26	1717.95
395.46	1685.19
395.65	1764.76
395.84	1788.17
396.04	1881.79
396.23	1774.13
396.42	1673.48
396.62	1743.70
396.81	1776.47
397.00	1753.06
397.19	1825.62
397.39	1696.89
397.58	1881.79
397.77	1830.30
397.97	1933.28
398.16	1865.41
398.35	1893.49
398.55	1909.88
398.74	1872.43
398.93	2015.20
399.12	1968.39
399.32	1944.99
399.51	1846.68
399.70	2029.24
399.90	1921.58
400.09	2101.80
400.28	2038.61
400.47	2012.86
400.67	2125.21
400.86	2059.67
401.05	2059.67
401.24	2047.97
401.44	2141.59
401.63	2104.14
401.82	2237.55
402.01	2150.95
402.21	2146.27
402.40	2289.04
402.59	2176.70
402.78	2195.42
402.97	2186.06
403.17	2333.51
403.36	2246.91
403.55	2251.60
403.74	2331.17
403.93	2338.20
404.13	2392.03
404.32	2380.32
404.51	2389.69
404.70	2429.48
404.89	2380.32
405.09	2464.58
405.28	2385.01
405.47	2452.88
405.66	2511.39
405.85	2574.59
406.05	2579.27
406.24	2651.83
406.43	2656.51
406.62	2590.97
406.81	2576.93
407.00	2644.81
407.20	2579.27
407.39	2630.76
407.58	2729.06
407.77	2717.36
407.96	2752.47
408.15	2871.84
408.34	2801.62
408.54	2813.32
408.73	2768.85
408.92	2813.32
409.11	2841.41
409.30	2864.82
409.49	2993.55
409.68	2911.63
409.87	3021.63
410.07	2988.86
410.26	3108.23
410.45	3023.97
410.64	3000.57
410.83	3016.95
411.02	3049.72
411.21	3225.26
411.40	3152.70
411.59	3295.47
411.78	3213.56
411.98	3194.83
412.17	3145.68
412.36	3332.92
412.55	3485.06
412.74	3461.65
412.93	3405.48
413.12	3389.10
413.31	3538.89
413.50	3489.74
413.69	3456.97
413.88	3651.24
414.07	3545.91
414.26	3705.07
414.45	3646.55
414.64	3698.05
414.83	3658.26
415.02	3796.35
415.22	3779.97
415.41	3847.84
415.60	3920.40
415.79	3920.40
415.98	4023.38
416.17	4133.39
416.36	3969.55
416.55	3918.06
416.74	4070.19
416.93	4081.89
417.12	4156.79
417.31	4285.52
417.50	4208.28
417.69	4198.92
417.88	4386.16
418.07	4217.65
418.26	4222.33
418.45	4381.48
418.64	4505.53
418.83	4496.17
419.02	4526.60
419.21	4582.77
419.39	4573.41
419.58	4360.42
419.77	4491.49
419.96	4559.36
420.15	4444.68
420.34	4737.24
420.53	4671.71
420.72	4812.14
420.91	4833.21
421.10	4908.10
421.29	4863.63
421.48	4695.11
421.67	4901.08
421.86	4774.69
422.05	4688.09
422.24	4905.76
422.43	4823.84
422.61	5020.45
422.80	5053.22
422.99	5081.30
423.18	4987.68
423.37	4954.91
423.56	4961.94
423.75	4884.70
423.94	4849.59
424.13	4634.26
424.32	4634.26
424.50	5114.07
424.69	4966.62
424.88	5240.46
425.07	4945.55
425.26	4945.55
425.45	5067.26
425.64	4842.57
425.83	5004.07
426.01	5118.75
426.20	4964.28
426.39	5163.22
426.58	5146.84
426.77	5097.69
426.96	5203.01
427.15	5313.02
427.33	5289.61
427.52	5210.03
427.71	5238.12
427.90	5165.56
428.09	5334.08
428.28	5364.51
428.46	5427.70
428.65	5282.59
428.84	5439.40
429.03	5439.40
429.22	5275.57
429.40	5551.75
429.59	5680.48
429.78	5385.57
429.97	5305.99
430.16	5593.88
430.34	5514.30
430.53	5584.52
430.72	5724.95
430.91	5685.16
431.10	5647.71
431.28	5895.81
431.47	6010.50
431.66	5717.93
431.85	5771.76
432.03	5954.32
432.22	6181.35
432.41	5959.00
432.60	5851.34
432.79	5933.26
432.97	6071.35
433.16	6050.28
433.35	6033.90
433.54	6094.76
433.72	6104.12
433.91	6092.41
434.10	6139.23
434.28	6139.23
434.47	6256.25
434.66	6244.55
434.85	6314.77
435.03	6473.92
435.22	6211.78
435.41	6452.86
435.59	6513.71
435.78	6441.15
435.97	6583.93
436.16	6464.56
436.34	6422.43
436.53	6628.40
436.72	6644.78
436.90	6569.88
437.09	6787.55
437.28	6483.28
437.46	6616.69
437.65	6668.19
437.84	6794.58
438.02	6733.72
438.21	6841.39
438.40	6834.36
438.58	6944.37
438.77	7087.14
438.96	7035.65
439.14	7222.89
439.33	7222.89
439.52	7248.64
439.70	7377.37
439.89	7431.20
440.08	7445.24
440.26	7330.56
440.45	7353.96
440.63	7506.10
440.82	7681.64
441.01	7609.08
441.19	7595.04
441.38	7779.94
441.57	7838.45
441.75	7765.90
441.94	7747.17
442.12	7983.57
442.31	7939.10
442.50	8189.53
442.68	8011.65
442.87	8133.36
443.05	8091.23
443.24	8191.88
443.43	8086.55
443.61	8248.05
443.80	8489.12
443.98	8191.88
444.17	7815.05
444.35	8407.20
444.54	8559.34
444.73	8255.07
444.91	8482.10
445.10	8423.59
445.28	8505.51
445.47	8308.90
445.65	8533.59
445.84	8348.69
446.02	8648.28
446.21	8437.63
446.39	8519.55
446.58	8571.04
446.77	8676.37
446.95	8348.69
447.14	8468.06
447.32	8475.08
447.51	8482.10
447.69	8554.66
447.88	8535.93
448.06	8599.13
448.25	8517.21
448.43	8650.62
448.62	8575.72
448.80	8493.80
448.99	8655.30
449.17	8737.22
449.36	8578.06
449.54	8870.63
449.73	8978.30
449.91	8985.32
450.10	8765.31
450.28	9071.92
450.46	9172.56
450.65	9116.39
450.83	9036.81
451.02	9104.68
451.20	9254.48
451.39	9298.95
451.57	9158.52
451.76	9085.96
451.94	9228.73
452.13	9240.44
452.31	9357.46
452.49	9188.94
452.68	9493.21
452.86	9432.36
453.05	9383.21
453.23	9582.15
453.42	9525.98
453.60	9415.98
453.78	9425.34
453.97	9628.96
454.15	9504.92
454.34	9404.27
454.52	9607.90
454.70	9858.34
454.89	9764.72
455.07	9762.37
455.26	10038.56
455.44	10005.79
455.62	9956.64
455.81	9893.44
455.99	10162.61
456.17	10097.07
456.36	10113.45
456.54	10143.88
456.73	10274.95
456.91	10377.94
457.09	10406.02
457.28	10616.67
457.46	10436.45
457.64	10384.96
457.83	10555.82
458.01	10256.23
458.19	10593.26
458.38	10546.45
458.56	10787.53
458.74	10850.72
458.93	10602.63
459.11	10689.23
459.29	10729.02
459.48	10860.09
459.66	10850.72
459.84	10867.11
460.03	10923.28
460.21	11234.57
460.39	11225.21
460.57	10970.09
460.76	11042.65
460.94	11328.19
461.12	11506.07
461.31	11091.80
461.49	11302.45
461.67	11302.45
461.85	11690.98
462.04	11286.06
462.22	11641.82
462.40	11611.40
462.59	11536.50
462.77	11440.54
462.95	11445.22
463.13	11793.96
463.32	11822.05
463.50	11700.34
463.68	11946.09
463.86	11838.43
464.05	11700.34
464.23	11730.76
464.41	11859.49
464.59	11871.20
464.78	12081.85
464.96	11943.75
465.14	11845.45
465.32	12042.06
465.50	12152.06
465.69	12208.23
465.87	11901.62
466.05	12180.15
466.23	12145.04
466.41	12088.87
466.60	12437.61
466.78	12383.77
466.96	12404.84
467.14	12273.77
467.32	12170.79
467.51	12507.82
467.69	12477.40
467.87	12360.37
468.05	12697.41
468.23	12262.07
468.41	12556.97
468.60	12573.36
468.78	12678.68
468.96	12559.31
469.14	12624.85
469.32	12996.99
469.50	12514.84
469.69	12891.67
469.87	13057.85
470.05	13167.85
470.23	13275.52
470.41	13179.56
470.59	13336.37
470.77	13429.99
470.95	13083.59
471.14	13507.23
471.32	13163.17
471.50	13582.13
471.68	13598.51
471.86	13771.71
472.04	13853.63
472.22	14195.35
472.40	13788.10
472.58	13809.16
472.77	14129.81
472.95	14394.29
473.13	15133.90
473.31	14061.94
473.49	14410.68
473.67	14174.28
473.85	14202.37
474.03	14853.04
474.21	14618.99
474.39	14836.66
474.57	14864.74
474.75	14918.57
474.93	15171.35
475.12	15152.63
475.30	14827.29
475.48	15133.90
475.66	15337.53
475.84	14970.07
476.02	15257.95
476.20	15613.71
476.38	15845.43
476.56	15964.79
476.74	16088.84
476.92	15791.59
477.10	15763.51
477.28	16037.35
477.46	16056.08
477.64	16315.87
477.82	16798.02
478.00	16964.20
478.18	16833.13
478.36	16884.62
478.54	17034.42
478.72	17139.74
478.90	17439.33
479.08	17406.56
479.26	17769.35
479.44	17563.38
479.62	18012.76
479.80	18169.58
479.98	18075.96
480.16	18740.67
480.34	18249.16
480.52	18822.59
480.70	18827.27
480.88	18483.21
481.06	18679.82
481.24	18728.97
481.41	19267.29
481.59	19463.90
481.77	19529.43
481.95	19410.06
482.13	19421.77
482.31	19616.03
482.49	20222.23
482.67	20152.01
482.85	20554.58
483.03	20636.50
483.21	20716.08
483.39	21071.84
483.57	20966.52
483.74	21469.73
483.92	21572.72
484.10	21163.12
484.28	21546.97
484.46	21605.49
484.64	22235.09
484.82	22122.74
485.00	22441.06
485.18	22785.12
485.35	23056.62
485.53	23035.55
485.71	23166.62
485.89	23641.75
486.07	23454.51
486.25	23646.43
486.43	23391.31
486.61	24032.62
486.78	24147.31
486.96	24196.46
487.14	24577.97
487.32	24945.43
487.50	24992.24
487.68	25329.28
487.85	25483.75
488.03	25668.66
488.21	25909.73
488.39	25827.81
488.57	25902.71
488.75	26450.39
488.92	26328.69
489.10	26541.68
489.28	26850.63
489.46	27147.87
489.64	27119.79
489.81	27735.35
489.99	27899.19
490.17	27615.98
490.35	28091.11
490.53	28070.04
490.70	28425.81
490.88	28503.04
491.06	28753.48
491.24	28966.47
491.41	28833.06
491.59	29301.17
491.77	29481.39
491.95	29603.10
492.13	29481.39
492.30	29748.21
492.48	30040.78
492.66	30143.76
492.84	30785.07
493.01	30920.82
493.19	30939.54
493.37	30981.67
493.54	31358.50
493.72	31732.98
493.90	31590.21
494.08	31850.01
494.25	31999.80
494.43	32140.24
494.61	32570.90
494.79	32744.09
494.96	32383.65
495.14	32603.66
495.32	33244.97
495.49	33205.18
495.67	33095.18
495.85	33689.67
496.02	33539.88
496.20	33998.62
496.38	33823.08
496.55	34457.37
496.73	34920.79
496.91	34808.45
497.09	34834.19
497.26	35218.04
497.44	35023.78
497.62	35573.80
497.79	35660.40
497.97	35487.20
498.14	35868.71
498.32	36439.80
498.50	36018.50
498.67	36589.59
498.85	36414.05
499.03	36987.49
499.20	37151.32
499.38	36912.59
499.56	36980.46
499.73	37273.03
499.91	37336.23
500.08	37731.78
500.26	37371.33
500.44	37830.08
500.61	37752.84
500.79	37654.54
500.97	38286.48
501.14	38822.47
501.32	38595.43
501.49	38380.10
501.67	38895.02
501.84	39185.25
502.02	38906.73
502.20	39447.39
502.37	39309.30
502.55	39353.77
502.72	39562.08
502.90	39746.98
503.07	39395.90
503.25	39812.51
503.43	39559.73
503.60	40194.02
503.78	40243.17
503.95	40390.62
504.13	40528.72
504.30	40650.42
504.48	40254.87
504.65	40582.55
504.83	41256.62
505.01	41457.91
505.18	41130.23
505.36	41591.32
505.53	41570.25
505.71	41862.82
505.88	42211.56
506.06	41467.27
506.23	42373.06
506.41	42122.62
506.58	41853.46
506.76	42653.92
506.93	42773.29
507.11	42726.48
507.28	42562.64
507.46	43042.45
507.63	43196.93
507.81	43009.68
507.98	42770.95
508.16	43107.99
508.33	43260.12
508.50	43402.89
508.68	43342.04
508.85	43934.20
509.03	43835.89
509.20	44531.03
509.38	44535.71
509.55	44664.44
509.73	44486.56
509.90	44748.70
510.08	44629.34
510.25	44982.76
510.42	45076.38
510.60	45546.82
510.77	45254.26
510.95	45209.79
511.12	45387.67
511.30	45546.82
511.47	45228.51
511.64	45680.24
511.82	46094.51
511.99	45792.58
512.17	46248.99
512.34	46129.62
512.51	46417.50
512.69	46337.93
512.86	46658.58
513.04	47227.33
513.21	46518.15
513.38	47126.69
513.56	46960.51
513.73	46822.42
513.90	47189.88
514.08	46981.57
514.25	47313.93
514.43	47250.74
514.60	47356.06
514.77	47377.12
514.95	47449.68
515.12	47704.80
515.29	47688.42
515.47	48088.65
515.64	47800.76
515.81	47969.28
515.99	48582.50
516.16	48659.74
516.33	48418.66
516.51	48561.44
516.68	48795.49
516.85	48236.10
517.03	48989.75
517.20	48842.30
517.37	48563.78
517.54	48966.35
517.72	48907.83
517.89	49635.74
518.06	49600.63
518.24	49088.06
518.41	49516.37
518.58	49315.09
518.75	49488.29
518.93	49712.98
519.10	49591.27
519.27	49607.65
519.45	49874.48
519.62	49780.85
519.79	50272.37
519.96	50024.27
520.14	50302.79
520.31	49956.39
520.48	50454.93
520.65	50244.28
520.83	50820.05
521.00	50553.23
521.17	50340.24
521.34	50768.56
521.52	50864.52
521.69	50988.57
521.86	51019.00
522.03	50880.91
522.20	51423.91
522.38	51599.45
522.55	51416.89
522.72	51430.93
522.89	51332.63
523.07	51672.01
523.24	51828.82
523.41	51770.31
523.58	51253.05
523.75	52088.62
523.92	51791.37
524.10	51973.94
524.27	51943.51
524.44	51707.12
524.61	51751.59
524.78	51997.34
524.96	52247.78
525.13	52062.88
525.30	52507.58
525.47	52589.50
525.64	52559.07
525.81	52685.46
525.98	52846.96
526.16	52687.80
526.33	52725.25
526.50	52699.50
526.67	52697.16
526.84	52978.03
527.01	52968.66
527.18	53179.31
527.36	52711.20
527.53	53034.20
527.70	53333.79
527.87	53539.75
528.04	53305.70
528.21	53333.79
528.38	53499.97
528.55	53954.03
528.72	53755.08
528.89	53567.84
529.07	53446.13
529.24	53249.53
529.41	53790.19
529.58	53895.52
529.75	53565.50
529.92	53921.26
530.09	53977.43
530.26	54288.73
530.43	54099.14
530.60	54241.92
530.77	53844.02
530.94	54054.67
531.11	53914.24
531.28	54047.65
531.46	54288.73
531.63	54181.06
531.80	54255.96
531.97	54471.29
532.14	54422.14
532.31	54464.27
532.48	54646.83
532.65	54899.61
532.82	54321.49
532.99	54817.69
533.16	54316.81
533.33	54808.32
533.50	54782.58
533.67	54892.58
533.84	54791.94
534.01	54878.54
534.18	54848.11
534.35	54969.82
534.52	55030.68
534.69	55473.04
534.86	55182.81
535.03	55037.70
535.20	55379.42
535.37	55348.99
535.54	55494.10
535.71	55143.02
535.88	55669.64
536.05	55423.89
536.22	55604.11
536.38	55517.51
536.55	55688.37
536.72	55718.79
536.89	55316.22
537.06	55770.28
537.23	55674.32
537.40	55721.13
537.57	55845.18
537.74	55643.90
537.91	55861.57
538.08	55758.58
538.25	55767.94
538.42	55964.55
538.59	56442.02
538.75	55910.72
538.92	56041.79
539.09	56299.25
539.26	56116.68
539.43	56392.87
539.60	56037.11
539.77	56275.84
539.94	56542.66
540.11	56355.42
540.28	56392.87
540.44	56451.38
540.61	56409.25
540.78	56369.46
540.95	56505.21
541.12	56516.92
541.29	56563.73
541.46	56704.16
541.62	56912.47
541.79	56886.72
541.96	56519.26
542.13	56669.05
542.30	56776.72
542.47	56924.17
542.63	57113.75
542.80	56970.98
542.97	57258.87
543.14	57523.35
543.31	57413.34
543.48	57212.06
543.64	57478.88
543.81	57448.45
543.98	57560.79
544.15	57399.30
544.32	57521.01
544.48	57544.41
544.65	57518.67
544.82	57542.07
544.99	57172.27
545.16	57612.29
545.32	57642.71
545.49	57914.22
545.66	58033.58
545.83	57670.80
546.00	57717.61
546.16	57631.01
546.33	57851.02
546.50	57551.43
546.67	57722.29
546.83	57446.11
547.00	57904.85
547.17	57780.81
547.34	57961.03
547.50	58007.84
547.67	58176.36
547.84	58064.01
548.00	57977.41
548.17	58101.46
548.34	58143.59
548.51	58412.75
548.67	58117.84
548.84	58326.15
549.01	58045.29
549.18	58326.15
549.34	58319.13
549.51	58277.00
549.68	58361.26
549.84	58501.69
550.01	58506.37
550.18	58148.27
550.34	58298.06
550.51	58567.23
550.68	58667.87
550.84	58248.91
551.01	58702.98
551.18	58688.93
551.34	58478.28
551.51	58560.20
551.68	58747.45
551.84	58670.21
552.01	58646.80
552.18	58599.99
552.34	58604.67
552.51	58913.62
552.68	58646.80
552.84	58714.68
553.01	59072.78
553.18	58855.11
553.34	58911.28
553.51	58630.42
553.67	58857.45
553.84	58937.03
554.01	58993.20
554.17	58979.16
554.34	59058.74
554.51	58983.84
554.67	59323.22
554.84	59002.56
555.00	59040.01
555.17	59152.36
555.33	59126.61
555.50	58962.78
555.67	59276.41
555.83	59018.95
556.00	59260.02
556.16	59526.84
556.33	59285.77
556.50	59384.07
556.66	59377.05
556.83	59267.05
556.99	59517.48
557.16	59573.66
557.32	59444.93
557.49	59641.53
557.65	59213.21
557.82	59449.61
557.98	59379.39
558.15	59599.40
558.32	59725.79
558.48	59393.43
558.65	59454.29
558.81	59482.37
558.98	59372.37
559.14	59643.87
559.31	59604.08
559.47	59763.24
559.64	59772.60
559.80	59639.19
559.97	59671.96
560.13	59688.34
560.30	59702.38
560.46	59770.26
560.63	59772.60
560.79	59695.36
560.96	59826.43
561.12	59861.54
561.29	60062.83
561.45	60013.68
561.61	59842.82
561.78	59753.88
561.94	59664.94
562.11	60011.34
562.27	60104.96
562.44	60142.41
562.60	60111.98
562.77	60023.04
562.93	59917.71
563.10	60048.78
563.26	59807.71
563.42	60243.05
563.59	60329.65
563.75	60039.42
563.92	60170.49
564.08	60027.72
564.24	60175.17
564.41	60275.82
564.57	60282.84
564.74	60229.01
564.90	60229.01
565.07	60238.37
565.23	60369.44
565.39	60067.51
565.56	60165.81
565.72	60357.74
565.88	60154.11
566.05	60128.36
566.21	60177.51
566.38	60364.76
566.54	60360.08
566.70	60205.60
566.87	60411.57
567.03	60069.85
567.19	60467.74
567.36	60451.36
567.52	60647.96
567.68	60540.30
567.85	60364.76
568.01	60479.44
568.17	60441.99
568.34	60439.65
568.50	60336.67
568.66	60486.46
568.83	60420.93
568.99	60406.89
569.15	60470.08
569.32	60427.95
569.48	60608.17
569.64	60516.89
569.81	60411.57
569.97	60376.46
570.13	60626.90
570.30	60498.17
570.46	60526.25
570.62	60748.60
570.78	60619.88
570.95	60446.68
571.11	60594.13
571.27	60474.76
571.43	60596.47
571.60	60650.30
571.76	60526.25
571.92	60561.36
572.09	60596.47
572.25	60584.77
572.41	60591.79
572.57	60687.75
572.74	60928.83
572.90	60500.51
573.06	60530.93
573.22	60825.84
573.38	60764.99
573.55	60650.30
573.71	60938.19
573.87	60867.97
574.03	60594.13
574.20	60860.95
574.36	60874.99
574.52	60736.90
574.68	60814.14
574.84	60835.20
575.01	60769.67
575.17	61048.19
575.33	60781.37
575.49	60460.72
575.65	60839.89
575.82	60816.48
575.98	60896.06
576.14	60872.65
576.30	60989.68
576.46	60823.50
576.62	60879.67
576.79	60575.40
576.95	60582.43
577.11	60954.57
577.27	60853.93
577.43	60830.52
577.59	60973.30
577.75	60989.68
577.92	60669.03
578.08	60816.48
578.24	60882.02
578.40	61144.16
578.56	60999.04
578.72	61024.79
578.88	61132.45
579.04	61195.65
579.21	61045.85
579.37	60994.36
579.53	60886.70
579.69	60685.41
579.85	60701.79
580.01	60772.01
580.17	60772.01
580.33	60891.38
580.49	60999.04
580.65	60963.93
580.82	60914.78
580.98	60865.63
581.14	60842.23
581.30	61020.11
581.46	60935.85
581.62	60877.33
581.78	60757.97
581.94	61010.74
582.10	61059.90
582.26	60977.98
582.42	61062.24
582.58	60891.38
582.74	60739.24
582.90	60889.04
583.06	61010.74
583.22	60996.70
583.38	61031.81
583.54	61006.06
583.70	61083.30
583.86	61284.59
584.02	60977.98
584.18	61087.98
584.34	61087.98
584.50	60975.64
584.66	60797.76
584.82	60910.10
584.98	61223.73
585.14	61092.66
585.30	60977.98
585.46	61151.18
585.62	61080.96
585.78	61326.72
585.94	60835.20
586.10	61235.44
586.26	61153.52
586.42	61235.44
586.58	61109.05
586.74	60992.02
586.90	60973.30
587.06	61090.32
587.22	61188.63
587.38	61017.77
587.54	61221.39
587.70	61205.01
587.86	61190.97
588.02	60961.59
588.18	61120.75
588.34	61062.24
