SpectraSuite Data File
++++++++++++++++++++++++++++++++++++
Date: Fri Oct 25 10:44:19 EDT 2013
User: price-jones
Dark Spectrum Present: No
Reference Spectrum Present: No
Number of Sampled Component Spectra: 1
Spectrometers: USB2+H05261
Integration Time (usec): 100000 (USB2+H05261)
Spectra Averaged: 1 (USB2+H05261)
Boxcar Smoothing: 0 (USB2+H05261)
Correct for Electrical Dark: No (USB2+H05261)
Strobe/Lamp Enabled: No (USB2+H05261)
Correct for Detector Non-linearity: No (USB2+H05261)
Correct for Stray Light: No (USB2+H05261)
Number of Pixels in Processed Spectrum: 2048
>>>>>Begin Processed Spectral Data<<<<<
365.73	107.66
365.92	107.66
366.12	107.66
366.32	30.43
366.52	53.83
366.72	56.17
366.91	11.70
367.11	93.62
367.31	25.75
367.51	9.36
367.70	95.96
367.90	11.70
368.10	0.00
368.30	60.85
368.49	11.70
368.69	39.79
368.89	58.51
369.09	39.79
369.28	32.77
369.48	14.04
369.68	0.00
369.87	142.77
370.07	67.88
370.27	152.13
370.47	180.22
370.66	404.91
370.86	447.04
371.06	482.15
371.25	545.34
371.45	423.64
371.65	500.87
371.84	451.72
372.04	601.52
372.24	444.70
372.44	510.24
372.63	554.71
372.83	500.87
373.03	543.00
373.22	486.83
373.42	514.92
373.62	503.22
373.81	472.79
374.01	596.84
374.21	561.73
374.40	531.30
374.60	521.94
374.79	657.69
374.99	566.41
375.19	596.84
375.38	599.18
375.58	641.31
375.78	603.86
375.97	582.79
376.17	645.99
376.37	566.41
376.56	685.78
376.76	631.94
376.95	599.18
377.15	636.63
377.35	706.84
377.54	723.23
377.74	573.43
377.93	599.18
378.13	685.78
378.33	737.27
378.52	669.39
378.72	739.61
378.91	732.59
379.11	650.67
379.31	706.84
379.50	657.69
379.70	674.07
379.89	683.44
380.09	624.92
380.28	664.71
380.48	688.12
380.68	751.31
380.87	805.14
381.07	702.16
381.26	739.61
381.46	809.83
381.65	638.97
381.85	669.39
382.04	671.73
382.24	681.10
382.43	702.16
382.63	678.76
382.83	678.76
383.02	709.18
383.22	791.10
383.41	732.59
383.61	763.01
383.80	800.46
384.00	877.70
384.19	786.42
384.39	751.31
384.58	856.64
384.78	751.31
384.97	908.13
385.17	847.27
385.36	863.66
385.56	882.38
385.75	828.55
385.95	793.44
386.14	856.64
386.34	830.89
386.53	812.17
386.72	873.02
386.92	882.38
387.11	903.45
387.31	950.26
387.50	950.26
387.70	908.13
387.89	1006.43
388.09	990.05
388.28	936.21
388.48	819.19
388.67	968.98
388.86	1032.18
389.06	1018.13
389.25	992.39
389.45	1064.94
389.64	1036.86
389.84	1062.60
390.03	936.21
390.22	1036.86
390.42	999.41
390.61	985.37
390.81	1055.58
391.00	1102.39
391.19	1151.54
391.39	1029.84
391.58	1100.05
391.78	1032.18
391.97	1100.05
392.16	1132.82
392.36	1086.01
392.55	933.87
392.75	1008.77
392.94	1041.54
393.13	983.02
393.33	1001.75
393.52	1088.35
393.71	1170.27
393.91	1102.39
394.10	1247.51
394.29	1156.22
394.49	1212.40
394.68	1198.35
394.88	1327.08
395.07	1252.19
395.26	1327.08
395.46	1245.16
395.65	1303.68
395.84	1165.59
396.04	1259.21
396.23	1210.06
396.42	1123.46
396.62	1198.35
396.81	1205.38
397.00	1254.53
397.19	1303.68
397.39	1401.98
397.58	1387.94
397.77	1430.07
397.97	1392.62
398.16	1394.96
398.35	1451.13
398.55	1453.47
398.74	1490.92
398.93	1638.38
399.12	1568.16
399.32	1509.65
399.51	1659.44
399.70	1664.12
399.90	1614.97
400.09	1535.39
400.28	1685.19
400.47	1750.72
400.67	1811.57
400.86	1724.97
401.05	1788.17
401.24	1739.02
401.44	1816.26
401.63	1809.23
401.82	1746.04
402.01	1795.19
402.21	1874.77
402.40	1722.63
402.59	1860.73
402.78	1764.76
402.97	1886.47
403.17	1893.49
403.36	2092.44
403.55	1837.32
403.74	1886.47
403.93	1937.96
404.13	1905.20
404.32	1832.64
404.51	1884.13
404.70	2118.18
404.89	2062.01
405.09	2090.10
405.28	2012.86
405.47	2054.99
405.66	2113.50
405.85	1956.69
406.05	2015.20
406.24	2010.52
406.43	2092.44
406.62	2209.47
406.81	2195.42
407.00	2073.71
407.20	1907.54
407.39	2202.44
407.58	2136.91
407.77	2235.21
407.96	2289.04
408.15	2246.91
408.34	2354.58
408.54	2363.94
408.73	2408.41
408.92	2436.50
409.11	2342.88
409.30	2431.82
409.49	2277.34
409.68	2354.58
409.87	2377.98
410.07	2457.56
410.26	2516.08
410.45	2427.14
410.64	2658.85
410.83	2544.16
411.02	2679.91
411.21	2602.68
411.40	2686.94
411.59	2698.64
411.78	2670.55
411.98	2747.79
412.17	2715.02
412.36	2808.64
412.55	2740.77
412.74	2818.00
412.93	2806.30
413.12	2874.18
413.31	3009.93
413.50	2974.82
413.69	3009.93
413.88	2953.76
414.07	2977.16
414.26	3016.95
414.45	3096.53
414.64	3136.32
414.83	3152.70
415.02	3171.43
415.22	3243.98
415.41	3288.45
415.60	3187.81
415.79	3267.39
415.98	3508.46
416.17	3412.50
416.36	3262.71
416.55	3316.54
416.74	3365.69
416.93	3412.50
417.12	3361.01
417.31	3499.10
417.50	3424.20
417.69	3576.34
417.88	3597.40
418.07	3449.95
418.26	3548.25
418.45	3541.23
418.64	3721.45
418.83	3679.32
419.02	3740.18
419.21	3768.26
419.39	3716.77
419.58	3719.11
419.77	3618.47
419.96	3728.47
420.15	3824.44
420.34	3854.86
420.53	3840.82
420.72	3955.51
420.91	3922.74
421.10	3960.19
421.29	4100.62
421.48	4028.06
421.67	4067.85
421.86	3805.71
422.05	3838.48
422.24	3882.95
422.43	3829.12
422.61	3857.20
422.80	3955.51
422.99	4095.94
423.18	4042.11
423.37	4142.75
423.56	4007.00
423.75	4023.38
423.94	3957.85
424.13	3756.56
424.32	3889.97
424.50	4210.62
424.69	4170.83
424.88	4102.96
425.07	4154.45
425.26	4044.45
425.45	4278.50
425.64	4168.49
425.83	4100.62
426.01	4184.88
426.20	4234.03
426.39	4205.94
426.58	4063.17
426.77	4142.75
426.96	4182.54
427.15	4100.62
427.33	4208.28
427.52	4133.39
427.71	4250.41
427.90	4428.29
428.09	4397.87
428.28	4318.29
428.46	4138.07
428.65	4248.07
428.84	4212.96
429.03	4367.44
429.22	4346.37
429.40	4250.41
429.59	4138.07
429.78	4070.19
429.97	3978.91
430.16	4210.62
430.34	4315.95
430.53	4320.63
430.72	4327.65
430.91	4227.01
431.10	4503.19
431.28	4734.90
431.47	4657.67
431.66	4805.12
431.85	4667.03
432.03	4774.69
432.22	4798.10
432.41	4849.59
432.60	4821.50
432.79	4807.46
432.97	4964.28
433.16	4870.65
433.35	4718.52
433.54	4770.01
433.72	4814.48
433.91	4809.80
434.10	4896.40
434.28	4997.04
434.47	4973.64
434.66	5046.20
434.85	5130.45
435.03	5191.31
435.22	5081.30
435.41	5210.03
435.59	5275.57
435.78	5210.03
435.97	5373.87
436.16	5160.88
436.34	5174.92
436.53	5303.65
436.72	5455.79
436.90	5233.44
437.09	5345.78
437.28	5235.78
437.46	5338.76
437.65	5294.29
437.84	5341.10
438.02	5217.05
438.21	5301.31
438.40	5273.23
438.58	5521.32
438.77	5593.88
438.96	5514.30
439.14	5762.40
439.33	5675.80
439.52	5916.87
439.70	5846.66
439.89	5856.02
440.08	5886.45
440.26	5926.24
440.45	5951.98
440.63	6019.86
440.82	6209.44
441.01	6139.23
441.19	6141.57
441.38	6300.72
441.57	6256.25
441.75	6516.05
441.94	6387.32
442.12	6499.67
442.31	6441.15
442.50	6497.33
442.68	6576.91
442.87	6604.99
443.05	6485.62
443.24	6773.51
443.43	6743.08
443.61	6757.13
443.80	6803.94
443.98	6644.78
444.17	6537.12
444.35	6710.32
444.54	6799.26
444.73	6729.04
444.91	6817.98
445.10	6750.10
445.28	6799.26
445.47	6504.35
445.65	6555.84
445.84	6530.09
446.02	6719.68
446.21	6717.34
446.39	6771.17
446.58	6956.07
446.77	6913.94
446.95	6855.43
447.14	6923.30
447.32	7035.65
447.51	6792.23
447.69	6754.79
447.88	6904.58
448.06	6829.68
448.25	6967.77
448.43	7033.31
448.62	6963.09
448.80	6958.41
448.99	6986.50
449.17	7087.14
449.36	6958.41
449.54	7176.08
449.73	7330.56
449.91	7208.85
450.10	7262.68
450.28	7426.52
450.46	7463.97
450.65	7456.95
450.83	7363.33
451.02	7358.64
451.20	7534.18
451.39	7396.09
451.57	7365.67
451.76	7351.62
451.94	7368.01
452.13	7557.59
452.31	7412.48
452.49	7260.34
452.68	7417.16
452.86	7412.48
453.05	7386.73
453.23	7847.82
453.42	7466.31
453.60	7552.91
453.78	7733.13
453.97	7648.87
454.15	7688.66
454.34	7578.65
454.52	7634.83
454.70	7850.16
454.89	7840.79
455.07	7634.83
455.26	7819.73
455.44	8072.51
455.62	8156.77
455.81	7988.25
455.99	7868.88
456.17	8248.05
456.36	8131.02
456.54	8245.71
456.73	8128.68
456.91	8320.60
457.09	8285.50
457.28	8538.27
457.46	8278.47
457.64	8465.72
457.83	8442.31
458.01	8184.85
458.19	8482.10
458.38	8425.93
458.56	8435.29
458.74	8549.98
458.93	8568.70
459.11	8421.25
459.29	8498.49
459.48	8594.45
459.66	8496.14
459.84	8718.50
460.03	8833.18
460.21	8788.71
460.39	8997.02
460.57	8723.18
460.76	8819.14
460.94	8964.25
461.12	8781.69
461.31	8891.70
461.49	8849.57
461.67	8922.12
461.85	9284.91
462.04	8936.17
462.22	9270.86
462.40	9114.05
462.59	9048.51
462.77	9291.93
462.95	9109.36
463.13	9181.92
463.32	9177.24
463.50	9369.16
463.68	9186.60
463.86	9563.43
464.05	9069.58
464.23	9298.95
464.41	9305.97
464.59	9100.00
464.78	9303.63
464.96	9383.21
465.14	9259.16
465.32	9430.02
465.50	9757.69
465.69	9680.46
465.87	9296.61
466.05	9376.19
466.23	9563.43
466.41	9528.32
466.60	9640.67
466.78	9488.53
466.96	9490.87
467.14	9514.28
467.32	9673.43
467.51	9738.97
467.69	9427.68
467.87	9654.71
468.05	9994.09
468.23	9621.94
468.41	9678.12
468.60	9694.50
468.78	9877.06
468.96	9778.76
469.14	10176.65
469.32	10171.97
469.50	9685.14
469.69	10090.05
469.87	10263.25
470.05	10106.43
470.23	10057.28
470.41	10045.58
470.59	10092.39
470.77	10136.86
470.95	10181.33
471.14	10422.41
471.32	10218.78
471.50	10705.61
471.68	10572.20
471.86	10640.08
472.04	10366.23
472.22	10759.44
472.40	10450.49
472.58	10808.59
472.77	10839.02
472.95	10860.09
473.13	11140.95
473.31	10703.27
473.49	10789.87
473.67	10925.62
473.85	11070.73
474.03	11140.95
474.21	11211.17
474.39	11204.14
474.57	11269.68
474.75	11384.37
474.93	11585.65
475.12	11576.29
475.30	11742.47
475.48	11538.84
475.66	11557.57
475.84	11620.76
476.02	11822.05
476.20	11953.12
476.38	12079.50
476.56	12208.23
476.74	12154.40
476.92	11988.22
477.10	12271.43
477.28	12463.35
477.46	12402.50
477.64	12606.13
477.82	12922.10
478.00	12919.76
478.18	13067.21
478.36	13050.83
478.54	13170.19
478.72	13125.72
478.90	13488.51
479.08	13619.58
479.26	13387.86
479.44	13465.10
479.62	13701.50
479.80	13954.27
479.98	13767.03
480.16	14120.45
480.34	13973.00
480.52	14228.12
480.70	14340.46
480.88	13907.46
481.06	14150.88
481.24	14377.91
481.41	14918.57
481.59	14773.46
481.77	14780.48
481.95	14810.91
482.13	15105.82
482.31	14841.34
482.49	15241.57
482.67	15194.76
482.85	15138.58
483.03	15594.99
483.21	15742.44
483.39	15953.09
483.57	15791.59
483.74	15824.36
483.92	16095.86
484.10	15976.50
484.28	16292.47
484.46	16671.64
484.64	16823.77
484.82	16449.28
485.00	16648.23
485.18	16879.94
485.35	16915.05
485.53	16336.94
485.71	16472.69
485.89	17095.27
486.07	16982.93
486.25	16943.14
486.43	17039.10
486.61	17502.53
486.78	17654.66
486.96	17872.33
487.14	18038.51
487.32	18321.71
487.50	18623.64
487.68	18633.00
487.85	18661.09
488.03	18824.93
488.21	19218.14
488.39	18939.62
488.57	19173.67
488.75	19328.14
488.92	19180.69
489.10	19974.13
489.28	19929.66
489.46	20341.60
489.64	20271.38
489.81	20638.84
489.99	20814.38
490.17	20737.15
490.35	20788.64
490.53	20528.84
490.70	20992.26
490.88	21301.22
491.06	21401.86
491.24	21151.42
491.41	21095.25
491.59	21312.92
491.77	21120.99
491.95	21771.66
492.13	21881.67
492.30	22324.03
492.48	22326.37
492.66	22338.07
492.84	22216.36
493.01	22438.72
493.19	22260.84
493.37	23105.77
493.54	23082.36
493.72	23080.02
493.90	23260.24
494.08	23686.22
494.25	23718.99
494.43	23843.04
494.61	24067.73
494.79	24348.59
494.96	24123.90
495.14	23840.70
495.32	24491.37
495.49	24285.40
495.67	24311.14
495.85	24446.90
496.02	24886.92
496.20	24704.35
496.38	25081.18
496.55	25539.93
496.73	25825.47
496.91	25680.36
497.09	25610.14
497.26	25989.31
497.44	25750.57
497.62	25766.96
497.79	26169.53
497.97	26216.34
498.14	25944.84
498.32	26394.22
498.50	26291.24
498.67	26621.25
498.85	26850.63
499.03	26574.44
499.20	27098.72
499.38	26867.01
499.56	27143.19
499.73	27213.41
499.91	27122.13
500.08	27538.74
500.26	26649.34
500.44	27400.65
500.61	27328.10
500.79	27150.21
500.97	27920.25
501.14	27901.53
501.32	27777.48
501.49	27840.67
501.67	28002.17
501.84	28173.03
502.02	28409.42
502.20	28467.94
502.37	28622.41
502.55	28648.16
502.72	28622.41
502.90	28442.19
503.07	28701.99
503.25	28959.45
503.43	28706.67
503.60	29048.39
503.78	28788.59
503.95	29074.13
504.13	29104.56
504.30	29242.65
504.48	29682.67
504.65	29603.10
504.83	29502.45
505.01	30120.35
505.18	29717.78
505.36	30504.20
505.53	30394.20
505.71	30345.05
505.88	30483.14
506.06	30022.05
506.23	30504.20
506.41	30183.55
506.58	30253.76
506.76	30686.76
506.93	30806.13
507.11	30689.10
507.28	30562.72
507.46	30370.79
507.63	30792.09
507.81	31094.02
507.98	30646.97
508.16	31398.29
508.33	31487.23
508.50	31363.18
508.68	31573.83
508.85	32011.51
509.03	31639.36
509.20	31938.95
509.38	32041.93
509.55	32009.17
509.73	32053.64
509.90	32088.74
510.08	32215.13
510.25	31908.52
510.42	32474.93
510.60	32844.74
510.77	32596.64
510.95	33179.43
511.12	32844.74
511.30	32954.74
511.47	33050.70
511.64	33132.62
511.82	33347.95
511.99	32950.06
512.17	33219.22
512.34	33457.96
512.51	33511.79
512.69	33902.66
512.86	33743.50
513.04	33694.35
513.21	33340.93
513.38	33923.72
513.56	34213.95
513.73	33596.05
513.90	33811.38
514.08	33979.90
514.25	33905.00
514.43	34029.05
514.60	34085.22
514.77	33991.60
514.95	34469.07
515.12	34541.63
515.29	34438.64
515.47	34888.03
515.64	34850.58
515.81	34375.45
515.99	34873.98
516.16	34293.53
516.33	34071.18
516.51	34497.16
516.68	34024.37
516.85	34155.44
517.03	34314.59
517.20	34373.11
517.37	35227.40
517.54	35232.08
517.72	34787.38
517.89	34731.21
518.06	34927.81
518.24	34878.66
518.41	35204.00
518.58	35405.28
518.75	35470.82
518.93	35365.49
519.10	35559.76
519.27	35676.79
519.45	35637.00
519.62	35887.43
519.79	36280.64
519.96	36154.26
520.14	36163.62
520.31	36470.23
520.48	36526.40
520.65	36313.41
520.83	36928.97
521.00	36615.34
521.17	36912.59
521.34	37324.52
521.52	36961.74
521.69	37413.46
521.86	36903.23
522.03	36961.74
522.20	37244.94
522.38	37359.63
522.55	37469.64
522.72	37188.77
522.89	37373.67
523.07	37748.16
523.24	37303.46
523.41	37883.91
523.58	37617.09
523.75	38157.75
523.92	38237.33
524.10	38295.85
524.27	38029.02
524.44	38117.96
524.61	38054.77
524.78	38225.63
524.96	38223.29
525.13	38281.80
525.30	38497.13
525.47	38274.78
525.64	38464.36
525.81	38480.75
525.98	38408.19
526.16	38265.42
526.33	38087.54
526.50	38169.46
526.67	37984.55
526.84	38176.48
527.01	38340.32
527.18	38799.06
527.36	38813.10
527.53	39255.46
527.70	39587.82
527.87	39119.71
528.04	38705.44
528.21	39473.13
528.38	39365.47
528.55	39608.89
528.72	39971.67
528.89	39838.26
529.07	39672.08
529.24	39381.85
529.41	39803.15
529.58	39943.58
529.75	39608.89
529.92	39906.13
530.09	39871.03
530.26	40058.27
530.43	40065.29
530.60	39943.58
530.77	40098.06
530.94	40439.78
531.11	40189.34
531.28	40311.05
531.46	40369.56
531.63	40332.11
531.80	40407.01
531.97	40275.94
532.14	40299.34
532.31	39892.09
532.48	40636.38
532.65	40514.67
532.82	40334.45
532.99	40678.51
533.16	40423.39
533.33	40741.71
533.50	41219.17
533.67	40821.28
533.84	40762.77
534.01	40994.48
534.18	40498.29
534.35	41315.14
534.52	41476.63
534.69	41184.07
534.86	41626.43
535.03	41099.81
535.20	41825.37
535.37	42284.12
535.54	41710.69
535.71	41450.89
535.88	41593.66
536.05	41486.00
536.22	41544.51
536.38	41869.84
536.55	41605.36
536.72	41696.64
536.89	41558.55
537.06	41551.53
537.23	41900.27
537.40	41612.38
537.57	42021.98
537.74	41792.61
537.91	42169.43
538.08	42148.37
538.25	42052.41
538.42	42464.34
538.59	42089.85
538.75	41673.24
538.92	41855.80
539.09	42253.69
539.26	42110.92
539.43	41867.50
539.60	42349.65
539.77	41848.78
539.94	42241.99
540.11	42204.54
540.28	42017.30
540.44	42457.32
540.61	42127.30
540.78	42323.91
540.95	42417.53
541.12	42139.00
541.29	43173.52
541.46	42246.67
541.62	43065.86
541.79	43086.92
541.96	42459.66
542.13	43035.43
542.30	42904.36
542.47	43222.67
542.63	43044.79
542.80	43023.73
542.97	43257.78
543.14	43999.73
543.31	43227.35
543.48	43779.72
543.64	43959.94
543.81	43854.62
543.98	43711.84
544.15	43571.41
544.32	43592.48
544.48	44095.69
544.65	43697.80
544.82	43468.43
544.99	43323.32
545.16	43466.09
545.32	43543.33
545.49	43981.01
545.66	43971.64
545.83	44095.69
546.00	43908.45
546.16	44025.48
546.33	43845.26
546.50	43971.64
546.67	44694.87
546.83	43908.45
547.00	44023.14
547.17	43835.89
547.34	44133.14
547.50	44355.49
547.67	44687.85
547.84	44081.65
548.00	44453.79
548.17	44755.72
548.34	44062.93
548.51	44692.53
548.67	44589.55
548.84	44842.32
549.01	44189.31
549.18	44430.39
549.34	44582.52
549.51	44868.07
549.68	45078.72
549.84	44645.72
550.01	44755.72
550.18	44638.70
550.34	44842.32
550.51	45048.29
550.68	45113.83
550.84	44601.25
551.01	44842.32
551.18	44650.40
551.34	45048.29
551.51	44912.54
551.68	44966.37
551.84	45013.18
552.01	45102.12
552.18	45326.81
552.34	44758.06
552.51	45240.21
552.68	45551.51
552.84	45195.74
553.01	45521.08
553.18	45382.99
553.34	45448.52
553.51	45507.04
553.67	45242.56
553.84	45663.85
554.01	45776.20
554.17	45432.14
554.34	45696.62
554.51	45521.08
554.67	45708.32
554.84	45514.06
555.00	45691.94
555.17	45280.00
555.33	45579.59
555.50	45642.79
555.67	45633.42
555.83	45467.25
556.00	45827.69
556.16	46457.29
556.33	45722.37
556.50	45507.04
556.66	45741.09
556.83	45563.21
556.99	45954.08
557.16	45965.78
557.32	45851.09
557.49	46054.72
557.65	45507.04
557.82	45284.68
557.98	45883.86
558.15	45694.28
558.32	45872.16
558.48	46010.25
558.65	45886.20
558.81	45741.09
558.98	45617.04
559.14	45326.81
559.31	45914.29
559.47	46209.20
559.64	46447.93
559.80	46160.05
559.97	45661.51
560.13	45755.13
560.30	45504.70
560.46	45825.35
560.63	46164.73
560.79	46232.60
560.96	46323.88
561.12	46197.49
561.29	46272.39
561.45	46419.84
561.61	46604.75
561.78	46410.48
561.94	45921.31
562.11	46096.85
562.27	46155.36
562.44	46410.48
562.60	46452.61
562.77	46342.61
562.93	46216.22
563.10	46836.46
563.26	45956.42
563.42	46548.57
563.59	46213.88
563.75	46548.57
563.92	46553.26
564.08	46557.94
564.24	46497.08
564.41	46256.01
564.57	46672.62
564.74	46583.68
564.90	46363.67
565.07	46415.16
565.23	46047.70
565.39	46351.97
565.56	46251.33
565.72	46337.93
565.88	46302.82
566.05	46080.47
566.21	46513.47
566.38	46941.78
566.54	46763.90
566.70	46932.42
566.87	46894.97
567.03	46707.73
567.19	47302.23
567.36	46766.24
567.52	46677.30
567.68	46712.41
567.85	46176.43
568.01	47070.51
568.17	46600.07
568.34	46972.21
568.50	46548.57
568.66	46611.77
568.83	46356.65
568.99	46663.26
569.15	46686.67
569.32	46794.33
569.48	46157.70
569.64	47019.02
569.81	46623.47
569.97	46983.91
570.13	46791.99
570.30	46361.33
570.46	46335.59
570.62	46354.31
570.78	46260.69
570.95	46064.08
571.11	46965.19
571.27	46333.24
571.43	46485.38
571.60	46445.59
571.76	46918.38
571.92	46532.19
572.09	46773.27
572.25	46890.29
572.41	46649.22
572.57	46628.15
572.74	47363.08
572.90	47180.52
573.06	46405.80
573.22	46740.50
573.38	46890.29
573.55	46780.29
573.71	46869.23
573.87	46986.25
574.03	46618.79
574.20	46927.74
574.36	46813.05
574.52	46766.24
574.68	46822.42
574.84	46869.23
575.01	46976.89
575.17	46927.74
575.33	46480.70
575.49	46745.18
575.65	46656.24
575.82	46759.22
575.98	46192.81
576.14	47327.97
576.30	46986.25
576.46	46387.08
576.62	46368.35
576.79	46941.78
576.95	46646.88
577.11	46920.72
577.27	46689.01
577.43	46925.40
577.59	46681.98
577.75	46609.43
577.92	46209.20
578.08	46267.71
578.24	46220.90
578.40	46494.74
578.56	46515.81
578.72	46939.44
578.88	46735.82
579.04	47026.04
579.21	46894.97
579.37	46471.34
579.53	47004.98
579.69	46586.02
579.85	46703.05
580.01	46906.68
580.17	46571.98
580.33	46909.02
580.49	46885.61
580.65	46843.48
580.82	46836.46
580.98	46583.68
581.14	46834.12
581.30	46988.60
581.46	47002.64
581.62	47243.71
581.78	47129.03
581.94	46873.91
582.10	46684.33
582.26	46937.10
582.42	46368.35
582.58	47089.24
582.74	46986.25
582.90	46885.61
583.06	47100.94
583.22	47484.79
583.38	47379.46
583.54	47175.84
583.70	47114.98
583.86	47136.05
584.02	46791.99
584.18	47077.54
584.34	47061.15
584.50	46799.01
584.66	46990.94
584.82	46747.52
584.98	46958.17
585.14	46707.73
585.30	47239.03
585.46	47105.62
585.62	46780.29
585.78	46848.16
585.94	46616.45
586.10	46897.31
586.26	46951.15
586.42	47283.50
586.58	46976.89
586.74	47014.34
586.90	46665.60
587.06	46864.55
587.22	46777.95
587.38	46747.52
587.54	47082.22
587.70	47007.32
587.86	47047.11
588.02	46740.50
588.18	47178.18
588.34	46712.41
588.49	46370.69
588.65	46529.85
588.81	46405.80
588.97	46277.07
589.13	46490.06
589.29	46752.20
589.45	46403.46
589.61	46721.77
589.77	47210.95
