SpectraSuite Data File
++++++++++++++++++++++++++++++++++++
Date: Fri Oct 25 11:25:44 EDT 2013
User: price-jones
Dark Spectrum Present: No
Reference Spectrum Present: No
Number of Sampled Component Spectra: 1
Spectrometers: USB2+H05261
Integration Time (usec): 100000 (USB2+H05261)
Spectra Averaged: 1 (USB2+H05261)
Boxcar Smoothing: 0 (USB2+H05261)
Correct for Electrical Dark: No (USB2+H05261)
Strobe/Lamp Enabled: No (USB2+H05261)
Correct for Detector Non-linearity: No (USB2+H05261)
Correct for Stray Light: No (USB2+H05261)
Number of Pixels in Processed Spectrum: 2048
>>>>>Begin Processed Spectral Data<<<<<
365.73	189.58
365.92	189.58
366.12	189.58
366.32	147.45
366.52	95.96
366.72	128.73
366.91	166.18
367.11	135.75
367.31	79.58
367.51	145.11
367.70	98.30
367.90	173.20
368.10	49.15
368.30	112.35
368.49	86.60
368.69	149.79
368.89	102.98
369.09	173.20
369.28	135.75
369.48	201.29
369.68	147.45
369.87	238.73
370.07	241.08
370.27	236.39
370.47	339.38
370.66	653.01
370.86	629.60
371.06	758.33
371.25	667.05
371.45	622.58
371.65	723.23
371.84	732.59
372.04	660.03
372.24	753.65
372.44	648.33
372.63	737.27
372.83	706.84
373.03	741.95
373.22	704.50
373.42	791.10
373.62	744.29
373.81	784.08
374.01	847.27
374.21	814.51
374.40	746.63
374.60	849.61
374.79	812.17
374.99	816.85
375.19	844.93
375.38	819.19
375.58	894.08
375.78	873.02
375.97	882.38
376.17	968.98
376.37	917.49
376.56	835.57
376.76	905.79
376.95	866.00
377.15	917.49
377.35	802.80
377.54	896.43
377.74	840.25
377.93	910.47
378.13	898.77
378.33	847.27
378.52	940.90
378.72	994.73
378.91	1027.50
379.11	1018.13
379.31	931.53
379.50	901.11
379.70	896.43
379.89	973.66
380.09	971.32
380.28	1071.97
380.48	961.96
380.68	1036.86
380.87	1032.18
381.07	1020.47
381.26	1001.75
381.46	938.55
381.65	990.05
381.85	1125.80
382.04	994.73
382.24	992.39
382.43	1076.65
382.63	997.07
382.83	1088.35
383.02	1177.29
383.22	1062.60
383.41	1020.47
383.61	1188.99
383.80	1139.84
384.00	1151.54
384.19	1081.33
384.39	1097.71
384.58	1041.54
384.78	1076.65
384.97	1205.38
385.17	1184.31
385.36	1226.44
385.56	1132.82
385.75	1191.33
385.95	1158.57
386.14	1146.86
386.34	1210.06
386.53	1200.69
386.72	1174.95
386.92	1224.10
387.11	1263.89
387.31	1188.99
387.50	1191.33
387.70	1338.79
387.89	1336.45
388.09	1261.55
388.28	1245.16
388.48	1303.68
388.67	1301.34
388.86	1341.13
389.06	1287.29
389.25	1296.66
389.45	1273.25
389.64	1317.72
389.84	1331.76
390.03	1409.00
390.22	1303.68
390.42	1362.19
390.61	1378.58
390.81	1383.26
391.00	1404.32
391.19	1458.15
391.39	1355.17
391.58	1394.96
391.78	1467.52
391.97	1432.41
392.16	1507.30
392.36	1528.37
392.55	1476.88
392.75	1516.67
392.94	1582.20
393.13	1556.46
393.33	1612.63
393.52	1636.03
393.71	1540.07
393.91	1582.20
394.10	1509.65
394.29	1661.78
394.49	1654.76
394.68	1577.52
394.88	1577.52
395.07	1593.90
395.26	1673.48
395.46	1750.72
395.65	1710.93
395.84	1636.03
396.04	1757.74
396.23	1720.29
396.42	1760.08
396.62	1687.53
396.81	1870.09
397.00	1673.48
397.19	1764.76
397.39	1806.89
397.58	1776.47
397.77	1806.89
397.97	1860.73
398.16	1865.41
398.35	1893.49
398.55	1893.49
398.74	1842.00
398.93	1858.39
399.12	1968.39
399.32	1867.75
399.51	1834.98
399.70	1966.05
399.90	1973.07
400.09	2094.78
400.28	2129.89
400.47	2019.88
400.67	2054.99
400.86	1996.48
401.05	2111.16
401.24	2045.63
401.44	2150.95
401.63	2132.23
401.82	2139.25
402.01	2090.10
402.21	2193.08
402.40	2120.53
402.59	2200.10
402.78	2232.87
402.97	2275.00
403.17	2324.15
403.36	2279.68
403.55	2352.24
403.74	2392.03
403.93	2448.20
404.13	2361.60
404.32	2410.75
404.51	2275.00
404.70	2370.96
404.89	2317.13
405.09	2504.37
405.28	2483.31
405.47	2469.27
405.66	2527.78
405.85	2602.68
406.05	2558.21
406.24	2509.05
406.43	2431.82
406.62	2518.42
406.81	2569.91
407.00	2527.78
407.20	2581.61
407.39	2623.74
407.58	2679.91
407.77	2719.70
407.96	2717.36
408.15	2715.02
408.34	2761.83
408.54	2729.06
408.73	2717.36
408.92	2871.84
409.11	2874.18
409.30	2876.52
409.49	2848.43
409.68	2832.05
409.87	2960.78
410.07	2998.23
410.26	3063.76
410.45	2925.67
410.64	3038.02
410.83	3089.51
411.02	3101.21
411.21	3155.04
411.40	3169.09
411.59	3150.36
411.78	3112.91
411.98	3199.51
412.17	3318.88
412.36	3236.96
412.55	3262.71
412.74	3393.78
412.93	3421.86
413.12	3243.98
413.31	3522.51
413.50	3384.41
413.69	3393.78
413.88	3501.44
414.07	3494.42
414.26	3609.11
414.45	3688.68
414.64	3712.09
414.83	3782.31
415.02	3557.61
415.22	3873.59
415.41	3892.31
415.60	3920.40
415.79	3918.06
415.98	3791.67
416.17	3992.95
416.36	3873.59
416.55	3962.53
416.74	3985.93
416.93	4032.74
417.12	4070.19
417.31	4224.67
417.50	4109.98
417.69	4339.35
417.88	4395.53
418.07	4250.41
418.26	4245.73
418.45	4224.67
418.64	4383.82
418.83	4442.34
419.02	4414.25
419.21	4444.68
419.39	4550.00
419.58	4498.51
419.77	4496.17
419.96	4564.04
420.15	4512.55
420.34	4636.60
420.53	4566.39
420.72	4732.56
420.91	4613.20
421.10	4676.39
421.29	4772.35
421.48	4758.31
421.67	4809.80
421.86	4833.21
422.05	4814.48
422.24	4851.93
422.43	4819.16
422.61	4844.91
422.80	5055.56
422.99	4938.53
423.18	4915.12
423.37	4983.00
423.56	4884.70
423.75	5027.47
423.94	4994.70
424.13	4627.24
424.32	4657.67
424.50	4968.96
424.69	4964.28
424.88	5195.99
425.07	4830.87
425.26	4901.08
425.45	5107.05
425.64	4812.14
425.83	5055.56
426.01	5153.86
426.20	5032.15
426.39	5142.16
426.58	5111.73
426.77	5135.14
426.96	5142.16
427.15	5074.28
427.33	5132.79
427.52	5256.84
427.71	5219.39
427.90	5210.03
428.09	5268.55
428.28	5413.66
428.46	5355.15
428.65	5205.35
428.84	5530.69
429.03	5465.15
429.22	5280.25
429.40	5348.12
429.59	5481.53
429.78	5287.27
429.97	5329.40
430.16	5355.15
430.34	5638.35
430.53	5661.76
430.72	5722.61
430.91	5675.80
431.10	5481.53
431.28	5722.61
431.47	5696.86
431.66	5982.41
431.85	5774.10
432.03	5877.09
432.22	5886.45
432.41	5919.21
432.60	5888.79
432.79	5884.11
432.97	5895.81
433.16	6073.69
433.35	5909.85
433.54	5989.43
433.72	6120.50
433.91	6066.67
434.10	6008.16
434.28	6157.95
434.47	6272.64
434.66	6193.06
434.85	6249.23
435.03	6359.24
435.22	6099.44
435.41	6324.13
435.59	6293.70
435.78	6502.01
435.97	6530.09
436.16	6370.94
436.34	6406.05
436.53	6473.92
436.72	6633.08
436.90	6583.93
437.09	6593.29
437.28	6399.02
437.46	6661.16
437.65	6576.91
437.84	6841.39
438.02	6712.66
438.21	6895.22
438.40	6677.55
438.58	6991.18
438.77	7101.19
438.96	7091.82
439.14	6958.41
439.33	7089.48
439.52	7187.79
439.70	7300.13
439.89	7229.91
440.08	7353.96
440.26	7295.45
440.45	7171.40
440.63	7428.86
440.82	7634.83
441.01	7578.65
441.19	7644.19
441.38	7653.55
441.57	7845.48
441.75	7662.91
441.94	7843.14
442.12	7943.78
442.31	8056.12
442.50	8112.30
442.68	7899.31
442.87	8013.99
443.05	8313.58
443.24	8107.62
443.43	8191.88
443.61	8255.07
443.80	8362.73
443.98	8016.33
444.17	7999.95
444.35	8308.90
444.54	8362.73
444.73	8234.00
444.91	8294.86
445.10	8435.29
445.28	8367.42
445.47	8299.54
445.65	8175.49
445.84	8498.49
446.02	8662.32
446.21	8461.04
446.39	8456.36
446.58	8397.84
446.77	8500.83
446.95	8332.31
447.14	8355.71
447.32	8503.17
447.51	8383.80
447.69	8325.29
447.88	8372.10
448.06	8322.94
448.25	8622.53
448.43	8554.66
448.62	8606.15
448.80	8503.17
448.99	8669.34
449.17	8606.15
449.36	8571.04
449.54	8746.58
449.73	8800.41
449.91	9055.53
450.10	9151.49
450.28	8938.51
450.46	9060.21
450.65	9118.73
450.83	8973.61
451.02	8901.06
451.20	9284.91
451.39	9158.52
451.57	9041.49
451.76	8964.25
451.94	9408.95
452.13	9404.27
452.31	9291.93
452.49	9217.03
452.68	9390.23
452.86	9195.96
453.05	9444.06
453.23	9603.22
453.42	9378.53
453.60	9245.12
453.78	9444.06
453.97	9364.48
454.15	9774.08
454.34	9357.46
454.52	9771.74
454.70	9621.94
454.89	9774.08
455.07	9774.08
455.26	9727.27
455.44	10092.39
455.62	9884.08
455.81	9912.17
455.99	9970.68
456.17	9905.15
456.36	9966.00
456.54	10104.09
456.73	10134.52
456.91	10501.98
457.09	10326.44
457.28	10445.81
457.46	10200.05
457.64	10729.02
457.83	10710.29
458.01	10452.83
458.19	10546.45
458.38	10604.97
458.56	10778.17
458.74	10672.84
458.93	10850.72
459.11	10850.72
459.29	10752.42
459.48	10736.04
459.66	10574.54
459.84	10958.39
460.03	10946.69
460.21	11077.76
460.39	11068.39
460.57	11019.24
460.76	11087.12
460.94	11073.07
461.12	11222.87
461.31	11283.72
461.49	11117.54
461.67	11059.03
461.85	11496.71
462.04	11293.08
462.22	11824.39
462.40	11676.93
462.59	11449.90
462.77	11309.47
462.95	11712.04
463.13	11728.42
463.32	11768.21
463.50	11646.51
463.68	11721.40
463.86	11817.36
464.05	11433.52
464.23	11585.65
464.41	12177.81
464.59	11641.82
464.78	11967.16
464.96	11866.52
465.14	11955.46
465.32	12028.01
465.50	11913.33
465.69	12166.10
465.87	11932.05
466.05	11852.47
466.23	12159.08
466.41	11929.71
466.60	12367.39
466.78	12203.55
466.96	12049.08
467.14	12173.13
467.32	12252.70
467.51	12648.26
467.69	12170.79
467.87	12449.31
468.05	12573.36
468.23	12540.59
468.41	12442.29
468.60	12688.04
468.78	12784.01
468.96	12566.34
469.14	12870.61
469.32	13050.83
469.50	12798.05
469.69	12788.69
469.87	13083.59
470.05	12973.59
470.23	13088.28
470.41	13205.30
470.59	13235.73
470.77	13401.91
470.95	13249.77
471.14	13518.93
471.32	13270.84
471.50	13357.44
471.68	13441.70
471.86	13682.77
472.04	13589.15
472.22	13802.14
472.40	13598.51
472.58	13710.86
472.77	14019.81
472.95	14422.38
473.13	14588.56
473.31	13940.23
473.49	14314.72
473.67	14132.15
473.85	14087.68
474.03	14464.51
474.21	14567.49
474.39	14513.66
474.57	14551.11
474.75	14820.27
474.93	15030.92
475.12	14953.68
475.30	14853.04
475.48	15302.42
475.66	15129.22
475.84	15094.11
476.02	15126.88
476.20	15304.76
476.38	15695.63
476.56	16049.05
476.74	15999.90
476.92	15702.65
477.10	15796.28
477.28	16191.83
477.46	15908.62
477.64	16016.29
477.82	16400.13
478.00	17015.69
478.18	16774.62
478.36	16870.58
478.54	17006.33
478.72	16893.99
478.90	17488.48
479.08	17422.95
479.26	17659.34
479.44	17666.36
479.62	17895.74
479.80	17839.56
479.98	18195.32
480.16	18710.24
480.34	18232.77
480.52	18705.56
480.70	18628.32
480.88	18228.09
481.06	18754.71
481.24	18724.29
481.41	18855.36
481.59	19459.21
481.77	19569.22
481.95	19531.77
482.13	19700.29
482.31	19578.58
482.49	20063.07
482.67	20327.55
482.85	20386.07
483.03	20861.19
483.21	20807.36
483.39	20987.58
483.57	20772.25
483.74	21062.48
483.92	21472.07
484.10	21041.42
484.28	21851.24
484.46	21734.21
484.64	22331.05
484.82	22122.74
485.00	22368.50
485.18	22829.59
485.35	23143.22
485.53	22677.45
485.71	22920.87
485.89	23520.04
486.07	23349.18
486.25	23480.25
486.43	23417.06
486.61	23957.72
486.78	24023.26
486.96	24046.66
487.14	24250.29
487.32	24643.50
487.50	24655.20
487.68	24879.89
487.85	25324.60
488.03	25439.28
488.21	25706.10
488.39	25797.38
488.57	26113.36
488.75	26422.31
488.92	26391.88
489.10	26534.65
489.28	26597.85
489.46	27061.27
489.64	26705.51
489.81	27424.06
489.99	27498.95
490.17	27763.43
490.35	28180.05
490.53	28294.74
490.70	28435.17
490.88	28046.64
491.06	28699.65
491.24	28432.83
491.41	29064.77
491.59	29046.05
491.77	29296.49
491.95	29378.40
492.13	29701.40
492.30	29689.70
492.48	29958.86
492.66	29895.66
492.84	30459.73
493.01	30742.94
493.19	30572.08
493.37	31056.57
493.54	31438.08
493.72	31491.91
493.90	31065.93
494.08	31611.28
494.25	32016.19
494.43	32236.20
494.61	32528.77
494.79	32371.95
494.96	32460.89
495.14	32416.42
495.32	33083.47
495.49	33144.33
495.67	33399.44
495.85	33446.26
496.02	33516.47
496.20	34038.41
496.38	33834.78
496.55	34345.02
496.73	35236.77
496.91	34181.18
497.09	34424.60
497.26	34866.96
497.44	34672.70
497.62	34684.40
497.79	35480.18
497.97	35526.99
498.14	36229.15
498.32	36203.41
498.50	36070.00
498.67	36631.72
498.85	36524.06
499.03	36208.09
499.20	36311.07
499.38	36715.98
499.56	37165.37
499.73	36772.16
499.91	37514.11
500.08	37855.82
500.26	37064.72
500.44	37699.01
500.61	37689.65
500.79	37811.35
500.97	38160.09
501.14	38560.33
501.32	38614.16
501.49	38314.57
501.67	38478.41
501.84	39253.12
502.02	38740.55
502.20	38918.43
502.37	39072.90
502.55	39028.43
502.72	39283.55
502.90	39311.64
503.07	39447.39
503.25	39262.49
503.43	39892.09
503.60	39763.36
503.78	39997.41
503.95	40044.23
504.13	40435.10
504.30	40755.75
504.48	40074.65
504.65	40645.74
504.83	40914.90
505.01	41324.50
505.18	40795.54
505.36	41212.15
505.53	41584.30
505.71	41177.04
505.88	41488.34
506.06	41493.02
506.23	41963.46
506.41	41897.93
506.58	41876.86
506.76	42403.49
506.93	42415.19
507.11	42239.65
507.28	42469.02
507.46	42291.14
507.63	43061.18
507.81	43075.22
507.98	42508.81
508.16	43068.20
508.33	43323.32
508.50	43529.28
508.68	43423.96
508.85	43903.77
509.03	43676.74
509.20	43917.81
509.38	44236.12
509.55	44072.29
509.73	44299.32
509.90	44587.21
510.08	44364.85
510.25	44289.96
510.42	45041.27
510.60	44732.32
510.77	45013.18
510.95	45104.46
511.12	45177.02
511.30	45071.70
511.47	45256.60
511.64	45523.42
511.82	45841.73
511.99	45546.82
512.17	46038.34
512.34	45645.13
512.51	46511.13
512.69	46380.06
512.86	46312.18
513.04	46686.67
513.21	46309.84
513.38	46562.62
513.56	46902.00
513.73	46941.78
513.90	46885.61
514.08	46686.67
514.25	46979.23
514.43	47129.03
514.60	47615.86
514.77	46855.18
514.95	47728.20
515.12	47730.54
515.29	47620.54
515.47	48109.71
515.64	48013.75
515.81	47887.36
515.99	47842.89
516.16	48093.33
516.33	48020.77
516.51	48648.03
516.68	48545.05
516.85	48233.76
517.03	48715.91
517.20	48591.86
517.37	48500.58
517.54	48790.81
517.72	48788.47
517.89	48935.92
518.06	49144.23
518.24	48900.81
518.41	49228.49
518.58	49385.30
518.75	49432.11
518.93	49148.91
519.10	49289.34
519.27	49663.83
519.45	49673.19
519.62	49757.45
519.79	49649.78
519.96	49642.76
520.14	50026.61
520.31	49862.77
520.48	50101.51
520.65	49972.78
520.83	50145.98
521.00	50794.31
521.17	50719.41
521.34	50567.27
521.52	50597.70
521.69	50705.37
521.86	50756.86
522.03	50801.33
522.20	51444.98
522.38	50934.74
522.55	51517.53
522.72	51152.41
522.89	51459.02
523.07	51428.59
523.24	51606.47
523.41	51569.02
523.58	51529.23
523.75	51824.14
523.92	51648.60
524.10	51683.71
524.27	51892.02
524.44	52086.28
524.61	52086.28
524.78	52004.36
524.96	52076.92
525.13	52215.01
525.30	52266.50
525.47	52332.04
525.64	52463.11
525.81	52446.72
525.98	52573.11
526.16	52402.25
526.33	52521.62
526.50	52980.37
526.67	52701.84
526.84	53256.55
527.01	52685.46
527.18	52734.61
527.36	52863.34
527.53	53230.80
527.70	53305.70
527.87	53240.17
528.04	53450.81
528.21	53305.70
528.38	53144.20
528.55	53303.36
528.72	53322.08
528.89	53422.73
529.07	53212.08
529.24	53254.21
529.41	53394.64
529.58	53240.17
529.75	53748.06
529.92	53549.12
530.09	53670.82
530.26	54160.00
530.43	54010.20
530.60	53624.01
530.77	53832.32
530.94	53748.06
531.11	54087.44
531.28	53961.05
531.46	54302.77
531.63	54117.87
531.80	54330.86
531.97	54415.11
532.14	54344.90
532.31	54431.50
532.48	54522.78
532.65	54532.14
532.82	54534.48
532.99	54398.73
533.16	54649.17
533.33	54637.47
533.50	54815.35
533.67	54705.34
533.84	54681.94
534.01	54520.44
534.18	54934.71
534.35	55035.36
534.52	55025.99
534.69	54927.69
534.86	55412.18
535.03	55117.28
535.20	54934.71
535.37	55189.83
535.54	55370.05
535.71	55035.36
535.88	55547.93
536.05	55379.42
536.22	55367.71
536.38	55421.55
536.55	55295.16
536.72	55522.19
536.89	55419.20
537.06	55419.20
537.23	55683.69
537.40	55517.51
537.57	55739.86
537.74	55772.63
537.91	55496.44
538.08	55536.23
538.25	55779.65
538.42	55779.65
538.59	55781.99
538.75	55863.91
538.92	56170.52
539.09	56140.09
539.26	56114.34
539.43	55847.52
539.60	56364.78
539.77	56324.99
539.94	56334.35
540.11	56252.44
540.28	56320.31
540.44	56622.24
540.61	56336.69
540.78	56491.17
540.95	56392.87
541.12	56332.01
541.29	56423.29
541.46	56505.21
541.62	56334.35
541.79	56821.19
541.96	56451.38
542.13	56638.62
542.30	56612.88
542.47	56753.31
542.63	56868.00
542.80	56919.49
542.97	57139.50
543.14	56910.13
543.31	56987.36
543.48	56933.53
543.64	57382.91
543.81	57368.87
543.98	57242.48
544.15	57116.09
544.32	57256.53
544.48	57570.16
544.65	57347.81
544.82	57317.38
544.99	57216.74
545.16	57499.94
545.32	57490.58
545.49	57439.09
545.66	57652.08
545.83	57422.70
546.00	57663.78
546.16	57640.37
546.33	57523.35
546.50	57513.98
546.67	57457.81
546.83	57354.83
547.00	57794.85
547.17	57609.95
547.34	57811.23
547.50	57942.30
547.67	58110.82
547.84	58005.50
548.00	57984.43
548.17	57937.62
548.34	58293.38
548.51	58464.24
548.67	58286.36
548.84	58213.80
549.01	57836.98
549.18	58188.06
549.34	58272.32
549.51	58171.67
549.68	58389.34
549.84	58166.99
550.01	58323.81
550.18	58213.80
550.34	58405.73
550.51	58440.84
550.68	58642.12
550.84	58234.87
551.01	58527.44
551.18	58382.32
551.34	58312.11
551.51	58342.53
551.68	58553.18
551.84	58618.72
552.01	58267.64
552.18	58506.37
552.34	58599.99
552.51	58618.72
552.68	58417.43
552.84	58590.63
553.01	58831.71
553.18	58822.34
553.34	59040.01
553.51	58702.98
553.67	58831.71
553.84	58974.48
554.01	58700.64
554.17	58958.09
554.34	58859.79
554.51	59105.55
554.67	58831.71
554.84	59114.91
555.00	58918.31
555.17	59049.38
555.33	59011.93
555.50	58979.16
555.67	58906.60
555.83	58787.24
556.00	58981.50
556.16	59358.33
556.33	59358.33
556.50	59241.30
556.66	59351.30
556.83	58937.03
556.99	59360.67
557.16	59526.84
557.32	59487.06
557.49	59657.91
557.65	59208.53
557.82	59330.24
557.98	59210.87
558.15	59330.24
558.32	59398.12
558.48	59180.45
558.65	59365.35
558.81	59468.33
558.98	59372.37
559.14	59320.88
559.31	59709.41
559.47	59753.88
559.64	59723.45
559.80	59826.43
559.97	59625.15
560.13	59393.43
560.30	59545.57
560.46	59597.06
560.63	59765.58
560.79	59725.79
560.96	59700.04
561.12	59608.76
561.29	59793.67
561.45	59774.94
561.61	59779.62
561.78	59898.99
561.94	59760.90
562.11	59852.18
562.27	60069.85
562.44	59861.54
562.60	60058.15
562.77	59929.42
562.93	59875.58
563.10	60086.23
563.26	60083.89
563.42	60224.32
563.59	59934.10
563.75	59732.81
563.92	59999.63
564.08	59915.37
564.24	60140.07
564.41	59990.27
564.57	60245.39
564.74	59803.03
564.90	60011.34
565.07	59983.25
565.23	60069.85
565.39	60079.21
565.56	60292.20
565.72	60130.70
565.88	60158.79
566.05	60137.72
566.21	60114.32
566.38	60123.68
566.54	60172.83
566.70	60266.45
566.87	60177.51
567.03	60046.44
567.19	60350.71
567.36	60095.60
567.52	60289.86
567.68	60544.98
567.85	60179.85
568.01	60346.03
568.17	60343.69
568.34	60441.99
568.50	60205.60
568.66	60203.26
568.83	60502.85
568.99	60430.29
569.15	60701.79
569.32	60441.99
569.48	60296.88
569.64	60374.12
569.81	60453.70
569.97	60324.97
570.13	60339.01
570.30	60360.08
570.46	60472.42
570.62	60479.44
570.78	60640.94
570.95	60420.93
571.11	60626.90
571.27	60402.21
571.43	60364.76
571.60	60601.15
571.76	60612.85
571.92	60416.25
572.09	60640.94
572.25	60622.22
572.41	60528.59
572.57	60523.91
572.74	60720.52
572.90	60477.10
573.06	60629.24
573.22	60685.41
573.38	60711.16
573.55	60708.82
573.71	60743.92
573.87	60690.09
574.03	60554.34
574.20	60687.75
574.36	60589.45
574.52	60575.40
574.68	60638.60
574.84	60669.03
575.01	60610.51
575.17	60844.57
575.33	60582.43
575.49	60683.07
575.65	60601.15
575.82	60736.90
575.98	60711.16
576.14	60774.35
576.30	60556.68
576.46	60680.73
576.62	60743.92
576.79	60617.53
576.95	60549.66
577.11	60846.91
577.27	60594.13
577.43	60903.08
577.59	60743.92
577.75	60795.42
577.92	60708.82
578.08	60608.17
578.24	60842.23
578.40	61066.92
578.56	60942.87
578.72	60893.72
578.88	60889.04
579.04	61092.66
579.21	60718.18
579.37	60938.19
579.53	61043.51
579.69	60626.90
579.85	60622.22
580.01	60842.23
580.17	60673.71
580.33	60697.11
580.49	60968.61
580.65	61006.06
580.82	60973.30
580.98	60664.35
581.14	60793.07
581.30	60947.55
581.46	60809.46
581.62	60933.51
581.78	60860.95
581.94	60867.97
582.10	60980.32
582.26	60966.27
582.42	60903.08
582.58	60914.78
582.74	60963.93
582.90	60963.93
583.06	60926.49
583.22	60750.94
583.38	60952.23
583.54	60994.36
583.70	61020.11
583.86	60893.72
584.02	60999.04
584.18	61116.07
584.34	61092.66
584.50	60767.33
584.66	60657.32
584.82	60729.88
584.98	60968.61
585.14	60769.67
585.30	60898.40
585.46	60912.44
585.62	61071.60
585.78	60940.53
585.94	60774.35
586.10	61041.17
586.26	60874.99
586.42	60912.44
586.58	60977.98
586.74	61041.17
586.90	60999.04
587.06	60907.76
587.22	61113.73
587.38	61031.81
587.54	61169.90
587.70	61041.17
587.86	61099.68
588.02	61031.81
588.18	61034.15
588.34	61048.19
588.49	61022.45
