SpectraSuite Data File
++++++++++++++++++++++++++++++++++++
Date: Fri Oct 25 11:26:11 EDT 2013
User: price-jones
Dark Spectrum Present: No
Reference Spectrum Present: No
Number of Sampled Component Spectra: 1
Spectrometers: USB2+H05261
Integration Time (usec): 100000 (USB2+H05261)
Spectra Averaged: 1 (USB2+H05261)
Boxcar Smoothing: 0 (USB2+H05261)
Correct for Electrical Dark: No (USB2+H05261)
Strobe/Lamp Enabled: No (USB2+H05261)
Correct for Detector Non-linearity: No (USB2+H05261)
Correct for Stray Light: No (USB2+H05261)
Number of Pixels in Processed Spectrum: 2048
>>>>>Begin Processed Spectral Data<<<<<
365.73	217.67
365.92	217.67
366.12	217.67
366.32	147.45
366.52	131.07
366.72	177.88
366.91	91.28
367.11	166.18
367.31	121.71
367.51	149.79
367.70	124.05
367.90	191.92
368.10	124.05
368.30	110.01
368.49	161.50
368.69	187.24
368.89	198.95
369.09	152.13
369.28	220.01
369.48	102.98
369.68	166.18
369.87	154.48
370.07	248.10
370.27	271.50
370.47	315.97
370.66	564.07
370.86	606.20
371.06	732.59
371.25	667.05
371.45	657.69
371.65	706.84
371.84	627.26
372.04	711.52
372.24	683.44
372.44	765.36
372.63	755.99
372.83	793.44
373.03	793.44
373.22	725.57
373.42	734.93
373.62	760.67
373.81	821.53
374.01	763.01
374.21	763.01
374.40	765.36
374.60	858.98
374.79	889.40
374.99	814.51
375.19	863.66
375.38	877.70
375.58	866.00
375.78	894.08
375.97	760.67
376.17	910.47
376.37	889.40
376.56	842.59
376.76	933.87
376.95	866.00
377.15	945.58
377.35	887.06
377.54	980.68
377.74	931.53
377.93	882.38
378.13	912.81
378.33	926.85
378.52	919.83
378.72	936.21
378.91	1076.65
379.11	922.17
379.31	959.62
379.50	966.64
379.70	992.39
379.89	964.30
380.09	1013.45
380.28	973.66
380.48	980.68
380.68	957.28
380.87	952.60
381.07	1102.39
381.26	973.66
381.46	1015.79
381.65	1043.88
381.85	1111.75
382.04	1043.88
382.24	1055.58
382.43	1025.15
382.63	1132.82
382.83	1076.65
383.02	1083.67
383.22	1097.71
383.41	1020.47
383.61	1013.45
383.80	1132.82
384.00	1104.73
384.19	1076.65
384.39	1114.10
384.58	1107.07
384.78	1123.46
384.97	1167.93
385.17	1125.80
385.36	1111.75
385.56	1242.82
385.75	1114.10
385.95	1174.95
386.14	1193.67
386.34	1125.80
386.53	1228.78
386.72	1167.93
386.92	1184.31
387.11	1217.08
387.31	1263.89
387.50	1184.31
387.70	1268.57
387.89	1217.08
388.09	1224.10
388.28	1303.68
388.48	1313.04
388.67	1376.24
388.86	1270.91
389.06	1376.24
389.25	1308.36
389.45	1348.15
389.64	1270.91
389.84	1296.66
390.03	1434.75
390.22	1437.09
390.42	1261.55
390.61	1397.30
390.81	1521.35
391.00	1418.36
391.19	1380.92
391.39	1474.54
391.58	1376.24
391.78	1430.07
391.97	1521.35
392.16	1493.26
392.36	1537.73
392.55	1514.33
392.75	1605.61
392.94	1549.43
393.13	1511.99
393.33	1526.03
393.52	1659.44
393.71	1551.78
393.91	1577.52
394.10	1530.71
394.29	1636.03
394.49	1600.93
394.68	1687.53
394.88	1605.61
395.07	1645.40
395.26	1659.44
395.46	1757.74
395.65	1717.95
395.84	1643.06
396.04	1671.14
396.23	1727.32
396.42	1783.49
396.62	1781.15
396.81	1671.14
397.00	1783.49
397.19	1771.79
397.39	1774.13
397.58	1858.39
397.77	1788.17
397.97	1825.62
398.16	1860.73
398.35	1881.79
398.55	1867.75
398.74	1870.09
398.93	1933.28
399.12	1851.36
399.32	1874.77
399.51	1893.49
399.70	1977.75
399.90	1956.69
400.09	2059.67
400.28	2104.14
400.47	2036.27
400.67	2052.65
400.86	1966.05
401.05	2080.74
401.24	2038.61
401.44	2148.61
401.63	2183.72
401.82	2146.27
402.01	2043.29
402.21	2162.66
402.40	2108.82
402.59	2242.23
402.78	2296.07
402.97	2188.40
403.17	2216.49
403.36	2380.32
403.55	2223.51
403.74	2429.48
403.93	2387.35
404.13	2459.90
404.32	2408.41
404.51	2408.41
404.70	2408.41
404.89	2338.20
405.09	2448.20
405.28	2466.92
405.47	2434.16
405.66	2539.48
405.85	2581.61
406.05	2516.08
406.24	2651.83
406.43	2553.52
406.62	2518.42
406.81	2719.70
407.00	2541.82
407.20	2609.70
407.39	2668.21
407.58	2654.17
407.77	2794.60
407.96	2731.41
408.15	2839.07
408.34	2832.05
408.54	2757.15
408.73	2836.73
408.92	2918.65
409.11	2939.71
409.30	3000.57
409.49	2885.88
409.68	2850.77
409.87	3023.97
410.07	2988.86
410.26	3030.99
410.45	2925.67
410.64	2939.71
410.83	3066.10
411.02	3084.83
411.21	3157.38
411.40	3192.49
411.59	3227.60
411.78	3166.74
411.98	3164.40
412.17	3325.90
412.36	3204.19
412.55	3346.97
412.74	3426.54
412.93	3349.31
413.12	3417.18
413.31	3527.19
413.50	3346.97
413.69	3445.27
413.88	3604.42
414.07	3597.40
414.26	3548.25
414.45	3674.64
414.64	3737.84
414.83	3679.32
415.02	3691.02
415.22	3777.62
415.41	3740.18
415.60	3836.14
415.79	3955.51
415.98	3826.78
416.17	3957.85
416.36	4051.47
416.55	4091.26
416.74	4030.40
416.93	4060.83
417.12	4091.26
417.31	4248.07
417.50	4021.04
417.69	4259.78
417.88	4482.13
418.07	4297.22
418.26	4196.58
418.45	4283.18
418.64	4461.06
418.83	4358.08
419.02	4397.87
419.21	4564.04
419.39	4674.05
419.58	4482.13
419.77	4510.21
419.96	4491.49
420.15	4681.07
420.34	4535.96
420.53	4720.86
420.72	4599.15
420.91	4678.73
421.10	4671.71
421.29	4702.14
421.48	4676.39
421.67	4819.16
421.86	4589.79
422.05	4805.12
422.24	4826.18
422.43	4819.16
422.61	4863.63
422.80	4994.70
422.99	4929.17
423.18	5004.07
423.37	4978.32
423.56	4898.74
423.75	4994.70
423.94	5027.47
424.13	4704.48
424.32	4697.46
424.50	4952.57
424.69	5048.54
424.88	5004.07
425.07	5060.24
425.26	4875.34
425.45	4985.34
425.64	5060.24
425.83	4983.00
426.01	5083.64
426.20	5006.41
426.39	5088.32
426.58	5109.39
426.77	5114.07
426.96	5158.54
427.15	5046.20
427.33	5247.48
427.52	5186.63
427.71	5214.71
427.90	5284.93
428.09	5252.16
428.28	5334.08
428.46	5303.65
428.65	5181.95
428.84	5467.49
429.03	5486.22
429.22	5376.21
429.40	5507.28
429.59	5486.22
429.78	5427.70
429.97	5352.81
430.16	5486.22
430.34	5731.97
430.53	5631.33
430.72	5664.10
430.91	5638.35
431.10	5483.88
431.28	5774.10
431.47	5746.02
431.66	5849.00
431.85	5879.43
432.03	5678.14
432.22	5893.47
432.41	6113.48
432.60	5947.30
432.79	5954.32
432.97	5928.58
433.16	6183.70
433.35	6104.12
433.54	6115.82
433.72	5975.39
433.91	6026.88
434.10	6141.57
434.28	6171.99
434.47	6338.17
434.66	6359.24
434.85	6143.91
435.03	6415.41
435.22	6094.76
435.41	6429.45
435.59	6345.19
435.78	6558.18
435.97	6424.77
436.16	6387.32
436.34	6527.75
436.53	6619.04
436.72	6672.87
436.90	6436.47
437.09	6623.72
437.28	6452.86
437.46	6693.93
437.65	6600.31
437.84	6785.21
438.02	6775.85
438.21	6686.91
438.40	6567.54
438.58	6848.41
438.77	6965.43
438.96	6841.39
439.14	7148.00
439.33	7183.10
439.52	7094.16
439.70	7155.02
439.89	7513.12
440.08	7356.30
440.26	7276.73
440.45	7288.43
440.63	7459.29
440.82	7688.66
441.01	7599.72
441.19	7782.28
441.38	7599.72
441.57	7683.98
441.75	7777.60
441.94	7964.84
442.12	7875.90
442.31	8116.98
442.50	8102.93
442.68	7920.37
442.87	8147.40
443.05	8112.30
443.24	8217.62
443.43	8112.30
443.61	8299.54
443.80	8475.08
443.98	8145.06
444.17	7892.29
444.35	8308.90
444.54	8276.13
444.73	8290.18
444.91	8273.79
445.10	8318.26
445.28	8505.51
445.47	8372.10
445.65	8458.70
445.84	8336.99
446.02	8465.72
446.21	8566.36
446.39	8484.44
446.58	8250.39
446.77	8512.53
446.95	8236.35
447.14	8437.63
447.32	8568.70
447.51	8477.42
447.69	8390.82
447.88	8411.89
448.06	8451.67
448.25	8606.15
448.43	8631.90
448.62	8514.87
448.80	8285.50
448.99	8620.19
449.17	8631.90
449.36	8699.77
449.54	8737.22
449.73	8854.25
449.91	9067.24
450.10	9085.96
450.28	9064.89
450.46	9146.81
450.65	9074.26
450.83	9074.26
451.02	9074.26
451.20	9046.17
451.39	9247.46
451.57	9198.31
451.76	8985.32
451.94	9191.28
452.13	9502.58
452.31	9392.57
452.49	9235.75
452.68	9427.68
452.86	9291.93
453.05	9458.10
453.23	9533.00
453.42	9387.89
453.60	9320.01
453.78	9469.81
453.97	9591.52
454.15	9832.59
454.34	9687.48
454.52	9666.41
454.70	9727.27
454.89	9827.91
455.07	9811.53
455.26	9935.57
455.44	9987.07
455.62	9846.63
455.81	9914.51
455.99	9785.78
456.17	10167.29
456.36	10125.16
456.54	10382.62
456.73	10101.75
456.91	10434.11
457.09	10469.22
457.28	10588.58
457.46	10335.81
457.64	10555.82
457.83	10534.75
458.01	10377.94
458.19	10834.34
458.38	10562.84
458.56	10712.63
458.74	10925.62
458.93	10782.85
459.11	10724.33
459.29	10794.55
459.48	10984.13
459.66	10754.76
459.84	10951.37
460.03	11080.10
460.21	10855.40
460.39	11115.20
460.57	10988.82
460.76	11300.11
460.94	11033.29
461.12	11211.17
461.31	11197.12
461.49	11140.95
461.67	11066.05
461.85	11623.10
462.04	11318.83
462.22	11805.66
462.40	11566.93
462.59	11557.57
462.77	11382.03
462.95	11639.48
463.13	11236.91
463.32	11571.61
463.50	11688.64
463.68	11927.37
463.86	11864.18
464.05	11688.64
464.23	11791.62
464.41	12025.67
464.59	11590.33
464.78	12163.76
464.96	12135.68
465.14	11740.13
465.32	12098.23
465.50	12154.40
465.69	12128.66
465.87	12243.34
466.05	11971.84
466.23	12145.04
466.41	12318.24
466.60	12386.12
466.78	12329.94
466.96	12049.08
467.14	12322.92
467.32	12439.95
467.51	12554.63
467.69	12203.55
467.87	12449.31
468.05	12484.42
468.23	12336.96
468.41	12241.00
468.60	12573.36
468.78	12879.97
468.96	12772.30
469.14	12732.51
469.32	12989.97
469.50	12772.30
469.69	12784.01
469.87	13062.53
470.05	13064.87
470.23	13207.64
470.41	13217.01
470.59	13341.05
470.77	13378.50
470.95	13048.49
471.14	13504.89
471.32	13472.12
471.50	13467.44
471.68	13504.89
471.86	13516.59
472.04	13867.67
472.22	14141.52
472.40	13862.99
472.58	13989.38
472.77	13841.93
472.95	14305.35
473.13	14483.24
473.31	14054.92
473.49	14155.56
473.67	13811.50
473.85	14237.48
474.03	14413.02
474.21	14354.51
474.39	14623.67
474.57	14693.88
474.75	14768.78
474.93	14728.99
475.12	14913.89
475.30	15279.02
475.48	14934.96
475.66	15112.84
475.84	15133.90
476.02	15206.46
476.20	15346.89
476.38	15571.58
476.56	15967.13
476.74	16042.03
476.92	15847.77
477.10	15932.03
477.28	15894.58
477.46	16245.66
477.64	16587.38
477.82	16528.86
478.00	16772.28
478.18	16739.51
478.36	16870.58
478.54	17053.14
478.72	17128.04
478.90	17530.61
479.08	17444.01
479.26	17591.47
479.44	17638.28
479.62	17738.92
479.80	18068.94
479.98	18375.55
480.16	18590.88
480.34	18139.15
480.52	18614.28
480.70	18633.00
480.88	18443.42
481.06	18773.44
481.24	18759.39
481.41	19164.31
481.59	19281.33
481.77	19646.46
481.95	19321.12
482.13	19704.97
482.31	19424.11
482.49	20123.93
482.67	19943.70
482.85	20606.08
483.03	20648.21
483.21	21036.74
483.39	21287.17
483.57	20938.43
483.74	20809.70
483.92	21561.02
484.10	21256.75
484.28	21724.85
484.46	22047.85
484.64	22321.69
484.82	21752.94
485.00	22326.37
485.18	22871.72
485.35	22974.70
485.53	22750.01
485.71	22845.97
485.89	23597.28
486.07	22953.63
486.25	23351.52
486.43	23594.94
486.61	23878.15
486.78	23845.38
486.96	24100.50
487.14	24421.15
487.32	24627.12
487.50	24865.85
487.68	25041.39
487.85	25209.91
488.03	25516.52
488.21	25710.78
488.39	25809.09
488.57	26221.02
488.75	26003.35
488.92	26522.95
489.10	26707.85
489.28	26771.05
489.46	27058.93
489.64	26881.05
489.81	27728.33
489.99	27859.40
490.17	27707.26
490.35	27957.70
490.53	27934.29
490.70	28545.17
490.88	28020.89
491.06	28896.25
491.24	29113.92
491.41	29003.92
491.59	29095.20
491.77	29081.16
491.95	29685.01
492.13	29907.37
492.30	29549.26
492.48	29853.53
492.66	30115.67
492.84	30387.18
493.01	30654.00
493.19	30604.84
493.37	31105.72
493.54	30988.69
493.72	31885.12
493.90	31725.96
494.08	31648.72
494.25	31576.17
494.43	32271.31
494.61	32357.91
494.79	32517.06
494.96	32524.08
495.14	32566.21
495.32	32755.80
495.49	33296.46
495.67	33401.79
495.85	33310.50
496.02	33909.68
496.20	33879.25
496.38	34192.89
496.55	33989.26
496.73	34881.00
496.91	34382.47
497.09	34866.96
497.26	34869.30
497.44	35351.45
497.62	34958.24
497.79	35742.32
497.97	35246.13
498.14	35702.53
498.32	36133.19
498.50	36004.46
498.67	36872.80
498.85	36250.22
499.03	36465.55
499.20	36645.77
499.38	36374.27
499.56	36734.71
499.73	37345.59
499.91	37151.32
500.08	37940.08
500.26	37287.07
500.44	37675.60
500.61	37605.39
500.79	37701.35
500.97	38029.02
501.14	38232.65
501.32	38682.03
501.49	38658.63
501.67	38611.82
501.84	38939.49
502.02	38670.33
502.20	39175.89
502.37	39393.56
502.55	39220.36
502.72	39590.16
502.90	39519.95
503.07	39438.03
503.25	39791.45
503.43	39868.69
503.60	40275.94
503.78	40250.19
503.95	40130.83
504.13	40704.26
504.30	40477.22
504.48	40456.16
504.65	40701.92
504.83	40854.05
505.01	41460.25
505.18	41113.85
505.36	41626.43
505.53	41130.23
505.71	42089.85
505.88	41537.49
506.06	41329.18
506.23	41790.27
506.41	41741.11
506.58	41813.67
506.76	42061.77
506.93	42342.63
507.11	42307.52
507.28	42410.51
507.46	42616.47
507.63	43168.84
507.81	43377.15
507.98	42644.56
508.16	42967.55
508.33	43613.54
508.50	43449.70
508.68	43367.79
508.85	43936.54
509.03	43590.14
509.20	44154.21
509.38	44261.87
509.55	44215.06
509.73	44509.97
509.90	44360.17
510.08	44395.28
510.25	44488.90
510.42	44893.82
510.60	45038.93
510.77	45191.06
510.95	45577.25
511.12	45059.99
511.30	45202.77
511.47	45422.78
511.64	45366.60
511.82	45925.99
511.99	45572.57
512.17	45591.30
512.34	46031.32
512.51	46150.68
512.69	46454.95
512.86	45837.05
513.04	46457.29
513.21	46532.19
513.38	46660.92
513.56	47058.81
513.73	46768.58
513.90	46623.47
514.08	46539.21
514.25	47320.95
514.43	47496.49
514.60	47524.58
514.77	47412.23
514.95	47351.38
515.12	47868.64
515.29	47875.66
515.47	48109.71
515.64	47913.11
515.81	48086.31
515.99	48133.12
516.16	48264.19
516.33	48467.81
516.51	48835.28
516.68	48268.87
516.85	48184.61
517.03	48800.17
517.20	48673.78
517.37	48769.74
517.54	48437.39
517.72	49045.93
517.89	48823.58
518.06	49350.20
518.24	49139.55
518.41	49076.35
518.58	49296.36
518.75	49221.47
518.93	49443.82
519.10	49649.78
519.27	49705.96
519.45	49689.57
519.62	49982.14
519.79	50096.83
519.96	50005.55
520.14	50244.28
520.31	49954.05
520.48	50363.65
520.65	50335.56
520.83	50574.30
521.00	50550.89
521.17	50541.53
521.34	50677.28
521.52	50447.91
521.69	50679.62
521.86	50784.94
522.03	50939.42
522.20	50883.25
522.38	51199.22
522.55	51276.46
522.72	51325.61
522.89	51136.02
523.07	51660.30
523.24	51435.61
523.41	51784.35
523.58	51428.59
523.75	51700.09
523.92	51838.18
524.10	52140.11
524.27	51798.40
524.44	52051.17
524.61	51952.87
524.78	52062.88
524.96	52137.77
525.13	52170.54
525.30	52325.02
525.47	52509.92
525.64	52472.47
525.81	52399.91
525.98	52891.43
526.16	52362.46
526.33	52505.24
526.50	53102.07
526.67	52685.46
526.84	52933.56
527.01	52849.30
527.18	52608.22
527.36	53127.82
527.53	53008.45
527.70	53499.97
527.87	53469.54
528.04	52919.51
528.21	53413.37
528.38	53179.31
528.55	53469.54
528.72	53265.91
528.89	53289.32
529.07	53366.55
529.24	53392.30
529.41	53626.35
529.58	53727.00
529.75	53780.83
529.92	53719.98
530.09	53881.47
530.26	53897.86
530.43	53939.99
530.60	53834.66
530.77	53734.02
530.94	54262.98
531.11	54012.54
531.28	54106.16
531.46	54302.77
531.63	54307.45
531.80	53963.39
531.97	54195.10
532.14	54401.07
532.31	54471.29
532.48	54520.44
532.65	54625.76
532.82	54511.08
532.99	54550.87
533.16	54621.08
533.33	54712.36
533.50	54794.28
533.67	54822.37
533.84	54452.56
534.01	54836.41
534.18	54852.80
534.35	55222.60
534.52	54803.64
534.69	55311.54
534.86	55243.66
535.03	54941.74
535.20	55126.64
535.37	55508.14
535.54	55166.43
535.71	55182.81
535.88	55367.71
536.05	55304.52
536.22	55470.70
536.38	55627.51
536.55	55650.92
536.72	55730.50
536.89	55318.56
537.06	55664.96
537.23	55655.60
537.40	55480.06
537.57	55814.76
537.74	55833.48
537.91	56025.40
538.08	55810.07
538.25	55791.35
538.42	55948.17
538.59	56104.98
538.75	55899.01
538.92	56163.50
539.09	56343.72
539.26	56165.84
539.43	56067.53
539.60	56097.96
539.77	56044.13
539.94	56516.92
540.11	56233.71
540.28	56516.92
540.44	56353.08
540.61	56301.59
540.78	56566.07
540.95	56446.70
541.12	56397.55
541.29	56491.17
541.46	56573.09
541.62	56584.79
541.79	56556.70
541.96	56104.98
542.13	56645.65
542.30	56669.05
542.47	56774.37
542.63	56935.87
542.80	56825.87
542.97	57088.01
543.14	57230.78
543.31	57279.93
543.48	57092.69
543.64	57219.08
543.81	57083.33
543.98	57270.57
544.15	57406.32
544.32	57387.60
544.48	57584.20
544.65	57394.62
544.82	57361.85
544.99	57357.17
545.16	57567.82
545.32	57396.96
545.49	57577.18
545.66	57811.23
545.83	57513.98
546.00	57792.51
546.16	57490.58
546.33	57682.50
546.50	57235.46
546.67	57722.29
546.83	57439.09
547.00	57584.20
547.17	57797.19
547.34	57790.17
547.50	57860.38
547.67	58056.99
547.84	58005.50
548.00	58260.62
548.17	58195.08
548.34	57731.65
548.51	58277.00
548.67	58508.71
548.84	57939.96
549.01	57949.32
549.18	58071.03
549.34	57944.64
549.51	58141.25
549.68	58143.59
549.84	58323.81
550.01	58464.24
550.18	58225.51
550.34	58450.20
550.51	58337.85
550.68	58429.13
550.84	58298.06
551.01	58583.61
551.18	58333.17
551.34	58368.28
551.51	58417.43
551.68	58637.44
551.84	58803.62
552.01	58494.67
552.18	58686.59
552.34	58520.41
552.51	58756.81
552.68	58712.34
552.84	58562.54
553.01	58836.39
553.18	58820.00
553.34	58894.90
553.51	58534.46
553.67	58784.90
553.84	59075.12
554.01	58883.20
554.17	58922.99
554.34	59072.78
554.51	59011.93
554.67	59007.25
554.84	58831.71
555.00	59051.72
555.17	58953.41
555.33	59203.85
555.50	58852.77
555.67	58789.58
555.83	59096.19
556.00	59009.59
556.16	59243.64
556.33	59374.71
556.50	59126.61
556.66	59398.12
556.83	59224.92
556.99	59639.19
557.16	59313.86
557.32	59430.88
557.49	59557.27
557.65	59402.80
557.82	59203.85
557.98	59351.30
558.15	59451.95
558.32	59426.20
558.48	59285.77
558.65	59332.58
558.81	59430.88
558.98	59426.20
559.14	59440.24
559.31	59613.44
559.47	59700.04
559.64	59683.66
559.80	59887.29
559.97	59751.54
560.13	59487.06
560.30	59505.78
560.46	59632.17
560.63	59814.73
560.79	59845.16
560.96	59695.36
561.12	59683.66
561.29	59753.88
561.45	59683.66
561.61	59854.52
561.78	59936.44
561.94	59744.51
562.11	59854.52
562.27	59803.03
562.44	59891.97
562.60	60044.10
562.77	59978.57
562.93	59828.77
563.10	60116.66
563.26	59861.54
563.42	60205.60
563.59	60121.34
563.75	59737.49
563.92	59889.63
564.08	59920.05
564.24	60193.90
564.41	60196.24
564.57	60137.72
564.74	60140.07
564.90	60041.76
565.07	60200.92
565.23	60444.33
565.39	60093.25
565.56	60168.15
565.72	60107.30
565.88	60072.19
566.05	59987.93
566.21	59983.25
566.38	60062.83
566.54	60116.66
566.70	60205.60
566.87	60472.42
567.03	59945.80
567.19	60470.08
567.36	60334.33
567.52	60374.12
567.68	60566.04
567.85	60259.43
568.01	60402.21
568.17	60268.79
568.34	60303.90
568.50	60116.66
568.66	60280.50
568.83	60266.45
568.99	60273.48
569.15	60423.27
569.32	60287.52
569.48	60294.54
569.64	60713.50
569.81	60250.07
569.97	60378.80
570.13	60355.39
570.30	60282.84
570.46	60615.19
570.62	60346.03
570.78	60413.91
570.95	60381.14
571.11	60526.25
571.27	60493.49
571.43	60282.84
571.60	60736.90
571.76	60427.95
571.92	60608.17
572.09	60367.10
572.25	60638.60
572.41	60399.86
572.57	60460.72
572.74	60912.44
572.90	60533.28
573.06	60533.28
573.22	60561.36
573.38	60502.85
573.55	60472.42
573.71	60631.58
573.87	60722.86
574.03	60573.06
574.20	60800.10
574.36	60474.76
574.52	60566.04
574.68	60781.37
574.84	60736.90
575.01	60746.26
575.17	60573.06
575.33	60582.43
575.49	60650.30
575.65	60509.87
575.82	60886.70
575.98	60874.99
576.14	60832.86
576.30	60769.67
576.46	60654.98
576.62	60750.94
576.79	60594.13
576.95	60666.69
577.11	60690.09
577.27	60563.70
577.43	61029.47
577.59	60942.87
577.75	60706.47
577.92	60720.52
578.08	60647.96
578.24	60921.80
578.40	60933.51
578.56	60931.17
578.72	60725.20
578.88	60928.83
579.04	60982.66
579.21	60701.79
579.37	60928.83
579.53	60970.96
579.69	60556.68
579.85	60842.23
580.01	60760.31
580.17	60589.45
580.33	60956.91
580.49	60891.38
580.65	61013.08
580.82	60736.90
580.98	60795.42
581.14	60886.70
581.30	60849.25
581.46	60900.74
581.62	60816.48
581.78	60940.53
581.94	60851.59
582.10	60832.86
582.26	60856.27
582.42	60959.25
582.58	60959.25
582.74	61069.26
582.90	60851.59
583.06	60830.52
583.22	60683.07
583.38	60846.91
583.54	60982.66
583.70	60849.25
583.86	60903.08
584.02	60837.54
584.18	61137.13
584.34	60830.52
584.50	61080.96
584.66	60828.18
584.82	60928.83
584.98	61024.79
585.14	60947.55
585.30	60835.20
585.46	61104.37
585.62	60837.54
585.78	60917.12
585.94	60722.86
586.10	60919.46
586.26	60982.66
586.42	61066.92
586.58	61162.88
586.74	60996.70
586.90	60985.00
587.06	60811.80
587.22	61118.41
587.38	61022.45
587.54	61291.61
587.70	61233.10
587.86	61008.40
588.02	60954.57
588.18	61197.99
588.34	61106.71
588.49	61090.32
