SpectraSuite Data File
++++++++++++++++++++++++++++++++++++
Date: Fri Oct 25 11:33:30 EDT 2013
User: price-jones
Dark Spectrum Present: No
Reference Spectrum Present: No
Number of Sampled Component Spectra: 1
Spectrometers: USB2+H05261
Integration Time (usec): 100000 (USB2+H05261)
Spectra Averaged: 1 (USB2+H05261)
Boxcar Smoothing: 0 (USB2+H05261)
Correct for Electrical Dark: No (USB2+H05261)
Strobe/Lamp Enabled: No (USB2+H05261)
Correct for Detector Non-linearity: No (USB2+H05261)
Correct for Stray Light: No (USB2+H05261)
Number of Pixels in Processed Spectrum: 2048
>>>>>Begin Processed Spectral Data<<<<<
365.73	320.65
365.92	320.65
366.12	320.65
366.32	187.24
366.52	182.56
366.72	227.03
366.91	215.33
367.11	156.82
367.31	203.63
367.51	175.54
367.70	212.99
367.90	170.86
368.10	191.92
368.30	161.50
368.49	121.71
368.69	175.54
368.89	154.48
369.09	227.03
369.28	227.03
369.48	301.93
369.68	271.50
369.87	210.65
370.07	212.99
370.27	292.57
370.47	271.50
370.66	482.15
370.86	447.04
371.06	528.96
371.25	571.09
371.45	571.09
371.65	538.32
371.84	528.96
372.04	557.05
372.24	545.34
372.44	566.41
372.63	535.98
372.83	540.66
373.03	545.34
373.22	573.43
373.42	554.71
373.62	596.84
373.81	585.13
374.01	692.80
374.21	587.47
374.40	564.07
374.60	706.84
374.79	620.24
374.99	645.99
375.19	678.76
375.38	690.46
375.58	697.48
375.78	678.76
375.97	688.12
376.17	678.76
376.37	657.69
376.56	671.73
376.76	564.07
376.95	638.97
377.15	657.69
377.35	678.76
377.54	741.95
377.74	650.67
377.93	678.76
378.13	697.48
378.33	655.35
378.52	641.31
378.72	657.69
378.91	809.83
379.11	676.41
379.31	734.93
379.50	690.46
379.70	753.65
379.89	758.33
380.09	690.46
380.28	758.33
380.48	734.93
380.68	809.83
380.87	688.12
381.07	791.10
381.26	821.53
381.46	737.27
381.65	786.42
381.85	777.06
382.04	819.19
382.24	828.55
382.43	751.31
382.63	826.21
382.83	830.89
383.02	809.83
383.22	854.30
383.41	816.85
383.61	730.25
383.80	777.06
384.00	826.21
384.19	851.96
384.39	809.83
384.58	800.46
384.78	854.30
384.97	866.00
385.17	868.34
385.36	861.32
385.56	926.85
385.75	868.34
385.95	844.93
386.14	784.08
386.34	842.59
386.53	821.53
386.72	851.96
386.92	866.00
387.11	903.45
387.31	870.68
387.50	915.15
387.70	837.91
387.89	856.64
388.09	938.55
388.28	898.77
388.48	835.57
388.67	929.19
388.86	898.77
389.06	973.66
389.25	971.32
389.45	915.15
389.64	922.17
389.84	929.19
390.03	987.71
390.22	964.30
390.42	940.90
390.61	924.51
390.81	954.94
391.00	1069.62
391.19	901.11
391.39	994.73
391.58	985.37
391.78	1015.79
391.97	985.37
392.16	1071.97
392.36	1060.26
392.55	1137.50
392.75	999.41
392.94	987.71
393.13	1137.50
393.33	1067.28
393.52	954.94
393.71	1153.88
393.91	1111.75
394.10	1060.26
394.29	1144.52
394.49	1081.33
394.68	1027.50
394.88	1146.86
395.07	1170.27
395.26	1198.35
395.46	1144.52
395.65	1210.06
395.84	1186.65
396.04	1210.06
396.23	1291.98
396.42	1146.86
396.62	1203.04
396.81	1273.25
397.00	1135.16
397.19	1200.69
397.39	1198.35
397.58	1130.48
397.77	1174.95
397.97	1334.11
398.16	1200.69
398.35	1390.28
398.55	1273.25
398.74	1331.76
398.93	1280.27
399.12	1217.08
399.32	1287.29
399.51	1287.29
399.70	1259.21
399.90	1348.15
400.09	1291.98
400.28	1357.51
400.47	1308.36
400.67	1380.92
400.86	1441.77
401.05	1401.98
401.24	1474.54
401.44	1451.13
401.63	1427.73
401.82	1481.56
402.01	1465.18
402.21	1406.66
402.40	1432.41
402.59	1423.05
402.78	1507.30
402.97	1610.29
403.17	1558.80
403.36	1441.77
403.55	1509.65
403.74	1666.46
403.93	1603.27
404.13	1593.90
404.32	1668.80
404.51	1610.29
404.70	1689.87
404.89	1629.01
405.09	1701.57
405.28	1696.89
405.47	1668.80
405.66	1732.00
405.85	1717.95
406.05	1692.21
406.24	1671.14
406.43	1722.63
406.62	1813.92
406.81	1839.66
407.00	1783.49
407.20	1762.42
407.39	1813.92
407.58	1825.62
407.77	1881.79
407.96	1785.83
408.15	1797.53
408.34	1923.92
408.54	1860.73
408.73	1863.07
408.92	1884.13
409.11	1919.24
409.30	2010.52
409.49	1942.64
409.68	2050.31
409.87	2017.54
410.07	2069.03
410.26	2064.35
410.45	2092.44
410.64	2029.24
410.83	2108.82
411.02	2176.70
411.21	2078.40
411.40	2043.29
411.59	2214.15
411.78	2204.78
411.98	2115.84
412.17	2143.93
412.36	2237.55
412.55	2279.68
412.74	2277.34
412.93	2354.58
413.12	2275.00
413.31	2431.82
413.50	2448.20
413.69	2420.11
413.88	2530.12
414.07	2476.29
414.26	2495.01
414.45	2495.01
414.64	2443.52
414.83	2548.84
415.02	2516.08
415.22	2628.42
415.41	2663.53
415.60	2621.40
415.79	2565.23
415.98	2705.66
416.17	2663.53
416.36	2605.02
416.55	2719.70
416.74	2899.92
416.93	2677.57
417.12	2892.90
417.31	2885.88
417.50	2853.11
417.69	2932.69
417.88	2850.77
418.07	2935.03
418.26	3019.29
418.45	2972.48
418.64	3176.11
418.83	2984.18
419.02	2977.16
419.21	3136.32
419.39	3080.14
419.58	3105.89
419.77	3026.31
419.96	3150.36
420.15	3138.66
420.34	3103.55
420.53	3073.12
420.72	3311.86
420.91	3126.96
421.10	3272.07
421.29	3281.43
421.48	3265.05
421.67	3335.26
421.86	3288.45
422.05	3248.66
422.24	3220.58
422.43	3321.22
422.61	3396.12
422.80	3487.40
422.99	3382.07
423.18	3311.86
423.37	3356.33
423.56	3609.11
423.75	3496.76
423.94	3365.69
424.13	3176.11
424.32	3358.67
424.50	3419.52
424.69	3571.66
424.88	3510.80
425.07	3396.12
425.26	3339.94
425.45	3431.23
425.64	3375.05
425.83	3440.59
426.01	3368.03
426.20	3536.55
426.39	3400.80
426.58	3485.06
426.77	3412.50
426.96	3513.14
427.15	3574.00
427.33	3571.66
427.52	3564.64
427.71	3592.72
427.90	3592.72
428.09	3566.98
428.28	3637.19
428.46	3632.51
428.65	3693.37
428.84	3768.26
429.03	3899.33
429.22	3740.18
429.40	3721.45
429.59	3698.05
429.78	3667.62
429.97	3604.42
430.16	3789.33
430.34	3714.43
430.53	3939.12
430.72	4011.68
430.91	3791.67
431.10	3920.40
431.28	4014.02
431.47	3997.64
431.66	4063.17
431.85	4021.04
432.03	3915.72
432.22	4030.40
432.41	4065.51
432.60	4021.04
432.79	4023.38
432.97	4102.96
433.16	4032.74
433.35	4035.08
433.54	4198.92
433.72	4121.68
433.91	4287.86
434.10	4285.52
434.28	4173.18
434.47	4376.80
434.66	4184.88
434.85	4234.03
435.03	4353.40
435.22	4372.12
435.41	4461.06
435.59	4512.55
435.78	4411.91
435.97	4372.12
436.16	4308.93
436.34	4381.48
436.53	4379.14
436.72	4393.19
436.90	4395.53
437.09	4423.61
437.28	4514.89
437.46	4627.24
437.65	4578.09
437.84	4528.94
438.02	4636.60
438.21	4559.36
438.40	4706.82
438.58	4851.93
438.77	4856.61
438.96	4657.67
439.14	4847.25
439.33	5085.98
439.52	4851.93
439.70	4875.34
439.89	5060.24
440.08	5055.56
440.26	5022.79
440.45	4947.89
440.63	5022.79
440.82	5167.90
441.01	5078.96
441.19	5142.16
441.38	5242.80
441.57	5149.18
441.75	5310.68
441.94	5448.77
442.12	5362.17
442.31	5416.00
442.50	5497.92
442.68	5401.96
442.87	5310.68
443.05	5516.64
443.24	5551.75
443.43	5586.86
443.61	5689.84
443.80	5687.50
443.98	5495.58
444.17	5350.46
444.35	5439.40
444.54	5631.33
444.73	5584.52
444.91	5734.31
445.10	5607.92
445.28	5774.10
445.47	5547.07
445.65	5591.54
445.84	5785.80
446.02	5891.13
446.21	5825.59
446.39	5654.73
446.58	5713.25
446.77	5788.14
446.95	5579.84
447.14	5701.54
447.32	5806.87
447.51	5760.06
447.69	5867.72
447.88	5813.89
448.06	5867.72
448.25	5856.02
448.43	5895.81
448.62	5825.59
448.80	5846.66
448.99	5949.64
449.17	5977.73
449.36	5944.96
449.54	5994.11
449.73	5996.45
449.91	6029.22
450.10	5970.71
450.28	6101.78
450.46	6094.76
450.65	6022.20
450.83	6155.61
451.02	6118.16
451.20	6300.72
451.39	6256.25
451.57	6157.95
451.76	6263.27
451.94	6218.80
452.13	6384.98
452.31	6258.59
452.49	6085.39
452.68	6249.23
452.86	6415.41
453.05	6340.51
453.23	6370.94
453.42	6319.45
453.60	6300.72
453.78	6588.61
453.97	6305.40
454.15	6321.79
454.34	6408.39
454.52	6406.05
454.70	6506.69
454.89	6408.39
455.07	6633.08
455.26	6693.93
455.44	6731.38
455.62	6647.12
455.81	6806.28
455.99	6700.95
456.17	6813.30
456.36	6813.30
456.54	6895.22
456.73	6736.06
456.91	7166.72
457.09	7061.40
457.28	7126.93
457.46	7101.19
457.64	6958.41
457.83	7101.19
458.01	6942.03
458.19	7255.66
458.38	7192.47
458.56	7066.08
458.74	7286.09
458.93	7330.56
459.11	7377.37
459.29	7129.27
459.48	7332.90
459.66	7131.61
459.84	7316.51
460.03	7459.29
460.21	7262.68
460.39	7314.17
460.57	7332.90
460.76	7330.56
460.94	7449.93
461.12	7487.37
461.31	7559.93
461.49	7524.82
461.67	7473.33
461.85	7803.35
462.04	7571.63
462.22	8100.59
462.40	7768.24
462.59	7786.96
462.77	7672.28
462.95	7906.33
463.13	7845.48
463.32	7810.37
463.50	7852.50
463.68	7915.69
463.86	7932.08
464.05	7941.44
464.23	7793.98
464.41	8053.78
464.59	7786.96
464.78	8152.09
464.96	7943.78
465.14	7833.77
465.32	8093.57
465.50	8290.18
465.69	8194.22
465.87	7911.01
466.05	8175.49
466.23	8173.15
466.41	8170.81
466.60	8283.16
466.78	8114.64
466.96	8194.22
467.14	8299.54
467.32	8255.07
467.51	8339.33
467.69	8173.15
467.87	8304.22
468.05	8482.10
468.23	8280.82
468.41	8367.42
468.60	8535.93
468.78	8575.72
468.96	8449.33
469.14	8549.98
469.32	8734.88
469.50	8615.51
469.69	8669.34
469.87	8648.28
470.05	8629.56
470.23	8727.86
470.41	8802.75
470.59	8830.84
470.77	8798.07
470.95	8966.59
471.14	9090.64
471.32	8926.80
471.50	9111.71
471.68	9078.94
471.86	9074.26
472.04	9179.58
472.22	9444.06
472.40	9111.71
472.58	9193.62
472.77	9324.69
472.95	9486.19
473.13	9582.15
473.31	9537.68
473.49	9575.13
473.67	9310.65
473.85	9533.00
474.03	9778.76
474.21	9734.29
474.39	9823.23
474.57	9734.29
474.75	9933.23
474.93	9951.96
475.12	9870.04
475.30	9909.83
475.48	9998.77
475.66	9928.55
475.84	10050.26
476.02	10104.09
476.20	10256.23
476.38	10223.46
476.56	10651.78
476.74	10513.69
476.92	10413.04
477.10	10448.15
477.28	10630.71
477.46	10764.12
477.64	10871.79
477.82	10803.91
478.00	11063.71
478.18	11061.37
478.36	11239.25
478.54	11375.00
478.72	11386.71
478.90	11431.18
479.08	11580.97
479.26	11707.36
479.44	11885.24
479.62	11737.79
479.80	11896.94
479.98	12100.57
480.16	12320.58
480.34	11932.05
480.52	12198.87
480.70	12463.35
480.88	12109.93
481.06	12489.10
481.24	12580.38
481.41	12620.17
481.59	12842.52
481.77	12886.99
481.95	12821.45
482.13	13064.87
482.31	12924.44
482.49	13469.78
482.67	13158.49
482.85	13289.56
483.03	13432.33
483.21	13682.77
483.39	13504.89
483.57	13708.52
483.74	13984.70
483.92	14038.53
484.10	13736.60
484.28	14115.77
484.46	14841.34
484.64	14651.75
484.82	14305.35
485.00	14710.27
485.18	15082.41
485.35	15293.06
485.53	14946.66
485.71	14988.79
485.89	15276.68
486.07	15396.04
486.25	15569.24
486.43	15332.85
486.61	15798.62
486.78	15793.94
486.96	15992.88
487.14	16278.43
487.32	16168.42
487.50	16489.07
487.68	16409.50
487.85	16627.17
488.03	16739.51
488.21	16709.08
488.39	17060.16
488.57	17151.45
488.75	17191.23
488.92	17319.96
489.10	17425.29
489.28	17561.04
489.46	17923.82
489.64	17797.43
489.81	18115.75
489.99	18214.05
490.17	18209.37
490.35	18174.26
490.53	18331.08
490.70	18883.44
490.88	18328.74
491.06	18759.39
491.24	18827.27
491.41	19302.40
491.59	19019.19
491.77	19183.03
491.95	19391.34
492.13	19353.89
492.30	20070.09
492.48	19690.93
492.66	20004.56
492.84	20077.12
493.01	20416.49
493.19	20208.19
493.37	20390.75
493.54	20453.94
493.72	20737.15
493.90	20807.36
494.08	20657.57
494.25	20973.54
494.43	21062.48
494.61	21039.08
494.79	21399.52
494.96	21362.07
495.14	21446.33
495.32	21827.84
495.49	21968.27
495.67	21928.48
495.85	21872.31
496.02	21986.99
496.20	22314.67
496.38	22490.21
496.55	22419.99
496.73	23012.15
496.91	22651.70
497.09	22993.42
497.26	22731.28
497.44	22941.93
497.62	23175.98
497.79	23667.50
497.97	23051.94
498.14	23339.82
498.32	23646.43
498.50	23875.80
498.67	24121.56
498.85	23854.74
499.03	24219.86
499.20	24187.10
499.38	24114.54
499.56	24327.53
499.73	24416.47
499.91	24669.25
500.08	24697.33
500.26	24320.51
500.44	24416.47
500.61	24769.89
500.79	24856.49
500.97	24964.15
501.14	25404.17
501.32	25441.62
501.49	25324.60
501.67	25427.58
501.84	25642.91
502.02	25699.08
502.20	25776.32
502.37	25947.18
502.55	25556.31
502.72	26005.69
502.90	25654.61
503.07	25944.84
503.25	26064.21
503.43	26064.21
503.60	26345.07
503.78	26567.42
503.95	26391.88
504.13	26621.25
504.30	26834.24
504.48	26525.29
504.65	26675.09
504.83	26871.69
505.01	27077.66
505.18	27187.66
505.36	27674.49
505.53	27026.17
505.71	27716.62
505.88	27627.68
506.06	27262.56
506.23	27803.22
506.41	27754.07
506.58	27693.22
506.76	27700.24
506.93	28112.17
507.11	27861.74
507.28	28215.16
507.46	28554.54
507.63	28156.64
507.81	28383.68
507.98	28229.20
508.16	28425.81
508.33	28444.53
508.50	28355.59
508.68	28503.04
508.85	28961.79
509.03	28786.25
509.20	28856.46
509.38	29216.91
509.55	29434.58
509.73	29387.77
509.90	29406.49
510.08	29275.42
510.25	29518.84
510.42	29717.78
510.60	29890.98
510.77	29942.47
510.95	30132.06
511.12	29977.58
511.30	29883.96
511.47	29900.34
511.64	30033.75
511.82	30412.92
511.99	30309.94
512.17	30190.57
512.34	30345.05
512.51	31012.10
512.69	30906.77
512.86	30930.18
513.04	30855.28
513.21	30897.41
513.38	31138.49
513.56	31405.31
513.73	30941.88
513.90	30993.37
514.08	31079.97
514.25	31590.21
514.43	31431.05
514.60	31784.48
514.77	31606.59
514.95	31489.57
515.12	31704.90
515.29	31934.27
515.47	32346.20
515.64	32013.85
515.81	31683.83
515.99	32467.91
516.16	32374.29
516.33	32531.11
516.51	32856.44
516.68	32393.01
516.85	32222.16
517.03	32746.44
517.20	33076.45
517.37	32685.58
517.54	32872.82
517.72	32968.79
517.89	32807.29
518.06	33090.49
518.24	33120.92
518.41	33017.94
518.58	33380.72
518.75	33525.83
518.93	33486.04
519.10	33113.90
519.27	33684.99
519.45	33481.36
519.62	33663.93
519.79	33282.42
519.96	33806.70
520.14	33750.52
520.31	33783.29
520.48	34066.50
520.65	34064.16
520.83	34490.13
521.00	34581.42
521.17	34256.08
521.34	34396.51
521.52	34146.08
521.69	34600.14
521.86	34939.52
522.03	34675.04
522.20	35086.97
522.38	34668.02
522.55	34742.91
522.72	35023.78
522.89	35070.59
523.07	35613.59
523.24	35201.66
523.41	35608.91
523.58	35234.42
523.75	35510.61
523.92	35033.14
524.10	35515.29
524.27	35402.94
524.44	36023.19
524.61	35906.16
524.78	35665.08
524.96	36172.98
525.13	36044.25
525.30	36421.08
525.47	36378.95
525.64	36245.54
525.81	36554.49
525.98	36116.81
526.16	36524.06
526.33	36046.59
526.50	36884.50
526.67	36467.89
526.84	36531.08
527.01	36350.86
527.18	36392.99
527.36	36587.25
527.53	36795.56
527.70	37226.22
527.87	37589.00
528.04	37352.61
528.21	37345.59
528.38	37516.45
528.55	37127.92
528.72	37256.65
528.89	37109.19
529.07	37212.18
529.24	37158.34
529.41	37738.80
529.58	37401.76
529.75	37399.42
529.92	37607.73
530.09	37741.14
530.26	37600.71
530.43	37654.54
530.60	37706.03
530.77	37663.90
530.94	37902.64
531.11	37691.99
531.28	38141.37
531.46	37841.78
531.63	38218.61
531.80	38616.50
531.97	38281.80
532.14	38499.47
532.31	38398.83
532.48	38773.31
532.65	38604.80
532.82	38728.84
532.99	38649.27
533.16	38639.90
533.33	39225.04
533.50	38539.26
533.67	38904.38
533.84	38464.36
534.01	39091.63
534.18	38937.15
534.35	39707.19
534.52	39353.77
534.69	39578.46
534.86	39739.96
535.03	39145.46
535.20	39306.96
535.37	39447.39
535.54	39952.94
535.71	39391.22
535.88	39651.02
536.05	40109.76
536.22	39569.10
536.38	39899.11
536.55	39618.25
536.72	40093.38
536.89	40065.29
537.06	39651.02
537.23	40645.74
537.40	39882.73
537.57	40147.21
537.74	40224.45
537.91	40037.20
538.08	40390.62
538.25	40020.82
538.42	40264.24
538.59	40605.95
538.75	40236.15
538.92	40259.55
539.09	40730.00
539.26	40491.27
539.43	40299.34
539.60	40863.41
539.77	40470.20
539.94	41249.60
540.11	40875.12
540.28	40683.19
540.44	40746.39
540.61	40622.34
540.78	40858.73
540.95	41305.77
541.12	40961.72
541.29	41034.27
541.46	41074.06
541.62	41041.29
541.79	41277.69
541.96	41104.49
542.13	41106.83
542.30	41275.35
542.47	41392.37
542.63	41397.06
542.80	41787.92
542.97	42043.04
543.14	42155.39
543.31	41780.90
543.48	41336.20
543.64	42019.64
543.81	42176.45
543.98	41694.30
544.15	41645.15
544.32	42239.65
544.48	42433.91
544.65	42581.37
544.82	42590.73
544.99	42101.56
545.16	42263.05
545.32	42263.05
545.49	42607.11
545.66	42513.49
545.83	42621.16
546.00	42958.19
546.16	42855.21
546.33	42876.27
546.50	42621.16
546.67	42899.68
546.83	42305.18
547.00	42319.23
547.17	42251.35
547.34	42747.54
547.50	43100.97
547.67	43026.07
547.84	42522.85
548.00	42817.76
548.17	43526.94
548.34	42988.62
548.51	43709.50
548.67	43519.92
548.84	43533.96
549.01	43344.38
549.18	43487.15
549.34	43250.76
549.51	43669.72
549.68	43515.24
549.84	43529.28
550.01	43938.88
550.18	43643.97
550.34	43786.74
550.51	43906.11
550.68	43999.73
550.84	43564.39
551.01	44023.14
551.18	43875.68
551.34	44051.22
551.51	43938.88
551.68	43826.53
551.84	43800.79
552.01	43618.22
552.18	43927.17
552.34	43758.66
552.51	44186.97
552.68	43739.93
552.84	44278.25
553.01	44233.78
553.18	44301.66
553.34	44245.49
553.51	44142.50
553.67	44381.24
553.84	44769.77
554.01	44353.15
554.17	44514.65
554.34	44842.32
554.51	44002.07
554.67	44617.63
554.84	44942.97
555.00	44863.39
555.17	44587.21
555.33	44847.00
555.50	44912.54
555.67	44945.31
555.83	45003.82
556.00	44762.75
556.16	45172.34
556.33	45099.78
556.50	44898.50
556.66	44931.26
556.83	44952.33
556.99	44893.82
557.16	45485.97
557.32	45102.12
557.49	45329.16
557.65	45006.16
557.82	45427.46
557.98	45301.07
558.15	45448.52
558.32	45237.87
558.48	44879.77
558.65	44987.44
558.81	45361.92
558.98	45165.32
559.14	45291.71
559.31	45411.07
559.47	45394.69
559.64	45570.23
559.80	45476.61
559.97	45134.89
560.13	45191.06
560.30	45504.70
560.46	45902.59
560.63	45858.12
560.79	45659.17
560.96	45914.29
561.12	45928.33
561.29	45652.15
561.45	45698.96
561.61	46038.34
561.78	45846.41
561.94	45687.26
562.11	45720.02
562.27	45876.84
562.44	45675.55
562.60	45717.68
562.77	45593.64
562.93	45900.25
563.10	46209.20
563.26	45689.60
563.42	46202.18
563.59	45865.14
563.75	46239.62
563.92	46146.00
564.08	46012.59
564.24	46347.29
564.41	45923.65
564.57	46134.30
564.74	46234.94
564.90	46195.15
565.07	46087.49
565.23	45848.75
565.39	46146.00
565.56	46204.52
565.72	46148.34
565.88	46183.45
566.05	45853.44
566.21	46066.42
566.38	46569.64
566.54	46277.07
566.70	46380.06
566.87	46213.88
567.03	46085.15
567.19	46124.94
567.36	46614.11
567.52	46206.86
567.68	47014.34
567.85	46684.33
568.01	46780.29
568.17	46616.45
568.34	46768.58
568.50	46749.86
568.66	46476.02
568.83	46265.37
568.99	46459.63
569.15	46557.94
569.32	46347.29
569.48	46670.28
569.64	46639.86
569.81	46689.01
569.97	46712.41
570.13	46815.40
570.30	46878.59
570.46	46801.35
570.62	46480.70
570.78	46569.64
570.95	46663.26
571.11	47157.11
571.27	46220.90
571.43	46337.93
571.60	46951.15
571.76	46628.15
571.92	46801.35
572.09	46841.14
572.25	46822.42
572.41	46799.01
572.57	46883.27
572.74	47173.50
572.90	46483.04
573.06	46810.71
573.22	47030.72
573.38	47161.79
573.55	46962.85
573.71	47182.86
573.87	47051.79
574.03	46735.82
574.20	47344.36
574.36	46848.16
574.52	47044.77
574.68	47318.61
574.84	47276.48
575.01	47187.54
575.17	47164.14
575.33	47430.96
575.49	47456.70
575.65	46890.29
575.82	47395.85
575.98	47119.66
576.14	47459.04
576.30	47192.22
576.46	47152.43
576.62	47145.41
576.79	47290.52
576.95	46944.12
577.11	46602.41
577.27	46866.89
577.43	47540.96
577.59	46689.01
577.75	47133.71
577.92	46560.28
578.08	46965.19
578.24	47372.44
578.40	47119.66
578.56	47522.24
578.72	47178.18
578.88	47627.56
579.04	47105.62
579.21	46862.21
579.37	47269.46
579.53	47150.09
579.69	46789.65
579.85	47082.22
580.01	47461.38
580.17	47208.61
580.33	47152.43
580.49	47232.01
580.65	47629.90
580.82	47496.49
580.98	46953.49
581.14	46918.38
581.30	47358.40
581.46	47278.82
581.62	47079.88
581.78	47063.49
581.94	47243.71
582.10	47452.02
582.26	47573.73
582.42	47594.79
582.58	47405.21
582.74	47433.30
582.90	47590.11
583.06	47550.32
583.22	47491.81
583.38	47466.06
583.54	47391.17
583.70	47393.51
583.86	47648.63
584.02	47103.28
584.18	47711.82
584.34	47510.53
584.50	47697.78
584.66	47625.22
584.82	47339.68
584.98	47704.80
585.14	47583.09
585.30	47185.20
585.46	47498.83
585.62	47295.21
585.78	47215.63
585.94	46770.93
586.10	47257.76
586.26	47386.49
586.42	47440.32
586.58	47618.20
586.74	47498.83
586.90	47327.97
587.06	47466.06
587.22	47311.59
587.38	47349.04
587.54	47845.23
587.70	47899.06
587.86	47517.56
588.02	47107.96
588.18	47810.12
588.34	47370.10
588.49	47636.92
588.65	47636.92
588.81	47744.59
588.97	47700.12
589.13	47269.46
589.29	47501.17
589.45	48135.46
589.61	47842.89
589.77	47753.95
589.93	47882.68
590.08	48165.88
