SpectraSuite Data File
++++++++++++++++++++++++++++++++++++
Date: Fri Oct 25 10:44:53 EDT 2013
User: price-jones
Dark Spectrum Present: No
Reference Spectrum Present: No
Number of Sampled Component Spectra: 1
Spectrometers: USB2+H05261
Integration Time (usec): 100000 (USB2+H05261)
Spectra Averaged: 1 (USB2+H05261)
Boxcar Smoothing: 0 (USB2+H05261)
Correct for Electrical Dark: No (USB2+H05261)
Strobe/Lamp Enabled: No (USB2+H05261)
Correct for Detector Non-linearity: No (USB2+H05261)
Correct for Stray Light: No (USB2+H05261)
Number of Pixels in Processed Spectrum: 2048
>>>>>Begin Processed Spectral Data<<<<<
365.73	86.60
365.92	86.60
366.12	86.60
366.32	42.13
366.52	4.68
366.72	46.81
366.91	0.00
367.11	72.56
367.31	0.00
367.51	51.49
367.70	74.90
367.90	86.60
368.10	4.68
368.30	0.00
368.49	16.38
368.69	72.56
368.89	63.19
369.09	21.06
369.28	23.41
369.48	46.81
369.68	119.37
369.87	93.62
370.07	102.98
370.27	154.48
370.47	187.24
370.66	421.30
370.86	465.77
371.06	454.06
371.25	505.56
371.45	388.53
371.65	423.64
371.84	435.34
372.04	395.55
372.24	461.09
372.44	489.17
372.63	425.98
372.83	550.03
373.03	477.47
373.22	454.06
373.42	517.26
373.62	540.66
373.81	505.56
374.01	526.62
374.21	608.54
374.40	500.87
374.60	664.71
374.79	592.16
374.99	538.32
375.19	550.03
375.38	533.64
375.58	526.62
375.78	540.66
375.97	568.75
376.17	638.97
376.37	554.71
376.56	561.73
376.76	610.88
376.95	498.53
377.15	681.10
377.35	645.99
377.54	524.28
377.74	573.43
377.93	594.50
378.13	566.41
378.33	671.73
378.52	592.16
378.72	568.75
378.91	641.31
379.11	620.24
379.31	613.22
379.50	526.62
379.70	629.60
379.89	676.41
380.09	585.13
380.28	587.47
380.48	606.20
380.68	608.54
380.87	641.31
381.07	606.20
381.26	657.69
381.46	655.35
381.65	636.63
381.85	727.91
382.04	613.22
382.24	734.93
382.43	718.54
382.63	585.13
382.83	657.69
383.02	681.10
383.22	753.65
383.41	638.97
383.61	660.03
383.80	739.61
384.00	711.52
384.19	774.72
384.39	730.25
384.58	755.99
384.78	695.14
384.97	713.86
385.17	802.80
385.36	699.82
385.56	713.86
385.75	711.52
385.95	741.95
386.14	798.12
386.34	723.23
386.53	830.89
386.72	732.59
386.92	748.97
387.11	758.33
387.31	863.66
387.50	781.74
387.70	748.97
387.89	812.17
388.09	800.46
388.28	830.89
388.48	798.12
388.67	870.68
388.86	873.02
389.06	800.46
389.25	898.77
389.45	915.15
389.64	877.70
389.84	875.36
390.03	966.64
390.22	887.06
390.42	945.58
390.61	915.15
390.81	931.53
391.00	966.64
391.19	1041.54
391.39	889.40
391.58	957.28
391.78	964.30
391.97	973.66
392.16	910.47
392.36	999.41
392.55	959.62
392.75	933.87
392.94	931.53
393.13	964.30
393.33	973.66
393.52	959.62
393.71	1043.88
393.91	1039.20
394.10	1013.45
394.29	1064.94
394.49	1137.50
394.68	1090.69
394.88	1067.28
395.07	1186.65
395.26	1048.56
395.46	1167.93
395.65	1076.65
395.84	1174.95
396.04	1121.12
396.23	1036.86
396.42	1114.10
396.62	1142.18
396.81	1165.59
397.00	1102.39
397.19	1125.80
397.39	1181.97
397.58	1259.21
397.77	1308.36
397.97	1315.38
398.16	1252.19
398.35	1238.14
398.55	1327.08
398.74	1252.19
398.93	1320.06
399.12	1359.85
399.32	1355.17
399.51	1392.62
399.70	1364.53
399.90	1380.92
400.09	1483.90
400.28	1469.86
400.47	1437.09
400.67	1462.83
400.86	1420.71
401.05	1521.35
401.24	1502.62
401.44	1523.69
401.63	1526.03
401.82	1537.73
402.01	1483.90
402.21	1565.82
402.40	1514.33
402.59	1511.99
402.78	1563.48
402.97	1586.88
403.17	1568.16
403.36	1614.97
403.55	1687.53
403.74	1612.63
403.93	1668.80
404.13	1668.80
404.32	1689.87
404.51	1647.74
404.70	1645.40
404.89	1600.93
405.09	1858.39
405.28	1727.32
405.47	1767.10
405.66	1816.26
405.85	1753.06
406.05	1781.15
406.24	1804.55
406.43	1809.23
406.62	1891.15
406.81	2038.61
407.00	1804.55
407.20	1837.32
407.39	1748.38
407.58	1820.94
407.77	1912.22
407.96	1916.90
408.15	2052.65
408.34	1987.11
408.54	1912.22
408.73	2052.65
408.92	1935.62
409.11	2024.56
409.30	2118.18
409.49	2029.24
409.68	1980.09
409.87	2038.61
410.07	1987.11
410.26	2101.80
410.45	2221.17
410.64	2148.61
410.83	2230.53
411.02	2169.68
411.21	2300.75
411.40	2200.10
411.59	2275.00
411.78	2286.70
411.98	2265.64
412.17	2356.92
412.36	2399.05
412.55	2289.04
412.74	2518.42
412.93	2380.32
413.12	2413.09
413.31	2457.56
413.50	2546.50
413.69	2567.57
413.88	2588.63
414.07	2581.61
414.26	2651.83
414.45	2663.53
414.64	2647.15
414.83	2621.40
415.02	2733.75
415.22	2715.02
415.41	2733.75
415.60	2750.13
415.79	2897.58
415.98	2963.12
416.17	2918.65
416.36	2874.18
416.55	2820.35
416.74	2984.18
416.93	2906.95
417.12	3016.95
417.31	3054.40
417.50	2958.44
417.69	3152.70
417.88	2949.08
418.07	3136.32
418.26	3012.27
418.45	3103.55
418.64	3234.62
418.83	3194.83
419.02	3176.11
419.21	3164.40
419.39	3208.87
419.58	3192.49
419.77	3199.51
419.96	3138.66
420.15	3276.75
420.34	3239.30
420.53	3342.28
420.72	3389.10
420.91	3506.12
421.10	3361.01
421.29	3438.25
421.48	3424.20
421.67	3361.01
421.86	3344.63
422.05	3389.10
422.24	3370.37
422.43	3325.90
422.61	3496.76
422.80	3510.80
422.99	3527.19
423.18	3506.12
423.37	3531.87
423.56	3592.72
423.75	3585.70
423.94	3503.78
424.13	3344.63
424.32	3456.97
424.50	3475.70
424.69	3641.87
424.88	3557.61
425.07	3665.28
425.26	3468.67
425.45	3765.92
425.64	3531.87
425.83	3665.28
426.01	3634.85
426.20	3592.72
426.39	3679.32
426.58	3569.32
426.77	3606.77
426.96	3655.92
427.15	3569.32
427.33	3625.49
427.52	3662.94
427.71	3831.46
427.90	3674.64
428.09	3665.28
428.28	3772.94
428.46	3786.99
428.65	3772.94
428.84	3995.29
429.03	3829.12
429.22	3726.13
429.40	3868.91
429.59	3843.16
429.78	3742.52
429.97	3705.07
430.16	3691.02
430.34	3744.86
430.53	3885.29
430.72	3843.16
430.91	3913.38
431.10	4032.74
431.28	4109.98
431.47	4016.36
431.66	4264.46
431.85	4152.11
432.03	4145.09
432.22	4203.60
432.41	4173.18
432.60	4255.09
432.79	4231.69
432.97	4255.09
433.16	4320.63
433.35	4102.96
433.54	4210.62
433.72	4308.93
433.91	4262.12
434.10	4346.37
434.28	4297.22
434.47	4304.25
434.66	4404.89
434.85	4362.76
435.03	4582.77
435.22	4456.38
435.41	4526.60
435.59	4643.62
435.78	4643.62
435.97	4704.48
436.16	4449.36
436.34	4624.90
436.53	4660.01
436.72	4683.41
436.90	4610.86
437.09	4660.01
437.28	4660.01
437.46	4678.73
437.65	4613.20
437.84	4622.56
438.02	4535.96
438.21	4688.09
438.40	4692.77
438.58	4891.72
438.77	4912.78
438.96	4947.89
439.14	5018.11
439.33	4865.97
439.52	5013.43
439.70	5029.81
439.89	5118.75
440.08	5142.16
440.26	5100.03
440.45	5198.33
440.63	5156.20
440.82	5369.19
441.01	5378.55
441.19	5394.93
441.38	5320.04
441.57	5350.46
441.75	5568.13
441.94	5565.79
442.12	5535.37
442.31	5790.49
442.50	5743.67
442.68	5631.33
442.87	5781.12
443.05	5771.76
443.24	5916.87
443.43	5874.74
443.61	5879.43
443.80	5989.43
443.98	5645.37
444.17	5610.26
444.35	5720.27
444.54	5951.98
444.73	5853.68
444.91	5830.27
445.10	5970.71
445.28	5870.06
445.47	5764.74
445.65	5734.31
445.84	5764.74
446.02	6092.41
446.21	5741.33
446.39	5820.91
446.58	5942.62
446.77	6129.86
446.95	5818.57
447.14	6054.97
447.32	6157.95
447.51	5928.58
447.69	5914.53
447.88	6017.52
448.06	6001.13
448.25	6153.27
448.43	6237.53
448.62	6001.13
448.80	6017.52
448.99	6221.14
449.17	6066.67
449.36	6031.56
449.54	6200.08
449.73	6319.45
449.91	6251.57
450.10	6338.17
450.28	6532.44
450.46	6452.86
450.65	6539.46
450.83	6349.87
451.02	6480.94
451.20	6546.48
451.39	6597.97
451.57	6565.20
451.76	6494.99
451.94	6457.54
452.13	6614.35
452.31	6473.92
452.49	6452.86
452.68	6455.20
452.86	6604.99
453.05	6588.61
453.23	6576.91
453.42	6537.12
453.60	6555.84
453.78	6726.70
453.97	6750.10
454.15	6602.65
454.34	6525.41
454.52	6773.51
454.70	6836.70
454.89	6970.12
455.07	6675.21
455.26	6801.60
455.44	6988.84
455.62	6927.99
455.81	6902.24
455.99	6993.52
456.17	6925.65
456.36	6883.52
456.54	7213.53
456.73	7197.15
456.91	7194.81
457.09	7258.00
457.28	7426.52
457.46	7236.94
457.64	7199.49
457.83	7274.38
458.01	7286.09
458.19	7456.95
458.38	7421.84
458.56	7412.48
458.74	7344.60
458.93	7492.05
459.11	7435.88
459.29	7562.27
459.48	7683.98
459.66	7581.00
459.84	7410.14
460.03	7735.47
460.21	7705.04
460.39	7735.47
460.57	7613.76
460.76	7705.04
460.94	7709.72
461.12	7822.07
461.31	7847.82
461.49	8056.12
461.67	7796.32
461.85	8093.57
462.04	8067.83
462.22	8152.09
462.40	8116.98
462.59	8114.64
462.77	8063.15
462.95	8131.02
463.13	8009.31
463.32	7873.56
463.50	7978.89
463.68	8205.92
463.86	8079.53
464.05	8156.77
464.23	8124.00
464.41	8280.82
464.59	8021.02
464.78	8498.49
464.96	8208.26
465.14	8081.87
465.32	8409.54
465.50	8348.69
465.69	8444.65
465.87	8369.76
466.05	8386.14
466.23	8446.99
466.41	8418.91
466.60	8699.77
466.78	8177.83
466.96	8554.66
467.14	8397.84
467.32	8533.59
467.51	8582.74
467.69	8381.46
467.87	8622.53
468.05	8688.07
468.23	8634.24
468.41	8599.13
468.60	8526.57
468.78	8793.39
468.96	8690.41
469.14	8849.57
469.32	8938.51
469.50	8608.49
469.69	8964.25
469.87	8800.41
470.05	8954.89
470.23	8966.59
470.41	8823.82
470.59	8966.59
470.77	8929.14
470.95	9144.47
471.14	9254.48
471.32	9013.40
471.50	9511.94
471.68	9352.78
471.86	9301.29
472.04	9448.74
472.22	9671.09
472.40	9378.53
472.58	9366.82
472.77	9530.66
472.95	9675.77
473.13	10066.64
473.31	9554.07
473.49	9528.32
473.67	9715.56
473.85	9820.89
474.03	10061.96
474.21	10001.11
474.39	10043.24
474.57	9973.02
474.75	10178.99
474.93	10300.70
475.12	10064.30
475.30	10120.48
475.48	10022.17
475.66	10345.17
475.84	10401.34
476.02	10513.69
476.20	10401.34
476.38	10551.14
476.56	10932.64
476.74	10820.30
476.92	10675.18
477.10	10899.87
477.28	11126.91
477.46	10958.39
477.64	11293.08
477.82	11082.44
478.00	11410.11
478.18	11412.45
478.36	11555.22
478.54	11482.67
478.72	11555.22
478.90	11690.98
479.08	11683.95
479.26	12112.27
479.44	12011.63
479.62	11999.93
479.80	12156.74
479.98	12327.60
480.16	12554.63
480.34	12442.29
480.52	12524.21
480.70	12358.03
480.88	12465.69
481.06	12627.19
481.24	12690.38
481.41	12793.37
481.59	13177.22
481.77	13036.78
481.95	13366.80
482.13	13179.56
482.31	13465.10
482.49	13619.58
482.67	13568.09
482.85	13607.87
483.03	13778.73
483.21	13809.16
483.39	14462.17
483.57	14061.94
483.74	14136.84
483.92	14209.39
484.10	14190.67
484.28	14600.26
484.46	14775.80
484.64	14640.05
484.82	14750.06
485.00	14993.47
485.18	15019.22
485.35	15264.97
485.53	15042.62
485.71	15037.94
485.89	15466.26
486.07	15122.20
486.25	15529.45
486.43	15625.42
486.61	16016.29
486.78	15852.45
486.96	15922.66
487.14	16313.53
487.32	16390.77
487.50	16428.22
487.68	16542.91
487.85	16798.02
488.03	16929.09
488.21	17256.77
488.39	17345.71
488.57	17436.99
488.75	17355.07
488.92	17928.50
489.10	17888.71
489.28	17642.96
489.46	18113.41
489.64	18015.10
489.81	18190.64
489.99	18438.74
490.17	18354.48
490.35	18881.10
490.53	18635.35
490.70	18691.52
490.88	18967.70
491.06	18899.83
491.24	19293.04
491.41	19227.50
491.59	19180.69
491.77	19344.53
491.95	19503.68
492.13	19754.12
492.30	19913.28
492.48	19981.15
492.66	20074.77
492.84	20269.04
493.01	20297.13
493.19	20240.95
493.37	20245.63
493.54	20713.74
493.72	20882.26
493.90	21020.35
494.08	20809.70
494.25	20912.69
494.43	21172.49
494.61	21458.03
494.79	21287.17
494.96	21521.23
495.14	21743.58
495.32	22045.51
495.49	21806.77
495.67	22352.12
495.85	22197.64
496.02	22033.80
496.20	22455.10
496.38	22668.09
496.55	22773.41
496.73	23241.52
496.91	22782.77
497.09	23094.07
497.26	23023.85
497.44	23414.72
497.62	23438.12
497.79	23482.59
497.97	23419.40
498.14	23601.96
498.32	23784.52
498.50	23838.36
498.67	24348.59
498.85	24023.26
499.03	24348.59
499.20	24142.63
499.38	24201.14
499.56	24435.19
499.73	24615.41
499.91	24620.10
500.08	24655.20
500.26	24533.50
500.44	24807.34
500.61	24971.18
500.79	24659.88
500.97	24964.15
501.14	25132.67
501.32	25420.56
501.49	25219.27
501.67	25596.10
501.84	25560.99
502.02	25427.58
502.20	25851.22
502.37	25855.90
502.55	26015.05
502.72	25759.94
502.90	26045.48
503.07	26312.30
503.25	26089.95
503.43	26038.46
503.60	26162.51
503.78	26356.77
503.95	26260.81
504.13	26522.95
504.30	26749.98
504.48	26827.22
504.65	26808.50
504.83	26951.27
505.01	27381.93
505.18	27040.21
505.36	27344.48
505.53	27307.03
505.71	27498.95
505.88	27721.30
506.06	27290.65
506.23	27824.29
506.41	27721.30
506.58	27330.44
506.76	28056.00
506.93	27906.21
507.11	27704.92
507.28	27857.06
507.46	27920.25
507.63	27878.12
507.81	27983.44
507.98	27955.36
508.16	28568.58
508.33	28201.11
508.50	28414.10
508.68	28723.05
508.85	28830.72
509.03	29060.09
509.20	29069.45
509.38	29415.85
509.55	29528.20
509.73	29179.46
509.90	29252.02
510.08	29303.51
510.25	29455.64
510.42	29544.58
510.60	29834.81
510.77	29816.08
510.95	29867.58
511.12	29572.67
511.30	30366.11
511.47	30263.13
511.64	30136.74
511.82	30265.47
511.99	29804.38
512.17	29865.24
512.34	30089.93
512.51	30693.79
512.69	30621.23
512.86	30670.38
513.04	30923.16
513.21	31000.40
513.38	30398.88
513.56	30548.67
513.73	30972.31
513.90	31126.78
514.08	30885.71
514.25	31094.02
514.43	31386.58
514.60	31346.79
514.77	31119.76
514.95	31782.13
515.12	31990.44
515.29	31419.35
515.47	31796.18
515.64	32013.85
515.81	31796.18
515.99	31875.76
516.16	31660.43
516.33	31828.95
516.51	31945.97
516.68	32095.77
516.85	31377.22
517.03	31831.29
517.20	31889.80
517.37	32114.49
517.54	32275.99
517.72	32273.65
517.89	32210.45
518.06	32421.10
518.24	32112.15
518.41	32624.73
518.58	32730.05
518.75	32662.18
518.93	32664.52
519.10	32669.20
519.27	32772.18
519.45	32622.39
519.62	33156.03
519.79	32954.74
519.96	33542.22
520.14	33280.08
520.31	32912.61
520.48	33247.31
520.65	33249.65
520.83	33993.94
521.00	33539.88
521.17	33851.17
521.34	33696.69
521.52	34015.01
521.69	33926.07
521.86	34267.78
522.03	34246.72
522.20	34366.09
522.38	34391.83
522.55	34143.74
522.72	34120.33
522.89	34543.97
523.07	34117.99
523.24	34139.05
523.41	35002.71
523.58	34529.92
523.75	35199.32
523.92	35103.35
524.10	34714.83
524.27	35304.64
524.44	34888.03
524.61	35351.45
524.78	35431.03
524.96	35461.46
525.13	35157.19
525.30	35522.31
525.47	35770.41
525.64	35431.03
525.81	35594.87
525.98	35711.89
526.16	35386.56
526.33	35538.69
526.50	35606.57
526.67	35536.35
526.84	35496.56
527.01	35501.25
527.18	36025.53
527.36	35899.14
527.53	36222.13
527.70	36634.06
527.87	36500.65
528.04	36126.17
528.21	36184.68
528.38	36561.51
528.55	36545.12
528.72	36566.19
528.89	36652.79
529.07	36882.16
529.24	36364.90
529.41	36692.58
529.58	36282.98
529.75	36620.02
529.92	36926.63
530.09	36903.23
530.26	36959.40
530.43	36978.12
530.60	37031.96
530.77	37088.13
530.94	37324.52
531.11	37221.54
531.28	37156.00
531.46	37699.01
531.63	37773.91
531.80	37486.02
531.97	37736.46
532.14	37228.56
532.31	37163.03
532.48	37624.11
532.65	37333.89
532.82	37214.52
532.99	37624.11
533.16	37439.21
533.33	37654.54
533.50	38089.88
533.67	38052.43
533.84	37883.91
534.01	38022.00
534.18	37572.62
534.35	38031.36
534.52	38057.11
534.69	38595.43
534.86	38122.65
535.03	38286.48
535.20	38239.67
535.37	38770.97
535.54	38747.57
535.71	38483.09
535.88	38497.13
536.05	38752.25
536.22	38778.00
536.38	38618.84
536.55	39161.84
536.72	38895.02
536.89	38780.34
537.06	39079.92
537.23	38628.20
537.40	38955.88
537.57	38621.18
537.74	39089.29
537.91	39323.34
538.08	39180.57
538.25	38815.44
538.42	38925.45
538.59	39344.41
538.75	38766.29
538.92	39070.56
539.09	39400.58
539.26	38831.83
539.43	39793.79
539.60	38635.22
539.77	39232.06
539.94	39194.61
540.11	39159.50
540.28	39543.35
540.44	39374.83
540.61	39915.50
540.78	39461.43
540.95	39629.95
541.12	39344.41
541.29	39655.70
541.46	39697.83
541.62	40273.60
541.79	40182.32
541.96	39672.08
542.13	39983.37
542.30	40032.52
542.47	40404.67
542.63	39990.39
542.80	40208.06
542.97	40744.05
543.14	40828.30
543.31	40402.33
543.48	40563.82
543.64	41188.75
543.81	40664.47
543.98	41045.97
544.15	40383.60
544.32	40985.12
544.48	40847.03
544.65	40790.86
544.82	40781.49
544.99	40690.21
545.16	41099.81
545.32	40814.26
545.49	41305.77
545.66	41193.43
545.83	41106.83
546.00	41160.66
546.16	40893.84
546.33	41045.97
546.50	41078.74
546.67	41188.75
546.83	41088.10
547.00	41085.76
547.17	41675.58
547.34	41799.63
547.50	41656.85
547.67	41642.81
547.84	41682.60
548.00	41794.95
548.17	41944.74
548.34	41991.55
548.51	42047.72
548.67	42059.43
548.84	41867.50
549.01	41516.42
549.18	41839.42
549.34	41942.40
549.51	42148.37
549.68	41713.03
549.84	42141.35
550.01	41982.19
550.18	42110.92
550.34	42031.34
550.51	42108.58
550.68	42377.74
550.84	41787.92
551.01	42249.01
551.18	42373.06
551.34	42300.50
551.51	42319.23
551.68	42490.09
551.84	41993.89
552.01	41930.70
552.18	42574.34
552.34	42026.66
552.51	42555.62
552.68	41961.12
552.84	43005.00
553.01	42838.83
553.18	42239.65
553.34	42370.72
553.51	42623.50
553.67	42036.02
553.84	42614.13
554.01	42918.40
554.17	42298.16
554.34	43047.13
554.51	42567.32
554.67	42948.83
554.84	42777.97
555.00	42597.75
555.17	42532.22
555.33	42693.71
555.50	43107.99
555.67	43203.95
555.83	42749.88
556.00	43047.13
556.16	43276.51
556.33	42990.96
556.50	43021.39
556.66	42892.66
556.83	42939.47
556.99	43384.17
557.16	42637.54
557.32	43374.81
557.49	43503.54
557.65	43021.39
557.82	43220.33
557.98	42906.70
558.15	43323.32
558.32	43337.36
558.48	42869.25
558.65	43548.01
558.81	43339.70
558.98	43103.31
559.14	43707.16
559.31	43416.94
559.47	43945.90
559.64	43971.64
559.80	43711.84
559.97	43124.37
560.13	43592.48
560.30	43421.62
560.46	43058.84
560.63	43931.86
560.79	43856.96
560.96	44105.06
561.12	43557.37
561.29	43676.74
561.45	43964.62
561.61	43337.36
561.78	43391.19
561.94	43728.23
562.11	43580.78
562.27	43508.22
562.44	44194.00
562.60	43920.15
562.77	43978.67
562.93	43983.35
563.10	44020.80
563.26	43344.38
563.42	43908.45
563.59	43690.78
563.75	43648.65
563.92	43798.44
564.08	43943.56
564.24	43665.03
564.41	44254.85
564.57	44039.52
564.74	44259.53
564.90	43742.27
565.07	43798.44
565.23	44119.10
565.39	43896.75
565.56	44229.10
565.72	44053.56
565.88	43650.99
566.05	43924.83
566.21	43852.28
566.38	43796.10
566.54	44308.68
566.70	44301.66
566.87	43892.07
567.03	44421.03
567.19	44631.68
567.36	44186.97
567.52	44055.90
567.68	44252.51
567.85	44516.99
568.01	43845.26
568.17	43875.68
568.34	44046.54
568.50	44472.52
568.66	43922.49
568.83	44222.08
568.99	44245.49
569.15	43746.95
569.32	43964.62
569.48	44191.65
569.64	44755.72
569.81	44053.56
569.97	44318.04
570.13	44357.83
570.30	44009.09
570.46	44002.07
570.62	43906.11
570.78	44009.09
570.95	44430.39
571.11	44367.20
571.27	43983.35
571.43	44598.91
571.60	44589.55
571.76	44130.80
571.92	44027.82
572.09	43917.81
572.25	44418.69
572.41	44343.79
572.57	44388.26
572.74	44378.90
572.90	44882.11
573.06	44631.68
573.22	44399.96
573.38	44294.64
573.55	44259.53
573.71	44928.92
573.87	44430.39
574.03	44147.18
574.20	44835.30
574.36	44292.30
574.52	44463.16
574.68	44678.49
574.84	44531.03
575.01	44615.29
575.17	44266.55
575.33	44402.30
575.49	44540.39
575.65	44460.82
575.82	44486.56
575.98	44329.75
576.14	44882.11
576.30	44421.03
576.46	44683.17
576.62	43845.26
576.79	44322.72
576.95	44208.04
577.11	44858.71
577.27	44882.11
577.43	44594.23
577.59	44294.64
577.75	44545.08
577.92	43871.00
578.08	43828.87
578.24	44566.14
578.40	44229.10
578.56	44409.32
578.72	44280.60
578.88	44844.66
579.04	44631.68
579.21	44575.50
579.37	44591.89
579.53	44287.62
579.69	44439.75
579.85	44596.57
580.01	44851.69
580.17	44435.07
580.33	44718.28
580.49	44531.03
580.65	44568.48
580.82	45055.31
580.98	44414.01
581.14	44313.36
581.30	44788.49
581.46	44823.60
581.62	44931.26
581.78	44477.20
581.94	44687.85
582.10	44746.36
582.26	44587.21
582.42	44601.25
582.58	44484.22
582.74	44626.99
582.90	44900.84
583.06	44406.98
583.22	44842.32
583.38	44725.30
583.54	45052.97
583.70	44879.77
583.86	45003.82
584.02	44425.71
584.18	44905.52
584.34	44788.49
584.50	44643.38
584.66	44470.18
584.82	44446.77
584.98	44753.38
585.14	44715.93
585.30	44624.65
585.46	44748.70
585.62	44238.47
585.78	44484.22
585.94	44582.52
586.10	44664.44
586.26	45102.12
586.42	44851.69
586.58	44502.95
586.74	44676.15
586.90	44619.97
587.06	44409.32
587.22	44928.92
587.38	44500.61
587.54	44954.67
587.70	44837.64
587.86	45120.85
588.02	45141.91
588.18	44664.44
588.34	44463.16
588.49	44643.38
588.65	44229.10
588.81	43915.47
588.97	44877.43
589.13	44203.36
589.29	44629.34
589.45	44610.61
589.61	44739.34
589.77	44858.71
589.93	45006.16
590.08	44872.75
590.24	44924.24
