SpectraSuite Data File
++++++++++++++++++++++++++++++++++++
Date: Fri Oct 25 11:26:38 EDT 2013
User: price-jones
Dark Spectrum Present: No
Reference Spectrum Present: No
Number of Sampled Component Spectra: 1
Spectrometers: USB2+H05261
Integration Time (usec): 100000 (USB2+H05261)
Spectra Averaged: 1 (USB2+H05261)
Boxcar Smoothing: 0 (USB2+H05261)
Correct for Electrical Dark: No (USB2+H05261)
Strobe/Lamp Enabled: No (USB2+H05261)
Correct for Detector Non-linearity: No (USB2+H05261)
Correct for Stray Light: No (USB2+H05261)
Number of Pixels in Processed Spectrum: 2048
>>>>>Begin Processed Spectral Data<<<<<
365.73	266.82
365.92	266.82
366.12	266.82
366.32	128.73
366.52	135.75
366.72	166.18
366.91	117.03
367.11	166.18
367.31	152.13
367.51	175.54
367.70	77.24
367.90	191.92
368.10	147.45
368.30	173.20
368.49	107.66
368.69	217.67
368.89	154.48
369.09	149.79
369.28	191.92
369.48	205.97
369.68	161.50
369.87	243.42
370.07	187.24
370.27	215.33
370.47	376.83
370.66	594.50
370.86	648.33
371.06	655.35
371.25	669.39
371.45	660.03
371.65	711.52
371.84	664.71
372.04	676.41
372.24	671.73
372.44	641.31
372.63	709.18
372.83	655.35
373.03	739.61
373.22	706.84
373.42	826.21
373.62	770.04
373.81	807.48
374.01	739.61
374.21	823.87
374.40	760.67
374.60	812.17
374.79	812.17
374.99	858.98
375.19	926.85
375.38	875.36
375.58	844.93
375.78	887.06
375.97	894.08
376.17	891.74
376.37	919.83
376.56	947.92
376.76	964.30
376.95	910.47
377.15	880.04
377.35	830.89
377.54	926.85
377.74	905.79
377.93	917.49
378.13	990.05
378.33	894.08
378.52	945.58
378.72	973.66
378.91	961.96
379.11	908.13
379.31	926.85
379.50	952.60
379.70	1006.43
379.89	971.32
380.09	966.64
380.28	1018.13
380.48	987.71
380.68	1022.81
380.87	961.96
381.07	1041.54
381.26	1015.79
381.46	1093.03
381.65	1048.56
381.85	1046.22
382.04	1071.97
382.24	1036.86
382.43	978.34
382.63	1095.37
382.83	1071.97
383.02	1212.40
383.22	1139.84
383.41	1100.05
383.61	1043.88
383.80	1081.33
384.00	1020.47
384.19	1130.48
384.39	1081.33
384.58	1116.44
384.78	1163.25
384.97	1156.22
385.17	1153.88
385.36	1146.86
385.56	1163.25
385.75	1146.86
385.95	1212.40
386.14	1179.63
386.34	1144.52
386.53	1226.44
386.72	1149.20
386.92	1301.34
387.11	1198.35
387.31	1355.17
387.50	1320.06
387.70	1296.66
387.89	1228.78
388.09	1245.16
388.28	1306.02
388.48	1383.26
388.67	1364.53
388.86	1399.64
389.06	1327.08
389.25	1294.32
389.45	1317.72
389.64	1397.30
389.84	1343.47
390.03	1364.53
390.22	1497.94
390.42	1380.92
390.61	1371.55
390.81	1355.17
391.00	1364.53
391.19	1462.83
391.39	1432.41
391.58	1373.89
391.78	1458.15
391.97	1547.09
392.16	1455.81
392.36	1511.99
392.55	1507.30
392.75	1434.75
392.94	1572.84
393.13	1600.93
393.33	1467.52
393.52	1481.56
393.71	1661.78
393.91	1661.78
394.10	1558.80
394.29	1717.95
394.49	1540.07
394.68	1551.78
394.88	1570.50
395.07	1596.25
395.26	1600.93
395.46	1675.82
395.65	1631.35
395.84	1671.14
396.04	1881.79
396.23	1832.64
396.42	1806.89
396.62	1774.13
396.81	1783.49
397.00	1837.32
397.19	1771.79
397.39	1834.98
397.58	1720.29
397.77	1968.39
397.97	1764.76
398.16	1874.77
398.35	1977.75
398.55	1898.17
398.74	1898.17
398.93	1949.67
399.12	1891.15
399.32	1998.82
399.51	1870.09
399.70	1930.94
399.90	2005.84
400.09	2064.35
400.28	2054.99
400.47	2057.33
400.67	2085.42
400.86	2057.33
401.05	2078.40
401.24	2174.36
401.44	2139.25
401.63	2101.80
401.82	2176.70
402.01	1991.80
402.21	2040.95
402.40	2253.94
402.59	2249.25
402.78	2160.31
402.97	2319.47
403.17	2286.70
403.36	2401.39
403.55	2186.06
403.74	2354.58
403.93	2380.32
404.13	2303.09
404.32	2462.24
404.51	2366.28
404.70	2427.14
404.89	2473.95
405.09	2415.43
405.28	2434.16
405.47	2434.16
405.66	2492.67
405.85	2480.97
406.05	2551.18
406.24	2588.63
406.43	2665.87
406.62	2658.85
406.81	2729.06
407.00	2565.23
407.20	2684.59
407.39	2644.81
407.58	2740.77
407.77	2710.34
407.96	2890.56
408.15	2712.68
408.34	2752.47
408.54	2829.71
408.73	2801.62
408.92	2832.05
409.11	2888.22
409.30	2848.43
409.49	2911.63
409.68	2977.16
409.87	2925.67
410.07	3061.42
410.26	2944.39
410.45	3023.97
410.64	3042.70
410.83	3059.08
411.02	3077.80
411.21	3178.45
411.40	3157.38
411.59	3187.81
411.78	3033.33
411.98	3255.69
412.17	3307.18
412.36	3337.60
412.55	3368.03
412.74	3368.03
412.93	3382.07
413.12	3276.75
413.31	3400.80
413.50	3342.28
413.69	3431.23
413.88	3648.90
414.07	3520.17
414.26	3520.17
414.45	3700.39
414.64	3641.87
414.83	3669.96
415.02	3763.58
415.22	3791.67
415.41	3925.08
415.60	3929.76
415.79	3908.69
415.98	4021.04
416.17	4060.83
416.36	4142.75
416.55	4077.21
416.74	3971.89
416.93	4109.98
417.12	4011.68
417.31	4173.18
417.50	4086.58
417.69	4353.40
417.88	4245.73
418.07	4372.12
418.26	4386.16
418.45	4428.29
418.64	4657.67
418.83	4299.56
419.02	4376.80
419.21	4358.08
419.39	4503.19
419.58	4442.34
419.77	4353.40
419.96	4519.57
420.15	4533.62
420.34	4601.49
420.53	4447.02
420.72	4711.50
420.91	4652.98
421.10	4683.41
421.29	4823.84
421.48	4664.69
421.67	4837.89
421.86	4636.60
422.05	4882.36
422.24	4800.44
422.43	4774.69
422.61	4924.49
422.80	4990.02
422.99	4901.08
423.18	4910.44
423.37	5107.05
423.56	4812.14
423.75	4915.12
423.94	4943.21
424.13	4645.96
424.32	4805.12
424.50	4980.66
424.69	5100.03
424.88	4999.38
425.07	4933.85
425.26	4931.51
425.45	4973.64
425.64	4999.38
425.83	4971.30
426.01	5060.24
426.20	5011.09
426.39	4952.57
426.58	5064.92
426.77	5181.95
426.96	5235.78
427.15	5256.84
427.33	5341.10
427.52	5011.09
427.71	5434.72
427.90	5167.90
428.09	5336.42
428.28	5526.00
428.46	5373.87
428.65	5528.35
428.84	5535.37
429.03	5399.62
429.22	5467.49
429.40	5380.89
429.59	5331.74
429.78	5327.06
429.97	5205.35
430.16	5453.45
430.34	5647.71
430.53	5570.48
430.72	5628.99
430.91	5626.65
431.10	5570.48
431.28	5827.93
431.47	5565.79
431.66	5865.38
431.85	5813.89
432.03	5893.47
432.22	5935.60
432.41	5970.71
432.60	5959.00
432.79	5879.43
432.97	6054.97
433.16	6036.24
433.35	5994.11
433.54	6015.18
433.72	6211.78
433.91	6132.20
434.10	6085.39
434.28	6104.12
434.47	6069.01
434.66	6349.87
434.85	6445.84
435.03	6293.70
435.22	6328.81
435.41	6415.41
435.59	6403.71
435.78	6511.37
435.97	6743.08
436.16	6408.39
436.34	6417.75
436.53	6466.90
436.72	6630.74
436.90	6560.52
437.09	6843.73
437.28	6518.39
437.46	6665.85
437.65	6623.72
437.84	6726.70
438.02	6853.09
438.21	6691.59
438.40	6747.76
438.58	6913.94
438.77	6937.35
438.96	7019.27
439.14	7183.10
439.33	7030.97
439.52	7300.13
439.70	7311.83
439.89	7124.59
440.08	7398.43
440.26	7297.79
440.45	7342.26
440.63	7545.89
440.82	7564.61
441.01	7496.74
441.19	7712.07
441.38	7749.51
441.57	7719.09
441.75	7826.75
441.94	7913.35
442.12	7964.84
442.31	8086.55
442.50	7939.10
442.68	7971.86
442.87	7988.25
443.05	8271.45
443.24	8067.83
443.43	8163.79
443.61	8243.37
443.80	8411.89
443.98	7976.55
444.17	7765.90
444.35	8222.30
444.54	8381.46
444.73	8196.56
444.91	8215.28
445.10	8182.51
445.28	8430.61
445.47	8458.70
445.65	8379.12
445.84	8278.47
446.02	8451.67
446.21	8421.25
446.39	8421.25
446.58	8531.25
446.77	8409.54
446.95	8421.25
447.14	8444.65
447.32	8503.17
447.51	8615.51
447.69	8547.64
447.88	8706.79
448.06	8493.80
448.25	8650.62
448.43	8519.55
448.62	8479.76
448.80	8594.45
448.99	8688.07
449.17	8617.85
449.36	8624.87
449.54	8994.68
449.73	9055.53
449.91	8791.05
450.10	9025.11
450.28	8929.14
450.46	9055.53
450.65	8931.48
450.83	9160.86
451.02	9156.18
451.20	9364.48
451.39	8975.95
451.57	9128.09
451.76	8973.61
451.94	9034.47
452.13	9364.48
452.31	9472.15
452.49	9336.40
452.68	9371.50
452.86	9401.93
453.05	9586.83
453.23	9544.70
453.42	9294.27
453.60	9401.93
453.78	9446.40
453.97	9502.58
454.15	9530.66
454.34	9474.49
454.52	9706.20
454.70	9584.49
454.89	9713.22
455.07	9734.29
455.26	9944.94
455.44	9923.87
455.62	9984.73
455.81	10005.79
455.99	10040.90
456.17	9951.96
456.36	10150.90
456.54	10160.27
456.73	10202.40
456.91	10256.23
457.09	10579.22
457.28	10593.26
457.46	10548.79
457.64	10537.09
457.83	10553.48
458.01	10427.09
458.19	10963.07
458.38	10679.86
458.56	10623.69
458.74	10595.61
458.93	10700.93
459.11	10834.34
459.29	10759.44
459.48	10677.52
459.66	10998.18
459.84	10949.03
460.03	11026.26
460.21	10934.98
460.39	11133.93
460.57	11150.31
460.76	11073.07
460.94	11145.63
461.12	11136.27
461.31	11234.57
461.49	11110.52
461.67	11070.73
461.85	11304.79
462.04	11274.36
462.22	11405.43
462.40	11592.67
462.59	11595.01
462.77	11389.05
462.95	11520.12
463.13	11690.98
463.32	11772.89
463.50	11791.62
463.68	11749.49
463.86	11927.37
464.05	11618.42
464.23	11737.79
464.41	11969.50
464.59	11513.10
464.78	12028.01
464.96	11913.33
465.14	12011.63
465.32	11887.58
465.50	12226.96
465.69	12461.01
465.87	12353.35
466.05	11831.41
466.23	12203.55
466.41	12131.00
466.60	12451.65
466.78	12147.38
466.96	12119.29
467.14	12332.28
467.32	12510.16
467.51	12634.21
467.69	12287.81
467.87	12606.13
468.05	12608.47
468.23	12482.08
468.41	12383.77
468.60	12465.69
468.78	12936.14
468.96	12690.38
469.14	12812.09
469.32	12994.65
469.50	12748.90
469.69	12676.34
469.87	13130.41
470.05	12910.40
470.23	13341.05
470.41	13090.62
470.59	13427.65
470.77	13287.22
470.95	13219.35
471.14	13561.06
471.32	13055.51
471.50	13612.56
471.68	13437.02
471.86	13912.14
472.04	13937.89
472.22	13867.67
472.40	13891.08
472.58	13965.98
472.77	13736.60
472.95	14188.33
473.13	14658.78
473.31	14092.37
473.49	13991.72
473.67	14176.62
473.85	14139.18
474.03	14693.88
474.21	14733.67
474.39	14752.40
474.57	14787.50
474.75	14932.62
474.93	14918.57
475.12	15075.39
475.30	15269.66
475.48	15145.61
475.66	15250.93
475.84	15356.25
476.02	15225.18
476.20	15297.74
476.38	15807.98
476.56	15960.11
476.74	15976.50
476.92	15960.11
477.10	15772.87
477.28	16208.21
477.46	15925.00
477.64	16453.97
477.82	16308.85
478.00	16915.05
478.18	16601.42
478.36	16950.16
478.54	16950.16
478.72	17200.60
478.90	17469.76
479.08	17451.03
479.26	17717.86
479.44	17818.50
479.62	18113.41
479.80	18162.56
479.98	18136.81
480.16	18501.93
480.34	18176.60
480.52	18614.28
480.70	18899.83
480.88	18555.77
481.06	18703.22
481.24	18885.78
481.41	19180.69
481.59	19330.48
481.77	19257.93
481.95	19840.72
482.13	19707.31
482.31	19969.45
482.49	20238.61
482.67	20306.49
482.85	20222.23
483.03	20482.03
483.21	20945.45
483.39	20844.81
483.57	20734.81
483.74	21172.49
483.92	21425.26
484.10	21223.98
484.28	21799.75
484.46	21884.01
484.64	22321.69
484.82	21834.86
485.00	22279.56
485.18	22611.92
485.35	22675.11
485.53	23199.39
485.71	23101.09
485.89	23388.97
486.07	23377.27
486.25	23365.57
486.43	23789.20
486.61	23873.46
486.78	23960.06
486.96	24208.16
487.14	24493.71
487.32	24542.86
487.50	24943.09
487.68	24985.22
487.85	25010.96
488.03	25586.74
488.21	25722.49
488.39	25624.18
488.57	25944.84
488.75	26087.61
488.92	26429.33
489.10	26412.95
489.28	27019.14
489.46	27119.79
489.64	27154.90
489.81	27812.59
489.99	27395.97
490.17	27625.34
490.35	27978.76
490.53	28243.24
490.70	28655.18
490.88	28355.59
491.06	28500.70
491.24	28917.32
491.41	29312.87
491.59	28938.38
491.77	29137.33
491.95	29600.76
492.13	29825.45
492.30	29900.34
492.48	30071.20
492.66	30178.87
492.84	30551.01
493.01	30581.44
493.19	30885.71
493.37	31166.57
493.54	31222.75
493.72	31337.43
493.90	31707.24
494.08	31700.22
494.25	32046.62
494.43	32088.74
494.61	32364.93
494.79	32683.24
494.96	32341.52
495.14	32580.26
495.32	32837.72
495.49	33179.43
495.67	32952.40
495.85	33696.69
496.02	34003.30
496.20	34178.84
496.38	34169.48
496.55	33556.26
496.73	34653.97
496.91	34665.67
497.09	35108.04
497.26	34937.18
497.44	35463.80
497.62	35407.62
497.79	35948.29
497.97	35325.71
498.14	35531.67
498.32	36180.00
498.50	35817.22
498.67	36547.47
498.85	36364.90
499.03	36776.84
499.20	36891.52
499.38	36741.73
499.56	37174.73
499.73	37092.81
499.91	36961.74
500.08	37586.66
500.26	37385.38
500.44	37659.22
500.61	38052.43
500.79	37799.65
500.97	38340.32
501.14	38614.16
501.32	38501.81
501.49	38532.24
501.67	38789.70
501.84	39119.71
502.02	38686.71
502.20	39049.50
502.37	39414.62
502.55	39440.37
502.72	39718.89
502.90	39445.05
503.07	39693.15
503.25	39646.33
503.43	40165.93
503.60	40402.33
503.78	40205.72
503.95	40428.07
504.13	40465.52
504.30	40603.61
504.48	40526.38
504.65	40872.78
504.83	40917.25
505.01	41322.16
505.18	41357.27
505.36	41418.12
505.53	41251.94
505.71	41661.54
505.88	42113.26
506.06	40961.72
506.23	41935.38
506.41	42078.15
506.58	42436.25
506.76	42110.92
506.93	42635.20
507.11	42492.43
507.28	42473.70
507.46	42600.09
507.63	42974.58
507.81	43271.82
507.98	43030.75
508.16	43089.26
508.33	43491.83
508.50	43147.78
508.68	43318.64
508.85	44151.87
509.03	43997.39
509.20	44140.16
509.38	44444.43
509.55	44484.22
509.73	44788.49
509.90	44381.24
510.08	44362.51
510.25	44622.31
510.42	44893.82
510.60	44676.15
510.77	45399.37
510.95	45382.99
511.12	45324.47
511.30	45081.06
511.47	45514.06
511.64	45492.99
511.82	45963.44
511.99	45521.08
512.17	46356.65
512.34	45724.71
512.51	46316.86
512.69	46494.74
512.86	46279.41
513.04	46761.56
513.21	46625.81
513.38	46454.95
513.56	46813.05
513.73	46777.95
513.90	46906.68
514.08	47178.18
514.25	47164.14
514.43	47419.25
514.60	47232.01
514.77	47512.88
514.95	47547.98
515.12	47445.00
515.29	47716.50
515.47	47707.14
515.64	48016.09
515.81	47688.42
515.99	48350.79
516.16	48673.78
516.33	48474.84
516.51	48814.21
516.68	48353.13
516.85	48432.71
517.03	48931.24
517.20	48671.44
517.37	48797.83
517.54	48837.62
517.72	48994.43
517.89	48935.92
518.06	49090.40
518.24	49394.67
518.41	49734.04
518.58	49312.75
518.75	49123.16
518.93	49874.48
519.10	49265.94
519.27	50061.72
519.45	49584.25
519.62	49778.51
519.79	50150.66
519.96	50113.21
520.14	50028.95
520.31	49996.18
520.48	50541.53
520.65	50291.09
520.83	50520.46
521.00	50534.51
521.17	50220.87
521.34	50726.43
521.52	50754.52
521.69	50726.43
521.86	51098.58
522.03	51026.02
522.20	51510.51
522.38	51311.56
522.55	51082.19
522.72	51269.43
522.89	51210.92
523.07	51842.87
523.24	51437.95
523.41	51866.27
523.58	51524.55
523.75	51831.16
523.92	51613.49
524.10	51924.78
524.27	51985.64
524.44	52135.43
524.61	51992.66
524.78	52102.67
524.96	52343.74
525.13	52168.20
525.30	52402.25
525.47	52346.08
525.64	52420.98
525.81	52800.15
525.98	52856.32
526.16	51941.17
526.33	52521.62
526.50	52968.66
526.67	52868.02
526.84	52973.34
527.01	52931.22
527.18	53123.14
527.36	52980.37
527.53	53020.16
527.70	53415.71
527.87	53336.13
528.04	52889.09
528.21	53415.71
528.38	53511.67
528.55	53439.11
528.72	53401.66
528.89	53387.62
529.07	53511.67
529.24	53237.83
529.41	53837.00
529.58	53734.02
529.75	53483.58
529.92	53778.49
530.09	54019.56
530.26	54131.91
530.43	53829.98
530.60	53727.00
530.77	54106.16
530.94	54024.25
531.11	54206.81
531.28	54057.01
531.46	53942.33
531.63	54482.99
531.80	54349.58
531.97	54431.50
532.14	54506.40
532.31	54700.66
532.48	54520.44
532.65	54588.31
532.82	54356.60
532.99	54845.77
533.16	54740.45
533.33	54756.83
533.50	54803.64
533.67	54955.78
533.84	54686.62
534.01	55058.76
534.18	54813.01
534.35	55131.32
534.52	55143.02
534.69	55051.74
534.86	55133.66
535.03	54981.52
535.20	55316.22
535.37	55463.67
535.54	55440.27
535.71	55253.03
535.88	55203.88
536.05	55454.31
536.22	55629.85
536.38	55234.30
536.55	55564.32
536.72	55391.12
536.89	55217.92
537.06	55641.56
537.23	55494.10
537.40	55547.93
537.57	55683.69
537.74	55594.74
537.91	55938.80
538.08	56102.64
538.25	55826.46
538.42	55849.86
538.59	55948.17
538.75	55966.89
538.92	55866.25
539.09	56364.78
539.26	56205.62
539.43	56053.49
539.60	56404.57
539.77	56275.84
539.94	56591.81
540.11	56334.35
540.28	56390.53
540.44	56624.58
540.61	56451.38
540.78	56388.19
540.95	56449.04
541.12	56355.42
541.29	56336.69
541.46	56502.87
541.62	56776.72
541.79	56790.76
541.96	56676.07
542.13	56573.09
542.30	56765.01
542.47	56858.63
542.63	56802.46
542.80	56896.08
542.97	57111.41
543.14	57106.73
543.31	57202.69
543.48	57467.17
543.64	57427.38
543.81	57371.21
543.98	57523.35
544.15	57270.57
544.32	57565.48
544.48	57577.18
544.65	57275.25
544.82	57525.69
544.99	57031.83
545.16	57403.98
545.32	57588.88
545.49	57808.89
545.66	57684.84
545.83	57673.14
546.00	57834.64
546.16	57771.44
546.33	57506.96
546.50	57315.04
546.67	57701.23
546.83	57619.31
547.00	57820.59
547.17	57937.62
547.34	57865.06
547.50	57762.08
547.67	58152.95
547.84	58117.84
548.00	57876.77
548.17	58232.53
548.34	58277.00
548.51	58134.23
548.67	58431.47
548.84	57925.92
549.01	58138.91
549.18	58127.20
549.34	58042.95
549.51	58253.59
549.68	58309.77
549.84	58288.70
550.01	58143.59
550.18	58309.77
550.34	58674.89
550.51	58642.12
550.68	58518.07
550.84	58387.00
551.01	58670.21
551.18	58335.51
551.34	58293.38
551.51	58665.53
551.68	58534.46
551.84	58646.80
552.01	58218.49
552.18	58801.28
552.34	58553.18
552.51	58698.30
552.68	58660.85
552.84	58686.59
553.01	58866.81
553.18	58702.98
553.34	58733.40
553.51	58770.85
553.67	58810.64
553.84	59018.95
554.01	59065.76
554.17	59037.67
554.34	58969.80
554.51	59040.01
554.67	59042.35
554.84	58894.90
555.00	59201.51
555.17	59110.23
555.33	59084.48
555.50	58939.37
555.67	59047.04
555.83	59063.42
556.00	59007.25
556.16	59402.80
556.33	59290.45
556.50	59135.98
556.66	59355.99
556.83	59086.82
556.99	59117.25
557.16	59477.69
557.32	59386.41
557.49	59608.76
557.65	59231.94
557.82	59470.67
557.98	59332.58
558.15	59210.87
558.32	59341.94
558.48	59339.60
558.65	59330.24
558.81	59477.69
558.98	59744.51
559.14	59477.69
559.31	59583.02
559.47	59643.87
559.64	59756.22
559.80	59817.07
559.97	59772.60
560.13	59601.74
560.30	59700.04
560.46	59756.22
560.63	59910.69
560.79	60039.42
560.96	59678.98
561.12	60004.31
561.29	59611.10
561.45	59700.04
561.61	59800.69
561.78	59800.69
561.94	59791.33
562.11	59763.24
562.27	59777.28
562.44	59852.18
562.60	60018.36
562.77	59938.78
562.93	59807.71
563.10	60044.10
563.26	60111.98
563.42	60303.90
563.59	60130.70
563.75	59966.87
563.92	59842.82
564.08	60137.72
564.24	60140.07
564.41	59966.87
564.57	60231.35
564.74	60030.06
564.90	60198.58
565.07	60212.62
565.23	60053.47
565.39	60100.28
565.56	60074.53
565.72	60041.76
565.88	60341.35
566.05	60097.94
566.21	60259.43
566.38	59973.89
566.54	60128.36
566.70	60135.38
566.87	60273.48
567.03	60322.63
567.19	60390.50
567.36	60247.73
567.52	60310.92
567.68	60329.65
567.85	60360.08
568.01	60362.42
568.17	60252.41
568.34	60350.71
568.50	60404.55
568.66	60257.09
568.83	60498.17
568.99	60425.61
569.15	60566.04
569.32	60371.78
569.48	60390.50
569.64	60411.57
569.81	60453.70
569.97	60350.71
570.13	60360.08
570.30	60261.77
570.46	60449.02
570.62	60320.29
570.78	60617.53
570.95	60559.02
571.11	60612.85
571.27	60540.30
571.43	60456.04
571.60	60699.45
571.76	60715.84
571.92	60617.53
572.09	60554.34
572.25	60575.40
572.41	60456.04
572.57	60547.32
572.74	60617.53
572.90	60537.96
573.06	60441.99
573.22	60540.30
573.38	60708.82
573.55	60500.51
573.71	60905.42
573.87	60816.48
574.03	60591.79
574.20	60727.54
574.36	60596.47
574.52	60811.80
574.68	60732.22
574.84	60781.37
575.01	60886.70
575.17	60772.01
575.33	60453.70
575.49	60652.64
575.65	60647.96
575.82	60839.89
575.98	60748.60
576.14	60849.25
576.30	60741.58
576.46	60725.20
576.62	60643.28
576.79	60678.39
576.95	60664.35
577.11	60666.69
577.27	60912.44
577.43	60900.74
577.59	60795.42
577.75	60947.55
577.92	60692.43
578.08	60694.77
578.24	60790.73
578.40	60992.02
578.56	61041.17
578.72	60966.27
578.88	61055.21
579.04	61113.73
579.21	60867.97
579.37	60786.05
579.53	60924.14
579.69	60575.40
579.85	60757.97
580.01	60797.76
580.17	60790.73
580.33	61006.06
580.49	60853.93
580.65	60938.19
580.82	60692.43
580.98	60697.11
581.14	61003.72
581.30	60949.89
581.46	60835.20
581.62	60961.59
581.78	60842.23
581.94	61155.86
582.10	60877.33
582.26	60977.98
582.42	60804.78
582.58	60954.57
582.74	61022.45
582.90	61017.77
583.06	60938.19
583.22	60821.16
583.38	60886.70
583.54	60903.08
583.70	61029.47
583.86	60879.67
584.02	60882.02
584.18	60956.91
584.34	60931.17
584.50	60914.78
584.66	60947.55
584.82	60987.34
584.98	61359.48
585.14	61041.17
585.30	60867.97
585.46	60980.32
585.62	60886.70
585.78	61205.01
585.94	60516.89
586.10	60860.95
586.26	61024.79
586.42	61111.39
586.58	61073.94
586.74	61017.77
586.90	60999.04
587.06	60959.25
587.22	61247.14
587.38	61099.68
587.54	61258.84
587.70	61310.33
587.86	60989.68
588.02	61059.90
588.18	61099.68
588.34	60985.00
588.49	61080.96
