SpectraSuite Data File
++++++++++++++++++++++++++++++++++++
Date: Fri Oct 25 11:23:38 EDT 2013
User: price-jones
Dark Spectrum Present: No
Reference Spectrum Present: No
Number of Sampled Component Spectra: 1
Spectrometers: USB2+H05261
Integration Time (usec): 100000 (USB2+H05261)
Spectra Averaged: 1 (USB2+H05261)
Boxcar Smoothing: 0 (USB2+H05261)
Correct for Electrical Dark: No (USB2+H05261)
Strobe/Lamp Enabled: No (USB2+H05261)
Correct for Detector Non-linearity: No (USB2+H05261)
Correct for Stray Light: No (USB2+H05261)
Number of Pixels in Processed Spectrum: 2048
>>>>>Begin Processed Spectral Data<<<<<
365.73	203.63
365.92	203.63
366.12	203.63
366.32	156.82
366.52	177.88
366.72	173.20
366.91	131.07
367.11	149.79
367.31	128.73
367.51	114.69
367.70	98.30
367.90	203.63
368.10	119.37
368.30	140.43
368.49	105.32
368.69	121.71
368.89	126.39
369.09	84.26
369.28	138.09
369.48	201.29
369.68	126.39
369.87	262.14
370.07	163.84
370.27	189.58
370.47	266.82
370.66	634.29
370.86	667.05
371.06	622.58
371.25	648.33
371.45	650.67
371.65	622.58
371.84	706.84
372.04	713.86
372.24	634.29
372.44	671.73
372.63	713.86
372.83	739.61
373.03	748.97
373.22	807.48
373.42	814.51
373.62	739.61
373.81	851.96
374.01	912.81
374.21	844.93
374.40	793.44
374.60	875.36
374.79	753.65
374.99	856.64
375.19	842.59
375.38	833.23
375.58	800.46
375.78	856.64
375.97	861.32
376.17	882.38
376.37	800.46
376.56	795.78
376.76	905.79
376.95	798.12
377.15	861.32
377.35	905.79
377.54	961.96
377.74	849.61
377.93	884.72
378.13	884.72
378.33	926.85
378.52	884.72
378.72	959.62
378.91	971.32
379.11	931.53
379.31	910.47
379.50	898.77
379.70	976.00
379.89	992.39
380.09	964.30
380.28	987.71
380.48	940.90
380.68	999.41
380.87	1046.22
381.07	1032.18
381.26	1053.24
381.46	1025.15
381.65	1086.01
381.85	1004.09
382.04	1102.39
382.24	1071.97
382.43	1078.99
382.63	1071.97
382.83	1090.69
383.02	1076.65
383.22	1196.01
383.41	1097.71
383.61	1097.71
383.80	1083.67
384.00	1123.46
384.19	1198.35
384.39	1144.52
384.58	1167.93
384.78	1188.99
384.97	1135.16
385.17	1149.20
385.36	1170.27
385.56	1200.69
385.75	1198.35
385.95	1203.04
386.14	1254.53
386.34	1177.29
386.53	1242.82
386.72	1130.48
386.92	1181.97
387.11	1090.69
387.31	1254.53
387.50	1174.95
387.70	1167.93
387.89	1226.44
388.09	1303.68
388.28	1315.38
388.48	1355.17
388.67	1240.48
388.86	1273.25
389.06	1303.68
389.25	1385.60
389.45	1394.96
389.64	1287.29
389.84	1401.98
390.03	1390.28
390.22	1446.45
390.42	1427.73
390.61	1357.51
390.81	1301.34
391.00	1329.42
391.19	1481.56
391.39	1401.98
391.58	1444.11
391.78	1425.39
391.97	1467.52
392.16	1472.20
392.36	1371.55
392.55	1427.73
392.75	1544.75
392.94	1514.33
393.13	1558.80
393.33	1547.09
393.52	1605.61
393.71	1547.09
393.91	1589.22
394.10	1486.24
394.29	1596.25
394.49	1575.18
394.68	1661.78
394.88	1533.05
395.07	1619.65
395.26	1685.19
395.46	1715.61
395.65	1746.04
395.84	1678.16
396.04	1701.57
396.23	1813.92
396.42	1626.67
396.62	1668.80
396.81	1741.36
397.00	1830.30
397.19	1809.23
397.39	1802.21
397.58	1755.40
397.77	1858.39
397.97	1750.72
398.16	1907.54
398.35	1851.36
398.55	1919.24
398.74	1849.02
398.93	1909.88
399.12	1916.90
399.32	1982.43
399.51	1991.80
399.70	1881.79
399.90	2038.61
400.09	1994.14
400.28	2057.33
400.47	2125.21
400.67	2012.86
400.86	1989.46
401.05	2045.63
401.24	2120.53
401.44	1996.48
401.63	2111.16
401.82	2113.50
402.01	2104.14
402.21	2160.31
402.40	2169.68
402.59	2179.04
402.78	2209.47
402.97	2132.23
403.17	2314.79
403.36	2366.28
403.55	2223.51
403.74	2225.85
403.93	2333.51
404.13	2415.43
404.32	2417.77
404.51	2373.30
404.70	2389.69
404.89	2356.92
405.09	2544.16
405.28	2422.45
405.47	2457.56
405.66	2553.52
405.85	2525.44
406.05	2569.91
406.24	2492.67
406.43	2644.81
406.62	2473.95
406.81	2616.72
407.00	2642.46
407.20	2612.04
407.39	2502.03
407.58	2677.57
407.77	2764.17
407.96	2708.00
408.15	2712.68
408.34	2710.34
408.54	2705.66
408.73	2745.45
408.92	2740.77
409.11	2883.54
409.30	2874.18
409.49	2829.71
409.68	2991.20
409.87	2895.24
410.07	2899.92
410.26	2906.95
410.45	3061.42
410.64	2920.99
410.83	3075.46
411.02	3056.74
411.21	3276.75
411.40	3169.09
411.59	3080.14
411.78	3283.77
411.98	3272.07
412.17	3293.13
412.36	3379.73
412.55	3314.20
412.74	3449.95
412.93	3456.97
413.12	3295.47
413.31	3576.34
413.50	3384.41
413.69	3461.65
413.88	3506.12
414.07	3574.00
414.26	3595.06
414.45	3585.70
414.64	3648.90
414.83	3768.26
415.02	3943.80
415.22	3779.97
415.41	3875.93
415.60	4002.32
415.79	3988.27
415.98	4016.36
416.17	4030.40
416.36	3941.46
416.55	3999.98
416.74	4070.19
416.93	4030.40
417.12	4131.05
417.31	4159.13
417.50	4053.81
417.69	4341.69
417.88	4271.48
418.07	4201.26
418.26	4224.67
418.45	4386.16
418.64	4447.02
418.83	4533.62
419.02	4407.23
419.21	4542.98
419.39	4503.19
419.58	4397.87
419.77	4409.57
419.96	4634.26
420.15	4479.79
420.34	4662.35
420.53	4645.96
420.72	4606.17
420.91	4610.86
421.10	4741.93
421.29	4828.53
421.48	4734.90
421.67	4828.53
421.86	4880.02
422.05	4837.89
422.24	4723.20
422.43	4842.57
422.61	4875.34
422.80	5004.07
422.99	4966.62
423.18	4933.85
423.37	4751.29
423.56	4896.40
423.75	4990.02
423.94	4898.74
424.13	4596.81
424.32	4746.61
424.50	4931.51
424.69	4924.49
424.88	5130.45
425.07	4830.87
425.26	4819.16
425.45	5046.20
425.64	5071.94
425.83	5069.60
426.01	5177.26
426.20	5083.64
426.39	5191.31
426.58	4983.00
426.77	5039.17
426.96	5217.05
427.15	5128.11
427.33	5181.95
427.52	5158.54
427.71	5284.93
427.90	5198.33
428.09	5294.29
428.28	5357.49
428.46	5401.96
428.65	5437.06
428.84	5425.36
429.03	5598.56
429.22	5575.16
429.40	5561.11
429.59	5378.55
429.78	5341.10
429.97	5341.10
430.16	5460.47
430.34	5596.22
430.53	5706.23
430.72	5727.29
430.91	5703.89
431.10	5575.16
431.28	5687.50
431.47	5893.47
431.66	5755.38
431.85	5708.57
432.03	5720.27
432.22	6019.86
432.41	5746.02
432.60	5841.98
432.79	6036.24
432.97	5947.30
433.16	6150.93
433.35	5951.98
433.54	6094.76
433.72	6270.30
433.91	6113.48
434.10	6071.35
434.28	6361.58
434.47	6303.06
434.66	6274.98
434.85	6171.99
435.03	6370.94
435.22	6307.74
435.41	6466.90
435.59	6492.65
435.78	6410.73
435.97	6490.31
436.16	6548.82
436.34	6525.41
436.53	6586.27
436.72	6743.08
436.90	6583.93
437.09	6803.94
437.28	6572.22
437.46	6579.25
437.65	6658.82
437.84	6736.06
438.02	6810.96
438.21	6628.40
438.40	6778.19
438.58	7059.06
438.77	7098.84
438.96	7054.37
439.14	7197.15
439.33	7037.99
439.52	7150.34
439.70	7302.47
439.89	7368.01
440.08	7412.48
440.26	7201.83
440.45	7417.16
440.63	7496.74
440.82	7595.04
441.01	7590.36
441.19	7513.12
441.38	7784.62
441.57	7573.97
441.75	7793.98
441.94	7934.42
442.12	7955.48
442.31	8128.68
442.50	8112.30
442.68	7920.37
442.87	7988.25
443.05	8072.51
443.24	8138.04
443.43	8322.94
443.61	8168.47
443.80	8484.44
443.98	8025.70
444.17	7978.89
444.35	8234.00
444.54	8425.93
444.73	8430.61
444.91	8446.99
445.10	8428.27
445.28	8341.67
445.47	8180.17
445.65	8311.24
445.84	8514.87
446.02	8526.57
446.21	8365.07
446.39	8306.56
446.58	8477.42
446.77	8336.99
446.95	8287.84
447.14	8514.87
447.32	8669.34
447.51	8510.19
447.69	8489.12
447.88	8444.65
448.06	8603.81
448.25	8557.00
448.43	8657.64
448.62	8507.85
448.80	8587.43
448.99	8711.47
449.17	8926.80
449.36	8716.16
449.54	8891.70
449.73	9001.70
449.91	9008.72
450.10	8987.66
450.28	9062.55
450.46	9240.44
450.65	9195.96
450.83	9247.46
451.02	9095.32
451.20	9139.79
451.39	9158.52
451.57	9116.39
451.76	9249.80
451.94	9320.01
452.13	9163.20
452.31	9341.08
452.49	9029.79
452.68	9437.04
452.86	9345.76
453.05	9750.67
453.23	9411.29
453.42	9408.95
453.60	9320.01
453.78	9544.70
453.97	9317.67
454.15	9516.62
454.34	9530.66
454.52	9731.95
454.70	9745.99
454.89	9767.06
455.07	9865.36
455.26	9771.74
455.44	9914.51
455.62	9848.97
455.81	10085.37
455.99	10076.01
456.17	10038.56
456.36	9984.73
456.54	10167.29
456.73	10272.61
456.91	10281.97
457.09	10221.12
457.28	10501.98
457.46	10415.38
457.64	10487.94
457.83	10628.37
458.01	10417.72
458.19	10759.44
458.38	10473.90
458.56	10747.74
458.74	10576.88
458.93	10677.52
459.11	10511.35
459.29	10649.44
459.48	10782.85
459.66	10679.86
459.84	10740.72
460.03	11098.82
460.21	11199.46
460.39	11129.25
460.57	11026.26
460.76	11080.10
460.94	11253.30
461.12	11288.40
461.31	11154.99
461.49	10998.18
461.67	11190.10
461.85	11527.14
462.04	11515.44
462.22	11613.74
462.40	11545.86
462.59	11520.12
462.77	11442.88
462.95	11576.29
463.13	11641.82
463.32	11646.51
463.50	11852.47
463.68	11927.37
463.86	12020.99
464.05	11389.05
464.23	11765.87
464.41	12156.74
464.59	11702.68
464.78	12287.81
464.96	12011.63
465.14	12020.99
465.32	12028.01
465.50	12301.86
465.69	11885.24
465.87	12056.10
466.05	12222.28
466.23	12121.63
466.41	12070.14
466.60	12306.54
466.78	12138.02
466.96	12166.10
467.14	12365.05
467.32	12376.75
467.51	12592.08
467.69	12058.44
467.87	12645.91
468.05	12776.98
468.23	12638.89
468.41	12528.89
468.60	12861.24
468.78	12891.67
468.96	12636.55
469.14	12711.45
469.32	12943.16
469.50	12784.01
469.69	12936.14
469.87	12980.61
470.05	13083.59
470.23	13226.37
470.41	13273.18
470.59	13523.62
470.77	13221.69
470.95	13088.28
471.14	13514.25
471.32	13032.10
471.50	13713.20
471.68	13640.64
471.86	13528.30
472.04	13769.37
472.22	14064.28
472.40	13729.58
472.58	13940.23
472.77	14197.69
472.95	14195.35
473.13	14499.62
473.31	14008.11
473.49	14251.52
473.67	14193.01
473.85	14263.22
474.03	14626.01
474.21	14630.69
474.39	14771.12
474.57	14920.92
474.75	14682.18
474.93	15089.43
475.12	14993.47
475.30	14831.97
475.48	15260.29
475.66	15096.46
475.84	15187.74
476.02	15386.68
476.20	15417.11
476.38	15901.60
476.56	16091.18
476.74	16004.58
476.92	15978.84
477.10	15730.74
477.28	16236.30
477.46	16318.22
477.64	16369.71
477.82	16636.53
478.00	17046.12
478.18	16484.39
478.36	16908.03
478.54	16919.73
478.72	17511.89
478.90	17654.66
479.08	17539.97
479.26	17729.56
479.44	17568.06
479.62	17811.48
479.80	18274.90
479.98	18424.70
480.16	18654.07
480.34	18403.63
480.52	18794.50
480.70	18677.48
480.88	18253.84
481.06	18967.70
481.24	18829.61
481.41	19066.00
481.59	19278.99
481.77	19346.87
481.95	19599.65
482.13	19634.75
482.31	19967.11
482.49	20074.77
482.67	20575.65
482.85	20264.36
483.03	20783.96
483.21	20898.64
483.39	21238.02
483.57	20830.77
483.74	21076.52
483.92	21511.86
484.10	21268.45
484.28	21888.69
484.46	22319.35
484.64	22141.47
484.82	22101.68
485.00	22314.67
485.18	22579.15
485.35	22885.76
485.53	22909.16
485.71	22937.25
485.89	23606.64
486.07	23269.61
486.25	23625.37
486.43	23601.96
486.61	23800.91
486.78	24107.52
486.96	24311.14
487.14	24432.85
487.32	24467.96
487.50	24844.79
487.68	25153.74
487.85	25193.53
488.03	25282.47
488.21	25954.20
488.39	25785.68
488.57	26265.49
488.75	26305.28
488.92	26546.36
489.10	26733.60
489.28	26850.63
489.46	27557.47
489.64	27028.51
489.81	27948.34
489.99	27747.05
490.17	27672.15
490.35	28360.27
490.53	28240.90
490.70	28613.05
490.88	28507.72
491.06	29118.60
491.24	28879.87
491.41	29422.87
491.59	29373.72
491.77	29539.90
491.95	29598.41
492.13	30003.33
492.30	30162.48
492.48	30202.27
492.66	30389.52
492.84	30354.41
493.01	30576.76
493.19	30731.23
493.37	31110.40
493.54	31318.71
493.72	31704.90
493.90	31744.69
494.08	32039.59
494.25	32432.80
494.43	31999.80
494.61	32608.34
494.79	32613.02
494.96	32535.79
495.14	32713.67
495.32	32945.38
495.49	33284.76
495.67	33352.63
495.85	33677.97
496.02	33689.67
496.20	34089.90
496.38	34136.71
496.55	34251.40
496.73	34761.64
496.91	34593.12
497.09	34988.67
497.26	35161.87
497.44	35124.42
497.62	35271.87
497.79	35978.72
497.97	35384.22
498.14	35943.61
498.32	36491.29
498.50	36208.09
498.67	36500.65
498.85	36339.16
499.03	37020.25
499.20	36552.15
499.38	36935.99
499.56	37212.18
499.73	37535.17
499.91	37298.78
500.08	37635.81
500.26	37500.06
500.44	37488.36
500.61	37823.06
500.79	37668.58
500.97	38586.07
501.14	38281.80
501.32	38576.71
501.49	38209.25
501.67	38785.02
501.84	39002.69
502.02	38642.24
502.20	38890.34
502.37	39463.77
502.55	39461.43
502.72	39313.98
502.90	39938.90
503.07	39576.12
503.25	39896.77
503.43	39618.25
503.60	40102.74
503.78	40018.48
503.95	40367.22
504.13	40444.46
504.30	40601.27
504.48	40095.72
504.65	41219.17
504.83	41235.56
505.01	41120.87
505.18	41195.77
505.36	41771.54
505.53	41464.93
505.71	41450.89
505.88	41972.83
506.06	41600.68
506.23	42176.45
506.41	41855.80
506.58	42251.35
506.76	42293.48
506.93	42646.90
507.11	42574.34
507.28	42747.54
507.46	42834.14
507.63	43234.38
507.81	43079.90
507.98	43117.35
508.16	43440.34
508.33	43033.09
508.50	43594.82
508.68	43791.42
508.85	43700.14
509.03	43655.67
509.20	44296.98
509.38	44435.07
509.55	44816.58
509.73	44643.38
509.90	44842.32
510.08	44748.70
510.25	44596.57
510.42	44795.51
510.60	44968.71
510.77	45249.58
510.95	45500.01
511.12	45003.82
511.30	45577.25
511.47	45553.85
511.64	45780.88
511.82	45769.18
511.99	45619.38
512.17	45654.49
512.34	45893.22
512.51	45940.04
512.69	46623.47
512.86	46162.39
513.04	46761.56
513.21	46719.43
513.38	46731.14
513.56	47189.88
513.73	46623.47
513.90	46904.34
514.08	46782.63
514.25	47496.49
514.43	47353.72
514.60	47606.50
514.77	47639.26
514.95	47622.88
515.12	47634.58
515.29	47665.01
515.47	48177.59
515.64	47945.87
515.81	47962.26
515.99	48058.22
516.16	48715.91
516.33	48020.77
516.51	48685.48
516.68	48538.03
516.85	48509.94
517.03	48996.77
517.20	49263.60
517.37	48781.45
517.54	49097.42
517.72	48945.28
517.89	49022.52
518.06	49432.11
518.24	49432.11
518.41	49277.64
518.58	49666.17
518.75	49617.02
518.93	49940.01
519.10	49415.73
519.27	49177.00
519.45	49741.06
519.62	50244.28
519.79	49993.84
519.96	50047.68
520.14	50218.53
520.31	50150.66
520.48	50148.32
520.65	50417.48
520.83	50681.96
521.00	50726.43
521.17	50532.17
521.34	50901.97
521.52	51203.90
521.69	50862.18
521.86	50824.73
522.03	51447.32
522.20	51672.01
522.38	51742.22
522.55	51463.70
522.72	51253.05
522.89	51278.80
523.07	51995.00
523.24	51632.22
523.41	51627.54
523.58	51714.14
523.75	51868.61
523.92	51608.81
524.10	52189.27
524.27	51938.83
524.44	52175.22
524.61	52310.97
524.78	52341.40
524.96	52547.37
525.13	52198.63
525.30	52402.25
525.47	52545.03
525.64	52645.67
525.81	52685.46
525.98	52701.84
526.16	52687.80
526.33	52540.35
526.50	52994.41
526.67	52575.45
526.84	52889.09
527.01	52898.45
527.18	53057.60
527.36	53015.47
527.53	52959.30
527.70	53619.33
527.87	53371.24
528.04	53406.34
528.21	53759.76
528.38	53268.25
528.55	53511.67
528.72	53422.73
528.89	53567.84
529.07	53207.40
529.24	53563.16
529.41	53647.42
529.58	53881.47
529.75	53750.40
529.92	53750.40
530.09	53848.71
530.26	54080.42
530.43	54108.50
530.60	54057.01
530.77	53897.86
530.94	54426.82
531.11	54197.44
531.28	53977.43
531.46	54480.65
531.63	54279.36
531.80	54307.45
531.97	54585.97
532.14	54759.17
532.31	54487.67
532.48	54466.61
532.65	54660.87
532.82	54665.55
532.99	54948.76
533.16	54382.35
533.33	54967.48
533.50	54794.28
533.67	55033.02
533.84	54705.34
534.01	55117.28
534.18	54920.67
534.35	55171.11
534.52	55220.26
534.69	55143.02
534.86	55356.01
535.03	55126.64
535.20	55215.58
535.37	55498.78
535.54	55461.33
535.71	55281.11
535.88	55501.12
536.05	55522.19
536.22	55634.53
536.38	55751.56
536.55	55681.34
536.72	55917.74
536.89	55718.79
537.06	55711.77
537.23	55913.06
537.40	55679.00
537.57	55803.05
537.74	55798.37
537.91	55978.59
538.08	56126.05
538.25	55847.52
538.42	55971.57
538.59	56088.60
538.75	55908.38
538.92	56044.13
539.09	56285.20
539.26	56315.63
539.43	56147.11
539.60	56154.13
539.77	56243.07
539.94	56638.62
540.11	56584.79
540.28	56554.36
540.44	56453.72
540.61	56659.69
540.78	56526.28
540.95	56603.52
541.12	56495.85
541.29	56332.01
541.46	56530.96
541.62	56601.18
541.79	56664.37
541.96	56294.56
542.13	56629.26
542.30	56680.75
542.47	56757.99
542.63	56912.47
542.80	56741.61
542.97	57205.03
543.14	57429.72
543.31	57209.71
543.48	57319.72
543.64	57553.77
543.81	57497.60
543.98	57368.87
544.15	57602.92
544.32	57481.22
544.48	57375.89
544.65	57476.54
544.82	57394.62
544.99	57481.22
545.16	57675.48
545.32	57567.82
545.49	57834.64
545.66	57893.15
545.83	57890.81
546.00	57766.76
546.16	57895.49
546.33	57595.90
546.50	57748.04
546.67	57783.15
546.83	57385.25
547.00	57937.62
547.17	57914.22
547.34	57937.62
547.50	57944.64
547.67	57998.48
547.84	58279.34
548.00	57865.06
548.17	58059.33
548.34	58192.74
548.51	58424.45
548.67	58138.91
548.84	58113.16
549.01	58005.50
549.18	58199.76
549.34	58262.96
549.51	58319.13
549.68	58497.01
549.84	58363.60
550.01	58433.81
550.18	58452.54
550.34	58550.84
550.51	58408.07
550.68	58471.26
550.84	58382.32
551.01	58492.33
551.18	58585.95
551.34	58679.57
551.51	58569.57
551.68	58557.86
551.84	58609.35
552.01	58429.13
552.18	58801.28
552.34	58585.95
552.51	58777.87
552.68	58700.64
552.84	58679.57
553.01	58962.78
553.18	58878.52
553.34	58932.35
553.51	58815.32
553.67	58857.45
553.84	58960.44
554.01	59004.91
554.17	59114.91
554.34	59131.29
554.51	58918.31
554.67	59119.59
554.84	59185.13
555.00	59077.46
555.17	58871.49
555.33	59096.19
555.50	59002.56
555.67	59121.93
555.83	59203.85
556.00	59311.52
556.16	59384.07
556.33	59285.77
556.50	59365.35
556.66	59309.18
556.83	59262.36
556.99	59306.83
557.16	59484.72
557.32	59538.55
557.49	59571.32
557.65	59091.51
557.82	59538.55
557.98	59437.90
558.15	59578.34
558.32	59674.30
558.48	59267.05
558.65	59400.46
558.81	59568.97
558.98	59615.79
559.14	59643.87
559.31	59554.93
559.47	59859.20
559.64	59758.56
559.80	59746.86
559.97	59849.84
560.13	59601.74
560.30	59756.22
560.46	59648.55
560.63	59587.70
560.79	59821.75
560.96	59781.96
561.12	59814.73
561.29	59777.28
561.45	59863.88
561.61	59990.27
561.78	60100.28
561.94	59906.01
562.11	59917.71
562.27	59922.40
562.44	60018.36
562.60	60116.66
562.77	60212.62
562.93	59856.86
563.10	59985.59
563.26	59849.84
563.42	60212.62
563.59	60107.30
563.75	60121.34
563.92	60175.17
564.08	60198.58
564.24	60203.26
564.41	60231.35
564.57	60229.01
564.74	60355.39
564.90	60231.35
565.07	60247.73
565.23	60121.34
565.39	60088.57
565.56	60191.56
565.72	60275.82
565.88	60245.39
566.05	60182.19
566.21	60271.14
566.38	60289.86
566.54	60236.03
566.70	60369.44
566.87	60456.04
567.03	60182.19
567.19	60472.42
567.36	60334.33
567.52	60411.57
567.68	60444.33
567.85	60406.89
568.01	60502.85
568.17	60378.80
568.34	60559.02
568.50	60463.06
568.66	60189.22
568.83	60591.79
568.99	60357.74
569.15	60411.57
569.32	60348.37
569.48	60339.01
569.64	60481.78
569.81	60453.70
569.97	60505.19
570.13	60409.23
570.30	60310.92
570.46	60610.51
570.62	60554.34
570.78	60605.83
570.95	60547.32
571.11	60823.50
571.27	60650.30
571.43	60629.24
571.60	60835.20
571.76	60552.00
571.92	60650.30
572.09	60561.36
572.25	60690.09
572.41	60535.62
572.57	60697.11
572.74	60968.61
572.90	60729.88
573.06	60662.00
573.22	60750.94
573.38	60720.52
573.55	60856.27
573.71	60924.14
573.87	60863.29
574.03	60523.91
574.20	60797.76
574.36	60577.75
574.52	60947.55
574.68	60739.24
574.84	60980.32
575.01	60734.56
575.17	60692.43
575.33	60650.30
575.49	60662.00
575.65	60734.56
575.82	60898.40
575.98	61008.40
576.14	60917.12
576.30	60753.29
576.46	60753.29
576.62	60495.83
576.79	60907.76
576.95	60683.07
577.11	60729.88
577.27	60921.80
577.43	60956.91
577.59	60870.31
577.75	60746.26
577.92	60629.24
578.08	60874.99
578.24	60917.12
578.40	61118.41
578.56	61001.38
578.72	60853.93
578.88	61031.81
579.04	61080.96
579.21	61099.68
579.37	60893.72
579.53	60945.21
579.69	60760.31
579.85	60896.06
580.01	60917.12
580.17	60795.42
580.33	60914.78
580.49	61141.81
580.65	61003.72
580.82	60959.25
580.98	61006.06
581.14	60926.49
581.30	61062.24
581.46	60879.67
581.62	60884.36
581.78	60800.10
581.94	61048.19
582.10	60938.19
582.26	60870.31
582.42	61118.41
582.58	61055.21
582.74	60889.04
582.90	61087.98
583.06	60800.10
583.22	60708.82
583.38	61095.00
583.54	61176.92
583.70	61111.39
583.86	61141.81
584.02	60877.33
584.18	61179.26
584.34	60970.96
584.50	60966.27
584.66	60860.95
584.82	60860.95
584.98	61181.60
585.14	61132.45
585.30	61127.77
585.46	60961.59
585.62	61200.33
585.78	61144.16
585.94	60975.64
586.10	61010.74
586.26	61186.28
586.42	61242.46
586.58	61235.44
586.74	61113.73
586.90	61001.38
587.06	61221.39
587.22	61052.87
587.38	61099.68
587.54	61209.69
587.70	61338.42
587.86	61134.79
588.02	61109.05
588.18	61380.55
588.34	60956.91
588.49	60970.96
