SpectraSuite Data File
++++++++++++++++++++++++++++++++++++
Date: Fri Oct 25 11:23:18 EDT 2013
User: price-jones
Dark Spectrum Present: No
Reference Spectrum Present: No
Number of Sampled Component Spectra: 1
Spectrometers: USB2+H05261
Integration Time (usec): 100000 (USB2+H05261)
Spectra Averaged: 1 (USB2+H05261)
Boxcar Smoothing: 0 (USB2+H05261)
Correct for Electrical Dark: No (USB2+H05261)
Strobe/Lamp Enabled: No (USB2+H05261)
Correct for Detector Non-linearity: No (USB2+H05261)
Correct for Stray Light: No (USB2+H05261)
Number of Pixels in Processed Spectrum: 2048
>>>>>Begin Processed Spectral Data<<<<<
365.73	203.63
365.92	203.63
366.12	203.63
366.32	135.75
366.52	145.11
366.72	208.31
366.91	117.03
367.11	117.03
367.31	107.66
367.51	149.79
367.70	159.16
367.90	107.66
368.10	107.66
368.30	65.54
368.49	128.73
368.69	175.54
368.89	170.86
369.09	194.26
369.28	175.54
369.48	100.64
369.68	205.97
369.87	154.48
370.07	131.07
370.27	248.10
370.47	383.85
370.66	620.24
370.86	594.50
371.06	713.86
371.25	741.95
371.45	669.39
371.65	699.82
371.84	692.80
372.04	716.20
372.24	692.80
372.44	711.52
372.63	702.16
372.83	758.33
373.03	718.54
373.22	753.65
373.42	716.20
373.62	730.25
373.81	800.46
374.01	791.10
374.21	777.06
374.40	777.06
374.60	880.04
374.79	870.68
374.99	741.95
375.19	821.53
375.38	870.68
375.58	861.32
375.78	849.61
375.97	966.64
376.17	868.34
376.37	774.72
376.56	933.87
376.76	875.36
376.95	884.72
377.15	870.68
377.35	940.90
377.54	903.45
377.74	1022.81
377.93	861.32
378.13	903.45
378.33	854.30
378.52	910.47
378.72	943.24
378.91	976.00
379.11	973.66
379.31	894.08
379.50	950.26
379.70	961.96
379.89	1022.81
380.09	936.21
380.28	952.60
380.48	1015.79
380.68	971.32
380.87	999.41
381.07	1046.22
381.26	1050.90
381.46	1022.81
381.65	1034.52
381.85	1067.28
382.04	1067.28
382.24	1025.15
382.43	959.62
382.63	983.02
382.83	1107.07
383.02	1104.73
383.22	1095.37
383.41	1104.73
383.61	1039.20
383.80	1184.31
384.00	1088.35
384.19	1121.12
384.39	1193.67
384.58	1165.59
384.78	1174.95
384.97	1111.75
385.17	1142.18
385.36	1102.39
385.56	1219.42
385.75	1270.91
385.95	1205.38
386.14	1181.97
386.34	1158.57
386.53	1196.01
386.72	1217.08
386.92	1191.33
387.11	1242.82
387.31	1252.19
387.50	1273.25
387.70	1275.59
387.89	1352.83
388.09	1291.98
388.28	1254.53
388.48	1306.02
388.67	1399.64
388.86	1299.00
389.06	1345.81
389.25	1359.85
389.45	1380.92
389.64	1366.87
389.84	1350.49
390.03	1387.94
390.22	1416.02
390.42	1474.54
390.61	1397.30
390.81	1430.07
391.00	1376.24
391.19	1526.03
391.39	1474.54
391.58	1437.09
391.78	1537.73
391.97	1554.12
392.16	1423.05
392.36	1504.96
392.55	1497.94
392.75	1488.58
392.94	1544.75
393.13	1526.03
393.33	1549.43
393.52	1694.55
393.71	1629.01
393.91	1614.97
394.10	1570.50
394.29	1607.95
394.49	1633.69
394.68	1680.50
394.88	1659.44
395.07	1706.25
395.26	1757.74
395.46	1673.48
395.65	1783.49
395.84	1748.38
396.04	1694.55
396.23	1750.72
396.42	1809.23
396.62	1699.23
396.81	1795.19
397.00	1792.85
397.19	1823.28
397.39	1858.39
397.58	1816.26
397.77	1830.30
397.97	1881.79
398.16	1839.66
398.35	1968.39
398.55	1832.64
398.74	1973.07
398.93	1898.17
399.12	1984.77
399.32	1923.92
399.51	1907.54
399.70	2015.20
399.90	1916.90
400.09	2090.10
400.28	2050.31
400.47	2001.16
400.67	2118.18
400.86	2033.93
401.05	2094.78
401.24	2047.97
401.44	2223.51
401.63	2136.91
401.82	2101.80
402.01	2148.61
402.21	2153.29
402.40	2209.47
402.59	2221.17
402.78	2267.98
402.97	2314.79
403.17	2305.43
403.36	2225.85
403.55	2328.83
403.74	2314.79
403.93	2438.84
404.13	2399.05
404.32	2340.54
404.51	2368.62
404.70	2417.77
404.89	2487.99
405.09	2492.67
405.28	2373.30
405.47	2478.63
405.66	2483.31
405.85	2586.29
406.05	2626.08
406.24	2588.63
406.43	2621.40
406.62	2628.42
406.81	2708.00
407.00	2607.36
407.20	2677.57
407.39	2534.80
407.58	2700.98
407.77	2864.82
407.96	2789.92
408.15	2773.53
408.34	2827.37
408.54	2897.58
408.73	2839.07
408.92	2848.43
409.11	2974.82
409.30	3052.06
409.49	2874.18
409.68	3066.10
409.87	3002.91
410.07	2963.12
410.26	2974.82
410.45	3033.33
410.64	3173.77
410.83	3087.17
411.02	3110.57
411.21	3215.90
411.40	3173.77
411.59	3321.22
411.78	3190.15
411.98	3126.96
412.17	3236.96
412.36	3353.99
412.55	3361.01
412.74	3431.23
412.93	3431.23
413.12	3393.78
413.31	3602.08
413.50	3433.57
413.69	3662.94
413.88	3789.33
414.07	3833.80
414.26	3756.56
414.45	3744.86
414.64	3770.60
414.83	3625.49
415.02	3693.37
415.22	3801.03
415.41	3983.59
415.60	3936.78
415.79	3843.16
415.98	3997.64
416.17	3974.23
416.36	3978.91
416.55	3953.16
416.74	4028.06
416.93	4028.06
417.12	4168.49
417.31	4283.18
417.50	4257.43
417.69	4418.93
417.88	4250.41
418.07	4339.35
418.26	4238.71
418.45	4440.00
418.64	4358.08
418.83	4477.44
419.02	4620.22
419.21	4587.45
419.39	4606.17
419.58	4484.47
419.77	4442.34
419.96	4760.65
420.15	4615.54
420.34	4585.11
420.53	4638.94
420.72	4690.43
420.91	4662.35
421.10	4777.03
421.29	4774.69
421.48	4788.74
421.67	4816.82
421.86	5060.24
422.05	4844.91
422.24	4826.18
422.43	4975.98
422.61	4912.78
422.80	5097.69
422.99	4966.62
423.18	5043.85
423.37	5085.98
423.56	4945.55
423.75	5001.72
423.94	4905.76
424.13	4746.61
424.32	4891.72
424.50	5004.07
424.69	5235.78
424.88	5060.24
425.07	5013.43
425.26	5015.77
425.45	4943.21
425.64	4987.68
425.83	4954.91
426.01	5067.26
426.20	5083.64
426.39	5242.80
426.58	5313.02
426.77	5203.01
426.96	5228.76
427.15	5167.90
427.33	5156.20
427.52	5350.46
427.71	5280.25
427.90	5458.13
428.09	5280.25
428.28	5460.47
428.46	5446.43
428.65	5411.32
428.84	5533.03
429.03	5591.54
429.22	5411.32
429.40	5500.26
429.59	5544.73
429.78	5341.10
429.97	5338.76
430.16	5708.57
430.34	5643.03
430.53	5668.78
430.72	5654.73
430.91	5734.31
431.10	5715.59
431.28	5888.79
431.47	5935.60
431.66	5865.38
431.85	5790.49
432.03	5891.13
432.22	6153.27
432.41	6071.35
432.60	5980.07
432.79	5912.19
432.97	6005.81
433.16	6148.59
433.35	5959.00
433.54	6127.52
433.72	6169.65
433.91	6211.78
434.10	6125.18
434.28	6019.86
434.47	6403.71
434.66	6188.38
434.85	6354.55
435.03	6389.66
435.22	6345.19
435.41	6455.20
435.59	6544.14
435.78	6532.44
435.97	6518.39
436.16	6516.05
436.34	6511.37
436.53	6558.18
436.72	6752.45
436.90	6696.27
437.09	6832.02
437.28	6803.94
437.46	6780.53
437.65	6712.66
437.84	6668.19
438.02	7049.69
438.21	6881.18
438.40	6815.64
438.58	6944.37
438.77	7016.93
438.96	7082.46
439.14	7101.19
439.33	6909.26
439.52	7295.45
439.70	7314.17
439.89	7487.37
440.08	7372.69
440.26	7419.50
440.45	7421.84
440.63	7588.02
440.82	7768.24
441.01	7564.61
441.19	7786.96
441.38	7716.75
441.57	7763.56
441.75	7817.39
441.94	8049.10
442.12	7941.44
442.31	8173.15
442.50	8236.35
442.68	8002.29
442.87	8311.24
443.05	8472.74
443.24	8229.32
443.43	8226.98
443.61	8428.27
443.80	8592.11
443.98	8170.81
444.17	7985.91
444.35	8217.62
444.54	8521.89
444.73	8580.40
444.91	8402.52
445.10	8578.06
445.28	8423.59
445.47	8533.59
445.65	8505.51
445.84	8535.93
446.02	8439.97
446.21	8411.89
446.39	8439.97
446.58	8667.00
446.77	8741.90
446.95	8589.77
447.14	8390.82
447.32	8664.66
447.51	8451.67
447.69	8341.67
447.88	8676.37
448.06	8648.28
448.25	8596.79
448.43	8741.90
448.62	8702.11
448.80	8599.13
448.99	8716.16
449.17	8807.44
449.36	8636.58
449.54	9006.38
449.73	9238.09
449.91	9107.02
450.10	9107.02
450.28	9210.01
450.46	9053.19
450.65	9273.20
450.83	9221.71
451.02	9076.60
451.20	9273.20
451.39	9266.18
451.57	9238.09
451.76	9156.18
451.94	9451.08
452.13	9338.74
452.31	9404.27
452.49	9334.06
452.68	9413.63
452.86	9715.56
453.05	9635.99
453.23	9643.01
453.42	9486.19
453.60	9420.66
453.78	9748.33
453.97	9577.47
454.15	9584.49
454.34	9633.64
454.52	9771.74
454.70	9914.51
454.89	9944.94
455.07	9912.17
455.26	10003.45
455.44	10003.45
455.62	10101.75
455.81	10162.61
455.99	10214.10
456.17	9982.38
456.36	10026.86
456.54	10483.26
456.73	10473.90
456.91	10551.14
457.09	10572.20
457.28	10672.84
457.46	10464.54
457.64	10565.18
457.83	10637.73
458.01	10684.55
458.19	10843.70
458.38	10534.75
458.56	10803.91
458.74	10747.74
458.93	10778.17
459.11	10710.29
459.29	10902.22
459.48	11014.56
459.66	10878.81
459.84	11311.81
460.03	10991.16
460.21	11351.60
460.39	11176.06
460.57	11033.29
460.76	11335.21
460.94	11332.87
461.12	11524.80
461.31	11262.66
461.49	11215.85
461.67	11557.57
461.85	11726.08
462.04	11276.70
462.22	11592.67
462.40	11779.92
462.59	11803.32
462.77	11690.98
462.95	11665.23
463.13	11618.42
463.32	12002.27
463.50	11990.56
463.68	11864.18
463.86	12245.68
464.05	11789.28
464.23	11798.64
464.41	12215.26
464.59	11866.52
464.78	12304.20
464.96	12112.27
465.14	12086.53
465.32	12355.69
465.50	12444.63
465.69	12217.60
465.87	12397.82
466.05	12482.08
466.23	12528.89
466.41	12297.17
466.60	12439.95
466.78	12472.71
466.96	12217.60
467.14	12559.31
467.32	12519.53
467.51	12664.64
467.69	12287.81
467.87	12753.58
468.05	12676.34
468.23	12772.30
468.41	12636.55
468.60	12964.23
468.78	12891.67
468.96	12596.76
469.14	12966.57
469.32	12996.99
469.50	12755.92
469.69	13205.30
469.87	13483.83
470.05	13219.35
470.23	13355.10
470.41	13294.24
470.59	13462.76
470.77	13437.02
470.95	13490.85
471.14	13818.52
471.32	13523.62
471.50	13680.43
471.68	13977.68
471.86	13664.05
472.04	13818.52
472.22	14225.78
472.40	13806.82
472.58	14106.41
472.77	14050.24
472.95	14307.69
473.13	14796.87
473.31	13947.25
473.49	14427.06
473.67	14356.85
473.85	14195.35
474.03	15021.56
474.21	14691.54
474.39	14927.94
474.57	14864.74
474.75	14754.74
474.93	15248.59
475.12	15147.95
475.30	15356.25
475.48	15108.16
475.66	15295.40
475.84	15398.38
476.02	15861.81
476.20	15789.25
476.38	16006.92
476.56	16009.26
476.74	16067.78
476.92	16058.42
477.10	15910.96
477.28	16350.98
477.46	16294.81
477.64	16732.49
477.82	16798.02
478.00	17020.38
478.18	16947.82
478.36	17572.74
478.54	17242.73
478.72	17668.70
478.90	17451.03
479.08	17893.40
479.26	17673.39
479.44	17949.57
479.62	18195.32
479.80	18050.21
479.98	18508.96
480.16	18726.63
480.34	18415.34
480.52	18920.89
480.70	18974.72
480.88	18759.39
481.06	18991.11
481.24	18948.98
481.41	19281.33
481.59	19754.12
481.77	19810.29
481.95	19765.82
482.13	20163.72
482.31	19864.13
482.49	20386.07
482.67	20325.21
482.85	20779.28
483.03	20872.90
483.21	21125.68
483.39	21263.77
483.57	21254.40
483.74	21315.26
483.92	21809.11
484.10	21436.97
484.28	22031.46
484.46	22380.20
484.64	22635.32
484.82	22263.18
485.00	22602.55
485.18	23260.24
485.35	23101.09
485.53	23183.01
485.71	23487.28
485.89	23931.98
486.07	23428.76
486.25	23927.30
486.43	23730.69
486.61	24147.31
486.78	24615.41
486.96	24425.83
487.14	24629.46
487.32	25149.06
487.50	25355.02
487.68	25495.46
487.85	25790.36
488.03	26160.17
488.21	26134.42
488.39	26279.54
488.57	26473.80
488.75	26373.16
488.92	26719.56
489.10	26962.97
489.28	27119.79
489.46	27552.79
489.64	27683.86
489.81	28081.75
489.99	28100.47
490.17	28217.50
490.35	28386.02
490.53	28608.37
490.70	28737.10
490.88	28617.73
491.06	29125.63
491.24	29146.69
491.41	29483.73
491.59	29832.47
491.77	29619.48
491.95	30366.11
492.13	30558.03
492.30	30714.85
492.48	30670.38
492.66	30663.36
492.84	30976.99
493.01	31168.91
493.19	31168.91
493.37	31002.74
493.54	31349.14
493.72	32287.69
493.90	32123.85
494.08	32533.45
494.25	32402.38
494.43	32723.03
494.61	32748.78
494.79	32893.89
494.96	32723.03
495.14	33558.60
495.32	33294.12
495.49	33394.76
495.67	33799.68
495.85	33921.38
496.02	34235.02
496.20	34700.78
496.38	34462.05
496.55	34693.76
496.73	35037.82
496.91	34625.89
497.09	35328.05
497.26	35424.01
497.44	35419.33
497.62	35585.50
497.79	36804.92
497.97	36439.80
498.14	36051.27
498.32	36699.60
498.50	36617.68
498.67	36975.78
498.85	36912.59
499.03	37024.93
499.20	36952.38
499.38	37055.36
499.56	37413.46
499.73	37404.10
499.91	37783.27
500.08	37977.53
500.26	38033.71
500.44	38202.22
500.61	38433.94
500.79	38218.61
500.97	39061.20
501.14	38742.89
501.32	39295.25
501.49	38817.78
501.67	39150.14
501.84	39311.64
502.02	39487.18
502.20	39503.56
502.37	39627.61
502.55	39962.31
502.72	40484.25
502.90	39981.03
503.07	40034.86
503.25	40297.00
503.43	40243.17
503.60	40725.32
503.78	41034.27
503.95	40680.85
504.13	41179.39
504.30	41181.73
504.48	40739.36
504.65	40942.99
504.83	41911.97
505.01	41792.61
505.18	42258.37
505.36	42419.87
505.53	41598.34
505.71	41949.42
505.88	42682.01
506.06	42185.82
506.23	42628.18
506.41	42387.10
506.58	42646.90
506.76	42965.21
506.93	42953.51
507.11	42705.41
507.28	42902.02
507.46	43147.78
507.63	43433.32
507.81	43650.99
507.98	43438.00
508.16	43620.56
508.33	44343.79
508.50	44018.46
508.68	44170.59
508.85	44435.07
509.03	44364.85
509.20	44580.18
509.38	44802.53
509.55	44669.12
509.73	45202.77
509.90	45350.22
510.08	45083.40
510.25	45052.97
510.42	45127.87
510.60	45570.23
510.77	45724.71
510.95	45839.39
511.12	45380.65
511.30	45464.91
511.47	45970.46
511.64	46148.34
511.82	46454.95
511.99	46347.29
512.17	46244.30
512.34	46679.64
512.51	46684.33
512.69	46686.67
512.86	46791.99
513.04	47253.08
513.21	47295.21
513.38	47480.11
513.56	47363.08
513.73	47421.59
513.90	47407.55
514.08	47426.28
514.25	47950.56
514.43	48121.41
514.60	48114.39
514.77	47896.72
514.95	48301.64
515.12	47927.15
515.29	48023.11
515.47	48538.03
515.64	49085.72
515.81	48701.87
515.99	48692.50
516.16	48718.25
516.33	48966.35
516.51	49294.02
516.68	49109.12
516.85	49279.98
517.03	49560.84
517.20	49106.78
517.37	49457.86
517.54	49462.54
517.72	49434.45
517.89	49837.03
518.06	49467.22
518.24	49755.11
518.41	49778.51
518.58	49879.16
518.75	49818.30
518.93	50124.91
519.10	49837.03
519.27	50223.22
519.45	50181.09
519.62	50417.48
519.79	50227.90
519.96	50216.19
520.14	50569.61
520.31	50316.84
520.48	50834.10
520.65	50897.29
520.83	51199.22
521.00	51531.57
521.17	50604.72
521.34	51306.88
521.52	51388.80
521.69	51180.49
521.86	51283.48
522.03	51681.37
522.20	51398.16
522.38	51835.84
522.55	51803.08
522.72	51697.75
522.89	51554.98
523.07	52406.94
523.24	52034.79
523.41	52034.79
523.58	52016.07
523.75	52341.40
523.92	52093.30
524.10	52243.10
524.27	52423.32
524.44	52638.65
524.61	52456.09
524.78	52554.39
524.96	52493.54
525.13	52772.06
525.30	52963.98
525.47	52982.71
525.64	52659.71
525.81	53200.38
525.98	53200.38
526.16	53015.47
526.33	53202.72
526.50	53642.74
526.67	53193.36
526.84	53422.73
527.01	53284.64
527.18	53380.60
527.36	53095.05
527.53	53076.33
527.70	53675.51
527.87	53535.07
528.04	53516.35
528.21	53502.31
528.38	53677.85
528.55	53764.45
528.72	53731.68
528.89	54061.69
529.07	53570.18
529.24	53993.82
529.41	54340.22
529.58	54160.00
529.75	53986.80
529.92	54052.33
530.09	54110.85
530.26	54356.60
530.43	54356.60
530.60	54199.79
530.77	54394.05
530.94	54459.58
531.11	54487.67
531.28	54745.13
531.46	54618.74
531.63	54745.13
531.80	54864.50
531.97	54649.17
532.14	54658.53
532.31	55023.65
532.48	54880.88
532.65	54717.04
532.82	55028.34
532.99	55100.89
533.16	54864.50
533.33	55203.88
533.50	55274.09
533.67	55145.36
533.84	55267.07
534.01	55201.53
534.18	55224.94
534.35	55356.01
534.52	55388.78
534.69	55454.31
534.86	55557.30
535.03	55625.17
535.20	55716.45
535.37	55833.48
535.54	55863.91
535.71	55852.20
535.88	55870.93
536.05	55987.95
536.22	56142.43
536.38	56055.83
536.55	56055.83
536.72	55994.98
536.89	55426.23
537.06	56282.86
537.23	56278.18
537.40	55938.80
537.57	56154.13
537.74	56236.05
537.91	56334.35
538.08	56266.48
538.25	56245.41
538.42	56271.16
538.59	56474.79
538.75	56189.24
538.92	56467.76
539.09	56577.77
539.26	56381.16
539.43	56542.66
539.60	56507.55
539.77	56470.11
539.94	56903.10
540.11	56818.84
540.28	56690.12
540.44	56704.16
540.61	56891.40
540.78	56772.03
540.95	56837.57
541.12	56706.50
541.29	56779.06
541.46	56832.89
541.62	56828.21
541.79	56835.23
541.96	56734.59
542.13	57132.48
542.30	57125.46
542.47	57181.63
542.63	57462.49
542.80	57279.93
542.97	57418.02
543.14	57535.05
543.31	57764.42
543.48	57645.05
543.64	57855.70
543.81	57602.92
543.98	57490.58
544.15	57670.80
544.32	57626.33
544.48	57860.38
544.65	57726.97
544.82	57815.91
544.99	57705.91
545.16	57703.57
545.32	57851.02
545.49	57970.39
545.66	58162.31
545.83	57928.26
546.00	58075.71
546.16	57965.71
546.33	57989.11
546.50	57677.82
546.67	58169.33
546.83	57708.25
547.00	58124.86
547.17	58162.31
547.34	58253.59
547.50	58337.85
547.67	58417.43
547.84	58445.52
548.00	58349.56
548.17	58571.91
548.34	58621.06
548.51	58529.78
548.67	58628.08
548.84	58546.16
549.01	58384.66
549.18	58475.94
549.34	58864.47
549.51	58656.17
549.68	58663.19
549.84	58522.76
550.01	58665.53
550.18	58698.30
550.34	58754.47
550.51	58908.94
550.68	58871.49
550.84	58450.20
551.01	58993.20
551.18	58801.28
551.34	58787.24
551.51	58859.79
551.68	58897.24
551.84	58820.00
552.01	58803.62
552.18	59063.42
552.34	58894.90
552.51	58965.12
552.68	59021.29
552.84	58937.03
553.01	59421.52
553.18	59220.23
553.34	59182.79
553.51	58962.78
553.67	59168.74
553.84	59395.77
554.01	59306.83
554.17	59040.01
554.34	59533.87
554.51	59346.62
554.67	59440.24
554.84	59365.35
555.00	59199.17
555.17	59245.98
555.33	59353.65
555.50	59320.88
555.67	59498.76
555.83	59458.97
556.00	59297.47
556.16	59660.26
556.33	59742.17
556.50	59606.42
556.66	59803.03
556.83	59475.35
556.99	59894.31
557.16	59931.76
557.32	59777.28
557.49	59959.84
557.65	59751.54
557.82	59819.41
557.98	59526.84
558.15	59625.15
558.32	59756.22
558.48	59571.32
558.65	59891.97
558.81	59753.88
558.98	59833.46
559.14	59814.73
559.31	60013.68
559.47	60013.68
559.64	59819.41
559.80	60039.42
559.97	60149.43
560.13	60051.12
560.30	59915.37
560.46	60116.66
560.63	60163.47
560.79	60186.88
560.96	60154.11
561.12	60324.97
561.29	60207.94
561.45	60210.28
561.61	60123.68
561.78	60065.17
561.94	60009.00
562.11	60170.49
562.27	60229.01
562.44	60107.30
562.60	60151.77
562.77	60250.07
562.93	60013.68
563.10	60081.55
563.26	60219.64
563.42	60418.59
563.59	60371.78
563.75	60214.96
563.92	60378.80
564.08	60355.39
564.24	60687.75
564.41	60472.42
564.57	60383.48
564.74	60720.52
564.90	60350.71
565.07	60331.99
565.23	60444.33
565.39	60353.05
565.56	60449.02
565.72	60577.75
565.88	60399.86
566.05	60530.93
566.21	60434.97
566.38	60537.96
566.54	60640.94
566.70	60706.47
566.87	60779.03
567.03	60556.68
567.19	60732.22
567.36	60589.45
567.52	60687.75
567.68	60645.62
567.85	60617.53
568.01	60764.99
568.17	60584.77
568.34	60680.73
568.50	60818.82
568.66	60750.94
568.83	60645.62
568.99	60622.22
569.15	60388.16
569.32	60678.39
569.48	60783.71
569.64	60636.26
569.81	60697.11
569.97	60643.28
570.13	60662.00
570.30	60640.94
570.46	60779.03
570.62	60828.18
570.78	60603.49
570.95	60776.69
571.11	60919.46
571.27	60956.91
571.43	60980.32
571.60	60795.42
571.76	60811.80
571.92	60907.76
572.09	60893.72
572.25	60872.65
572.41	60692.43
572.57	60987.34
572.74	61230.75
572.90	61036.49
573.06	60938.19
573.22	61055.21
573.38	60963.93
573.55	60905.42
573.71	61080.96
573.87	60870.31
574.03	60842.23
574.20	61003.72
574.36	60802.44
574.52	60963.93
574.68	61006.06
574.84	61006.06
575.01	61123.09
575.17	61006.06
575.33	60935.85
575.49	60860.95
575.65	61043.51
575.82	61017.77
575.98	61071.60
576.14	61190.97
576.30	61193.31
576.46	61022.45
576.62	60863.29
576.79	61139.47
576.95	60905.42
577.11	61064.58
577.27	61165.22
577.43	61015.43
577.59	60982.66
577.75	61073.94
577.92	60851.59
578.08	61036.49
578.24	61099.68
578.40	61118.41
578.56	61296.29
578.72	61137.13
578.88	61219.05
579.04	61422.68
579.21	61144.16
579.37	61202.67
579.53	61282.25
579.69	60896.06
579.85	61216.71
580.01	61055.21
580.17	60917.12
580.33	61237.78
580.49	61326.72
580.65	61226.07
580.82	61228.41
580.98	60975.64
581.14	60966.27
581.30	61336.08
581.46	61296.29
581.62	61207.35
581.78	61038.83
581.94	61422.68
582.10	61200.33
582.26	61172.24
582.42	61258.84
582.58	61214.37
582.74	61197.99
582.90	61263.52
583.06	61249.48
583.22	60985.00
583.38	61190.97
583.54	61179.26
583.70	61425.02
583.86	61354.80
584.02	61188.63
584.18	61469.49
584.34	61275.22
584.50	61317.35
584.66	61181.60
584.82	61216.71
584.98	61434.38
585.14	61307.99
585.30	61258.84
585.46	61226.07
585.62	61436.72
585.78	61375.87
585.94	61279.91
586.10	61359.48
586.26	61277.57
586.42	61319.70
586.58	61415.66
586.74	61462.47
586.90	61291.61
587.06	61307.99
587.22	61375.87
587.38	61188.63
587.54	61223.73
587.70	61530.34
587.86	61242.46
588.02	61481.19
588.18	61516.30
588.34	61371.19
