SpectraSuite Data File
++++++++++++++++++++++++++++++++++++
Date: Fri Oct 25 10:48:10 EDT 2013
User: price-jones
Dark Spectrum Present: No
Reference Spectrum Present: No
Number of Sampled Component Spectra: 1
Spectrometers: USB2+H05261
Integration Time (usec): 100000 (USB2+H05261)
Spectra Averaged: 1 (USB2+H05261)
Boxcar Smoothing: 0 (USB2+H05261)
Correct for Electrical Dark: No (USB2+H05261)
Strobe/Lamp Enabled: No (USB2+H05261)
Correct for Detector Non-linearity: No (USB2+H05261)
Correct for Stray Light: No (USB2+H05261)
Number of Pixels in Processed Spectrum: 2048
>>>>>Begin Processed Spectral Data<<<<<
365.73	168.52
365.92	168.52
366.12	168.52
366.32	81.92
366.52	35.11
366.72	37.45
366.91	18.72
367.11	58.51
367.31	32.77
367.51	0.00
367.70	0.00
367.90	39.79
368.10	25.75
368.30	53.83
368.49	32.77
368.69	133.41
368.89	91.28
369.09	110.01
369.28	51.49
369.48	39.79
369.68	145.11
369.87	189.58
370.07	102.98
370.27	177.88
370.47	187.24
370.66	372.15
370.86	407.25
371.06	369.80
371.25	456.40
371.45	423.64
371.65	470.45
371.84	400.23
372.04	437.68
372.24	498.53
372.44	489.17
372.63	461.09
372.83	528.96
373.03	451.72
373.22	454.06
373.42	531.30
373.62	514.92
373.81	493.85
374.01	538.32
374.21	514.92
374.40	512.58
374.60	528.96
374.79	477.47
374.99	566.41
375.19	547.69
375.38	543.00
375.58	596.84
375.78	561.73
375.97	601.52
376.17	631.94
376.37	526.62
376.56	552.37
376.76	531.30
376.95	561.73
377.15	545.34
377.35	566.41
377.54	578.11
377.74	582.79
377.93	664.71
378.13	599.18
378.33	592.16
378.52	631.94
378.72	636.63
378.91	660.03
379.11	620.24
379.31	617.90
379.50	557.05
379.70	631.94
379.89	711.52
380.09	669.39
380.28	704.50
380.48	650.67
380.68	653.01
380.87	711.52
381.07	662.37
381.26	706.84
381.46	716.20
381.65	702.16
381.85	690.46
382.04	697.48
382.24	683.44
382.43	709.18
382.63	732.59
382.83	699.82
383.02	741.95
383.22	732.59
383.41	744.29
383.61	699.82
383.80	772.38
384.00	772.38
384.19	809.83
384.39	828.55
384.58	706.84
384.78	709.18
384.97	753.65
385.17	634.29
385.36	751.31
385.56	814.51
385.75	671.73
385.95	802.80
386.14	786.42
386.34	760.67
386.53	760.67
386.72	734.93
386.92	784.08
387.11	793.44
387.31	795.78
387.50	770.04
387.70	830.89
387.89	793.44
388.09	833.23
388.28	826.21
388.48	828.55
388.67	983.02
388.86	802.80
389.06	898.77
389.25	842.59
389.45	833.23
389.64	926.85
389.84	877.70
390.03	933.87
390.22	945.58
390.42	894.08
390.61	936.21
390.81	866.00
391.00	976.00
391.19	894.08
391.39	945.58
391.58	926.85
391.78	980.68
391.97	954.94
392.16	929.19
392.36	1048.56
392.55	983.02
392.75	1011.11
392.94	912.81
393.13	983.02
393.33	966.64
393.52	966.64
393.71	1043.88
393.91	940.90
394.10	1013.45
394.29	1057.92
394.49	1039.20
394.68	1057.92
394.88	1100.05
395.07	1086.01
395.26	1128.14
395.46	1097.71
395.65	1081.33
395.84	1036.86
396.04	1174.95
396.23	1156.22
396.42	1118.78
396.62	1144.52
396.81	1090.69
397.00	1191.33
397.19	1212.40
397.39	1198.35
397.58	1233.46
397.77	1153.88
397.97	1177.29
398.16	1275.59
398.35	1301.34
398.55	1320.06
398.74	1364.53
398.93	1341.13
399.12	1270.91
399.32	1275.59
399.51	1472.20
399.70	1329.42
399.90	1385.60
400.09	1380.92
400.28	1444.11
400.47	1390.28
400.67	1448.79
400.86	1355.17
401.05	1451.13
401.24	1401.98
401.44	1502.62
401.63	1509.65
401.82	1619.65
402.01	1439.43
402.21	1516.67
402.40	1605.61
402.59	1521.35
402.78	1511.99
402.97	1582.20
403.17	1558.80
403.36	1645.40
403.55	1659.44
403.74	1607.95
403.93	1671.14
404.13	1671.14
404.32	1633.69
404.51	1694.55
404.70	1741.36
404.89	1617.31
405.09	1753.06
405.28	1671.14
405.47	1687.53
405.66	1678.16
405.85	1788.17
406.05	1741.36
406.24	1722.63
406.43	1720.29
406.62	1769.44
406.81	1921.58
407.00	1771.79
407.20	1774.13
407.39	1891.15
407.58	1930.94
407.77	1886.47
407.96	1977.75
408.15	1954.35
408.34	1996.48
408.54	1937.96
408.73	2038.61
408.92	2010.52
409.11	1989.46
409.30	2010.52
409.49	2059.67
409.68	2017.54
409.87	2132.23
410.07	2064.35
410.26	2115.84
410.45	2160.31
410.64	2113.50
410.83	2050.31
411.02	2190.74
411.21	2195.42
411.40	2167.34
411.59	2169.68
411.78	2207.13
411.98	2221.17
412.17	2279.68
412.36	2363.94
412.55	2415.43
412.74	2429.48
412.93	2455.22
413.12	2349.90
413.31	2520.76
413.50	2513.74
413.69	2588.63
413.88	2534.80
414.07	2565.23
414.26	2541.82
414.45	2614.38
414.64	2733.75
414.83	2490.33
415.02	2555.86
415.22	2597.99
415.41	2715.02
415.60	2717.36
415.79	2693.96
415.98	2743.11
416.17	2836.73
416.36	2843.75
416.55	2904.60
416.74	2825.03
416.93	2754.81
417.12	2963.12
417.31	2928.01
417.50	2906.95
417.69	3042.70
417.88	3028.65
418.07	3049.72
418.26	3098.87
418.45	2956.10
418.64	3126.96
418.83	3138.66
419.02	3133.98
419.21	3229.94
419.39	3145.68
419.58	3108.23
419.77	3136.32
419.96	3180.79
420.15	3274.41
420.34	3248.66
420.53	3384.41
420.72	3349.31
420.91	3361.01
421.10	3393.78
421.29	3461.65
421.48	3370.37
421.67	3398.46
421.86	3344.63
422.05	3304.84
422.24	3218.24
422.43	3372.71
422.61	3370.37
422.80	3475.70
422.99	3445.27
423.18	3459.31
423.37	3318.88
423.56	3428.88
423.75	3442.93
423.94	3501.44
424.13	3274.41
424.32	3330.58
424.50	3543.57
424.69	3576.34
424.88	3712.09
425.07	3508.46
425.26	3461.65
425.45	3513.14
425.64	3515.48
425.83	3536.55
426.01	3552.93
426.20	3627.83
426.39	3552.93
426.58	3578.68
426.77	3499.10
426.96	3501.44
427.15	3574.00
427.33	3702.73
427.52	3676.98
427.71	3581.02
427.90	3648.90
428.09	3655.92
428.28	3737.84
428.46	3794.01
428.65	3892.31
428.84	3915.72
429.03	3932.10
429.22	3691.02
429.40	3744.86
429.59	3646.55
429.78	3693.37
429.97	3698.05
430.16	3777.62
430.34	3754.22
430.53	3871.25
430.72	3882.95
430.91	3859.54
431.10	3974.23
431.28	3971.89
431.47	4145.09
431.66	3992.95
431.85	4065.51
432.03	3967.21
432.22	4236.37
432.41	4161.47
432.60	4208.28
432.79	4252.75
432.97	4329.99
433.16	4177.86
433.35	4219.99
433.54	4266.80
433.72	4217.65
433.91	4245.73
434.10	4437.66
434.28	4168.49
434.47	4367.44
434.66	4486.81
434.85	4484.47
435.03	4346.37
435.22	4425.95
435.41	4571.07
435.59	4404.89
435.78	4568.73
435.97	4578.09
436.16	4641.28
436.34	4383.82
436.53	4585.11
436.72	4737.24
436.90	4470.42
437.09	4610.86
437.28	4425.95
437.46	4423.61
437.65	4713.84
437.84	4552.34
438.02	4648.30
438.21	4706.82
438.40	4627.24
438.58	4990.02
438.77	4882.36
438.96	4634.26
439.14	4961.94
439.33	4994.70
439.52	4983.00
439.70	5078.96
439.89	4994.70
440.08	5191.31
440.26	5226.42
440.45	5074.28
440.63	5116.41
440.82	5280.25
441.01	5364.51
441.19	5376.21
441.38	5390.25
441.57	5350.46
441.75	5416.00
441.94	5418.34
442.12	5638.35
442.31	5579.84
442.50	5781.12
442.68	5614.95
442.87	5582.18
443.05	5750.70
443.24	5647.71
443.43	5781.12
443.61	5771.76
443.80	5940.28
443.98	5678.14
444.17	5593.88
444.35	5809.21
444.54	5813.89
444.73	5748.36
444.91	5746.02
445.10	5811.55
445.28	5851.34
445.47	5804.53
445.65	5870.06
445.84	5748.36
446.02	5844.32
446.21	5724.95
446.39	5785.80
446.58	6132.20
446.77	5778.78
446.95	5699.20
447.14	5886.45
447.32	6092.41
447.51	5968.37
447.69	5959.00
447.88	5891.13
448.06	6052.63
448.25	5926.24
448.43	5912.19
448.62	5975.39
448.80	5891.13
448.99	6085.39
449.17	6155.61
449.36	5888.79
449.54	6228.17
449.73	6396.68
449.91	6265.61
450.10	6111.14
450.28	6335.83
450.46	6307.74
450.65	6270.30
450.83	6354.55
451.02	6232.85
451.20	6382.64
451.39	6214.12
451.57	6420.09
451.76	6436.47
451.94	6499.67
452.13	6480.94
452.31	6410.73
452.49	6504.35
452.68	6345.19
452.86	6410.73
453.05	6534.78
453.23	6431.79
453.42	6296.04
453.60	6532.44
453.78	6553.50
453.97	6478.60
454.15	6810.96
454.34	6499.67
454.52	6684.57
454.70	6668.19
454.89	6850.75
455.07	6733.72
455.26	6841.39
455.44	6855.43
455.62	6801.60
455.81	6754.79
455.99	6754.79
456.17	6927.99
456.36	6918.62
456.54	6988.84
456.73	7150.34
456.91	7143.32
457.09	7103.53
457.28	7365.67
457.46	7059.06
457.64	7150.34
457.83	7290.77
458.01	7178.42
458.19	7279.07
458.38	7300.13
458.56	7325.88
458.74	7283.75
458.93	7150.34
459.11	7239.28
459.29	7405.46
459.48	7445.24
459.66	7653.55
459.84	7461.63
460.03	7454.61
460.21	7508.44
460.39	7576.31
460.57	7709.72
460.76	7618.44
460.94	7578.65
461.12	7782.28
461.31	7742.49
461.49	7660.57
461.67	7840.79
461.85	7756.54
462.04	7805.69
462.22	8173.15
462.40	8004.63
462.59	7702.70
462.77	7929.74
462.95	7950.80
463.13	7868.88
463.32	8170.81
463.50	8044.42
463.68	8205.92
463.86	8201.24
464.05	8004.63
464.23	8025.70
464.41	8346.35
464.59	8021.02
464.78	8194.22
464.96	8131.02
465.14	8086.55
465.32	8257.41
465.50	8313.58
465.69	8308.90
465.87	8344.01
466.05	8238.69
466.23	8124.00
466.41	8161.45
466.60	8446.99
466.78	8210.60
466.96	8201.24
467.14	8304.22
467.32	8262.09
467.51	8294.86
467.69	8320.60
467.87	8400.18
468.05	8507.85
468.23	8393.16
468.41	8542.96
468.60	8748.92
468.78	8503.17
468.96	8557.00
469.14	8674.03
469.32	8716.16
469.50	8535.93
469.69	8760.63
469.87	8809.78
470.05	8704.45
470.23	8786.37
470.41	8868.29
470.59	8879.99
470.77	8992.34
470.95	8922.12
471.14	9043.83
471.32	8868.29
471.50	9270.86
471.68	9287.25
471.86	9268.52
472.04	9221.71
472.22	9490.87
472.40	9100.00
472.58	9170.22
472.77	9312.99
472.95	9453.42
473.13	9708.54
473.31	9535.34
473.49	9441.72
473.67	9701.52
473.85	9525.98
474.03	9586.83
474.21	9607.90
474.39	9841.95
474.57	9872.38
474.75	9912.17
474.93	9846.63
475.12	10157.92
475.30	10155.58
475.48	10090.05
475.66	10113.45
475.84	10274.95
476.02	10218.78
476.20	10394.32
476.38	10417.72
476.56	10623.69
476.74	10635.39
476.92	10462.19
477.10	10731.36
477.28	10691.57
477.46	10897.53
477.64	11157.33
477.82	11162.01
478.00	11393.73
478.18	11342.24
478.36	11335.21
478.54	11700.34
478.72	11449.90
478.90	11730.76
479.08	11747.15
479.26	11819.71
479.44	11896.94
479.62	12114.61
479.80	12013.97
479.98	11943.75
480.16	12336.96
480.34	12067.80
480.52	12430.59
480.70	12149.72
480.88	12297.17
481.06	12475.06
481.24	12493.78
481.41	12849.54
481.59	12858.90
481.77	12901.03
481.95	12891.67
482.13	12912.74
482.31	13209.98
482.49	13404.25
482.67	13219.35
482.85	13619.58
483.03	13823.20
483.21	13722.56
483.39	14085.34
483.57	13846.61
483.74	13900.44
483.92	14029.17
484.10	13994.06
484.28	14319.40
484.46	14363.87
484.64	14890.49
484.82	14478.55
485.00	14689.20
485.18	14792.19
485.35	14902.19
485.53	14916.23
485.71	15091.77
485.89	15255.61
486.07	15150.29
486.25	15115.18
486.43	15197.10
486.61	15510.73
486.78	15857.13
486.96	15894.58
487.14	16166.08
487.32	16414.18
487.50	15964.79
487.68	16311.19
487.85	16421.20
488.03	16758.24
488.21	17137.40
488.39	16861.22
488.57	17165.49
488.75	16786.32
488.92	17247.41
489.10	17504.87
489.28	17415.93
489.46	17811.48
489.64	17680.41
489.81	18373.21
489.99	18111.07
490.17	18345.12
490.35	18412.99
490.53	18321.71
490.70	18766.42
490.88	18593.22
491.06	18759.39
491.24	19007.49
491.41	19040.26
491.59	19063.66
491.77	18958.34
491.95	19344.53
492.13	19421.77
492.30	19520.07
492.48	19861.79
492.66	19756.46
492.84	19805.61
493.01	20297.13
493.19	20102.86
493.37	20240.95
493.54	20276.06
493.72	20748.85
493.90	20596.71
494.08	20847.15
494.25	20657.57
494.43	21099.93
494.61	21270.79
494.79	21207.59
494.96	21308.24
495.14	21214.62
495.32	21614.85
495.49	21551.65
495.67	21799.75
495.85	22036.14
496.02	22115.72
496.20	22008.06
496.38	22260.84
496.55	22555.74
496.73	22881.08
496.91	22665.75
497.09	22689.15
497.26	22661.07
497.44	22892.78
497.62	22927.89
497.79	23520.04
497.97	23028.53
498.14	23527.06
498.32	23449.83
498.50	23470.89
498.67	23735.37
498.85	23751.76
499.03	23728.35
499.20	24147.31
499.38	24025.60
499.56	24170.71
499.73	24322.85
499.91	23941.34
500.08	24655.20
500.26	24109.86
500.44	24702.01
500.61	24458.60
500.79	24638.82
500.97	24458.60
501.14	25507.16
501.32	25120.97
501.49	24884.58
501.67	25221.61
501.84	25130.33
502.02	25560.99
502.20	25432.26
502.37	25563.33
502.55	25607.80
502.72	25413.54
502.90	25586.74
503.07	25855.90
503.25	25757.60
503.43	26141.44
503.60	26487.84
503.78	26251.45
503.95	26075.91
504.13	26141.44
504.30	26197.62
504.48	26305.28
504.65	26455.08
504.83	26562.74
505.01	26876.37
505.18	26991.06
505.36	27044.89
505.53	26656.36
505.71	26984.04
505.88	27307.03
506.06	27129.15
506.23	27117.45
506.41	27307.03
506.58	27651.09
506.76	27658.11
506.93	27782.16
507.11	27669.81
507.28	27873.44
507.46	27854.72
507.63	28056.00
507.81	28051.32
507.98	27999.83
508.16	28187.07
508.33	28086.43
508.50	28350.91
508.68	28182.39
508.85	28498.36
509.03	28706.67
509.20	28655.18
509.38	28559.22
509.55	28830.72
509.73	28718.37
509.90	28854.12
510.08	29331.59
510.25	28737.10
510.42	29067.11
510.60	29352.66
510.77	29303.51
510.95	29160.73
511.12	29474.37
511.30	29823.11
511.47	29947.15
511.64	29844.17
511.82	29731.83
511.99	29633.52
512.17	29895.66
512.34	29872.26
512.51	30115.67
512.69	30139.08
512.86	30424.62
513.04	30611.87
513.21	30209.29
513.38	30504.20
513.56	30462.07
513.73	30499.52
513.90	30665.70
514.08	30583.78
514.25	30946.56
514.43	30822.51
514.60	30803.79
514.77	30836.56
514.95	30899.75
515.12	31194.66
515.29	31278.92
515.47	31461.48
515.64	31674.47
515.81	31754.05
515.99	31543.40
516.16	31632.34
516.33	31503.61
516.51	31775.11
516.68	31335.09
516.85	31211.04
517.03	31615.96
517.20	31772.77
517.37	32095.77
517.54	32086.40
517.72	32041.93
517.89	31988.10
518.06	32123.85
518.24	32343.86
518.41	32004.49
518.58	32545.15
518.75	32395.35
518.93	32849.42
519.10	32350.88
519.27	32847.08
519.45	32811.97
519.62	32987.51
519.79	33010.92
519.96	32802.61
520.14	33097.52
520.31	33146.67
520.48	33303.48
520.65	32755.80
520.83	33497.75
521.00	33474.34
521.17	33460.30
521.34	33666.27
521.52	33923.72
521.69	33771.59
521.86	33734.14
522.03	34110.97
522.20	33785.63
522.38	34176.50
522.55	34129.69
522.72	34108.63
522.89	34312.25
523.07	34263.10
523.24	34263.10
523.41	34176.50
523.58	34338.00
523.75	35061.22
523.92	34366.09
524.10	34759.30
524.27	34550.99
524.44	35014.41
524.61	34876.32
524.78	34705.46
524.96	35112.72
525.13	34967.60
525.30	35770.41
525.47	35201.66
525.64	35072.93
525.81	35475.50
525.98	35124.42
526.16	35290.60
526.33	35180.59
526.50	35796.15
526.67	35143.14
526.84	35452.09
527.01	35072.93
527.18	35285.92
527.36	35573.80
527.53	35878.07
527.70	36098.08
527.87	35868.71
528.04	35768.07
528.21	36603.64
528.38	36140.21
528.55	36191.70
528.72	35920.20
528.89	36484.27
529.07	36268.94
529.24	36318.09
529.41	36573.21
529.58	35934.24
529.75	36081.70
529.92	36947.70
530.09	36793.22
530.26	36863.44
530.43	36704.28
530.60	36460.87
530.77	36847.05
530.94	36882.16
531.11	37153.66
531.28	37064.72
531.46	37141.96
531.63	37134.94
531.80	37038.98
531.97	36950.04
532.14	37322.18
532.31	37244.94
532.48	37195.79
532.65	37263.67
532.82	37289.42
532.99	37385.38
533.16	37167.71
533.33	37242.60
533.50	37521.13
533.67	37628.79
533.84	37642.84
534.01	38064.13
534.18	37450.91
534.35	38419.89
534.52	37757.52
534.69	37897.95
534.86	37998.60
535.03	37752.84
535.20	37991.58
535.37	37897.95
535.54	38319.25
535.71	38014.98
535.88	38735.87
536.05	38312.23
536.22	38548.62
536.38	38029.02
536.55	38363.72
536.72	38747.57
536.89	38127.33
537.06	38593.09
537.23	38232.65
537.40	38473.73
537.57	38796.72
537.74	38422.23
537.91	38955.88
538.08	38904.38
538.25	38279.46
538.42	38319.25
538.59	39119.71
538.75	38447.98
538.92	39019.07
539.09	39318.66
539.26	39000.35
539.43	39021.41
539.60	39136.10
539.77	38986.30
539.94	39143.12
540.11	39122.05
540.28	39264.83
540.44	39306.96
540.61	39599.52
540.78	39328.02
540.95	39510.58
541.12	38827.15
541.29	39531.65
541.46	39758.68
541.62	39543.35
541.79	40119.12
541.96	39199.29
542.13	39793.79
542.30	39861.66
542.47	40187.00
542.63	39421.64
542.80	39910.82
542.97	40612.98
543.14	40304.02
543.31	40170.61
543.48	40245.51
543.64	40636.38
543.81	40355.52
543.98	40715.96
544.15	40360.20
544.32	40519.35
544.48	40690.21
544.65	40538.08
544.82	40947.67
544.99	40278.28
545.16	40725.32
545.32	40863.41
545.49	40748.73
545.66	41006.19
545.83	41006.19
546.00	40776.81
546.16	41127.89
546.33	40374.24
546.50	40685.53
546.67	41127.89
546.83	40587.23
547.00	41071.72
547.17	41029.59
547.34	41219.17
547.50	41130.23
547.67	41160.66
547.84	40634.04
548.00	41303.43
548.17	41467.27
548.34	41572.60
548.51	41380.67
548.67	41460.25
548.84	41628.77
549.01	41315.14
549.18	41120.87
549.34	41507.06
549.51	41778.56
549.68	41605.36
549.84	41848.78
550.01	41947.08
550.18	41624.09
550.34	41762.18
550.51	41310.46
550.68	41855.80
550.84	41415.78
551.01	41797.29
551.18	41811.33
551.34	42073.47
551.51	42000.91
551.68	41930.70
551.84	42017.30
552.01	42057.09
552.18	41642.81
552.34	41757.50
552.51	42251.35
552.68	42050.06
552.84	42595.41
553.01	42677.33
553.18	42419.87
553.34	42188.16
553.51	42286.46
553.67	42464.34
553.84	42838.83
554.01	42792.01
554.17	42850.53
554.34	42782.65
554.51	42944.15
554.67	42705.41
554.84	42616.47
555.00	42499.45
555.17	42525.19
555.33	42649.24
555.50	42588.39
555.67	42237.31
555.83	42703.07
556.00	42836.48
556.16	43264.80
556.33	43428.64
556.50	42829.46
556.66	42955.85
556.83	42721.80
556.99	43019.05
557.16	43084.58
557.32	43320.98
557.49	43178.20
557.65	43501.20
557.82	43051.81
557.98	43143.09
558.15	43232.04
558.32	43000.32
558.48	43222.67
558.65	43599.50
558.81	42836.48
558.98	42953.51
559.14	43100.97
559.31	42906.70
559.47	43323.32
559.64	43746.95
559.80	43587.80
559.97	43276.51
560.13	43489.49
560.30	42869.25
560.46	43100.97
560.63	43250.76
560.79	43620.56
560.96	44151.87
561.12	43400.55
561.29	43419.28
561.45	43381.83
561.61	43856.96
561.78	43548.01
561.94	43456.73
562.11	43372.47
562.27	43517.58
562.44	43288.21
562.60	43704.82
562.77	44046.54
562.93	43536.30
563.10	43679.08
563.26	43381.83
563.42	43599.50
563.59	44126.12
563.75	43746.95
563.92	43955.26
564.08	43995.05
564.24	44121.44
564.41	44304.00
564.57	43744.61
564.74	43948.24
564.90	43859.30
565.07	44107.40
565.23	43515.24
565.39	43676.74
565.56	44163.57
565.72	44018.46
565.88	43812.49
566.05	43557.37
566.21	43709.50
566.38	43831.21
566.54	43784.40
566.70	44128.46
566.87	44296.98
567.03	44025.48
567.19	44390.60
567.36	44121.44
567.52	43831.21
567.68	44006.75
567.85	44027.82
568.01	44060.58
568.17	44140.16
568.34	44158.89
568.50	44198.68
568.66	44088.67
568.83	43854.62
568.99	43948.24
569.15	44268.89
569.32	43805.47
569.48	44023.14
569.64	44624.65
569.81	44339.11
569.97	44217.40
570.13	44289.96
570.30	44175.27
570.46	43721.21
570.62	43768.02
570.78	43894.41
570.95	44083.99
571.11	44102.71
571.27	44346.13
571.43	44275.91
571.60	44399.96
571.76	44573.16
571.92	44285.28
572.09	44229.10
572.25	44254.85
572.41	44355.49
572.57	44210.38
572.74	44664.44
572.90	44142.50
573.06	44186.97
573.22	44463.16
573.38	44568.48
573.55	44238.47
573.71	44486.56
573.87	43959.94
574.03	43669.72
574.20	44163.57
574.36	44542.74
574.52	44252.51
574.68	44704.23
574.84	44676.15
575.01	44254.85
575.17	44453.79
575.33	44306.34
575.49	44348.47
575.65	44851.69
575.82	44659.76
575.98	44509.97
576.14	44486.56
576.30	44399.96
576.46	44423.37
576.62	44114.42
576.79	44062.93
576.95	44135.48
577.11	44575.50
577.27	44348.47
577.43	44622.31
577.59	44931.26
577.75	44208.04
577.92	43732.91
578.08	44308.68
578.24	43985.69
578.40	44428.05
578.56	44383.58
578.72	44217.40
578.88	44542.74
579.04	44526.35
579.21	44201.02
579.37	44219.74
579.53	44142.50
579.69	44140.16
579.85	44451.45
580.01	44362.51
580.17	45010.84
580.33	44746.36
580.49	44666.78
580.65	44563.80
580.82	44603.59
580.98	44467.84
581.14	44383.58
581.30	44753.38
581.46	44657.42
581.62	44339.11
581.78	44334.43
581.94	44715.93
582.10	44708.91
582.26	44706.57
582.42	44563.80
582.58	44891.48
582.74	44753.38
582.90	44608.27
583.06	44854.03
583.22	44694.87
583.38	44952.33
583.54	44306.34
583.70	44350.81
583.86	44774.45
584.02	43866.32
584.18	44519.33
584.34	45010.84
584.50	44662.10
584.66	44505.29
584.82	44449.11
584.98	44839.98
585.14	44940.63
585.30	44479.54
585.46	44751.04
585.62	44783.81
585.78	44722.96
585.94	44201.02
586.10	44245.49
586.26	44807.22
586.42	44542.74
586.58	45088.08
586.74	44402.30
586.90	44479.54
587.06	44594.23
587.22	44584.86
587.38	44299.32
587.54	44734.66
587.70	44657.42
587.86	44849.35
588.02	44751.04
588.18	44554.44
588.34	44233.78
588.49	44414.01
588.65	44626.99
588.81	44439.75
588.97	44369.54
589.13	44556.78
589.29	44378.90
589.45	44451.45
589.61	44989.78
589.77	45148.93
589.93	44765.09
590.08	44772.11
590.24	44769.77
