SpectraSuite Data File
++++++++++++++++++++++++++++++++++++
Date: Fri Oct 25 11:26:14 EDT 2013
User: price-jones
Dark Spectrum Present: No
Reference Spectrum Present: No
Number of Sampled Component Spectra: 1
Spectrometers: USB2+H05261
Integration Time (usec): 100000 (USB2+H05261)
Spectra Averaged: 1 (USB2+H05261)
Boxcar Smoothing: 0 (USB2+H05261)
Correct for Electrical Dark: No (USB2+H05261)
Strobe/Lamp Enabled: No (USB2+H05261)
Correct for Detector Non-linearity: No (USB2+H05261)
Correct for Stray Light: No (USB2+H05261)
Number of Pixels in Processed Spectrum: 2048
>>>>>Begin Processed Spectral Data<<<<<
365.73	210.65
365.92	210.65
366.12	210.65
366.32	184.90
366.52	98.30
366.72	154.48
366.91	119.37
367.11	131.07
367.31	42.13
367.51	138.09
367.70	100.64
367.90	128.73
368.10	184.90
368.30	119.37
368.49	145.11
368.69	159.16
368.89	175.54
369.09	177.88
369.28	212.99
369.48	205.97
369.68	119.37
369.87	138.09
370.07	271.50
370.27	198.95
370.47	379.17
370.66	566.41
370.86	620.24
371.06	608.54
371.25	648.33
371.45	688.12
371.65	699.82
371.84	634.29
372.04	596.84
372.24	727.91
372.44	648.33
372.63	767.70
372.83	741.95
373.03	823.87
373.22	734.93
373.42	739.61
373.62	816.85
373.81	828.55
374.01	861.32
374.21	821.53
374.40	788.76
374.60	875.36
374.79	894.08
374.99	873.02
375.19	819.19
375.38	826.21
375.58	873.02
375.78	847.27
375.97	772.38
376.17	866.00
376.37	882.38
376.56	840.25
376.76	856.64
376.95	936.21
377.15	877.70
377.35	868.34
377.54	889.40
377.74	896.43
377.93	938.55
378.13	866.00
378.33	936.21
378.52	908.13
378.72	919.83
378.91	959.62
379.11	896.43
379.31	861.32
379.50	863.66
379.70	936.21
379.89	976.00
380.09	1008.77
380.28	966.64
380.48	1015.79
380.68	912.81
380.87	1074.31
381.07	985.37
381.26	1043.88
381.46	961.96
381.65	1043.88
381.85	1011.11
382.04	1006.43
382.24	1027.50
382.43	1057.92
382.63	1020.47
382.83	1041.54
383.02	1170.27
383.22	1074.31
383.41	1067.28
383.61	1081.33
383.80	1111.75
384.00	1048.56
384.19	1100.05
384.39	1097.71
384.58	1132.82
384.78	1137.50
384.97	1217.08
385.17	1193.67
385.36	1177.29
385.56	1259.21
385.75	1048.56
385.95	1139.84
386.14	1212.40
386.34	1165.59
386.53	1235.80
386.72	1153.88
386.92	1212.40
387.11	1308.36
387.31	1224.10
387.50	1231.12
387.70	1284.95
387.89	1273.25
388.09	1291.98
388.28	1191.33
388.48	1317.72
388.67	1348.15
388.86	1291.98
389.06	1287.29
389.25	1289.64
389.45	1315.38
389.64	1336.45
389.84	1373.89
390.03	1350.49
390.22	1404.32
390.42	1231.12
390.61	1378.58
390.81	1406.66
391.00	1331.76
391.19	1376.24
391.39	1467.52
391.58	1493.26
391.78	1362.19
391.97	1509.65
392.16	1432.41
392.36	1441.77
392.55	1514.33
392.75	1502.62
392.94	1467.52
393.13	1563.48
393.33	1521.35
393.52	1610.29
393.71	1689.87
393.91	1533.05
394.10	1554.12
394.29	1607.95
394.49	1659.44
394.68	1652.42
394.88	1675.82
395.07	1685.19
395.26	1699.23
395.46	1689.87
395.65	1729.66
395.84	1650.08
396.04	1734.34
396.23	1713.27
396.42	1743.70
396.62	1853.70
396.81	1853.70
397.00	1699.23
397.19	1694.55
397.39	1825.62
397.58	1844.34
397.77	1856.04
397.97	1860.73
398.16	1872.43
398.35	1820.94
398.55	1886.47
398.74	1940.30
398.93	2031.58
399.12	1933.28
399.32	1930.94
399.51	1916.90
399.70	1970.73
399.90	1874.77
400.09	1963.71
400.28	2085.42
400.47	2118.18
400.67	2181.38
400.86	2008.18
401.05	2010.52
401.24	2036.27
401.44	2160.31
401.63	2181.38
401.82	2106.48
402.01	2115.84
402.21	2136.91
402.40	2076.06
402.59	2136.91
402.78	2176.70
402.97	2249.25
403.17	2303.09
403.36	2141.59
403.55	2307.77
403.74	2338.20
403.93	2321.81
404.13	2244.57
404.32	2370.96
404.51	2422.45
404.70	2504.37
404.89	2441.18
405.09	2471.61
405.28	2382.67
405.47	2511.39
405.66	2476.29
405.85	2466.92
406.05	2597.99
406.24	2595.65
406.43	2509.05
406.62	2523.10
406.81	2581.61
407.00	2630.76
407.20	2541.82
407.39	2672.89
407.58	2836.73
407.77	2675.23
407.96	2647.15
408.15	2799.28
408.34	2794.60
408.54	2717.36
408.73	2818.00
408.92	2850.77
409.11	2995.89
409.30	2902.26
409.49	2928.01
409.68	2869.50
409.87	2874.18
410.07	2972.48
410.26	3009.93
410.45	3042.70
410.64	3138.66
410.83	2958.44
411.02	3091.85
411.21	3162.06
411.40	3087.17
411.59	3173.77
411.78	3131.64
411.98	3314.20
412.17	3243.98
412.36	3297.81
412.55	3335.26
412.74	3468.67
412.93	3335.26
413.12	3372.71
413.31	3798.69
413.50	3552.93
413.69	3421.86
413.88	3691.02
414.07	3585.70
414.26	3559.95
414.45	3595.06
414.64	3496.76
414.83	3754.22
415.02	3707.41
415.22	3693.37
415.41	3871.25
415.60	3925.08
415.79	3953.16
415.98	4021.04
416.17	4002.32
416.36	3911.04
416.55	3868.91
416.74	3927.42
416.93	4053.81
417.12	4070.19
417.31	4004.66
417.50	4070.19
417.69	4208.28
417.88	4311.27
418.07	4231.69
418.26	4280.84
418.45	4248.07
418.64	4432.97
418.83	4404.89
419.02	4423.61
419.21	4524.26
419.39	4582.77
419.58	4341.69
419.77	4437.66
419.96	4582.77
420.15	4578.09
420.34	4748.95
420.53	4505.53
420.72	4711.50
420.91	4760.65
421.10	4697.46
421.29	4755.97
421.48	4582.77
421.67	4777.03
421.86	4739.58
422.05	4856.61
422.24	4793.42
422.43	4807.46
422.61	5004.07
422.80	4816.82
422.99	5008.75
423.18	5055.56
423.37	5074.28
423.56	4912.78
423.75	4840.23
423.94	4861.29
424.13	4444.68
424.32	4732.56
424.50	4910.44
424.69	5245.14
424.88	5083.64
425.07	4830.87
425.26	4898.74
425.45	4931.51
425.64	4940.87
425.83	4868.31
426.01	5027.47
426.20	4968.96
426.39	5048.54
426.58	5046.20
426.77	5027.47
426.96	5142.16
427.15	5090.67
427.33	5114.07
427.52	4999.38
427.71	5125.77
427.90	5184.29
428.09	5174.92
428.28	5231.10
428.46	5423.02
428.65	5188.97
428.84	5621.97
429.03	5467.49
429.22	5362.17
429.40	5540.05
429.59	5357.49
429.78	5362.17
429.97	5221.74
430.16	5294.29
430.34	5537.71
430.53	5694.52
430.72	5572.82
430.91	5495.58
431.10	5689.84
431.28	5687.50
431.47	5731.97
431.66	5902.83
431.85	5881.77
432.03	5802.19
432.22	5912.19
432.41	5886.45
432.60	5954.32
432.79	5996.45
432.97	5778.78
433.16	6022.20
433.35	5930.92
433.54	5977.73
433.72	5989.43
433.91	6167.31
434.10	5947.30
434.28	6010.50
434.47	6094.76
434.66	6188.38
434.85	6139.23
435.03	6382.64
435.22	6270.30
435.41	6424.77
435.59	6331.15
435.78	6516.05
435.97	6427.11
436.16	6242.21
436.34	6289.02
436.53	6401.37
436.72	6628.40
436.90	6375.62
437.09	6705.63
437.28	6403.71
437.46	6569.88
437.65	6675.21
437.84	6759.47
438.02	6612.01
438.21	6810.96
438.40	6555.84
438.58	7035.65
438.77	7019.27
438.96	6897.56
439.14	7250.98
439.33	7145.66
439.52	7063.74
439.70	7049.69
439.89	7267.36
440.08	7393.75
440.26	7480.35
440.45	7391.41
440.63	7358.64
440.82	7522.48
441.01	7503.76
441.19	7623.12
441.38	7506.10
441.57	7691.00
441.75	7585.68
441.94	7995.27
442.12	7859.52
442.31	7847.82
442.50	8067.83
442.68	7978.89
442.87	7812.71
443.05	8198.90
443.24	8072.51
443.43	8182.51
443.61	8170.81
443.80	8285.50
443.98	8086.55
444.17	7744.83
444.35	8217.62
444.54	8571.04
444.73	8294.86
444.91	8142.72
445.10	8334.65
445.28	8259.75
445.47	8102.93
445.65	8241.03
445.84	8402.52
446.02	8269.11
446.21	8142.72
446.39	8299.54
446.58	8547.64
446.77	8449.33
446.95	8161.45
447.14	8273.79
447.32	8578.06
447.51	8547.64
447.69	8360.39
447.88	8348.69
448.06	8449.33
448.25	8540.61
448.43	8585.08
448.62	8580.40
448.80	8475.08
448.99	8599.13
449.17	8659.98
449.36	8774.67
449.54	8627.21
449.73	8678.71
449.91	9006.38
450.10	8814.46
450.28	8931.48
450.46	8997.02
450.65	8915.10
450.83	9043.83
451.02	8954.89
451.20	9235.75
451.39	8901.06
451.57	9184.26
451.76	8851.91
451.94	9125.75
452.13	9184.26
452.31	9158.52
452.49	9172.56
452.68	9383.21
452.86	9212.35
453.05	9411.29
453.23	9661.73
453.42	9221.71
453.60	9338.74
453.78	9680.46
453.97	9252.14
454.15	9483.85
454.34	9432.36
454.52	9518.96
454.70	9399.59
454.89	9420.66
455.07	9771.74
455.26	9694.50
455.44	9886.42
455.62	9893.44
455.81	9879.40
455.99	10017.49
456.17	10052.60
456.36	10094.73
456.54	10174.31
456.73	10331.12
456.91	10209.42
457.09	10417.72
457.28	10464.54
457.46	10221.12
457.64	10487.94
457.83	10452.83
458.01	10221.12
458.19	10717.31
458.38	10555.82
458.56	10614.33
458.74	10422.41
458.93	10642.42
459.11	10551.14
459.29	10644.76
459.48	10710.29
459.66	10888.17
459.84	10839.02
460.03	10829.66
460.21	11023.92
460.39	10796.89
460.57	10927.96
460.76	10869.45
460.94	10876.47
461.12	11023.92
461.31	11005.20
461.49	11185.42
461.67	11220.53
461.85	11360.96
462.04	11356.28
462.22	11772.89
462.40	11571.61
462.59	11506.07
462.77	11255.64
462.95	11616.08
463.13	11548.20
463.32	11520.12
463.50	11763.53
463.68	11700.34
463.86	11981.20
464.05	11602.04
464.23	11723.74
464.41	11936.73
464.59	11651.19
464.78	11889.92
464.96	11974.18
465.14	11864.18
465.32	12079.50
465.50	11976.52
465.69	12224.62
465.87	12065.46
466.05	11910.99
466.23	12226.96
466.41	12287.81
466.60	12435.27
466.78	12276.11
466.96	12100.57
467.14	11964.82
467.32	12339.30
467.51	12348.67
467.69	12121.63
467.87	12381.43
468.05	12381.43
468.23	12519.53
468.41	12402.50
468.60	12713.79
468.78	12573.36
468.96	12444.63
469.14	12643.57
469.32	12706.77
469.50	12613.15
469.69	12870.61
469.87	13099.98
470.05	12943.16
470.23	13174.88
470.41	13001.68
470.59	13291.90
470.77	13167.85
470.95	13165.51
471.14	13434.68
471.32	13336.37
471.50	13315.31
471.68	13467.44
471.86	13418.29
472.04	13642.98
472.22	13830.23
472.40	13547.02
472.58	13942.57
472.77	13755.33
472.95	14249.18
473.13	14382.59
473.31	14038.53
473.49	14022.15
473.67	14099.39
473.85	14113.43
474.03	14387.27
474.21	14427.06
474.39	14558.13
474.57	14663.46
474.75	14595.58
474.93	14743.03
475.12	14700.90
475.30	14848.36
475.48	14932.62
475.66	14953.68
475.84	15070.71
476.02	15117.52
476.20	15288.38
476.38	15609.03
476.56	15946.07
476.74	15950.75
476.92	15829.04
477.10	15630.10
477.28	15962.45
477.46	16152.04
477.64	15817.34
477.82	16439.92
478.00	16884.62
478.18	16659.93
478.36	16999.31
478.54	16987.61
478.72	16919.73
478.90	17165.49
479.08	17472.10
479.26	17675.73
479.44	17514.23
479.62	17734.24
479.80	17881.69
479.98	18242.14
480.16	18586.19
480.34	18513.64
480.52	18415.34
480.70	18520.66
480.88	18293.63
481.06	18750.03
481.24	18525.34
481.41	18885.78
481.59	19236.86
481.77	19271.97
481.95	19356.23
482.13	19515.39
482.31	19564.54
482.49	19838.38
482.67	19669.86
482.85	20063.07
483.03	20346.28
483.21	20500.75
483.39	20861.19
483.57	20547.56
483.74	21090.57
483.92	21528.25
484.10	21158.44
484.28	21226.32
484.46	21788.05
484.64	22448.08
484.82	21900.39
485.00	22384.88
485.18	22890.44
485.35	22953.63
485.53	22590.85
485.71	22848.31
485.89	23440.47
486.07	23164.28
486.25	23073.00
486.43	23611.32
486.61	23819.63
486.78	24091.13
486.96	23737.71
487.14	24666.91
487.32	24601.37
487.50	24664.57
487.68	24678.61
487.85	25252.04
488.03	25593.76
488.21	25802.07
488.39	25937.82
488.57	26153.15
488.75	25970.58
488.92	26277.19
489.10	26419.97
489.28	26398.90
489.46	26981.70
489.64	26951.27
489.81	27360.86
489.99	27414.69
490.17	27564.49
490.35	27789.18
490.53	28025.57
490.70	28201.11
490.88	28266.65
491.06	28706.67
491.24	28622.41
491.41	28788.59
491.59	29017.96
491.77	28608.37
491.95	29340.96
492.13	29237.97
492.30	29572.67
492.48	29689.70
492.66	29914.39
492.84	30506.54
493.01	30354.41
493.19	30181.21
493.37	31016.78
493.54	30637.61
493.72	31232.11
493.90	31122.10
494.08	31597.23
494.25	31962.36
494.43	31641.70
494.61	32411.74
494.79	32404.72
494.96	32559.19
495.14	32573.24
495.32	33064.75
495.49	33280.08
495.67	32755.80
495.85	33373.70
496.02	33635.84
496.20	33961.17
496.38	33900.32
496.55	33958.83
496.73	34852.92
496.91	34143.74
497.09	34558.01
497.26	34677.38
497.44	34579.07
497.62	34742.91
497.79	35569.12
497.97	35084.63
498.14	35969.35
498.32	35817.22
498.50	36275.96
498.67	36730.03
498.85	36364.90
499.03	36814.29
499.20	36491.29
499.38	36416.40
499.56	36875.14
499.73	36711.30
499.91	37130.26
500.08	37270.69
500.26	37350.27
500.44	37872.21
500.61	37282.39
500.79	37392.40
500.97	37923.70
501.14	38218.61
501.32	38550.96
501.49	38340.32
501.67	38178.82
501.84	39012.05
502.02	38618.84
502.20	38845.87
502.37	38946.51
502.55	39075.24
502.72	39171.21
502.90	39264.83
503.07	39702.51
503.25	39508.24
503.43	39732.93
503.60	39763.36
503.78	39826.56
503.95	39950.60
504.13	40128.48
504.30	40563.82
504.48	40231.47
504.65	40456.16
504.83	40699.58
505.01	41170.02
505.18	40942.99
505.36	41216.83
505.53	40732.34
505.71	40968.74
505.88	41549.19
506.06	40767.45
506.23	41570.25
506.41	41741.11
506.58	41691.96
506.76	41584.30
506.93	42232.63
507.11	42405.83
507.28	42408.17
507.46	42366.04
507.63	42330.93
507.81	43267.14
507.98	42511.15
508.16	42909.04
508.33	43061.18
508.50	43248.42
508.68	43112.67
508.85	43814.83
509.03	43356.08
509.20	43636.95
509.38	44481.88
509.55	44275.91
509.73	44472.52
509.90	44444.43
510.08	44189.31
510.25	44100.37
510.42	44533.37
510.60	44957.01
510.77	45118.51
510.95	45418.10
511.12	45069.36
511.30	44877.43
511.47	45144.25
511.64	45167.66
511.82	45797.26
511.99	45619.38
512.17	45500.01
512.34	45869.82
512.51	46195.15
512.69	46246.65
512.86	45783.22
513.04	46515.81
513.21	46293.46
513.38	46667.94
513.56	46511.13
513.73	46300.48
513.90	46810.71
514.08	46438.57
514.25	46939.44
514.43	47164.14
514.60	46962.85
514.77	47215.63
514.95	47367.76
515.12	47297.55
515.29	47182.86
515.47	47550.32
515.64	47978.64
515.81	47526.92
515.99	47756.29
516.16	48184.61
516.33	47716.50
516.51	48158.86
516.68	48224.40
516.85	48215.04
517.03	48641.01
517.20	48545.05
517.37	48261.85
517.54	48521.65
517.72	48697.19
517.89	48582.50
518.06	48832.94
518.24	48715.91
518.41	49059.97
518.58	49455.52
518.75	49158.27
518.93	49336.15
519.10	49312.75
519.27	49375.94
519.45	49195.72
519.62	49998.52
519.79	49977.46
519.96	49813.62
520.14	49900.22
520.31	49645.10
520.48	49830.01
520.65	49984.48
520.83	50518.12
521.00	50344.92
521.17	50403.44
521.34	50473.65
521.52	50574.30
521.69	50653.87
521.86	50557.91
522.03	50747.50
522.20	51217.94
522.38	51182.84
522.55	51281.14
522.72	50740.47
522.89	51112.62
523.07	51629.88
523.24	51175.81
523.41	51744.56
523.58	51353.69
523.75	51288.16
523.92	51341.99
524.10	51636.90
524.27	51522.21
524.44	51798.40
524.61	51704.77
524.78	51955.21
524.96	51936.49
525.13	52261.82
525.30	52325.02
525.47	52226.71
525.64	52273.52
525.81	52662.05
525.98	52292.25
526.16	52652.69
526.33	52453.75
526.50	52928.87
526.67	52568.43
526.84	52797.80
527.01	52648.01
527.18	52706.52
527.36	52704.18
527.53	52718.23
527.70	53008.45
527.87	53048.24
528.04	52872.70
528.21	53294.00
528.38	53226.12
528.55	53549.12
528.72	53230.80
528.89	53296.34
529.07	53024.84
529.24	53331.45
529.41	53485.92
529.58	53425.07
529.75	53745.72
529.92	53315.06
530.09	53778.49
530.26	53640.40
530.43	53773.81
530.60	53689.55
530.77	53741.04
530.94	54017.22
531.11	53738.70
531.28	53900.20
531.46	54035.95
531.63	53895.52
531.80	54176.38
531.97	54129.57
532.14	54057.01
532.31	54305.11
532.48	54518.10
532.65	54639.81
532.82	54145.95
532.99	54583.63
533.16	54440.86
533.33	54646.83
533.50	54752.15
533.67	54688.96
533.84	54560.23
534.01	54784.92
534.18	54693.64
534.35	55215.58
534.52	54934.71
534.69	54901.95
534.86	54761.51
535.03	54890.24
535.20	55065.78
535.37	54965.14
535.54	55208.56
535.71	54995.57
535.88	55222.60
536.05	55206.22
536.22	55281.11
536.38	55440.27
536.55	55475.38
536.72	55337.29
536.89	55334.95
537.06	55515.17
537.23	55545.59
537.40	55292.82
537.57	55634.53
537.74	55751.56
537.91	55653.26
538.08	55557.30
538.25	55426.23
538.42	55468.36
538.59	55959.87
538.75	55664.96
538.92	55767.94
539.09	56044.13
539.26	55924.76
539.43	55908.38
539.60	56074.55
539.77	56065.19
539.94	55973.91
540.11	56357.76
540.28	56322.65
540.44	56177.54
540.61	56278.18
540.78	56378.82
540.95	56081.58
541.12	56383.51
541.29	56568.41
541.46	56329.67
541.62	56566.07
541.79	56549.68
541.96	56149.45
542.13	56222.01
542.30	56741.61
542.47	56474.79
542.63	56608.20
542.80	56814.16
542.97	56858.63
543.14	57010.77
543.31	57174.61
543.48	57099.71
543.64	57308.02
543.81	57293.97
543.98	57127.80
544.15	57251.84
544.32	57190.99
544.48	57378.23
544.65	57174.61
544.82	57263.55
544.99	56846.93
545.16	57373.55
545.32	57193.33
545.49	57574.84
545.66	57574.84
545.83	57443.77
546.00	57600.58
546.16	57371.21
546.33	57474.20
546.50	57329.08
546.67	57448.45
546.83	57378.23
547.00	57684.84
547.17	57546.75
547.34	57717.61
547.50	57844.00
547.67	57904.85
547.84	57942.30
548.00	57815.91
548.17	58108.48
548.34	57778.46
548.51	57911.88
548.67	58124.86
548.84	58073.37
549.01	57883.79
549.18	58003.16
549.34	57834.64
549.51	58089.76
549.68	58253.59
549.84	58033.58
550.01	58351.90
550.18	58136.57
550.34	58567.23
550.51	58166.99
550.68	58143.59
550.84	58026.56
551.01	58417.43
551.18	58403.39
551.34	58232.53
551.51	58560.20
551.68	58349.56
551.84	58497.01
552.01	58127.20
552.18	58447.86
552.34	58265.30
552.51	58663.19
552.68	58337.85
552.84	58656.17
553.01	58834.05
553.18	58546.16
553.34	58815.32
553.51	58520.41
553.67	58777.87
553.84	58791.92
554.01	58775.53
554.17	58937.03
554.34	58726.38
554.51	58911.28
554.67	58866.81
554.84	58911.28
555.00	58780.21
555.17	58824.68
555.33	58834.05
555.50	58911.28
555.67	58805.96
555.83	58934.69
556.00	58960.44
556.16	59175.76
556.33	59150.02
556.50	58990.86
556.66	59201.51
556.83	59091.51
556.99	59093.85
557.16	59313.86
557.32	59426.20
557.49	59435.56
557.65	59009.59
557.82	59264.70
557.98	59096.19
558.15	59295.13
558.32	59231.94
558.48	58997.88
558.65	59625.15
558.81	59257.68
558.98	59407.48
559.14	59421.52
559.31	59767.92
559.47	59498.76
559.64	59622.81
559.80	59423.86
559.97	59632.17
560.13	59421.52
560.30	59414.50
560.46	59480.03
560.63	59678.98
560.79	59732.81
560.96	59648.55
561.12	59519.82
561.29	59683.66
561.45	59753.88
561.61	59594.72
561.78	59650.89
561.94	59664.94
562.11	59711.75
562.27	59805.37
562.44	59784.30
562.60	60011.34
562.77	59824.09
562.93	59604.08
563.10	59875.58
563.26	59796.01
563.42	59887.29
563.59	59976.23
563.75	59894.31
563.92	59634.51
564.08	59821.75
564.24	59999.63
564.41	59929.42
564.57	60083.89
564.74	59877.93
564.90	59781.96
565.07	59983.25
565.23	60041.76
565.39	59924.74
565.56	60055.81
565.72	59840.48
565.88	60226.66
566.05	59817.07
566.21	60079.21
566.38	60161.13
566.54	60111.98
566.70	60165.81
566.87	60191.56
567.03	60041.76
567.19	60350.71
567.36	60140.07
567.52	59903.67
567.68	60327.31
567.85	60182.19
568.01	60357.74
568.17	60189.22
568.34	60320.29
568.50	60247.73
568.66	60252.41
568.83	60271.14
568.99	60133.04
569.15	60392.84
569.32	60287.52
569.48	60236.03
569.64	60472.42
569.81	60364.76
569.97	60261.77
570.13	60240.71
570.30	60243.05
570.46	60390.50
570.62	60301.56
570.78	60224.32
570.95	60137.72
571.11	60523.91
571.27	60226.66
571.43	60439.65
571.60	60430.29
571.76	60533.28
571.92	60364.76
572.09	60589.45
572.25	60240.71
572.41	60378.80
572.57	60327.31
572.74	60697.11
572.90	60252.41
573.06	60680.73
573.22	60390.50
573.38	60519.23
573.55	60427.95
573.71	60800.10
573.87	60547.32
574.03	60552.00
574.20	60577.75
574.36	60355.39
574.52	60690.09
574.68	60697.11
574.84	60699.45
575.01	60587.11
575.17	60587.11
575.33	60336.67
575.49	60404.55
575.65	60631.58
575.82	60584.77
575.98	60748.60
576.14	60729.88
576.30	60809.46
576.46	60516.89
576.62	60603.49
576.79	60725.20
576.95	60507.53
577.11	60596.47
577.27	60837.54
577.43	60720.52
577.59	60699.45
577.75	60687.75
577.92	60540.30
578.08	60708.82
578.24	60809.46
578.40	60790.73
578.56	60879.67
578.72	60664.35
578.88	60935.85
579.04	60804.78
579.21	60790.73
579.37	61001.38
579.53	60865.63
579.69	60596.47
579.85	60568.38
580.01	60647.96
580.17	60561.36
580.33	60917.12
580.49	60832.86
580.65	60690.09
580.82	60582.43
580.98	60495.83
581.14	60769.67
581.30	60865.63
581.46	60741.58
581.62	60814.14
581.78	60708.82
581.94	60767.33
582.10	60907.76
582.26	60846.91
582.42	60451.36
582.58	60797.76
582.74	60715.84
582.90	60783.71
583.06	60727.54
583.22	60528.59
583.38	60828.18
583.54	60636.26
583.70	60853.93
583.86	60743.92
584.02	60722.86
584.18	60701.79
584.34	60956.91
584.50	60610.51
584.66	60921.80
584.82	60570.72
584.98	60872.65
585.14	61162.88
585.30	60802.44
585.46	60851.59
585.62	60671.37
585.78	60933.51
585.94	60673.71
586.10	60898.40
586.26	60748.60
586.42	60963.93
586.58	60907.76
586.74	60809.46
586.90	60928.83
587.06	60942.87
587.22	61207.35
587.38	60917.12
587.54	61001.38
587.70	61162.88
587.86	60872.65
588.02	60729.88
588.18	61137.13
588.34	61010.74
588.49	60954.57
