SpectraSuite Data File
++++++++++++++++++++++++++++++++++++
Date: Fri Oct 25 10:47:38 EDT 2013
User: price-jones
Dark Spectrum Present: No
Reference Spectrum Present: No
Number of Sampled Component Spectra: 1
Spectrometers: USB2+H05261
Integration Time (usec): 100000 (USB2+H05261)
Spectra Averaged: 1 (USB2+H05261)
Boxcar Smoothing: 0 (USB2+H05261)
Correct for Electrical Dark: No (USB2+H05261)
Strobe/Lamp Enabled: No (USB2+H05261)
Correct for Detector Non-linearity: No (USB2+H05261)
Correct for Stray Light: No (USB2+H05261)
Number of Pixels in Processed Spectrum: 2048
>>>>>Begin Processed Spectral Data<<<<<
365.73	156.82
365.92	156.82
366.12	156.82
366.32	53.83
366.52	100.64
366.72	72.56
366.91	53.83
367.11	21.06
367.31	4.68
367.51	56.17
367.70	0.00
367.90	49.15
368.10	95.96
368.30	60.85
368.49	30.43
368.69	105.32
368.89	30.43
369.09	86.60
369.28	51.49
369.48	63.19
369.68	112.35
369.87	131.07
370.07	124.05
370.27	152.13
370.47	147.45
370.66	379.17
370.86	397.89
371.06	423.64
371.25	435.34
371.45	489.17
371.65	510.24
371.84	456.40
372.04	486.83
372.24	472.79
372.44	463.43
372.63	514.92
372.83	507.90
373.03	500.87
373.22	526.62
373.42	489.17
373.62	498.53
373.81	498.53
374.01	580.45
374.21	524.28
374.40	486.83
374.60	524.28
374.79	528.96
374.99	540.66
375.19	550.03
375.38	592.16
375.58	512.58
375.78	519.60
375.97	547.69
376.17	660.03
376.37	587.47
376.56	601.52
376.76	575.77
376.95	645.99
377.15	601.52
377.35	669.39
377.54	498.53
377.74	568.75
377.93	606.20
378.13	599.18
378.33	645.99
378.52	667.05
378.72	617.90
378.91	592.16
379.11	503.22
379.31	601.52
379.50	655.35
379.70	690.46
379.89	674.07
380.09	594.50
380.28	702.16
380.48	631.94
380.68	620.24
380.87	711.52
381.07	683.44
381.26	622.58
381.46	648.33
381.65	685.78
381.85	720.88
382.04	624.92
382.24	648.33
382.43	685.78
382.63	674.07
382.83	727.91
383.02	683.44
383.22	767.70
383.41	706.84
383.61	751.31
383.80	730.25
384.00	709.18
384.19	807.48
384.39	741.95
384.58	809.83
384.78	704.50
384.97	753.65
385.17	727.91
385.36	760.67
385.56	795.78
385.75	699.82
385.95	833.23
386.14	711.52
386.34	751.31
386.53	802.80
386.72	688.12
386.92	842.59
387.11	826.21
387.31	887.06
387.50	805.14
387.70	950.26
387.89	896.43
388.09	866.00
388.28	828.55
388.48	793.44
388.67	903.45
388.86	863.66
389.06	851.96
389.25	931.53
389.45	800.46
389.64	919.83
389.84	894.08
390.03	929.19
390.22	1004.09
390.42	973.66
390.61	929.19
390.81	905.79
391.00	945.58
391.19	992.39
391.39	903.45
391.58	905.79
391.78	990.05
391.97	952.60
392.16	936.21
392.36	992.39
392.55	1027.50
392.75	1053.24
392.94	894.08
393.13	952.60
393.33	1008.77
393.52	1011.11
393.71	1071.97
393.91	997.07
394.10	1074.31
394.29	1081.33
394.49	1097.71
394.68	1153.88
394.88	1163.25
395.07	1107.07
395.26	1104.73
395.46	1160.91
395.65	1163.25
395.84	1118.78
396.04	1193.67
396.23	1102.39
396.42	1128.14
396.62	1123.46
396.81	1128.14
397.00	1233.46
397.19	1186.65
397.39	1284.95
397.58	1219.42
397.77	1306.02
397.97	1224.10
398.16	1334.11
398.35	1315.38
398.55	1277.93
398.74	1350.49
398.93	1334.11
399.12	1310.70
399.32	1256.87
399.51	1308.36
399.70	1399.64
399.90	1385.60
400.09	1423.05
400.28	1376.24
400.47	1373.89
400.67	1521.35
400.86	1455.81
401.05	1497.94
401.24	1570.50
401.44	1455.81
401.63	1476.88
401.82	1614.97
402.01	1458.15
402.21	1547.09
402.40	1631.35
402.59	1563.48
402.78	1577.52
402.97	1612.63
403.17	1593.90
403.36	1619.65
403.55	1577.52
403.74	1607.95
403.93	1689.87
404.13	1694.55
404.32	1589.22
404.51	1694.55
404.70	1732.00
404.89	1795.19
405.09	1785.83
405.28	1820.94
405.47	1853.70
405.66	1881.79
405.85	1764.76
406.05	1732.00
406.24	1832.64
406.43	1806.89
406.62	1891.15
406.81	2003.50
407.00	1968.39
407.20	1802.21
407.39	1774.13
407.58	1973.07
407.77	1940.30
407.96	1944.99
408.15	2097.12
408.34	1947.33
408.54	1935.62
408.73	2019.88
408.92	2062.01
409.11	2204.78
409.30	2115.84
409.49	1982.43
409.68	2094.78
409.87	2129.89
410.07	2139.25
410.26	2146.27
410.45	2270.32
410.64	2209.47
410.83	2246.91
411.02	2333.51
411.21	2296.07
411.40	2209.47
411.59	2333.51
411.78	2380.32
411.98	2298.41
412.17	2356.92
412.36	2403.73
412.55	2420.11
412.74	2619.06
412.93	2455.22
413.12	2382.67
413.31	2658.85
413.50	2619.06
413.69	2532.46
413.88	2640.12
414.07	2621.40
414.26	2691.62
414.45	2679.91
414.64	2684.59
414.83	2675.23
415.02	2750.13
415.22	2799.28
415.41	2871.84
415.60	2789.92
415.79	2801.62
415.98	2939.71
416.17	2913.97
416.36	2878.86
416.55	2935.03
416.74	2911.63
416.93	2892.90
417.12	3084.83
417.31	2972.48
417.50	2986.52
417.69	3108.23
417.88	3150.36
418.07	3122.27
418.26	3073.12
418.45	3251.00
418.64	3332.92
418.83	3243.98
419.02	3164.40
419.21	3194.83
419.39	3232.28
419.58	3236.96
419.77	3248.66
419.96	3295.47
420.15	3548.25
420.34	3286.11
420.53	3349.31
420.72	3358.67
420.91	3482.72
421.10	3400.80
421.29	3611.45
421.48	3520.17
421.67	3719.11
421.86	3506.12
422.05	3510.80
422.24	3555.27
422.43	3485.06
422.61	3496.76
422.80	3627.83
422.99	3555.27
423.18	3646.55
423.37	3595.06
423.56	3716.77
423.75	3515.48
423.94	3566.98
424.13	3398.46
424.32	3499.10
424.50	3548.25
424.69	3791.67
424.88	3791.67
425.07	3758.90
425.26	3597.40
425.45	3538.89
425.64	3571.66
425.83	3627.83
426.01	3688.68
426.20	3700.39
426.39	3609.11
426.58	3655.92
426.77	3644.21
426.96	3648.90
427.15	3618.47
427.33	3686.34
427.52	3906.35
427.71	3763.58
427.90	3904.01
428.09	3854.86
428.28	3868.91
428.46	3819.75
428.65	3983.59
428.84	3957.85
429.03	3920.40
429.22	3782.31
429.40	3871.25
429.59	3765.92
429.78	3798.69
429.97	3719.11
430.16	3684.00
430.34	3885.29
430.53	3906.35
430.72	3859.54
430.91	3908.69
431.10	3995.29
431.28	4109.98
431.47	4215.30
431.66	4329.99
431.85	4035.08
432.03	4187.22
432.22	4252.75
432.41	4278.50
432.60	4205.94
432.79	4215.30
432.97	4222.33
433.16	4407.23
433.35	4205.94
433.54	4297.22
433.72	4400.21
433.91	4461.06
434.10	4463.40
434.28	4353.40
434.47	4383.82
434.66	4430.63
434.85	4627.24
435.03	4435.32
435.22	4535.96
435.41	4760.65
435.59	4587.45
435.78	4641.28
435.97	4692.77
436.16	4636.60
436.34	4617.88
436.53	4566.39
436.72	4793.42
436.90	4634.26
437.09	4603.83
437.28	4573.41
437.46	4725.54
437.65	4725.54
437.84	4912.78
438.02	4755.97
438.21	4891.72
438.40	4760.65
438.58	4985.34
438.77	5088.32
438.96	4896.40
439.14	5125.77
439.33	5011.09
439.52	5174.92
439.70	5181.95
439.89	5228.76
440.08	5214.71
440.26	5362.17
440.45	5315.36
440.63	5282.59
440.82	5350.46
441.01	5453.45
441.19	5432.38
441.38	5535.37
441.57	5729.63
441.75	5540.05
441.94	5689.84
442.12	5743.67
442.31	5820.91
442.50	5741.33
442.68	5717.93
442.87	5762.40
443.05	5795.17
443.24	6024.54
443.43	5748.36
443.61	5987.09
443.80	6099.44
443.98	5774.10
444.17	5535.37
444.35	6066.67
444.54	5961.34
444.73	5937.94
444.91	5900.49
445.10	5930.92
445.28	5724.95
445.47	5813.89
445.65	5928.58
445.84	6059.65
446.02	6129.86
446.21	5980.07
446.39	5790.49
446.58	6148.59
446.77	6083.05
446.95	5919.21
447.14	6127.52
447.32	6228.17
447.51	6104.12
447.69	5919.21
447.88	6033.90
448.06	6188.38
448.25	6047.94
448.43	6118.16
448.62	6211.78
448.80	6092.41
448.99	6356.90
449.17	6122.84
449.36	6057.31
449.54	6331.15
449.73	6408.39
449.91	6324.13
450.10	6427.11
450.28	6415.41
450.46	6609.67
450.65	6429.45
450.83	6565.20
451.02	6338.17
451.20	6717.34
451.39	6502.01
451.57	6464.56
451.76	6319.45
451.94	6623.72
452.13	6574.56
452.31	6663.51
452.49	6574.56
452.68	6661.16
452.86	6778.19
453.05	6750.10
453.23	6668.19
453.42	6817.98
453.60	6848.41
453.78	6794.58
453.97	6927.99
454.15	6810.96
454.34	6750.10
454.52	6888.20
454.70	6740.74
454.89	7035.65
455.07	7047.35
455.26	7143.32
455.44	7145.66
455.62	7016.93
455.81	6949.05
455.99	7070.76
456.17	7169.06
456.36	7119.91
456.54	7351.62
456.73	7384.39
456.91	7323.54
457.09	7360.98
457.28	7527.16
457.46	7431.20
457.64	7466.31
457.83	7424.18
458.01	7201.83
458.19	7515.46
458.38	7431.20
458.56	7698.02
458.74	7616.10
458.93	7377.37
459.11	7499.08
459.29	7524.82
459.48	7499.08
459.66	7489.71
459.84	7651.21
460.03	7831.43
460.21	7604.40
460.39	7674.62
460.57	7541.21
460.76	7693.34
460.94	7976.55
461.12	7922.71
461.31	7822.07
461.49	7861.86
461.67	7913.35
461.85	8065.49
462.04	8013.99
462.22	8390.82
462.40	8229.32
462.59	8152.09
462.77	8241.03
462.95	8229.32
463.13	8023.36
463.32	8124.00
463.50	8381.46
463.68	8318.26
463.86	8259.75
464.05	8269.11
464.23	8348.69
464.41	8493.80
464.59	8248.05
464.78	8362.73
464.96	8367.42
465.14	8308.90
465.32	8257.41
465.50	8402.52
465.69	8671.68
465.87	8393.16
466.05	8484.44
466.23	8386.14
466.41	8421.25
466.60	8615.51
466.78	8418.91
466.96	8482.10
467.14	8341.67
467.32	8688.07
467.51	8634.24
467.69	8599.13
467.87	8760.63
468.05	9048.51
468.23	8599.13
468.41	8786.37
468.60	8798.07
468.78	8816.80
468.96	8912.76
469.14	8926.80
469.32	9013.40
469.50	9008.72
469.69	9053.19
469.87	9184.26
470.05	9121.07
470.23	9046.17
470.41	8994.68
470.59	9245.12
470.77	9308.31
470.95	9200.65
471.14	9242.78
471.32	8954.89
471.50	9577.47
471.68	9364.48
471.86	9547.05
472.04	9668.75
472.22	9745.99
472.40	9399.59
472.58	9589.17
472.77	9589.17
472.95	9830.25
473.13	9884.08
473.31	9771.74
473.49	9530.66
473.67	9872.38
473.85	9923.87
474.03	10303.04
474.21	10181.33
474.39	10143.88
474.57	10080.69
474.75	10387.30
474.93	10415.38
475.12	10466.88
475.30	10499.64
475.48	10370.91
475.66	10314.74
475.84	10413.04
476.02	10443.47
476.20	10382.62
476.38	10799.23
476.56	10981.79
476.74	10827.32
476.92	10998.18
477.10	10743.06
477.28	11033.29
477.46	10970.09
477.64	11061.37
477.82	11552.88
478.00	11541.18
478.18	11595.01
478.36	11609.06
478.54	11735.45
478.72	11756.51
478.90	12023.33
479.08	11878.22
479.26	12107.59
479.44	12056.10
479.62	12133.34
479.80	12297.17
479.98	12271.43
480.16	12765.28
480.34	12535.91
480.52	12713.79
480.70	12648.26
480.88	12526.55
481.06	12936.14
481.24	12901.03
481.41	12980.61
481.59	13057.85
481.77	13439.36
481.95	13362.12
482.13	13525.96
482.31	13642.98
482.49	13626.60
482.67	13706.18
482.85	13874.70
483.03	14001.08
483.21	13851.29
483.39	13963.64
483.57	14104.07
483.74	14286.63
483.92	14516.00
484.10	14197.69
484.28	14780.48
484.46	15040.28
484.64	14888.15
484.82	14939.64
485.00	15061.35
485.18	15459.24
485.35	15445.20
485.53	15253.27
485.71	15171.35
485.89	15742.44
486.07	15463.92
486.25	15564.56
486.43	15770.53
486.61	16020.97
486.78	16020.97
486.96	16266.72
487.14	16470.35
487.32	16456.31
487.50	16793.34
487.68	16826.11
487.85	16877.60
488.03	17078.89
488.21	17598.49
488.39	17202.94
488.57	17205.28
488.75	17502.53
488.92	17867.65
489.10	18040.85
489.28	18090.00
489.46	18214.05
489.64	18515.98
489.81	18586.19
489.99	18810.89
490.17	18838.97
490.35	18848.33
490.53	18918.55
490.70	18778.12
490.88	18820.25
491.06	19187.71
491.24	19426.45
491.41	19204.10
491.59	19403.04
491.77	19508.37
491.95	19648.80
492.13	20114.56
492.30	20175.42
492.48	20159.03
492.66	20081.80
492.84	20140.31
493.01	20376.70
493.19	20655.23
493.37	20884.60
493.54	20915.03
493.72	21053.12
493.90	21036.74
494.08	21240.36
494.25	21451.01
494.43	21284.83
494.61	21921.46
494.79	21710.81
494.96	21886.35
495.14	21769.32
495.32	22059.55
495.49	22104.02
495.67	22139.13
495.85	22286.58
496.02	22656.39
496.20	22635.32
496.38	22604.89
496.55	22761.71
496.73	23363.23
496.91	23005.13
497.09	23594.94
497.26	23133.86
497.44	23318.76
497.62	23704.95
497.79	23545.79
497.97	23646.43
498.14	23498.98
498.32	23941.34
498.50	24112.20
498.67	24079.43
498.85	24276.04
499.03	24463.28
499.20	24582.65
499.38	24552.22
499.56	24781.59
499.73	24666.91
499.91	24638.82
500.08	24697.33
500.26	25106.93
500.44	25043.73
500.61	25071.82
500.79	25228.63
500.97	25436.94
501.14	25518.86
501.32	25385.45
501.49	25474.39
501.67	25387.79
501.84	25846.54
502.02	25898.03
502.20	26026.76
502.37	26270.17
502.55	26253.79
502.72	26244.43
502.90	25975.27
503.07	26071.23
503.25	26178.89
503.43	26340.39
503.60	26515.93
503.78	26644.66
503.95	26565.08
504.13	27098.72
504.30	26967.65
504.48	27197.02
504.65	26820.20
504.83	27405.33
505.01	27405.33
505.18	27552.79
505.36	27541.08
505.53	27449.80
505.71	27763.43
505.88	27817.27
506.06	27889.82
506.23	27599.60
506.41	27828.97
506.58	27988.13
506.76	28187.07
506.93	28224.52
507.11	28418.78
507.28	28128.56
507.46	28400.06
507.63	28093.45
507.81	28161.33
507.98	28163.67
508.16	28694.97
508.33	28741.78
508.50	28821.36
508.68	29305.85
508.85	29479.05
509.03	29394.79
509.20	29130.31
509.38	29364.36
509.55	29516.50
509.73	29720.12
509.90	29443.94
510.08	29413.51
510.25	29708.42
510.42	30230.36
510.60	29694.38
510.77	29825.45
510.95	30455.05
511.12	30244.40
511.30	30450.37
511.47	30183.55
511.64	30644.63
511.82	30551.01
511.99	30328.66
512.17	30710.17
512.34	30522.93
512.51	30841.24
512.69	30817.83
512.86	31262.54
513.04	30923.16
513.21	30951.24
513.38	30565.06
513.56	31274.24
513.73	31145.51
513.90	31115.08
514.08	31349.14
514.25	31494.25
514.43	31679.15
514.60	31339.77
514.77	31325.73
514.95	31564.46
515.12	31632.34
515.29	32065.34
515.47	31988.10
515.64	32048.96
515.81	32006.83
515.99	31878.10
516.16	32093.43
516.33	32194.07
516.51	32322.80
516.68	31768.09
516.85	31988.10
517.03	32070.02
517.20	32414.08
517.37	32818.99
517.54	32411.74
517.72	32947.72
517.89	32673.88
518.06	32732.39
518.24	32503.02
518.41	32631.75
518.58	32804.95
518.75	32919.63
518.93	33228.59
519.10	33551.58
519.27	32893.89
519.45	33369.02
519.62	33415.83
519.79	33553.92
519.96	33734.14
520.14	33869.89
520.31	33486.04
520.48	33457.96
520.65	33500.09
520.83	34167.14
521.00	34403.53
521.17	34078.20
521.34	34132.03
521.52	34284.17
521.69	34518.22
521.86	34494.82
522.03	34440.98
522.20	34291.19
522.38	34883.34
522.55	34890.37
522.72	34794.40
522.89	34452.69
523.07	34958.24
523.24	34651.63
523.41	35101.01
523.58	34817.81
523.75	35316.34
523.92	35292.94
524.10	34972.28
524.27	35536.35
524.44	35793.81
524.61	35793.81
524.78	35709.55
524.96	35889.77
525.13	35732.96
525.30	35936.59
525.47	35805.52
525.64	35995.10
525.81	35821.90
525.98	35639.34
526.16	35658.06
526.33	35651.04
526.50	36044.25
526.67	35566.78
526.84	35585.50
527.01	35908.50
527.18	36215.11
527.36	36521.72
527.53	36271.28
527.70	36470.23
527.87	36788.54
528.04	36374.27
528.21	36264.26
528.38	36690.24
528.55	36692.58
528.72	36875.14
528.89	36928.97
529.07	37394.74
529.24	37027.28
529.41	36671.51
529.58	36828.33
529.75	36818.97
529.92	37298.78
530.09	37383.04
530.26	37280.05
530.43	37710.71
530.60	37237.92
530.77	37034.30
530.94	37387.72
531.11	37495.38
531.28	37935.40
531.46	37544.53
531.63	38045.41
531.80	37542.19
531.97	37886.25
532.14	37626.45
532.31	37649.86
532.48	37708.37
532.65	37883.91
532.82	38029.02
532.99	37790.29
533.16	37771.57
533.33	38064.13
533.50	38342.66
533.67	38356.70
533.84	37677.94
534.01	38356.70
534.18	38595.43
534.35	38197.54
534.52	38328.61
534.69	38677.35
534.86	38768.63
535.03	37902.64
535.20	38911.41
535.37	39005.03
535.54	38721.82
535.71	38780.34
535.88	39115.03
536.05	39283.55
536.22	39009.71
536.38	39002.69
536.55	38944.17
536.72	38719.48
536.89	39119.71
537.06	38855.23
537.23	39370.15
537.40	39512.92
537.57	39077.58
537.74	39353.77
537.91	39339.72
538.08	39688.46
538.25	39180.57
538.42	39344.41
538.59	39625.27
538.75	39646.33
538.92	39693.15
539.09	39662.72
539.26	39536.33
539.43	39433.35
539.60	39660.38
539.77	39379.51
539.94	39941.24
540.11	40123.80
540.28	39770.38
540.44	39966.99
540.61	39803.15
540.78	39770.38
540.95	40053.59
541.12	40074.65
541.29	39409.94
541.46	39756.34
541.62	40325.09
541.79	40151.89
541.96	39969.33
542.13	39934.22
542.30	40889.16
542.47	40549.78
542.63	40582.55
542.80	40620.00
542.97	40835.33
543.14	40884.48
543.31	40821.28
543.48	41050.66
543.64	41483.66
543.81	41434.50
543.98	41111.51
544.15	41029.59
544.32	41265.99
544.48	41186.41
544.65	41294.07
544.82	41151.30
544.99	40980.44
545.16	41097.47
545.32	41113.85
545.49	41509.40
545.66	41535.15
545.83	41373.65
546.00	41783.24
546.16	41464.93
546.33	41460.25
546.50	40999.16
546.67	41235.56
546.83	41607.70
547.00	41907.29
547.17	41677.92
547.34	41202.79
547.50	41521.10
547.67	41949.42
547.84	41720.05
548.00	41745.80
548.17	41846.44
548.34	41874.52
548.51	42146.03
548.67	42258.37
548.84	42497.11
549.01	42237.31
549.18	42038.36
549.34	42595.41
549.51	42234.97
549.68	42539.24
549.84	42258.37
550.01	42469.02
550.18	42359.02
550.34	42068.79
550.51	42679.67
550.68	41900.27
550.84	42197.52
551.01	42131.98
551.18	42389.44
551.34	42429.23
551.51	42309.86
551.68	42450.30
551.84	42639.88
552.01	42300.50
552.18	42368.38
552.34	42721.80
552.51	42787.33
552.68	43164.16
552.84	42974.58
553.01	43021.39
553.18	42916.06
553.34	42728.82
553.51	42548.60
553.67	42869.25
553.84	43145.44
554.01	43419.28
554.17	43260.12
554.34	43370.13
554.51	43194.59
554.67	43178.20
554.84	43395.87
555.00	42885.64
555.17	42838.83
555.33	43166.50
555.50	43419.28
555.67	43449.70
555.83	43583.12
556.00	43540.99
556.16	43590.14
556.33	43335.02
556.50	43346.72
556.66	43402.89
556.83	42885.64
556.99	43608.86
557.16	43531.62
557.32	43681.42
557.49	43496.52
557.65	43688.44
557.82	43803.13
557.98	43136.07
558.15	43381.83
558.32	43679.08
558.48	43648.65
558.65	43777.38
558.81	43377.15
558.98	43594.82
559.14	43831.21
559.31	43456.73
559.47	43868.66
559.64	43849.94
559.80	44238.47
559.97	43634.61
560.13	43742.27
560.30	43908.45
560.46	43990.37
560.63	44009.09
560.79	44058.24
560.96	44240.81
561.12	44224.42
561.29	44362.51
561.45	44289.96
561.61	44060.58
561.78	44098.03
561.94	43995.05
562.11	43782.06
562.27	44116.76
562.44	43983.35
562.60	43990.37
562.77	44493.58
562.93	44177.61
563.10	44289.96
563.26	43959.94
563.42	44491.24
563.59	43929.51
563.75	43838.23
563.92	44341.45
564.08	44027.82
564.24	44294.64
564.41	44189.31
564.57	43833.55
564.74	44336.77
564.90	44626.99
565.07	44243.15
565.23	44451.45
565.39	44027.82
565.56	44458.48
565.72	44062.93
565.88	44217.40
566.05	44261.87
566.21	44149.53
566.38	44467.84
566.54	44568.48
566.70	44715.93
566.87	45514.06
567.03	44596.57
567.19	45216.81
567.36	44605.93
567.52	44390.60
567.68	44645.72
567.85	44538.05
568.01	44617.63
568.17	44559.12
568.34	44676.15
568.50	44650.40
568.66	44495.92
568.83	44774.45
568.99	44561.46
569.15	44311.02
569.32	44432.73
569.48	44671.46
569.64	44559.12
569.81	44622.31
569.97	44765.09
570.13	44610.61
570.30	44442.09
570.46	44406.98
570.62	44219.74
570.78	44638.70
570.95	44531.03
571.11	44816.58
571.27	44533.37
571.43	44285.28
571.60	44814.24
571.76	44905.52
571.92	44535.71
572.09	44694.87
572.25	44676.15
572.41	44493.58
572.57	44676.15
572.74	44987.44
572.90	44807.22
573.06	44814.24
573.22	44964.03
573.38	44622.31
573.55	44631.68
573.71	44919.56
573.87	44711.25
574.03	44657.42
574.20	44715.93
574.36	44285.28
574.52	45134.89
574.68	44795.51
574.84	45240.21
575.01	44968.71
575.17	44921.90
575.33	44811.90
575.49	44971.05
575.65	44861.05
575.82	45392.35
575.98	44626.99
576.14	45294.05
576.30	44952.33
576.46	44636.36
576.62	44619.97
576.79	44491.24
576.95	44357.83
577.11	45067.02
577.27	45022.54
577.43	44835.30
577.59	45195.74
577.75	44875.09
577.92	44676.15
578.08	44928.92
578.24	44795.51
578.40	44690.19
578.56	44912.54
578.72	44985.10
578.88	45195.74
579.04	45453.20
579.21	45109.14
579.37	44449.11
579.53	44790.83
579.69	44680.83
579.85	44669.12
580.01	44781.47
580.17	45092.76
580.33	45336.18
580.49	45202.77
580.65	45130.21
580.82	45413.41
580.98	44935.95
581.14	44783.81
581.30	45371.28
581.46	45003.82
581.62	45071.70
581.78	45010.84
581.94	45324.47
582.10	45687.26
582.26	44971.05
582.42	45155.96
582.58	45038.93
582.74	44442.09
582.90	44949.99
583.06	45322.13
583.22	45144.25
583.38	45177.02
583.54	45418.10
583.70	44907.86
583.86	45298.73
584.02	44498.26
584.18	45338.52
584.34	44816.58
584.50	45195.74
584.66	45336.18
584.82	45106.80
584.98	45294.05
585.14	45139.57
585.30	44928.92
585.46	44896.16
585.62	45139.57
585.78	44622.31
585.94	44718.28
586.10	45116.17
586.26	44800.19
586.42	45144.25
586.58	45195.74
586.74	44659.76
586.90	45088.08
587.06	44835.30
587.22	45118.51
587.38	44748.70
587.54	45174.68
587.70	45336.18
587.86	45495.33
588.02	45165.32
588.18	45387.67
588.34	45137.23
588.49	45127.87
588.65	44985.10
588.81	44624.65
588.97	44737.00
589.13	44512.31
589.29	44891.48
589.45	45392.35
589.61	45357.24
589.77	45371.28
589.93	45207.45
590.08	45380.65
590.24	45221.49
