SpectraSuite Data File
++++++++++++++++++++++++++++++++++++
Date: Fri Oct 25 10:43:30 EDT 2013
User: price-jones
Dark Spectrum Present: No
Reference Spectrum Present: No
Number of Sampled Component Spectra: 1
Spectrometers: USB2+H05261
Integration Time (usec): 100000 (USB2+H05261)
Spectra Averaged: 1 (USB2+H05261)
Boxcar Smoothing: 0 (USB2+H05261)
Correct for Electrical Dark: No (USB2+H05261)
Strobe/Lamp Enabled: No (USB2+H05261)
Correct for Detector Non-linearity: No (USB2+H05261)
Correct for Stray Light: No (USB2+H05261)
Number of Pixels in Processed Spectrum: 2048
>>>>>Begin Processed Spectral Data<<<<<
365.73	227.03
365.92	227.03
366.12	227.03
366.32	81.92
366.52	16.38
366.72	65.54
366.91	28.09
367.11	46.81
367.31	4.68
367.51	42.13
367.70	53.83
367.90	100.64
368.10	0.00
368.30	0.00
368.49	28.09
368.69	32.77
368.89	77.24
369.09	2.34
369.28	0.00
369.48	46.81
369.68	74.90
369.87	67.88
370.07	63.19
370.27	86.60
370.47	201.29
370.66	421.30
370.86	444.70
371.06	461.09
371.25	461.09
371.45	418.96
371.65	468.11
371.84	461.09
372.04	493.85
372.24	540.66
372.44	489.17
372.63	505.56
372.83	477.47
373.03	458.74
373.22	454.06
373.42	507.90
373.62	482.15
373.81	463.43
374.01	540.66
374.21	617.90
374.40	559.39
374.60	617.90
374.79	582.79
374.99	606.20
375.19	550.03
375.38	580.45
375.58	540.66
375.78	603.86
375.97	643.65
376.17	594.50
376.37	575.77
376.56	543.00
376.76	491.51
376.95	582.79
377.15	512.58
377.35	678.76
377.54	641.31
377.74	631.94
377.93	706.84
378.13	653.01
378.33	645.99
378.52	566.41
378.72	695.14
378.91	629.60
379.11	617.90
379.31	587.47
379.50	594.50
379.70	699.82
379.89	671.73
380.09	636.63
380.28	667.05
380.48	645.99
380.68	695.14
380.87	718.54
381.07	730.25
381.26	758.33
381.46	713.86
381.65	573.43
381.85	608.54
382.04	741.95
382.24	678.76
382.43	711.52
382.63	748.97
382.83	711.52
383.02	770.04
383.22	636.63
383.41	669.39
383.61	814.51
383.80	763.01
384.00	767.70
384.19	798.12
384.39	826.21
384.58	751.31
384.78	823.87
384.97	786.42
385.17	833.23
385.36	779.40
385.56	795.78
385.75	821.53
385.95	851.96
386.14	781.74
386.34	863.66
386.53	858.98
386.72	844.93
386.92	894.08
387.11	833.23
387.31	910.47
387.50	849.61
387.70	870.68
387.89	866.00
388.09	903.45
388.28	884.72
388.48	837.91
388.67	994.73
388.86	898.77
389.06	924.51
389.25	919.83
389.45	987.71
389.64	936.21
389.84	1029.84
390.03	931.53
390.22	1053.24
390.42	943.24
390.61	1015.79
390.81	1022.81
391.00	1020.47
391.19	1132.82
391.39	1090.69
391.58	1034.52
391.78	1001.75
391.97	1118.78
392.16	1022.81
392.36	1107.07
392.55	959.62
392.75	1018.13
392.94	894.08
393.13	950.26
393.33	959.62
393.52	1048.56
393.71	1027.50
393.91	1088.35
394.10	1088.35
394.29	1060.26
394.49	1149.20
394.68	1270.91
394.88	1287.29
395.07	1221.76
395.26	1224.10
395.46	1191.33
395.65	1249.85
395.84	1219.42
396.04	1275.59
396.23	1179.63
396.42	1196.01
396.62	1139.84
396.81	1146.86
397.00	1256.87
397.19	1226.44
397.39	1219.42
397.58	1308.36
397.77	1439.43
397.97	1380.92
398.16	1369.21
398.35	1336.45
398.55	1313.04
398.74	1537.73
398.93	1406.66
399.12	1458.15
399.32	1533.05
399.51	1523.69
399.70	1516.67
399.90	1437.09
400.09	1584.54
400.28	1535.39
400.47	1605.61
400.67	1699.23
400.86	1640.72
401.05	1561.14
401.24	1724.97
401.44	1746.04
401.63	1650.08
401.82	1715.61
402.01	1687.53
402.21	1647.74
402.40	1720.29
402.59	1720.29
402.78	1666.46
402.97	1638.38
403.17	1783.49
403.36	1806.89
403.55	1764.76
403.74	1804.55
403.93	1839.66
404.13	1966.05
404.32	1757.74
404.51	1863.07
404.70	1926.26
404.89	1881.79
405.09	2019.88
405.28	1989.46
405.47	1877.11
405.66	1865.41
405.85	1970.73
406.05	1980.09
406.24	2066.69
406.43	1949.67
406.62	2012.86
406.81	2209.47
407.00	2115.84
407.20	2008.18
407.39	2066.69
407.58	2176.70
407.77	2047.97
407.96	2141.59
408.15	2279.68
408.34	2251.60
408.54	2256.28
408.73	2331.17
408.92	2300.75
409.11	2289.04
409.30	2249.25
409.49	2314.79
409.68	2216.49
409.87	2303.09
410.07	2258.62
410.26	2368.62
410.45	2427.14
410.64	2211.81
410.83	2525.44
411.02	2497.35
411.21	2616.72
411.40	2471.61
411.59	2581.61
411.78	2619.06
411.98	2647.15
412.17	2626.08
412.36	2635.44
412.55	2698.64
412.74	2820.35
412.93	2710.34
413.12	2764.17
413.31	2846.09
413.50	2719.70
413.69	2813.32
413.88	2869.50
414.07	2899.92
414.26	2904.60
414.45	2918.65
414.64	3026.31
414.83	3012.27
415.02	3033.33
415.22	2986.52
415.41	3056.74
415.60	3126.96
415.79	3169.09
415.98	3234.62
416.17	3269.73
416.36	3251.00
416.55	3318.88
416.74	3185.47
416.93	3246.32
417.12	3220.58
417.31	3253.34
417.50	3431.23
417.69	3363.35
417.88	3386.76
418.07	3363.35
418.26	3513.14
418.45	3574.00
418.64	3534.21
418.83	3506.12
419.02	3606.77
419.21	3494.42
419.39	3627.83
419.58	3613.79
419.77	3548.25
419.96	3735.50
420.15	3581.02
420.34	3681.66
420.53	3742.52
420.72	3808.05
420.91	3775.28
421.10	3660.60
421.29	3864.22
421.48	3866.56
421.67	3749.54
421.86	3719.11
422.05	3665.28
422.24	3611.45
422.43	3756.56
422.61	3700.39
422.80	3854.86
422.99	3941.46
423.18	3927.42
423.37	4002.32
423.56	4016.36
423.75	3939.12
423.94	3871.25
424.13	3758.90
424.32	3747.20
424.50	3887.63
424.69	4046.79
424.88	3978.91
425.07	3866.56
425.26	3873.59
425.45	3896.99
425.64	3974.23
425.83	3918.06
426.01	4011.68
426.20	3971.89
426.39	4058.49
426.58	3918.06
426.77	3761.24
426.96	3920.40
427.15	4084.23
427.33	4084.23
427.52	4065.51
427.71	4011.68
427.90	4131.05
428.09	4081.89
428.28	4030.40
428.46	4109.98
428.65	4081.89
428.84	4276.16
429.03	4250.41
429.22	3988.27
429.40	3988.27
429.59	4142.75
429.78	3892.31
429.97	3843.16
430.16	3983.59
430.34	3981.25
430.53	4177.86
430.72	4098.28
430.91	4208.28
431.10	4332.33
431.28	4519.57
431.47	4599.15
431.66	4521.92
431.85	4325.31
432.03	4526.60
432.22	4657.67
432.41	4608.51
432.60	4697.46
432.79	4713.84
432.97	4770.01
433.16	4636.60
433.35	4610.86
433.54	4697.46
433.72	4594.47
433.91	4683.41
434.10	4772.35
434.28	4755.97
434.47	4889.38
434.66	4863.63
434.85	4959.60
435.03	4854.27
435.22	4767.67
435.41	5081.30
435.59	5151.52
435.78	5062.58
435.97	5114.07
436.16	5123.43
436.34	5177.26
436.53	5186.63
436.72	5231.10
436.90	5114.07
437.09	5060.24
437.28	5060.24
437.46	5008.75
437.65	5011.09
437.84	5146.84
438.02	5247.48
438.21	5100.03
438.40	5135.14
438.58	5238.12
438.77	5490.90
438.96	5277.91
439.14	5444.09
439.33	5549.41
439.52	5533.03
439.70	5647.71
439.89	5717.93
440.08	5495.58
440.26	5495.58
440.45	5753.04
440.63	5760.06
440.82	5863.04
441.01	5703.89
441.19	5916.87
441.38	5968.37
441.57	6169.65
441.75	6118.16
441.94	6284.34
442.12	6031.56
442.31	6431.79
442.50	6265.61
442.68	6164.97
442.87	6197.74
443.05	6373.28
443.24	6455.20
443.43	6338.17
443.61	6387.32
443.80	6413.07
443.98	6328.81
444.17	6303.06
444.35	6408.39
444.54	6548.82
444.73	6471.58
444.91	6581.59
445.10	6473.92
445.28	6445.84
445.47	6406.05
445.65	6457.54
445.84	6541.80
446.02	6654.14
446.21	6612.01
446.39	6487.96
446.58	6684.57
446.77	6551.16
446.95	6581.59
447.14	6663.51
447.32	6869.47
447.51	6630.74
447.69	6843.73
447.88	6548.82
448.06	6703.29
448.25	6705.63
448.43	6644.78
448.62	6562.86
448.80	6565.20
448.99	6672.87
449.17	6642.44
449.36	6761.81
449.54	6867.13
449.73	6942.03
449.91	6998.20
450.10	7129.27
450.28	7225.23
450.46	7265.02
450.65	7180.76
450.83	7019.27
451.02	7290.77
451.20	7119.91
451.39	7304.81
451.57	7194.81
451.76	7126.93
451.94	7194.81
452.13	7325.88
452.31	7337.58
452.49	7063.74
452.68	7084.80
452.86	6857.77
453.05	7377.37
453.23	7393.75
453.42	7124.59
453.60	7260.34
453.78	7590.36
453.97	7342.26
454.15	7555.25
454.34	7321.20
454.52	7595.04
454.70	7302.47
454.89	7353.96
455.07	7508.44
455.26	7686.32
455.44	7653.55
455.62	7655.89
455.81	7630.15
455.99	7829.09
456.17	7861.86
456.36	7915.69
456.54	7822.07
456.73	8028.04
456.91	8021.02
457.09	8051.44
457.28	8259.75
457.46	7920.37
457.64	8102.93
457.83	7939.10
458.01	7836.11
458.19	8236.35
458.38	8229.32
458.56	8180.17
458.74	8145.06
458.93	8203.58
459.11	8255.07
459.29	8346.35
459.48	8222.30
459.66	8175.49
459.84	8290.18
460.03	8421.25
460.21	8411.89
460.39	8510.19
460.57	8336.99
460.76	8690.41
460.94	8706.79
461.12	8648.28
461.31	8645.94
461.49	8730.20
461.67	8617.85
461.85	8793.39
462.04	8805.10
462.22	9472.15
462.40	9020.42
462.59	8891.70
462.77	8812.12
462.95	8894.04
463.13	8898.72
463.32	8891.70
463.50	8964.25
463.68	8966.59
463.86	8802.75
464.05	8746.58
464.23	8812.12
464.41	9020.42
464.59	8720.84
464.78	9123.41
464.96	9076.60
465.14	8908.08
465.32	9170.22
465.50	9453.42
465.69	9097.66
465.87	9177.24
466.05	9268.52
466.23	9181.92
466.41	9149.15
466.60	9338.74
466.78	8992.34
466.96	9341.08
467.14	9142.13
467.32	9348.10
467.51	9628.96
467.69	9193.62
467.87	9462.79
468.05	9497.89
468.23	9331.72
468.41	9242.78
468.60	9383.21
468.78	9645.35
468.96	9408.95
469.14	9673.43
469.32	9511.94
469.50	9254.48
469.69	9668.75
469.87	9645.35
470.05	9874.72
470.23	9673.43
470.41	9645.35
470.59	9944.94
470.77	9720.24
470.95	9701.52
471.14	10087.71
471.32	9877.06
471.50	10335.81
471.68	10258.57
471.86	10338.15
472.04	10239.84
472.22	10450.49
472.40	10181.33
472.58	10583.90
472.77	10548.79
472.95	10434.11
473.13	10963.07
473.31	10537.09
473.49	10675.18
473.67	10487.94
473.85	10562.84
474.03	10902.22
474.21	11014.56
474.39	10972.43
474.57	11016.90
474.75	11061.37
474.93	11033.29
475.12	11026.26
475.30	11229.89
475.48	11131.59
475.66	11351.60
475.84	11232.23
476.02	11225.21
476.20	11438.20
476.38	11534.16
476.56	11864.18
476.74	11772.89
476.92	11796.30
477.10	11765.87
477.28	11894.60
477.46	11894.60
477.64	12402.50
477.82	12152.06
478.00	12491.44
478.18	12229.30
478.36	12587.40
478.54	12760.60
478.72	12493.78
478.90	12690.38
479.08	13116.36
479.26	12999.34
479.44	13170.19
479.62	13057.85
479.80	13092.96
479.98	13032.10
480.16	13844.27
480.34	13713.20
480.52	13729.58
480.70	13427.65
480.88	13476.80
481.06	13853.63
481.24	14083.00
481.41	14174.28
481.59	14293.65
481.77	14424.72
481.95	14401.32
482.13	14190.67
482.31	14452.81
482.49	14810.91
482.67	14855.38
482.85	14902.19
483.03	15227.53
483.21	15239.23
483.39	15302.42
483.57	15112.84
483.74	15236.89
483.92	15618.39
484.10	15721.38
484.28	15667.55
484.46	16058.42
484.64	16231.62
484.82	16280.77
485.00	16219.91
485.18	16020.97
485.35	16395.45
485.53	16060.76
485.71	16002.24
485.89	16053.73
486.07	16568.65
486.25	16350.98
486.43	16505.46
486.61	16802.71
486.78	16971.22
486.96	16931.44
487.14	17547.00
487.32	17497.84
487.50	17994.04
487.68	17930.84
487.85	18274.90
488.03	18232.77
488.21	18483.21
488.39	18359.16
488.57	18689.18
488.75	18487.89
488.92	19112.81
489.10	19049.62
489.28	19363.25
489.46	19847.74
489.64	19662.84
489.81	19990.52
489.99	20168.40
490.17	20128.61
490.35	20093.50
490.53	20236.27
490.70	20208.19
490.88	20339.26
491.06	20673.95
491.24	20610.76
491.41	20622.46
491.59	20552.24
491.77	20936.09
491.95	20596.71
492.13	21008.65
492.30	21390.16
492.48	21539.95
492.66	21537.61
492.84	21752.94
493.01	21837.20
493.19	21820.81
493.37	21736.56
493.54	21895.71
493.72	22731.28
493.90	22178.92
494.08	23073.00
494.25	23019.17
494.43	23227.48
494.61	23477.91
494.79	23548.13
494.96	23417.06
495.14	23234.50
495.32	23562.17
495.49	23445.15
495.67	23463.87
495.85	23805.59
496.02	23861.76
496.20	24095.82
496.38	24432.85
496.55	24217.52
496.73	25029.69
496.91	24828.40
497.09	25008.62
497.26	25170.12
497.44	25135.01
497.62	25135.01
497.79	25392.47
497.97	25184.16
498.14	25366.73
498.32	25488.43
498.50	25546.95
498.67	25752.91
498.85	26103.99
499.03	25809.09
499.20	25912.07
499.38	26216.34
499.56	26122.72
499.73	26228.04
499.91	26314.64
500.08	26845.94
500.26	26108.68
500.44	26387.20
500.61	26359.11
500.79	26492.52
500.97	26593.17
501.14	26998.08
501.32	27021.48
501.49	26885.73
501.67	27208.73
501.84	27501.29
502.02	27269.58
502.20	27386.61
502.37	27988.13
502.55	27463.85
502.72	27985.79
502.90	28063.02
503.07	27957.70
503.25	28280.69
503.43	27498.95
503.60	28077.07
503.78	27569.17
503.95	28215.16
504.13	28147.28
504.30	28425.81
504.48	28680.92
504.65	28456.23
504.83	29123.29
505.01	29244.99
505.18	29139.67
505.36	29408.83
505.53	29469.69
505.71	29514.16
505.88	29500.11
506.06	28793.27
506.23	29890.98
506.41	28940.72
506.58	29626.50
506.76	29881.62
506.93	30103.97
507.11	29933.11
507.28	29708.42
507.46	30033.75
507.63	29816.08
507.81	29905.02
507.98	29998.65
508.16	29790.34
508.33	30206.95
508.50	30480.80
508.68	30796.77
508.85	30895.07
509.03	30813.15
509.20	30881.03
509.38	31117.42
509.55	30600.16
509.73	30941.88
509.90	31070.61
510.08	30984.01
510.25	31367.86
510.42	31510.63
510.60	31810.22
510.77	31695.53
510.95	32116.83
511.12	31442.76
511.30	31721.28
511.47	32416.42
511.64	32018.53
511.82	32201.09
511.99	31700.22
512.17	32496.00
512.34	32355.57
512.51	32077.04
512.69	32507.70
512.86	32423.44
513.04	32620.05
513.21	32514.72
513.38	32739.41
513.56	32711.33
513.73	32432.80
513.90	32673.88
514.08	32554.51
514.25	32842.40
514.43	33219.22
514.60	32795.59
514.77	33275.40
514.95	33242.63
515.12	33378.38
515.29	33715.42
515.47	33825.42
515.64	33900.32
515.81	33563.28
515.99	33677.97
516.16	33502.43
516.33	33282.42
516.51	33092.83
516.68	32989.85
516.85	33116.24
517.03	33113.90
517.20	33783.29
517.37	34024.37
517.54	34319.28
517.72	33724.78
517.89	33319.87
518.06	33729.46
518.24	33837.12
518.41	34015.01
518.58	34223.31
518.75	34363.75
518.93	34771.00
519.10	34356.72
519.27	35054.20
519.45	35019.10
519.62	35180.59
519.79	35178.25
519.96	35239.11
520.14	35262.51
520.31	35093.99
520.48	35161.87
520.65	35178.25
520.83	35615.93
521.00	35744.66
521.17	35857.01
521.34	35393.58
521.52	35672.10
521.69	35849.99
521.86	35955.31
522.03	35772.75
522.20	36135.53
522.38	36215.11
522.55	36278.30
522.72	36163.62
522.89	36184.68
523.07	36538.10
523.24	36231.49
523.41	36397.67
523.58	36114.47
523.75	36760.45
523.92	36863.44
524.10	36917.27
524.27	36884.50
524.44	37221.54
524.61	37291.76
524.78	37003.87
524.96	37095.15
525.13	37551.56
525.30	37916.68
525.47	37287.07
525.64	37542.19
525.81	37104.51
525.98	37071.75
526.16	37361.97
526.33	36870.46
526.50	37109.19
526.67	37053.02
526.84	37146.64
527.01	37221.54
527.18	37689.65
527.36	38024.34
527.53	37804.33
527.70	38022.00
527.87	37970.51
528.04	38141.37
528.21	38370.74
528.38	38593.09
528.55	38445.64
528.72	38883.32
528.89	38543.94
529.07	38693.74
529.24	38380.10
529.41	38513.52
529.58	38445.64
529.75	39061.20
529.92	39110.35
530.09	38990.98
530.26	38913.75
530.43	39178.23
530.60	38932.47
530.77	39133.76
530.94	39206.31
531.11	39208.65
531.28	39461.43
531.46	39232.06
531.63	39182.91
531.80	39370.15
531.97	39208.65
532.14	39131.42
532.31	38724.16
532.48	39339.72
532.65	39555.05
532.82	38934.81
532.99	39892.09
533.16	39311.64
533.33	39922.52
533.50	39971.67
533.67	39655.70
533.84	39597.18
534.01	39526.97
534.18	40002.10
534.35	40210.40
534.52	40266.58
534.69	39990.39
534.86	40009.12
535.03	40095.72
535.20	40566.16
535.37	40931.29
535.54	40737.02
535.71	40058.27
535.88	40589.57
536.05	40411.69
536.22	40484.25
536.38	40722.98
536.55	40409.35
536.72	40458.50
536.89	40147.21
537.06	40624.68
537.23	40856.39
537.40	40900.86
537.57	40500.63
537.74	40617.66
537.91	41137.26
538.08	41174.70
538.25	40959.38
538.42	40678.51
538.59	40947.67
538.75	40620.00
538.92	40624.68
539.09	41186.41
539.26	41563.23
539.43	41511.74
539.60	41256.62
539.77	41116.19
539.94	41383.01
540.11	41015.55
540.28	41191.09
540.44	41839.42
540.61	41331.52
540.78	41317.48
540.95	41682.60
541.12	41347.90
541.29	41406.42
541.46	41717.71
541.62	41551.53
541.79	41558.55
541.96	41525.78
542.13	41865.16
542.30	41448.55
542.47	41956.44
542.63	41902.61
542.80	42410.51
542.97	42579.03
543.14	42356.67
543.31	42167.09
543.48	42241.99
543.64	42740.52
543.81	42642.22
543.98	42377.74
544.15	42520.51
544.32	42679.67
544.48	43023.73
544.65	42300.50
544.82	42429.23
544.99	42267.73
545.16	42454.98
545.32	42770.95
545.49	43023.73
545.66	43115.01
545.83	43180.54
546.00	43257.78
546.16	43079.90
546.33	42918.40
546.50	42609.45
546.67	42934.79
546.83	42520.51
547.00	42850.53
547.17	42864.57
547.34	42756.91
547.50	43044.79
547.67	43239.06
547.84	43295.23
548.00	43777.38
548.17	43658.01
548.34	43285.87
548.51	43398.21
548.67	43845.26
548.84	43246.08
549.01	43150.12
549.18	43257.78
549.34	43051.81
549.51	43473.11
549.68	43997.39
549.84	44076.97
550.01	43641.63
550.18	43662.69
550.34	43674.40
550.51	43695.46
550.68	43496.52
550.84	43510.56
551.01	44226.76
551.18	43643.97
551.34	44009.09
551.51	43782.06
551.68	43784.40
551.84	43931.86
552.01	43753.97
552.18	43746.95
552.34	43892.07
552.51	43824.19
552.68	44128.46
552.84	44067.61
553.01	44552.10
553.18	44294.64
553.34	44179.95
553.51	44229.10
553.67	44315.70
553.84	44575.50
554.01	44545.08
554.17	44519.33
554.34	44428.05
554.51	44329.75
554.67	44697.21
554.84	44657.42
555.00	44287.62
555.17	43887.39
555.33	44631.68
555.50	44212.72
555.67	44570.82
555.83	44552.10
556.00	44404.64
556.16	44868.07
556.33	44364.85
556.50	44561.46
556.66	44814.24
556.83	44126.12
556.99	44914.88
557.16	44645.72
557.32	44921.90
557.49	44821.26
557.65	44802.53
557.82	45132.55
557.98	44952.33
558.15	44870.41
558.32	44760.40
558.48	44486.56
558.65	44713.59
558.81	44617.63
558.98	44875.09
559.14	44996.80
559.31	44989.78
559.47	44882.11
559.64	45024.89
559.80	44949.99
559.97	45015.52
560.13	44325.07
560.30	44870.41
560.46	44896.16
560.63	45167.66
560.79	45069.36
560.96	45382.99
561.12	45153.62
561.29	44755.72
561.45	45258.94
561.61	44933.60
561.78	44863.39
561.94	44596.57
562.11	44610.61
562.27	45209.79
562.44	45401.71
562.60	45434.48
562.77	45469.59
562.93	45315.11
563.10	45443.84
563.26	45322.13
563.42	45390.01
563.59	45170.00
563.75	45294.05
563.92	45773.86
564.08	45560.87
564.24	45207.45
564.41	45490.65
564.57	45411.07
564.74	45366.60
564.90	45310.43
565.07	45347.88
565.23	45715.34
565.39	44926.58
565.56	45628.74
565.72	45303.41
565.88	45275.32
566.05	45357.24
566.21	45530.44
566.38	45446.18
566.54	45361.92
566.70	46003.23
566.87	45701.30
567.03	45584.27
567.19	45855.78
567.36	45649.81
567.52	45614.70
567.68	45794.92
567.85	45361.92
568.01	45422.78
568.17	45521.08
568.34	45666.19
568.50	45586.61
568.66	45228.51
568.83	45244.90
568.99	45127.87
569.15	45408.73
569.32	45441.50
569.48	45624.06
569.64	45876.84
569.81	45851.09
569.97	45378.31
570.13	45727.05
570.30	45280.00
570.46	45539.80
570.62	45478.95
570.78	45254.26
570.95	45345.54
571.11	45708.32
571.27	45352.56
571.43	45464.91
571.60	46057.06
571.76	45703.64
571.92	45872.16
572.09	45469.59
572.25	45481.29
572.41	45930.67
572.57	45951.74
572.74	46185.79
572.90	45911.95
573.06	45776.20
573.22	45528.10
573.38	45427.46
573.55	45207.45
573.71	46040.68
573.87	45909.61
574.03	45933.01
574.20	45907.27
574.36	45446.18
574.52	45656.83
574.68	45846.41
574.84	45860.46
575.01	45832.37
575.17	45928.33
575.33	45429.80
575.49	45591.30
575.65	46012.59
575.82	45729.39
575.98	45694.28
576.14	46115.58
576.30	45799.60
576.46	45694.28
576.62	45525.76
576.79	45563.21
576.95	45579.59
577.11	45993.87
577.27	45511.72
577.43	45418.10
577.59	45312.77
577.75	45460.23
577.92	45612.36
578.08	45617.04
578.24	45490.65
578.40	45759.81
578.56	45773.86
578.72	45471.93
578.88	46092.17
579.04	46019.61
579.21	45553.85
579.37	45401.71
579.53	45633.42
579.69	45422.78
579.85	45591.30
580.01	45914.29
580.17	45581.93
580.33	45717.68
580.49	45743.43
580.65	46028.98
580.82	45659.17
580.98	45776.20
581.14	45560.87
581.30	45769.18
581.46	45785.56
581.62	46085.15
581.78	45837.05
581.94	45963.44
582.10	45862.80
582.26	45794.92
582.42	45883.86
582.58	45949.40
582.74	46087.49
582.90	45406.39
583.06	46241.96
583.22	45970.46
583.38	46146.00
583.54	45855.78
583.70	45970.46
583.86	46167.07
584.02	45467.25
584.18	45670.87
584.34	45649.81
584.50	45776.20
584.66	46391.76
584.82	45869.82
584.98	46263.03
585.14	45750.45
585.30	45485.97
585.46	45703.64
585.62	46061.74
585.78	45776.20
585.94	45635.77
586.10	46031.32
586.26	45701.30
586.42	45825.35
586.58	45904.93
586.74	46134.30
586.90	45858.12
587.06	45895.56
587.22	46071.10
587.38	45736.41
587.54	45785.56
587.70	45935.35
587.86	45811.31
588.02	45893.22
588.18	45841.73
588.34	45476.61
588.49	45422.78
588.65	45097.44
588.81	45464.91
588.97	45879.18
589.13	45757.47
589.29	45694.28
589.45	45577.25
589.61	45900.25
589.77	45947.06
589.93	46040.68
590.08	45925.99
