SpectraSuite Data File
++++++++++++++++++++++++++++++++++++
Date: Fri Oct 25 11:34:21 EDT 2013
User: price-jones
Dark Spectrum Present: No
Reference Spectrum Present: No
Number of Sampled Component Spectra: 1
Spectrometers: USB2+H05261
Integration Time (usec): 100000 (USB2+H05261)
Spectra Averaged: 1 (USB2+H05261)
Boxcar Smoothing: 0 (USB2+H05261)
Correct for Electrical Dark: No (USB2+H05261)
Strobe/Lamp Enabled: No (USB2+H05261)
Correct for Detector Non-linearity: No (USB2+H05261)
Correct for Stray Light: No (USB2+H05261)
Number of Pixels in Processed Spectrum: 2048
>>>>>Begin Processed Spectral Data<<<<<
365.73	276.18
365.92	276.18
366.12	276.18
366.32	241.08
366.52	212.99
366.72	217.67
366.91	198.95
367.11	177.88
367.31	166.18
367.51	152.13
367.70	191.92
367.90	107.66
368.10	269.16
368.30	196.60
368.49	159.16
368.69	215.33
368.89	191.92
369.09	205.97
369.28	220.01
369.48	245.76
369.68	234.05
369.87	276.18
370.07	220.01
370.27	280.86
370.47	337.04
370.66	491.51
370.86	491.51
371.06	519.60
371.25	559.39
371.45	547.69
371.65	578.11
371.84	561.73
372.04	535.98
372.24	578.11
372.44	528.96
372.63	617.90
372.83	601.52
373.03	650.67
373.22	540.66
373.42	578.11
373.62	669.39
373.81	681.10
374.01	706.84
374.21	589.82
374.40	627.26
374.60	704.50
374.79	636.63
374.99	657.69
375.19	608.54
375.38	664.71
375.58	683.44
375.78	627.26
375.97	690.46
376.17	697.48
376.37	641.31
376.56	699.82
376.76	617.90
376.95	660.03
377.15	662.37
377.35	622.58
377.54	751.31
377.74	734.93
377.93	634.29
378.13	657.69
378.33	748.97
378.52	662.37
378.72	791.10
378.91	711.52
379.11	669.39
379.31	711.52
379.50	737.27
379.70	699.82
379.89	629.60
380.09	692.80
380.28	674.07
380.48	791.10
380.68	748.97
380.87	741.95
381.07	690.46
381.26	779.40
381.46	821.53
381.65	814.51
381.85	669.39
382.04	800.46
382.24	840.25
382.43	711.52
382.63	807.48
382.83	772.38
383.02	774.72
383.22	847.27
383.41	798.12
383.61	807.48
383.80	791.10
384.00	774.72
384.19	727.91
384.39	753.65
384.58	746.63
384.78	784.08
384.97	763.01
385.17	807.48
385.36	830.89
385.56	772.38
385.75	772.38
385.95	746.63
386.14	894.08
386.34	837.91
386.53	786.42
386.72	875.36
386.92	854.30
387.11	903.45
387.31	849.61
387.50	826.21
387.70	821.53
387.89	922.17
388.09	870.68
388.28	821.53
388.48	844.93
388.67	877.70
388.86	919.83
389.06	933.87
389.25	940.90
389.45	882.38
389.64	807.48
389.84	912.81
390.03	926.85
390.22	823.87
390.42	936.21
390.61	910.47
390.81	938.55
391.00	990.05
391.19	985.37
391.39	952.60
391.58	966.64
391.78	978.34
391.97	990.05
392.16	926.85
392.36	983.02
392.55	1029.84
392.75	959.62
392.94	978.34
393.13	957.28
393.33	1109.41
393.52	933.87
393.71	968.98
393.91	1039.20
394.10	1057.92
394.29	1149.20
394.49	1022.81
394.68	1139.84
394.88	1107.07
395.07	1179.63
395.26	1078.99
395.46	1081.33
395.65	1177.29
395.84	1125.80
396.04	1193.67
396.23	1114.10
396.42	1196.01
396.62	1245.16
396.81	1198.35
397.00	1165.59
397.19	1104.73
397.39	1296.66
397.58	1238.14
397.77	1219.42
397.97	1240.48
398.16	1214.74
398.35	1299.00
398.55	1252.19
398.74	1252.19
398.93	1240.48
399.12	1221.76
399.32	1240.48
399.51	1256.87
399.70	1359.85
399.90	1233.46
400.09	1357.51
400.28	1359.85
400.47	1369.21
400.67	1453.47
400.86	1397.30
401.05	1409.00
401.24	1383.26
401.44	1352.83
401.63	1387.94
401.82	1432.41
402.01	1409.00
402.21	1420.71
402.40	1495.60
402.59	1462.83
402.78	1451.13
402.97	1420.71
403.17	1528.37
403.36	1441.77
403.55	1488.58
403.74	1514.33
403.93	1586.88
404.13	1584.54
404.32	1537.73
404.51	1605.61
404.70	1544.75
404.89	1593.90
405.09	1792.85
405.28	1680.50
405.47	1668.80
405.66	1593.90
405.85	1666.46
406.05	1657.10
406.24	1685.19
406.43	1689.87
406.62	1736.68
406.81	1724.97
407.00	1692.21
407.20	1724.97
407.39	1830.30
407.58	1769.44
407.77	1823.28
407.96	1832.64
408.15	1893.49
408.34	1823.28
408.54	1898.17
408.73	1825.62
408.92	1827.96
409.11	1907.54
409.30	1877.11
409.49	1813.92
409.68	1898.17
409.87	1933.28
410.07	1933.28
410.26	1940.30
410.45	1905.20
410.64	2050.31
410.83	1989.46
411.02	1991.80
411.21	2085.42
411.40	1984.77
411.59	2167.34
411.78	2169.68
411.98	2190.74
412.17	2139.25
412.36	2122.87
412.55	2204.78
412.74	2225.85
412.93	2284.36
413.12	2265.64
413.31	2354.58
413.50	2359.26
413.69	2303.09
413.88	2392.03
414.07	2296.07
414.26	2394.37
414.45	2471.61
414.64	2434.16
414.83	2413.09
415.02	2483.31
415.22	2635.44
415.41	2605.02
415.60	2623.74
415.79	2560.55
415.98	2597.99
416.17	2621.40
416.36	2663.53
416.55	2654.17
416.74	2644.81
416.93	2794.60
417.12	2808.64
417.31	2813.32
417.50	2794.60
417.69	2935.03
417.88	2808.64
418.07	2822.69
418.26	2839.07
418.45	2909.29
418.64	3016.95
418.83	2951.42
419.02	3014.61
419.21	2953.76
419.39	3063.76
419.58	2916.31
419.77	2965.46
419.96	3089.51
420.15	3056.74
420.34	3138.66
420.53	2937.37
420.72	3143.34
420.91	3105.89
421.10	3258.03
421.29	3232.28
421.48	3232.28
421.67	3222.92
421.86	3269.73
422.05	3300.16
422.24	3265.05
422.43	3393.78
422.61	3241.64
422.80	3335.26
422.99	3176.11
423.18	3290.79
423.37	3389.10
423.56	3290.79
423.75	3307.18
423.94	3262.71
424.13	3138.66
424.32	3171.43
424.50	3246.32
424.69	3351.65
424.88	3433.57
425.07	3358.67
425.26	3302.50
425.45	3379.73
425.64	3375.05
425.83	3407.82
426.01	3332.92
426.20	3396.12
426.39	3332.92
426.58	3391.44
426.77	3356.33
426.96	3442.93
427.15	3398.46
427.33	3613.79
427.52	3370.37
427.71	3503.78
427.90	3496.76
428.09	3529.53
428.28	3513.14
428.46	3630.17
428.65	3552.93
428.84	3691.02
429.03	3829.12
429.22	3562.30
429.40	3637.19
429.59	3695.71
429.78	3606.77
429.97	3471.01
430.16	3698.05
430.34	3726.13
430.53	3887.63
430.72	3672.30
430.91	3676.98
431.10	3817.41
431.28	3719.11
431.47	3906.35
431.66	3735.50
431.85	3831.46
432.03	3833.80
432.22	4072.53
432.41	3948.48
432.60	3948.48
432.79	3915.72
432.97	3971.89
433.16	3761.24
433.35	4072.53
433.54	4109.98
433.72	4124.02
433.91	4173.18
434.10	4046.79
434.28	4037.42
434.47	4189.56
434.66	4259.78
434.85	4201.26
435.03	4229.35
435.22	4182.54
435.41	4376.80
435.59	4383.82
435.78	4299.56
435.97	4283.18
436.16	4273.82
436.34	4243.39
436.53	4262.12
436.72	4407.23
436.90	4278.50
437.09	4374.46
437.28	4365.10
437.46	4393.19
437.65	4451.70
437.84	4496.17
438.02	4407.23
438.21	4498.51
438.40	4606.17
438.58	4638.94
438.77	4706.82
438.96	4652.98
439.14	4767.67
439.33	4737.24
439.52	4870.65
439.70	4786.40
439.89	4863.63
440.08	4884.70
440.26	4770.01
440.45	4821.50
440.63	4873.00
440.82	4861.29
441.01	4924.49
441.19	5104.71
441.38	5050.88
441.57	5046.20
441.75	4983.00
441.94	5203.01
442.12	5247.48
442.31	5184.29
442.50	5334.08
442.68	5186.63
442.87	5205.35
443.05	5380.89
443.24	5331.74
443.43	5261.52
443.61	5338.76
443.80	5518.98
443.98	5317.70
444.17	5085.98
444.35	5291.95
444.54	5427.70
444.73	5488.56
444.91	5392.59
445.10	5455.79
445.28	5408.98
445.47	5547.07
445.65	5556.43
445.84	5523.66
446.02	5647.71
446.21	5645.37
446.39	5352.81
446.58	5598.56
446.77	5661.76
446.95	5528.35
447.14	5474.51
447.32	5799.85
447.51	5579.84
447.69	5462.81
447.88	5565.79
448.06	5621.97
448.25	5699.20
448.43	5565.79
448.62	5671.12
448.80	5565.79
448.99	5729.63
449.17	5577.50
449.36	5661.76
449.54	5710.91
449.73	6031.56
449.91	6059.65
450.10	5818.57
450.28	6001.13
450.46	5909.85
450.65	5839.64
450.83	6038.58
451.02	6176.67
451.20	5930.92
451.39	5893.47
451.57	6010.50
451.76	6054.97
451.94	6043.26
452.13	6031.56
452.31	6150.93
452.49	6078.37
452.68	6164.97
452.86	6314.77
453.05	6286.68
453.23	6258.59
453.42	6106.46
453.60	5951.98
453.78	6342.85
453.97	6256.25
454.15	6125.18
454.34	6069.01
454.52	6382.64
454.70	6384.98
454.89	6277.32
455.07	6434.13
455.26	6480.94
455.44	6450.52
455.62	6406.05
455.81	6665.85
455.99	6616.69
456.17	6464.56
456.36	6593.29
456.54	6602.65
456.73	6539.46
456.91	6745.42
457.09	6839.05
457.28	6850.75
457.46	6888.20
457.64	6902.24
457.83	6761.81
458.01	6630.74
458.19	6916.28
458.38	6904.58
458.56	6932.67
458.74	6939.69
458.93	6834.36
459.11	6942.03
459.29	6918.62
459.48	7117.57
459.66	6930.33
459.84	7108.21
460.03	7185.44
460.21	7047.35
460.39	7089.48
460.57	7272.04
460.76	7236.94
460.94	7260.34
461.12	7173.74
461.31	7344.60
461.49	7314.17
461.67	7197.15
461.85	7398.43
462.04	7489.71
462.22	7723.77
462.40	7386.73
462.59	7403.11
462.77	7529.50
462.95	7590.36
463.13	7590.36
463.32	7559.93
463.50	7578.65
463.68	7456.95
463.86	7866.54
464.05	7623.12
464.23	7548.23
464.41	7758.88
464.59	7623.12
464.78	8021.02
464.96	7927.39
465.14	7515.46
465.32	7737.81
465.50	7859.52
465.69	7911.01
465.87	7887.61
466.05	7861.86
466.23	7962.50
466.41	7906.33
466.60	8032.72
466.78	7988.25
466.96	7808.03
467.14	8002.29
467.32	7887.61
467.51	8170.81
467.69	7903.99
467.87	8013.99
468.05	8126.34
468.23	7875.90
468.41	7999.95
468.60	8262.09
468.78	8201.24
468.96	8067.83
469.14	8360.39
469.32	8456.36
469.50	8269.11
469.69	8430.61
469.87	8407.20
470.05	8456.36
470.23	8575.72
470.41	8702.11
470.59	8580.40
470.77	8685.73
470.95	8414.23
471.14	8671.68
471.32	8526.57
471.50	8692.75
471.68	8706.79
471.86	8755.94
472.04	8877.65
472.22	9231.07
472.40	8753.60
472.58	8830.84
472.77	8879.99
472.95	9092.98
473.13	9254.48
473.31	8994.68
473.49	9109.36
473.67	9160.86
473.85	9219.37
474.03	9233.41
474.21	9329.38
474.39	9509.60
474.57	9378.53
474.75	9565.77
474.93	9678.12
475.12	9343.42
475.30	9535.34
475.48	9682.80
475.66	9841.95
475.84	9727.27
476.02	9778.76
476.20	9853.66
476.38	10026.86
476.56	10335.81
476.74	10293.68
476.92	10164.95
477.10	9944.94
477.28	10345.17
477.46	10464.54
477.64	10293.68
477.82	10558.16
478.00	10628.37
478.18	10771.15
478.36	10724.33
478.54	11169.04
478.72	10981.79
478.90	11267.34
479.08	11234.57
479.26	11253.30
479.44	11232.23
479.62	11492.03
479.80	11517.78
479.98	11468.62
480.16	11758.85
480.34	11726.08
480.52	11765.87
480.70	11843.11
480.88	11695.66
481.06	11754.17
481.24	12042.06
481.41	12418.88
481.59	12334.62
481.77	12610.81
481.95	12402.50
482.13	12538.25
482.31	12451.65
482.49	13130.41
482.67	12872.95
482.85	12842.52
483.03	13083.59
483.21	13153.81
483.39	13523.62
483.57	13446.38
483.74	13275.52
483.92	13458.08
484.10	13472.12
484.28	13930.87
484.46	13942.57
484.64	14317.06
484.82	13870.01
485.00	13982.36
485.18	14298.33
485.35	14693.88
485.53	14546.43
485.71	14703.25
485.89	14841.34
486.07	14820.27
486.25	14888.15
486.43	14703.25
486.61	15152.63
486.78	15150.29
486.96	15234.55
487.14	15756.49
487.32	15578.61
487.50	15822.02
487.68	15936.71
487.85	16130.97
488.03	16266.72
488.21	16280.77
488.39	16428.22
488.57	16407.16
488.75	16559.29
488.92	16854.20
489.10	16744.19
489.28	16814.41
489.46	17027.40
489.64	17212.30
489.81	17277.83
489.99	17350.39
490.17	17551.68
490.35	17802.11
490.53	17923.82
490.70	18038.51
490.88	18111.07
491.06	18394.27
491.24	18242.14
491.41	18279.58
491.59	18340.44
491.77	18497.25
491.95	18487.89
492.13	18874.08
492.30	18881.10
492.48	18974.72
492.66	19421.77
492.84	19239.20
493.01	19573.90
493.19	19452.19
493.37	19983.49
493.54	19623.05
493.72	19833.70
493.90	19880.51
494.08	20130.95
494.25	20004.56
494.43	19948.39
494.61	20528.84
494.79	20596.71
494.96	20531.18
495.14	20444.58
495.32	21085.89
495.49	21020.35
495.67	20926.73
495.85	21193.55
496.02	21432.29
496.20	21600.80
496.38	21467.39
496.55	21453.35
496.73	22169.55
496.91	21891.03
497.09	22015.08
497.26	22202.32
497.44	22260.84
497.62	22279.56
497.79	22635.32
497.97	22518.29
498.14	22750.01
498.32	22944.27
498.50	22721.92
498.67	22977.04
498.85	23147.90
499.03	23281.31
499.20	23204.07
499.38	23566.85
499.56	23470.89
499.73	23529.41
499.91	23845.38
500.08	23847.72
500.26	23756.44
500.44	23934.32
500.61	23854.74
500.79	23758.78
500.97	23850.06
501.14	24482.00
501.32	24603.71
501.49	24285.40
501.67	24322.85
501.84	24915.00
502.02	24512.43
502.20	24383.70
502.37	24797.98
502.55	24449.24
502.72	24999.26
502.90	25170.12
503.07	25139.69
503.25	25081.18
503.43	25223.95
503.60	25415.88
503.78	25612.48
503.95	25198.21
504.13	25926.11
504.30	25530.56
504.48	25783.34
504.65	25830.15
504.83	26040.80
505.01	26349.75
505.18	25862.92
505.36	26401.24
505.53	26441.03
505.71	26443.37
505.88	26487.84
506.06	26405.92
506.23	26321.66
506.41	26249.11
506.58	26689.13
506.76	26614.23
506.93	27026.17
507.11	26874.03
507.28	27019.14
507.46	27520.02
507.63	27358.52
507.81	27520.02
507.98	27126.81
508.16	27410.01
508.33	27377.25
508.50	27627.68
508.68	27693.22
508.85	28074.73
509.03	27997.49
509.20	27946.00
509.38	28329.84
509.55	28423.47
509.73	28318.14
509.90	28407.08
510.08	28283.03
510.25	28409.42
510.42	28847.10
510.60	28720.71
510.77	29036.69
510.95	29102.22
511.12	28844.76
511.30	29029.66
511.47	29235.63
511.64	28968.81
511.82	29544.58
511.99	29383.09
512.17	29371.38
512.34	29301.17
512.51	29832.47
512.69	29685.01
512.86	29685.01
513.04	29804.38
513.21	30026.73
513.38	30146.10
513.56	30375.47
513.73	30157.80
513.90	30073.54
514.08	29750.55
514.25	30284.19
514.43	30153.12
514.60	30668.04
514.77	30455.05
514.95	30529.95
515.12	30527.61
515.29	30389.52
515.47	31089.34
515.64	30759.32
515.81	31049.55
515.99	31105.72
516.16	31407.65
516.33	31035.50
516.51	31187.64
516.68	31213.38
516.85	30984.01
517.03	31435.74
517.20	31536.38
517.37	31505.95
517.54	31555.10
517.72	31779.79
517.89	31693.19
518.06	31924.91
518.24	31850.01
518.41	31515.31
518.58	31772.77
518.75	31779.79
518.93	32381.31
519.10	32123.85
519.27	31974.06
519.45	32683.24
519.62	32189.39
519.79	32453.87
519.96	32823.67
520.14	32608.34
520.31	32477.27
520.48	32584.94
520.65	32898.57
520.83	33219.22
521.00	32891.55
521.17	32877.51
521.34	33287.10
521.52	33095.18
521.69	33043.68
521.86	33708.40
522.03	33706.05
522.20	33743.50
522.38	34272.46
522.55	33539.88
522.72	33743.50
522.89	34040.75
523.07	34487.79
523.24	33830.10
523.41	34298.21
523.58	33865.21
523.75	33991.60
523.92	34141.39
524.10	33869.89
524.27	34466.73
524.44	34410.56
524.61	34663.33
524.78	34567.37
524.96	34845.90
525.13	34307.57
525.30	34684.40
525.47	34642.27
525.64	34618.86
525.81	35009.73
525.98	35290.60
526.16	35152.51
526.33	34897.39
526.50	35218.04
526.67	35512.95
526.84	35269.53
527.01	35194.64
527.18	35566.78
527.36	35386.56
527.53	35484.86
527.70	35672.10
527.87	35725.94
528.04	35854.67
528.21	35754.02
528.38	35667.42
528.55	36023.19
528.72	35896.80
528.89	36037.23
529.07	35803.17
529.24	35693.17
529.41	35782.11
529.58	36346.18
529.75	36222.13
529.92	36151.91
530.09	36093.40
530.26	36278.30
530.43	36587.25
530.60	36329.80
530.77	36369.58
530.94	36655.13
531.11	36566.19
531.28	36432.78
531.46	36360.22
531.63	37099.83
531.80	37027.28
531.97	36694.92
532.14	37404.10
532.31	37043.66
532.48	36975.78
532.65	37275.37
532.82	37113.87
532.99	37031.96
533.16	37008.55
533.33	37397.08
533.50	37902.64
533.67	37310.48
533.84	37366.65
534.01	37413.46
534.18	37071.75
534.35	37757.52
534.52	38075.84
534.69	38234.99
534.86	37883.91
535.03	37823.06
535.20	37715.39
535.37	38352.02
535.54	38244.35
535.71	38096.90
535.88	38560.33
536.05	38059.45
536.22	38052.43
536.38	38466.70
536.55	38206.90
536.72	38410.53
536.89	38513.52
537.06	38143.71
537.23	38920.77
537.40	38445.64
537.57	38368.40
537.74	38623.52
537.91	38745.23
538.08	38473.73
538.25	38632.88
538.42	38649.27
538.59	38948.85
538.75	38789.70
538.92	38817.78
539.09	39012.05
539.26	39393.56
539.43	39196.95
539.60	39218.02
539.77	39110.35
539.94	39459.09
540.11	38630.54
540.28	39395.90
540.44	39772.72
540.61	39496.54
540.78	38923.11
540.95	39239.08
541.12	39461.43
541.29	39344.41
541.46	39402.92
541.62	39732.93
541.79	40011.46
541.96	39604.20
542.13	39636.97
542.30	39742.30
542.47	39875.71
542.63	39594.84
542.80	40133.17
542.97	40299.34
543.14	40664.47
543.31	40217.43
543.48	40217.43
543.64	40722.98
543.81	40423.39
543.98	40236.15
544.15	40547.44
544.32	40325.09
544.48	41174.70
544.65	40987.46
544.82	40903.20
544.99	40664.47
545.16	40910.22
545.32	41130.23
545.49	41235.56
545.66	41202.79
545.83	40811.92
546.00	40938.31
546.16	41006.19
546.33	41167.68
546.50	41008.53
546.67	41546.85
546.83	40807.24
547.00	41053.00
547.17	41085.76
547.34	41303.43
547.50	41415.78
547.67	41703.67
547.84	41165.34
548.00	41729.41
548.17	41860.48
548.34	41689.62
548.51	41942.40
548.67	41958.78
548.84	41565.57
549.01	41949.42
549.18	41698.98
549.34	42054.75
549.51	41759.84
549.68	42120.28
549.84	42050.06
550.01	41855.80
550.18	41516.42
550.34	42169.43
550.51	42071.13
550.68	41975.17
550.84	41862.82
551.01	42492.43
551.18	42244.33
551.34	42487.74
551.51	42515.83
551.68	42532.22
551.84	42384.76
552.01	42251.35
552.18	42419.87
552.34	42209.22
552.51	42291.14
552.68	42377.74
552.84	42438.59
553.01	42733.50
553.18	42462.00
553.34	42726.48
553.51	42227.95
553.67	42651.58
553.84	42532.22
554.01	42487.74
554.17	42660.94
554.34	42904.36
554.51	43047.13
554.67	43072.88
554.84	43166.50
555.00	42972.24
555.17	43260.12
555.33	42969.90
555.50	42958.19
555.67	42916.06
555.83	43548.01
556.00	43311.61
556.16	43531.62
556.33	43557.37
556.50	43311.61
556.66	43278.85
556.83	42869.25
556.99	43917.81
557.16	43761.00
557.32	43791.42
557.49	43536.30
557.65	43328.00
557.82	43543.33
557.98	43583.12
558.15	43496.52
558.32	43620.56
558.48	43679.08
558.65	43971.64
558.81	43728.23
558.98	43377.15
559.14	43700.14
559.31	43985.69
559.47	43981.01
559.64	43482.47
559.80	43524.60
559.97	43988.03
560.13	43793.76
560.30	43887.39
560.46	44737.00
560.63	44168.25
560.79	43995.05
560.96	44243.15
561.12	43952.92
561.29	44257.19
561.45	44154.21
561.61	44147.18
561.78	43573.75
561.94	44247.83
562.11	44051.22
562.27	44238.47
562.44	43955.26
562.60	44587.21
562.77	43807.81
562.93	44257.19
563.10	44678.49
563.26	43971.64
563.42	44921.90
563.59	44519.33
563.75	44414.01
563.92	43959.94
564.08	44404.64
564.24	44732.32
564.41	44559.12
564.57	44439.75
564.74	44552.10
564.90	44516.99
565.07	44313.36
565.23	44680.83
565.39	44804.88
565.56	44388.26
565.72	44666.78
565.88	45153.62
566.05	44823.60
566.21	44582.52
566.38	44921.90
566.54	44655.08
566.70	44615.29
566.87	44561.46
567.03	44374.22
567.19	45045.95
567.36	44830.62
567.52	44851.69
567.68	44886.79
567.85	45132.55
568.01	44732.32
568.17	44706.57
568.34	44821.26
568.50	44966.37
568.66	44795.51
568.83	44921.90
568.99	44648.06
569.15	44957.01
569.32	45003.82
569.48	44917.22
569.64	45390.01
569.81	45141.91
569.97	45640.45
570.13	45106.80
570.30	44678.49
570.46	45153.62
570.62	45041.27
570.78	44973.39
570.95	45067.02
571.11	45404.05
571.27	45322.13
571.43	44821.26
571.60	45193.40
571.76	45317.45
571.92	45027.23
572.09	45263.62
572.25	45081.06
572.41	45081.06
572.57	45382.99
572.74	45457.88
572.90	44985.10
573.06	45158.30
573.22	45177.02
573.38	45773.86
573.55	45291.71
573.71	45588.95
573.87	45207.45
574.03	45069.36
574.20	45404.05
574.36	45202.77
574.52	45537.46
574.68	45200.43
574.84	45521.08
575.01	45668.53
575.17	45476.61
575.33	45179.36
575.49	45336.18
575.65	45752.79
575.82	45661.51
575.98	45184.04
576.14	45947.06
576.30	45958.76
576.46	45588.95
576.62	45532.78
576.79	45088.08
576.95	44748.70
577.11	45542.14
577.27	45345.54
577.43	45235.53
577.59	45490.65
577.75	45247.24
577.92	45303.41
578.08	45612.36
578.24	45474.27
578.40	45453.20
578.56	45933.01
578.72	45673.21
578.88	45427.46
579.04	45790.24
579.21	45495.33
579.37	45457.88
579.53	45303.41
579.69	45319.79
579.85	45298.73
580.01	45263.62
580.17	45354.90
580.33	45743.43
580.49	45792.58
580.65	45811.31
580.82	45904.93
580.98	45556.19
581.14	45427.46
581.30	45633.42
581.46	45818.33
581.62	45624.06
581.78	45492.99
581.94	45696.62
582.10	45935.35
582.26	45680.24
582.42	45815.99
582.58	45553.85
582.74	46036.00
582.90	45729.39
583.06	45944.72
583.22	45565.55
583.38	45532.78
583.54	46019.61
583.70	45874.50
583.86	46146.00
584.02	45729.39
584.18	45963.44
584.34	45872.16
584.50	46298.14
584.66	46148.34
584.82	46064.08
584.98	46043.02
585.14	45879.18
585.30	45858.12
585.46	45993.87
585.62	45834.71
585.78	45464.91
585.94	45668.53
586.10	45862.80
586.26	45991.53
586.42	45329.16
586.58	46204.52
586.74	45808.96
586.90	45666.19
587.06	46326.22
587.22	46141.32
587.38	45521.08
587.54	45949.40
587.70	46068.76
587.86	45991.53
588.02	45893.22
588.18	45787.90
588.34	46103.87
588.49	45799.60
588.65	45649.81
588.81	45947.06
588.97	46136.64
589.13	45595.98
589.29	45918.97
589.45	46232.60
589.61	46344.95
589.77	46127.28
589.93	46057.06
590.08	46380.06
590.24	46518.15
