SpectraSuite Data File
++++++++++++++++++++++++++++++++++++
Date: Fri Oct 25 11:33:26 EDT 2013
User: price-jones
Dark Spectrum Present: No
Reference Spectrum Present: No
Number of Sampled Component Spectra: 1
Spectrometers: USB2+H05261
Integration Time (usec): 100000 (USB2+H05261)
Spectra Averaged: 1 (USB2+H05261)
Boxcar Smoothing: 0 (USB2+H05261)
Correct for Electrical Dark: No (USB2+H05261)
Strobe/Lamp Enabled: No (USB2+H05261)
Correct for Detector Non-linearity: No (USB2+H05261)
Correct for Stray Light: No (USB2+H05261)
Number of Pixels in Processed Spectrum: 2048
>>>>>Begin Processed Spectral Data<<<<<
365.73	294.91
365.92	294.91
366.12	294.91
366.32	212.99
366.52	159.16
366.72	159.16
366.91	208.31
367.11	159.16
367.31	72.56
367.51	154.48
367.70	110.01
367.90	177.88
368.10	161.50
368.30	168.52
368.49	196.60
368.69	234.05
368.89	191.92
369.09	201.29
369.28	191.92
369.48	168.52
369.68	238.73
369.87	152.13
370.07	222.35
370.27	255.12
370.47	313.63
370.66	407.25
370.86	535.98
371.06	596.84
371.25	561.73
371.45	580.45
371.65	571.09
371.84	486.83
372.04	606.20
372.24	617.90
372.44	571.09
372.63	557.05
372.83	575.77
373.03	594.50
373.22	585.13
373.42	599.18
373.62	643.65
373.81	629.60
374.01	634.29
374.21	664.71
374.40	615.56
374.60	664.71
374.79	699.82
374.99	653.01
375.19	629.60
375.38	610.88
375.58	564.07
375.78	723.23
375.97	697.48
376.17	788.76
376.37	606.20
376.56	650.67
376.76	727.91
376.95	653.01
377.15	716.20
377.35	676.41
377.54	730.25
377.74	671.73
377.93	730.25
378.13	594.50
378.33	692.80
378.52	688.12
378.72	763.01
378.91	692.80
379.11	737.27
379.31	683.44
379.50	650.67
379.70	802.80
379.89	744.29
380.09	697.48
380.28	655.35
380.48	688.12
380.68	657.69
380.87	748.97
381.07	730.25
381.26	734.93
381.46	777.06
381.65	770.04
381.85	798.12
382.04	793.44
382.24	755.99
382.43	779.40
382.63	683.44
382.83	784.08
383.02	877.70
383.22	870.68
383.41	851.96
383.61	737.27
383.80	821.53
384.00	837.91
384.19	807.48
384.39	866.00
384.58	798.12
384.78	908.13
384.97	866.00
385.17	887.06
385.36	821.53
385.56	821.53
385.75	795.78
385.95	912.81
386.14	870.68
386.34	830.89
386.53	777.06
386.72	915.15
386.92	943.24
387.11	863.66
387.31	929.19
387.50	945.58
387.70	896.43
387.89	882.38
388.09	903.45
388.28	919.83
388.48	947.92
388.67	933.87
388.86	954.94
389.06	910.47
389.25	978.34
389.45	987.71
389.64	966.64
389.84	1041.54
390.03	938.55
390.22	1022.81
390.42	1018.13
390.61	945.58
390.81	875.36
391.00	973.66
391.19	980.68
391.39	983.02
391.58	994.73
391.78	990.05
391.97	1067.28
392.16	1020.47
392.36	1090.69
392.55	1008.77
392.75	1022.81
392.94	1013.45
393.13	1029.84
393.33	1062.60
393.52	1046.22
393.71	1071.97
393.91	1135.16
394.10	1057.92
394.29	1050.90
394.49	1097.71
394.68	1114.10
394.88	1083.67
395.07	1053.24
395.26	1107.07
395.46	1170.27
395.65	1177.29
395.84	1149.20
396.04	1240.48
396.23	1188.99
396.42	1214.74
396.62	1233.46
396.81	1219.42
397.00	1245.16
397.19	1371.55
397.39	1221.76
397.58	1228.78
397.77	1273.25
397.97	1228.78
398.16	1247.51
398.35	1306.02
398.55	1282.61
398.74	1299.00
398.93	1303.68
399.12	1308.36
399.32	1343.47
399.51	1313.04
399.70	1364.53
399.90	1465.18
400.09	1432.41
400.28	1357.51
400.47	1444.11
400.67	1423.05
400.86	1385.60
401.05	1458.15
401.24	1462.83
401.44	1397.30
401.63	1465.18
401.82	1425.39
402.01	1481.56
402.21	1488.58
402.40	1511.99
402.59	1432.41
402.78	1495.60
402.97	1558.80
403.17	1509.65
403.36	1476.88
403.55	1502.62
403.74	1647.74
403.93	1682.85
404.13	1650.08
404.32	1633.69
404.51	1732.00
404.70	1701.57
404.89	1558.80
405.09	1692.21
405.28	1776.47
405.47	1668.80
405.66	1671.14
405.85	1680.50
406.05	1727.32
406.24	1729.66
406.43	1741.36
406.62	1710.93
406.81	1834.98
407.00	1776.47
407.20	1757.74
407.39	1771.79
407.58	1802.21
407.77	1827.96
407.96	1856.04
408.15	1930.94
408.34	1905.20
408.54	1905.20
408.73	1923.92
408.92	1970.73
409.11	1952.01
409.30	1984.77
409.49	1893.49
409.68	1942.64
409.87	1956.69
410.07	2059.67
410.26	2069.03
410.45	2101.80
410.64	2080.74
410.83	2157.97
411.02	2104.14
411.21	2150.95
411.40	2181.38
411.59	2200.10
411.78	2097.12
411.98	2275.00
412.17	2275.00
412.36	2246.91
412.55	2307.77
412.74	2396.71
412.93	2260.96
413.12	2361.60
413.31	2396.71
413.50	2408.41
413.69	2413.09
413.88	2445.86
414.07	2462.24
414.26	2469.27
414.45	2492.67
414.64	2583.95
414.83	2581.61
415.02	2607.36
415.22	2696.30
415.41	2616.72
415.60	2682.25
415.79	2677.57
415.98	2836.73
416.17	2712.68
416.36	2693.96
416.55	2803.96
416.74	2935.03
416.93	2794.60
417.12	2881.20
417.31	2885.88
417.50	2902.26
417.69	2960.78
417.88	3063.76
418.07	2956.10
418.26	2986.52
418.45	3007.59
418.64	3080.14
418.83	3016.95
419.02	3150.36
419.21	3124.62
419.39	3047.38
419.58	3056.74
419.77	3119.93
419.96	3164.40
420.15	3103.55
420.34	3211.22
420.53	3194.83
420.72	3300.16
420.91	3288.45
421.10	3253.34
421.29	3248.66
421.48	3234.62
421.67	3361.01
421.86	3262.71
422.05	3251.00
422.24	3290.79
422.43	3351.65
422.61	3412.50
422.80	3545.91
422.99	3492.08
423.18	3410.16
423.37	3510.80
423.56	3363.35
423.75	3405.48
423.94	3288.45
424.13	3192.49
424.32	3337.60
424.50	3417.18
424.69	3475.70
424.88	3461.65
425.07	3414.84
425.26	3417.18
425.45	3487.40
425.64	3412.50
425.83	3384.41
426.01	3506.12
426.20	3548.25
426.39	3562.30
426.58	3372.71
426.77	3435.91
426.96	3548.25
427.15	3492.08
427.33	3742.52
427.52	3559.95
427.71	3578.68
427.90	3634.85
428.09	3613.79
428.28	3555.27
428.46	3796.35
428.65	3796.35
428.84	3719.11
429.03	3747.20
429.22	3733.15
429.40	3672.30
429.59	3812.73
429.78	3648.90
429.97	3681.66
430.16	3726.13
430.34	3728.47
430.53	3894.65
430.72	3915.72
430.91	3866.56
431.10	3950.82
431.28	3948.48
431.47	4063.17
431.66	3873.59
431.85	3957.85
432.03	4044.45
432.22	4177.86
432.41	3946.14
432.60	4070.19
432.79	4175.52
432.97	4156.79
433.16	4154.45
433.35	4102.96
433.54	4161.47
433.72	4278.50
433.91	4203.60
434.10	4245.73
434.28	4170.83
434.47	4241.05
434.66	4409.57
434.85	4339.35
435.03	4428.29
435.22	4442.34
435.41	4479.79
435.59	4475.10
435.78	4475.10
435.97	4318.29
436.16	4496.17
436.34	4451.70
436.53	4416.59
436.72	4674.05
436.90	4290.20
437.09	4521.92
437.28	4514.89
437.46	4491.49
437.65	4477.44
437.84	4720.86
438.02	4676.39
438.21	4627.24
438.40	4479.79
438.58	4816.82
438.77	4863.63
438.96	4812.14
439.14	4807.46
439.33	4985.34
439.52	5055.56
439.70	5043.85
439.89	5001.72
440.08	5093.01
440.26	5163.22
440.45	5167.90
440.63	5146.84
440.82	5221.74
441.01	5081.30
441.19	5231.10
441.38	5282.59
441.57	5284.93
441.75	5479.19
441.94	5441.75
442.12	5476.85
442.31	5385.57
442.50	5495.58
442.68	5369.19
442.87	5397.28
443.05	5451.11
443.24	5509.62
443.43	5797.51
443.61	5664.10
443.80	5727.29
443.98	5469.83
444.17	5453.45
444.35	5741.33
444.54	5591.54
444.73	5687.50
444.91	5617.29
445.10	5832.62
445.28	5661.76
445.47	5743.67
445.65	5755.38
445.84	5799.85
446.02	5944.96
446.21	5935.60
446.39	5682.82
446.58	5652.39
446.77	5748.36
446.95	5593.88
447.14	5830.27
447.32	5846.66
447.51	5673.46
447.69	5764.74
447.88	5633.67
448.06	5785.80
448.25	5746.02
448.43	5942.62
448.62	5792.83
448.80	5783.46
448.99	5870.06
449.17	5959.00
449.36	5799.85
449.54	5865.38
449.73	6069.01
449.91	6291.36
450.10	6047.94
450.28	6214.12
450.46	6113.48
450.65	6080.71
450.83	6265.61
451.02	5966.03
451.20	6359.24
451.39	6162.63
451.57	6272.64
451.76	6235.19
451.94	6345.19
452.13	6256.25
452.31	6429.45
452.49	6090.07
452.68	6370.94
452.86	6300.72
453.05	6513.71
453.23	6487.96
453.42	6352.21
453.60	6389.66
453.78	6452.86
453.97	6286.68
454.15	6476.26
454.34	6497.33
454.52	6415.41
454.70	6661.16
454.89	6658.82
455.07	6703.29
455.26	6530.09
455.44	6712.66
455.62	6789.89
455.81	6750.10
455.99	6794.58
456.17	6927.99
456.36	6850.75
456.54	6963.09
456.73	7033.31
456.91	7084.80
457.09	7012.24
457.28	7183.10
457.46	7028.63
457.64	7070.76
457.83	7164.38
458.01	7016.93
458.19	7183.10
458.38	7054.37
458.56	7283.75
458.74	7094.16
458.93	7248.64
459.11	7105.87
459.29	7286.09
459.48	7304.81
459.66	7325.88
459.84	7403.11
460.03	7538.87
460.21	7487.37
460.39	7304.81
460.57	7353.96
460.76	7410.14
460.94	7538.87
461.12	7559.93
461.31	7522.48
461.49	7585.68
461.67	7463.97
461.85	7866.54
462.04	7606.74
462.22	7925.05
462.40	7829.09
462.59	7939.10
462.77	7798.66
462.95	7962.50
463.13	7681.64
463.32	7796.32
463.50	7913.35
463.68	7892.29
463.86	7960.16
464.05	8011.65
464.23	7747.17
464.41	7903.99
464.59	7911.01
464.78	8182.51
464.96	8032.72
465.14	7894.63
465.32	8210.60
465.50	8051.44
465.69	8299.54
465.87	8009.31
466.05	8217.62
466.23	8297.20
466.41	8404.86
466.60	8552.32
466.78	8280.82
466.96	8173.15
467.14	8299.54
467.32	8234.00
467.51	8425.93
467.69	8182.51
467.87	8456.36
468.05	8514.87
468.23	8341.67
468.41	8304.22
468.60	8517.21
468.78	8517.21
468.96	8327.63
469.14	8739.56
469.32	8575.72
469.50	8425.93
469.69	8681.05
469.87	8769.99
470.05	8865.95
470.23	8865.95
470.41	8807.44
470.59	8739.56
470.77	8908.08
470.95	8856.59
471.14	8922.12
471.32	8711.47
471.50	9015.74
471.68	9163.20
471.86	9170.22
472.04	9221.71
472.22	9327.03
472.40	9193.62
472.58	9373.85
472.77	9343.42
472.95	9502.58
473.13	9755.35
473.31	9509.60
473.49	9430.02
473.67	9507.26
473.85	9579.81
474.03	9738.97
474.21	9933.23
474.39	9785.78
474.57	9724.93
474.75	10087.71
474.93	9825.57
475.12	9916.85
475.30	10143.88
475.48	9954.30
475.66	9881.74
475.84	10097.07
476.02	10047.92
476.20	10003.45
476.38	10326.44
476.56	10509.01
476.74	10546.45
476.92	10553.48
477.10	10572.20
477.28	10602.63
477.46	10778.17
477.64	11110.52
477.82	11035.63
478.00	11063.71
478.18	11332.87
478.36	11311.81
478.54	11489.69
478.72	11627.78
478.90	11435.86
479.08	11660.55
479.26	11782.26
479.44	11749.49
479.62	11770.55
479.80	12255.04
479.98	12093.55
480.16	12159.08
480.34	12313.56
480.52	12173.13
480.70	12376.75
480.88	12070.14
481.06	12468.03
481.24	12290.15
481.41	12608.47
481.59	12868.27
481.77	12999.34
481.95	13001.68
482.13	13181.90
482.31	13224.03
482.49	13308.29
482.67	13144.45
482.85	13369.14
483.03	13680.43
483.21	13832.57
483.39	13855.97
483.57	13642.98
483.74	14024.49
483.92	14101.73
484.10	14216.41
484.28	14647.07
484.46	14373.23
484.64	14670.48
484.82	14764.10
485.00	14534.73
485.18	15262.63
485.35	15110.50
485.53	15192.42
485.71	14860.06
485.89	15538.82
486.07	15281.36
486.25	15384.34
486.43	15634.78
486.61	15709.68
486.78	15857.13
486.96	15920.32
487.14	16318.22
487.32	16168.42
487.50	16493.76
487.68	16381.41
487.85	17041.44
488.03	16919.73
488.21	17137.40
488.39	17046.12
488.57	17277.83
488.75	17209.96
488.92	17385.50
489.10	17743.60
489.28	17961.27
489.46	17776.37
489.64	17865.31
489.81	17909.78
489.99	18214.05
490.17	18356.82
490.35	18483.21
490.53	18703.22
490.70	18918.55
490.88	18658.75
491.06	19070.68
491.24	19173.67
491.41	19147.92
491.59	19506.02
491.77	19513.05
491.95	19503.68
492.13	19461.55
492.30	19761.14
492.48	20119.24
492.66	19992.86
492.84	19999.88
493.01	20301.81
493.19	20332.23
493.37	20222.23
493.54	20489.05
493.72	20652.89
493.90	20727.78
494.08	20828.43
494.25	20992.26
494.43	21064.82
494.61	21116.31
494.79	21348.03
494.96	21369.09
495.14	21451.01
495.32	21830.18
495.49	21750.60
495.67	21965.93
495.85	22427.01
496.02	22363.82
496.20	22398.93
496.38	22101.68
496.55	22434.03
496.73	23206.41
496.91	22991.08
497.09	22934.91
497.26	23365.57
497.44	22757.03
497.62	23028.53
497.79	23824.31
497.97	23236.84
498.14	23793.89
498.32	23943.68
498.50	24114.54
498.67	24159.01
498.85	23920.28
499.03	24093.47
499.20	24201.14
499.38	24318.17
499.56	24308.80
499.73	24624.78
499.91	24938.41
500.08	24596.69
500.26	24610.73
500.44	24519.45
500.61	24851.81
500.79	24650.52
500.97	25092.88
501.14	25635.89
501.32	25422.90
501.49	25359.70
501.67	25305.87
501.84	25738.87
502.02	25734.19
502.20	25706.10
502.37	25764.62
502.55	25923.77
502.72	26106.34
502.90	26045.48
503.07	26029.10
503.25	26356.77
503.43	25965.90
503.60	26738.28
503.78	26740.62
503.95	26314.64
504.13	26553.38
504.30	26714.87
504.48	26635.30
504.65	26817.86
504.83	27012.12
505.01	27611.30
505.18	27061.27
505.36	27761.09
505.53	27393.63
505.71	27810.25
505.88	27573.85
506.06	27604.28
506.23	27751.73
506.41	27784.50
506.58	27644.07
506.76	28002.17
506.93	28009.19
507.11	27803.22
507.28	28194.09
507.46	28149.62
507.63	28718.37
507.81	28828.38
507.98	28297.08
508.16	28917.32
508.33	28936.04
508.50	28753.48
508.68	28856.46
508.85	29015.62
509.03	29378.40
509.20	29483.73
509.38	29699.06
509.55	29146.69
509.73	29399.47
509.90	29792.68
510.08	29710.76
510.25	29738.85
510.42	29748.21
510.60	30228.02
510.77	30171.85
510.95	30298.23
511.12	29961.20
511.30	30263.13
511.47	30541.65
511.64	30232.70
511.82	30476.12
511.99	30431.65
512.17	30607.19
512.34	30799.11
512.51	30738.26
512.69	31171.25
512.86	31655.75
513.04	31239.13
513.21	31292.96
513.38	31131.47
513.56	31644.04
513.73	31304.67
513.90	31225.09
514.08	31197.00
514.25	31875.76
514.43	31634.68
514.60	31578.51
514.77	31732.98
514.95	31821.92
515.12	31667.45
515.29	32109.81
515.47	32112.15
515.64	32360.25
515.81	32025.55
515.99	32383.65
516.16	32341.52
516.33	32692.60
516.51	32451.53
516.68	32180.03
516.85	32393.01
517.03	32690.26
517.20	32776.86
517.37	32741.75
517.54	33092.83
517.72	33008.58
517.89	33198.16
518.06	33380.72
518.24	33237.95
518.41	33301.14
518.58	33378.38
518.75	33296.46
518.93	33347.95
519.10	33277.74
519.27	33757.55
519.45	33266.03
519.62	33649.88
519.79	33923.72
519.96	33603.07
520.14	33713.08
520.31	33703.71
520.48	34258.42
520.65	34471.41
520.83	34735.89
521.00	34836.53
521.17	34316.93
521.34	34731.21
521.52	34548.65
521.69	34370.77
521.86	34691.42
522.03	34958.24
522.20	35068.25
522.38	35285.92
522.55	35185.27
522.72	35332.73
522.89	35475.50
523.07	35454.44
523.24	35246.13
523.41	35529.33
523.58	35271.87
523.75	35498.91
523.92	35812.54
524.10	35955.31
524.27	35772.75
524.44	36048.93
524.61	35831.26
524.78	35812.54
524.96	36016.16
525.13	36533.42
525.30	36360.22
525.47	36503.00
525.64	36058.29
525.81	36577.89
525.98	36779.18
526.16	36575.55
526.33	36531.08
526.50	37111.53
526.67	36463.21
526.84	36802.58
527.01	36418.74
527.18	36645.77
527.36	37177.07
527.53	37448.57
527.70	37439.21
527.87	37340.91
528.04	37436.87
528.21	37273.03
528.38	37411.12
528.55	37413.46
528.72	37408.78
528.89	37411.12
529.07	37741.14
529.24	37148.98
529.41	37628.79
529.58	37820.72
529.75	37450.91
529.92	38202.22
530.09	38052.43
530.26	37879.23
530.43	38038.39
530.60	38007.96
530.77	38281.80
530.94	38398.83
531.11	37982.21
531.28	37860.51
531.46	38328.61
531.63	38618.84
531.80	38068.81
531.97	38487.77
532.14	38983.96
532.31	38326.27
532.48	38698.42
532.65	38880.98
532.82	38813.10
532.99	38990.98
533.16	38478.41
533.33	39098.65
533.50	39185.25
533.67	38932.47
533.84	38836.51
534.01	39407.60
534.18	39196.95
534.35	39571.44
534.52	39112.69
534.69	39660.38
534.86	39824.22
535.03	39440.37
535.20	39349.09
535.37	39681.44
535.54	39716.55
535.71	39742.30
535.88	40011.46
536.05	39821.87
536.22	39927.20
536.38	40088.70
536.55	39885.07
536.72	39732.93
536.89	39749.32
537.06	39831.24
537.23	40486.59
537.40	40116.78
537.57	40381.26
537.74	40205.72
537.91	40442.12
538.08	40009.12
538.25	39997.41
538.42	40388.28
538.59	41081.08
538.75	40395.31
538.92	41055.34
539.09	40699.58
539.26	40996.82
539.43	40961.72
539.60	41006.19
539.77	40938.31
539.94	41064.70
540.11	41050.66
540.28	41095.13
540.44	40680.85
540.61	40704.26
540.78	40797.88
540.95	41083.42
541.12	41045.97
541.29	40807.24
541.46	40987.46
541.62	41326.84
541.79	41741.11
541.96	40790.86
542.13	41111.51
542.30	41610.04
542.47	41507.06
542.63	42019.64
542.80	41783.24
542.97	41963.46
543.14	42258.37
543.31	41902.61
543.48	42237.31
543.64	42597.75
543.81	42143.69
543.98	42424.55
544.15	42424.55
544.32	42277.10
544.48	43140.75
544.65	42394.12
544.82	42499.45
544.99	42061.77
545.16	42513.49
545.32	42326.25
545.49	43096.28
545.66	43473.11
545.83	42953.51
546.00	42490.09
546.16	43236.72
546.33	42864.57
546.50	42188.16
546.67	43332.68
546.83	42979.26
547.00	42960.53
547.17	42670.31
547.34	43016.71
547.50	42981.60
547.67	43545.67
547.84	43082.24
548.00	42880.95
548.17	43196.93
548.34	43817.17
548.51	43667.37
548.67	43658.01
548.84	43580.78
549.01	42969.90
549.18	43489.49
549.34	43796.10
549.51	43658.01
549.68	43751.63
549.84	43386.51
550.01	43833.55
550.18	43943.56
550.34	43555.03
550.51	44076.97
550.68	43959.94
550.84	43779.72
551.01	44294.64
551.18	43721.21
551.34	43929.51
551.51	43739.93
551.68	43992.71
551.84	43957.60
552.01	44175.27
552.18	44378.90
552.34	43721.21
552.51	44360.17
552.68	44406.98
552.84	44360.17
553.01	44285.28
553.18	44638.70
553.34	44701.89
553.51	44296.98
553.67	44643.38
553.84	44655.08
554.01	44835.30
554.17	44760.40
554.34	44582.52
554.51	44924.24
554.67	45265.96
554.84	44863.39
555.00	44790.83
555.17	45038.93
555.33	44692.53
555.50	44746.36
555.67	44893.82
555.83	45230.85
556.00	45134.89
556.16	45404.05
556.33	45078.72
556.50	44924.24
556.66	45155.96
556.83	44692.53
556.99	45333.84
557.16	45588.95
557.32	45574.91
557.49	45401.71
557.65	45034.25
557.82	45509.38
557.98	45127.87
558.15	45221.49
558.32	45413.41
558.48	45249.58
558.65	45298.73
558.81	45244.90
558.98	45771.52
559.14	45677.90
559.31	45448.52
559.47	45364.26
559.64	45792.58
559.80	45684.92
559.97	46024.29
560.13	45862.80
560.30	45745.77
560.46	45675.55
560.63	45949.40
560.79	45998.55
560.96	45797.26
561.12	45909.61
561.29	45792.58
561.45	45832.37
561.61	45729.39
561.78	45736.41
561.94	46073.45
562.11	45991.53
562.27	45661.51
562.44	45741.09
562.60	45961.10
562.77	46211.54
562.93	45823.01
563.10	46110.89
563.26	45769.18
563.42	46770.93
563.59	46059.40
563.75	45963.44
563.92	46511.13
564.08	45771.52
564.24	46171.75
564.41	46052.38
564.57	46080.47
564.74	46286.43
564.90	46066.42
565.07	46363.67
565.23	46387.08
565.39	46600.07
565.56	46546.23
565.72	46199.83
565.88	46506.44
566.05	46335.59
566.21	46342.61
566.38	46635.17
566.54	46717.09
566.70	46557.94
566.87	46312.18
567.03	46377.72
567.19	46485.38
567.36	46628.15
567.52	46658.58
567.68	46801.35
567.85	46469.00
568.01	46820.08
568.17	46546.23
568.34	46923.06
568.50	46494.74
568.66	46349.63
568.83	46515.81
568.99	46630.49
569.15	46752.20
569.32	46670.28
569.48	47091.58
569.64	47124.35
569.81	46660.92
569.97	47004.98
570.13	47239.03
570.30	46885.61
570.46	46953.49
570.62	46735.82
570.78	47215.63
570.95	46646.88
571.11	46951.15
571.27	46653.90
571.43	46869.23
571.60	47084.56
571.76	46789.65
571.92	47075.19
572.09	47182.86
572.25	47009.66
572.41	47107.96
572.57	46735.82
572.74	47325.63
572.90	46665.60
573.06	47269.46
573.22	47129.03
573.38	47224.99
573.55	47620.54
573.71	47555.00
573.87	47440.32
574.03	46965.19
574.20	47625.22
574.36	47332.65
574.52	47615.86
574.68	47437.98
574.84	47370.10
575.01	47007.32
575.17	47023.70
575.33	47065.83
575.49	47180.52
575.65	47414.57
575.82	46988.60
575.98	46789.65
576.14	47522.24
576.30	47426.28
576.46	47634.58
576.62	47501.17
576.79	46880.93
576.95	47082.22
577.11	47012.00
577.27	47271.80
577.43	47555.00
577.59	47311.59
577.75	47124.35
577.92	46887.95
578.08	47257.76
578.24	47477.77
578.40	47180.52
578.56	47508.19
578.72	47229.67
578.88	47526.92
579.04	47325.63
579.21	47337.33
579.37	47236.69
579.53	47285.84
579.69	46927.74
579.85	47253.08
580.01	47269.46
580.17	47079.88
580.33	47433.30
580.49	47271.80
580.65	47791.40
580.82	47400.53
580.98	47145.41
581.14	47112.64
581.30	47339.68
581.46	47339.68
581.62	47299.89
581.78	47199.24
581.94	47587.77
582.10	47461.38
582.26	47491.81
582.42	47592.45
582.58	47524.58
582.74	47374.78
582.90	47152.43
583.06	47552.66
583.22	47707.14
583.38	47803.10
583.54	47470.75
583.70	47718.84
583.86	48034.81
584.02	47756.29
584.18	47917.79
584.34	48318.02
584.50	48226.74
584.66	47721.18
584.82	47346.70
584.98	48009.07
585.14	47615.86
585.30	47779.70
585.46	47826.51
585.62	47707.14
585.78	47585.43
585.94	47290.52
586.10	47725.86
586.26	47395.85
586.42	47758.63
586.58	47948.21
586.74	47634.58
586.90	47452.02
587.06	47840.55
587.22	47810.12
587.38	47210.95
587.54	48030.13
587.70	47875.66
587.86	47903.74
588.02	47660.33
588.18	47402.87
588.34	47648.63
588.49	47452.02
588.65	47299.89
588.81	47501.17
588.97	47648.63
589.13	47842.89
589.29	47782.04
589.45	48013.75
589.61	48353.13
589.77	48292.27
589.93	47882.68
590.08	47620.54
