SpectraSuite Data File
++++++++++++++++++++++++++++++++++++
Date: Fri Oct 25 10:44:26 EDT 2013
User: price-jones
Dark Spectrum Present: No
Reference Spectrum Present: No
Number of Sampled Component Spectra: 1
Spectrometers: USB2+H05261
Integration Time (usec): 100000 (USB2+H05261)
Spectra Averaged: 1 (USB2+H05261)
Boxcar Smoothing: 0 (USB2+H05261)
Correct for Electrical Dark: No (USB2+H05261)
Strobe/Lamp Enabled: No (USB2+H05261)
Correct for Detector Non-linearity: No (USB2+H05261)
Correct for Stray Light: No (USB2+H05261)
Number of Pixels in Processed Spectrum: 2048
>>>>>Begin Processed Spectral Data<<<<<
365.73	149.79
365.92	149.79
366.12	149.79
366.32	53.83
366.52	35.11
366.72	0.00
366.91	70.22
367.11	86.60
367.31	0.00
367.51	37.45
367.70	0.00
367.90	18.72
368.10	65.54
368.30	0.00
368.49	0.00
368.69	35.11
368.89	35.11
369.09	102.98
369.28	0.00
369.48	63.19
369.68	84.26
369.87	81.92
370.07	84.26
370.27	161.50
370.47	180.22
370.66	437.68
370.86	425.98
371.06	463.43
371.25	486.83
371.45	521.94
371.65	482.15
371.84	456.40
372.04	444.70
372.24	528.96
372.44	484.49
372.63	482.15
372.83	475.13
373.03	463.43
373.22	519.60
373.42	550.03
373.62	554.71
373.81	564.07
374.01	568.75
374.21	503.22
374.40	554.71
374.60	627.26
374.79	559.39
374.99	596.84
375.19	681.10
375.38	599.18
375.58	552.37
375.78	566.41
375.97	571.09
376.17	645.99
376.37	739.61
376.56	653.01
376.76	561.73
376.95	582.79
377.15	615.56
377.35	660.03
377.54	629.60
377.74	660.03
377.93	634.29
378.13	744.29
378.33	674.07
378.52	748.97
378.72	685.78
378.91	702.16
379.11	683.44
379.31	636.63
379.50	634.29
379.70	699.82
379.89	763.01
380.09	678.76
380.28	683.44
380.48	727.91
380.68	664.71
380.87	662.37
381.07	767.70
381.26	697.48
381.46	702.16
381.65	716.20
381.85	713.86
382.04	678.76
382.24	732.59
382.43	671.73
382.63	699.82
382.83	671.73
383.02	812.17
383.22	784.08
383.41	737.27
383.61	723.23
383.80	837.91
384.00	840.25
384.19	788.76
384.39	812.17
384.58	770.04
384.78	760.67
384.97	887.06
385.17	861.32
385.36	739.61
385.56	858.98
385.75	837.91
385.95	830.89
386.14	849.61
386.34	791.10
386.53	842.59
386.72	840.25
386.92	910.47
387.11	866.00
387.31	798.12
387.50	912.81
387.70	889.40
387.89	877.70
388.09	844.93
388.28	898.77
388.48	912.81
388.67	973.66
388.86	1032.18
389.06	983.02
389.25	968.98
389.45	971.32
389.64	971.32
389.84	1090.69
390.03	978.34
390.22	1032.18
390.42	1078.99
390.61	997.07
390.81	1027.50
391.00	964.30
391.19	1121.12
391.39	1102.39
391.58	1039.20
391.78	1015.79
391.97	1177.29
392.16	1090.69
392.36	1156.22
392.55	1020.47
392.75	1004.09
392.94	1039.20
393.13	1053.24
393.33	1004.09
393.52	1043.88
393.71	1191.33
393.91	1081.33
394.10	1196.01
394.29	1217.08
394.49	1184.31
394.68	1205.38
394.88	1240.48
395.07	1254.53
395.26	1399.64
395.46	1268.57
395.65	1270.91
395.84	1231.12
396.04	1252.19
396.23	1287.29
396.42	1221.76
396.62	1266.23
396.81	1219.42
397.00	1315.38
397.19	1336.45
397.39	1301.34
397.58	1348.15
397.77	1387.94
397.97	1469.86
398.16	1413.68
398.35	1530.71
398.55	1439.43
398.74	1551.78
398.93	1540.07
399.12	1619.65
399.32	1439.43
399.51	1657.10
399.70	1678.16
399.90	1626.67
400.09	1654.76
400.28	1706.25
400.47	1626.67
400.67	1596.25
400.86	1701.57
401.05	1710.93
401.24	1769.44
401.44	1743.70
401.63	1788.17
401.82	1820.94
402.01	1809.23
402.21	1760.08
402.40	1790.51
402.59	1753.06
402.78	1724.97
402.97	1879.45
403.17	1881.79
403.36	1942.64
403.55	1937.96
403.74	1926.26
403.93	1961.37
404.13	2059.67
404.32	1900.52
404.51	1907.54
404.70	2062.01
404.89	2094.78
405.09	2127.55
405.28	2005.84
405.47	2015.20
405.66	2031.58
405.85	2038.61
406.05	2040.95
406.24	2113.50
406.43	2054.99
406.62	2090.10
406.81	2218.83
407.00	2078.40
407.20	2073.71
407.39	2282.02
407.58	2139.25
407.77	2251.60
407.96	2361.60
408.15	2361.60
408.34	2265.64
408.54	2345.22
408.73	2406.07
408.92	2382.67
409.11	2260.96
409.30	2338.20
409.49	2352.24
409.68	2441.18
409.87	2249.25
410.07	2359.26
410.26	2408.41
410.45	2525.44
410.64	2483.31
410.83	2509.05
411.02	2588.63
411.21	2637.78
411.40	2693.96
411.59	2686.94
411.78	2717.36
411.98	2710.34
412.17	2782.90
412.36	2869.50
412.55	2759.49
412.74	2815.66
412.93	2818.00
413.12	2696.30
413.31	2825.03
413.50	2953.76
413.69	2904.60
413.88	3038.02
414.07	2963.12
414.26	2874.18
414.45	2986.52
414.64	3059.08
414.83	3049.72
415.02	3101.21
415.22	3112.91
415.41	3225.26
415.60	3199.51
415.79	3260.37
415.98	3389.10
416.17	3344.63
416.36	3391.44
416.55	3389.10
416.74	3286.11
416.93	3410.16
417.12	3353.99
417.31	3410.16
417.50	3463.99
417.69	3524.85
417.88	3407.82
418.07	3541.23
418.26	3499.10
418.45	3538.89
418.64	3824.44
418.83	3618.47
419.02	3578.68
419.21	3698.05
419.39	3637.19
419.58	3644.21
419.77	3637.19
419.96	3784.65
420.15	3852.52
420.34	3798.69
420.53	3824.44
420.72	3843.16
420.91	3925.08
421.10	3929.76
421.29	3904.01
421.48	3850.18
421.67	3908.69
421.86	3887.63
422.05	3892.31
422.24	3904.01
422.43	3808.05
422.61	4018.70
422.80	4049.13
422.99	4007.00
423.18	4086.58
423.37	4030.40
423.56	4058.49
423.75	4135.73
423.94	3962.53
424.13	3854.86
424.32	3824.44
424.50	4004.66
424.69	4175.52
424.88	4255.09
425.07	3981.25
425.26	4100.62
425.45	4049.13
425.64	3974.23
425.83	3978.91
426.01	4145.09
426.20	3999.98
426.39	4023.38
426.58	4156.79
426.77	4007.00
426.96	3974.23
427.15	4184.88
427.33	4369.78
427.52	4212.96
427.71	4304.25
427.90	4259.78
428.09	4365.10
428.28	4358.08
428.46	4280.84
428.65	4294.88
428.84	4383.82
429.03	4557.02
429.22	4266.80
429.40	4248.07
429.59	4297.22
429.78	3969.55
429.97	3997.64
430.16	4049.13
430.34	4276.16
430.53	4236.37
430.72	4308.93
430.91	4362.76
431.10	4454.04
431.28	4491.49
431.47	4851.93
431.66	4865.97
431.85	4758.31
432.03	4798.10
432.22	4800.44
432.41	4594.47
432.60	4823.84
432.79	4683.41
432.97	4793.42
433.16	4987.68
433.35	4727.88
433.54	4748.95
433.72	4762.99
433.91	4858.95
434.10	4954.91
434.28	4894.06
434.47	4990.02
434.66	5001.72
434.85	5069.60
435.03	5177.26
435.22	5125.77
435.41	5291.95
435.59	5093.01
435.78	5380.89
435.97	5455.79
436.16	5329.40
436.34	5238.12
436.53	5181.95
436.72	5275.57
436.90	5256.84
437.09	5350.46
437.28	5153.86
437.46	5291.95
437.65	5303.65
437.84	5348.12
438.02	5301.31
438.21	5439.40
438.40	5280.25
438.58	5596.22
438.77	5582.18
438.96	5434.72
439.14	5818.57
439.33	5724.95
439.52	5640.69
439.70	5806.87
439.89	5914.53
440.08	6003.47
440.26	5944.96
440.45	5778.78
440.63	5947.30
440.82	6129.86
441.01	6017.52
441.19	6139.23
441.38	6377.96
441.57	6317.11
441.75	6296.04
441.94	6466.90
442.12	6415.41
442.31	6698.61
442.50	6502.01
442.68	6558.18
442.87	6565.20
443.05	6509.03
443.24	6553.50
443.43	6733.72
443.61	6487.96
443.80	6925.65
443.98	6469.24
444.17	6382.64
444.35	6710.32
444.54	6691.59
444.73	6766.49
444.91	6705.63
445.10	6729.04
445.28	6731.38
445.47	6527.75
445.65	6471.58
445.84	6719.68
446.02	6846.07
446.21	6806.28
446.39	6724.36
446.58	6825.00
446.77	6864.79
446.95	6635.42
447.14	6820.32
447.32	6918.62
447.51	6761.81
447.69	6916.28
447.88	6848.41
448.06	6740.74
448.25	6953.73
448.43	6871.81
448.62	6881.18
448.80	6958.41
448.99	6972.46
449.17	7136.29
449.36	6906.92
449.54	7232.26
449.73	7201.83
449.91	7178.42
450.10	7344.60
450.28	7339.92
450.46	7548.23
450.65	7515.46
450.83	7456.95
451.02	7482.69
451.20	7412.48
451.39	7344.60
451.57	7419.50
451.76	7351.62
451.94	7478.01
452.13	7599.72
452.31	7391.41
452.49	7323.54
452.68	7562.27
452.86	7309.49
453.05	7489.71
453.23	7581.00
453.42	7459.29
453.60	7644.19
453.78	7660.57
453.97	7581.00
454.15	7590.36
454.34	7566.95
454.52	7836.11
454.70	7770.58
454.89	7707.38
455.07	7901.65
455.26	7995.27
455.44	7953.14
455.62	7971.86
455.81	7997.61
455.99	7962.50
456.17	8028.04
456.36	8070.17
456.54	8081.87
456.73	8168.47
456.91	8514.87
457.09	8308.90
457.28	8552.32
457.46	8355.71
457.64	8395.50
457.83	8271.45
458.01	8135.70
458.19	8353.37
458.38	8395.50
458.56	8709.13
458.74	8458.70
458.93	8512.53
459.11	8358.05
459.29	8486.78
459.48	8627.21
459.66	8634.24
459.84	8652.96
460.03	8730.20
460.21	8753.60
460.39	8557.00
460.57	8744.24
460.76	9128.09
460.94	8870.63
461.12	9025.11
461.31	8971.27
461.49	8809.78
461.67	8847.22
461.85	8936.17
462.04	8924.46
462.22	8945.53
462.40	9359.80
462.59	9158.52
462.77	9146.81
462.95	9247.46
463.13	9188.94
463.32	9202.99
463.50	9266.18
463.68	9146.81
463.86	9404.27
464.05	9057.87
464.23	9228.73
464.41	9320.01
464.59	9107.02
464.78	9406.61
464.96	9362.14
465.14	9303.63
465.32	9528.32
465.50	9486.19
465.69	9455.76
465.87	9535.34
466.05	9619.60
466.23	9535.34
466.41	9451.08
466.60	9474.49
466.78	9472.15
466.96	9633.64
467.14	9596.20
467.32	9518.96
467.51	9565.77
467.69	9231.07
467.87	9713.22
468.05	9832.59
468.23	9659.39
468.41	9624.28
468.60	9870.04
468.78	9872.38
468.96	9753.01
469.14	10101.75
469.32	10111.11
469.50	9804.50
469.69	9839.61
469.87	10284.31
470.05	10050.26
470.23	9937.91
470.41	9926.21
470.59	10321.76
470.77	10148.56
470.95	10242.18
471.14	10296.02
471.32	10366.23
471.50	10492.62
471.68	10630.71
471.86	10572.20
472.04	10658.80
472.22	10841.36
472.40	10434.11
472.58	10485.60
472.77	10724.33
472.95	10850.72
473.13	11131.59
473.31	10869.45
473.49	10799.23
473.67	10916.26
473.85	11044.99
474.03	11412.45
474.21	11257.98
474.39	11211.17
474.57	11243.93
474.75	11276.70
474.93	11552.88
475.12	11494.37
475.30	11812.68
475.48	11501.39
475.66	11749.49
475.84	11449.90
476.02	11515.44
476.20	11859.49
476.38	11889.92
476.56	12051.42
476.74	12095.89
476.92	12280.79
477.10	12299.52
477.28	12465.69
477.46	12355.69
477.64	12643.57
477.82	12535.91
478.00	13020.40
478.18	12798.05
478.36	12987.63
478.54	13231.05
478.72	12964.23
478.90	13322.33
479.08	13322.33
479.26	13530.64
479.44	13404.25
479.62	13680.43
479.80	13682.77
479.98	13853.63
480.16	14050.24
480.34	14162.58
480.52	14068.96
480.70	14153.22
480.88	14003.43
481.06	14026.83
481.24	14314.72
481.41	14733.67
481.59	14719.63
481.77	14572.18
481.95	14689.20
482.13	14956.02
482.31	15051.99
482.49	15208.80
482.67	15382.00
482.85	15611.37
483.03	15304.76
483.21	15913.30
483.39	15775.21
483.57	15763.51
483.74	16128.63
483.92	16011.60
484.10	15927.35
484.28	16402.47
484.46	16451.63
484.64	16629.51
484.82	16322.90
485.00	16570.99
485.18	17046.12
485.35	16723.13
485.53	16170.76
485.71	16367.37
485.89	16922.07
486.07	16783.98
486.25	17078.89
486.43	17497.84
486.61	17399.54
486.78	17804.46
486.96	17774.03
487.14	18099.36
487.32	18284.26
487.50	18382.57
487.68	18471.51
487.85	18862.38
488.03	19161.97
488.21	19152.60
488.39	19316.44
488.57	18995.79
488.75	19379.64
488.92	19360.91
489.10	19704.97
489.28	20027.96
489.46	20285.42
489.64	20336.91
489.81	20563.95
489.99	20727.78
490.17	20610.76
490.35	21057.80
490.53	20891.62
490.70	21008.65
490.88	20964.18
491.06	21296.53
491.24	21275.47
491.41	21476.76
491.59	21071.84
491.77	21333.98
491.95	21680.38
492.13	21661.66
492.30	22211.68
492.48	22122.74
492.66	22267.86
492.84	22317.01
493.01	22668.09
493.19	22530.00
493.37	22698.52
493.54	22850.65
493.72	23215.77
493.90	23185.35
494.08	23452.17
494.25	23564.51
494.43	23641.75
494.61	24109.86
494.79	24044.32
494.96	23880.49
495.14	23953.04
495.32	24278.38
495.49	24070.07
495.67	24411.79
495.85	24643.50
496.02	25055.43
496.20	25130.33
496.38	25050.75
496.55	25275.45
496.73	25628.87
496.91	25123.31
497.09	25621.84
497.26	25830.15
497.44	26015.05
497.62	25469.71
497.79	25975.27
497.97	25689.72
498.14	26272.51
498.32	26206.98
498.50	26522.95
498.67	26508.91
498.85	26724.24
499.03	27117.45
499.20	26822.54
499.38	27253.20
499.56	26981.70
499.73	26962.97
499.91	27152.55
500.08	27108.08
500.26	26977.01
500.44	27302.35
500.61	27274.26
500.79	27063.61
500.97	27494.27
501.14	28140.26
501.32	27861.74
501.49	27562.15
501.67	27711.94
501.84	27840.67
502.02	28100.47
502.20	28442.19
502.37	28362.61
502.55	28662.20
502.72	28425.81
502.90	28601.35
503.07	28229.20
503.25	29111.58
503.43	28765.18
503.60	28659.86
503.78	28886.89
503.95	29256.70
504.13	28985.19
504.30	29575.01
504.48	29422.87
504.65	29535.22
504.83	29715.44
505.01	29734.17
505.18	30005.67
505.36	30096.95
505.53	29778.64
505.71	30347.39
505.88	30628.25
506.06	30345.05
506.23	30286.53
506.41	30052.48
506.58	30302.92
506.76	30422.28
506.93	30988.69
507.11	30808.47
507.28	30960.61
507.46	30696.13
507.63	31372.54
507.81	30838.90
507.98	30911.46
508.16	31250.83
508.33	31314.03
508.50	31407.65
508.68	31325.73
508.85	31857.03
509.03	31835.97
509.20	31541.06
509.38	31908.52
509.55	32231.52
509.73	32006.83
509.90	32135.56
510.08	31737.66
510.25	31906.18
510.42	32554.51
510.60	32208.11
510.77	32730.05
510.95	32624.73
511.12	32215.13
511.30	33427.53
511.47	33031.98
511.64	32950.06
511.82	33464.98
511.99	32767.50
512.17	32929.00
512.34	33102.20
512.51	33226.24
512.69	33855.85
512.86	33523.49
513.04	33799.68
513.21	33380.72
513.38	33790.31
513.56	33450.94
513.73	33549.24
513.90	33551.58
514.08	33687.33
514.25	33600.73
514.43	33731.80
514.60	33682.65
514.77	34328.64
514.95	34347.36
515.12	34366.09
515.29	34642.27
515.47	34866.96
515.64	34763.98
515.81	34478.43
515.99	34445.66
516.16	34555.67
516.33	34436.30
516.51	34389.49
516.68	34120.33
516.85	34232.68
517.03	34213.95
517.20	34761.64
517.37	34752.27
517.54	35037.82
517.72	34927.81
517.89	34941.86
518.06	34504.18
518.24	34710.14
518.41	34712.49
518.58	35070.59
518.75	35349.11
518.93	35321.02
519.10	35304.64
519.27	35931.90
519.45	35924.88
519.62	36257.24
519.79	36318.09
519.96	36060.63
520.14	36299.37
520.31	36004.46
520.48	36350.86
520.65	36165.96
520.83	36751.09
521.00	37076.43
521.17	36481.93
521.34	36662.15
521.52	37118.56
521.69	36758.11
521.86	37186.43
522.03	37191.11
522.20	37113.87
522.38	37024.93
522.55	37380.70
522.72	37287.07
522.89	37350.27
523.07	37558.58
523.24	37329.20
523.41	38424.57
523.58	37801.99
523.75	38557.99
523.92	38029.02
524.10	38117.96
524.27	38176.48
524.44	38291.16
524.61	38497.13
524.78	38565.01
524.96	38639.90
525.13	38398.83
525.30	38513.52
525.47	38806.08
525.64	38291.16
525.81	38307.55
525.98	38267.76
526.16	38515.86
526.33	38022.00
526.50	38483.09
526.67	37909.66
526.84	38408.19
527.01	38080.52
527.18	38651.61
527.36	38962.90
527.53	39049.50
527.70	39470.79
527.87	39367.81
528.04	39147.80
528.21	39281.21
528.38	39519.95
528.55	39927.20
528.72	39695.49
528.89	39543.35
529.07	39770.38
529.24	39686.12
529.41	39445.05
529.58	39271.85
529.75	39452.07
529.92	40151.89
530.09	40002.10
530.26	39995.07
530.43	40191.68
530.60	39754.00
530.77	40009.12
530.94	40411.69
531.11	40091.04
531.28	40512.33
531.46	40451.48
531.63	40250.19
531.80	40238.49
531.97	40357.86
532.14	40301.68
532.31	40102.74
532.48	40025.50
532.65	40636.38
532.82	40509.99
532.99	40708.94
533.16	40517.01
533.33	40765.11
533.50	40893.84
533.67	40872.78
533.84	40381.26
534.01	40505.31
534.18	40816.60
534.35	41097.47
534.52	40975.76
534.69	41263.64
534.86	41457.91
535.03	41581.96
535.20	41830.05
535.37	41574.94
535.54	41755.16
535.71	41570.25
535.88	41123.21
536.05	41340.88
536.22	41624.09
536.38	41443.87
536.55	41375.99
536.72	42321.57
536.89	41570.25
537.06	41596.00
537.23	41900.27
537.40	41755.16
537.57	41823.03
537.74	42469.02
537.91	42328.59
538.08	41612.38
538.25	42057.09
538.42	41944.74
538.59	42036.02
538.75	41846.44
538.92	41954.10
539.09	42237.31
539.26	42026.66
539.43	42216.24
539.60	42014.96
539.77	42003.25
539.94	42178.79
540.11	42164.75
540.28	42183.48
540.44	42073.47
540.61	42036.02
540.78	42356.67
540.95	42588.39
541.12	42625.84
541.29	42340.29
541.46	42719.46
541.62	42452.64
541.79	42951.17
541.96	42361.36
542.13	42576.69
542.30	43082.24
542.47	42520.51
542.63	42820.10
542.80	42803.72
542.97	43676.74
543.14	43529.28
543.31	43318.64
543.48	43452.05
543.64	43810.15
543.81	44002.07
543.98	43697.80
544.15	43445.02
544.32	43681.42
544.48	43625.25
544.65	43786.74
544.82	43859.30
544.99	43454.39
545.16	43402.89
545.32	43667.37
545.49	44245.49
545.66	44308.68
545.83	44048.88
546.00	44376.56
546.16	43901.43
546.33	43894.41
546.50	43594.82
546.67	44189.31
546.83	43770.36
547.00	44121.44
547.17	43938.88
547.34	43978.67
547.50	44091.01
547.67	44208.04
547.84	43887.39
548.00	44699.55
548.17	44713.59
548.34	44048.88
548.51	44765.09
548.67	44671.46
548.84	44634.02
549.01	44320.38
549.18	44222.08
549.34	44495.92
549.51	44598.91
549.68	44374.22
549.84	44706.57
550.01	44561.46
550.18	44493.58
550.34	44634.02
550.51	45006.16
550.68	44839.98
550.84	44596.57
551.01	45303.41
551.18	44626.99
551.34	45015.52
551.51	45008.50
551.68	45078.72
551.84	45050.63
552.01	45296.39
552.18	45291.71
552.34	45151.27
552.51	45198.09
552.68	44898.50
552.84	45572.57
553.01	45092.76
553.18	45120.85
553.34	45354.90
553.51	45167.66
553.67	45102.12
553.84	45359.58
554.01	45603.00
554.17	45441.50
554.34	45574.91
554.51	45179.36
554.67	45724.71
554.84	45563.21
555.00	45532.78
555.17	45188.72
555.33	45689.60
555.50	45495.33
555.67	45485.97
555.83	45462.57
556.00	45530.44
556.16	45893.22
556.33	45521.08
556.50	45429.80
556.66	45832.37
556.83	45649.81
556.99	45549.17
557.16	45949.40
557.32	46169.41
557.49	45895.56
557.65	45834.71
557.82	45652.15
557.98	45799.60
558.15	45975.14
558.32	45684.92
558.48	45818.33
558.65	45844.07
558.81	45808.96
558.98	45794.92
559.14	45741.09
559.31	45408.73
559.47	46206.86
559.64	46096.85
559.80	46447.93
559.97	45804.28
560.13	45748.11
560.30	45916.63
560.46	46085.15
560.63	46532.19
560.79	46499.42
560.96	46256.01
561.12	46251.33
561.29	45972.80
561.45	45869.82
561.61	45965.78
561.78	46190.47
561.94	46089.83
562.11	46288.77
562.27	46291.12
562.44	46026.63
562.60	46625.81
562.77	46464.32
562.93	45970.46
563.10	46316.86
563.26	46267.71
563.42	46234.94
563.59	46209.20
563.75	46305.16
563.92	46703.05
564.08	46511.13
564.24	46494.74
564.41	46068.76
564.57	46136.64
564.74	46646.88
564.90	46492.40
565.07	46513.47
565.23	46497.08
565.39	46071.10
565.56	46562.62
565.72	46000.89
565.88	46241.96
566.05	46653.90
566.21	46644.54
566.38	46141.32
566.54	46660.92
566.70	46960.51
566.87	46913.70
567.03	46454.95
567.19	47065.83
567.36	46354.31
567.52	46824.76
567.68	46827.10
567.85	46653.90
568.01	46649.22
568.17	46630.49
568.34	46719.43
568.50	46557.94
568.66	46382.40
568.83	46796.67
568.99	46401.12
569.15	46445.59
569.32	46108.55
569.48	46450.27
569.64	46288.77
569.81	46705.39
569.97	46789.65
570.13	46710.07
570.30	46286.43
570.46	46417.50
570.62	46464.32
570.78	46291.12
570.95	46579.00
571.11	46850.50
571.27	46483.04
571.43	46581.34
571.60	46471.34
571.76	46525.17
571.92	46986.25
572.09	46609.43
572.25	46483.04
572.41	46213.88
572.57	46754.54
572.74	46726.46
572.90	46728.80
573.06	46979.23
573.22	46677.30
573.38	46700.71
573.55	46731.14
573.71	46918.38
573.87	46752.20
574.03	46719.43
574.20	47047.11
574.36	46574.32
574.52	46689.01
574.68	46993.28
574.84	46677.30
575.01	46604.75
575.17	46607.09
575.33	46686.67
575.49	46560.28
575.65	46845.82
575.82	46791.99
575.98	46469.00
576.14	47276.48
576.30	47236.69
576.46	46719.43
576.62	46373.03
576.79	46780.29
576.95	46197.49
577.11	46820.08
577.27	46258.35
577.43	46370.69
577.59	46417.50
577.75	46696.03
577.92	46099.19
578.08	46375.37
578.24	46284.09
578.40	46333.24
578.56	46780.29
578.72	46649.22
578.88	46990.94
579.04	46597.73
579.21	46710.07
579.37	46766.24
579.53	46869.23
579.69	46752.20
579.85	46604.75
580.01	46862.21
580.17	46714.75
580.33	46838.80
580.49	46614.11
580.65	47327.97
580.82	46958.17
580.98	46609.43
581.14	46623.47
581.30	46829.44
581.46	46878.59
581.62	47009.66
581.78	46913.70
581.94	47185.20
582.10	46644.54
582.26	46953.49
582.42	46904.34
582.58	46902.00
582.74	46419.84
582.90	47002.64
583.06	47201.58
583.22	46981.57
583.38	47367.76
583.54	47482.45
583.70	47262.44
583.86	46775.61
584.02	46457.29
584.18	47023.70
584.34	46670.28
584.50	46454.95
584.66	46960.51
584.82	46768.58
584.98	47295.21
585.14	47157.11
585.30	46958.17
585.46	46775.61
585.62	46586.02
585.78	46808.37
585.94	46227.92
586.10	46834.12
586.26	46855.18
586.42	47030.72
586.58	46934.76
586.74	47185.20
586.90	46436.23
587.06	47063.49
587.22	46944.12
587.38	46562.62
587.54	47103.28
587.70	46920.72
587.86	46920.72
588.02	46995.62
588.18	46997.96
588.34	46340.27
588.49	46623.47
588.65	46391.76
588.81	46223.24
588.97	46637.51
589.13	46288.77
589.29	46597.73
589.45	46220.90
589.61	47077.54
589.77	46429.21
589.93	46726.46
