SpectraSuite Data File
++++++++++++++++++++++++++++++++++++
Date: Fri Oct 25 11:33:38 EDT 2013
User: price-jones
Dark Spectrum Present: No
Reference Spectrum Present: No
Number of Sampled Component Spectra: 1
Spectrometers: USB2+H05261
Integration Time (usec): 100000 (USB2+H05261)
Spectra Averaged: 1 (USB2+H05261)
Boxcar Smoothing: 0 (USB2+H05261)
Correct for Electrical Dark: No (USB2+H05261)
Strobe/Lamp Enabled: No (USB2+H05261)
Correct for Detector Non-linearity: No (USB2+H05261)
Correct for Stray Light: No (USB2+H05261)
Number of Pixels in Processed Spectrum: 2048
>>>>>Begin Processed Spectral Data<<<<<
365.73	273.84
365.92	273.84
366.12	273.84
366.32	245.76
366.52	142.77
366.72	175.54
366.91	117.03
367.11	182.56
367.31	135.75
367.51	126.39
367.70	212.99
367.90	196.60
368.10	222.35
368.30	196.60
368.49	156.82
368.69	194.26
368.89	133.41
369.09	133.41
369.28	184.90
369.48	175.54
369.68	166.18
369.87	285.55
370.07	177.88
370.27	271.50
370.47	369.80
370.66	433.00
370.86	451.72
371.06	610.88
371.25	566.41
371.45	454.06
371.65	510.24
371.84	484.49
372.04	514.92
372.24	547.69
372.44	566.41
372.63	599.18
372.83	615.56
373.03	599.18
373.22	653.01
373.42	622.58
373.62	617.90
373.81	634.29
374.01	678.76
374.21	638.97
374.40	587.47
374.60	622.58
374.79	690.46
374.99	617.90
375.19	704.50
375.38	727.91
375.58	676.41
375.78	671.73
375.97	634.29
376.17	760.67
376.37	685.78
376.56	716.20
376.76	674.07
376.95	709.18
377.15	713.86
377.35	688.12
377.54	671.73
377.74	711.52
377.93	676.41
378.13	699.82
378.33	739.61
378.52	760.67
378.72	697.48
378.91	744.29
379.11	720.88
379.31	718.54
379.50	681.10
379.70	711.52
379.89	730.25
380.09	741.95
380.28	770.04
380.48	760.67
380.68	798.12
380.87	706.84
381.07	744.29
381.26	802.80
381.46	753.65
381.65	774.72
381.85	777.06
382.04	709.18
382.24	786.42
382.43	777.06
382.63	692.80
382.83	795.78
383.02	896.43
383.22	777.06
383.41	763.01
383.61	798.12
383.80	760.67
384.00	819.19
384.19	809.83
384.39	816.85
384.58	800.46
384.78	908.13
384.97	826.21
385.17	800.46
385.36	842.59
385.56	847.27
385.75	849.61
385.95	828.55
386.14	858.98
386.34	833.23
386.53	889.40
386.72	798.12
386.92	945.58
387.11	858.98
387.31	823.87
387.50	931.53
387.70	896.43
387.89	896.43
388.09	875.36
388.28	896.43
388.48	898.77
388.67	943.24
388.86	800.46
389.06	926.85
389.25	1048.56
389.45	870.68
389.64	880.04
389.84	957.28
390.03	903.45
390.22	947.92
390.42	931.53
390.61	950.26
390.81	1015.79
391.00	933.87
391.19	915.15
391.39	985.37
391.58	997.07
391.78	985.37
391.97	994.73
392.16	1008.77
392.36	1074.31
392.55	1041.54
392.75	1020.47
392.94	1027.50
393.13	1069.62
393.33	1011.11
393.52	1086.01
393.71	1132.82
393.91	1081.33
394.10	1064.94
394.29	1123.46
394.49	1156.22
394.68	1076.65
394.88	1076.65
395.07	1086.01
395.26	1172.61
395.46	1177.29
395.65	1188.99
395.84	1174.95
396.04	1249.85
396.23	1184.31
396.42	1214.74
396.62	1207.72
396.81	1317.72
397.00	1146.86
397.19	1135.16
397.39	1238.14
397.58	1308.36
397.77	1299.00
397.97	1254.53
398.16	1228.78
398.35	1235.80
398.55	1207.72
398.74	1261.55
398.93	1273.25
399.12	1306.02
399.32	1308.36
399.51	1383.26
399.70	1362.19
399.90	1322.40
400.09	1437.09
400.28	1322.40
400.47	1369.21
400.67	1371.55
400.86	1411.34
401.05	1397.30
401.24	1378.58
401.44	1465.18
401.63	1444.11
401.82	1444.11
402.01	1448.79
402.21	1472.20
402.40	1479.22
402.59	1476.88
402.78	1472.20
402.97	1514.33
403.17	1561.14
403.36	1572.84
403.55	1507.30
403.74	1467.52
403.93	1668.80
404.13	1650.08
404.32	1579.86
404.51	1591.56
404.70	1640.72
404.89	1647.74
405.09	1732.00
405.28	1685.19
405.47	1692.21
405.66	1675.82
405.85	1795.19
406.05	1710.93
406.24	1823.28
406.43	1760.08
406.62	1722.63
406.81	1762.42
407.00	1820.94
407.20	1771.79
407.39	1806.89
407.58	1856.04
407.77	1914.56
407.96	1930.94
408.15	1963.71
408.34	1893.49
408.54	1961.37
408.73	2015.20
408.92	1949.67
409.11	1991.80
409.30	1966.05
409.49	1942.64
409.68	1914.56
409.87	2040.95
410.07	1982.43
410.26	2101.80
410.45	2059.67
410.64	1956.69
410.83	2172.02
411.02	2036.27
411.21	2197.76
411.40	2143.93
411.59	2083.08
411.78	2242.23
411.98	2317.13
412.17	2279.68
412.36	2366.28
412.55	2282.02
412.74	2289.04
412.93	2399.05
413.12	2387.35
413.31	2403.73
413.50	2385.01
413.69	2333.51
413.88	2485.65
414.07	2464.58
414.26	2406.07
414.45	2551.18
414.64	2523.10
414.83	2635.44
415.02	2635.44
415.22	2705.66
415.41	2642.46
415.60	2672.89
415.79	2810.98
415.98	2850.77
416.17	2780.56
416.36	2759.49
416.55	2672.89
416.74	2822.69
416.93	2750.13
417.12	2984.18
417.31	2867.16
417.50	2857.79
417.69	2984.18
417.88	3040.36
418.07	2897.58
418.26	2862.48
418.45	3019.29
418.64	3192.49
418.83	2937.37
419.02	3080.14
419.21	3138.66
419.39	3194.83
419.58	3096.53
419.77	3075.46
419.96	3255.69
420.15	3091.85
420.34	3119.93
420.53	3220.58
420.72	3171.43
420.91	3225.26
421.10	3375.05
421.29	3328.24
421.48	3300.16
421.67	3290.79
421.86	3363.35
422.05	3201.85
422.24	3358.67
422.43	3358.67
422.61	3386.76
422.80	3370.37
422.99	3492.08
423.18	3442.93
423.37	3473.36
423.56	3410.16
423.75	3379.73
423.94	3438.25
424.13	3150.36
424.32	3265.05
424.50	3463.99
424.69	3627.83
424.88	3396.12
425.07	3543.57
425.26	3358.67
425.45	3269.73
425.64	3412.50
425.83	3349.31
426.01	3522.51
426.20	3555.27
426.39	3503.78
426.58	3482.72
426.77	3400.80
426.96	3494.42
427.15	3653.58
427.33	3487.40
427.52	3517.83
427.71	3618.47
427.90	3686.34
428.09	3581.02
428.28	3702.73
428.46	3747.20
428.65	3571.66
428.84	3791.67
429.03	3705.07
429.22	3737.84
429.40	3707.41
429.59	3845.50
429.78	3751.88
429.97	3604.42
430.16	3749.54
430.34	3819.75
430.53	3950.82
430.72	3922.74
430.91	3880.61
431.10	3904.01
431.28	3974.23
431.47	3955.51
431.66	3939.12
431.85	4051.47
432.03	4046.79
432.22	4046.79
432.41	4070.19
432.60	4180.20
432.79	4039.76
432.97	4252.75
433.16	4161.47
433.35	4248.07
433.54	4093.60
433.72	4147.43
433.91	4236.37
434.10	4166.15
434.28	4287.86
434.47	4189.56
434.66	4266.80
434.85	4313.61
435.03	4425.95
435.22	4191.90
435.41	4482.13
435.59	4432.97
435.78	4325.31
435.97	4456.38
436.16	4557.02
436.34	4376.80
436.53	4372.12
436.72	4470.42
436.90	4418.93
437.09	4456.38
437.28	4479.79
437.46	4444.68
437.65	4580.43
437.84	4578.09
438.02	4578.09
438.21	4664.69
438.40	4636.60
438.58	4802.78
438.77	4762.99
438.96	4704.48
439.14	4826.18
439.33	4936.19
439.52	5057.90
439.70	4844.91
439.89	5057.90
440.08	5022.79
440.26	5083.64
440.45	4990.02
440.63	5046.20
440.82	5198.33
441.01	5085.98
441.19	5240.46
441.38	5280.25
441.57	5305.99
441.75	5263.86
441.94	5294.29
442.12	5331.74
442.31	5453.45
442.50	5317.70
442.68	5504.94
442.87	5430.04
443.05	5563.45
443.24	5495.58
443.43	5483.88
443.61	5664.10
443.80	5827.93
443.98	5448.77
444.17	5310.68
444.35	5640.69
444.54	5731.97
444.73	5774.10
444.91	5701.54
445.10	5636.01
445.28	5551.75
445.47	5593.88
445.65	5792.83
445.84	5809.21
446.02	5827.93
446.21	5764.74
446.39	5792.83
446.58	5804.53
446.77	5778.78
446.95	5628.99
447.14	5729.63
447.32	5687.50
447.51	5713.25
447.69	5874.74
447.88	5734.31
448.06	5680.48
448.25	5722.61
448.43	5647.71
448.62	5865.38
448.80	5841.98
448.99	5891.13
449.17	6001.13
449.36	5949.64
449.54	6005.81
449.73	6132.20
449.91	6305.40
450.10	6118.16
450.28	6260.93
450.46	5900.49
450.65	6162.63
450.83	6071.35
451.02	6195.40
451.20	6176.67
451.39	6258.59
451.57	6057.31
451.76	6115.82
451.94	6083.05
452.13	6406.05
452.31	6361.58
452.49	6235.19
452.68	6193.06
452.86	6375.62
453.05	6345.19
453.23	6466.90
453.42	6356.90
453.60	6162.63
453.78	6459.88
453.97	6333.49
454.15	6415.41
454.34	6331.15
454.52	6530.09
454.70	6576.91
454.89	6586.27
455.07	6715.00
455.26	6761.81
455.44	6733.72
455.62	6572.22
455.81	6509.03
455.99	6899.90
456.17	6712.66
456.36	6656.48
456.54	6747.76
456.73	6757.13
456.91	7255.66
457.09	7084.80
457.28	7096.50
457.46	7009.90
457.64	6867.13
457.83	7145.66
458.01	7108.21
458.19	7272.04
458.38	7096.50
458.56	7342.26
458.74	7192.47
458.93	7070.76
459.11	7162.04
459.29	7314.17
459.48	7255.66
459.66	7295.45
459.84	7454.61
460.03	7482.69
460.21	7517.80
460.39	7555.25
460.57	7260.34
460.76	7391.41
460.94	7473.33
461.12	7599.72
461.31	7424.18
461.49	7578.65
461.67	7597.38
461.85	7761.22
462.04	7517.80
462.22	8119.32
462.40	7705.04
462.59	7777.60
462.77	7801.01
462.95	7691.00
463.13	7744.83
463.32	7889.95
463.50	7882.92
463.68	7934.42
463.86	8173.15
464.05	7871.22
464.23	7873.56
464.41	7911.01
464.59	7779.94
464.78	8161.45
464.96	8035.06
465.14	8077.19
465.32	8182.51
465.50	7985.91
465.69	8294.86
465.87	8215.28
466.05	8215.28
466.23	8086.55
466.41	8074.85
466.60	8299.54
466.78	7969.52
466.96	8294.86
467.14	8173.15
467.32	8306.56
467.51	8425.93
467.69	8334.65
467.87	8477.42
468.05	8470.40
468.23	8397.84
468.41	8280.82
468.60	8463.38
468.78	8624.87
468.96	8383.80
469.14	8816.80
469.32	8641.26
469.50	8367.42
469.69	8769.99
469.87	8830.84
470.05	8777.01
470.23	8779.35
470.41	8784.03
470.59	8830.84
470.77	8821.48
470.95	8954.89
471.14	8872.97
471.32	8774.67
471.50	9048.51
471.68	8997.02
471.86	9149.15
472.04	9088.30
472.22	9259.16
472.40	9123.41
472.58	9308.31
472.77	9320.01
472.95	9397.25
473.13	9769.40
473.31	9404.27
473.49	9434.70
473.67	9467.47
473.85	9589.17
474.03	9860.68
474.21	9565.77
474.39	9968.34
474.57	9926.21
474.75	9916.85
474.93	10015.15
475.12	9907.49
475.30	10160.27
475.48	9900.47
475.66	10221.12
475.84	9998.77
476.02	10134.52
476.20	10211.76
476.38	10520.71
476.56	10789.87
476.74	10628.37
476.92	10485.60
477.10	10614.33
477.28	10778.17
477.46	10707.95
477.64	10724.33
477.82	10995.84
478.00	11178.40
478.18	11239.25
478.36	11159.67
478.54	11424.15
478.72	11503.73
478.90	11513.10
479.08	11480.33
479.26	11627.78
479.44	11751.83
479.62	11714.38
479.80	11889.92
479.98	11875.88
480.16	12198.87
480.34	12093.55
480.52	12327.60
480.70	12446.97
480.88	12238.66
481.06	12425.90
481.24	12446.97
481.41	12711.45
481.59	12613.15
481.77	12929.12
481.95	12587.40
482.13	13039.12
482.31	13137.43
482.49	13357.44
482.67	13308.29
482.85	13551.70
483.03	13657.03
483.21	13678.09
483.39	13813.84
483.57	13659.37
483.74	13776.39
483.92	14249.18
484.10	14286.63
484.28	14588.56
484.46	14281.95
484.64	14649.41
484.82	14576.86
485.00	14621.33
485.18	14635.37
485.35	14953.68
485.53	15267.31
485.71	15241.57
485.89	15454.56
486.07	15332.85
486.25	15248.59
486.43	15475.62
486.61	15564.56
486.78	15602.01
486.96	16147.36
487.14	16067.78
487.32	16194.17
487.50	16318.22
487.68	16318.22
487.85	16299.49
488.03	16779.30
488.21	16985.27
488.39	16947.82
488.57	17275.49
488.75	17436.99
488.92	17504.87
489.10	17570.40
489.28	17944.89
489.46	17809.14
489.64	17823.18
489.81	18342.78
489.99	18249.16
490.17	18494.91
490.35	18719.60
490.53	18654.07
490.70	19063.66
490.88	18530.02
491.06	18871.74
491.24	18970.04
491.41	19293.04
491.59	19363.25
491.77	19066.00
491.95	19522.41
492.13	19889.87
492.30	19499.00
492.48	19969.45
492.66	19873.49
492.84	19826.68
493.01	20137.97
493.19	20297.13
493.37	20182.44
493.54	20725.44
493.72	21165.46
493.90	20601.40
494.08	20676.29
494.25	20886.94
494.43	21202.91
494.61	21055.46
494.79	21287.17
494.96	21507.18
495.14	21390.16
495.32	21963.59
495.49	21596.12
495.67	22099.34
495.85	22097.00
496.02	22312.33
496.20	22366.16
496.38	22541.70
496.55	22427.01
496.73	23021.51
496.91	22600.21
497.09	22740.64
497.26	22979.38
497.44	22885.76
497.62	23159.60
497.79	23323.44
497.97	23168.96
498.14	23634.73
498.32	23805.59
498.50	24002.19
498.67	24018.58
498.85	24348.59
499.03	23948.36
499.20	24425.83
499.38	24346.25
499.56	24116.88
499.73	24231.57
499.91	24680.95
500.08	24959.47
500.26	24460.94
500.44	24542.86
500.61	25109.27
500.79	25118.63
500.97	25046.07
501.14	25406.52
501.32	25418.22
501.49	25645.25
501.67	25568.01
501.84	25809.09
502.02	25348.00
502.20	25823.13
502.37	25919.09
502.55	25778.66
502.72	26251.45
502.90	25832.49
503.07	26045.48
503.25	26249.11
503.43	26080.59
503.60	26663.38
503.78	26588.49
503.95	26352.09
504.13	26740.62
504.30	26506.57
504.48	26967.65
504.65	27136.17
504.83	27173.62
505.01	27222.77
505.18	27065.96
505.36	27248.52
505.53	27276.60
505.71	27108.08
505.88	27557.47
506.06	27508.32
506.23	27821.95
506.41	27131.49
506.58	27763.43
506.76	28067.70
506.93	28133.24
507.11	28294.74
507.28	28201.11
507.46	28198.77
507.63	28362.61
507.81	28505.38
507.98	28472.62
508.16	28496.02
508.33	28914.98
508.50	28533.47
508.68	28830.72
508.85	29153.71
509.03	28760.50
509.20	29036.69
509.38	29642.88
509.55	29364.36
509.73	29343.30
509.90	29436.92
510.08	29319.89
510.25	29649.91
510.42	29965.88
510.60	29771.61
510.77	29916.73
510.95	30391.86
511.12	29741.19
511.30	30302.92
511.47	30148.44
511.64	30508.88
511.82	30286.53
511.99	30429.30
512.17	30850.60
512.34	30316.96
512.51	30902.09
512.69	31108.06
512.86	30948.90
513.04	30902.09
513.21	31070.61
513.38	31082.31
513.56	31468.50
513.73	30878.69
513.90	31119.76
514.08	30965.29
514.25	31630.00
514.43	31496.59
514.60	31693.19
514.77	31859.37
514.95	31592.55
515.12	32086.40
515.29	32271.31
515.47	32107.47
515.64	32250.24
515.81	32102.79
515.99	32210.45
516.16	32793.25
516.33	32299.39
516.51	32727.71
516.68	32648.13
516.85	32346.20
517.03	32687.92
517.20	32919.63
517.37	32910.27
517.54	32882.19
517.72	33020.28
517.89	32996.87
518.06	33275.40
518.24	33078.79
518.41	32975.81
518.58	33242.63
518.75	33022.62
518.93	33230.93
519.10	33509.45
519.27	33696.69
519.45	33790.31
519.62	33626.48
519.79	33909.68
519.96	33713.08
520.14	33982.24
520.31	33696.69
520.48	33977.56
520.65	34274.80
520.83	34513.54
521.00	34932.50
521.17	34532.26
521.34	34630.57
521.52	34588.44
521.69	34567.37
521.86	34845.90
522.03	35189.95
522.20	35269.53
522.38	35079.95
522.55	35075.27
522.72	35253.15
522.89	34843.56
523.07	35531.67
523.24	35321.02
523.41	35604.23
523.58	35608.91
523.75	35632.32
523.92	35711.89
524.10	35845.30
524.27	35648.70
524.44	35838.28
524.61	36072.34
524.78	35538.69
524.96	35784.45
525.13	36327.45
525.30	36353.20
525.47	36304.05
525.64	36182.34
525.81	36364.90
525.98	36442.14
526.16	36727.69
526.33	36512.36
526.50	36774.50
526.67	36692.58
526.84	36278.30
527.01	36697.26
527.18	36627.04
527.36	36751.09
527.53	36973.44
527.70	37441.55
527.87	37139.62
528.04	36505.34
528.21	37188.77
528.38	37418.14
528.55	37249.63
528.72	37144.30
528.89	37312.82
529.07	37151.32
529.24	36982.80
529.41	37706.03
529.58	37258.99
529.75	37631.13
529.92	37593.68
530.09	37577.30
530.26	37464.96
530.43	37816.04
530.60	37493.04
530.77	37668.58
530.94	38033.71
531.11	38209.25
531.28	38080.52
531.46	38204.56
531.63	38492.45
531.80	38127.33
531.97	38501.81
532.14	38188.18
532.31	38532.24
532.48	38611.82
532.65	39089.29
532.82	38653.95
532.99	38948.85
533.16	38497.13
533.33	39335.04
533.50	38789.70
533.67	38756.93
533.84	38632.88
534.01	39182.91
534.18	39154.82
534.35	39365.47
534.52	39583.14
534.69	39379.51
534.86	39934.22
535.03	39290.57
535.20	39714.21
535.37	39735.27
535.54	39587.82
535.71	39627.61
535.88	40165.93
536.05	39611.23
536.22	39833.58
536.38	40079.33
536.55	39889.75
536.72	39636.97
536.89	39667.40
537.06	39798.47
537.23	40093.38
537.40	40128.48
537.57	40076.99
537.74	39945.92
537.91	40701.92
538.08	40509.99
538.25	39955.29
538.42	40381.26
538.59	40418.71
538.75	40259.55
538.92	40919.59
539.09	41008.53
539.26	40449.14
539.43	40566.16
539.60	40491.27
539.77	40786.18
539.94	41195.77
540.11	40369.56
540.28	41368.97
540.44	41116.19
540.61	40816.60
540.78	41074.06
540.95	41031.93
541.12	40865.75
541.29	41270.67
541.46	40950.01
541.62	41326.84
541.79	41226.20
541.96	41036.61
542.13	40926.61
542.30	41186.41
542.47	41727.07
542.63	41352.58
542.80	41848.78
542.97	41783.24
543.14	42218.58
543.31	41832.39
543.48	41607.70
543.64	42454.98
543.81	42447.96
543.98	41886.23
544.15	42281.78
544.32	42106.24
544.48	42274.76
544.65	42267.73
544.82	41909.63
544.99	42106.24
545.16	42560.30
545.32	42494.77
545.49	42937.13
545.66	43070.54
545.83	42951.17
546.00	42756.91
546.16	42588.39
546.33	42691.37
546.50	42721.80
546.67	42890.32
546.83	42733.50
547.00	42534.56
547.17	42560.30
547.34	42653.92
547.50	43196.93
547.67	43316.29
547.84	43267.14
548.00	43494.18
548.17	43372.47
548.34	43180.54
548.51	43590.14
548.67	43072.88
548.84	43054.15
549.01	42784.99
549.18	43423.96
549.34	43796.10
549.51	43805.47
549.68	43917.81
549.84	43381.83
550.01	43707.16
550.18	43636.95
550.34	43704.82
550.51	43744.61
550.68	43627.59
550.84	43650.99
551.01	43791.42
551.18	43695.46
551.34	43983.35
551.51	43889.73
551.68	43885.04
551.84	43819.51
552.01	43882.70
552.18	44472.52
552.34	43737.59
552.51	44004.41
552.68	44032.50
552.84	44198.68
553.01	44083.99
553.18	44254.85
553.34	44538.05
553.51	44294.64
553.67	44294.64
553.84	44341.45
554.01	44552.10
554.17	44395.28
554.34	44439.75
554.51	44594.23
554.67	44720.62
554.84	44531.03
555.00	44744.02
555.17	44933.60
555.33	44680.83
555.50	44741.68
555.67	44746.36
555.83	44580.18
556.00	44870.41
556.16	45064.67
556.33	45104.46
556.50	45249.58
556.66	44612.95
556.83	44891.48
556.99	45567.89
557.16	45364.26
557.32	44882.11
557.49	44898.50
557.65	44755.72
557.82	45284.68
557.98	45467.25
558.15	45088.08
558.32	45263.62
558.48	45254.26
558.65	45226.17
558.81	45780.88
558.98	45495.33
559.14	45392.35
559.31	45277.66
559.47	45364.26
559.64	45645.13
559.80	45387.67
559.97	45668.53
560.13	45560.87
560.30	45909.61
560.46	46160.05
560.63	45724.71
560.79	45331.50
560.96	45921.31
561.12	46028.98
561.29	45874.50
561.45	45820.67
561.61	46003.23
561.78	45504.70
561.94	45635.77
562.11	46106.21
562.27	45958.76
562.44	45485.97
562.60	46007.91
562.77	45762.15
562.93	45991.53
563.10	46188.13
563.26	45876.84
563.42	46106.21
563.59	46445.59
563.75	45958.76
563.92	46284.09
564.08	46017.27
564.24	46087.49
564.41	46401.12
564.57	46405.80
564.74	46234.94
564.90	46124.94
565.07	46050.04
565.23	46153.02
565.39	45979.82
565.56	46014.93
565.72	45872.16
565.88	46129.62
566.05	46351.97
566.21	46415.16
566.38	46263.03
566.54	46518.15
566.70	46195.15
566.87	46358.99
567.03	46471.34
567.19	46873.91
567.36	46082.81
567.52	46394.10
567.68	46813.05
567.85	46424.53
568.01	46803.69
568.17	46478.36
568.34	47023.70
568.50	46583.68
568.66	46204.52
568.83	46560.28
568.99	46693.69
569.15	46466.66
569.32	46763.90
569.48	46684.33
569.64	46990.94
569.81	46845.82
569.97	46845.82
570.13	46974.55
570.30	46983.91
570.46	46747.52
570.62	46824.76
570.78	46553.26
570.95	46674.96
571.11	46855.18
571.27	46553.26
571.43	46660.92
571.60	46607.09
571.76	46600.07
571.92	46871.57
572.09	46754.54
572.25	46651.56
572.41	46740.50
572.57	47260.10
572.74	47234.35
572.90	46459.63
573.06	46925.40
573.22	46904.34
573.38	47145.41
573.55	47524.58
573.71	47075.19
573.87	47215.63
574.03	47040.09
574.20	47316.27
574.36	47028.38
574.52	47143.07
574.68	47016.68
574.84	47260.10
575.01	47313.93
575.17	47274.14
575.33	47110.30
575.49	46925.40
575.65	47262.44
575.82	47068.17
575.98	46768.58
576.14	47442.66
576.30	47503.51
576.46	47332.65
576.62	47143.07
576.79	46979.23
576.95	46440.91
577.11	47185.20
577.27	47550.32
577.43	47199.24
577.59	46623.47
577.75	47316.27
577.92	46986.25
578.08	46939.44
578.24	47063.49
578.40	47358.40
578.56	47377.12
578.72	47318.61
578.88	47161.79
579.04	47538.62
579.21	47302.23
579.37	47327.97
579.53	47199.24
579.69	46665.60
579.85	47096.26
580.01	47428.62
580.17	47227.33
580.33	47316.27
580.49	47281.16
580.65	47302.23
580.82	47227.33
580.98	46960.51
581.14	47119.66
581.30	47482.45
581.46	47512.88
581.62	47313.93
581.78	46880.93
581.94	47407.55
582.10	47447.34
582.26	47456.70
582.42	47512.88
582.58	47576.07
582.74	47606.50
582.90	47344.36
583.06	47372.44
583.22	47587.77
583.38	47295.21
583.54	47683.73
583.70	47402.87
583.86	47810.12
584.02	47398.19
584.18	47936.51
584.34	47452.02
584.50	47749.27
584.66	47906.08
584.82	47718.84
584.98	48177.59
585.14	47508.19
585.30	47526.92
585.46	47152.43
585.62	47049.45
585.78	47320.95
585.94	47091.58
586.10	47821.83
586.26	47484.79
586.42	47423.93
586.58	47358.40
586.74	47201.58
586.90	47566.71
587.06	47269.46
587.22	47943.53
587.38	47196.90
587.54	47496.49
587.70	47849.91
587.86	47702.46
588.02	47662.67
588.18	47224.99
588.34	47496.49
588.49	47428.62
588.65	47938.85
588.81	47428.62
588.97	48128.44
589.13	47662.67
589.29	47552.66
589.45	47915.45
589.61	47826.51
589.77	47540.96
589.93	47672.03
590.08	48100.35
