SpectraSuite Data File
++++++++++++++++++++++++++++++++++++
Date: Fri Oct 25 11:25:15 EDT 2013
User: price-jones
Dark Spectrum Present: No
Reference Spectrum Present: No
Number of Sampled Component Spectra: 1
Spectrometers: USB2+H05261
Integration Time (usec): 100000 (USB2+H05261)
Spectra Averaged: 1 (USB2+H05261)
Boxcar Smoothing: 0 (USB2+H05261)
Correct for Electrical Dark: No (USB2+H05261)
Strobe/Lamp Enabled: No (USB2+H05261)
Correct for Detector Non-linearity: No (USB2+H05261)
Correct for Stray Light: No (USB2+H05261)
Number of Pixels in Processed Spectrum: 2048
>>>>>Begin Processed Spectral Data<<<<<
365.73	205.97
365.92	205.97
366.12	205.97
366.32	182.56
366.52	131.07
366.72	86.60
366.91	156.82
367.11	72.56
367.31	142.77
367.51	161.50
367.70	152.13
367.90	149.79
368.10	142.77
368.30	159.16
368.49	220.01
368.69	189.58
368.89	227.03
369.09	93.62
369.28	180.22
369.48	180.22
369.68	203.63
369.87	248.10
370.07	271.50
370.27	187.24
370.47	315.97
370.66	601.52
370.86	599.18
371.06	723.23
371.25	674.07
371.45	664.71
371.65	734.93
371.84	660.03
372.04	737.27
372.24	739.61
372.44	755.99
372.63	807.48
372.83	739.61
373.03	748.97
373.22	753.65
373.42	751.31
373.62	692.80
373.81	741.95
374.01	765.36
374.21	856.64
374.40	725.57
374.60	795.78
374.79	819.19
374.99	844.93
375.19	777.06
375.38	826.21
375.58	809.83
375.78	889.40
375.97	851.96
376.17	940.90
376.37	898.77
376.56	779.40
376.76	898.77
376.95	826.21
377.15	894.08
377.35	889.40
377.54	880.04
377.74	889.40
377.93	870.68
378.13	908.13
378.33	968.98
378.52	940.90
378.72	938.55
378.91	924.51
379.11	950.26
379.31	882.38
379.50	933.87
379.70	931.53
379.89	884.72
380.09	1032.18
380.28	959.62
380.48	1025.15
380.68	990.05
380.87	1008.77
381.07	994.73
381.26	1022.81
381.46	926.85
381.65	1027.50
381.85	1036.86
382.04	1090.69
382.24	1050.90
382.43	1093.03
382.63	1057.92
382.83	1090.69
383.02	1069.62
383.22	1118.78
383.41	1100.05
383.61	1086.01
383.80	1184.31
384.00	1055.58
384.19	1071.97
384.39	1228.78
384.58	1109.41
384.78	1160.91
384.97	1207.72
385.17	1198.35
385.36	1207.72
385.56	1207.72
385.75	1235.80
385.95	1181.97
386.14	1228.78
386.34	1205.38
386.53	1249.85
386.72	1191.33
386.92	1224.10
387.11	1207.72
387.31	1203.04
387.50	1235.80
387.70	1170.27
387.89	1254.53
388.09	1289.64
388.28	1242.82
388.48	1259.21
388.67	1341.13
388.86	1214.74
389.06	1282.61
389.25	1425.39
389.45	1280.27
389.64	1334.11
389.84	1345.81
390.03	1371.55
390.22	1420.71
390.42	1434.75
390.61	1348.15
390.81	1383.26
391.00	1451.13
391.19	1411.34
391.39	1444.11
391.58	1378.58
391.78	1509.65
391.97	1497.94
392.16	1521.35
392.36	1528.37
392.55	1469.86
392.75	1547.09
392.94	1514.33
393.13	1570.50
393.33	1561.14
393.52	1472.20
393.71	1455.81
393.91	1568.16
394.10	1504.96
394.29	1563.48
394.49	1537.73
394.68	1586.88
394.88	1645.40
395.07	1659.44
395.26	1729.66
395.46	1654.76
395.65	1631.35
395.84	1673.48
396.04	1811.57
396.23	1713.27
396.42	1760.08
396.62	1832.64
396.81	1762.42
397.00	1811.57
397.19	1788.17
397.39	1792.85
397.58	1837.32
397.77	1874.77
397.97	1839.66
398.16	1834.98
398.35	1809.23
398.55	1891.15
398.74	1865.41
398.93	1987.11
399.12	2050.31
399.32	1844.34
399.51	1895.83
399.70	1991.80
399.90	1916.90
400.09	1975.41
400.28	2083.08
400.47	1923.92
400.67	2031.58
400.86	2057.33
401.05	2094.78
401.24	2155.63
401.44	2040.95
401.63	2097.12
401.82	2214.15
402.01	2118.18
402.21	2104.14
402.40	2153.29
402.59	2319.47
402.78	2186.06
402.97	2314.79
403.17	2258.62
403.36	2239.89
403.55	2317.13
403.74	2363.94
403.93	2380.32
404.13	2387.35
404.32	2291.38
404.51	2340.54
404.70	2359.26
404.89	2483.31
405.09	2539.48
405.28	2361.60
405.47	2436.50
405.66	2518.42
405.85	2504.37
406.05	2574.59
406.24	2492.67
406.43	2441.18
406.62	2513.74
406.81	2689.28
407.00	2555.86
407.20	2520.76
407.39	2656.51
407.58	2644.81
407.77	2722.04
407.96	2698.64
408.15	2738.43
408.34	2789.92
408.54	2796.94
408.73	2874.18
408.92	2764.17
409.11	2813.32
409.30	2820.35
409.49	2796.94
409.68	2944.39
409.87	2965.46
410.07	3035.67
410.26	2984.18
410.45	2897.58
410.64	3038.02
410.83	3178.45
411.02	3016.95
411.21	3089.51
411.40	3002.91
411.59	3222.92
411.78	3162.06
411.98	3171.43
412.17	3176.11
412.36	3274.41
412.55	3356.33
412.74	3543.57
412.93	3459.31
413.12	3330.58
413.31	3459.31
413.50	3487.40
413.69	3447.61
413.88	3538.89
414.07	3517.83
414.26	3557.61
414.45	3698.05
414.64	3630.17
414.83	3707.41
415.02	3796.35
415.22	3723.79
415.41	3847.84
415.60	3777.62
415.79	3948.48
415.98	3964.87
416.17	4049.13
416.36	3873.59
416.55	3995.29
416.74	4025.72
416.93	3962.53
417.12	3962.53
417.31	4145.09
417.50	4154.45
417.69	4180.20
417.88	4297.22
418.07	4175.52
418.26	4255.09
418.45	4278.50
418.64	4505.53
418.83	4348.72
419.02	4369.78
419.21	4379.14
419.39	4496.17
419.58	4451.70
419.77	4351.06
419.96	4505.53
420.15	4465.74
420.34	4470.42
420.53	4468.08
420.72	4706.82
420.91	4648.30
421.10	4863.63
421.29	4685.75
421.48	4716.18
421.67	4732.56
421.86	4720.86
422.05	4751.29
422.24	4702.14
422.43	4910.44
422.61	4828.53
422.80	5020.45
422.99	4800.44
423.18	4875.34
423.37	4896.40
423.56	4896.40
423.75	4786.40
423.94	4865.97
424.13	4503.19
424.32	4727.88
424.50	4915.12
424.69	5036.83
424.88	5060.24
425.07	4966.62
425.26	4959.60
425.45	4980.66
425.64	4781.71
425.83	4919.81
426.01	4945.55
426.20	5095.35
426.39	5043.85
426.58	4912.78
426.77	4947.89
426.96	5093.01
427.15	5123.43
427.33	5123.43
427.52	5128.11
427.71	5132.79
427.90	5128.11
428.09	5203.01
428.28	5294.29
428.46	5259.18
428.65	5174.92
428.84	5481.53
429.03	5483.88
429.22	5336.42
429.40	5430.04
429.59	5256.84
429.78	5212.37
429.97	5081.30
430.16	5420.68
430.34	5607.92
430.53	5488.56
430.72	5678.14
430.91	5621.97
431.10	5507.28
431.28	5570.48
431.47	5785.80
431.66	5668.78
431.85	5528.35
432.03	5776.44
432.22	5844.32
432.41	5598.56
432.60	5738.99
432.79	6043.26
432.97	5942.62
433.16	5884.11
433.35	5767.08
433.54	6045.60
433.72	5984.75
433.91	6076.03
434.10	6099.44
434.28	5905.17
434.47	6228.17
434.66	6293.70
434.85	6139.23
435.03	6338.17
435.22	6221.14
435.41	6476.26
435.59	6532.44
435.78	6417.75
435.97	6417.75
436.16	6541.80
436.34	6312.42
436.53	6408.39
436.72	6633.08
436.90	6502.01
437.09	6691.59
437.28	6431.79
437.46	6637.76
437.65	6560.52
437.84	6567.54
438.02	6698.61
438.21	6628.40
438.40	6672.87
438.58	7033.31
438.77	7047.35
438.96	7037.99
439.14	7140.97
439.33	7162.04
439.52	6991.18
439.70	7157.36
439.89	7459.29
440.08	7353.96
440.26	7456.95
440.45	7227.57
440.63	7375.03
440.82	7676.96
441.01	7379.71
441.19	7396.09
441.38	7686.32
441.57	7545.89
441.75	7772.92
441.94	7964.84
442.12	7906.33
442.31	7978.89
442.50	8023.36
442.68	7946.12
442.87	7964.84
443.05	7906.33
443.24	8070.17
443.43	8198.90
443.61	8238.69
443.80	8439.97
443.98	8013.99
444.17	7604.40
444.35	8044.42
444.54	8077.19
444.73	8418.91
444.91	8252.73
445.10	8297.20
445.28	8196.56
445.47	8236.35
445.65	8341.67
445.84	8477.42
446.02	8372.10
446.21	8224.64
446.39	8360.39
446.58	8482.10
446.77	8489.12
446.95	8060.80
447.14	8344.01
447.32	8404.86
447.51	8379.12
447.69	8280.82
447.88	8334.65
448.06	8430.61
448.25	8215.28
448.43	8634.24
448.62	8393.16
448.80	8423.59
448.99	8720.84
449.17	8650.62
449.36	8524.23
449.54	8840.20
449.73	8802.75
449.91	8805.10
450.10	8929.14
450.28	8774.67
450.46	9060.21
450.65	8912.76
450.83	9114.05
451.02	9329.38
451.20	9095.32
451.39	9020.42
451.57	9013.40
451.76	9022.77
451.94	9156.18
452.13	9247.46
452.31	9277.88
452.49	9238.09
452.68	9071.92
452.86	9327.03
453.05	9467.47
453.23	9437.04
453.42	9415.98
453.60	9109.36
453.78	9465.13
453.97	9301.29
454.15	9472.15
454.34	9427.68
454.52	9582.15
454.70	9481.51
454.89	9551.73
455.07	9743.65
455.26	9650.03
455.44	10068.98
455.62	9949.62
455.81	9628.96
455.99	10059.62
456.17	9856.00
456.36	10038.56
456.54	10083.03
456.73	10171.97
456.91	10394.32
457.09	10471.56
457.28	10422.41
457.46	10190.69
457.64	10527.73
457.83	10366.23
458.01	10401.34
458.19	10710.29
458.38	10391.98
458.56	10621.35
458.74	10574.54
458.93	10466.88
459.11	10597.95
459.29	10476.24
459.48	10888.17
459.66	10621.35
459.84	10953.71
460.03	10930.30
460.21	10918.60
460.39	10581.56
460.57	10878.81
460.76	10916.26
460.94	11382.03
461.12	10862.43
461.31	11276.70
461.49	11157.33
461.67	11042.65
461.85	11419.47
462.04	11302.45
462.22	11894.60
462.40	11442.88
462.59	11250.96
462.77	11407.77
462.95	11578.63
463.13	11477.99
463.32	11346.92
463.50	11648.85
463.68	11641.82
463.86	11735.45
464.05	11674.59
464.23	11562.25
464.41	11585.65
464.59	11606.72
464.78	11829.07
464.96	11808.00
465.14	11798.64
465.32	11929.71
465.50	12039.72
465.69	11922.69
465.87	12056.10
466.05	12018.65
466.23	12166.10
466.41	12248.02
466.60	12241.00
466.78	11836.09
466.96	12053.76
467.14	12105.25
467.32	12163.76
467.51	12517.18
467.69	12308.88
467.87	12264.41
468.05	12556.97
468.23	12248.02
468.41	12411.86
468.60	12489.10
468.78	12624.85
468.96	12535.91
469.14	12802.73
469.32	12910.40
469.50	12301.86
469.69	12982.95
469.87	13064.87
470.05	12905.71
470.23	13245.09
470.41	12779.32
470.59	12989.97
470.77	12950.18
470.95	13362.12
471.14	13085.94
471.32	13076.57
471.50	13486.17
471.68	13296.58
471.86	13378.50
472.04	13518.93
472.22	13886.40
472.40	13359.78
472.58	13928.53
472.77	13879.38
472.95	14033.85
473.13	14293.65
473.31	13935.55
473.49	14281.95
473.67	13949.59
473.85	14375.57
474.03	14457.49
474.21	14452.81
474.39	14567.49
474.57	14574.52
474.75	14771.12
474.93	14941.98
475.12	14794.53
475.30	15059.01
475.48	14757.08
475.66	15061.35
475.84	15059.01
476.02	15246.25
476.20	15236.89
476.38	15758.83
476.56	15995.22
476.74	15960.11
476.92	15702.65
477.10	15569.24
477.28	15990.54
477.46	15925.00
477.64	16013.95
477.82	16255.02
478.00	16819.09
478.18	16547.59
478.36	16886.97
478.54	17301.24
478.72	17128.04
478.90	17261.45
479.08	17509.55
479.26	17586.79
479.44	17563.38
479.62	17715.51
479.80	17916.80
479.98	17839.56
480.16	18431.72
480.34	17994.04
480.52	18235.11
480.70	18345.12
480.88	18050.21
481.06	18686.84
481.24	18728.97
481.41	18600.24
481.59	19346.87
481.77	19283.67
481.95	19164.31
482.13	19578.58
482.31	19508.37
482.49	19992.86
482.67	19901.58
482.85	20102.86
483.03	20493.73
483.21	20617.78
483.39	20652.89
483.57	20985.24
483.74	20891.62
483.92	21216.96
484.10	21001.63
484.28	21544.63
484.46	22019.76
484.64	22174.24
484.82	21741.24
485.00	22522.98
485.18	22771.07
485.35	22644.68
485.53	22485.53
485.71	22792.14
485.89	22998.10
486.07	23061.30
486.25	23379.61
486.43	23702.61
486.61	23744.73
486.78	23943.68
486.96	23847.72
487.14	24292.42
487.32	24292.42
487.50	24744.14
487.68	24397.74
487.85	25315.23
488.03	25221.61
488.21	25331.62
488.39	25223.95
488.57	25888.67
488.75	25575.03
488.92	26370.82
489.10	26733.60
489.28	26349.75
489.46	27091.70
489.64	27070.64
489.81	27463.85
489.99	27323.41
490.17	27379.59
490.35	28123.88
490.53	27908.55
490.70	28397.72
490.88	27882.80
491.06	28683.27
491.24	28414.10
491.41	28687.95
491.59	29146.69
491.77	29301.17
491.95	29198.18
492.13	29474.37
492.30	29736.51
492.48	29666.29
492.66	29773.95
492.84	30209.29
493.01	30855.28
493.19	30436.33
493.37	30356.75
493.54	30817.83
493.72	31405.31
493.90	31262.54
494.08	31473.18
494.25	31791.50
494.43	31793.84
494.61	31892.14
494.79	32264.28
494.96	32236.20
495.14	32346.20
495.32	32893.89
495.49	32903.25
495.67	32940.70
495.85	33317.53
496.02	33888.62
496.20	33551.58
496.38	34157.78
496.55	33951.81
496.73	34314.59
496.91	34520.56
497.09	34387.15
497.26	34380.13
497.44	34885.68
497.62	35395.92
497.79	35548.06
497.97	35377.20
498.14	35349.11
498.32	35494.22
498.50	35950.63
498.67	36292.35
498.85	36299.37
499.03	36797.90
499.20	36194.04
499.38	36711.30
499.56	36531.08
499.73	36678.54
499.91	37137.28
500.08	37427.51
500.26	37177.07
500.44	36821.31
500.61	37762.20
500.79	37387.72
500.97	37801.99
501.14	38382.45
501.32	38300.53
501.49	37958.81
501.67	38410.53
501.84	38471.39
502.02	38747.57
502.20	38499.47
502.37	38789.70
502.55	38721.82
502.72	39276.53
502.90	39302.28
503.07	38944.17
503.25	39552.71
503.43	39426.32
503.60	39686.12
503.78	39651.02
503.95	39718.89
504.13	39681.44
504.30	40311.05
504.48	40311.05
504.65	39936.56
504.83	40655.11
505.01	41076.40
505.18	40680.85
505.36	40865.75
505.53	41036.61
505.71	41343.22
505.88	41689.62
506.06	40985.12
506.23	41659.20
506.41	41537.49
506.58	41600.68
506.76	41895.59
506.93	42003.25
507.11	41965.81
507.28	42356.67
507.46	42499.45
507.63	42557.96
507.81	42714.78
507.98	42684.35
508.16	42829.46
508.33	43276.51
508.50	43012.02
508.68	43487.15
508.85	43674.40
509.03	43557.37
509.20	43817.17
509.38	43482.47
509.55	44004.41
509.73	43779.72
509.90	44561.46
510.08	44362.51
510.25	44067.61
510.42	44278.25
510.60	44505.29
510.77	44949.99
510.95	45191.06
511.12	44535.71
511.30	44552.10
511.47	45242.56
511.64	45338.52
511.82	45752.79
511.99	45338.52
512.17	45408.73
512.34	45600.66
512.51	46232.60
512.69	46010.25
512.86	45830.03
513.04	46342.61
513.21	46330.90
513.38	46272.39
513.56	46923.06
513.73	46122.60
513.90	46845.82
514.08	46389.42
514.25	46759.22
514.43	47112.64
514.60	47290.52
514.77	47131.37
514.95	47543.30
515.12	47257.76
515.29	47344.36
515.47	47508.19
515.64	47810.12
515.81	47674.37
515.99	47945.87
516.16	48208.01
516.33	48013.75
516.51	48332.06
516.68	47901.40
516.85	48320.36
517.03	48598.88
517.20	48559.09
517.37	48421.00
517.54	48151.84
517.72	48830.60
517.89	49076.35
518.06	49357.22
518.24	49001.46
518.41	48999.12
518.58	49158.27
518.75	48690.16
518.93	49579.57
519.10	48973.37
519.27	49378.28
519.45	49427.43
519.62	49691.91
519.79	49986.82
519.96	49808.94
520.14	49916.61
520.31	49818.30
520.48	50295.77
520.65	50319.18
520.83	50155.34
521.00	50452.59
521.17	50419.82
521.34	50160.02
521.52	50691.32
521.69	50527.48
521.86	50333.22
522.03	50623.45
522.20	51267.09
522.38	51121.98
522.55	51068.15
522.72	51295.18
522.89	50934.74
523.07	51304.54
523.24	51440.29
523.41	51777.33
523.58	51337.31
523.75	51711.80
523.92	51585.41
524.10	51749.24
524.27	51683.71
524.44	51847.55
524.61	51730.52
524.78	51821.80
524.96	51917.76
525.13	51915.42
525.30	51828.82
525.47	52186.92
525.64	52339.06
525.81	52371.83
525.98	52271.18
526.16	52105.01
526.33	52182.24
526.50	52758.02
526.67	52463.11
526.84	52989.73
527.01	52718.23
527.18	52509.92
527.36	52753.33
527.53	52652.69
527.70	52842.27
527.87	53027.18
528.04	52839.93
528.21	53013.13
528.38	53289.32
528.55	53373.58
528.72	53139.52
528.89	53286.98
529.07	53165.27
529.24	53198.04
529.41	53511.67
529.58	53387.62
529.75	53279.96
529.92	53394.64
530.09	53694.23
530.26	53705.93
530.43	53825.30
530.60	53345.49
530.77	53514.01
530.94	53982.12
531.11	53736.36
531.28	53762.11
531.46	54080.42
531.63	54181.06
531.80	53813.60
531.97	54141.27
532.14	54258.30
532.31	54183.40
532.48	54129.57
532.65	54433.84
532.82	54171.70
532.99	54688.96
533.16	54415.11
533.33	54513.42
533.50	54574.27
533.67	54782.58
533.84	54398.73
534.01	54604.70
534.18	54490.01
534.35	55157.06
534.52	54735.77
534.69	54824.71
534.86	55084.51
535.03	54759.17
535.20	54773.22
535.37	55000.25
535.54	55398.14
535.71	54953.44
535.88	54892.58
536.05	55302.18
536.22	55341.97
536.38	55466.02
536.55	55402.82
536.72	55667.30
536.89	55428.57
537.06	55285.79
537.23	55461.33
537.40	55370.05
537.57	55482.40
537.74	55444.95
537.91	55913.06
538.08	55707.09
538.25	55468.36
538.42	55887.31
538.59	55763.26
538.75	55735.18
538.92	55744.54
539.09	55786.67
539.26	55657.94
539.43	55707.09
539.60	56191.58
539.77	56088.60
539.94	56196.26
540.11	56006.68
540.28	56123.71
540.44	56313.29
540.61	56261.80
540.78	56053.49
540.95	56236.05
541.12	56030.08
541.29	56079.24
541.46	56381.16
541.62	56404.57
541.79	56491.17
541.96	56271.16
542.13	56425.64
542.30	56484.15
542.47	56552.02
542.63	56526.28
542.80	56863.32
542.97	56601.18
543.14	57062.26
543.31	56886.72
543.48	57144.18
543.64	57396.96
543.81	56975.66
543.98	57223.76
544.15	57052.90
544.32	57219.08
544.48	57303.34
544.65	57212.06
544.82	56898.42
544.99	56947.57
545.16	57226.10
545.32	57256.53
545.49	57488.24
545.66	57499.94
545.83	57345.47
546.00	57516.32
546.16	57326.74
546.33	57305.68
546.50	57179.29
546.67	57673.14
546.83	57396.96
547.00	57453.13
547.17	57298.65
547.34	57392.28
547.50	57602.92
547.67	57827.62
547.84	57808.89
548.00	57853.36
548.17	58120.18
548.34	57879.11
548.51	58155.29
548.67	57886.13
548.84	57989.11
549.01	57691.86
549.18	57888.47
549.34	58075.71
549.51	58049.97
549.68	57932.94
549.84	58192.74
550.01	58291.04
550.18	58038.26
550.34	58190.40
550.51	58361.26
550.68	58199.76
550.84	58080.39
551.01	58307.43
551.18	58232.53
551.34	58382.32
551.51	58426.79
551.68	58340.19
551.84	58412.75
552.01	58220.83
552.18	58534.46
552.34	58195.08
552.51	58639.78
552.68	58124.86
552.84	58609.35
553.01	58642.12
553.18	58679.57
553.34	58836.39
553.51	58468.92
553.67	58789.58
553.84	58784.90
554.01	58782.55
554.17	58922.99
554.34	58974.48
554.51	58820.00
554.67	58775.53
554.84	58775.53
555.00	58859.79
555.17	58934.69
555.33	58775.53
555.50	58920.65
555.67	58852.77
555.83	58738.08
556.00	58915.96
556.16	59037.67
556.33	59175.76
556.50	58899.58
556.66	59143.00
556.83	58822.34
556.99	59135.98
557.16	59208.53
557.32	59210.87
557.49	59585.36
557.65	59023.63
557.82	59117.25
557.98	59145.34
558.15	59093.85
558.32	59210.87
558.48	59128.95
558.65	59222.58
558.81	59304.49
558.98	59318.54
559.14	59503.44
559.31	59351.30
559.47	59451.95
559.64	59449.61
559.80	59473.01
559.97	59664.94
560.13	59604.08
560.30	59611.10
560.46	59587.70
560.63	59494.08
560.79	59458.97
560.96	59639.19
561.12	59571.32
561.29	59674.30
561.45	59728.13
561.61	59540.89
561.78	59561.95
561.94	59688.34
562.11	59540.89
562.27	59489.40
562.44	59786.64
562.60	59838.14
562.77	59639.19
562.93	59763.24
563.10	59901.33
563.26	59751.54
563.42	59992.61
563.59	59852.18
563.75	59760.90
563.92	59873.24
564.08	59908.35
564.24	59987.93
564.41	59877.93
564.57	60009.00
564.74	59845.16
564.90	60039.42
565.07	60175.17
565.23	59903.67
565.39	59838.14
565.56	60140.07
565.72	59945.80
565.88	59891.97
566.05	59793.67
566.21	60034.74
566.38	59957.50
566.54	59962.18
566.70	60292.20
566.87	60154.11
567.03	60041.76
567.19	60315.61
567.36	60175.17
567.52	60121.34
567.68	60299.22
567.85	60135.38
568.01	60266.45
568.17	60130.70
568.34	60130.70
568.50	60203.26
568.66	60165.81
568.83	60301.56
568.99	60109.64
569.15	60404.55
569.32	60060.49
569.48	60224.32
569.64	60402.21
569.81	60161.13
569.97	60165.81
570.13	60247.73
570.30	60182.19
570.46	60306.24
570.62	60453.70
570.78	60395.18
570.95	60086.23
571.11	60451.36
571.27	60177.51
571.43	60273.48
571.60	60341.35
571.76	60509.87
571.92	60357.74
572.09	60233.69
572.25	60259.43
572.41	60411.57
572.57	60273.48
572.74	60650.30
572.90	60329.65
573.06	60357.74
573.22	60552.00
573.38	60640.94
573.55	60678.39
573.71	60687.75
573.87	60509.87
574.03	60477.10
574.20	60399.86
574.36	60285.18
574.52	60626.90
574.68	60392.84
574.84	60704.13
575.01	60507.53
575.17	60357.74
575.33	60465.40
575.49	60196.24
575.65	60353.05
575.82	60720.52
575.98	60530.93
576.14	60772.01
576.30	60654.98
576.46	60392.84
576.62	60437.31
576.79	60615.19
576.95	60357.74
577.11	60662.00
577.27	60676.05
577.43	60680.73
577.59	60530.93
577.75	60566.04
577.92	60540.30
578.08	60523.91
578.24	60647.96
578.40	60720.52
578.56	60828.18
578.72	60512.21
578.88	60949.89
579.04	60839.89
579.21	60727.54
579.37	60877.33
579.53	60629.24
579.69	60528.59
579.85	60680.73
580.01	60619.88
580.17	60619.88
580.33	60729.88
580.49	60669.03
580.65	60797.76
580.82	60488.80
580.98	60701.79
581.14	60636.26
581.30	60846.91
581.46	60795.42
581.62	60725.20
581.78	60727.54
581.94	60736.90
582.10	60708.82
582.26	60767.33
582.42	60858.61
582.58	60669.03
582.74	60795.42
582.90	60739.24
583.06	60652.64
583.22	60530.93
583.38	60802.44
583.54	60842.23
583.70	60832.86
583.86	60865.63
584.02	60701.79
584.18	60982.66
584.34	60844.57
584.50	60697.11
584.66	60727.54
584.82	60664.35
584.98	60954.57
585.14	60743.92
585.30	60699.45
585.46	60837.54
585.62	60760.31
585.78	60970.96
585.94	60706.47
586.10	60849.25
586.26	60774.35
586.42	61022.45
586.58	60905.42
586.74	60804.78
586.90	60711.16
587.06	60697.11
587.22	60804.78
587.38	60757.97
587.54	61059.90
587.70	61109.05
587.86	60910.10
588.02	60842.23
588.18	60942.87
588.34	60945.21
588.49	60891.38
