SpectraSuite Data File
++++++++++++++++++++++++++++++++++++
Date: Fri Oct 25 11:22:56 EDT 2013
User: price-jones
Dark Spectrum Present: No
Reference Spectrum Present: No
Number of Sampled Component Spectra: 1
Spectrometers: USB2+H05261
Integration Time (usec): 100000 (USB2+H05261)
Spectra Averaged: 1 (USB2+H05261)
Boxcar Smoothing: 0 (USB2+H05261)
Correct for Electrical Dark: No (USB2+H05261)
Strobe/Lamp Enabled: No (USB2+H05261)
Correct for Detector Non-linearity: No (USB2+H05261)
Correct for Stray Light: No (USB2+H05261)
Number of Pixels in Processed Spectrum: 2048
>>>>>Begin Processed Spectral Data<<<<<
365.73	194.26
365.92	194.26
366.12	194.26
366.32	112.35
366.52	67.88
366.72	114.69
366.91	58.51
367.11	70.22
367.31	140.43
367.51	88.94
367.70	102.98
367.90	147.45
368.10	74.90
368.30	93.62
368.49	147.45
368.69	159.16
368.89	196.60
369.09	170.86
369.28	154.48
369.48	177.88
369.68	126.39
369.87	215.33
370.07	173.20
370.27	180.22
370.47	299.59
370.66	620.24
370.86	601.52
371.06	669.39
371.25	667.05
371.45	692.80
371.65	732.59
371.84	734.93
372.04	772.38
372.24	676.41
372.44	648.33
372.63	697.48
372.83	706.84
373.03	692.80
373.22	739.61
373.42	744.29
373.62	723.23
373.81	697.48
374.01	798.12
374.21	903.45
374.40	784.08
374.60	826.21
374.79	858.98
374.99	784.08
375.19	840.25
375.38	898.77
375.58	880.04
375.78	875.36
375.97	870.68
376.17	877.70
376.37	884.72
376.56	821.53
376.76	926.85
376.95	793.44
377.15	875.36
377.35	875.36
377.54	821.53
377.74	894.08
377.93	866.00
378.13	828.55
378.33	1015.79
378.52	999.41
378.72	945.58
378.91	903.45
379.11	891.74
379.31	1006.43
379.50	961.96
379.70	968.98
379.89	997.07
380.09	992.39
380.28	1008.77
380.48	936.21
380.68	1036.86
380.87	999.41
381.07	985.37
381.26	1062.60
381.46	1011.11
381.65	1048.56
381.85	999.41
382.04	1006.43
382.24	1036.86
382.43	1048.56
382.63	1095.37
382.83	1067.28
383.02	1121.12
383.22	1128.14
383.41	1121.12
383.61	1153.88
383.80	1146.86
384.00	1130.48
384.19	1142.18
384.39	1041.54
384.58	1151.54
384.78	1078.99
384.97	1116.44
385.17	1153.88
385.36	1228.78
385.56	1163.25
385.75	1165.59
385.95	1240.48
386.14	1174.95
386.34	1203.04
386.53	1240.48
386.72	1186.65
386.92	1284.95
387.11	1163.25
387.31	1221.76
387.50	1179.63
387.70	1163.25
387.89	1266.23
388.09	1329.42
388.28	1277.93
388.48	1214.74
388.67	1287.29
388.86	1282.61
389.06	1334.11
389.25	1261.55
389.45	1394.96
389.64	1343.47
389.84	1371.55
390.03	1406.66
390.22	1352.83
390.42	1434.75
390.61	1399.64
390.81	1432.41
391.00	1390.28
391.19	1490.92
391.39	1385.60
391.58	1462.83
391.78	1465.18
391.97	1530.71
392.16	1462.83
392.36	1556.46
392.55	1511.99
392.75	1591.56
392.94	1507.30
393.13	1535.39
393.33	1535.39
393.52	1607.95
393.71	1565.82
393.91	1584.54
394.10	1703.91
394.29	1495.60
394.49	1530.71
394.68	1650.08
394.88	1636.03
395.07	1631.35
395.26	1717.95
395.46	1734.34
395.65	1699.23
395.84	1673.48
396.04	1806.89
396.23	1788.17
396.42	1657.10
396.62	1834.98
396.81	1767.10
397.00	1820.94
397.19	1802.21
397.39	1832.64
397.58	1912.22
397.77	1830.30
397.97	1884.13
398.16	1944.99
398.35	1921.58
398.55	1944.99
398.74	1820.94
398.93	1923.92
399.12	1930.94
399.32	1827.96
399.51	1947.33
399.70	2101.80
399.90	1984.77
400.09	2029.24
400.28	2101.80
400.47	2031.58
400.67	2087.76
400.86	2073.71
401.05	2167.34
401.24	2036.27
401.44	2186.06
401.63	2080.74
401.82	2181.38
402.01	2165.00
402.21	2153.29
402.40	2172.02
402.59	2202.44
402.78	2169.68
402.97	2249.25
403.17	2228.19
403.36	2349.90
403.55	2349.90
403.74	2340.54
403.93	2457.56
404.13	2340.54
404.32	2326.49
404.51	2539.48
404.70	2450.54
404.89	2438.84
405.09	2471.61
405.28	2377.98
405.47	2417.77
405.66	2516.08
405.85	2607.36
406.05	2502.03
406.24	2679.91
406.43	2553.52
406.62	2637.78
406.81	2651.83
407.00	2525.44
407.20	2607.36
407.39	2691.62
407.58	2726.72
407.77	2785.24
407.96	2726.72
408.15	2785.24
408.34	2696.30
408.54	2839.07
408.73	2822.69
408.92	2729.06
409.11	2988.86
409.30	2871.84
409.49	2925.67
409.68	2911.63
409.87	2958.44
410.07	3054.40
410.26	3070.78
410.45	3002.91
410.64	3204.19
410.83	3066.10
411.02	3026.31
411.21	3197.17
411.40	2986.52
411.59	3171.43
411.78	3304.84
411.98	3375.05
412.17	3293.13
412.36	3372.71
412.55	3403.14
412.74	3412.50
412.93	3534.21
413.12	3375.05
413.31	3529.53
413.50	3583.36
413.69	3578.68
413.88	3669.96
414.07	3653.58
414.26	3672.30
414.45	3754.22
414.64	3634.85
414.83	3782.31
415.02	3854.86
415.22	3983.59
415.41	4037.42
415.60	3976.57
415.79	3927.42
415.98	4002.32
416.17	4091.26
416.36	3957.85
416.55	3969.55
416.74	4208.28
416.93	4102.96
417.12	4131.05
417.31	4269.14
417.50	4170.83
417.69	4390.84
417.88	4236.37
418.07	4257.43
418.26	4278.50
418.45	4454.04
418.64	4423.61
418.83	4432.97
419.02	4454.04
419.21	4702.14
419.39	4496.17
419.58	4634.26
419.77	4400.21
419.96	4526.60
420.15	4571.07
420.34	4652.98
420.53	4683.41
420.72	4664.69
420.91	4671.71
421.10	4770.01
421.29	4849.59
421.48	4697.46
421.67	4699.80
421.86	4828.53
422.05	4863.63
422.24	4800.44
422.43	4774.69
422.61	4968.96
422.80	5036.83
422.99	4908.10
423.18	4952.57
423.37	5050.88
423.56	5076.62
423.75	4947.89
423.94	4826.18
424.13	4620.22
424.32	4910.44
424.50	4971.30
424.69	5186.63
424.88	5167.90
425.07	4938.53
425.26	4950.23
425.45	5085.98
425.64	5088.32
425.83	5034.49
426.01	5050.88
426.20	5184.29
426.39	5193.65
426.58	4929.17
426.77	5062.58
426.96	5203.01
427.15	5210.03
427.33	5399.62
427.52	5277.91
427.71	5404.30
427.90	5233.44
428.09	5273.23
428.28	5331.74
428.46	5453.45
428.65	5392.59
428.84	5500.26
429.03	5493.24
429.22	5310.68
429.40	5558.77
429.59	5509.62
429.78	5460.47
429.97	5387.91
430.16	5483.88
430.34	5790.49
430.53	5720.27
430.72	5643.03
430.91	5724.95
431.10	5830.27
431.28	5785.80
431.47	5928.58
431.66	5947.30
431.85	5565.79
432.03	5994.11
432.22	6040.92
432.41	5762.40
432.60	5940.28
432.79	5879.43
432.97	6120.50
433.16	6195.40
433.35	6071.35
433.54	6164.97
433.72	6207.10
433.91	6230.51
434.10	6274.98
434.28	6223.48
434.47	6160.29
434.66	6314.77
434.85	6326.47
435.03	6525.41
435.22	6267.95
435.41	6483.28
435.59	6293.70
435.78	6518.39
435.97	6513.71
436.16	6562.86
436.34	6558.18
436.53	6427.11
436.72	6715.00
436.90	6511.37
437.09	6649.46
437.28	6478.60
437.46	6675.21
437.65	6719.68
437.84	6937.35
438.02	6815.64
438.21	6848.41
438.40	6848.41
438.58	7150.34
438.77	7155.02
438.96	7052.03
439.14	7307.15
439.33	7164.38
439.52	7234.60
439.70	7274.38
439.89	7419.50
440.08	7562.27
440.26	7499.08
440.45	7478.01
440.63	7485.03
440.82	7826.75
441.01	7681.64
441.19	7571.63
441.38	7681.64
441.57	7857.18
441.75	8006.97
441.94	7953.14
442.12	8081.87
442.31	8056.12
442.50	8205.92
442.68	8135.70
442.87	8028.04
443.05	8271.45
443.24	8369.76
443.43	8219.96
443.61	8205.92
443.80	8395.50
443.98	8091.23
444.17	7859.52
444.35	8212.94
444.54	8362.73
444.73	8351.03
444.91	8334.65
445.10	8493.80
445.28	8421.25
445.47	8470.40
445.65	8425.93
445.84	8451.67
446.02	8465.72
446.21	8493.80
446.39	8545.30
446.58	8477.42
446.77	8634.24
446.95	8287.84
447.14	8629.56
447.32	8697.43
447.51	8650.62
447.69	8454.02
447.88	8468.06
448.06	8667.00
448.25	8566.36
448.43	8505.51
448.62	8697.43
448.80	8526.57
448.99	8669.34
449.17	8837.86
449.36	8781.69
449.54	8926.80
449.73	9226.39
449.91	9039.15
450.10	8954.89
450.28	9158.52
450.46	9153.84
450.65	9057.87
450.83	9107.02
451.02	9294.27
451.20	9123.41
451.39	9312.99
451.57	9291.93
451.76	9158.52
451.94	9212.35
452.13	9455.76
452.31	9362.14
452.49	9053.19
452.68	9504.92
452.86	9401.93
453.05	9619.60
453.23	9612.58
453.42	9507.26
453.60	9399.59
453.78	9877.06
453.97	9593.86
454.15	9614.92
454.34	9467.47
454.52	9785.78
454.70	9806.84
454.89	9607.90
455.07	9858.34
455.26	9905.15
455.44	10122.82
455.62	10090.05
455.81	10019.83
455.99	10246.87
456.17	10176.65
456.36	10164.95
456.54	10342.83
456.73	10235.16
456.91	10707.95
457.09	10406.02
457.28	10703.27
457.46	10555.82
457.64	10801.57
457.83	10445.81
458.01	10312.40
458.19	10803.91
458.38	10644.76
458.56	10778.17
458.74	10637.73
458.93	10593.26
459.11	10911.58
459.29	11002.86
459.48	10927.96
459.66	10682.20
459.84	10988.82
460.03	11204.14
460.21	11073.07
460.39	11138.61
460.57	11105.84
460.76	11229.89
460.94	11377.34
461.12	11260.32
461.31	11215.85
461.49	11328.19
461.67	11435.86
461.85	11463.94
462.04	11276.70
462.22	12004.61
462.40	11634.80
462.59	11475.65
462.77	11559.91
462.95	11815.02
463.13	11742.47
463.32	11803.32
463.50	11733.11
463.68	11992.90
463.86	12159.08
464.05	11983.54
464.23	12065.46
464.41	12318.24
464.59	11784.60
464.78	12191.85
464.96	12416.54
465.14	11971.84
465.32	12145.04
465.50	12388.46
465.69	12517.18
465.87	12486.76
466.05	12187.17
466.23	12414.20
466.41	12325.26
466.60	12496.12
466.78	12315.90
466.96	12379.09
467.14	12435.27
467.32	12393.14
467.51	12688.04
467.69	12269.09
467.87	12554.63
468.05	12858.90
468.23	12517.18
468.41	12706.77
468.60	12905.71
468.78	12779.32
468.96	12514.84
469.14	13291.90
469.32	13090.62
469.50	13006.36
469.69	12978.27
469.87	13132.75
470.05	13289.56
470.23	13495.53
470.41	13256.79
470.59	13287.22
470.77	13329.35
470.95	13312.97
471.14	13509.57
471.32	13312.97
471.50	13554.04
471.68	13642.98
471.86	13696.82
472.04	14115.77
472.22	14274.93
472.40	13862.99
472.58	14209.39
472.77	14026.83
472.95	14244.50
473.13	14796.87
473.31	14457.49
473.49	14188.33
473.67	14258.54
473.85	14441.11
474.03	14719.63
474.21	14754.74
474.39	14513.66
474.57	15040.28
474.75	14911.55
474.93	15073.05
475.12	15180.71
475.30	15332.85
475.48	15070.71
475.66	15531.80
475.84	15091.77
476.02	15627.76
476.20	15218.16
476.38	15815.00
476.56	16035.01
476.74	16018.63
476.92	16084.16
477.10	15857.13
477.28	16308.85
477.46	16304.17
477.64	16524.18
477.82	16891.65
478.00	17020.38
478.18	16919.73
478.36	17191.23
478.54	17256.77
478.72	17731.90
478.90	17547.00
479.08	17972.97
479.26	17884.03
479.44	17956.59
479.62	18174.26
479.80	18258.52
479.98	18581.51
480.16	18750.03
480.34	18223.41
480.52	18803.86
480.70	18649.39
480.88	18523.00
481.06	18717.26
481.24	19014.51
481.41	19271.97
481.59	19302.40
481.77	19822.00
481.95	19833.70
482.13	20088.82
482.31	20030.30
482.49	20512.46
482.67	20044.35
482.85	20692.68
483.03	20793.32
483.21	20905.66
483.39	21099.93
483.57	21366.75
483.74	21692.08
483.92	21944.86
484.10	21638.25
484.28	21867.63
484.46	22183.60
484.64	22689.15
484.82	22209.34
485.00	22464.46
485.18	22916.19
485.35	23173.64
485.53	23227.48
485.71	23215.77
485.89	23791.55
486.07	23522.38
486.25	23288.33
486.43	23880.49
486.61	24088.79
486.78	24212.84
486.96	24362.64
487.14	24835.42
487.32	25027.35
487.50	25570.35
487.68	25289.49
487.85	25458.01
488.03	25750.57
488.21	25989.31
488.39	25689.72
488.57	26057.18
488.75	26429.33
488.92	26562.74
489.10	26906.80
489.28	27000.42
489.46	27903.87
489.64	27168.94
489.81	28060.68
489.99	27859.40
490.17	28067.70
490.35	28322.82
490.53	28395.38
490.70	29085.84
490.88	28631.77
491.06	29254.36
491.24	29202.86
491.41	29605.44
491.59	29677.99
491.77	29720.12
491.95	29898.00
492.13	29993.97
492.30	30251.42
492.48	30309.94
492.66	30546.33
492.84	30906.77
493.01	30927.84
493.19	30787.41
493.37	31456.80
493.54	31119.76
493.72	31693.19
493.90	31922.57
494.08	32287.69
494.25	32261.94
494.43	32568.55
494.61	32533.45
494.79	33015.60
494.96	32938.36
495.14	33120.92
495.32	33699.03
495.49	33811.38
495.67	33186.46
495.85	33656.90
496.02	34185.86
496.20	34412.90
496.38	34274.80
496.55	34377.79
496.73	35213.36
496.91	35173.57
497.09	35204.00
497.26	35622.95
497.44	35372.52
497.62	35613.59
497.79	36037.23
497.97	35761.05
498.14	36163.62
498.32	36636.41
498.50	36638.75
498.67	37029.62
498.85	36762.79
499.03	36809.61
499.20	36947.70
499.38	37345.59
499.56	37544.53
499.73	37528.15
499.91	37752.84
500.08	38103.92
500.26	37783.27
500.44	38291.16
500.61	38693.74
500.79	38192.86
500.97	38366.06
501.14	38932.47
501.32	38920.77
501.49	38920.77
501.67	38965.24
501.84	39461.43
502.02	39618.25
502.20	39377.17
502.37	39433.35
502.55	39625.27
502.72	39847.62
502.90	39842.94
503.07	39924.86
503.25	40032.52
503.43	40360.20
503.60	40498.29
503.78	40226.79
503.95	40947.67
504.13	40954.69
504.30	41123.21
504.48	40959.38
504.65	40849.37
504.83	41741.11
505.01	41488.34
505.18	41666.22
505.36	42223.26
505.53	41799.63
505.71	41904.95
505.88	42316.89
506.06	41593.66
506.23	42398.80
506.41	42178.79
506.58	42572.00
506.76	42717.12
506.93	42595.41
507.11	42803.72
507.28	43419.28
507.46	43103.31
507.63	43381.83
507.81	43309.27
507.98	43540.99
508.16	43386.51
508.33	44114.42
508.50	44044.20
508.68	44299.32
508.85	44088.67
509.03	44198.68
509.20	44811.90
509.38	44795.51
509.55	44561.46
509.73	45162.98
509.90	45116.17
510.08	44814.24
510.25	45202.77
510.42	45256.60
510.60	45406.39
510.77	45724.71
510.95	45853.44
511.12	45509.38
511.30	45392.35
511.47	45647.47
511.64	46241.96
511.82	45975.14
511.99	45984.51
512.17	46417.50
512.34	46124.94
512.51	46529.85
512.69	46644.54
512.86	47019.02
513.04	46700.71
513.21	47349.04
513.38	47229.67
513.56	47285.84
513.73	47285.84
513.90	47810.12
514.08	47533.94
514.25	47674.37
514.43	47767.99
514.60	47863.96
514.77	47608.84
514.95	48200.99
515.12	48114.39
515.29	47885.02
515.47	48460.79
515.64	48701.87
515.81	48079.28
515.99	48566.12
516.16	48945.28
516.33	49233.17
516.51	49331.47
516.68	48999.12
516.85	48870.39
517.03	49301.04
517.20	49160.61
517.37	49425.09
517.54	49265.94
517.72	49247.21
517.89	49593.61
518.06	49338.49
518.24	49509.35
518.41	49642.76
518.58	49771.49
518.75	49577.23
518.93	50024.27
519.10	49979.80
519.27	50052.36
519.45	49918.95
519.62	50464.29
519.79	50284.07
519.96	50410.46
520.14	50466.63
520.31	50197.47
520.48	50726.43
520.65	51068.15
520.83	51000.27
521.00	50916.01
521.17	51234.33
521.34	50894.95
521.52	51147.73
521.69	51117.30
521.86	51384.12
522.03	51365.40
522.20	51749.24
522.38	51805.42
522.55	51875.63
522.72	51545.62
522.89	51468.38
523.07	51957.55
523.24	51957.55
523.41	52039.47
523.58	51667.33
523.75	52500.56
523.92	52168.20
524.10	52301.61
524.27	52355.44
524.44	52395.23
524.61	52245.44
524.78	52484.17
524.96	52891.43
525.13	52701.84
525.30	52521.62
525.47	52868.02
525.64	52650.35
525.81	53062.29
525.98	53064.63
526.16	52940.58
526.33	52828.23
526.50	53109.10
526.67	53375.92
526.84	53289.32
527.01	53188.67
527.18	53043.56
527.36	53446.13
527.53	53511.67
527.70	53797.21
527.87	53614.65
528.04	53427.41
528.21	53827.64
528.38	53900.20
528.55	53895.52
528.72	53822.96
528.89	53631.04
529.07	53886.15
529.24	53916.58
529.41	54223.19
529.58	53993.82
529.75	53921.26
529.92	53942.33
530.09	54089.78
530.26	54349.58
530.43	54260.64
530.60	54012.54
530.77	54424.48
530.94	54707.68
531.11	54461.93
531.28	54387.03
531.46	54145.95
531.63	54541.50
531.80	54576.61
531.97	54892.58
532.14	54855.14
532.31	54850.45
532.48	54742.79
532.65	55100.89
532.82	55000.25
532.99	55079.83
533.16	54862.16
533.33	55112.59
533.50	55152.38
533.67	55145.36
533.84	55084.51
534.01	55428.57
534.18	55061.10
534.35	55419.20
534.52	55381.76
534.69	55407.50
534.86	55536.23
535.03	55475.38
535.20	55690.71
535.37	55606.45
535.54	55608.79
535.71	55444.95
535.88	55870.93
536.05	55756.24
536.22	55877.95
536.38	55976.25
536.55	55641.56
536.72	56161.15
536.89	55636.87
537.06	56025.40
537.23	56179.88
537.40	55964.55
537.57	56140.09
537.74	55938.80
537.91	56203.28
538.08	56156.47
538.25	55763.26
538.42	56439.68
538.59	56640.96
538.75	56154.13
538.92	56381.16
539.09	56399.89
539.26	56615.22
539.43	56416.27
539.60	56680.75
539.77	56392.87
539.94	56697.14
540.11	56678.41
540.28	56814.16
540.44	56868.00
540.61	56528.62
540.78	56495.85
540.95	56678.41
541.12	56633.94
541.29	56755.65
541.46	56753.31
541.62	57036.51
541.79	56860.97
541.96	56823.53
542.13	56760.33
542.30	57027.15
542.47	57331.42
542.63	57059.92
542.80	57169.93
542.97	57324.40
543.14	57237.80
543.31	57450.79
543.48	57577.18
543.64	57839.32
543.81	57502.28
543.98	57757.40
544.15	57537.39
544.32	57755.06
544.48	57921.24
544.65	57429.72
544.82	57619.31
544.99	57394.62
545.16	57853.36
545.32	57808.89
545.49	58038.26
545.66	58045.29
545.83	58092.10
546.00	57986.77
546.16	58003.16
546.33	57893.15
546.50	57886.13
546.67	57970.39
546.83	57659.10
547.00	58138.91
547.17	58042.95
547.34	58155.29
547.50	58426.79
547.67	58546.16
547.84	58312.11
548.00	58389.34
548.17	58436.16
548.34	58351.90
548.51	58436.16
548.67	58567.23
548.84	58389.34
549.01	58475.94
549.18	58482.97
549.34	58445.52
549.51	58368.28
549.68	58609.35
549.84	58710.00
550.01	58644.46
550.18	58588.29
550.34	58698.30
550.51	58913.62
550.68	58688.93
550.84	58599.99
551.01	58686.59
551.18	58614.04
551.34	58890.22
551.51	58679.57
551.68	58728.72
551.84	58946.39
552.01	58742.77
552.18	58932.35
552.34	58803.62
552.51	59206.19
552.68	58796.60
552.84	59025.97
553.01	59093.85
553.18	58922.99
553.34	59065.76
553.51	59107.89
553.67	59231.94
553.84	59264.70
554.01	59224.92
554.17	59281.09
554.34	59419.18
554.51	59416.84
554.67	59276.41
554.84	59175.76
555.00	59208.53
555.17	59201.51
555.33	59285.77
555.50	59028.31
555.67	59243.64
555.83	59379.39
556.00	59381.73
556.16	59643.87
556.33	59447.27
556.50	59571.32
556.66	59662.60
556.83	59409.82
556.99	59543.23
557.16	59571.32
557.32	59639.19
557.49	59962.18
557.65	59678.98
557.82	59744.51
557.98	59625.15
558.15	59583.02
558.32	59917.71
558.48	59547.91
558.65	59739.83
558.81	59704.73
558.98	59831.11
559.14	59856.86
559.31	59817.07
559.47	59835.80
559.64	60158.79
559.80	59828.77
559.97	59955.16
560.13	59800.69
560.30	60065.17
560.46	60104.96
560.63	60051.12
560.79	59943.46
560.96	60200.92
561.12	59980.91
561.29	59915.37
561.45	60104.96
561.61	60203.26
561.78	60114.32
561.94	60027.72
562.11	60009.00
562.27	60177.51
562.44	60327.31
562.60	60336.67
562.77	60133.04
562.93	60119.00
563.10	60292.20
563.26	60044.10
563.42	60360.08
563.59	60104.96
563.75	60200.92
563.92	60385.82
564.08	60280.50
564.24	60397.52
564.41	60495.83
564.57	60217.30
564.74	60254.75
564.90	60367.10
565.07	60252.41
565.23	60308.58
565.39	60308.58
565.56	60591.79
565.72	60186.88
565.88	60521.57
566.05	60378.80
566.21	60404.55
566.38	60519.23
566.54	60561.36
566.70	60521.57
566.87	60757.97
567.03	60460.72
567.19	60750.94
567.36	60694.77
567.52	60561.36
567.68	60713.50
567.85	60463.06
568.01	60523.91
568.17	60507.53
568.34	60662.00
568.50	60458.38
568.66	60346.03
568.83	60664.35
568.99	60509.87
569.15	60502.85
569.32	60580.09
569.48	60804.78
569.64	60788.39
569.81	60704.13
569.97	60662.00
570.13	60657.32
570.30	60617.53
570.46	60837.54
570.62	60720.52
570.78	60713.50
570.95	60832.86
571.11	61020.11
571.27	60664.35
571.43	60790.73
571.60	60994.36
571.76	60804.78
571.92	60877.33
572.09	60970.96
572.25	60856.27
572.41	60842.23
572.57	60891.38
572.74	60954.57
572.90	60921.80
573.06	61055.21
573.22	60837.54
573.38	60823.50
573.55	60938.19
573.71	61132.45
573.87	60746.26
574.03	60715.84
574.20	60825.84
574.36	60893.72
574.52	60889.04
574.68	60851.59
574.84	60977.98
575.01	61034.15
575.17	61048.19
575.33	60910.10
575.49	60870.31
575.65	61069.26
575.82	61022.45
575.98	61031.81
576.14	61071.60
576.30	61050.53
576.46	60795.42
576.62	60790.73
576.79	60907.76
576.95	60921.80
577.11	61008.40
577.27	61069.26
577.43	61085.64
577.59	61031.81
577.75	61188.63
577.92	60973.30
578.08	61104.37
578.24	61085.64
578.40	61137.13
578.56	61247.14
578.72	61003.72
578.88	61153.52
579.04	61413.32
579.21	61277.57
579.37	61106.71
579.53	61338.42
579.69	61006.06
579.85	61050.53
580.01	61291.61
580.17	61069.26
580.33	61148.84
580.49	61284.59
580.65	61155.86
580.82	61118.41
580.98	61102.03
581.14	61045.85
581.30	61298.63
581.46	61214.37
581.62	61258.84
581.78	61249.48
581.94	61158.20
582.10	61169.90
582.26	61291.61
582.42	61228.41
582.58	61165.22
582.74	61013.08
582.90	61134.79
583.06	61010.74
583.22	61146.50
583.38	61209.69
583.54	61153.52
583.70	61221.39
583.86	61347.78
584.02	60999.04
584.18	61228.41
584.34	61336.08
584.50	61139.47
584.66	61013.08
584.82	60727.54
584.98	61118.41
585.14	61296.29
585.30	61123.09
585.46	61338.42
585.62	61289.27
585.78	61406.30
585.94	61020.11
586.10	60987.34
586.26	61350.12
586.42	61221.39
586.58	61230.75
586.74	61350.12
586.90	61235.44
587.06	61310.33
587.22	61497.58
587.38	61380.55
587.54	61504.60
587.70	61565.45
587.86	61333.74
588.02	61247.14
588.18	61474.17
588.34	61223.73
588.49	61244.80
