SpectraSuite Data File
++++++++++++++++++++++++++++++++++++
Date: Fri Oct 25 11:23:14 EDT 2013
User: price-jones
Dark Spectrum Present: No
Reference Spectrum Present: No
Number of Sampled Component Spectra: 1
Spectrometers: USB2+H05261
Integration Time (usec): 100000 (USB2+H05261)
Spectra Averaged: 1 (USB2+H05261)
Boxcar Smoothing: 0 (USB2+H05261)
Correct for Electrical Dark: No (USB2+H05261)
Strobe/Lamp Enabled: No (USB2+H05261)
Correct for Detector Non-linearity: No (USB2+H05261)
Correct for Stray Light: No (USB2+H05261)
Number of Pixels in Processed Spectrum: 2048
>>>>>Begin Processed Spectral Data<<<<<
365.73	262.14
365.92	262.14
366.12	262.14
366.32	93.62
366.52	159.16
366.72	70.22
366.91	114.69
367.11	161.50
367.31	77.24
367.51	145.11
367.70	112.35
367.90	88.94
368.10	212.99
368.30	114.69
368.49	147.45
368.69	107.66
368.89	208.31
369.09	142.77
369.28	210.65
369.48	154.48
369.68	234.05
369.87	203.63
370.07	198.95
370.27	210.65
370.47	285.55
370.66	535.98
370.86	571.09
371.06	617.90
371.25	702.16
371.45	685.78
371.65	641.31
371.84	664.71
372.04	669.39
372.24	709.18
372.44	734.93
372.63	678.76
372.83	718.54
373.03	856.64
373.22	784.08
373.42	690.46
373.62	772.38
373.81	751.31
374.01	891.74
374.21	800.46
374.40	725.57
374.60	847.27
374.79	821.53
374.99	847.27
375.19	828.55
375.38	819.19
375.58	917.49
375.78	847.27
375.97	823.87
376.17	812.17
376.37	828.55
376.56	814.51
376.76	870.68
376.95	840.25
377.15	875.36
377.35	861.32
377.54	938.55
377.74	833.23
377.93	908.13
378.13	978.34
378.33	954.94
378.52	912.81
378.72	973.66
378.91	917.49
379.11	931.53
379.31	973.66
379.50	910.47
379.70	987.71
379.89	894.08
380.09	964.30
380.28	931.53
380.48	1020.47
380.68	870.68
380.87	1048.56
381.07	976.00
381.26	1046.22
381.46	1020.47
381.65	1001.75
381.85	1015.79
382.04	1043.88
382.24	1107.07
382.43	1062.60
382.63	1053.24
382.83	1090.69
383.02	1095.37
383.22	1156.22
383.41	1029.84
383.61	1011.11
383.80	1156.22
384.00	1170.27
384.19	1064.94
384.39	1111.75
384.58	1109.41
384.78	1188.99
384.97	1151.54
385.17	1062.60
385.36	1174.95
385.56	1196.01
385.75	1107.07
385.95	1177.29
386.14	1163.25
386.34	1247.51
386.53	1200.69
386.72	1238.14
386.92	1306.02
387.11	1219.42
387.31	1317.72
387.50	1196.01
387.70	1308.36
387.89	1188.99
388.09	1306.02
388.28	1364.53
388.48	1320.06
388.67	1310.70
388.86	1291.98
389.06	1352.83
389.25	1294.32
389.45	1310.70
389.64	1385.60
389.84	1409.00
390.03	1474.54
390.22	1416.02
390.42	1385.60
390.61	1430.07
390.81	1371.55
391.00	1350.49
391.19	1359.85
391.39	1430.07
391.58	1432.41
391.78	1486.24
391.97	1565.82
392.16	1481.56
392.36	1558.80
392.55	1514.33
392.75	1643.06
392.94	1521.35
393.13	1500.28
393.33	1495.60
393.52	1605.61
393.71	1558.80
393.91	1570.50
394.10	1586.88
394.29	1689.87
394.49	1556.46
394.68	1673.48
394.88	1706.25
395.07	1680.50
395.26	1640.72
395.46	1554.12
395.65	1849.02
395.84	1727.32
396.04	1797.53
396.23	1788.17
396.42	1771.79
396.62	1750.72
396.81	1713.27
397.00	1701.57
397.19	1722.63
397.39	1783.49
397.58	1785.83
397.77	1802.21
397.97	1825.62
398.16	1872.43
398.35	1961.37
398.55	1837.32
398.74	1944.99
398.93	1902.86
399.12	1966.05
399.32	1858.39
399.51	1966.05
399.70	1998.82
399.90	1980.09
400.09	2022.22
400.28	2050.31
400.47	1991.80
400.67	2129.89
400.86	2101.80
401.05	2150.95
401.24	2146.27
401.44	2101.80
401.63	2146.27
401.82	2120.53
402.01	2157.97
402.21	2148.61
402.40	2232.87
402.59	2300.75
402.78	2216.49
402.97	2211.81
403.17	2197.76
403.36	2267.98
403.55	2157.97
403.74	2328.83
403.93	2366.28
404.13	2401.39
404.32	2265.64
404.51	2401.39
404.70	2464.58
404.89	2373.30
405.09	2476.29
405.28	2466.92
405.47	2471.61
405.66	2567.57
405.85	2527.78
406.05	2485.65
406.24	2560.55
406.43	2640.12
406.62	2614.38
406.81	2675.23
407.00	2612.04
407.20	2656.51
407.39	2644.81
407.58	2675.23
407.77	2729.06
407.96	2757.15
408.15	2815.66
408.34	2768.85
408.54	2909.29
408.73	2825.03
408.92	2850.77
409.11	2928.01
409.30	3042.70
409.49	2935.03
409.68	3042.70
409.87	2946.73
410.07	2942.05
410.26	2942.05
410.45	3075.46
410.64	3047.38
410.83	2998.23
411.02	3171.43
411.21	3185.47
411.40	3162.06
411.59	3255.69
411.78	3248.66
411.98	3171.43
412.17	3339.94
412.36	3346.97
412.55	3321.22
412.74	3463.99
412.93	3517.83
413.12	3419.52
413.31	3604.42
413.50	3506.12
413.69	3522.51
413.88	3623.15
414.07	3658.26
414.26	3674.64
414.45	3693.37
414.64	3641.87
414.83	3763.58
415.02	3913.38
415.22	3805.71
415.41	3936.78
415.60	3857.20
415.79	3887.63
415.98	3995.29
416.17	3974.23
416.36	4067.85
416.55	3936.78
416.74	3971.89
416.93	4039.76
417.12	4065.51
417.31	4147.43
417.50	4184.88
417.69	4187.22
417.88	4252.75
418.07	4252.75
418.26	4320.63
418.45	4372.12
418.64	4496.17
418.83	4432.97
419.02	4283.18
419.21	4634.26
419.39	4475.10
419.58	4456.38
419.77	4545.32
419.96	4667.03
420.15	4690.43
420.34	4526.60
420.53	4718.52
420.72	4751.29
420.91	4905.76
421.10	4875.34
421.29	4821.50
421.48	4795.76
421.67	4901.08
421.86	4819.16
422.05	4748.95
422.24	4875.34
422.43	4973.64
422.61	4931.51
422.80	4992.36
422.99	4889.38
423.18	4994.70
423.37	4975.98
423.56	5088.32
423.75	4936.19
423.94	4875.34
424.13	4585.11
424.32	4849.59
424.50	5053.22
424.69	5195.99
424.88	5135.14
425.07	4802.78
425.26	4917.47
425.45	4966.62
425.64	4994.70
425.83	4887.04
426.01	5006.41
426.20	5142.16
426.39	5160.88
426.58	5130.45
426.77	5109.39
426.96	5050.88
427.15	5172.58
427.33	5224.08
427.52	5163.22
427.71	5217.05
427.90	5373.87
428.09	5303.65
428.28	5369.19
428.46	5523.66
428.65	5418.34
428.84	5493.24
429.03	5575.16
429.22	5416.00
429.40	5355.15
429.59	5572.82
429.78	5352.81
429.97	5352.81
430.16	5547.07
430.34	5554.09
430.53	5757.72
430.72	5706.23
430.91	5633.67
431.10	5729.63
431.28	5877.09
431.47	5884.11
431.66	5930.92
431.85	5767.08
432.03	5930.92
432.22	6092.41
432.41	5797.51
432.60	5991.77
432.79	5998.79
432.97	6057.31
433.16	6040.92
433.35	5902.83
433.54	6129.86
433.72	6181.35
433.91	6143.91
434.10	6127.52
434.28	6033.90
434.47	6328.81
434.66	6485.62
434.85	6272.64
435.03	6319.45
435.22	6333.49
435.41	6696.27
435.59	6534.78
435.78	6443.49
435.97	6480.94
436.16	6429.45
436.34	6420.09
436.53	6338.17
436.72	6663.51
436.90	6469.24
437.09	6637.76
437.28	6612.01
437.46	6616.69
437.65	6637.76
437.84	6712.66
438.02	6593.29
438.21	6747.76
438.40	6761.81
438.58	6993.52
438.77	7087.14
438.96	7091.82
439.14	7187.79
439.33	7103.53
439.52	7220.55
439.70	7342.26
439.89	7346.94
440.08	7290.77
440.26	7566.95
440.45	7445.24
440.63	7517.80
440.82	7597.38
441.01	7627.81
441.19	7648.87
441.38	7705.04
441.57	7728.45
441.75	7859.52
441.94	7775.26
442.12	7997.61
442.31	8168.47
442.50	8259.75
442.68	8079.53
442.87	8152.09
443.05	8100.59
443.24	8318.26
443.43	8119.32
443.61	8170.81
443.80	8512.53
443.98	8159.11
444.17	7850.16
444.35	8358.05
444.54	8339.33
444.73	8285.50
444.91	8376.78
445.10	8613.17
445.28	8517.21
445.47	8409.54
445.65	8416.57
445.84	8603.81
446.02	8767.65
446.21	8624.87
446.39	8435.29
446.58	8585.08
446.77	8470.40
446.95	8531.25
447.14	8575.72
447.32	8741.90
447.51	8645.94
447.69	8416.57
447.88	8606.15
448.06	8713.81
448.25	8561.68
448.43	8617.85
448.62	8755.94
448.80	8503.17
448.99	8793.39
449.17	8917.44
449.36	8767.65
449.54	8975.95
449.73	8915.10
449.91	9137.45
450.10	8793.39
450.28	9116.39
450.46	9352.78
450.65	9121.07
450.83	9025.11
451.02	9188.94
451.20	9418.32
451.39	9202.99
451.57	9144.47
451.76	9135.11
451.94	9259.16
452.13	9591.52
452.31	9465.13
452.49	9357.46
452.68	9481.51
452.86	9376.19
453.05	9390.23
453.23	9624.28
453.42	9432.36
453.60	9427.68
453.78	9614.92
453.97	9579.81
454.15	9533.00
454.34	9640.67
454.52	9734.29
454.70	9708.54
454.89	9851.31
455.07	9797.48
455.26	10076.01
455.44	9968.34
455.62	10068.98
455.81	10258.57
455.99	10167.29
456.17	10195.37
456.36	10148.56
456.54	10333.47
456.73	10384.96
456.91	10487.94
457.09	10391.98
457.28	10696.25
457.46	10532.41
457.64	10586.24
457.83	10642.42
458.01	10457.51
458.19	10942.00
458.38	10647.10
458.56	10904.56
458.74	10850.72
458.93	10677.52
459.11	10808.59
459.29	10820.30
459.48	10824.98
459.66	10780.51
459.84	10796.89
460.03	11052.01
460.21	10988.82
460.39	11126.91
460.57	11194.78
460.76	11162.01
460.94	11349.26
461.12	11265.00
461.31	11150.31
461.49	11339.90
461.67	11265.00
461.85	11510.75
462.04	11248.61
462.22	11534.16
462.40	11566.93
462.59	11611.40
462.77	11702.68
462.95	11864.18
463.13	11669.91
463.32	11810.34
463.50	12149.72
463.68	12070.14
463.86	11885.24
464.05	11676.93
464.23	11782.26
464.41	12114.61
464.59	11889.92
464.78	12011.63
464.96	12222.28
465.14	11850.13
465.32	12063.12
465.50	12259.73
465.69	12145.04
465.87	12332.28
466.05	12154.40
466.23	12194.19
466.41	12339.30
466.60	12699.75
466.78	12114.61
466.96	12372.07
467.14	12404.84
467.32	12519.53
467.51	12702.09
467.69	12322.92
467.87	12311.22
468.05	12671.66
468.23	12484.42
468.41	12549.95
468.60	12704.43
468.78	12877.63
468.96	12730.17
469.14	12826.14
469.32	13107.00
469.50	12755.92
469.69	13125.72
469.87	13373.82
470.05	13188.92
470.23	13355.10
470.41	13301.26
470.59	13338.71
470.77	13432.33
470.95	13317.65
471.14	13507.23
471.32	13373.82
471.50	13724.90
471.68	14085.34
471.86	13717.88
472.04	13781.07
472.22	13867.67
472.40	13811.50
472.58	13872.36
472.77	14024.49
472.95	14338.12
473.13	14565.15
473.31	14129.81
473.49	14195.35
473.67	14384.93
473.85	14525.36
474.03	14850.70
474.21	14565.15
474.39	14736.01
474.57	14623.67
474.75	15169.01
474.93	15037.94
475.12	14871.76
475.30	15372.64
475.48	15147.95
475.66	15314.13
475.84	15442.85
476.02	15580.95
476.20	15382.00
476.38	15896.92
476.56	16205.87
476.74	16264.38
476.92	16280.77
477.10	16074.80
477.28	16329.92
477.46	16018.63
477.64	16428.22
477.82	16854.20
478.00	17060.16
478.18	17025.06
478.36	17022.72
478.54	17336.35
478.72	17174.85
478.90	17720.20
479.08	17659.34
479.26	17717.86
479.44	18040.85
479.62	17949.57
479.80	18108.72
479.98	18427.04
480.16	18649.39
480.34	18523.00
480.52	18700.88
480.70	18881.10
480.88	18295.97
481.06	18853.02
481.24	18801.52
481.41	19337.51
481.59	19737.74
481.77	19463.90
481.95	19503.68
482.13	19941.36
482.31	19730.72
482.49	20456.28
482.67	20367.34
482.85	20533.52
483.03	20634.16
483.21	21142.06
483.39	20989.92
483.57	21071.84
483.74	21387.82
483.92	21565.70
484.10	21593.78
484.28	21895.71
484.46	22443.40
484.64	22452.76
484.82	21867.63
485.00	22735.96
485.18	22979.38
485.35	23461.53
485.53	23040.23
485.71	23737.71
485.89	23805.59
486.07	23391.31
486.25	23613.66
486.43	23941.34
486.61	24191.78
486.78	23939.00
486.96	24224.54
487.14	24954.79
487.32	24753.51
487.50	25247.36
487.68	25142.03
487.85	25565.67
488.03	25867.60
488.21	26321.66
488.39	26274.85
488.57	26508.91
488.75	26391.88
488.92	26558.06
489.10	26829.56
489.28	27035.53
489.46	27318.73
489.64	27047.23
489.81	27641.73
489.99	27571.51
490.17	28025.57
490.35	28236.22
490.53	28493.68
490.70	28683.27
490.88	28552.20
491.06	28931.36
491.24	29366.70
491.41	29282.44
491.59	29834.81
491.77	29446.28
491.95	29862.90
492.13	29972.90
492.30	29993.97
492.48	30499.52
492.66	30480.80
492.84	30316.96
493.01	30906.77
493.19	30916.14
493.37	31414.67
493.54	31400.63
493.72	31637.02
493.90	31768.09
494.08	31976.40
494.25	32423.44
494.43	32203.43
494.61	32538.13
494.79	32755.80
494.96	32947.72
495.14	32999.21
495.32	33523.49
495.49	33574.98
495.67	33757.55
495.85	33619.46
496.02	34211.61
496.20	34270.12
496.38	34293.53
496.55	34459.71
496.73	35101.01
496.91	34871.64
497.09	35110.38
497.26	35196.98
497.44	35730.62
497.62	35983.40
497.79	36201.07
497.97	35739.98
498.14	36282.98
498.32	36985.15
498.50	36945.36
498.67	37153.66
498.85	36912.59
499.03	36814.29
499.20	37495.38
499.38	37144.30
499.56	37294.10
499.73	37708.37
499.91	37167.71
500.08	37890.93
500.26	37645.18
500.44	37743.48
500.61	38335.63
500.79	38253.72
500.97	38466.70
501.14	38916.09
501.32	39166.52
501.49	38447.98
501.67	39531.65
501.84	39276.53
502.02	39166.52
502.20	39536.33
502.37	39257.81
502.55	39559.73
502.72	40098.06
502.90	40259.55
503.07	39803.15
503.25	39995.07
503.43	40362.54
503.60	40334.45
503.78	40587.23
503.95	40479.57
504.13	40217.43
504.30	40514.67
504.48	40779.15
504.65	40971.08
504.83	41446.21
505.01	41738.77
505.18	41659.20
505.36	42029.00
505.53	41439.18
505.71	41846.44
505.88	42244.33
506.06	41813.67
506.23	42543.92
506.41	41769.20
506.58	42466.68
506.76	42234.97
506.93	43159.48
507.11	42696.05
507.28	43194.59
507.46	43091.60
507.63	43316.29
507.81	43842.92
507.98	43339.70
508.16	43566.73
508.33	43672.06
508.50	43845.26
508.68	43878.02
508.85	44151.87
509.03	44292.30
509.20	44116.76
509.38	44898.50
509.55	44807.22
509.73	44802.53
509.90	45462.57
510.08	44935.95
510.25	45296.39
510.42	44865.73
510.60	45591.30
510.77	45415.76
510.95	46007.91
511.12	45373.63
511.30	45368.94
511.47	45963.44
511.64	46024.29
511.82	46230.26
511.99	45902.59
512.17	46700.71
512.34	46298.14
512.51	46698.37
512.69	46471.34
512.86	46564.96
513.04	47063.49
513.21	46841.14
513.38	47051.79
513.56	47374.78
513.73	47316.27
513.90	47412.23
514.08	47447.34
514.25	47634.58
514.43	47957.58
514.60	47859.27
514.77	47447.34
514.95	48177.59
515.12	48023.11
515.29	47957.58
515.47	48460.79
515.64	48442.07
515.81	48505.26
515.99	48399.94
516.16	48495.90
516.33	48376.53
516.51	48996.77
516.68	48205.67
516.85	48804.85
517.03	49551.48
517.20	49303.38
517.37	49045.93
517.54	49291.68
517.72	49312.75
517.89	49139.55
518.06	49481.27
518.24	49647.44
518.41	49450.84
518.58	49776.17
518.75	49610.00
518.93	49794.90
519.10	49972.78
519.27	50033.63
519.45	50176.40
519.62	50286.41
519.79	50330.88
519.96	50223.22
520.14	50564.93
520.31	50567.27
520.48	50644.51
520.65	50782.60
520.83	50976.87
521.00	50810.69
521.17	50717.07
521.34	50768.56
521.52	51206.24
521.69	50990.91
521.86	51365.40
522.03	51826.48
522.20	51711.80
522.38	51866.27
522.55	51700.09
522.72	51503.49
522.89	51824.14
523.07	51915.42
523.24	52353.10
523.41	51985.64
523.58	51463.70
523.75	52332.04
523.92	52308.63
524.10	52261.82
524.27	52303.95
524.44	52500.56
524.61	52236.08
524.78	52587.16
524.96	52617.58
525.13	52493.54
525.30	52626.95
525.47	52898.45
525.64	52842.27
525.81	52619.92
525.98	52989.73
526.16	53354.85
526.33	53069.31
526.50	53415.71
526.67	53183.99
526.84	53333.79
527.01	53076.33
527.18	53212.08
527.36	53338.47
527.53	53418.05
527.70	53514.01
527.87	53514.01
528.04	53394.64
528.21	53528.05
528.38	53645.08
528.55	53743.38
528.72	53727.00
528.89	53719.98
529.07	53649.76
529.24	53841.68
529.41	53939.99
529.58	53663.80
529.75	53736.36
529.92	54024.25
530.09	54501.71
530.26	54281.70
530.43	54059.35
530.60	54237.23
530.77	54054.67
530.94	54515.76
531.11	54197.44
531.28	54499.37
531.46	54550.87
531.63	54405.75
531.80	54478.31
531.97	54979.18
532.14	54578.95
532.31	54831.73
532.48	54843.43
532.65	54815.35
532.82	54637.47
532.99	55030.68
533.16	54665.55
533.33	55313.88
533.50	55168.77
533.67	55049.40
533.84	55040.04
534.01	55208.56
534.18	55246.00
534.35	55374.73
534.52	55590.06
534.69	55501.12
534.86	55428.57
535.03	55285.79
535.20	55444.95
535.37	55597.09
535.54	55828.80
535.71	55622.83
535.88	55966.89
536.05	55515.17
536.22	55863.91
536.38	55814.76
536.55	55657.94
536.72	55924.76
536.89	55728.16
537.06	55847.52
537.23	55819.44
537.40	55868.59
537.57	56023.06
537.74	55971.57
537.91	56296.91
538.08	56067.53
538.25	56039.45
538.42	56048.81
538.59	56423.29
538.75	55938.80
538.92	56477.13
539.09	56303.93
539.26	56514.58
539.43	56367.12
539.60	56516.92
539.77	56669.05
539.94	56807.14
540.11	56580.11
540.28	56605.86
540.44	56610.54
540.61	56739.27
540.78	56624.58
540.95	56893.74
541.12	56542.66
541.29	56762.67
541.46	56875.02
541.62	56952.26
541.79	56905.44
541.96	56631.60
542.13	56860.97
542.30	56863.32
542.47	57228.44
542.63	57120.77
542.80	57219.08
542.97	57310.36
543.14	57586.54
543.31	57256.53
543.48	57528.03
543.64	57570.16
543.81	57535.05
543.98	57542.07
544.15	57558.45
544.32	57752.72
544.48	57736.34
544.65	57499.94
544.82	57602.92
544.99	57368.87
545.16	57759.74
545.32	57422.70
545.49	57982.09
545.66	57925.92
545.83	57780.81
546.00	58080.39
546.16	57876.77
546.33	57865.06
546.50	57759.74
546.67	58026.56
546.83	57652.08
547.00	57846.34
547.17	57612.29
547.34	58169.33
547.50	58253.59
547.67	58129.54
547.84	58255.93
548.00	58431.47
548.17	58534.46
548.34	58417.43
548.51	58660.85
548.67	58349.56
548.84	58457.22
549.01	58291.04
549.18	58157.63
549.34	58424.45
549.51	58253.59
549.68	58475.94
549.84	58667.87
550.01	58745.11
550.18	58372.96
550.34	58518.07
550.51	58663.19
550.68	58536.80
550.84	58604.67
551.01	58831.71
551.18	58630.42
551.34	58742.77
551.51	58951.07
551.68	58859.79
551.84	58848.09
552.01	58581.27
552.18	58955.75
552.34	58702.98
552.51	59054.06
552.68	59047.04
552.84	58930.01
553.01	59351.30
553.18	59107.89
553.34	59021.29
553.51	58948.73
553.67	58918.31
553.84	59091.51
554.01	59035.33
554.17	59213.21
554.34	59398.12
554.51	59227.26
554.67	59313.86
554.84	59201.51
555.00	59269.39
555.17	59309.18
555.33	59358.33
555.50	59290.45
555.67	59051.72
555.83	59257.68
556.00	59491.74
556.16	59519.82
556.33	59428.54
556.50	59320.88
556.66	59664.94
556.83	59215.55
556.99	59498.76
557.16	59606.42
557.32	59756.22
557.49	59934.10
557.65	59370.03
557.82	59667.28
557.98	59543.23
558.15	59473.01
558.32	59601.74
558.48	59384.07
558.65	59913.03
558.81	59697.70
558.98	59784.30
559.14	59725.79
559.31	59955.16
559.47	59826.43
559.64	59927.08
559.80	59908.35
559.97	60116.66
560.13	59545.57
560.30	59943.46
560.46	59863.88
560.63	60065.17
560.79	59896.65
560.96	60020.70
561.12	59969.21
561.29	60207.94
561.45	60130.70
561.61	60212.62
561.78	60060.49
561.94	60116.66
562.11	60203.26
562.27	60027.72
562.44	60121.34
562.60	60360.08
562.77	59866.22
562.93	59943.46
563.10	60418.59
563.26	60126.02
563.42	60444.33
563.59	60233.69
563.75	60104.96
563.92	60348.37
564.08	60261.77
564.24	60430.29
564.41	60128.36
564.57	60549.66
564.74	60484.12
564.90	60348.37
565.07	60317.95
565.23	60301.56
565.39	60339.01
565.56	60589.45
565.72	60378.80
565.88	60399.86
566.05	60353.05
566.21	60479.44
566.38	60465.40
566.54	60346.03
566.70	60493.49
566.87	60341.35
567.03	60303.90
567.19	60624.56
567.36	60449.02
567.52	60584.77
567.68	60554.34
567.85	60645.62
568.01	60685.41
568.17	60669.03
568.34	60458.38
568.50	60633.92
568.66	60549.66
568.83	60542.64
568.99	60563.70
569.15	60573.06
569.32	60629.24
569.48	60605.83
569.64	60608.17
569.81	60757.97
569.97	60673.71
570.13	60776.69
570.30	60697.11
570.46	60739.24
570.62	60795.42
570.78	60788.39
570.95	60598.81
571.11	60814.14
571.27	60837.54
571.43	60783.71
571.60	60900.74
571.76	60727.54
571.92	60790.73
572.09	60694.77
572.25	60968.61
572.41	60945.21
572.57	60795.42
572.74	60907.76
572.90	60856.27
573.06	60963.93
573.22	61045.85
573.38	60893.72
573.55	60753.29
573.71	61022.45
573.87	60919.46
574.03	60654.98
574.20	60893.72
574.36	60790.73
574.52	60966.27
574.68	60921.80
574.84	61090.32
575.01	61008.40
575.17	60884.36
575.33	60977.98
575.49	60748.60
575.65	61087.98
575.82	61055.21
575.98	61127.77
576.14	61190.97
576.30	61134.79
576.46	61080.96
576.62	61139.47
576.79	61006.06
576.95	60816.48
577.11	61099.68
577.27	61165.22
577.43	60982.66
577.59	60963.93
577.75	60956.91
577.92	61008.40
578.08	61158.20
578.24	61111.39
578.40	61193.31
578.56	61247.14
578.72	60940.53
578.88	61071.60
579.04	61340.76
579.21	61162.88
579.37	61130.11
579.53	61319.70
579.69	60914.78
579.85	61001.38
580.01	61200.33
580.17	61057.56
580.33	61137.13
580.49	61247.14
580.65	61106.71
580.82	61095.00
580.98	61102.03
581.14	61041.17
581.30	61174.58
581.46	61151.18
581.62	61071.60
581.78	61059.90
581.94	61151.18
582.10	60956.91
582.26	61097.34
582.42	61141.81
582.58	61197.99
582.74	61127.77
582.90	60982.66
583.06	61144.16
583.22	60919.46
583.38	61134.79
583.54	61265.86
583.70	61209.69
583.86	61097.34
584.02	61038.83
584.18	61202.67
584.34	61141.81
584.50	61048.19
584.66	61069.26
584.82	61010.74
584.98	61205.01
585.14	61268.20
585.30	61087.98
585.46	61200.33
585.62	61347.78
585.78	61298.63
585.94	61305.65
586.10	61347.78
586.26	61293.95
586.42	61336.08
586.58	61212.03
586.74	61258.84
586.90	61223.73
587.06	61155.86
587.22	61324.38
587.38	61443.74
587.54	61511.62
587.70	61300.97
587.86	61422.68
588.02	61223.73
588.18	61401.61
588.34	61305.65
588.49	61286.93
