SpectraSuite Data File
++++++++++++++++++++++++++++++++++++
Date: Fri Oct 25 10:44:02 EDT 2013
User: price-jones
Dark Spectrum Present: No
Reference Spectrum Present: No
Number of Sampled Component Spectra: 1
Spectrometers: USB2+H05261
Integration Time (usec): 100000 (USB2+H05261)
Spectra Averaged: 1 (USB2+H05261)
Boxcar Smoothing: 0 (USB2+H05261)
Correct for Electrical Dark: No (USB2+H05261)
Strobe/Lamp Enabled: No (USB2+H05261)
Correct for Detector Non-linearity: No (USB2+H05261)
Correct for Stray Light: No (USB2+H05261)
Number of Pixels in Processed Spectrum: 2048
>>>>>Begin Processed Spectral Data<<<<<
365.73	138.09
365.92	138.09
366.12	138.09
366.32	84.26
366.52	98.30
366.72	0.00
366.91	91.28
367.11	0.00
367.31	0.00
367.51	42.13
367.70	23.41
367.90	35.11
368.10	2.34
368.30	9.36
368.49	7.02
368.69	67.88
368.89	23.41
369.09	18.72
369.28	124.05
369.48	0.00
369.68	63.19
369.87	112.35
370.07	30.43
370.27	114.69
370.47	163.84
370.66	411.93
370.86	374.49
371.06	498.53
371.25	461.09
371.45	379.17
371.65	454.06
371.84	500.87
372.04	444.70
372.24	430.66
372.44	477.47
372.63	402.57
372.83	505.56
373.03	580.45
373.22	521.94
373.42	564.07
373.62	533.64
373.81	561.73
374.01	526.62
374.21	641.31
374.40	615.56
374.60	615.56
374.79	566.41
374.99	608.54
375.19	503.22
375.38	606.20
375.58	594.50
375.78	585.13
375.97	641.31
376.17	674.07
376.37	664.71
376.56	645.99
376.76	596.84
376.95	664.71
377.15	667.05
377.35	645.99
377.54	681.10
377.74	655.35
377.93	695.14
378.13	636.63
378.33	683.44
378.52	636.63
378.72	697.48
378.91	709.18
379.11	545.34
379.31	727.91
379.50	746.63
379.70	690.46
379.89	662.37
380.09	723.23
380.28	669.39
380.48	737.27
380.68	727.91
380.87	702.16
381.07	727.91
381.26	676.41
381.46	748.97
381.65	671.73
381.85	643.65
382.04	772.38
382.24	763.01
382.43	615.56
382.63	671.73
382.83	697.48
383.02	770.04
383.22	706.84
383.41	727.91
383.61	716.20
383.80	807.48
384.00	819.19
384.19	837.91
384.39	809.83
384.58	854.30
384.78	891.74
384.97	849.61
385.17	821.53
385.36	821.53
385.56	833.23
385.75	830.89
385.95	805.14
386.14	760.67
386.34	835.57
386.53	842.59
386.72	915.15
386.92	863.66
387.11	866.00
387.31	929.19
387.50	854.30
387.70	840.25
387.89	922.17
388.09	938.55
388.28	873.02
388.48	898.77
388.67	950.26
388.86	992.39
389.06	964.30
389.25	1029.84
389.45	1006.43
389.64	980.68
389.84	1064.94
390.03	990.05
390.22	985.37
390.42	1111.75
390.61	992.39
390.81	1018.13
391.00	1076.65
391.19	1198.35
391.39	1165.59
391.58	1015.79
391.78	992.39
391.97	1121.12
392.16	1095.37
392.36	1046.22
392.55	1088.35
392.75	1008.77
392.94	1004.09
393.13	954.94
393.33	1034.52
393.52	1081.33
393.71	1111.75
393.91	1128.14
394.10	1139.84
394.29	1203.04
394.49	1252.19
394.68	1221.76
394.88	1238.14
395.07	1338.79
395.26	1355.17
395.46	1284.95
395.65	1284.95
395.84	1315.38
396.04	1273.25
396.23	1174.95
396.42	1210.06
396.62	1270.91
396.81	1263.89
397.00	1238.14
397.19	1296.66
397.39	1387.94
397.58	1420.71
397.77	1409.00
397.97	1533.05
398.16	1448.79
398.35	1556.46
398.55	1614.97
398.74	1540.07
398.93	1572.84
399.12	1577.52
399.32	1589.22
399.51	1636.03
399.70	1600.93
399.90	1612.63
400.09	1652.42
400.28	1675.82
400.47	1589.22
400.67	1748.38
400.86	1673.48
401.05	1755.40
401.24	1813.92
401.44	1809.23
401.63	1858.39
401.82	1823.28
402.01	1729.66
402.21	1820.94
402.40	1811.57
402.59	1722.63
402.78	1813.92
402.97	1797.53
403.17	1956.69
403.36	1851.36
403.55	1937.96
403.74	1865.41
403.93	1898.17
404.13	1886.47
404.32	1905.20
404.51	1895.83
404.70	2031.58
404.89	2017.54
405.09	2052.65
405.28	1959.03
405.47	2062.01
405.66	2073.71
405.85	2066.69
406.05	2115.84
406.24	1994.14
406.43	2047.97
406.62	2242.23
406.81	2253.94
407.00	2190.74
407.20	2115.84
407.39	2165.00
407.58	2197.76
407.77	2293.72
407.96	2160.31
408.15	2277.34
408.34	2307.77
408.54	2455.22
408.73	2326.49
408.92	2464.58
409.11	2427.14
409.30	2431.82
409.49	2359.26
409.68	2253.94
409.87	2377.98
410.07	2476.29
410.26	2340.54
410.45	2485.65
410.64	2555.86
410.83	2569.91
411.02	2593.31
411.21	2696.30
411.40	2565.23
411.59	2759.49
411.78	2715.02
411.98	2792.26
412.17	2869.50
412.36	2818.00
412.55	2801.62
412.74	2836.73
412.93	2780.56
413.12	2743.11
413.31	2904.60
413.50	2960.78
413.69	3005.25
413.88	3108.23
414.07	3047.38
414.26	3047.38
414.45	3110.57
414.64	2960.78
414.83	3234.62
415.02	3112.91
415.22	3126.96
415.41	3290.79
415.60	3353.99
415.79	3421.86
415.98	3314.20
416.17	3386.76
416.36	3330.58
416.55	3389.10
416.74	3407.82
416.93	3386.76
417.12	3574.00
417.31	3501.44
417.50	3480.38
417.69	3548.25
417.88	3590.38
418.07	3588.04
418.26	3634.85
418.45	3452.29
418.64	3775.28
418.83	3637.19
419.02	3599.74
419.21	3637.19
419.39	3758.90
419.58	3714.43
419.77	3574.00
419.96	3749.54
420.15	3822.09
420.34	3805.71
420.53	3885.29
420.72	4023.38
420.91	3885.29
421.10	3978.91
421.29	4025.72
421.48	3950.82
421.67	4252.75
421.86	3995.29
422.05	4051.47
422.24	3887.63
422.43	3960.19
422.61	4002.32
422.80	4063.17
422.99	4140.41
423.18	3983.59
423.37	3990.61
423.56	4177.86
423.75	4166.15
423.94	4124.02
424.13	3927.42
424.32	3953.16
424.50	4203.60
424.69	4135.73
424.88	4091.26
425.07	4067.85
425.26	3953.16
425.45	4166.15
425.64	3999.98
425.83	4119.34
426.01	4119.34
426.20	4140.41
426.39	4173.18
426.58	4119.34
426.77	4056.15
426.96	4189.56
427.15	4060.83
427.33	4229.35
427.52	4217.65
427.71	4297.22
427.90	4311.27
428.09	4437.66
428.28	4294.88
428.46	4322.97
428.65	4276.16
428.84	4353.40
429.03	4339.35
429.22	4351.06
429.40	4311.27
429.59	4159.13
429.78	4117.00
429.97	3892.31
430.16	4119.34
430.34	4217.65
430.53	4222.33
430.72	4386.16
430.91	4374.46
431.10	4608.51
431.28	4727.88
431.47	4788.74
431.66	4903.42
431.85	4652.98
432.03	4882.36
432.22	4849.59
432.41	4779.37
432.60	4706.82
432.79	4833.21
432.97	4903.42
433.16	4849.59
433.35	4814.48
433.54	4863.63
433.72	4924.49
433.91	4898.74
434.10	4882.36
434.28	4936.19
434.47	5076.62
434.66	5313.02
434.85	5327.06
435.03	5097.69
435.22	5125.77
435.41	5198.33
435.59	5135.14
435.78	5308.34
435.97	5329.40
436.16	5303.65
436.34	5394.93
436.53	5430.04
436.72	5371.53
436.90	5298.97
437.09	5455.79
437.28	5411.32
437.46	5390.25
437.65	5238.12
437.84	5404.30
438.02	5472.17
438.21	5387.91
438.40	5123.43
438.58	5521.32
438.77	5589.20
438.96	5621.97
439.14	5846.66
439.33	5776.44
439.52	5802.19
439.70	5851.34
439.89	5893.47
440.08	5858.36
440.26	5806.87
440.45	5874.74
440.63	6076.03
440.82	6101.78
441.01	6153.27
441.19	6340.51
441.38	6399.02
441.57	6246.89
441.75	6438.81
441.94	6417.75
442.12	6581.59
442.31	6691.59
442.50	6623.72
442.68	6588.61
442.87	6502.01
443.05	6583.93
443.24	6691.59
443.43	6476.26
443.61	6703.29
443.80	6801.60
443.98	6626.06
444.17	6478.60
444.35	6626.06
444.54	6846.07
444.73	6733.72
444.91	6747.76
445.10	6808.62
445.28	6719.68
445.47	6628.40
445.65	6705.63
445.84	6752.45
446.02	6878.83
446.21	6829.68
446.39	6794.58
446.58	6874.15
446.77	7030.97
446.95	6789.89
447.14	7012.24
447.32	6991.18
447.51	6883.52
447.69	6754.79
447.88	6885.86
448.06	7016.93
448.25	6949.05
448.43	7030.97
448.62	7119.91
448.80	6738.40
448.99	7126.93
449.17	7091.82
449.36	7037.99
449.54	7283.75
449.73	7293.11
449.91	7403.11
450.10	7403.11
450.28	7576.31
450.46	7595.04
450.65	7323.54
450.83	7470.99
451.02	7576.31
451.20	7492.05
451.39	7330.56
451.57	7445.24
451.76	7541.21
451.94	7557.59
452.13	7630.15
452.31	7473.33
452.49	7342.26
452.68	7360.98
452.86	7555.25
453.05	7632.49
453.23	7534.18
453.42	7740.15
453.60	7730.79
453.78	7571.63
453.97	7733.13
454.15	7765.90
454.34	7672.28
454.52	7761.22
454.70	7784.62
454.89	7868.88
455.07	7779.94
455.26	7868.88
455.44	8133.36
455.62	7976.55
455.81	8154.43
455.99	8140.38
456.17	7999.95
456.36	8318.26
456.54	8023.36
456.73	8292.52
456.91	8472.74
457.09	8503.17
457.28	8774.67
457.46	8278.47
457.64	8545.30
457.83	8437.63
458.01	8224.64
458.19	8617.85
458.38	8542.96
458.56	8638.92
458.74	8667.00
458.93	8526.57
459.11	8528.91
459.29	8538.27
459.48	8629.56
459.66	8681.05
459.84	8454.02
460.03	8737.22
460.21	8894.04
460.39	8667.00
460.57	8805.10
460.76	8695.09
460.94	8954.89
461.12	8847.22
461.31	8802.75
461.49	8947.87
461.67	8985.32
461.85	9261.50
462.04	9233.41
462.22	9652.37
462.40	9376.19
462.59	9296.61
462.77	9200.65
462.95	9383.21
463.13	9329.38
463.32	9060.21
463.50	9348.10
463.68	9343.42
463.86	9320.01
464.05	9305.97
464.23	9167.88
464.41	9371.50
464.59	9207.67
464.78	9619.60
464.96	9282.56
465.14	9441.72
465.32	9394.91
465.50	9605.56
465.69	9619.60
465.87	9338.74
466.05	9441.72
466.23	9427.68
466.41	9502.58
466.60	9699.18
466.78	9680.46
466.96	9610.24
467.14	9596.20
467.32	9783.44
467.51	9944.94
467.69	9481.51
467.87	9848.97
468.05	9900.47
468.23	9951.96
468.41	9954.30
468.60	9909.83
468.78	9994.09
468.96	9933.23
469.14	10064.30
469.32	10040.90
469.50	9703.86
469.69	9963.66
469.87	10375.59
470.05	10132.18
470.23	10134.52
470.41	10260.91
470.59	10228.14
470.77	10289.00
470.95	10214.10
471.14	10471.56
471.32	10328.78
471.50	10780.51
471.68	10743.06
471.86	10654.12
472.04	10724.33
472.22	11220.53
472.40	10452.83
472.58	10801.57
472.77	10827.32
472.95	11066.05
473.13	11323.51
473.31	10892.85
473.49	11016.90
473.67	11066.05
473.85	11187.76
474.03	11199.46
474.21	11494.37
474.39	11346.92
474.57	11393.73
474.75	11669.91
474.93	11735.45
475.12	11407.77
475.30	11669.91
475.48	11712.04
475.66	11730.76
475.84	11630.12
476.02	11932.05
476.20	11932.05
476.38	11910.99
476.56	12243.34
476.74	12168.45
476.92	12325.26
477.10	12374.41
477.28	12409.52
477.46	12589.74
477.64	12732.51
477.82	12915.08
478.00	13132.75
478.18	12952.52
478.36	13170.19
478.54	13116.36
478.72	13043.81
478.90	13273.18
479.08	13598.51
479.26	13371.48
479.44	13708.52
479.62	13586.81
479.80	13764.69
479.98	13982.36
480.16	14272.59
480.34	13998.74
480.52	14272.59
480.70	14434.08
480.88	14441.11
481.06	14342.80
481.24	14672.82
481.41	14810.91
481.59	14930.28
481.77	14965.39
481.95	15035.60
482.13	15059.01
482.31	15239.23
482.49	15508.39
482.67	15377.32
482.85	15506.05
483.03	15592.65
483.21	15611.37
483.39	15971.82
483.57	15887.56
483.74	16444.60
483.92	16105.23
484.10	16086.50
484.28	16482.05
484.46	16395.45
484.64	17003.99
484.82	16779.30
485.00	16807.39
485.18	16856.54
485.35	16877.60
485.53	16690.36
485.71	16758.24
485.89	16943.14
486.07	17109.32
486.25	17231.02
486.43	17315.28
486.61	17572.74
486.78	17954.25
486.96	17649.98
487.14	18286.61
487.32	18204.69
487.50	18607.26
487.68	18829.61
487.85	18642.37
488.03	19166.65
488.21	19232.18
488.39	19023.87
488.57	19180.69
488.75	19154.94
488.92	19917.96
489.10	20030.30
489.28	19960.09
489.46	20517.14
489.64	20411.81
489.81	20524.16
489.99	20732.47
490.17	20716.08
490.35	20954.82
490.53	20924.39
490.70	21277.81
490.88	21113.97
491.06	21575.06
491.24	21577.40
491.41	21518.89
491.59	21837.20
491.77	21537.61
491.95	21956.57
492.13	22040.82
492.30	22188.28
492.48	22487.87
492.66	22679.79
492.84	22436.38
493.01	22806.18
493.19	22679.79
493.37	23065.98
493.54	22852.99
493.72	23208.75
493.90	23178.33
494.08	24002.19
494.25	23971.77
494.43	24049.00
494.61	24173.05
494.79	24402.43
494.96	24224.54
495.14	24156.67
495.32	24673.93
495.49	24517.11
495.67	24830.74
495.85	24788.61
496.02	25149.06
496.20	25450.99
496.38	24971.18
496.55	25385.45
496.73	25823.13
496.91	25900.37
497.09	25771.64
497.26	25912.07
497.44	25734.19
497.62	26075.91
497.79	26368.48
497.97	25956.54
498.14	26174.21
498.32	25968.24
498.50	26740.62
498.67	26824.88
498.85	26972.33
499.03	26883.39
499.20	27056.59
499.38	27218.09
499.56	27391.29
499.73	27332.78
499.91	27517.68
500.08	27522.36
500.26	27115.11
500.44	27573.85
500.61	27501.29
500.79	27395.97
500.97	28182.39
501.14	28095.79
501.32	27756.41
501.49	28219.84
501.67	28308.78
501.84	28238.56
502.02	28725.39
502.20	28463.25
502.37	28610.71
502.55	28706.67
502.72	28980.51
502.90	29139.67
503.07	28765.18
503.25	29116.26
503.43	28840.08
503.60	29118.60
503.78	29055.41
503.95	29167.76
504.13	29266.06
504.30	29565.65
504.48	29546.92
504.65	29876.94
504.83	29694.38
505.01	30155.46
505.18	29783.32
505.36	30441.01
505.53	30508.88
505.71	30445.69
505.88	30881.03
506.06	30167.16
506.23	30560.37
506.41	30424.62
506.58	30930.18
506.76	30700.81
506.93	31175.94
507.11	30876.35
507.28	31124.44
507.46	30824.86
507.63	30918.48
507.81	31194.66
507.98	31012.10
508.16	31353.82
508.33	31445.10
508.50	31723.62
508.68	31496.59
508.85	31964.70
509.03	31854.69
509.20	31901.50
509.38	32114.49
509.55	32224.50
509.73	32264.28
509.90	32360.25
510.08	32243.22
510.25	32390.67
510.42	32907.93
510.60	32844.74
510.77	32746.44
510.95	33003.89
511.12	32933.68
511.30	33687.33
511.47	33212.20
511.64	32938.36
511.82	33436.89
511.99	32692.60
512.17	33464.98
512.34	33195.82
512.51	33483.70
512.69	33848.83
512.86	33567.96
513.04	33954.15
513.21	33827.76
513.38	33902.66
513.56	33675.63
513.73	33729.46
513.90	33926.07
514.08	34057.14
514.25	33914.36
514.43	34106.29
514.60	34223.31
514.77	34396.51
514.95	34623.54
515.12	34635.25
515.29	34635.25
515.47	35117.40
515.64	34857.60
515.81	34796.74
515.99	35026.12
516.16	34735.89
516.33	34536.94
516.51	34185.86
516.68	34195.23
516.85	34459.71
517.03	34763.98
517.20	34508.86
517.37	35285.92
517.54	35381.88
517.72	35559.76
517.89	34852.92
518.06	34799.08
518.24	34918.45
518.41	35241.45
518.58	35498.91
518.75	35108.04
518.93	35693.17
519.10	35831.26
519.27	35793.81
519.45	36336.82
519.62	36348.52
519.79	36086.38
519.96	36493.63
520.14	36556.83
520.31	36224.47
520.48	36217.45
520.65	36348.52
520.83	37132.60
521.00	36926.63
521.17	37048.34
521.34	37038.98
521.52	36950.04
521.69	36996.85
521.86	37090.47
522.03	37207.50
522.20	37427.51
522.38	37471.98
522.55	36919.61
522.72	37329.20
522.89	37247.29
523.07	37441.55
523.24	37586.66
523.41	38043.07
523.58	38218.61
523.75	38438.62
523.92	38103.92
524.10	38225.63
524.27	38352.02
524.44	38663.31
524.61	38450.32
524.78	38352.02
524.96	38698.42
525.13	38824.81
525.30	38546.28
525.47	38492.45
525.64	38906.73
525.81	38693.74
525.98	38316.91
526.16	38586.07
526.33	38129.67
526.50	38457.34
526.67	38199.88
526.84	38036.05
527.01	38794.38
527.18	38518.20
527.36	39000.35
527.53	39480.16
527.70	39421.64
527.87	39374.83
528.04	39349.09
528.21	39175.89
528.38	39391.22
528.55	39964.65
528.72	40285.30
528.89	39737.62
529.07	39604.20
529.24	39377.17
529.41	40271.26
529.58	39950.60
529.75	39716.55
529.92	40203.38
530.09	40250.19
530.26	40287.64
530.43	40313.39
530.60	40292.32
530.77	40203.38
530.94	40390.62
531.11	40329.77
531.28	40531.06
531.46	40535.74
531.63	40980.44
531.80	40390.62
531.97	40472.54
532.14	40645.74
532.31	39899.11
532.48	40371.90
532.65	40388.28
532.82	40748.73
532.99	40861.07
533.16	40725.32
533.33	41298.75
533.50	41069.38
533.67	41043.63
533.84	41116.19
534.01	41095.13
534.18	41322.16
534.35	41521.10
534.52	41111.51
534.69	41493.02
534.86	41265.99
535.03	41572.60
535.20	42103.90
535.37	41916.65
535.54	41787.92
535.71	41881.55
535.88	41717.71
536.05	41319.82
536.22	41759.84
536.38	41481.31
536.55	41811.33
536.72	41757.50
536.89	41387.69
537.06	42122.62
537.23	42031.34
537.40	42237.31
537.57	42087.51
537.74	42462.00
537.91	42309.86
538.08	42342.63
538.25	41986.87
538.42	42150.71
538.59	42405.83
538.75	41839.42
538.92	42497.11
539.09	42005.59
539.26	42450.30
539.43	42431.57
539.60	42237.31
539.77	42485.40
539.94	42061.77
540.11	42342.63
540.28	42349.65
540.44	42646.90
540.61	42464.34
540.78	42576.69
540.95	42515.83
541.12	42284.12
541.29	42628.18
541.46	42689.03
541.62	42777.97
541.79	42848.19
541.96	43028.41
542.13	42824.78
542.30	43112.67
542.47	42721.80
542.63	42756.91
542.80	42958.19
542.97	43222.67
543.14	43379.49
543.31	43913.13
543.48	43753.97
543.64	44210.38
543.81	43873.34
543.98	43751.63
544.15	43543.33
544.32	43981.01
544.48	44421.03
544.65	43999.73
544.82	43992.71
544.99	43878.02
545.16	43810.15
545.32	43934.20
545.49	44320.38
545.66	44751.04
545.83	44514.65
546.00	44411.67
546.16	44095.69
546.33	44238.47
546.50	43388.85
546.67	43913.13
546.83	43735.25
547.00	44512.31
547.17	44165.91
547.34	44165.91
547.50	44072.29
547.67	44626.99
547.84	43969.30
548.00	44472.52
548.17	44854.03
548.34	44533.37
548.51	44662.10
548.67	44690.19
548.84	44980.42
549.01	44699.55
549.18	44411.67
549.34	45200.43
549.51	44926.58
549.68	45174.68
549.84	44715.93
550.01	45216.81
550.18	44596.57
550.34	44935.95
550.51	44891.48
550.68	45006.16
550.84	44676.15
551.01	45106.80
551.18	45230.85
551.34	45120.85
551.51	45258.94
551.68	45235.53
551.84	45514.06
552.01	45415.76
552.18	45535.12
552.34	44809.56
552.51	45476.61
552.68	45443.84
552.84	45542.14
553.01	45418.10
553.18	45322.13
553.34	45521.08
553.51	45284.68
553.67	45467.25
553.84	45436.82
554.01	45605.34
554.17	45748.11
554.34	46085.15
554.51	45975.14
554.67	45949.40
554.84	45876.84
555.00	45560.87
555.17	45310.43
555.33	45958.76
555.50	45909.61
555.67	45523.42
555.83	45516.40
556.00	45736.41
556.16	46220.90
556.33	45703.64
556.50	45490.65
556.66	45883.86
556.83	45820.67
556.99	45794.92
557.16	46127.28
557.32	45544.48
557.49	45787.90
557.65	46202.18
557.82	45872.16
557.98	46567.30
558.15	45588.95
558.32	46061.74
558.48	45476.61
558.65	45780.88
558.81	45757.47
558.98	46176.43
559.14	45705.98
559.31	45839.39
559.47	45848.75
559.64	46155.36
559.80	45928.33
559.97	46232.60
560.13	45883.86
560.30	46178.77
560.46	46286.43
560.63	46199.83
560.79	46478.36
560.96	46630.49
561.12	46248.99
561.29	46412.82
561.45	46564.96
561.61	46459.63
561.78	46335.59
561.94	46052.38
562.11	46028.98
562.27	46113.23
562.44	46021.95
562.60	46724.11
562.77	46436.23
562.93	46181.11
563.10	46630.49
563.26	46108.55
563.42	46602.41
563.59	46342.61
563.75	46136.64
563.92	46672.62
564.08	46520.49
564.24	46733.48
564.41	46681.98
564.57	46803.69
564.74	46618.79
564.90	46429.21
565.07	46700.71
565.23	46422.19
565.39	46653.90
565.56	46707.73
565.72	46433.89
565.88	46445.59
566.05	46569.64
566.21	46391.76
566.38	46347.29
566.54	46670.28
566.70	46653.90
566.87	46724.11
567.03	46684.33
567.19	46873.91
567.36	47002.64
567.52	46838.80
567.68	46873.91
567.85	46424.53
568.01	47159.45
568.17	46490.06
568.34	46925.40
568.50	46918.38
568.66	46581.34
568.83	46712.41
568.99	46218.56
569.15	46543.89
569.32	46534.53
569.48	46796.67
569.64	46829.44
569.81	46663.26
569.97	46663.26
570.13	46494.74
570.30	46766.24
570.46	46150.68
570.62	46270.05
570.78	46707.73
570.95	46309.84
571.11	46794.33
571.27	46684.33
571.43	46782.63
571.60	46436.23
571.76	46756.88
571.92	46967.53
572.09	46962.85
572.25	46892.63
572.41	46761.56
572.57	47058.81
572.74	47084.56
572.90	46480.70
573.06	47171.16
573.22	46960.51
573.38	47143.07
573.55	46784.97
573.71	47157.11
573.87	46735.82
574.03	46745.18
574.20	46904.34
574.36	46712.41
574.52	46866.89
574.68	46782.63
574.84	47112.64
575.01	46461.97
575.17	46667.94
575.33	46670.28
575.49	46684.33
575.65	46724.11
575.82	46855.18
575.98	46377.72
576.14	46763.90
576.30	46934.76
576.46	46918.38
576.62	46738.16
576.79	47035.41
576.95	46740.50
577.11	46515.81
577.27	47227.33
577.43	46628.15
577.59	46555.60
577.75	46511.13
577.92	46274.73
578.08	46504.10
578.24	46660.92
578.40	46555.60
578.56	46834.12
578.72	47248.39
578.88	46909.02
579.04	47098.60
579.21	46806.03
579.37	47030.72
579.53	47070.51
579.69	46770.93
579.85	47093.92
580.01	46927.74
580.17	47103.28
580.33	46962.85
580.49	47023.70
580.65	47014.34
580.82	46810.71
580.98	47012.00
581.14	46817.74
581.30	46784.97
581.46	46845.82
581.62	46866.89
581.78	47133.71
581.94	47550.32
582.10	46990.94
582.26	47098.60
582.42	46990.94
582.58	47037.75
582.74	47047.11
582.90	47070.51
583.06	47304.57
583.22	46939.44
583.38	47494.15
583.54	47051.79
583.70	46796.67
583.86	47360.74
584.02	47215.63
584.18	47054.13
584.34	46981.57
584.50	47346.70
584.66	46852.84
584.82	46721.77
584.98	47468.40
585.14	47161.79
585.30	46684.33
585.46	46499.42
585.62	46794.33
585.78	46658.58
585.94	46988.60
586.10	47330.31
586.26	46897.31
586.42	47262.44
586.58	47430.96
586.74	47253.08
586.90	46923.06
587.06	46850.50
587.22	47002.64
587.38	46880.93
587.54	47138.39
587.70	47004.98
587.86	47072.85
588.02	46827.10
588.18	46941.78
588.34	46459.63
588.49	46246.65
588.65	45993.87
588.81	46562.62
588.97	46967.53
589.13	46438.57
589.29	46026.63
589.45	46733.48
589.61	46644.54
589.77	47012.00
589.93	46918.38
