SpectraSuite Data File
++++++++++++++++++++++++++++++++++++
Date: Fri Oct 25 10:43:27 EDT 2013
User: price-jones
Dark Spectrum Present: No
Reference Spectrum Present: No
Number of Sampled Component Spectra: 1
Spectrometers: USB2+H05261
Integration Time (usec): 100000 (USB2+H05261)
Spectra Averaged: 1 (USB2+H05261)
Boxcar Smoothing: 0 (USB2+H05261)
Correct for Electrical Dark: No (USB2+H05261)
Strobe/Lamp Enabled: No (USB2+H05261)
Correct for Detector Non-linearity: No (USB2+H05261)
Correct for Stray Light: No (USB2+H05261)
Number of Pixels in Processed Spectrum: 2048
>>>>>Begin Processed Spectral Data<<<<<
365.73	102.98
365.92	102.98
366.12	102.98
366.32	110.01
366.52	0.00
366.72	14.04
366.91	0.00
367.11	14.04
367.31	16.38
367.51	0.00
367.70	0.00
367.90	0.00
368.10	42.13
368.30	49.15
368.49	32.77
368.69	58.51
368.89	63.19
369.09	72.56
369.28	102.98
369.48	53.83
369.68	124.05
369.87	77.24
370.07	84.26
370.27	138.09
370.47	131.07
370.66	355.76
370.86	411.93
371.06	397.89
371.25	433.00
371.45	421.30
371.65	496.19
371.84	475.13
372.04	470.45
372.24	524.28
372.44	503.22
372.63	519.60
372.83	479.81
373.03	500.87
373.22	500.87
373.42	603.86
373.62	510.24
373.81	561.73
374.01	533.64
374.21	526.62
374.40	573.43
374.60	613.22
374.79	540.66
374.99	648.33
375.19	526.62
375.38	634.29
375.58	561.73
375.78	578.11
375.97	622.58
376.17	610.88
376.37	664.71
376.56	606.20
376.76	587.47
376.95	627.26
377.15	645.99
377.35	599.18
377.54	620.24
377.74	524.28
377.93	641.31
378.13	627.26
378.33	645.99
378.52	620.24
378.72	641.31
378.91	650.67
379.11	606.20
379.31	610.88
379.50	662.37
379.70	692.80
379.89	697.48
380.09	634.29
380.28	627.26
380.48	655.35
380.68	683.44
380.87	657.69
381.07	592.16
381.26	725.57
381.46	653.01
381.65	716.20
381.85	685.78
382.04	655.35
382.24	669.39
382.43	667.05
382.63	716.20
382.83	730.25
383.02	683.44
383.22	746.63
383.41	667.05
383.61	753.65
383.80	774.72
384.00	814.51
384.19	777.06
384.39	844.93
384.58	793.44
384.78	816.85
384.97	741.95
385.17	802.80
385.36	786.42
385.56	805.14
385.75	765.36
385.95	786.42
386.14	875.36
386.34	807.48
386.53	774.72
386.72	844.93
386.92	901.11
387.11	915.15
387.31	851.96
387.50	866.00
387.70	835.57
387.89	931.53
388.09	851.96
388.28	896.43
388.48	858.98
388.67	936.21
388.86	868.34
389.06	891.74
389.25	980.68
389.45	1046.22
389.64	957.28
389.84	990.05
390.03	983.02
390.22	950.26
390.42	961.96
390.61	936.21
390.81	983.02
391.00	1071.97
391.19	1034.52
391.39	933.87
391.58	1027.50
391.78	1060.26
391.97	990.05
392.16	952.60
392.36	1090.69
392.55	1057.92
392.75	968.98
392.94	1004.09
393.13	1011.11
393.33	992.39
393.52	1048.56
393.71	1055.58
393.91	1095.37
394.10	1104.73
394.29	1146.86
394.49	1121.12
394.68	1188.99
394.88	1137.50
395.07	1268.57
395.26	1214.74
395.46	1163.25
395.65	1137.50
395.84	1252.19
396.04	1170.27
396.23	1123.46
396.42	1144.52
396.62	1224.10
396.81	1210.06
397.00	1226.44
397.19	1252.19
397.39	1303.68
397.58	1357.51
397.77	1329.42
397.97	1394.96
398.16	1425.39
398.35	1519.01
398.55	1369.21
398.74	1418.36
398.93	1516.67
399.12	1488.58
399.32	1469.86
399.51	1519.01
399.70	1441.77
399.90	1446.45
400.09	1493.26
400.28	1514.33
400.47	1577.52
400.67	1598.59
400.86	1680.50
401.05	1647.74
401.24	1598.59
401.44	1643.06
401.63	1713.27
401.82	1717.95
402.01	1671.14
402.21	1830.30
402.40	1720.29
402.59	1762.42
402.78	1757.74
402.97	1785.83
403.17	1706.25
403.36	1750.72
403.55	1834.98
403.74	1820.94
403.93	1816.26
404.13	1856.04
404.32	1898.17
404.51	1842.00
404.70	1851.36
404.89	1863.07
405.09	1947.33
405.28	1888.81
405.47	1881.79
405.66	2022.22
405.85	2064.35
406.05	1994.14
406.24	1916.90
406.43	2148.61
406.62	2087.76
406.81	2106.48
407.00	2043.29
407.20	2008.18
407.39	2019.88
407.58	2132.23
407.77	2111.16
407.96	2155.63
408.15	2155.63
408.34	2244.57
408.54	2230.53
408.73	2221.17
408.92	2204.78
409.11	2319.47
409.30	2202.44
409.49	2153.29
409.68	2195.42
409.87	2129.89
410.07	2265.64
410.26	2303.09
410.45	2410.75
410.64	2347.56
410.83	2499.69
411.02	2427.14
411.21	2621.40
411.40	2562.89
411.59	2600.34
411.78	2553.52
411.98	2448.20
412.17	2672.89
412.36	2619.06
412.55	2729.06
412.74	2672.89
412.93	2733.75
413.12	2731.41
413.31	2970.14
413.50	2771.19
413.69	2841.41
413.88	2958.44
414.07	2810.98
414.26	2750.13
414.45	2820.35
414.64	3002.91
414.83	3023.97
415.02	3007.59
415.22	3115.25
415.41	3016.95
415.60	3180.79
415.79	3077.80
415.98	3105.89
416.17	3197.17
416.36	3141.00
416.55	3162.06
416.74	3253.34
416.93	3211.22
417.12	3150.36
417.31	3162.06
417.50	3176.11
417.69	3438.25
417.88	3515.48
418.07	3391.44
418.26	3321.22
418.45	3307.18
418.64	3513.14
418.83	3517.83
419.02	3403.14
419.21	3426.54
419.39	3445.27
419.58	3440.59
419.77	3569.32
419.96	3639.53
420.15	3688.68
420.34	3569.32
420.53	3688.68
420.72	3740.18
420.91	3768.26
421.10	3698.05
421.29	3824.44
421.48	3669.96
421.67	3836.14
421.86	3880.61
422.05	3714.43
422.24	3686.34
422.43	3742.52
422.61	3796.35
422.80	3946.14
422.99	3906.35
423.18	3861.88
423.37	3850.18
423.56	3899.33
423.75	3765.92
423.94	3845.50
424.13	3545.91
424.32	3737.84
424.50	3880.61
424.69	3845.50
424.88	3971.89
425.07	3833.80
425.26	3880.61
425.45	4067.85
425.64	3950.82
425.83	3880.61
426.01	3978.91
426.20	3911.04
426.39	4028.06
426.58	3801.03
426.77	3843.16
426.96	3927.42
427.15	4009.34
427.33	4105.30
427.52	4028.06
427.71	4142.75
427.90	3950.82
428.09	3978.91
428.28	3976.57
428.46	4142.75
428.65	4238.71
428.84	4215.30
429.03	4168.49
429.22	3943.80
429.40	4159.13
429.59	4058.49
429.78	3920.40
429.97	3871.25
430.16	3974.23
430.34	4009.34
430.53	4124.02
430.72	4056.15
430.91	4210.62
431.10	4241.05
431.28	4344.03
431.47	4461.06
431.66	4816.82
431.85	4634.26
432.03	4622.56
432.22	4601.49
432.41	4465.74
432.60	4564.04
432.79	4652.98
432.97	4610.86
433.16	4594.47
433.35	4542.98
433.54	4407.23
433.72	4688.09
433.91	4760.65
434.10	4634.26
434.28	4739.58
434.47	4711.50
434.66	4788.74
434.85	4999.38
435.03	4816.82
435.22	4931.51
435.41	4999.38
435.59	5046.20
435.78	5013.43
435.97	5142.16
436.16	4968.96
436.34	5069.60
436.53	5095.35
436.72	5163.22
436.90	5071.94
437.09	5177.26
437.28	4922.15
437.46	4931.51
437.65	5193.65
437.84	5224.08
438.02	4999.38
438.21	5156.20
438.40	4884.70
438.58	5153.86
438.77	5217.05
438.96	5448.77
439.14	5451.11
439.33	5593.88
439.52	5694.52
439.70	5509.62
439.89	5654.73
440.08	5598.56
440.26	5743.67
440.45	5621.97
440.63	5816.23
440.82	5935.60
441.01	5935.60
441.19	5933.26
441.38	6113.48
441.57	6188.38
441.75	6141.57
441.94	6256.25
442.12	6298.38
442.31	6307.74
442.50	6237.53
442.68	6190.72
442.87	6279.66
443.05	6228.17
443.24	6225.82
443.43	6417.75
443.61	6326.47
443.80	6633.08
443.98	6246.89
444.17	6153.27
444.35	6384.98
444.54	6619.04
444.73	6434.13
444.91	6413.07
445.10	6434.13
445.28	6434.13
445.47	6560.52
445.65	6312.42
445.84	6382.64
446.02	6513.71
446.21	6586.27
446.39	6494.99
446.58	6686.91
446.77	6590.95
446.95	6270.30
447.14	6715.00
447.32	6621.38
447.51	6691.59
447.69	6616.69
447.88	6555.84
448.06	6649.46
448.25	6530.09
448.43	6612.01
448.62	6698.61
448.80	6682.23
448.99	6778.19
449.17	6806.28
449.36	6801.60
449.54	6876.49
449.73	6988.84
449.91	7066.08
450.10	7052.03
450.28	7162.04
450.46	7108.21
450.65	7068.42
450.83	7117.57
451.02	7096.50
451.20	7176.08
451.39	7272.04
451.57	7073.10
451.76	7014.59
451.94	7115.23
452.13	7288.43
452.31	7087.14
452.49	6995.86
452.68	7138.63
452.86	7042.67
453.05	7309.49
453.23	7201.83
453.42	7307.15
453.60	7213.53
453.78	7262.68
453.97	7115.23
454.15	7339.92
454.34	7206.51
454.52	7403.11
454.70	7368.01
454.89	7470.99
455.07	7421.84
455.26	7405.46
455.44	7496.74
455.62	7702.70
455.81	7604.40
455.99	7545.89
456.17	7754.19
456.36	7573.97
456.54	7974.21
456.73	7847.82
456.91	8107.62
457.09	8112.30
457.28	8159.11
457.46	7772.92
457.64	8030.38
457.83	7939.10
458.01	7744.83
458.19	8269.11
458.38	7875.90
458.56	8121.66
458.74	8086.55
458.93	8266.77
459.11	8154.43
459.29	8124.00
459.48	8086.55
459.66	8056.12
459.84	8383.80
460.03	8505.51
460.21	8421.25
460.39	8540.61
460.57	8507.85
460.76	8395.50
460.94	8475.08
461.12	8505.51
461.31	8578.06
461.49	8369.76
461.67	8496.14
461.85	8875.31
462.04	8578.06
462.22	9123.41
462.40	8945.53
462.59	8631.90
462.77	8681.05
462.95	8793.39
463.13	8617.85
463.32	8940.85
463.50	8990.00
463.68	8971.27
463.86	9107.02
464.05	8762.97
464.23	8910.42
464.41	8987.66
464.59	8746.58
464.78	9029.79
464.96	9153.84
465.14	8947.87
465.32	9151.49
465.50	9198.31
465.69	9139.79
465.87	9020.42
466.05	9233.41
466.23	9137.45
466.41	9231.07
466.60	9198.31
466.78	8947.87
466.96	9135.11
467.14	9280.22
467.32	9123.41
467.51	9474.49
467.69	9041.49
467.87	9277.88
468.05	9500.23
468.23	9268.52
468.41	9423.00
468.60	9493.21
468.78	9645.35
468.96	9500.23
469.14	9441.72
469.32	9600.88
469.50	9385.55
469.69	9558.75
469.87	9717.90
470.05	9837.27
470.23	9734.29
470.41	9734.29
470.59	9954.30
470.77	9795.14
470.95	9788.12
471.14	9921.53
471.32	9827.91
471.50	10160.27
471.68	10108.77
471.86	10186.01
472.04	10450.49
472.22	10448.15
472.40	10204.74
472.58	10193.03
472.77	10324.10
472.95	10607.31
473.13	10658.80
473.31	10361.55
473.49	10391.98
473.67	10501.98
473.85	10553.48
474.03	10902.22
474.21	10839.02
474.39	10888.17
474.57	10890.51
474.75	11117.54
474.93	11087.12
475.12	11040.31
475.30	10995.84
475.48	10965.41
475.66	10799.23
475.84	11272.02
476.02	11272.02
476.20	11323.51
476.38	11410.11
476.56	11901.62
476.74	11669.91
476.92	11763.53
477.10	11723.74
477.28	11815.02
477.46	11852.47
477.64	12016.31
477.82	12290.15
478.00	12334.62
478.18	12379.09
478.36	12374.41
478.54	12400.16
478.72	12559.31
478.90	12720.81
479.08	12746.56
479.26	13062.53
479.44	12912.74
479.62	13207.64
479.80	13191.26
479.98	13165.51
480.16	13474.46
480.34	13254.45
480.52	13631.28
480.70	13495.53
480.88	13476.80
481.06	13617.24
481.24	13755.33
481.41	13907.46
481.59	14043.21
481.77	14202.37
481.95	14420.04
482.13	14473.87
482.31	14403.66
482.49	14553.45
482.67	14663.46
482.85	14679.84
483.03	15084.75
483.21	14927.94
483.39	15269.66
483.57	15035.60
483.74	15126.88
483.92	15578.61
484.10	15328.17
484.28	15611.37
484.46	15805.64
484.64	15896.92
484.82	15990.54
485.00	16027.99
485.18	16250.34
485.35	16009.26
485.53	16212.89
485.71	15936.71
485.89	16428.22
486.07	16280.77
486.25	16503.12
486.43	16739.51
486.61	16718.45
486.78	17001.65
486.96	17064.85
487.14	17357.41
487.32	17516.57
487.50	17907.44
487.68	17942.55
487.85	18064.25
488.03	18441.08
488.21	18384.91
488.39	18366.18
488.57	18403.63
488.75	18492.57
488.92	18789.82
489.10	19349.21
489.28	19396.02
489.46	19342.19
489.64	19358.57
489.81	19906.26
489.99	20107.54
490.17	19978.81
490.35	20109.88
490.53	20091.16
490.70	20039.67
490.88	20500.75
491.06	20624.80
491.24	20357.98
491.41	20388.41
491.59	20554.58
491.77	20456.28
491.95	20847.15
492.13	21020.35
492.30	21106.95
492.48	21305.90
492.66	21535.27
492.84	21387.82
493.01	21905.07
493.19	21642.93
493.37	22017.42
493.54	21855.92
493.72	22324.03
493.90	22284.24
494.08	22539.36
494.25	22824.90
494.43	22911.50
494.61	22815.54
494.79	23115.13
494.96	23044.91
495.14	23171.30
495.32	23236.84
495.49	23456.85
495.67	23644.09
495.85	23637.07
496.02	24074.75
496.20	23651.11
496.38	24023.26
496.55	24292.42
496.73	24762.87
496.91	24573.28
497.09	24711.38
497.26	24826.06
497.44	24753.51
497.62	25118.63
497.79	25116.29
497.97	24620.10
498.14	24968.84
498.32	25097.56
498.50	25521.20
498.67	25642.91
498.85	25661.63
499.03	25874.62
499.20	26106.34
499.38	25923.77
499.56	25750.57
499.73	26015.05
499.91	26075.91
500.08	26391.88
500.26	26036.12
500.44	26246.77
500.61	26466.78
500.79	26181.23
500.97	26415.29
501.14	26401.24
501.32	26876.37
501.49	26628.27
501.67	26768.71
501.84	26920.84
502.02	27065.96
502.20	27227.45
502.37	27784.50
502.55	27344.48
502.72	27693.22
502.90	27559.81
503.07	27562.15
503.25	28016.21
503.43	27859.40
503.60	27768.12
503.78	27985.79
503.95	27859.40
504.13	28325.16
504.30	28409.42
504.48	28559.22
504.65	28170.69
504.83	28507.72
505.01	28737.10
505.18	28692.63
505.36	29167.76
505.53	28875.19
505.71	28849.44
505.88	29219.25
506.06	29060.09
506.23	29277.76
506.41	29266.06
506.58	29748.21
506.76	29567.99
506.93	29450.96
507.11	29738.85
507.28	29589.05
507.46	29347.98
507.63	29745.87
507.81	29818.42
507.98	29949.50
508.16	29734.17
508.33	30066.52
508.50	30424.62
508.68	30380.15
508.85	30740.60
509.03	30670.38
509.20	30714.85
509.38	30951.24
509.55	31091.68
509.73	31187.64
509.90	30899.75
510.08	30796.77
510.25	31194.66
510.42	31234.45
510.60	31346.79
510.77	31585.53
510.95	31487.23
511.12	31672.13
511.30	31391.26
511.47	32041.93
511.64	31901.50
511.82	32215.13
511.99	31761.07
512.17	31707.24
512.34	31964.70
512.51	31976.40
512.69	32613.02
512.86	32102.79
513.04	32507.70
513.21	32158.96
513.38	32306.41
513.56	32421.10
513.73	32367.27
513.90	32849.42
514.08	32549.83
514.25	32430.46
514.43	33113.90
514.60	32584.94
514.77	32950.06
514.95	33057.73
515.12	33125.60
515.29	33046.02
515.47	33668.61
515.64	33645.20
515.81	33411.15
515.99	33722.44
516.16	33631.16
516.33	33177.09
516.51	33572.64
516.68	32872.82
516.85	32870.48
517.03	33242.63
517.20	33876.91
517.37	33504.77
517.54	34253.74
517.72	33722.44
517.89	33380.72
518.06	33771.59
518.24	33905.00
518.41	34087.56
518.58	33968.19
518.75	33963.51
518.93	34562.69
519.10	34469.07
519.27	34501.84
519.45	34822.49
519.62	34679.72
519.79	34555.67
519.96	35236.77
520.14	35009.73
520.31	34747.59
520.48	35344.43
520.65	34834.19
520.83	35477.84
521.00	35381.88
521.17	35201.66
521.34	35585.50
521.52	35784.45
521.69	35880.41
521.86	36070.00
522.03	36102.76
522.20	35611.25
522.38	35749.34
522.55	35917.86
522.72	35901.48
522.89	35674.45
523.07	36163.62
523.24	36222.13
523.41	36556.83
523.58	36568.53
523.75	37015.57
523.92	36444.48
524.10	36458.52
524.27	36704.28
524.44	36811.95
524.61	37134.94
524.78	36545.12
524.96	37088.13
525.13	37383.04
525.30	37427.51
525.47	37050.68
525.64	37076.43
525.81	37230.90
525.98	37174.73
526.16	36491.29
526.33	36938.33
526.50	37354.95
526.67	37146.64
526.84	37055.36
527.01	37144.30
527.18	37364.31
527.36	37586.66
527.53	37603.05
527.70	38197.54
527.87	37752.84
528.04	38029.02
528.21	38270.10
528.38	38007.96
528.55	38513.52
528.72	38295.85
528.89	38593.09
529.07	38644.59
529.24	38389.47
529.41	38342.66
529.58	38082.86
529.75	38667.99
529.92	38869.28
530.09	38583.73
530.26	38576.71
530.43	39133.76
530.60	38897.36
530.77	38623.52
530.94	39014.39
531.11	38986.30
531.28	38817.78
531.46	38841.19
531.63	39543.35
531.80	38794.38
531.97	38941.83
532.14	38763.95
532.31	38780.34
532.48	38965.24
532.65	39040.14
532.82	39257.81
532.99	39267.17
533.16	39014.39
533.33	39213.34
533.50	39761.02
533.67	39470.79
533.84	39196.95
534.01	39372.49
534.18	39629.95
534.35	40076.99
534.52	39552.71
534.69	40631.70
534.86	39852.30
535.03	39646.33
535.20	40472.54
535.37	40388.28
535.54	40215.08
535.71	40304.02
535.88	40287.64
536.05	40376.58
536.22	40449.14
536.38	40687.87
536.55	40165.93
536.72	40121.46
536.89	39889.75
537.06	40142.53
537.23	40622.34
537.40	41015.55
537.57	40720.64
537.74	40636.38
537.91	40919.59
538.08	40453.82
538.25	40552.12
538.42	40830.65
538.59	40835.33
538.75	40669.15
538.92	40914.90
539.09	40664.47
539.26	40924.27
539.43	41268.33
539.60	41132.57
539.77	41029.59
539.94	40917.25
540.11	40942.99
540.28	41469.61
540.44	40994.48
540.61	41095.13
540.78	40851.71
540.95	40861.07
541.12	41163.00
541.29	41249.60
541.46	41315.14
541.62	41097.47
541.79	41467.27
541.96	40919.59
542.13	41291.73
542.30	41441.53
542.47	41645.15
542.63	41797.29
542.80	41996.23
542.97	42181.13
543.14	42230.29
543.31	42031.34
543.48	42232.63
543.64	42120.28
543.81	42359.02
543.98	42223.26
544.15	42471.36
544.32	42649.24
544.48	43002.66
544.65	42178.79
544.82	42677.33
544.99	42314.55
545.16	42124.96
545.32	42611.79
545.49	42707.76
545.66	42997.98
545.83	42726.48
546.00	42792.01
546.16	42672.65
546.33	42394.12
546.50	42993.30
546.67	43299.91
546.83	42576.69
547.00	42593.07
547.17	42260.71
547.34	42841.17
547.50	42768.61
547.67	43079.90
547.84	42614.13
548.00	43339.70
548.17	43077.56
548.34	43309.27
548.51	43583.12
548.67	43358.42
548.84	43639.29
549.01	43012.02
549.18	43058.84
549.34	43400.55
549.51	44020.80
549.68	43573.75
549.84	43175.86
550.01	43756.32
550.18	43540.99
550.34	43430.98
550.51	43339.70
550.68	43196.93
550.84	42855.21
551.01	43552.69
551.18	43660.35
551.34	43669.72
551.51	43489.49
551.68	43730.57
551.84	43739.93
552.01	43793.76
552.18	43821.85
552.34	43100.97
552.51	43608.86
552.68	43714.19
552.84	44062.93
553.01	44044.20
553.18	43763.34
553.34	44079.31
553.51	43852.28
553.67	43997.39
553.84	44329.75
554.01	44549.76
554.17	44257.19
554.34	44591.89
554.51	44753.38
554.67	44435.07
554.84	44203.36
555.00	43966.96
555.17	43952.92
555.33	44547.42
555.50	44416.35
555.67	43978.67
555.83	44266.55
556.00	44421.03
556.16	44737.00
556.33	44240.81
556.50	44308.68
556.66	44430.39
556.83	43742.27
556.99	44556.78
557.16	44512.31
557.32	44575.50
557.49	44722.96
557.65	44825.94
557.82	44577.84
557.98	45031.91
558.15	44811.90
558.32	44896.16
558.48	44313.36
558.65	44498.26
558.81	44378.90
558.98	44584.86
559.14	44751.04
559.31	44870.41
559.47	44631.68
559.64	44582.52
559.80	45017.86
559.97	44725.30
560.13	44886.79
560.30	44652.74
560.46	44800.19
560.63	45275.32
560.79	45102.12
560.96	45209.79
561.12	44701.89
561.29	44252.51
561.45	45179.36
561.61	44556.78
561.78	44807.22
561.94	44704.23
562.11	45055.31
562.27	44737.00
562.44	44985.10
562.60	45228.51
562.77	45013.18
562.93	45134.89
563.10	45467.25
563.26	45191.06
563.42	45064.67
563.59	45186.38
563.75	44966.37
563.92	45268.30
564.08	44865.73
564.24	45500.01
564.41	44992.12
564.57	45205.11
564.74	45258.94
564.90	44870.41
565.07	45216.81
565.23	45368.94
565.39	45223.83
565.56	45130.21
565.72	45036.59
565.88	45338.52
566.05	44830.62
566.21	44996.80
566.38	45027.23
566.54	45567.89
566.70	45684.92
566.87	45652.15
567.03	45511.72
567.19	45570.23
567.36	45064.67
567.52	45488.31
567.68	45249.58
567.85	45010.84
568.01	45776.20
568.17	45691.94
568.34	45401.71
568.50	45258.94
568.66	45268.30
568.83	45640.45
568.99	44891.48
569.15	45621.72
569.32	45495.33
569.48	45478.95
569.64	45708.32
569.81	45415.76
569.97	45883.86
570.13	45170.00
570.30	44987.44
570.46	44790.83
570.62	44912.54
570.78	44982.76
570.95	44727.64
571.11	45191.06
571.27	45277.66
571.43	44905.52
571.60	45228.51
571.76	45830.03
571.92	45338.52
572.09	45256.60
572.25	45736.41
572.41	45815.99
572.57	45783.22
572.74	45907.27
572.90	45668.53
573.06	45872.16
573.22	46160.05
573.38	45563.21
573.55	45511.72
573.71	45680.24
573.87	45485.97
574.03	45378.31
574.20	45937.69
574.36	45195.74
574.52	45574.91
574.68	45270.64
574.84	45574.91
575.01	45673.21
575.17	45663.85
575.33	45659.17
575.49	45603.00
575.65	45808.96
575.82	45216.81
575.98	45436.82
576.14	45904.93
576.30	45502.35
576.46	45902.59
576.62	45537.46
576.79	45495.33
576.95	45397.03
577.11	45621.72
577.27	45553.85
577.43	45467.25
577.59	45324.47
577.75	45308.09
577.92	45017.86
578.08	45343.20
578.24	45734.07
578.40	45792.58
578.56	45427.46
578.72	45539.80
578.88	45979.82
579.04	45593.64
579.21	45677.90
579.37	45925.99
579.53	45858.12
579.69	45172.34
579.85	45399.37
580.01	45869.82
580.17	45443.84
580.33	45485.97
580.49	45265.96
580.65	45329.16
580.82	45808.96
580.98	45691.94
581.14	45542.14
581.30	45598.32
581.46	45682.58
581.62	45708.32
581.78	45570.23
581.94	46129.62
582.10	45759.81
582.26	45879.18
582.42	45478.95
582.58	45673.21
582.74	45722.37
582.90	45897.91
583.06	45593.64
583.22	46122.60
583.38	46031.32
583.54	46204.52
583.70	45689.60
583.86	45755.13
584.02	45848.75
584.18	45937.69
584.34	46302.82
584.50	46010.25
584.66	46314.52
584.82	45691.94
584.98	45879.18
585.14	45935.35
585.30	45558.53
585.46	45497.67
585.62	45701.30
585.78	45652.15
585.94	45322.13
586.10	45301.07
586.26	45132.55
586.42	46050.04
586.58	46134.30
586.74	45724.71
586.90	45680.24
587.06	45656.83
587.22	45827.69
587.38	45539.80
587.54	46157.70
587.70	45741.09
587.86	45940.04
588.02	45727.05
588.18	45443.84
588.34	46071.10
588.49	45289.37
588.65	44989.78
588.81	45462.57
588.97	45633.42
589.13	45598.32
589.29	45242.56
589.45	45411.07
589.61	45799.60
589.77	45626.40
589.93	45989.19
590.08	46230.26
