SpectraSuite Data File
++++++++++++++++++++++++++++++++++++
Date: Fri Oct 25 11:34:22 EDT 2013
User: price-jones
Dark Spectrum Present: No
Reference Spectrum Present: No
Number of Sampled Component Spectra: 1
Spectrometers: USB2+H05261
Integration Time (usec): 100000 (USB2+H05261)
Spectra Averaged: 1 (USB2+H05261)
Boxcar Smoothing: 0 (USB2+H05261)
Correct for Electrical Dark: No (USB2+H05261)
Strobe/Lamp Enabled: No (USB2+H05261)
Correct for Detector Non-linearity: No (USB2+H05261)
Correct for Stray Light: No (USB2+H05261)
Number of Pixels in Processed Spectrum: 2048
>>>>>Begin Processed Spectral Data<<<<<
365.73	241.08
365.92	241.08
366.12	241.08
366.32	161.50
366.52	201.29
366.72	173.20
366.91	161.50
367.11	166.18
367.31	222.35
367.51	170.86
367.70	159.16
367.90	210.65
368.10	210.65
368.30	175.54
368.49	114.69
368.69	128.73
368.89	154.48
369.09	182.56
369.28	196.60
369.48	231.71
369.68	194.26
369.87	273.84
370.07	255.12
370.27	306.61
370.47	327.68
370.66	411.93
370.86	526.62
371.06	547.69
371.25	589.82
371.45	512.58
371.65	510.24
371.84	561.73
372.04	491.51
372.24	559.39
372.44	568.75
372.63	493.85
372.83	578.11
373.03	634.29
373.22	582.79
373.42	592.16
373.62	585.13
373.81	575.77
374.01	573.43
374.21	620.24
374.40	589.82
374.60	631.94
374.79	664.71
374.99	645.99
375.19	601.52
375.38	638.97
375.58	664.71
375.78	638.97
375.97	653.01
376.17	692.80
376.37	636.63
376.56	662.37
376.76	660.03
376.95	575.77
377.15	671.73
377.35	641.31
377.54	690.46
377.74	704.50
377.93	716.20
378.13	697.48
378.33	763.01
378.52	662.37
378.72	746.63
378.91	739.61
379.11	730.25
379.31	706.84
379.50	678.76
379.70	763.01
379.89	667.05
380.09	732.59
380.28	781.74
380.48	755.99
380.68	702.16
380.87	699.82
381.07	725.57
381.26	800.46
381.46	793.44
381.65	760.67
381.85	795.78
382.04	718.54
382.24	788.76
382.43	844.93
382.63	770.04
382.83	779.40
383.02	842.59
383.22	819.19
383.41	777.06
383.61	866.00
383.80	795.78
384.00	748.97
384.19	819.19
384.39	758.33
384.58	809.83
384.78	814.51
384.97	840.25
385.17	774.72
385.36	844.93
385.56	842.59
385.75	753.65
385.95	727.91
386.14	861.32
386.34	833.23
386.53	835.57
386.72	784.08
386.92	863.66
387.11	795.78
387.31	800.46
387.50	784.08
387.70	863.66
387.89	809.83
388.09	947.92
388.28	912.81
388.48	851.96
388.67	919.83
388.86	901.11
389.06	901.11
389.25	912.81
389.45	856.64
389.64	894.08
389.84	952.60
390.03	863.66
390.22	950.26
390.42	940.90
390.61	880.04
390.81	922.17
391.00	943.24
391.19	866.00
391.39	901.11
391.58	1008.77
391.78	957.28
391.97	971.32
392.16	1039.20
392.36	1043.88
392.55	990.05
392.75	1041.54
392.94	1034.52
393.13	957.28
393.33	1004.09
393.52	1071.97
393.71	1078.99
393.91	1076.65
394.10	994.73
394.29	1090.69
394.49	1118.78
394.68	1137.50
394.88	1041.54
395.07	1076.65
395.26	1174.95
395.46	1001.75
395.65	1158.57
395.84	1137.50
396.04	1132.82
396.23	1247.51
396.42	1146.86
396.62	1174.95
396.81	1158.57
397.00	1188.99
397.19	1095.37
397.39	1167.93
397.58	1291.98
397.77	1121.12
397.97	1247.51
398.16	1233.46
398.35	1224.10
398.55	1167.93
398.74	1203.04
398.93	1416.02
399.12	1249.85
399.32	1310.70
399.51	1247.51
399.70	1359.85
399.90	1350.49
400.09	1270.91
400.28	1345.81
400.47	1359.85
400.67	1385.60
400.86	1373.89
401.05	1406.66
401.24	1409.00
401.44	1341.13
401.63	1383.26
401.82	1329.42
402.01	1483.90
402.21	1387.94
402.40	1378.58
402.59	1387.94
402.78	1507.30
402.97	1427.73
403.17	1488.58
403.36	1537.73
403.55	1591.56
403.74	1455.81
403.93	1533.05
404.13	1652.42
404.32	1544.75
404.51	1516.67
404.70	1584.54
404.89	1600.93
405.09	1598.59
405.28	1528.37
405.47	1610.29
405.66	1619.65
405.85	1689.87
406.05	1563.48
406.24	1678.16
406.43	1671.14
406.62	1685.19
406.81	1720.29
407.00	1785.83
407.20	1678.16
407.39	1741.36
407.58	1739.02
407.77	1820.94
407.96	1816.26
408.15	1849.02
408.34	1853.70
408.54	1825.62
408.73	1834.98
408.92	1893.49
409.11	1874.77
409.30	1797.53
409.49	1963.71
409.68	1818.60
409.87	1956.69
410.07	1940.30
410.26	2010.52
410.45	2045.63
410.64	1937.96
410.83	2059.67
411.02	1961.37
411.21	2127.55
411.40	2033.93
411.59	2040.95
411.78	2186.06
411.98	2242.23
412.17	2143.93
412.36	2193.08
412.55	2183.72
412.74	2232.87
412.93	2211.81
413.12	2207.13
413.31	2260.96
413.50	2300.75
413.69	2333.51
413.88	2399.05
414.07	2410.75
414.26	2324.15
414.45	2375.64
414.64	2413.09
414.83	2485.65
415.02	2459.90
415.22	2572.25
415.41	2506.71
415.60	2558.21
415.79	2502.03
415.98	2593.31
416.17	2635.44
416.36	2619.06
416.55	2736.09
416.74	2745.45
416.93	2743.11
417.12	2722.04
417.31	2818.00
417.50	2916.31
417.69	2998.23
417.88	2745.45
418.07	2813.32
418.26	2909.29
418.45	2949.08
418.64	3082.49
418.83	2995.89
419.02	2871.84
419.21	2864.82
419.39	2963.12
419.58	3033.33
419.77	2965.46
419.96	3105.89
420.15	3007.59
420.34	3143.34
420.53	3068.44
420.72	3012.27
420.91	3204.19
421.10	3119.93
421.29	3131.64
421.48	3084.83
421.67	3185.47
421.86	3141.00
422.05	3258.03
422.24	3269.73
422.43	3368.03
422.61	3197.17
422.80	3342.28
422.99	3311.86
423.18	3290.79
423.37	3393.78
423.56	3283.77
423.75	3288.45
423.94	3208.87
424.13	3061.42
424.32	3110.57
424.50	3297.81
424.69	3391.44
424.88	3468.67
425.07	3428.88
425.26	3400.80
425.45	3295.47
425.64	3400.80
425.83	3239.30
426.01	3384.41
426.20	3323.56
426.39	3300.16
426.58	3358.67
426.77	3403.14
426.96	3311.86
427.15	3520.17
427.33	3475.70
427.52	3471.01
427.71	3440.59
427.90	3447.61
428.09	3456.97
428.28	3522.51
428.46	3679.32
428.65	3578.68
428.84	3669.96
429.03	3632.51
429.22	3508.46
429.40	3782.31
429.59	3517.83
429.78	3442.93
429.97	3468.67
430.16	3555.27
430.34	3740.18
430.53	3758.90
430.72	3726.13
430.91	3726.13
431.10	3730.81
431.28	3808.05
431.47	3964.87
431.66	3880.61
431.85	3693.37
432.03	3852.52
432.22	3885.29
432.41	3873.59
432.60	3866.56
432.79	3995.29
432.97	3925.08
433.16	3915.72
433.35	3969.55
433.54	3990.61
433.72	4032.74
433.91	3997.64
434.10	4023.38
434.28	4119.34
434.47	4028.06
434.66	4023.38
434.85	4191.90
435.03	4004.66
435.22	4348.72
435.41	4264.46
435.59	4257.43
435.78	4262.12
435.97	4212.96
436.16	4102.96
436.34	4266.80
436.53	4320.63
436.72	4313.61
436.90	4168.49
437.09	4425.95
437.28	4217.65
437.46	4465.74
437.65	4475.10
437.84	4493.83
438.02	4456.38
438.21	4524.26
438.40	4358.08
438.58	4482.13
438.77	4475.10
438.96	4521.92
439.14	4582.77
439.33	4578.09
439.52	4643.62
439.70	4812.14
439.89	4877.68
440.08	4898.74
440.26	4978.32
440.45	4854.27
440.63	4931.51
440.82	5132.79
441.01	4905.76
441.19	5130.45
441.38	5032.15
441.57	5100.03
441.75	5036.83
441.94	5362.17
442.12	5100.03
442.31	5210.03
442.50	5282.59
442.68	5256.84
442.87	5263.86
443.05	5437.06
443.24	5303.65
443.43	5167.90
443.61	5423.02
443.80	5626.65
443.98	5195.99
444.17	5172.58
444.35	5490.90
444.54	5528.35
444.73	5345.78
444.91	5383.23
445.10	5497.92
445.28	5467.49
445.47	5392.59
445.65	5418.34
445.84	5472.17
446.02	5774.10
446.21	5479.19
446.39	5544.73
446.58	5437.06
446.77	5481.53
446.95	5233.44
447.14	5418.34
447.32	5446.43
447.51	5558.77
447.69	5460.47
447.88	5628.99
448.06	5617.29
448.25	5687.50
448.43	5603.24
448.62	5729.63
448.80	5507.28
448.99	5713.25
449.17	5699.20
449.36	5621.97
449.54	5846.66
449.73	5802.19
449.91	5825.59
450.10	5811.55
450.28	5879.43
450.46	5902.83
450.65	5837.30
450.83	5991.77
451.02	6010.50
451.20	6066.67
451.39	5902.83
451.57	6146.25
451.76	5886.45
451.94	5872.40
452.13	6005.81
452.31	6017.52
452.49	6024.54
452.68	6085.39
452.86	5968.37
453.05	6069.01
453.23	6104.12
453.42	6225.82
453.60	6092.41
453.78	6099.44
453.97	6139.23
454.15	6260.93
454.34	6202.42
454.52	6455.20
454.70	6202.42
454.89	6169.65
455.07	6380.30
455.26	6590.95
455.44	6417.75
455.62	6356.90
455.81	6333.49
455.99	6494.99
456.17	6471.58
456.36	6562.86
456.54	6607.33
456.73	6537.12
456.91	6806.28
457.09	6759.47
457.28	6885.86
457.46	6707.98
457.64	6813.30
457.83	6717.34
458.01	6628.40
458.19	6892.88
458.38	6677.55
458.56	6923.30
458.74	6792.23
458.93	6881.18
459.11	6920.96
459.29	6878.83
459.48	7037.99
459.66	7068.42
459.84	6953.73
460.03	7258.00
460.21	7140.97
460.39	7094.16
460.57	7262.68
460.76	7283.75
460.94	7098.84
461.12	7180.76
461.31	7323.54
461.49	7260.34
461.67	6993.52
461.85	7314.17
462.04	7414.82
462.22	8011.65
462.40	7522.48
462.59	7276.73
462.77	7569.29
462.95	7410.14
463.13	7534.18
463.32	7613.76
463.50	7473.33
463.68	7478.01
463.86	7634.83
464.05	7522.48
464.23	7655.89
464.41	7541.21
464.59	7494.40
464.78	7779.94
464.96	7735.47
465.14	7559.93
465.32	7889.95
465.50	7831.43
465.69	7915.69
465.87	7639.51
466.05	8021.02
466.23	7892.29
466.41	7880.58
466.60	7857.18
466.78	7983.57
466.96	7747.17
467.14	7971.86
467.32	7974.21
467.51	7934.42
467.69	7798.66
467.87	8023.36
468.05	7981.23
468.23	7950.80
468.41	8154.43
468.60	7829.09
468.78	8217.62
468.96	8222.30
469.14	8067.83
469.32	8397.84
469.50	8252.73
469.69	8147.40
469.87	8407.20
470.05	8442.31
470.23	8465.72
470.41	8528.91
470.59	8531.25
470.77	8430.61
470.95	8617.85
471.14	8498.49
471.32	8624.87
471.50	8702.11
471.68	8624.87
471.86	8723.18
472.04	8931.48
472.22	9011.06
472.40	8875.31
472.58	8868.29
472.77	9102.34
472.95	8954.89
473.13	9336.40
473.31	8950.21
473.49	9004.04
473.67	9041.49
473.85	9238.09
474.03	9392.57
474.21	9423.00
474.39	9481.51
474.57	9633.64
474.75	9373.85
474.93	9502.58
475.12	9572.79
475.30	9856.00
475.48	9607.90
475.66	9944.94
475.84	9565.77
476.02	9898.13
476.20	9671.09
476.38	10052.60
476.56	10331.12
476.74	10181.33
476.92	10040.90
477.10	10061.96
477.28	10200.05
477.46	10331.12
477.64	10319.42
477.82	10527.73
478.00	10703.27
478.18	10513.69
478.36	10611.99
478.54	10815.62
478.72	10871.79
478.90	10963.07
479.08	11272.02
479.26	11213.51
479.44	11044.99
479.62	11332.87
479.80	11398.41
479.98	11307.13
480.16	11925.03
480.34	11407.77
480.52	11887.58
480.70	11749.49
480.88	11763.53
481.06	11679.27
481.24	11822.05
481.41	12070.14
481.59	12243.34
481.77	12140.36
481.95	12453.99
482.13	12765.28
482.31	12411.86
482.49	12730.17
482.67	12910.40
482.85	12863.58
483.03	12996.99
483.21	12943.16
483.39	13277.86
483.57	13380.84
483.74	13516.59
483.92	13406.59
484.10	13261.48
484.28	13724.90
484.46	14003.43
484.64	14162.58
484.82	13947.25
485.00	14113.43
485.18	14345.14
485.35	14420.04
485.53	14436.42
485.71	14480.89
485.89	14841.34
486.07	14937.30
486.25	14827.29
486.43	15075.39
486.61	15028.58
486.78	15152.63
486.96	15332.85
487.14	15328.17
487.32	15576.27
487.50	15466.26
487.68	16013.95
487.85	16053.73
488.03	16119.27
488.21	16519.50
488.39	16187.14
488.57	16229.27
488.75	16460.99
488.92	16814.41
489.10	16769.94
489.28	16617.80
489.46	17221.66
489.64	17050.80
489.81	17394.86
489.99	17532.95
490.17	17397.20
490.35	17577.42
490.53	17731.90
490.70	18218.73
490.88	17975.31
491.06	18071.28
491.24	17933.18
491.41	18118.09
491.59	18396.61
491.77	18239.79
491.95	18515.98
492.13	18874.08
492.30	18974.72
492.48	19185.37
492.66	19384.32
492.84	19164.31
493.01	19199.41
493.19	19435.81
493.37	19775.19
493.54	19482.62
493.72	19721.35
493.90	19723.69
494.08	20212.87
494.25	20102.86
494.43	19838.38
494.61	20428.20
494.79	20400.11
494.96	20177.76
495.14	20964.18
495.32	20819.07
495.49	20842.47
495.67	20706.72
495.85	21270.79
496.02	21106.95
496.20	21497.82
496.38	21359.73
496.55	21659.32
496.73	21926.14
496.91	21680.38
497.09	22036.14
497.26	22104.02
497.44	21984.65
497.62	22167.21
497.79	22581.49
497.97	22274.88
498.14	22574.47
498.32	22398.93
498.50	22649.36
498.67	23208.75
498.85	22820.22
499.03	22958.31
499.20	22944.27
499.38	23065.98
499.56	23360.89
499.73	23784.52
499.91	23723.67
500.08	23470.89
500.26	23775.16
500.44	23604.30
500.61	23880.49
500.79	23768.14
500.97	24374.34
501.14	24222.20
501.32	24025.60
501.49	24350.93
501.67	24046.66
501.84	24460.94
502.02	24404.77
502.20	24517.11
502.37	24645.84
502.55	24842.45
502.72	24758.19
502.90	24936.07
503.07	24463.28
503.25	25039.05
503.43	24872.87
503.60	25319.92
503.78	25558.65
503.95	25450.99
504.13	25546.95
504.30	25647.59
504.48	25565.67
504.65	26132.08
504.83	26092.29
505.01	25626.53
505.18	25912.07
505.36	26335.71
505.53	26356.77
505.71	26059.52
505.88	26295.92
506.06	26375.50
506.23	26661.04
506.41	26539.33
506.58	26658.70
506.76	26656.36
506.93	26480.82
507.11	26712.53
507.28	27124.47
507.46	27077.66
507.63	27061.27
507.81	27133.83
507.98	27243.84
508.16	27508.32
508.33	27182.98
508.50	27578.53
508.68	27854.72
508.85	27821.95
509.03	27828.97
509.20	27941.32
509.38	28250.27
509.55	27936.63
509.73	28046.64
509.90	28283.03
510.08	28261.97
510.25	28077.07
510.42	28163.67
510.60	28357.93
510.77	28697.31
510.95	28507.72
511.12	29116.26
511.30	29001.58
511.47	29109.24
511.64	28936.04
511.82	29008.60
511.99	28851.78
512.17	28978.17
512.34	29032.00
512.51	29486.07
512.69	29682.67
512.86	29474.37
513.04	29764.59
513.21	29823.11
513.38	29888.64
513.56	30082.91
513.73	29809.06
513.90	29963.54
514.08	30096.95
514.25	30118.01
514.43	30204.61
514.60	30253.76
514.77	30543.99
514.95	30408.24
515.12	30586.12
515.29	30401.22
515.47	30857.62
515.64	30960.61
515.81	30305.26
515.99	30630.59
516.16	30953.58
516.33	31299.98
516.51	31257.85
516.68	30834.22
516.85	30993.37
517.03	31007.42
517.20	31124.44
517.37	31751.71
517.54	31580.85
517.72	31545.74
517.89	32027.89
518.06	32095.77
518.24	31599.57
518.41	32016.19
518.58	31742.35
518.75	31503.61
518.93	31901.50
519.10	32055.98
519.27	32107.47
519.45	32109.81
519.62	32304.07
519.79	32580.26
519.96	32526.42
520.14	32451.53
520.31	32191.73
520.48	32514.72
520.65	32725.37
520.83	32788.56
521.00	32870.48
521.17	33069.43
521.34	32666.86
521.52	33144.33
521.69	33221.56
521.86	33350.29
522.03	33359.66
522.20	33525.83
522.38	33572.64
522.55	33551.58
522.72	33596.05
522.89	33574.98
523.07	34305.23
523.24	33584.35
523.41	33851.17
523.58	33682.65
523.75	33790.31
523.92	34033.73
524.10	33907.34
524.27	34588.44
524.44	34174.16
524.61	34525.24
524.78	34459.71
524.96	34677.38
525.13	34506.52
525.30	34656.31
525.47	35037.82
525.64	34237.36
525.81	35407.62
525.98	34717.17
526.16	34682.06
526.33	35084.63
526.50	35229.74
526.67	35000.37
526.84	34756.96
527.01	35098.67
527.18	35133.78
527.36	35129.10
527.53	35601.89
527.70	35747.00
527.87	35639.34
528.04	35578.48
528.21	35519.97
528.38	35594.87
528.55	35679.13
528.72	35669.76
528.89	35896.80
529.07	35854.67
529.24	35653.38
529.41	35480.18
529.58	36093.40
529.75	35840.62
529.92	35931.90
530.09	36030.21
530.26	36311.07
530.43	36453.84
530.60	36091.06
530.77	36222.13
530.94	36397.67
531.11	36273.62
531.28	36470.23
531.46	36706.62
531.63	36795.56
531.80	36704.28
531.97	36765.14
532.14	36961.74
532.31	36685.56
532.48	37104.51
532.65	37146.64
532.82	36828.33
532.99	37034.30
533.16	37046.00
533.33	37186.43
533.50	37123.24
533.67	37490.70
533.84	36865.78
534.01	37301.12
534.18	37586.66
534.35	37663.90
534.52	37193.45
534.69	37720.07
534.86	38249.03
535.03	37820.72
535.20	37640.50
535.37	37855.82
535.54	38050.09
535.71	37935.40
535.88	38244.35
536.05	37874.55
536.22	37921.36
536.38	38122.65
536.55	37991.58
536.72	38375.42
536.89	38253.72
537.06	38452.66
537.23	38567.35
537.40	38272.44
537.57	38492.45
537.74	38494.79
537.91	38352.02
538.08	38405.85
538.25	38103.92
538.42	38773.31
538.59	39049.50
538.75	38302.87
538.92	39042.48
539.09	39030.77
539.26	38693.74
539.43	38923.11
539.60	39086.95
539.77	39082.27
539.94	39075.24
540.11	39037.80
540.28	39012.05
540.44	38944.17
540.61	38710.12
540.78	38817.78
540.95	39552.71
541.12	39208.65
541.29	39311.64
541.46	39299.94
541.62	39299.94
541.79	39660.38
541.96	39133.76
542.13	39260.15
542.30	39948.26
542.47	39615.91
542.63	39363.13
542.80	40051.25
542.97	40495.95
543.14	40268.92
543.31	40102.74
543.48	40442.12
543.64	40629.36
543.81	40657.45
543.98	40301.68
544.15	40023.16
544.32	40847.03
544.48	40645.74
544.65	40512.33
544.82	40610.64
544.99	40495.95
545.16	40893.84
545.32	40954.69
545.49	40994.48
545.66	41284.71
545.83	40896.18
546.00	41242.58
546.16	41031.93
546.33	40832.99
546.50	40825.96
546.67	40945.33
546.83	40793.20
547.00	40767.45
547.17	40634.04
547.34	41261.30
547.50	41312.80
547.67	41584.30
547.84	41198.11
548.00	41322.16
548.17	41813.67
548.34	42127.30
548.51	41846.44
548.67	41661.54
548.84	41474.29
549.01	41542.17
549.18	41876.86
549.34	41659.20
549.51	42043.04
549.68	41930.70
549.84	41832.39
550.01	41535.15
550.18	41471.95
550.34	41872.18
550.51	41996.23
550.68	42291.14
550.84	41226.20
551.01	42447.96
551.18	41727.07
551.34	41928.36
551.51	42213.90
551.68	42052.41
551.84	42232.63
552.01	41923.68
552.18	42459.66
552.34	42408.17
552.51	42462.00
552.68	42209.22
552.84	42176.45
553.01	42438.59
553.18	42162.41
553.34	42298.16
553.51	41813.67
553.67	42436.25
553.84	42782.65
554.01	42492.43
554.17	42281.78
554.34	42586.05
554.51	42717.12
554.67	43122.03
554.84	42941.81
555.00	43070.54
555.17	42777.97
555.33	42892.66
555.50	42424.55
555.67	42724.14
555.83	43072.88
556.00	43023.73
556.16	43309.27
556.33	43199.27
556.50	42967.55
556.66	43503.54
556.83	43365.45
556.99	43217.99
557.16	43828.87
557.32	43503.54
557.49	43625.25
557.65	43292.89
557.82	43288.21
557.98	43611.20
558.15	43608.86
558.32	43693.12
558.48	43136.07
558.65	42904.36
558.81	43484.81
558.98	43639.29
559.14	43489.49
559.31	43524.60
559.47	43679.08
559.64	43501.20
559.80	43629.93
559.97	43779.72
560.13	43805.47
560.30	43576.09
560.46	43882.70
560.63	43601.84
560.79	43915.47
560.96	43723.55
561.12	43810.15
561.29	43878.02
561.45	44186.97
561.61	44292.30
561.78	43646.31
561.94	43903.77
562.11	44247.83
562.27	43922.49
562.44	44032.50
562.60	43686.10
562.77	44320.38
562.93	44304.00
563.10	44346.13
563.26	43990.37
563.42	44739.34
563.59	43606.52
563.75	43915.47
563.92	44446.77
564.08	44421.03
564.24	44301.66
564.41	44004.41
564.57	44545.08
564.74	44783.81
564.90	43863.98
565.07	43999.73
565.23	44076.97
565.39	44191.65
565.56	45113.83
565.72	44409.32
565.88	44240.81
566.05	44383.58
566.21	44636.36
566.38	44280.60
566.54	44788.49
566.70	44910.20
566.87	44786.15
567.03	44397.62
567.19	44547.42
567.36	44680.83
567.52	44594.23
567.68	45076.38
567.85	45069.36
568.01	44795.51
568.17	44648.06
568.34	45139.57
568.50	44624.65
568.66	44353.15
568.83	44921.90
568.99	44502.95
569.15	44144.84
569.32	44531.03
569.48	44704.23
569.64	45081.06
569.81	44893.82
569.97	44898.50
570.13	44856.37
570.30	44463.16
570.46	44732.32
570.62	44748.70
570.78	45247.24
570.95	44687.85
571.11	44966.37
571.27	44699.55
571.43	44921.90
571.60	45429.80
571.76	44854.03
571.92	44910.20
572.09	45017.86
572.25	44851.69
572.41	45340.86
572.57	44708.91
572.74	45502.35
572.90	45411.07
573.06	45422.78
573.22	44980.42
573.38	45261.28
573.55	44816.58
573.71	45530.44
573.87	45104.46
574.03	45303.41
574.20	44942.97
574.36	44882.11
574.52	45151.27
574.68	45792.58
574.84	45069.36
575.01	45226.17
575.17	45406.39
575.33	45301.07
575.49	45181.70
575.65	45221.49
575.82	45202.77
575.98	45287.03
576.14	45593.64
576.30	45542.14
576.46	45050.63
576.62	45574.91
576.79	45022.54
576.95	45022.54
577.11	45001.48
577.27	45184.04
577.43	45684.92
577.59	45265.96
577.75	45029.57
577.92	44891.48
578.08	45340.86
578.24	45605.34
578.40	45467.25
578.56	45574.91
578.72	45277.66
578.88	45045.95
579.04	45247.24
579.21	45312.77
579.37	45254.26
579.53	45542.14
579.69	45069.36
579.85	45111.49
580.01	45584.27
580.17	45347.88
580.33	45565.55
580.49	45450.86
580.65	45345.54
580.82	45172.34
580.98	45689.60
581.14	45359.58
581.30	45670.87
581.46	45483.63
581.62	45661.51
581.78	45565.55
581.94	45865.14
582.10	45574.91
582.26	46026.63
582.42	45581.93
582.58	45972.80
582.74	45415.76
582.90	45511.72
583.06	45689.60
583.22	45270.64
583.38	45427.46
583.54	45373.63
583.70	46019.61
583.86	45823.01
584.02	45577.25
584.18	46148.34
584.34	45752.79
584.50	45996.21
584.66	45654.49
584.82	45380.65
584.98	46131.96
585.14	46017.27
585.30	45937.69
585.46	45478.95
585.62	45956.42
585.78	45488.31
585.94	45280.00
586.10	45633.42
586.26	45422.78
586.42	45556.19
586.58	45914.29
586.74	45408.73
586.90	45521.08
587.06	45783.22
587.22	45923.65
587.38	45408.73
587.54	45663.85
587.70	46197.49
587.86	45698.96
588.02	45778.54
588.18	45542.14
588.34	45584.27
588.49	45624.06
588.65	45652.15
588.81	46059.40
588.97	45783.22
589.13	45787.90
589.29	45855.78
589.45	46073.45
589.61	45708.32
589.77	45593.64
589.93	45743.43
590.08	45874.50
