SpectraSuite Data File
++++++++++++++++++++++++++++++++++++
Date: Fri Oct 25 10:47:24 EDT 2013
User: price-jones
Dark Spectrum Present: No
Reference Spectrum Present: No
Number of Sampled Component Spectra: 1
Spectrometers: USB2+H05261
Integration Time (usec): 100000 (USB2+H05261)
Spectra Averaged: 1 (USB2+H05261)
Boxcar Smoothing: 0 (USB2+H05261)
Correct for Electrical Dark: No (USB2+H05261)
Strobe/Lamp Enabled: No (USB2+H05261)
Correct for Detector Non-linearity: No (USB2+H05261)
Correct for Stray Light: No (USB2+H05261)
Number of Pixels in Processed Spectrum: 2048
>>>>>Begin Processed Spectral Data<<<<<
365.73	170.86
365.92	170.86
366.12	170.86
366.32	67.88
366.52	18.72
366.72	42.13
366.91	4.68
367.11	63.19
367.31	16.38
367.51	4.68
367.70	0.00
367.90	39.79
368.10	49.15
368.30	93.62
368.49	53.83
368.69	95.96
368.89	0.00
369.09	32.77
369.28	147.45
369.48	25.75
369.68	102.98
369.87	58.51
370.07	117.03
370.27	142.77
370.47	140.43
370.66	379.17
370.86	404.91
371.06	442.36
371.25	484.49
371.45	463.43
371.65	465.77
371.84	479.81
372.04	493.85
372.24	475.13
372.44	500.87
372.63	517.26
372.83	418.96
373.03	437.68
373.22	421.30
373.42	486.83
373.62	484.49
373.81	491.51
374.01	451.72
374.21	552.37
374.40	512.58
374.60	547.69
374.79	552.37
374.99	622.58
375.19	543.00
375.38	507.90
375.58	568.75
375.78	585.13
375.97	559.39
376.17	627.26
376.37	535.98
376.56	547.69
376.76	573.43
376.95	606.20
377.15	601.52
377.35	580.45
377.54	606.20
377.74	594.50
377.93	594.50
378.13	641.31
378.33	685.78
378.52	543.00
378.72	561.73
378.91	690.46
379.11	624.92
379.31	634.29
379.50	636.63
379.70	638.97
379.89	664.71
380.09	685.78
380.28	636.63
380.48	667.05
380.68	636.63
380.87	648.33
381.07	587.47
381.26	713.86
381.46	697.48
381.65	606.20
381.85	669.39
382.04	660.03
382.24	671.73
382.43	650.67
382.63	676.41
382.83	697.48
383.02	744.29
383.22	667.05
383.41	648.33
383.61	674.07
383.80	716.20
384.00	683.44
384.19	720.88
384.39	702.16
384.58	779.40
384.78	737.27
384.97	795.78
385.17	781.74
385.36	624.92
385.56	760.67
385.75	695.14
385.95	833.23
386.14	746.63
386.34	798.12
386.53	758.33
386.72	842.59
386.92	795.78
387.11	781.74
387.31	814.51
387.50	781.74
387.70	847.27
387.89	767.70
388.09	814.51
388.28	739.61
388.48	805.14
388.67	880.04
388.86	880.04
389.06	929.19
389.25	915.15
389.45	929.19
389.64	905.79
389.84	908.13
390.03	863.66
390.22	894.08
390.42	915.15
390.61	917.49
390.81	976.00
391.00	917.49
391.19	964.30
391.39	964.30
391.58	990.05
391.78	954.94
391.97	1006.43
392.16	1006.43
392.36	1088.35
392.55	997.07
392.75	924.51
392.94	947.92
393.13	961.96
393.33	945.58
393.52	1060.26
393.71	961.96
393.91	999.41
394.10	1069.62
394.29	1060.26
394.49	1041.54
394.68	1198.35
394.88	1050.90
395.07	1226.44
395.26	1088.35
395.46	1125.80
395.65	1224.10
395.84	1156.22
396.04	1184.31
396.23	1242.82
396.42	1137.50
396.62	1188.99
396.81	1109.41
397.00	1125.80
397.19	1142.18
397.39	1177.29
397.58	1303.68
397.77	1259.21
397.97	1303.68
398.16	1345.81
398.35	1275.59
398.55	1259.21
398.74	1336.45
398.93	1401.98
399.12	1366.87
399.32	1273.25
399.51	1303.68
399.70	1334.11
399.90	1394.96
400.09	1423.05
400.28	1423.05
400.47	1364.53
400.67	1453.47
400.86	1390.28
401.05	1453.47
401.24	1563.48
401.44	1507.30
401.63	1411.34
401.82	1500.28
402.01	1437.09
402.21	1504.96
402.40	1563.48
402.59	1603.27
402.78	1516.67
402.97	1535.39
403.17	1563.48
403.36	1593.90
403.55	1563.48
403.74	1565.82
403.93	1685.19
404.13	1701.57
404.32	1547.09
404.51	1612.63
404.70	1743.70
404.89	1699.23
405.09	1703.91
405.28	1694.55
405.47	1647.74
405.66	1797.53
405.85	1806.89
406.05	1769.44
406.24	1884.13
406.43	1884.13
406.62	1944.99
406.81	1942.64
407.00	1860.73
407.20	1884.13
407.39	1842.00
407.58	1907.54
407.77	1867.75
407.96	1996.48
408.15	2026.90
408.34	1961.37
408.54	2005.84
408.73	1956.69
408.92	2118.18
409.11	2085.42
409.30	2008.18
409.49	2127.55
409.68	1956.69
409.87	2031.58
410.07	2069.03
410.26	2118.18
410.45	1989.46
410.64	2106.48
410.83	2228.19
411.02	2122.87
411.21	2335.85
411.40	2310.11
411.59	2331.17
411.78	2359.26
411.98	2190.74
412.17	2317.13
412.36	2373.30
412.55	2392.03
412.74	2469.27
412.93	2448.20
413.12	2441.18
413.31	2450.54
413.50	2504.37
413.69	2527.78
413.88	2708.00
414.07	2705.66
414.26	2640.12
414.45	2684.59
414.64	2663.53
414.83	2649.49
415.02	2789.92
415.22	2705.66
415.41	2810.98
415.60	2658.85
415.79	2808.64
415.98	2825.03
416.17	2972.48
416.36	2944.39
416.55	2738.43
416.74	2932.69
416.93	2909.29
417.12	2942.05
417.31	2946.73
417.50	2944.39
417.69	3115.25
417.88	3073.12
418.07	3042.70
418.26	3094.19
418.45	3066.10
418.64	3145.68
418.83	3243.98
419.02	3122.27
419.21	3321.22
419.39	3255.69
419.58	3124.62
419.77	3201.85
419.96	3265.05
420.15	3297.81
420.34	3227.60
420.53	3407.82
420.72	3417.18
420.91	3398.46
421.10	3510.80
421.29	3426.54
421.48	3461.65
421.67	3515.48
421.86	3393.78
422.05	3503.78
422.24	3410.16
422.43	3555.27
422.61	3583.36
422.80	3442.93
422.99	3520.17
423.18	3447.61
423.37	3487.40
423.56	3555.27
423.75	3412.50
423.94	3534.21
424.13	3279.09
424.32	3309.52
424.50	3716.77
424.69	3648.90
424.88	3571.66
425.07	3510.80
425.26	3471.01
425.45	3637.19
425.64	3538.89
425.83	3611.45
426.01	3606.77
426.20	3583.36
426.39	3564.64
426.58	3681.66
426.77	3538.89
426.96	3667.62
427.15	3728.47
427.33	3520.17
427.52	3686.34
427.71	3679.32
427.90	3761.24
428.09	3808.05
428.28	3698.05
428.46	3775.28
428.65	3763.58
428.84	3908.69
429.03	3826.78
429.22	3646.55
429.40	3744.86
429.59	3861.88
429.78	3714.43
429.97	3506.12
430.16	3747.20
430.34	3861.88
430.53	3864.22
430.72	3857.20
430.91	3805.71
431.10	3899.33
431.28	4039.76
431.47	4060.83
431.66	4320.63
431.85	4170.83
432.03	4290.20
432.22	4383.82
432.41	4311.27
432.60	4236.37
432.79	4135.73
432.97	4208.28
433.16	4224.67
433.35	4168.49
433.54	4306.59
433.72	4297.22
433.91	4205.94
434.10	4287.86
434.28	4276.16
434.47	4374.46
434.66	4571.07
434.85	4353.40
435.03	4308.93
435.22	4365.10
435.41	4550.00
435.59	4470.42
435.78	4571.07
435.97	4636.60
436.16	4503.19
436.34	4692.77
436.53	4580.43
436.72	4678.73
436.90	4512.55
437.09	4706.82
437.28	4681.07
437.46	4711.50
437.65	4667.03
437.84	4723.20
438.02	4734.90
438.21	4716.18
438.40	4643.62
438.58	4751.29
438.77	5004.07
438.96	4943.21
439.14	4891.72
439.33	5071.94
439.52	5078.96
439.70	4973.64
439.89	5254.50
440.08	5130.45
440.26	5240.46
440.45	5259.18
440.63	5191.31
440.82	5411.32
441.01	5231.10
441.19	5502.60
441.38	5294.29
441.57	5472.17
441.75	5596.22
441.94	5762.40
442.12	5568.13
442.31	5659.42
442.50	5673.46
442.68	5731.97
442.87	5685.16
443.05	5696.86
443.24	5820.91
443.43	5685.16
443.61	5746.02
443.80	5975.39
443.98	5640.69
444.17	5600.90
444.35	5820.91
444.54	5961.34
444.73	5926.24
444.91	6008.16
445.10	5771.76
445.28	5825.59
445.47	5746.02
445.65	5813.89
445.84	5933.26
446.02	5893.47
446.21	5867.72
446.39	5731.97
446.58	5898.15
446.77	6040.92
446.95	5949.64
447.14	6059.65
447.32	6003.47
447.51	6017.52
447.69	6120.50
447.88	5902.83
448.06	5949.64
448.25	6141.57
448.43	6066.67
448.62	6012.84
448.80	5980.07
448.99	6111.14
449.17	6019.86
449.36	6134.54
449.54	6162.63
449.73	6298.38
449.91	6289.02
450.10	6370.94
450.28	6469.24
450.46	6473.92
450.65	6370.94
450.83	6310.08
451.02	6452.86
451.20	6445.84
451.39	6567.54
451.57	6443.49
451.76	6359.24
451.94	6534.78
452.13	6579.25
452.31	6340.51
452.49	6347.53
452.68	6452.86
452.86	6612.01
453.05	6579.25
453.23	6640.10
453.42	6574.56
453.60	6399.02
453.78	6593.29
453.97	6600.31
454.15	6883.52
454.34	6738.40
454.52	6876.49
454.70	6843.73
454.89	6808.62
455.07	6785.21
455.26	6899.90
455.44	6813.30
455.62	7094.16
455.81	6993.52
455.99	6883.52
456.17	6937.35
456.36	7133.95
456.54	7087.14
456.73	7073.10
456.91	7283.75
457.09	7316.51
457.28	7466.31
457.46	7281.41
457.64	7454.61
457.83	7243.96
458.01	7232.26
458.19	7470.99
458.38	7428.86
458.56	7527.16
458.74	7520.14
458.93	7454.61
459.11	7269.70
459.29	7641.85
459.48	7609.08
459.66	7496.74
459.84	7536.52
460.03	7674.62
460.21	7730.79
460.39	7578.65
460.57	7644.19
460.76	7700.36
460.94	7735.47
461.12	7801.01
461.31	7716.75
461.49	7901.65
461.67	7716.75
461.85	7981.23
462.04	7913.35
462.22	8379.12
462.40	8315.92
462.59	8070.17
462.77	7969.52
462.95	8102.93
463.13	8283.16
463.32	7983.57
463.50	8119.32
463.68	8191.88
463.86	8166.13
464.05	7887.61
464.23	8168.47
464.41	8170.81
464.59	8114.64
464.78	8430.61
464.96	8346.35
465.14	8219.96
465.32	8294.86
465.50	8297.20
465.69	8344.01
465.87	8124.00
466.05	8341.67
466.23	8306.56
466.41	8287.84
466.60	8500.83
466.78	8458.70
466.96	8332.31
467.14	8444.65
467.32	8648.28
467.51	8737.22
467.69	8374.44
467.87	8432.95
468.05	8711.47
468.23	8339.33
468.41	8606.15
468.60	8568.70
468.78	8634.24
468.96	8777.01
469.14	8732.54
469.32	8769.99
469.50	8652.96
469.69	8730.20
469.87	8952.55
470.05	8919.78
470.23	9067.24
470.41	8950.21
470.59	8826.16
470.77	8901.06
470.95	9069.58
471.14	9139.79
471.32	8872.97
471.50	9397.25
471.68	9287.25
471.86	9221.71
472.04	9401.93
472.22	9696.84
472.40	9317.67
472.58	9303.63
472.77	9533.00
472.95	9628.96
473.13	9680.46
473.31	9689.82
473.49	9767.06
473.67	9640.67
473.85	9652.37
474.03	9830.25
474.21	10026.86
474.39	10097.07
474.57	10099.41
474.75	10382.62
474.93	10169.63
475.12	10047.92
475.30	10146.22
475.48	10284.31
475.66	10333.47
475.84	10125.16
476.02	10361.55
476.20	10574.54
476.38	10607.31
476.56	10726.68
476.74	10867.11
476.92	10930.30
477.10	10736.04
477.28	11073.07
477.46	11044.99
477.64	11239.25
477.82	11318.83
478.00	11356.28
478.18	11461.60
478.36	11473.31
478.54	11520.12
478.72	11573.95
478.90	11730.76
479.08	11805.66
479.26	11960.14
479.44	11934.39
479.62	11992.90
479.80	12308.88
479.98	12091.21
480.16	12416.54
480.34	12264.41
480.52	12432.93
480.70	12512.50
480.88	12311.22
481.06	12561.66
481.24	12758.26
481.41	13036.78
481.59	13181.90
481.77	13018.06
481.95	13249.77
482.13	13191.26
482.31	13228.71
482.49	13481.49
482.67	13614.90
482.85	13694.47
483.03	13900.44
483.21	13893.42
483.39	13792.78
483.57	14001.08
483.74	14279.61
483.92	14293.65
484.10	14169.60
484.28	14595.58
484.46	14604.94
484.64	15070.71
484.82	14853.04
485.00	14895.17
485.18	15119.86
485.35	15042.62
485.53	14874.10
485.71	14846.02
485.89	15150.29
486.07	15449.88
486.25	15557.54
486.43	15548.18
486.61	15992.88
486.78	15967.13
486.96	16039.69
487.14	16163.74
487.32	16407.16
487.50	16627.17
487.68	16702.06
487.85	17071.87
488.03	16929.09
488.21	16982.93
488.39	16854.20
488.57	17242.73
488.75	17462.74
488.92	17495.50
489.10	17900.42
489.28	17837.22
489.46	18066.60
489.64	18321.71
489.81	18225.75
489.99	18621.30
490.17	18450.44
490.35	18799.18
490.53	18597.90
490.70	19101.11
490.88	18941.96
491.06	19021.53
491.24	19154.94
491.41	19126.86
491.59	19234.52
491.77	19300.06
491.95	19580.92
492.13	19896.89
492.30	19969.45
492.48	19859.45
492.66	19915.62
492.84	20264.36
493.01	20423.51
493.19	20355.64
493.37	20400.11
493.54	20849.49
493.72	20678.63
493.90	20702.04
494.08	21043.76
494.25	21130.36
494.43	21411.22
494.61	21563.36
494.79	21553.99
494.96	21432.29
495.14	21818.47
495.32	21727.19
495.49	21963.59
495.67	22171.89
495.85	22057.21
496.02	22270.20
496.20	22192.96
496.38	22457.44
496.55	22742.99
496.73	23185.35
496.91	22602.55
497.09	22838.95
497.26	22925.55
497.44	23119.81
497.62	23293.01
497.79	23396.00
497.97	23253.22
498.14	23665.16
498.32	23669.84
498.50	23601.96
498.67	23608.98
498.85	24161.35
499.03	24285.40
499.20	23955.38
499.38	24484.34
499.56	24196.46
499.73	24535.84
499.91	24650.52
500.08	24687.97
500.26	24556.90
500.44	24847.13
500.61	24781.59
500.79	24912.66
500.97	24863.51
501.14	25013.31
501.32	25392.47
501.49	25291.83
501.67	25399.49
501.84	25472.05
502.02	25893.35
502.20	25752.91
502.37	25752.91
502.55	26029.10
502.72	25773.98
502.90	26019.74
503.07	25769.30
503.25	26192.94
503.43	25781.00
503.60	26059.52
503.78	26253.79
503.95	26401.24
504.13	26649.34
504.30	26625.93
504.48	26572.10
504.65	26752.32
504.83	27117.45
505.01	26988.72
505.18	26972.33
505.36	27541.08
505.53	27367.88
505.71	27798.54
505.88	27967.06
506.06	27405.33
506.23	27363.20
506.41	27459.16
506.58	27358.52
506.76	27646.41
506.93	27789.18
507.11	27908.55
507.28	28247.93
507.46	27997.49
507.63	27974.08
507.81	28357.93
507.98	27943.66
508.16	28470.28
508.33	28379.00
508.50	28826.04
508.68	28388.36
508.85	29263.72
509.03	29127.97
509.20	28833.06
509.38	29132.65
509.55	29083.50
509.73	29092.86
509.90	29221.59
510.08	29067.11
510.25	29032.00
510.42	29343.30
510.60	29736.51
510.77	29390.11
510.95	30129.72
511.12	29364.36
511.30	29687.36
511.47	30363.77
511.64	30000.99
511.82	30389.52
511.99	29841.83
512.17	30586.12
512.34	30230.36
512.51	30267.81
512.69	30876.35
512.86	30429.30
513.04	30789.75
513.21	30590.80
513.38	30824.86
513.56	30778.04
513.73	30340.36
513.90	30995.71
514.08	31136.15
514.25	30967.63
514.43	30876.35
514.60	31152.53
514.77	31021.46
514.95	31615.96
515.12	31236.79
515.29	31580.85
515.47	32009.17
515.64	32098.11
515.81	31377.22
515.99	31498.93
516.16	31653.40
516.33	31693.19
516.51	31887.46
516.68	31587.87
516.85	31562.12
517.03	31878.10
517.20	32137.90
517.37	31873.42
517.54	32315.78
517.72	32318.12
517.89	32208.11
518.06	32531.11
518.24	31952.99
518.41	32606.00
518.58	32453.87
518.75	32414.08
518.93	32606.00
519.10	32720.69
519.27	32664.52
519.45	32929.00
519.62	33230.93
519.79	33649.88
519.96	32945.38
520.14	33654.56
520.31	32898.57
520.48	33574.98
520.65	33537.54
520.83	33113.90
521.00	34094.58
521.17	33464.98
521.34	33661.58
521.52	33963.51
521.69	33865.21
521.86	34078.20
522.03	33717.76
522.20	33919.04
522.38	34323.96
522.55	34253.74
522.72	34497.16
522.89	34541.63
523.07	34253.74
523.24	34527.58
523.41	34532.26
523.58	34515.88
523.75	34892.71
523.92	34883.34
524.10	35290.60
524.27	34806.11
524.44	34979.31
524.61	35028.46
524.78	35288.26
524.96	35395.92
525.13	34958.24
525.30	35814.88
525.47	35321.02
525.64	35981.06
525.81	35288.26
525.98	35557.42
526.16	35086.97
526.33	35491.88
526.50	35992.76
526.67	35391.24
526.84	35447.41
527.01	35302.30
527.18	35969.35
527.36	36030.21
527.53	36119.15
527.70	36601.30
527.87	36243.20
528.04	35917.86
528.21	36147.23
528.38	35983.40
528.55	36458.52
528.72	36779.18
528.89	36671.51
529.07	36706.62
529.24	36666.83
529.41	36535.76
529.58	36306.39
529.75	36500.65
529.92	36996.85
530.09	36982.80
530.26	36994.51
530.43	36825.99
530.60	36818.97
530.77	37062.38
530.94	37340.91
531.11	37031.96
531.28	37413.46
531.46	37347.93
531.63	36975.78
531.80	37127.92
531.97	37336.23
532.14	37326.86
532.31	37528.15
532.48	37481.34
532.65	37589.00
532.82	37717.73
532.99	37886.25
533.16	37509.43
533.33	37610.07
533.50	37963.49
533.67	37975.19
533.84	37937.74
534.01	38050.09
534.18	37696.67
534.35	38253.72
534.52	37895.61
534.69	38312.23
534.86	37890.93
535.03	38110.94
535.20	38309.89
535.37	38836.51
535.54	39124.40
535.71	38513.52
535.88	38281.80
536.05	38782.68
536.22	38801.40
536.38	38546.28
536.55	38061.79
536.72	38780.34
536.89	38541.60
537.06	38487.77
537.23	38574.37
537.40	38471.39
537.57	39009.71
537.74	39049.50
537.91	39201.63
538.08	39079.92
538.25	38946.51
538.42	38939.49
538.59	39285.89
538.75	39164.18
538.92	39440.37
539.09	39894.43
539.26	39283.55
539.43	39246.10
539.60	39835.92
539.77	39250.78
539.94	39667.40
540.11	39875.71
540.28	39470.79
540.44	39601.86
540.61	39625.27
540.78	39297.59
540.95	39978.69
541.12	39335.04
541.29	39255.46
541.46	39871.03
541.62	39842.94
541.79	39880.39
541.96	39625.27
542.13	39971.67
542.30	39889.75
542.47	39969.33
542.63	40081.67
542.80	39828.90
542.97	40746.39
543.14	41003.85
543.31	40734.68
543.48	40627.02
543.64	41085.76
543.81	40741.71
543.98	40957.03
544.15	40683.19
544.32	40830.65
544.48	41354.93
544.65	40603.61
544.82	40882.14
544.99	40577.87
545.16	40959.38
545.32	40587.23
545.49	40959.38
545.66	41083.42
545.83	41212.15
546.00	41762.18
546.16	41390.03
546.33	41148.96
546.50	40992.14
546.67	41067.04
546.83	41081.08
547.00	41181.73
547.17	41237.90
547.34	41125.55
547.50	41762.18
547.67	41605.36
547.84	41631.11
548.00	41804.31
548.17	41841.76
548.34	41839.42
548.51	41619.41
548.67	41914.31
548.84	42066.45
549.01	41626.43
549.18	42043.04
549.34	41844.10
549.51	42370.72
549.68	42057.09
549.84	42169.43
550.01	42239.65
550.18	41921.34
550.34	41975.17
550.51	41642.81
550.68	42216.24
550.84	41731.75
551.01	42146.03
551.18	42342.63
551.34	42291.14
551.51	42579.03
551.68	42323.91
551.84	42298.16
552.01	42621.16
552.18	42520.51
552.34	42199.86
552.51	42284.12
552.68	42354.33
552.84	42213.90
553.01	42693.71
553.18	42469.02
553.34	42300.50
553.51	42223.26
553.67	42440.93
553.84	42792.01
554.01	42644.56
554.17	42892.66
554.34	43220.33
554.51	42986.28
554.67	42527.53
554.84	42740.52
555.00	42483.06
555.17	42834.14
555.33	42546.26
555.50	42972.24
555.67	42850.53
555.83	43320.98
556.00	43117.35
556.16	43005.00
556.33	43194.59
556.50	42396.46
556.66	43409.92
556.83	43260.12
556.99	42927.77
557.16	43187.56
557.32	43236.72
557.49	43271.82
557.65	43035.43
557.82	43421.62
557.98	43456.73
558.15	43739.93
558.32	43735.25
558.48	43178.20
558.65	43229.69
558.81	43363.11
558.98	43557.37
559.14	43618.22
559.31	43056.50
559.47	43543.33
559.64	43627.59
559.80	43863.98
559.97	43648.65
560.13	43384.17
560.30	43054.15
560.46	43620.56
560.63	43388.85
560.79	43831.21
560.96	43693.12
561.12	43325.66
561.29	43863.98
561.45	43519.92
561.61	43805.47
561.78	43110.33
561.94	43587.80
562.11	43601.84
562.27	43543.33
562.44	43470.77
562.60	43847.60
562.77	44334.43
562.93	43770.36
563.10	44135.48
563.26	43648.65
563.42	43695.46
563.59	43866.32
563.75	43496.52
563.92	43908.45
564.08	44046.54
564.24	44259.53
564.41	44266.55
564.57	43913.13
564.74	44058.24
564.90	44231.44
565.07	44528.69
565.23	43803.13
565.39	44002.07
565.56	44383.58
565.72	44079.31
565.88	43929.51
566.05	43786.74
566.21	44156.55
566.38	43409.92
566.54	43983.35
566.70	44456.14
566.87	44596.57
567.03	44079.31
567.19	44903.18
567.36	44378.90
567.52	43981.01
567.68	44449.11
567.85	44058.24
568.01	44385.92
568.17	44189.31
568.34	44287.62
568.50	44238.47
568.66	44072.29
568.83	44552.10
568.99	44163.57
569.15	44378.90
569.32	44292.30
569.48	44048.88
569.64	44105.06
569.81	44311.02
569.97	44430.39
570.13	44030.16
570.30	43896.75
570.46	44165.91
570.62	44163.57
570.78	44296.98
570.95	44151.87
571.11	44421.03
571.27	44329.75
571.43	44126.12
571.60	44741.68
571.76	44364.85
571.92	44566.14
572.09	44608.27
572.25	44528.69
572.41	44067.61
572.57	44638.70
572.74	44896.16
572.90	44240.81
573.06	44701.89
573.22	44629.34
573.38	44437.41
573.55	44486.56
573.71	44854.03
573.87	44624.65
574.03	44076.97
574.20	44072.29
574.36	44641.04
574.52	44907.86
574.68	45010.84
574.84	44404.64
575.01	44786.15
575.17	44608.27
575.33	44002.07
575.49	44514.65
575.65	44603.59
575.82	44655.08
575.98	44566.14
576.14	45095.10
576.30	44449.11
576.46	44264.21
576.62	44332.09
576.79	44516.99
576.95	44425.71
577.11	44582.52
577.27	44411.67
577.43	44891.48
577.59	44788.49
577.75	45057.65
577.92	44425.71
578.08	44245.49
578.24	44727.64
578.40	44657.42
578.56	44559.12
578.72	44741.68
578.88	44676.15
579.04	44844.66
579.21	44470.18
579.37	44231.44
579.53	44732.32
579.69	44430.39
579.85	44793.17
580.01	45287.03
580.17	44168.25
580.33	45315.11
580.49	44769.77
580.65	44825.94
580.82	44865.73
580.98	45099.78
581.14	44486.56
581.30	44921.90
581.46	44884.45
581.62	44442.09
581.78	44498.26
581.94	44954.67
582.10	44858.71
582.26	44479.54
582.42	44837.64
582.58	45024.89
582.74	44699.55
582.90	44835.30
583.06	44524.01
583.22	44825.94
583.38	45392.35
583.54	44465.50
583.70	44463.16
583.86	44467.84
584.02	44453.79
584.18	45048.29
584.34	44891.48
584.50	44540.39
584.66	44561.46
584.82	44683.17
584.98	44982.76
585.14	44975.73
585.30	44636.36
585.46	44516.99
585.62	44493.58
585.78	44318.04
585.94	44161.23
586.10	44519.33
586.26	44615.29
586.42	44629.34
586.58	45151.27
586.74	45134.89
586.90	44514.65
587.06	44596.57
587.22	44872.75
587.38	44687.85
587.54	45048.29
587.70	44842.32
587.86	44863.39
588.02	44624.65
588.18	44849.35
588.34	44868.07
588.49	44570.82
588.65	44109.74
588.81	44102.71
588.97	44432.73
589.13	44355.49
589.29	44701.89
589.45	45172.34
589.61	44582.52
589.77	45254.26
589.93	44577.84
590.08	45303.41
590.24	45226.17
