SpectraSuite Data File
++++++++++++++++++++++++++++++++++++
Date: Fri Oct 25 10:47:36 EDT 2013
User: price-jones
Dark Spectrum Present: No
Reference Spectrum Present: No
Number of Sampled Component Spectra: 1
Spectrometers: USB2+H05261
Integration Time (usec): 100000 (USB2+H05261)
Spectra Averaged: 1 (USB2+H05261)
Boxcar Smoothing: 0 (USB2+H05261)
Correct for Electrical Dark: No (USB2+H05261)
Strobe/Lamp Enabled: No (USB2+H05261)
Correct for Detector Non-linearity: No (USB2+H05261)
Correct for Stray Light: No (USB2+H05261)
Number of Pixels in Processed Spectrum: 2048
>>>>>Begin Processed Spectral Data<<<<<
365.73	65.54
365.92	65.54
366.12	65.54
366.32	23.41
366.52	39.79
366.72	81.92
366.91	49.15
367.11	77.24
367.31	58.51
367.51	53.83
367.70	28.09
367.90	135.75
368.10	72.56
368.30	44.47
368.49	28.09
368.69	81.92
368.89	95.96
369.09	42.13
369.28	53.83
369.48	88.94
369.68	74.90
369.87	74.90
370.07	65.54
370.27	147.45
370.47	147.45
370.66	290.23
370.86	395.55
371.06	409.59
371.25	596.84
371.45	468.11
371.65	428.32
371.84	407.25
372.04	416.62
372.24	435.34
372.44	416.62
372.63	463.43
372.83	482.15
373.03	493.85
373.22	519.60
373.42	526.62
373.62	596.84
373.81	491.51
374.01	554.71
374.21	559.39
374.40	535.98
374.60	519.60
374.79	512.58
374.99	573.43
375.19	526.62
375.38	559.39
375.58	547.69
375.78	648.33
375.97	608.54
376.17	674.07
376.37	580.45
376.56	552.37
376.76	550.03
376.95	540.66
377.15	521.94
377.35	606.20
377.54	615.56
377.74	641.31
377.93	615.56
378.13	613.22
378.33	702.16
378.52	660.03
378.72	645.99
378.91	706.84
379.11	599.18
379.31	624.92
379.50	622.58
379.70	718.54
379.89	664.71
380.09	610.88
380.28	629.60
380.48	667.05
380.68	601.52
380.87	662.37
381.07	648.33
381.26	751.31
381.46	631.94
381.65	685.78
381.85	606.20
382.04	610.88
382.24	681.10
382.43	643.65
382.63	552.37
382.83	653.01
383.02	653.01
383.22	676.41
383.41	730.25
383.61	624.92
383.80	727.91
384.00	781.74
384.19	800.46
384.39	798.12
384.58	685.78
384.78	812.17
384.97	800.46
385.17	835.57
385.36	767.70
385.56	704.50
385.75	851.96
385.95	713.86
386.14	823.87
386.34	734.93
386.53	901.11
386.72	795.78
386.92	812.17
387.11	786.42
387.31	795.78
387.50	777.06
387.70	793.44
387.89	854.30
388.09	798.12
388.28	758.33
388.48	788.76
388.67	868.34
388.86	917.49
389.06	880.04
389.25	842.59
389.45	903.45
389.64	884.72
389.84	849.61
390.03	877.70
390.22	915.15
390.42	919.83
390.61	898.77
390.81	964.30
391.00	922.17
391.19	943.24
391.39	880.04
391.58	1057.92
391.78	936.21
391.97	1013.45
392.16	947.92
392.36	1008.77
392.55	973.66
392.75	926.85
392.94	1001.75
393.13	973.66
393.33	1001.75
393.52	1036.86
393.71	1116.44
393.91	1055.58
394.10	1001.75
394.29	1109.41
394.49	985.37
394.68	1116.44
394.88	1083.67
395.07	1090.69
395.26	1029.84
395.46	1167.93
395.65	1196.01
395.84	1074.31
396.04	1174.95
396.23	1032.18
396.42	1123.46
396.62	1160.91
396.81	1200.69
397.00	1118.78
397.19	1144.52
397.39	1156.22
397.58	1320.06
397.77	1235.80
397.97	1329.42
398.16	1245.16
398.35	1369.21
398.55	1341.13
398.74	1345.81
398.93	1404.32
399.12	1343.47
399.32	1336.45
399.51	1392.62
399.70	1493.26
399.90	1453.47
400.09	1416.02
400.28	1423.05
400.47	1385.60
400.67	1488.58
400.86	1521.35
401.05	1598.59
401.24	1453.47
401.44	1537.73
401.63	1502.62
401.82	1584.54
402.01	1514.33
402.21	1565.82
402.40	1619.65
402.59	1549.43
402.78	1542.41
402.97	1490.92
403.17	1675.82
403.36	1636.03
403.55	1640.72
403.74	1643.06
403.93	1652.42
404.13	1750.72
404.32	1678.16
404.51	1703.91
404.70	1708.59
404.89	1626.67
405.09	1743.70
405.28	1774.13
405.47	1830.30
405.66	1785.83
405.85	1682.85
406.05	1806.89
406.24	1834.98
406.43	1865.41
406.62	1886.47
406.81	1909.88
407.00	1879.45
407.20	1865.41
407.39	1856.04
407.58	1877.11
407.77	1849.02
407.96	1994.14
408.15	1998.82
408.34	1942.64
408.54	2104.14
408.73	2036.27
408.92	2017.54
409.11	2036.27
409.30	2176.70
409.49	2017.54
409.68	2026.90
409.87	2120.53
410.07	2132.23
410.26	2141.59
410.45	2169.68
410.64	2246.91
410.83	2270.32
411.02	2246.91
411.21	2298.41
411.40	2338.20
411.59	2279.68
411.78	2298.41
411.98	2389.69
412.17	2392.03
412.36	2417.77
412.55	2464.58
412.74	2525.44
412.93	2373.30
413.12	2464.58
413.31	2672.89
413.50	2656.51
413.69	2609.70
413.88	2761.83
414.07	2534.80
414.26	2717.36
414.45	2705.66
414.64	2593.31
414.83	2759.49
415.02	2750.13
415.22	2878.86
415.41	2883.54
415.60	2857.79
415.79	2904.60
415.98	2909.29
416.17	2949.08
416.36	2932.69
416.55	2951.42
416.74	3045.04
416.93	2911.63
417.12	2993.55
417.31	3030.99
417.50	3094.19
417.69	3131.64
417.88	3077.80
418.07	3075.46
418.26	3089.51
418.45	3108.23
418.64	3215.90
418.83	3255.69
419.02	3192.49
419.21	3199.51
419.39	3180.79
419.58	3152.70
419.77	3122.27
419.96	3349.31
420.15	3332.92
420.34	3293.13
420.53	3480.38
420.72	3363.35
420.91	3389.10
421.10	3365.69
421.29	3412.50
421.48	3400.80
421.67	3637.19
421.86	3351.65
422.05	3517.83
422.24	3480.38
422.43	3452.29
422.61	3658.26
422.80	3482.72
422.99	3513.14
423.18	3510.80
423.37	3627.83
423.56	3578.68
423.75	3679.32
423.94	3592.72
424.13	3384.41
424.32	3454.63
424.50	3501.44
424.69	3520.17
424.88	3763.58
425.07	3613.79
425.26	3475.70
425.45	3630.17
425.64	3529.53
425.83	3583.36
426.01	3815.07
426.20	3590.38
426.39	3566.98
426.58	3548.25
426.77	3564.64
426.96	3705.07
427.15	3620.81
427.33	3691.02
427.52	3737.84
427.71	3602.08
427.90	3674.64
428.09	3611.45
428.28	3941.46
428.46	3763.58
428.65	3772.94
428.84	3899.33
429.03	4025.72
429.22	3712.09
429.40	3915.72
429.59	3906.35
429.78	3765.92
429.97	3770.60
430.16	3604.42
430.34	3880.61
430.53	3997.64
430.72	3978.91
430.91	3950.82
431.10	4095.94
431.28	4140.41
431.47	4217.65
431.66	4379.14
431.85	4152.11
432.03	4212.96
432.22	4327.65
432.41	4257.43
432.60	4411.91
432.79	4320.63
432.97	4337.01
433.16	4376.80
433.35	4177.86
433.54	4351.06
433.72	4280.84
433.91	4269.14
434.10	4503.19
434.28	4360.42
434.47	4432.97
434.66	4482.13
434.85	4550.00
435.03	4571.07
435.22	4669.37
435.41	4779.37
435.59	4622.56
435.78	4765.33
435.97	4571.07
436.16	4652.98
436.34	4552.34
436.53	4636.60
436.72	4952.57
436.90	4641.28
437.09	4786.40
437.28	4589.79
437.46	4641.28
437.65	4788.74
437.84	4662.35
438.02	4849.59
438.21	4828.53
438.40	4741.93
438.58	5057.90
438.77	4924.49
438.96	4901.08
439.14	5186.63
439.33	5144.50
439.52	5259.18
439.70	5076.62
439.89	5212.37
440.08	5146.84
440.26	5165.56
440.45	5142.16
440.63	5331.74
440.82	5366.85
441.01	5322.38
441.19	5411.32
441.38	5507.28
441.57	5591.54
441.75	5631.33
441.94	5654.73
442.12	5731.97
442.31	5816.23
442.50	5741.33
442.68	5689.84
442.87	5731.97
443.05	5790.49
443.24	5813.89
443.43	5909.85
443.61	5968.37
443.80	6031.56
443.98	5675.80
444.17	5589.20
444.35	5870.06
444.54	6090.07
444.73	5806.87
444.91	5907.51
445.10	5867.72
445.28	5977.73
445.47	5933.26
445.65	5898.15
445.84	5933.26
446.02	6005.81
446.21	5994.11
446.39	5832.62
446.58	6059.65
446.77	6164.97
446.95	5858.36
447.14	6022.20
447.32	6246.89
447.51	6047.94
447.69	6150.93
447.88	6031.56
448.06	6071.35
448.25	6118.16
448.43	6186.04
448.62	6115.82
448.80	6092.41
448.99	5987.09
449.17	6207.10
449.36	6305.40
449.54	6513.71
449.73	6335.83
449.91	6502.01
450.10	6476.26
450.28	6445.84
450.46	6546.48
450.65	6593.29
450.83	6628.40
451.02	6520.73
451.20	6665.85
451.39	6509.03
451.57	6590.95
451.76	6401.37
451.94	6579.25
452.13	6670.53
452.31	6590.95
452.49	6457.54
452.68	6722.02
452.86	6651.80
453.05	6672.87
453.23	6670.53
453.42	6633.08
453.60	6782.87
453.78	6771.17
453.97	6640.10
454.15	6832.02
454.34	6719.68
454.52	6909.26
454.70	6743.08
454.89	7012.24
455.07	6836.70
455.26	6902.24
455.44	7040.33
455.62	7012.24
455.81	6867.13
455.99	7098.84
456.17	7185.44
456.36	7218.21
456.54	7162.04
456.73	7129.27
456.91	7489.71
457.09	7419.50
457.28	7501.42
457.46	7286.09
457.64	7304.81
457.83	7597.38
458.01	7463.97
458.19	7391.41
458.38	7435.88
458.56	7616.10
458.74	7517.80
458.93	7588.02
459.11	7548.23
459.29	7644.19
459.48	7786.96
459.66	7480.35
459.84	7625.47
460.03	7763.56
460.21	7990.59
460.39	7768.24
460.57	7843.14
460.76	7941.44
460.94	7920.37
461.12	7714.41
461.31	7906.33
461.49	7932.08
461.67	7761.22
461.85	8004.63
462.04	8063.15
462.22	8477.42
462.40	8021.02
462.59	8081.87
462.77	8189.53
462.95	8236.35
463.13	8140.38
463.32	8140.38
463.50	8318.26
463.68	8112.30
463.86	8226.98
464.05	8051.44
464.23	8084.21
464.41	8374.44
464.59	8182.51
464.78	8456.36
464.96	8386.14
465.14	8161.45
465.32	8409.54
465.50	8498.49
465.69	8454.02
465.87	8208.26
466.05	8311.24
466.23	8407.20
466.41	8381.46
466.60	8606.15
466.78	8299.54
466.96	8411.89
467.14	8514.87
467.32	8540.61
467.51	8622.53
467.69	8472.74
467.87	8657.64
468.05	8741.90
468.23	8547.64
468.41	8500.83
468.60	8688.07
468.78	8919.78
468.96	8688.07
469.14	8917.44
469.32	8884.67
469.50	8739.56
469.69	8779.35
469.87	8896.38
470.05	9020.42
470.23	9149.15
470.41	9102.34
470.59	9210.01
470.77	9231.07
470.95	9158.52
471.14	9305.97
471.32	9022.77
471.50	9558.75
471.68	9600.88
471.86	9432.36
472.04	9406.61
472.22	9652.37
472.40	9305.97
472.58	9547.05
472.77	9701.52
472.95	9645.35
473.13	9928.55
473.31	9619.60
473.49	9678.12
473.67	9816.21
473.85	9921.53
474.03	10026.86
474.21	9935.57
474.39	9966.00
474.57	9984.73
474.75	10263.25
474.93	10422.41
475.12	10153.24
475.30	10368.57
475.48	10394.32
475.66	10431.77
475.84	10377.94
476.02	10349.85
476.20	10532.41
476.38	10689.23
476.56	10965.41
476.74	10998.18
476.92	10949.03
477.10	10754.76
477.28	11096.48
477.46	11084.78
477.64	11122.23
477.82	11316.49
478.00	11641.82
478.18	11515.44
478.36	11468.62
478.54	11777.58
478.72	11810.34
478.90	11812.68
479.08	11983.54
479.26	11983.54
479.44	12217.60
479.62	12308.88
479.80	12084.19
479.98	12400.16
480.16	12498.46
480.34	12428.24
480.52	12769.96
480.70	12875.29
480.88	12510.16
481.06	12996.99
481.24	12929.12
481.41	12980.61
481.59	13069.55
481.77	13301.26
481.95	13474.46
482.13	13322.33
482.31	13453.40
482.49	13752.99
482.67	13493.19
482.85	14033.85
483.03	14054.92
483.21	14071.30
483.39	14216.41
483.57	14185.99
483.74	14260.88
483.92	14537.07
484.10	14317.06
484.28	14640.05
484.46	14902.19
484.64	14967.73
484.82	15047.30
485.00	15016.88
485.18	15192.42
485.35	15421.79
485.53	15119.86
485.71	15103.48
485.89	15484.98
486.07	15290.72
486.25	15742.44
486.43	15735.42
486.61	15845.43
486.78	16039.69
486.96	16240.98
487.14	16409.50
487.32	16308.85
487.50	16486.73
487.68	16521.84
487.85	17027.40
488.03	17568.06
488.21	17460.40
488.39	17268.47
488.57	17371.46
488.75	17909.78
488.92	17568.06
489.10	18015.10
489.28	18242.14
489.46	18097.02
489.64	18398.95
489.81	18352.14
489.99	18731.31
490.17	18508.96
490.35	18892.80
490.53	18993.45
490.70	19103.45
490.88	19283.67
491.06	19232.18
491.24	19206.44
491.41	19257.93
491.59	19754.12
491.77	19335.17
491.95	19728.38
492.13	20030.30
492.30	20142.65
492.48	20051.37
492.66	20130.95
492.84	20229.25
493.01	20699.70
493.19	20699.70
493.37	20697.36
493.54	20657.57
493.72	21085.89
493.90	20929.07
494.08	21352.71
494.25	21341.00
494.43	21582.08
494.61	21582.08
494.79	21727.19
494.96	21336.32
495.14	21673.36
495.32	22167.21
495.49	21841.88
495.67	22059.55
495.85	22293.60
496.02	22644.68
496.20	22651.70
496.38	22602.55
496.55	22738.30
496.73	23393.65
496.91	22909.16
497.09	23356.21
497.26	23442.81
497.44	23428.76
497.62	23234.50
497.79	23644.09
497.97	23770.48
498.14	23793.89
498.32	23950.70
498.50	23976.45
498.67	24210.50
498.85	24123.90
499.03	24245.61
499.20	24334.55
499.38	24809.68
499.56	24868.19
499.73	24556.90
499.91	24753.51
500.08	25170.12
500.26	24793.29
500.44	24945.43
500.61	24889.26
500.79	24863.51
500.97	25369.07
501.14	25755.26
501.32	25556.31
501.49	25474.39
501.67	25586.74
501.84	25750.57
502.02	25680.36
502.20	25811.43
502.37	25991.65
502.55	25741.21
502.72	25600.78
502.90	26302.94
503.07	26541.68
503.25	26354.43
503.43	26352.09
503.60	26426.99
503.78	26459.76
503.95	26324.01
504.13	26749.98
504.30	26724.24
504.48	27002.76
504.65	27157.24
504.83	27040.21
505.01	27452.14
505.18	27634.71
505.36	27850.03
505.53	27449.80
505.71	27655.77
505.88	27798.54
506.06	27356.18
506.23	27669.81
506.41	27679.18
506.58	28245.58
506.76	27681.52
506.93	28603.69
507.11	28116.86
507.28	28217.50
507.46	28053.66
507.63	28147.28
507.81	28606.03
507.98	28545.17
508.16	28229.20
508.33	28556.88
508.50	28943.06
508.68	29020.30
508.85	29230.95
509.03	29216.91
509.20	29282.44
509.38	29160.73
509.55	29528.20
509.73	29523.52
509.90	29448.62
510.08	29338.62
510.25	29240.31
510.42	29376.06
510.60	30036.09
510.77	30146.10
510.95	30195.25
511.12	29982.26
511.30	30024.39
511.47	30206.95
511.64	30672.72
511.82	30286.53
511.99	30141.42
512.17	30586.12
512.34	30562.72
512.51	31082.31
512.69	30930.18
512.86	31068.27
513.04	31138.49
513.21	30672.72
513.38	31108.06
513.56	31079.97
513.73	30890.39
513.90	31630.00
514.08	31211.04
514.25	31241.47
514.43	31608.93
514.60	31442.76
514.77	31185.30
514.95	31721.28
515.12	31934.27
515.29	31800.86
515.47	31725.96
515.64	31974.06
515.81	32133.21
515.99	32088.74
516.16	32142.58
516.33	31761.07
516.51	31934.27
516.68	31548.08
516.85	31831.29
517.03	31934.27
517.20	32355.57
517.37	32526.42
517.54	32538.13
517.72	32517.06
517.89	32271.31
518.06	32669.20
518.24	32507.70
518.41	33123.26
518.58	32577.92
518.75	33055.39
518.93	32879.85
519.10	33109.22
519.27	33261.35
519.45	33507.11
519.62	33567.96
519.79	33818.40
519.96	33401.79
520.14	33792.65
520.31	33518.81
520.48	33858.19
520.65	34007.98
520.83	33977.56
521.00	33919.04
521.17	34164.80
521.34	33928.41
521.52	34529.92
521.69	34073.52
521.86	34197.57
522.03	34567.37
522.20	34382.47
522.38	34682.06
522.55	34588.44
522.72	34403.53
522.89	34597.80
523.07	34555.67
523.24	34185.86
523.41	34422.26
523.58	34752.27
523.75	35414.65
523.92	35236.77
524.10	35321.02
524.27	35452.09
524.44	35498.91
524.61	35475.50
524.78	35365.49
524.96	35681.47
525.13	35735.30
525.30	35871.05
525.47	35978.72
525.64	36067.66
525.81	35934.24
525.98	35295.28
526.16	35880.41
526.33	35625.29
526.50	36226.81
526.67	35901.48
526.84	35819.56
527.01	35641.68
527.18	36247.88
527.36	36187.02
527.53	36034.89
527.70	36676.19
527.87	36444.48
528.04	36374.27
528.21	36322.77
528.38	36514.70
528.55	36753.43
528.72	36811.95
528.89	37184.09
529.07	37186.43
529.24	36835.35
529.41	37031.96
529.58	37003.87
529.75	37013.23
529.92	37184.09
530.09	37502.40
530.26	37347.93
530.43	37303.46
530.60	36573.21
530.77	37869.87
530.94	37673.26
531.11	37841.78
531.28	37624.11
531.46	37748.16
531.63	37574.96
531.80	37387.72
531.97	37483.68
532.14	37544.53
532.31	37347.93
532.48	37691.99
532.65	38192.86
532.82	37687.31
532.99	37750.50
533.16	37776.25
533.33	37621.77
533.50	38040.73
533.67	38223.29
533.84	37904.98
534.01	38541.60
534.18	37909.66
534.35	37942.42
534.52	38646.93
534.69	38333.29
534.86	38883.32
535.03	38286.48
535.20	38796.72
535.37	38948.85
535.54	38913.75
535.71	38469.04
535.88	38803.74
536.05	38370.74
536.22	39110.35
536.38	39384.19
536.55	38590.75
536.72	38953.54
536.89	39007.37
537.06	38967.58
537.23	39332.70
537.40	39210.99
537.57	39194.61
537.74	39313.98
537.91	39641.65
538.08	39754.00
538.25	39421.64
538.42	38983.96
538.59	39728.25
538.75	39023.75
538.92	39463.77
539.09	39351.43
539.26	39831.24
539.43	39732.93
539.60	39639.31
539.77	39484.84
539.94	39711.87
540.11	39564.42
540.28	39676.76
540.44	39512.92
540.61	39709.53
540.78	39625.27
540.95	40282.96
541.12	39969.33
541.29	40088.70
541.46	39992.73
541.62	39714.21
541.79	40472.54
541.96	39969.33
542.13	40236.15
542.30	40102.74
542.47	39971.67
542.63	40189.34
542.80	40194.02
542.97	40821.28
543.14	40727.66
543.31	40825.96
543.48	40891.50
543.64	41282.37
543.81	40687.87
543.98	41109.17
544.15	40676.17
544.32	40924.27
544.48	41413.44
544.65	40928.95
544.82	41219.17
544.99	40678.51
545.16	41137.26
545.32	41249.60
545.49	41186.41
545.66	41200.45
545.83	41434.50
546.00	41518.76
546.16	41427.48
546.33	40994.48
546.50	41244.92
546.67	41418.12
546.83	40945.33
547.00	41111.51
547.17	41565.57
547.34	41448.55
547.50	41961.12
547.67	41806.65
547.84	41696.64
548.00	41713.03
548.17	41947.08
548.34	41801.97
548.51	42237.31
548.67	42204.54
548.84	42391.78
549.01	41998.57
549.18	41940.06
549.34	42150.71
549.51	42253.69
549.68	42288.80
549.84	42454.98
550.01	42101.56
550.18	42134.32
550.34	41862.82
550.51	42071.13
550.68	42124.96
550.84	42192.84
551.01	42347.31
551.18	42288.80
551.34	42490.09
551.51	42735.84
551.68	42391.78
551.84	42525.19
552.01	42504.13
552.18	42658.60
552.34	42618.81
552.51	43084.58
552.68	42913.72
552.84	43019.05
553.01	43414.60
553.18	42635.20
553.34	42885.64
553.51	42366.04
553.67	42916.06
553.84	43395.87
554.01	43091.60
554.17	43316.29
554.34	43201.61
554.51	43318.64
554.67	42820.10
554.84	43049.47
555.00	42866.91
555.17	43297.57
555.33	43117.35
555.50	43650.99
555.67	43325.66
555.83	43271.82
556.00	43246.08
556.16	43400.55
556.33	43323.32
556.50	43262.46
556.66	43716.53
556.83	43351.40
556.99	43576.09
557.16	43922.49
557.32	43622.90
557.49	43812.49
557.65	43054.15
557.82	43419.28
557.98	43049.47
558.15	43557.37
558.32	43173.52
558.48	43922.49
558.65	43604.18
558.81	43281.19
558.98	43335.02
559.14	43356.08
559.31	43285.87
559.47	43285.87
559.64	44121.44
559.80	43711.84
559.97	43686.10
560.13	43571.41
560.30	43477.79
560.46	43737.59
560.63	43924.83
560.79	44278.25
560.96	44151.87
561.12	43927.17
561.29	43931.86
561.45	44025.48
561.61	44116.76
561.78	44170.59
561.94	43962.28
562.11	43831.21
562.27	44264.21
562.44	44261.87
562.60	44072.29
562.77	44069.95
562.93	43866.32
563.10	44694.87
563.26	44018.46
563.42	44282.94
563.59	43899.09
563.75	44367.20
563.92	44409.32
564.08	44121.44
564.24	44516.99
564.41	44788.49
564.57	44194.00
564.74	44126.12
564.90	44367.20
565.07	44470.18
565.23	44369.54
565.39	43927.17
565.56	44624.65
565.72	44126.12
565.88	44289.96
566.05	44467.84
566.21	43915.47
566.38	44554.44
566.54	44308.68
566.70	44622.31
566.87	44940.63
567.03	44322.72
567.19	45167.66
567.36	44624.65
567.52	44091.01
567.68	44821.26
567.85	44612.95
568.01	44575.50
568.17	44463.16
568.34	44935.95
568.50	44252.51
568.66	44509.97
568.83	44664.44
568.99	44233.78
569.15	44451.45
569.32	44336.77
569.48	44205.70
569.64	44870.41
569.81	44498.26
569.97	44194.00
570.13	44451.45
570.30	44524.01
570.46	44474.86
570.62	44163.57
570.78	44311.02
570.95	44741.68
571.11	44596.57
571.27	44477.20
571.43	44507.63
571.60	45006.16
571.76	44748.70
571.92	44729.98
572.09	44308.68
572.25	44795.51
572.41	44236.12
572.57	44662.10
572.74	45188.72
572.90	44884.45
573.06	44996.80
573.22	44982.76
573.38	44671.46
573.55	44439.75
573.71	44935.95
573.87	44575.50
574.03	44339.11
574.20	44975.73
574.36	44367.20
574.52	44975.73
574.68	45036.59
574.84	44584.86
575.01	44498.26
575.17	44552.10
575.33	44765.09
575.49	44531.03
575.65	44917.22
575.82	45380.65
575.98	44903.18
576.14	44847.00
576.30	45015.52
576.46	44128.46
576.62	44987.44
576.79	44992.12
576.95	44318.04
577.11	44886.79
577.27	44917.22
577.43	44692.53
577.59	44673.81
577.75	44725.30
577.92	44832.96
578.08	44446.77
578.24	44472.52
578.40	44414.01
578.56	44706.57
578.72	44865.73
578.88	44886.79
579.04	45202.77
579.21	44655.08
579.37	44566.14
579.53	44926.58
579.69	45013.18
579.85	44809.56
580.01	45127.87
580.17	44671.46
580.33	45198.09
580.49	44942.97
580.65	44753.38
580.82	45104.46
580.98	44715.93
581.14	44907.86
581.30	44942.97
581.46	44715.93
581.62	44832.96
581.78	44858.71
581.94	44945.31
582.10	44713.59
582.26	45523.42
582.42	44680.83
582.58	44921.90
582.74	45113.83
582.90	45118.51
583.06	45125.53
583.22	45558.53
583.38	44825.94
583.54	45532.78
583.70	45109.14
583.86	45265.96
584.02	44772.11
584.18	45160.64
584.34	45095.10
584.50	45354.90
584.66	44924.24
584.82	44851.69
584.98	45310.43
585.14	45102.12
585.30	44594.23
585.46	44959.35
585.62	44971.05
585.78	44533.37
585.94	44449.11
586.10	45015.52
586.26	44381.24
586.42	45242.56
586.58	45301.07
586.74	45209.79
586.90	45134.89
587.06	44746.36
587.22	44711.25
587.38	44926.58
587.54	44978.07
587.70	45553.85
587.86	44680.83
588.02	45331.50
588.18	45640.45
588.34	45076.38
588.49	44776.79
588.65	44898.50
588.81	44662.10
588.97	44638.70
589.13	44765.09
589.29	45111.49
589.45	44968.71
589.61	45031.91
589.77	44980.42
589.93	45303.41
590.08	45345.54
590.24	45347.88
