SpectraSuite Data File
++++++++++++++++++++++++++++++++++++
Date: Fri Oct 25 11:22:33 EDT 2013
User: price-jones
Dark Spectrum Present: No
Reference Spectrum Present: No
Number of Sampled Component Spectra: 1
Spectrometers: USB2+H05261
Integration Time (usec): 100000 (USB2+H05261)
Spectra Averaged: 1 (USB2+H05261)
Boxcar Smoothing: 0 (USB2+H05261)
Correct for Electrical Dark: No (USB2+H05261)
Strobe/Lamp Enabled: No (USB2+H05261)
Correct for Detector Non-linearity: No (USB2+H05261)
Correct for Stray Light: No (USB2+H05261)
Number of Pixels in Processed Spectrum: 2048
>>>>>Begin Processed Spectral Data<<<<<
365.73	154.48
365.92	154.48
366.12	154.48
366.32	110.01
366.52	67.88
366.72	205.97
366.91	114.69
367.11	63.19
367.31	84.26
367.51	133.41
367.70	63.19
367.90	168.52
368.10	201.29
368.30	140.43
368.49	65.54
368.69	161.50
368.89	105.32
369.09	98.30
369.28	60.85
369.48	161.50
369.68	173.20
369.87	126.39
370.07	142.77
370.27	222.35
370.47	395.55
370.66	594.50
370.86	657.69
371.06	620.24
371.25	695.14
371.45	727.91
371.65	706.84
371.84	674.07
372.04	720.88
372.24	730.25
372.44	753.65
372.63	739.61
372.83	716.20
373.03	704.50
373.22	758.33
373.42	760.67
373.62	713.86
373.81	725.57
374.01	835.57
374.21	774.72
374.40	744.29
374.60	805.14
374.79	774.72
374.99	791.10
375.19	861.32
375.38	835.57
375.58	842.59
375.78	840.25
375.97	828.55
376.17	999.41
376.37	795.78
376.56	896.43
376.76	819.19
376.95	908.13
377.15	814.51
377.35	873.02
377.54	830.89
377.74	842.59
377.93	891.74
378.13	912.81
378.33	938.55
378.52	938.55
378.72	905.79
378.91	828.55
379.11	924.51
379.31	924.51
379.50	940.90
379.70	938.55
379.89	971.32
380.09	945.58
380.28	940.90
380.48	1001.75
380.68	994.73
380.87	968.98
381.07	1029.84
381.26	1029.84
381.46	1069.62
381.65	1039.20
381.85	1118.78
382.04	1022.81
382.24	1041.54
382.43	1046.22
382.63	1125.80
382.83	1149.20
383.02	1123.46
383.22	1078.99
383.41	1104.73
383.61	1043.88
383.80	1217.08
384.00	1057.92
384.19	1100.05
384.39	1081.33
384.58	1174.95
384.78	1118.78
384.97	1177.29
385.17	1125.80
385.36	1137.50
385.56	1217.08
385.75	1212.40
385.95	1114.10
386.14	1226.44
386.34	1163.25
386.53	1306.02
386.72	1205.38
386.92	1240.48
387.11	1228.78
387.31	1280.27
387.50	1233.46
387.70	1203.04
387.89	1294.32
388.09	1252.19
388.28	1221.76
388.48	1270.91
388.67	1359.85
388.86	1364.53
389.06	1357.51
389.25	1263.89
389.45	1355.17
389.64	1338.79
389.84	1399.64
390.03	1369.21
390.22	1425.39
390.42	1404.32
390.61	1345.81
390.81	1284.95
391.00	1451.13
391.19	1521.35
391.39	1469.86
391.58	1394.96
391.78	1500.28
391.97	1519.01
392.16	1467.52
392.36	1465.18
392.55	1507.30
392.75	1493.26
392.94	1556.46
393.13	1453.47
393.33	1561.14
393.52	1664.12
393.71	1568.16
393.91	1530.71
394.10	1511.99
394.29	1654.76
394.49	1603.27
394.68	1678.16
394.88	1703.91
395.07	1605.61
395.26	1661.78
395.46	1650.08
395.65	1696.89
395.84	1774.13
396.04	1713.27
396.23	1788.17
396.42	1783.49
396.62	1842.00
396.81	1839.66
397.00	1769.44
397.19	1806.89
397.39	1844.34
397.58	1804.55
397.77	1909.88
397.97	1898.17
398.16	1830.30
398.35	1942.64
398.55	1912.22
398.74	1900.52
398.93	1937.96
399.12	1898.17
399.32	1963.71
399.51	1858.39
399.70	1937.96
399.90	1891.15
400.09	2008.18
400.28	2113.50
400.47	2076.06
400.67	2127.55
400.86	2050.31
401.05	2019.88
401.24	2092.44
401.44	2186.06
401.63	2188.40
401.82	2174.36
402.01	2150.95
402.21	2193.08
402.40	2148.61
402.59	2087.76
402.78	2207.13
402.97	2253.94
403.17	2237.55
403.36	2235.21
403.55	2235.21
403.74	2466.92
403.93	2380.32
404.13	2448.20
404.32	2410.75
404.51	2436.50
404.70	2363.94
404.89	2356.92
405.09	2485.65
405.28	2492.67
405.47	2527.78
405.66	2527.78
405.85	2602.68
406.05	2539.48
406.24	2616.72
406.43	2693.96
406.62	2654.17
406.81	2722.04
407.00	2595.65
407.20	2607.36
407.39	2738.43
407.58	2771.19
407.77	2822.69
407.96	2780.56
408.15	2995.89
408.34	2726.72
408.54	2869.50
408.73	2885.88
408.92	3035.67
409.11	2860.13
409.30	2918.65
409.49	3035.67
409.68	2925.67
409.87	2993.55
410.07	2977.16
410.26	3152.70
410.45	3089.51
410.64	3098.87
410.83	3122.27
411.02	3201.85
411.21	3265.05
411.40	3183.13
411.59	3309.52
411.78	3164.40
411.98	3166.74
412.17	3281.43
412.36	3272.07
412.55	3456.97
412.74	3361.01
412.93	3403.14
413.12	3393.78
413.31	3740.18
413.50	3494.42
413.69	3454.63
413.88	3578.68
414.07	3620.81
414.26	3688.68
414.45	3686.34
414.64	3684.00
414.83	3742.52
415.02	3887.63
415.22	3889.97
415.41	3896.99
415.60	3840.82
415.79	4016.36
415.98	4053.81
416.17	3950.82
416.36	3995.29
416.55	4109.98
416.74	4170.83
416.93	4098.28
417.12	4046.79
417.31	4290.20
417.50	4194.24
417.69	4351.06
417.88	4498.51
418.07	4325.31
418.26	4313.61
418.45	4421.27
418.64	4418.93
418.83	4538.30
419.02	4620.22
419.21	4486.81
419.39	4610.86
419.58	4608.51
419.77	4613.20
419.96	4587.45
420.15	4559.36
420.34	4648.30
420.53	4730.22
420.72	4755.97
420.91	4840.23
421.10	4854.27
421.29	4868.31
421.48	4695.11
421.67	4772.35
421.86	4697.46
422.05	4865.97
422.24	4964.28
422.43	4854.27
422.61	4826.18
422.80	5107.05
422.99	5074.28
423.18	4990.02
423.37	5090.67
423.56	5067.26
423.75	4966.62
423.94	4987.68
424.13	4791.08
424.32	4732.56
424.50	5027.47
424.69	5235.78
424.88	5170.24
425.07	4997.04
425.26	4940.87
425.45	4924.49
425.64	5011.09
425.83	5135.14
426.01	5146.84
426.20	5207.69
426.39	5198.33
426.58	4999.38
426.77	5093.01
426.96	5305.99
427.15	5095.35
427.33	5242.80
427.52	5221.74
427.71	5298.97
427.90	5341.10
428.09	5170.24
428.28	5448.77
428.46	5460.47
428.65	5214.71
428.84	5511.96
429.03	5703.89
429.22	5228.76
429.40	5460.47
429.59	5458.13
429.78	5420.68
429.97	5472.17
430.16	5673.46
430.34	5547.07
430.53	5666.44
430.72	5706.23
430.91	5717.93
431.10	5612.60
431.28	5856.02
431.47	5942.62
431.66	6024.54
431.85	5832.62
432.03	5961.34
432.22	6127.52
432.41	5996.45
432.60	6169.65
432.79	5994.11
432.97	6008.16
433.16	6052.63
433.35	6001.13
433.54	6122.84
433.72	6066.67
433.91	6160.29
434.10	6139.23
434.28	6111.14
434.47	6443.49
434.66	6326.47
434.85	6370.94
435.03	6321.79
435.22	6352.21
435.41	6581.59
435.59	6487.96
435.78	6534.78
435.97	6455.20
436.16	6509.03
436.34	6656.48
436.53	6569.88
436.72	6658.82
436.90	6546.48
437.09	6757.13
437.28	6567.54
437.46	6661.16
437.65	6740.74
437.84	6967.77
438.02	6743.08
438.21	6881.18
438.40	6750.10
438.58	7084.80
438.77	7183.10
438.96	7070.76
439.14	7199.49
439.33	7206.51
439.52	7407.80
439.70	7293.11
439.89	7433.54
440.08	7356.30
440.26	7431.20
440.45	7438.22
440.63	7569.29
440.82	7768.24
441.01	7578.65
441.19	7616.10
441.38	7873.56
441.57	7850.16
441.75	7976.55
441.94	8058.46
442.12	7946.12
442.31	8201.24
442.50	8154.43
442.68	8156.77
442.87	8208.26
443.05	8131.02
443.24	8369.76
443.43	8383.80
443.61	8159.11
443.80	8442.31
443.98	8234.00
444.17	7988.25
444.35	8271.45
444.54	8458.70
444.73	8381.46
444.91	8489.12
445.10	8346.35
445.28	8416.57
445.47	8159.11
445.65	8386.14
445.84	8505.51
446.02	8580.40
446.21	8554.66
446.39	8446.99
446.58	8542.96
446.77	8734.88
446.95	8411.89
447.14	8608.49
447.32	8648.28
447.51	8601.47
447.69	8554.66
447.88	8564.02
448.06	8788.71
448.25	8606.15
448.43	8779.35
448.62	8847.22
448.80	8631.90
448.99	8659.98
449.17	8879.99
449.36	8755.94
449.54	8978.30
449.73	9179.58
449.91	9018.08
450.10	9076.60
450.28	9289.59
450.46	9107.02
450.65	9160.86
450.83	9448.74
451.02	9146.81
451.20	9511.94
451.39	9153.84
451.57	9123.41
451.76	9142.13
451.94	9296.61
452.13	9366.82
452.31	9504.92
452.49	9287.25
452.68	9535.34
452.86	9549.39
453.05	9729.61
453.23	9734.29
453.42	9413.63
453.60	9259.16
453.78	9451.08
453.97	9341.08
454.15	9825.57
454.34	9479.17
454.52	9776.42
454.70	9708.54
454.89	9731.95
455.07	9856.00
455.26	9923.87
455.44	10085.37
455.62	9996.43
455.81	10043.24
455.99	10155.58
456.17	10417.72
456.36	10141.54
456.54	10602.63
456.73	10345.17
456.91	10565.18
457.09	10340.49
457.28	10649.44
457.46	10150.90
457.64	10684.55
457.83	10679.86
458.01	10637.73
458.19	10972.43
458.38	10773.49
458.56	10764.12
458.74	10806.25
458.93	10960.73
459.11	10939.66
459.29	10986.47
459.48	11171.38
459.66	11035.63
459.84	10895.19
460.03	11232.23
460.21	11119.89
460.39	10986.47
460.57	11082.44
460.76	11103.50
460.94	11234.57
461.12	11117.54
461.31	11337.56
461.49	11276.70
461.67	11276.70
461.85	11501.39
462.04	11620.76
462.22	11882.90
462.40	11709.70
462.59	11768.21
462.77	11616.08
462.95	11833.75
463.13	11723.74
463.32	11976.52
463.50	12032.69
463.68	11875.88
463.86	11941.41
464.05	11777.58
464.23	11967.16
464.41	12070.14
464.59	11595.01
464.78	12451.65
464.96	12266.75
465.14	12102.91
465.32	12336.96
465.50	12334.62
465.69	12327.60
465.87	12170.79
466.05	12322.92
466.23	12114.61
466.41	12372.07
466.60	12676.34
466.78	12210.57
466.96	12348.67
467.14	12753.58
467.32	12655.28
467.51	12554.63
467.69	12479.74
467.87	12610.81
468.05	12816.77
468.23	12510.16
468.41	12587.40
468.60	12608.47
468.78	12678.68
468.96	12641.23
469.14	13006.36
469.32	13184.24
469.50	12664.64
469.69	13128.06
469.87	13348.08
470.05	13240.41
470.23	13462.76
470.41	13240.41
470.59	13479.15
470.77	13331.69
470.95	13507.23
471.14	13760.01
471.32	13429.99
471.50	13949.59
471.68	13752.99
471.86	13790.44
472.04	13888.74
472.22	14391.95
472.40	13937.89
472.58	14024.49
472.77	14363.87
472.95	14150.88
473.13	14731.33
473.31	14134.50
473.49	14200.03
473.67	14310.04
473.85	14464.51
474.03	14642.39
474.21	14642.39
474.39	14848.36
474.57	14782.82
474.75	15037.94
474.93	15267.31
475.12	15040.28
475.30	15616.05
475.48	15330.51
475.66	15323.49
475.84	15337.53
476.02	15524.77
476.20	15571.58
476.38	15903.94
476.56	16231.62
476.74	16304.17
476.92	16236.30
477.10	15749.46
477.28	16219.91
477.46	16533.54
477.64	16697.38
477.82	17139.74
478.00	17263.79
478.18	17128.04
478.36	16868.24
478.54	17476.78
478.72	17579.76
478.90	17579.76
479.08	17867.65
479.26	17935.53
479.44	17898.08
479.62	18251.50
479.80	18249.16
479.98	18363.84
480.16	18808.54
480.34	18693.86
480.52	19058.98
480.70	19000.47
480.88	18677.48
481.06	19117.50
481.24	19262.61
481.41	19721.35
481.59	19424.11
481.77	19962.43
481.95	19981.15
482.13	19913.28
482.31	20039.67
482.49	20776.94
482.67	20563.95
482.85	20706.72
483.03	20851.83
483.21	21116.31
483.39	21298.88
483.57	21193.55
483.74	21301.22
483.92	21750.60
484.10	21415.90
484.28	21825.50
484.46	22239.77
484.64	22661.07
484.82	22183.60
485.00	22953.63
485.18	22953.63
485.35	23225.14
485.53	23386.63
485.71	23367.91
485.89	23868.78
486.07	23828.99
486.25	23845.38
486.43	24222.20
486.61	24271.36
486.78	24348.59
486.96	24432.85
487.14	25116.29
487.32	24978.20
487.50	24982.88
487.68	25149.06
487.85	25357.36
488.03	25862.92
488.21	25872.28
488.39	26089.95
488.57	26796.79
488.75	26787.43
488.92	26977.01
489.10	27349.16
489.28	26810.84
489.46	27583.21
489.64	27566.83
489.81	28163.67
489.99	27999.83
490.17	28224.52
490.35	28423.47
490.53	28718.37
490.70	28882.21
490.88	28835.40
491.06	29287.12
491.24	29537.56
491.41	29207.55
491.59	29759.91
491.77	29556.28
491.95	30239.72
492.13	30270.15
492.30	30405.90
492.48	30431.65
492.66	30740.60
492.84	30848.26
493.01	31131.47
493.19	31084.65
493.37	31517.65
493.54	31789.16
493.72	32030.23
493.90	31737.66
494.08	32680.90
494.25	32275.99
494.43	32458.55
494.61	32638.77
494.79	32713.67
494.96	32591.96
495.14	33163.05
495.32	33432.21
495.49	33268.37
495.67	33853.51
495.85	34085.22
496.02	34127.35
496.20	34780.36
496.38	34398.85
496.55	34448.00
496.73	35442.73
496.91	34991.01
497.09	35278.89
497.26	35133.78
497.44	35154.85
497.62	35915.52
497.79	36062.97
497.97	35854.67
498.14	36503.00
498.32	36767.48
498.50	36514.70
498.67	36987.49
498.85	36821.31
499.03	37216.86
499.20	37167.71
499.38	37390.06
499.56	37659.22
499.73	37572.62
499.91	37933.06
500.08	38263.08
500.26	37790.29
500.44	38525.22
500.61	38382.45
500.79	38604.80
500.97	38436.28
501.14	38899.70
501.32	38909.07
501.49	39030.77
501.67	39264.83
501.84	39693.15
502.02	39716.55
502.20	39768.04
502.37	39959.97
502.55	39632.29
502.72	40140.19
502.90	39894.43
503.07	39943.58
503.25	40437.44
503.43	40112.10
503.60	40844.69
503.78	41165.34
503.95	40519.35
504.13	40865.75
504.30	41123.21
504.48	41207.47
504.65	41153.64
504.83	41581.96
505.01	41724.73
505.18	41937.72
505.36	42096.88
505.53	41675.58
505.71	41677.92
505.88	42314.55
506.06	42223.26
506.23	42628.18
506.41	42649.24
506.58	42981.60
506.76	42733.50
506.93	43026.07
507.11	42518.17
507.28	42567.32
507.46	43442.68
507.63	43557.37
507.81	44172.93
507.98	43173.52
508.16	43723.55
508.33	44289.96
508.50	44245.49
508.68	44208.04
508.85	44493.58
509.03	44495.92
509.20	44975.73
509.38	44975.73
509.55	44961.69
509.73	45092.76
509.90	45387.67
510.08	44919.56
510.25	45326.81
510.42	45062.33
510.60	45549.17
510.77	45762.15
510.95	46078.13
511.12	45818.33
511.30	45937.69
511.47	46412.82
511.64	45797.26
511.82	46277.07
511.99	46452.61
512.17	46167.07
512.34	46286.43
512.51	46932.42
512.69	46909.02
512.86	46473.68
513.04	47327.97
513.21	47330.31
513.38	47224.99
513.56	47578.41
513.73	47393.51
513.90	47622.88
514.08	47466.06
514.25	48041.84
514.43	47800.76
514.60	48168.22
514.77	47772.67
514.95	48177.59
515.12	48163.54
515.29	48041.84
515.47	48268.87
515.64	48875.07
515.81	48311.00
515.99	49106.78
516.16	48900.81
516.33	48725.27
516.51	49059.97
516.68	48769.74
516.85	48917.20
517.03	49315.09
517.20	49298.70
517.37	49099.76
517.54	49242.53
517.72	49588.93
517.89	49649.78
518.06	49720.00
518.24	49408.71
518.41	49633.40
518.58	50270.03
518.75	49614.68
518.93	49940.01
519.10	49949.37
519.27	50314.50
519.45	50520.46
519.62	50532.17
519.79	50539.19
519.96	50480.67
520.14	50696.00
520.31	50672.60
520.48	50925.38
520.65	50747.50
520.83	51227.31
521.00	51435.61
521.17	50726.43
521.34	51056.45
521.52	51119.64
521.69	51159.43
521.86	51583.07
522.03	51735.20
522.20	51838.18
522.38	52074.58
522.55	51995.00
522.72	51793.71
522.89	51786.69
523.07	52392.89
523.24	52105.01
523.41	52172.88
523.58	52144.80
523.75	52135.43
523.92	52158.84
524.10	52140.11
524.27	52250.12
524.44	52491.19
524.61	52418.64
524.78	52460.77
524.96	52423.32
525.13	52765.04
525.30	53169.95
525.47	52839.93
525.64	52830.57
525.81	53270.59
525.98	53226.12
526.16	52952.28
526.33	53134.84
526.50	53476.56
526.67	53249.53
526.84	53284.64
527.01	53071.65
527.18	53183.99
527.36	53565.50
527.53	53258.89
527.70	53563.16
527.87	53895.52
528.04	53380.60
528.21	53750.40
528.38	53654.44
528.55	53841.68
528.72	53858.07
528.89	53963.39
529.07	53666.14
529.24	53642.74
529.41	54061.69
529.58	54045.31
529.75	54277.02
529.92	54071.06
530.09	54237.23
530.26	54181.06
530.43	54466.61
530.60	54225.53
530.77	54251.28
530.94	54567.25
531.11	54583.63
531.28	54583.63
531.46	54625.76
531.63	54644.49
531.80	54459.58
531.97	55079.83
532.14	55112.59
532.31	55189.83
532.48	55157.06
532.65	55285.79
532.82	54747.47
532.99	54972.16
533.16	54920.67
533.33	54934.71
533.50	55531.55
533.67	55477.72
533.84	54960.46
534.01	55365.37
534.18	55276.43
534.35	55536.23
534.52	55421.55
534.69	55655.60
534.86	55992.64
535.03	55386.44
535.20	55636.87
535.37	55877.95
535.54	55866.25
535.71	55634.53
535.88	55852.20
536.05	55756.24
536.22	55929.44
536.38	56088.60
536.55	56067.53
536.72	56189.24
536.89	55896.67
537.06	55964.55
537.23	56261.80
537.40	55957.53
537.57	56046.47
537.74	56273.50
537.91	56310.95
538.08	56247.75
538.25	56041.79
538.42	56259.46
538.59	56409.25
538.75	56266.48
538.92	56514.58
539.09	56659.69
539.26	56418.61
539.43	56526.28
539.60	56561.39
539.77	56416.27
539.94	56924.17
540.11	56722.88
540.28	56760.33
540.44	56994.39
540.61	56776.72
540.78	56683.09
540.95	56769.69
541.12	56762.67
541.29	56882.04
541.46	56568.41
541.62	57209.71
541.79	57090.35
541.96	56701.82
542.13	56783.74
542.30	57132.48
542.47	57043.54
542.63	57125.46
542.80	57134.82
542.97	57588.88
543.14	57462.49
543.31	57464.83
543.48	57572.50
543.64	57996.13
543.81	57633.35
543.98	57881.45
544.15	57736.34
544.32	57752.72
544.48	58012.52
544.65	57757.40
544.82	57904.85
544.99	57792.51
545.16	57759.74
545.32	57851.02
545.49	58040.60
545.66	57991.45
545.83	58035.92
546.00	58056.99
546.16	57975.07
546.33	57993.79
546.50	57928.26
546.67	57841.66
546.83	57979.75
547.00	58089.76
547.17	58223.17
547.34	58028.90
547.50	58094.44
547.67	58384.66
547.84	58375.30
548.00	58384.66
548.17	58557.86
548.34	58674.89
548.51	58581.27
548.67	58749.79
548.84	58351.90
549.01	58216.14
549.18	58522.76
549.34	58553.18
549.51	58422.11
549.68	58497.01
549.84	58710.00
550.01	58906.60
550.18	58511.05
550.34	58887.88
550.51	58794.26
550.68	58789.58
550.84	58803.62
551.01	58890.22
551.18	58939.37
551.34	58759.15
551.51	58894.90
551.68	58967.46
551.84	58700.64
552.01	58831.71
552.18	58995.54
552.34	58866.81
552.51	59068.10
552.68	58967.46
552.84	59009.59
553.01	59285.77
553.18	59346.62
553.34	59339.60
553.51	59002.56
553.67	59262.36
553.84	59124.27
554.01	59224.92
554.17	59428.54
554.34	59318.54
554.51	59138.32
554.67	59363.01
554.84	59323.22
555.00	59285.77
555.17	59299.81
555.33	59465.99
555.50	59449.61
555.67	59341.94
555.83	59447.27
556.00	59428.54
556.16	59725.79
556.33	59791.33
556.50	59515.14
556.66	59688.34
556.83	59667.28
556.99	59655.57
557.16	59938.78
557.32	59856.86
557.49	59894.31
557.65	59915.37
557.82	59835.80
557.98	59580.68
558.15	59906.01
558.32	59735.15
558.48	59716.43
558.65	59859.20
558.81	59774.94
558.98	59906.01
559.14	60156.45
559.31	59920.05
559.47	59906.01
559.64	60196.24
559.80	60020.70
559.97	60212.62
560.13	59929.42
560.30	59945.80
560.46	60109.64
560.63	60069.85
560.79	60060.49
560.96	60193.90
561.12	60130.70
561.29	60116.66
561.45	60245.39
561.61	60123.68
561.78	60320.29
561.94	60069.85
562.11	60158.79
562.27	60392.84
562.44	60083.89
562.60	60420.93
562.77	60189.22
562.93	60210.28
563.10	60357.74
563.26	60027.72
563.42	60540.30
563.59	60561.36
563.75	60381.14
563.92	60346.03
564.08	60238.37
564.24	60495.83
564.41	60254.75
564.57	60502.85
564.74	60559.02
564.90	60406.89
565.07	60310.92
565.23	60566.04
565.39	60526.25
565.56	60570.72
565.72	60444.33
565.88	60631.58
566.05	60631.58
566.21	60608.17
566.38	60530.93
566.54	60715.84
566.70	60699.45
566.87	60809.46
567.03	60444.33
567.19	60690.09
567.36	60797.76
567.52	60741.58
567.68	60963.93
567.85	60774.35
568.01	60851.59
568.17	60556.68
568.34	60846.91
568.50	60589.45
568.66	60512.21
568.83	60516.89
568.99	60554.34
569.15	60715.84
569.32	60669.03
569.48	60643.28
569.64	60760.31
569.81	60720.52
569.97	60741.58
570.13	60849.25
570.30	60715.84
570.46	60814.14
570.62	60968.61
570.78	60725.20
570.95	60830.52
571.11	60996.70
571.27	60921.80
571.43	60900.74
571.60	61174.58
571.76	60912.44
571.92	60828.18
572.09	60940.53
572.25	60816.48
572.41	60945.21
572.57	61069.26
572.74	61132.45
572.90	60999.04
573.06	61015.43
573.22	61057.56
573.38	60987.34
573.55	60865.63
573.71	61160.54
573.87	60865.63
574.03	60764.99
574.20	61137.13
574.36	60973.30
574.52	61062.24
574.68	61097.34
574.84	61144.16
575.01	61036.49
575.17	61095.00
575.33	61106.71
575.49	60853.93
575.65	61160.54
575.82	61237.78
575.98	61226.07
576.14	61153.52
576.30	61244.80
576.46	61048.19
576.62	61027.13
576.79	61045.85
576.95	60914.78
577.11	61272.88
577.27	61113.73
577.43	61116.07
577.59	61071.60
577.75	61095.00
577.92	60828.18
578.08	61048.19
578.24	61378.21
578.40	61251.82
578.56	61181.60
578.72	61102.03
578.88	61443.74
579.04	61258.84
579.21	61179.26
579.37	61357.14
579.53	61179.26
579.69	60884.36
579.85	61034.15
580.01	61205.01
580.17	61106.71
580.33	61223.73
580.49	61310.33
580.65	61293.95
580.82	61148.84
580.98	61214.37
581.14	61256.50
581.30	61326.72
581.46	61190.97
581.62	61172.24
581.78	61165.22
581.94	61336.08
582.10	61111.39
582.26	61020.11
582.42	61228.41
582.58	61230.75
582.74	61183.94
582.90	61066.92
583.06	61329.06
583.22	61219.05
583.38	61186.28
583.54	61300.97
583.70	61453.11
583.86	61378.21
584.02	61095.00
584.18	61361.82
584.34	61298.63
584.50	61296.29
584.66	61197.99
584.82	61141.81
584.98	61265.86
585.14	61298.63
585.30	60980.32
585.46	61235.44
585.62	61359.48
585.78	61478.85
585.94	61338.42
586.10	61415.66
586.26	61305.65
586.42	61286.93
586.58	61364.17
586.74	61495.24
586.90	61221.39
587.06	61268.20
587.22	61476.51
587.38	61511.62
587.54	61558.43
587.70	61478.85
587.86	61553.75
588.02	61574.81
588.18	61602.90
588.34	61467.15
588.49	61436.72
