SpectraSuite Data File
++++++++++++++++++++++++++++++++++++
Date: Fri Oct 25 11:25:36 EDT 2013
User: price-jones
Dark Spectrum Present: No
Reference Spectrum Present: No
Number of Sampled Component Spectra: 1
Spectrometers: USB2+H05261
Integration Time (usec): 100000 (USB2+H05261)
Spectra Averaged: 1 (USB2+H05261)
Boxcar Smoothing: 0 (USB2+H05261)
Correct for Electrical Dark: No (USB2+H05261)
Strobe/Lamp Enabled: No (USB2+H05261)
Correct for Detector Non-linearity: No (USB2+H05261)
Correct for Stray Light: No (USB2+H05261)
Number of Pixels in Processed Spectrum: 2048
>>>>>Begin Processed Spectral Data<<<<<
365.73	248.10
365.92	248.10
366.12	248.10
366.32	217.67
366.52	168.52
366.72	184.90
366.91	114.69
367.11	149.79
367.31	145.11
367.51	100.64
367.70	124.05
367.90	187.24
368.10	154.48
368.30	135.75
368.49	166.18
368.69	180.22
368.89	147.45
369.09	93.62
369.28	210.65
369.48	180.22
369.68	161.50
369.87	182.56
370.07	191.92
370.27	212.99
370.47	245.76
370.66	578.11
370.86	594.50
371.06	713.86
371.25	753.65
371.45	734.93
371.65	720.88
371.84	634.29
372.04	718.54
372.24	713.86
372.44	697.48
372.63	702.16
372.83	683.44
373.03	716.20
373.22	678.76
373.42	774.72
373.62	755.99
373.81	837.91
374.01	858.98
374.21	791.10
374.40	809.83
374.60	873.02
374.79	847.27
374.99	812.17
375.19	805.14
375.38	847.27
375.58	826.21
375.78	882.38
375.97	875.36
376.17	842.59
376.37	873.02
376.56	931.53
376.76	858.98
376.95	842.59
377.15	880.04
377.35	842.59
377.54	931.53
377.74	870.68
377.93	875.36
378.13	915.15
378.33	929.19
378.52	971.32
378.72	957.28
378.91	896.43
379.11	917.49
379.31	933.87
379.50	898.77
379.70	1022.81
379.89	968.98
380.09	898.77
380.28	950.26
380.48	992.39
380.68	966.64
380.87	924.51
381.07	997.07
381.26	1064.94
381.46	1025.15
381.65	976.00
381.85	999.41
382.04	983.02
382.24	1114.10
382.43	1088.35
382.63	1039.20
382.83	1095.37
383.02	1097.71
383.22	1144.52
383.41	1020.47
383.61	1111.75
383.80	1086.01
384.00	1090.69
384.19	1219.42
384.39	1149.20
384.58	1132.82
384.78	1125.80
384.97	1107.07
385.17	1172.61
385.36	1036.86
385.56	1022.81
385.75	1086.01
385.95	1146.86
386.14	1153.88
386.34	1219.42
386.53	1212.40
386.72	1238.14
386.92	1287.29
387.11	1235.80
387.31	1198.35
387.50	1327.08
387.70	1369.21
387.89	1238.14
388.09	1167.93
388.28	1357.51
388.48	1291.98
388.67	1280.27
388.86	1348.15
389.06	1306.02
389.25	1434.75
389.45	1392.62
389.64	1310.70
389.84	1268.57
390.03	1373.89
390.22	1462.83
390.42	1352.83
390.61	1390.28
390.81	1366.87
391.00	1476.88
391.19	1476.88
391.39	1458.15
391.58	1451.13
391.78	1441.77
391.97	1479.22
392.16	1476.88
392.36	1549.43
392.55	1490.92
392.75	1591.56
392.94	1556.46
393.13	1535.39
393.33	1612.63
393.52	1586.88
393.71	1603.27
393.91	1593.90
394.10	1568.16
394.29	1589.22
394.49	1603.27
394.68	1582.20
394.88	1734.34
395.07	1699.23
395.26	1650.08
395.46	1678.16
395.65	1715.61
395.84	1748.38
396.04	1750.72
396.23	1788.17
396.42	1682.85
396.62	1755.40
396.81	1863.07
397.00	1802.21
397.19	1685.19
397.39	1823.28
397.58	1914.56
397.77	1722.63
397.97	1806.89
398.16	1849.02
398.35	1879.45
398.55	1802.21
398.74	1907.54
398.93	1893.49
399.12	1863.07
399.32	1940.30
399.51	1926.26
399.70	2085.42
399.90	1863.07
400.09	1973.07
400.28	2062.01
400.47	2026.90
400.67	2111.16
400.86	2069.03
401.05	2064.35
401.24	2059.67
401.44	2172.02
401.63	2143.93
401.82	2038.61
402.01	2033.93
402.21	2136.91
402.40	2188.40
402.59	2146.27
402.78	2235.21
402.97	2169.68
403.17	2207.13
403.36	2221.17
403.55	2312.45
403.74	2333.51
403.93	2307.77
404.13	2487.99
404.32	2319.47
404.51	2326.49
404.70	2429.48
404.89	2431.82
405.09	2483.31
405.28	2445.86
405.47	2562.89
405.66	2401.39
405.85	2466.92
406.05	2466.92
406.24	2539.48
406.43	2478.63
406.62	2693.96
406.81	2705.66
407.00	2602.68
407.20	2609.70
407.39	2544.16
407.58	2623.74
407.77	2628.42
407.96	2864.82
408.15	2801.62
408.34	2717.36
408.54	2745.45
408.73	2759.49
408.92	2700.98
409.11	2862.48
409.30	2761.83
409.49	2855.45
409.68	2939.71
409.87	2946.73
410.07	3000.57
410.26	2972.48
410.45	3035.67
410.64	3012.27
410.83	3061.42
411.02	2984.18
411.21	3157.38
411.40	3108.23
411.59	3290.79
411.78	3150.36
411.98	3150.36
412.17	3335.26
412.36	3300.16
412.55	3351.65
412.74	3489.74
412.93	3368.03
413.12	3368.03
413.31	3346.97
413.50	3421.86
413.69	3407.82
413.88	3599.74
414.07	3538.89
414.26	3513.14
414.45	3599.74
414.64	3723.79
414.83	3782.31
415.02	3763.58
415.22	3737.84
415.41	3929.76
415.60	3901.67
415.79	3857.20
415.98	3967.21
416.17	3906.35
416.36	3896.99
416.55	4035.08
416.74	4023.38
416.93	4042.11
417.12	4273.82
417.31	4081.89
417.50	4201.26
417.69	4175.52
417.88	4184.88
418.07	4189.56
418.26	4241.05
418.45	4383.82
418.64	4493.83
418.83	4271.48
419.02	4360.42
419.21	4517.23
419.39	4456.38
419.58	4372.12
419.77	4451.70
419.96	4641.28
420.15	4557.02
420.34	4552.34
420.53	4582.77
420.72	4671.71
420.91	4702.14
421.10	4767.67
421.29	4873.00
421.48	4711.50
421.67	4826.18
421.86	4755.97
422.05	4823.84
422.24	4610.86
422.43	4807.46
422.61	4748.95
422.80	4744.27
422.99	4990.02
423.18	4877.68
423.37	5004.07
423.56	4971.30
423.75	4753.63
423.94	4814.48
424.13	4566.39
424.32	4636.60
424.50	4837.89
424.69	5027.47
424.88	5210.03
425.07	4950.23
425.26	4898.74
425.45	4877.68
425.64	4968.96
425.83	4919.81
426.01	5116.41
426.20	5055.56
426.39	4880.02
426.58	5008.75
426.77	5102.37
426.96	5111.73
427.15	5109.39
427.33	5142.16
427.52	5109.39
427.71	5224.08
427.90	5055.56
428.09	5385.57
428.28	5252.16
428.46	5203.01
428.65	5284.93
428.84	5518.98
429.03	5495.58
429.22	5207.69
429.40	5397.28
429.59	5394.93
429.78	5364.51
429.97	5263.86
430.16	5376.21
430.34	5535.37
430.53	5511.96
430.72	5497.92
430.91	5586.86
431.10	5631.33
431.28	5783.46
431.47	5694.52
431.66	5905.17
431.85	5673.46
432.03	5881.77
432.22	6043.26
432.41	5795.17
432.60	5891.13
432.79	5720.27
432.97	5991.77
433.16	6069.01
433.35	5944.96
433.54	6001.13
433.72	6120.50
433.91	6282.00
434.10	6083.05
434.28	6050.28
434.47	6160.29
434.66	6160.29
434.85	6319.45
435.03	6270.30
435.22	6125.18
435.41	6450.52
435.59	6235.19
435.78	6338.17
435.97	6499.67
436.16	6422.43
436.34	6455.20
436.53	6445.84
436.72	6693.93
436.90	6312.42
437.09	6490.31
437.28	6326.47
437.46	6473.92
437.65	6558.18
437.84	6579.25
438.02	6780.53
438.21	6677.55
438.40	6572.22
438.58	6892.88
438.77	7030.97
438.96	6984.16
439.14	7243.96
439.33	7005.22
439.52	7040.33
439.70	7145.66
439.89	7487.37
440.08	7316.51
440.26	7417.16
440.45	7293.11
440.63	7229.91
440.82	7555.25
441.01	7522.48
441.19	7506.10
441.38	7669.94
441.57	7779.94
441.75	7791.64
441.94	7918.03
442.12	7880.58
442.31	8051.44
442.50	7901.65
442.68	7939.10
442.87	7997.61
443.05	8060.80
443.24	8173.15
443.43	8044.42
443.61	8210.60
443.80	8379.12
443.98	8156.77
444.17	7721.43
444.35	8100.59
444.54	8236.35
444.73	8313.58
444.91	8241.03
445.10	8201.24
445.28	8208.26
445.47	8173.15
445.65	8259.75
445.84	8276.13
446.02	8397.84
446.21	8306.56
446.39	8365.07
446.58	8594.45
446.77	8601.47
446.95	8196.56
447.14	8358.05
447.32	8535.93
447.51	8418.91
447.69	8332.31
447.88	8507.85
448.06	8528.91
448.25	8592.11
448.43	8559.34
448.62	8620.19
448.80	8409.54
448.99	8634.24
449.17	8798.07
449.36	8519.55
449.54	8851.91
449.73	8971.27
449.91	9015.74
450.10	8844.88
450.28	9076.60
450.46	9060.21
450.65	8997.02
450.83	8973.61
451.02	9088.30
451.20	9247.46
451.39	9041.49
451.57	8947.87
451.76	8954.89
451.94	9001.70
452.13	9287.25
452.31	9158.52
452.49	9135.11
452.68	9224.05
452.86	9369.16
453.05	9277.88
453.23	9453.42
453.42	9378.53
453.60	9158.52
453.78	9413.63
453.97	9296.61
454.15	9507.26
454.34	9308.31
454.52	9710.88
454.70	9465.13
454.89	9577.47
455.07	9764.72
455.26	9827.91
455.44	10143.88
455.62	9841.95
455.81	9781.10
455.99	9900.47
456.17	10010.47
456.36	9872.38
456.54	10104.09
456.73	10061.96
456.91	10436.45
457.09	10303.04
457.28	10637.73
457.46	10200.05
457.64	10305.38
457.83	10354.53
458.01	10429.43
458.19	10602.63
458.38	10422.41
458.56	10600.29
458.74	10757.10
458.93	10558.16
459.11	10677.52
459.29	10649.44
459.48	10672.84
459.66	10642.42
459.84	10824.98
460.03	10916.26
460.21	11073.07
460.39	10970.09
460.57	10939.66
460.76	11012.22
460.94	11105.84
461.12	10972.43
461.31	11103.50
461.49	11110.52
461.67	11126.91
461.85	11281.38
462.04	11044.99
462.22	11550.54
462.40	11461.60
462.59	11358.62
462.77	11440.54
462.95	11611.40
463.13	11445.22
463.32	11543.52
463.50	11681.61
463.68	11742.47
463.86	11737.79
464.05	11616.08
464.23	11576.29
464.41	11838.43
464.59	11580.97
464.78	11950.78
464.96	12006.95
465.14	11665.23
465.32	11812.68
465.50	12273.77
465.69	12020.99
465.87	11906.31
466.05	12198.87
466.23	12060.78
466.41	12407.18
466.60	12610.81
466.78	12135.68
466.96	12037.38
467.14	12308.88
467.32	12360.37
467.51	12421.22
467.69	12023.33
467.87	12362.71
468.05	12306.54
468.23	12121.63
468.41	12404.84
468.60	12482.08
468.78	12578.04
468.96	12374.41
469.14	12617.83
469.32	12844.86
469.50	12802.73
469.69	13032.10
469.87	13008.70
470.05	13097.64
470.23	13322.33
470.41	12987.63
470.59	12978.27
470.77	12950.18
470.95	12812.09
471.14	13432.33
471.32	13083.59
471.50	13366.80
471.68	13369.14
471.86	13605.53
472.04	13699.16
472.22	14068.96
472.40	13701.50
472.58	13703.84
472.77	13923.85
472.95	13893.42
473.13	14476.21
473.31	14085.34
473.49	14071.30
473.67	14097.05
473.85	14178.97
474.03	14560.47
474.21	14576.86
474.39	14771.12
474.57	14614.30
474.75	14714.95
474.93	14799.21
475.12	14944.32
475.30	14920.92
475.48	14848.36
475.66	15112.84
475.84	14979.43
476.02	15300.08
476.20	15566.90
476.38	15513.07
476.56	15955.43
476.74	16006.92
476.92	15744.78
477.10	15730.74
477.28	16114.59
477.46	15817.34
477.64	16348.64
477.82	16322.90
478.00	16945.48
478.18	16589.72
478.36	16510.14
478.54	16931.44
478.72	17039.10
478.90	17018.04
479.08	17525.93
479.26	17790.41
479.44	17657.00
479.62	18022.12
479.80	17888.71
479.98	18015.10
480.16	18420.02
480.34	18319.37
480.52	18319.37
480.70	18637.69
480.88	18307.67
481.06	18614.28
481.24	18649.39
481.41	19321.12
481.59	19335.17
481.77	19297.72
481.95	19454.53
482.13	19749.44
482.31	19484.96
482.49	19983.49
482.67	19903.92
482.85	20224.57
483.03	20458.62
483.21	20482.03
483.39	20828.43
483.57	20650.55
483.74	20819.07
483.92	21245.04
484.10	21486.12
484.28	21460.37
484.46	22019.76
484.64	22422.33
484.82	21984.65
485.00	22134.45
485.18	22609.58
485.35	22864.69
485.53	22443.40
485.71	22782.77
485.89	23131.51
486.07	23227.48
486.25	23307.05
486.43	23864.10
486.61	23697.92
486.78	23997.51
486.96	23964.75
487.14	24299.44
487.32	24360.30
487.50	24704.35
487.68	24898.62
487.85	25174.80
488.03	25385.45
488.21	25591.42
488.39	25731.85
488.57	26160.17
488.75	25741.21
488.92	26082.93
489.10	26434.01
489.28	26733.60
489.46	26916.16
489.64	26932.54
489.81	27475.55
489.99	27468.53
490.17	27534.06
490.35	28208.14
490.53	28318.14
490.70	28252.61
490.88	28266.65
491.06	28631.77
491.24	28718.37
491.41	28847.10
491.59	29406.49
491.77	28964.13
491.95	29469.69
492.13	29312.87
492.30	29846.51
492.48	29715.44
492.66	29902.68
492.84	30274.83
493.01	30504.20
493.19	30656.34
493.37	30742.94
493.54	30965.29
493.72	31115.08
493.90	31096.36
494.08	30796.77
494.25	32177.68
494.43	31992.78
494.61	32065.34
494.79	32313.44
494.96	32196.41
495.14	32559.19
495.32	33242.63
495.49	32828.35
495.67	33343.27
495.85	33357.32
496.02	33670.95
496.20	33605.41
496.38	34129.69
496.55	33984.58
496.73	34354.38
496.91	34394.17
497.09	34239.70
497.26	34792.06
497.44	34663.33
497.62	34958.24
497.79	35400.60
497.97	35056.54
498.14	35852.33
498.32	35936.59
498.50	35763.39
498.67	36184.68
498.85	36018.50
499.03	36753.43
499.20	36385.97
499.38	36285.33
499.56	36645.77
499.73	36395.33
499.91	36554.49
500.08	37474.32
500.26	37448.57
500.44	37603.05
500.61	37642.84
500.79	37762.20
500.97	37956.47
501.14	38548.62
501.32	38756.93
501.49	38405.85
501.67	38546.28
501.84	38604.80
502.02	38642.24
502.20	38918.43
502.37	39269.51
502.55	39133.76
502.72	39274.19
502.90	39674.42
503.07	39433.35
503.25	39721.23
503.43	39299.94
503.60	39812.51
503.78	40091.04
503.95	39990.39
504.13	40053.59
504.30	40343.81
504.48	40341.47
504.65	40175.30
504.83	40706.60
505.01	41202.79
505.18	40774.47
505.36	41310.46
505.53	40971.08
505.71	41755.16
505.88	41645.15
506.06	41177.04
506.23	41900.27
506.41	41771.54
506.58	42103.90
506.76	42370.72
506.93	42426.89
507.11	41975.17
507.28	42344.97
507.46	42323.91
507.63	42604.77
507.81	43147.78
507.98	42820.10
508.16	43168.84
508.33	42969.90
508.50	43051.81
508.68	43498.86
508.85	43302.25
509.03	43543.33
509.20	43964.62
509.38	44126.12
509.55	44203.36
509.73	44603.59
509.90	44367.20
510.08	44264.21
510.25	44362.51
510.42	44376.56
510.60	45198.09
510.77	45132.55
510.95	44882.11
511.12	44650.40
511.30	44992.12
511.47	45228.51
511.64	45305.75
511.82	45628.74
511.99	45317.45
512.17	45736.41
512.34	45558.53
512.51	46146.00
512.69	46007.91
512.86	45879.18
513.04	46480.70
513.21	46408.14
513.38	46335.59
513.56	46848.16
513.73	46363.67
513.90	46710.07
514.08	46656.24
514.25	47012.00
514.43	47173.50
514.60	47009.66
514.77	47325.63
514.95	47753.95
515.12	47019.02
515.29	47302.23
515.47	47732.89
515.64	47824.17
515.81	47501.17
515.99	48072.26
516.16	48170.57
516.33	48013.75
516.51	48360.15
516.68	48327.38
516.85	48030.13
517.03	48711.23
517.20	48006.73
517.37	48633.99
517.54	48467.81
517.72	48898.47
517.89	49088.06
518.06	48739.32
518.24	49455.52
518.41	48715.91
518.58	48884.43
518.75	49333.81
518.93	49382.96
519.10	49474.24
519.27	49684.89
519.45	49588.93
519.62	49502.33
519.79	49979.80
519.96	49605.31
520.14	49963.42
520.31	49876.82
520.48	50375.35
520.65	50475.99
520.83	50471.31
521.00	50763.88
521.17	50136.62
521.34	50593.02
521.52	50740.47
521.69	50740.47
521.86	50433.86
522.03	50588.34
522.20	51042.40
522.38	51538.60
522.55	51138.36
522.72	51412.21
522.89	51086.87
523.07	51381.78
523.24	51224.96
523.41	51426.25
523.58	51105.60
523.75	51522.21
523.92	51442.63
524.10	51697.75
524.27	52018.41
524.44	51576.04
524.61	52016.07
524.78	51992.66
524.96	51849.89
525.13	52182.24
525.30	52069.90
525.47	52240.76
525.64	52151.82
525.81	52273.52
525.98	52556.73
526.16	52278.21
526.33	52381.19
526.50	52750.99
526.67	52533.32
526.84	52526.30
527.01	52470.13
527.18	53031.86
527.36	52849.30
527.53	52758.02
527.70	53312.72
527.87	53003.77
528.04	52891.43
528.21	53317.40
528.38	53195.70
528.55	53432.09
528.72	53263.57
528.89	53352.51
529.07	53109.10
529.24	53216.76
529.41	53759.76
529.58	53343.15
529.75	53546.78
529.92	53490.60
530.09	53432.09
530.26	53771.47
530.43	53888.49
530.60	53696.57
530.77	53605.29
530.94	53837.00
531.11	53897.86
531.28	53897.86
531.46	54026.59
531.63	53958.71
531.80	54024.25
531.97	54108.50
532.14	54447.88
532.31	54277.02
532.48	54468.95
532.65	54457.24
532.82	54218.51
532.99	54459.58
533.16	54347.24
533.33	54398.73
533.50	54773.22
533.67	54518.10
533.84	54424.48
534.01	54644.49
534.18	54548.53
534.35	55056.42
534.52	54894.92
534.69	54899.61
534.86	55061.10
535.03	54789.60
535.20	55304.52
535.37	55079.83
535.54	55138.34
535.71	55161.75
535.88	55248.35
536.05	55400.48
536.22	55409.84
536.38	55442.61
536.55	55421.55
536.72	55210.90
536.89	55365.37
537.06	55540.91
537.23	55770.28
537.40	55201.53
537.57	55662.62
537.74	55468.36
537.91	55770.28
538.08	55524.53
538.25	55440.27
538.42	55779.65
538.59	56053.49
538.75	55482.40
538.92	55561.98
539.09	55901.36
539.26	55941.14
539.43	56179.88
539.60	56013.70
539.77	56130.73
539.94	56317.97
540.11	56238.39
540.28	56123.71
540.44	56285.20
540.61	56191.58
540.78	56182.22
540.95	56268.82
541.12	56217.33
541.29	56385.85
541.46	56481.81
541.62	56322.65
541.79	56460.74
541.96	56442.02
542.13	56535.64
542.30	56470.11
542.47	56769.69
542.63	56893.74
542.80	56816.50
542.97	56807.14
543.14	56891.40
543.31	56804.80
543.48	57010.77
543.64	57392.28
543.81	57265.89
543.98	57118.43
544.15	57137.16
544.32	57230.78
544.48	57403.98
544.65	57160.56
544.82	57078.64
544.99	57069.28
545.16	57275.25
545.32	56945.23
545.49	57588.88
545.66	57521.01
545.83	57333.76
546.00	57595.90
546.16	57485.90
546.33	57607.61
546.50	57354.83
546.67	57502.28
546.83	57535.05
547.00	57411.00
547.17	57312.70
547.34	57539.73
547.50	58000.82
547.67	57822.93
547.84	57794.85
548.00	57909.53
548.17	58045.29
548.34	57984.43
548.51	58248.91
548.67	58117.84
548.84	57879.11
549.01	57865.06
549.18	58005.50
549.34	58127.20
549.51	58185.72
549.68	58480.63
549.84	58129.54
550.01	58209.12
550.18	58269.98
550.34	58417.43
550.51	58408.07
550.68	58157.63
550.84	57970.39
551.01	58412.75
551.18	58223.17
551.34	58293.38
551.51	58473.60
551.68	58300.40
551.84	58415.09
552.01	58379.98
552.18	58609.35
552.34	58555.52
552.51	58609.35
552.68	58382.32
552.84	58553.18
553.01	58710.00
553.18	58663.19
553.34	58691.27
553.51	58511.05
553.67	58440.84
553.84	58986.18
554.01	58710.00
554.17	58997.88
554.34	58876.18
554.51	58845.75
554.67	58927.67
554.84	58862.13
555.00	58794.26
555.17	58897.24
555.33	58768.51
555.50	58688.93
555.67	58901.92
555.83	58805.96
556.00	58951.07
556.16	59290.45
556.33	59112.57
556.50	59044.69
556.66	59250.66
556.83	58955.75
556.99	59302.15
557.16	59377.05
557.32	59318.54
557.49	59353.65
557.65	59213.21
557.82	59236.62
557.98	59103.21
558.15	59360.67
558.32	59391.09
558.48	59231.94
558.65	59444.93
558.81	59295.13
558.98	59325.56
559.14	59442.59
559.31	59538.55
559.47	59346.62
559.64	59751.54
559.80	59332.58
559.97	59576.00
560.13	59536.21
560.30	59487.06
560.46	59398.12
560.63	59732.81
560.79	59655.57
560.96	59924.74
561.12	59746.86
561.29	59732.81
561.45	59657.91
561.61	59664.94
561.78	59620.47
561.94	59662.60
562.11	59721.11
562.27	59847.50
562.44	59835.80
562.60	59913.03
562.77	59847.50
562.93	59629.83
563.10	59824.09
563.26	59763.24
563.42	60097.94
563.59	59753.88
563.75	59887.29
563.92	59936.44
564.08	59849.84
564.24	60037.08
564.41	59810.05
564.57	60126.02
564.74	59913.03
564.90	59987.93
565.07	59831.11
565.23	60001.97
565.39	60055.81
565.56	60030.06
565.72	60051.12
565.88	60037.08
566.05	60037.08
566.21	59966.87
566.38	60191.56
566.54	60353.05
566.70	60172.83
566.87	60498.17
567.03	59948.14
567.19	60322.63
567.36	60186.88
567.52	60023.04
567.68	60502.85
567.85	60158.79
568.01	60214.96
568.17	60282.84
568.34	60341.35
568.50	60093.25
568.66	60303.90
568.83	60214.96
568.99	60175.17
569.15	60451.36
569.32	60184.54
569.48	60147.09
569.64	60299.22
569.81	60390.50
569.97	60079.21
570.13	60434.97
570.30	60296.88
570.46	60402.21
570.62	60292.20
570.78	60385.82
570.95	60402.21
571.11	60331.99
571.27	60561.36
571.43	60460.72
571.60	60441.99
571.76	60451.36
571.92	60294.54
572.09	60264.11
572.25	60580.09
572.41	60324.97
572.57	60526.25
572.74	60664.35
572.90	60491.15
573.06	60647.96
573.22	60507.53
573.38	60444.33
573.55	60549.66
573.71	60757.97
573.87	60647.96
574.03	60418.59
574.20	60528.59
574.36	60336.67
574.52	60601.15
574.68	60636.26
574.84	60533.28
575.01	60598.81
575.17	60472.42
575.33	60371.78
575.49	60516.89
575.65	60451.36
575.82	60802.44
575.98	60701.79
576.14	60963.93
576.30	60645.62
576.46	60486.46
576.62	60743.92
576.79	60645.62
576.95	60519.23
577.11	60598.81
577.27	60678.39
577.43	60669.03
577.59	60676.05
577.75	60446.68
577.92	60575.40
578.08	60512.21
578.24	60552.00
578.40	60996.70
578.56	60704.13
578.72	60729.88
578.88	60830.52
579.04	60851.59
579.21	60837.54
579.37	60720.52
579.53	60783.71
579.69	60652.64
579.85	60500.51
580.01	60591.79
580.17	60734.56
580.33	60851.59
580.49	60879.67
580.65	60814.14
580.82	60779.03
580.98	60654.98
581.14	60533.28
581.30	60942.87
581.46	60853.93
581.62	60882.02
581.78	60678.39
581.94	60837.54
582.10	60853.93
582.26	60814.14
582.42	60769.67
582.58	60786.05
582.74	60776.69
582.90	60800.10
583.06	60767.33
583.22	60552.00
583.38	60697.11
583.54	61006.06
583.70	60884.36
583.86	61059.90
584.02	60879.67
584.18	60992.02
584.34	61120.75
584.50	60809.46
584.66	60725.20
584.82	60706.47
584.98	60959.25
585.14	61045.85
585.30	60940.53
585.46	60921.80
585.62	60973.30
585.78	60905.42
585.94	60662.00
586.10	60924.14
586.26	60760.31
586.42	60853.93
586.58	60996.70
586.74	60701.79
586.90	60928.83
587.06	60800.10
587.22	61139.47
587.38	60802.44
587.54	61043.51
587.70	61127.77
587.86	60884.36
588.02	60743.92
588.18	61113.73
588.34	60823.50
588.49	60870.31
