SpectraSuite Data File
++++++++++++++++++++++++++++++++++++
Date: Fri Oct 25 11:24:02 EDT 2013
User: price-jones
Dark Spectrum Present: No
Reference Spectrum Present: No
Number of Sampled Component Spectra: 1
Spectrometers: USB2+H05261
Integration Time (usec): 100000 (USB2+H05261)
Spectra Averaged: 1 (USB2+H05261)
Boxcar Smoothing: 0 (USB2+H05261)
Correct for Electrical Dark: No (USB2+H05261)
Strobe/Lamp Enabled: No (USB2+H05261)
Correct for Detector Non-linearity: No (USB2+H05261)
Correct for Stray Light: No (USB2+H05261)
Number of Pixels in Processed Spectrum: 2048
>>>>>Begin Processed Spectral Data<<<<<
365.73	231.71
365.92	231.71
366.12	231.71
366.32	168.52
366.52	147.45
366.72	170.86
366.91	105.32
367.11	51.49
367.31	117.03
367.51	203.63
367.70	107.66
367.90	121.71
368.10	145.11
368.30	58.51
368.49	105.32
368.69	147.45
368.89	180.22
369.09	191.92
369.28	208.31
369.48	154.48
369.68	107.66
369.87	203.63
370.07	187.24
370.27	255.12
370.47	327.68
370.66	517.26
370.86	660.03
371.06	667.05
371.25	641.31
371.45	641.31
371.65	690.46
371.84	748.97
372.04	664.71
372.24	716.20
372.44	732.59
372.63	763.01
372.83	807.48
373.03	767.70
373.22	638.97
373.42	763.01
373.62	793.44
373.81	779.40
374.01	793.44
374.21	842.59
374.40	837.91
374.60	819.19
374.79	858.98
374.99	837.91
375.19	746.63
375.38	830.89
375.58	856.64
375.78	961.96
375.97	830.89
376.17	999.41
376.37	821.53
376.56	901.11
376.76	866.00
376.95	781.74
377.15	856.64
377.35	952.60
377.54	901.11
377.74	910.47
377.93	837.91
378.13	912.81
378.33	936.21
378.52	905.79
378.72	966.64
378.91	880.04
379.11	1029.84
379.31	924.51
379.50	994.73
379.70	994.73
379.89	1001.75
380.09	950.26
380.28	997.07
380.48	971.32
380.68	1013.45
380.87	961.96
381.07	966.64
381.26	1053.24
381.46	1034.52
381.65	1053.24
381.85	997.07
382.04	992.39
382.24	1062.60
382.43	1006.43
382.63	1043.88
382.83	999.41
383.02	1104.73
383.22	1078.99
383.41	1039.20
383.61	1069.62
383.80	1097.71
384.00	1081.33
384.19	1090.69
384.39	1151.54
384.58	1097.71
384.78	1132.82
384.97	1184.31
385.17	1053.24
385.36	1142.18
385.56	1177.29
385.75	1219.42
385.95	1184.31
386.14	1231.12
386.34	1193.67
386.53	1221.76
386.72	1170.27
386.92	1266.23
387.11	1210.06
387.31	1348.15
387.50	1287.29
387.70	1299.00
387.89	1273.25
388.09	1270.91
388.28	1289.64
388.48	1263.89
388.67	1308.36
388.86	1277.93
389.06	1315.38
389.25	1315.38
389.45	1362.19
389.64	1273.25
389.84	1432.41
390.03	1411.34
390.22	1355.17
390.42	1289.64
390.61	1409.00
390.81	1397.30
391.00	1371.55
391.19	1453.47
391.39	1383.26
391.58	1441.77
391.78	1448.79
391.97	1537.73
392.16	1397.30
392.36	1474.54
392.55	1507.30
392.75	1483.90
392.94	1589.22
393.13	1582.20
393.33	1469.86
393.52	1530.71
393.71	1537.73
393.91	1633.69
394.10	1561.14
394.29	1643.06
394.49	1591.56
394.68	1708.59
394.88	1654.76
395.07	1605.61
395.26	1687.53
395.46	1694.55
395.65	1696.89
395.84	1727.32
396.04	1692.21
396.23	1753.06
396.42	1680.50
396.62	1732.00
396.81	1816.26
397.00	1809.23
397.19	1842.00
397.39	1795.19
397.58	1834.98
397.77	1849.02
397.97	1764.76
398.16	1830.30
398.35	1963.71
398.55	1874.77
398.74	1888.81
398.93	2040.95
399.12	1849.02
399.32	1849.02
399.51	1900.52
399.70	1935.62
399.90	1973.07
400.09	2015.20
400.28	2073.71
400.47	2015.20
400.67	2115.84
400.86	2022.22
401.05	2120.53
401.24	2118.18
401.44	2129.89
401.63	2122.87
401.82	2239.89
402.01	2214.15
402.21	2078.40
402.40	2237.55
402.59	2188.40
402.78	2214.15
402.97	2235.21
403.17	2244.57
403.36	2209.47
403.55	2377.98
403.74	2392.03
403.93	2438.84
404.13	2377.98
404.32	2338.20
404.51	2335.85
404.70	2408.41
404.89	2303.09
405.09	2466.92
405.28	2579.27
405.47	2387.35
405.66	2527.78
405.85	2576.93
406.05	2548.84
406.24	2525.44
406.43	2492.67
406.62	2600.34
406.81	2693.96
407.00	2555.86
407.20	2595.65
407.39	2691.62
407.58	2710.34
407.77	2745.45
407.96	2757.15
408.15	2796.94
408.34	2724.38
408.54	2867.16
408.73	2731.41
408.92	2808.64
409.11	2818.00
409.30	2827.37
409.49	2876.52
409.68	3026.31
409.87	2979.50
410.07	3002.91
410.26	3000.57
410.45	3049.72
410.64	3000.57
410.83	3141.00
411.02	3115.25
411.21	3229.94
411.40	3145.68
411.59	3171.43
411.78	3232.28
411.98	3183.13
412.17	3248.66
412.36	3274.41
412.55	3368.03
412.74	3377.39
412.93	3431.23
413.12	3389.10
413.31	3618.47
413.50	3520.17
413.69	3503.78
413.88	3618.47
414.07	3723.79
414.26	3714.43
414.45	3634.85
414.64	3695.71
414.83	3777.62
415.02	3723.79
415.22	3873.59
415.41	3934.44
415.60	3875.93
415.79	3885.29
415.98	3906.35
416.17	3948.48
416.36	3859.54
416.55	3906.35
416.74	4084.23
416.93	4091.26
417.12	4184.88
417.31	4198.92
417.50	4163.81
417.69	4395.53
417.88	4299.56
418.07	4184.88
418.26	4292.54
418.45	4454.04
418.64	4461.06
418.83	4458.72
419.02	4381.48
419.21	4519.57
419.39	4503.19
419.58	4505.53
419.77	4416.59
419.96	4383.82
420.15	4720.86
420.34	4606.17
420.53	4760.65
420.72	4671.71
420.91	4624.90
421.10	4802.78
421.29	4777.03
421.48	4884.70
421.67	4781.71
421.86	4755.97
422.05	4674.05
422.24	5039.17
422.43	4959.60
422.61	5083.64
422.80	4910.44
422.99	4985.34
423.18	4819.16
423.37	4978.32
423.56	4959.60
423.75	4919.81
423.94	4835.55
424.13	4660.01
424.32	4812.14
424.50	4943.21
424.69	5123.43
424.88	5078.96
425.07	4908.10
425.26	5013.43
425.45	4978.32
425.64	4901.08
425.83	4940.87
426.01	5132.79
426.20	5085.98
426.39	5121.09
426.58	5074.28
426.77	5004.07
426.96	5074.28
427.15	5256.84
427.33	5186.63
427.52	5287.27
427.71	5329.40
427.90	5329.40
428.09	5423.02
428.28	5441.75
428.46	5357.49
428.65	5355.15
428.84	5472.17
429.03	5373.87
429.22	5366.85
429.40	5518.98
429.59	5483.88
429.78	5273.23
429.97	5483.88
430.16	5577.50
430.34	5678.14
430.53	5689.84
430.72	5774.10
430.91	5668.78
431.10	5643.03
431.28	5734.31
431.47	5867.72
431.66	5900.49
431.85	5736.65
432.03	5909.85
432.22	6031.56
432.41	5968.37
432.60	6043.26
432.79	6038.58
432.97	6092.41
433.16	6141.57
433.35	6097.10
433.54	6019.86
433.72	6033.90
433.91	6120.50
434.10	6314.77
434.28	6216.46
434.47	6258.59
434.66	6260.93
434.85	6392.00
435.03	6431.79
435.22	6396.68
435.41	6534.78
435.59	6403.71
435.78	6466.90
435.97	6471.58
436.16	6438.81
436.34	6377.96
436.53	6427.11
436.72	6649.46
436.90	6403.71
437.09	6850.75
437.28	6434.13
437.46	6726.70
437.65	6719.68
437.84	6810.96
438.02	6876.49
438.21	6785.21
438.40	6682.23
438.58	7056.72
438.77	7028.63
438.96	7016.93
439.14	7208.85
439.33	7314.17
439.52	7171.40
439.70	7342.26
439.89	7433.54
440.08	7288.43
440.26	7447.58
440.45	7351.62
440.63	7552.91
440.82	7625.47
441.01	7543.55
441.19	7632.49
441.38	7845.48
441.57	7817.39
441.75	7683.98
441.94	7955.48
442.12	7927.39
442.31	8159.11
442.50	8081.87
442.68	8053.78
442.87	7992.93
443.05	7920.37
443.24	8287.84
443.43	8067.83
443.61	8168.47
443.80	8505.51
443.98	8215.28
444.17	8042.08
444.35	8156.77
444.54	8390.82
444.73	8234.00
444.91	8461.04
445.10	8428.27
445.28	8454.02
445.47	8212.94
445.65	8505.51
445.84	8540.61
446.02	8571.04
446.21	8442.31
446.39	8383.80
446.58	8634.24
446.77	8402.52
446.95	8339.33
447.14	8629.56
447.32	8542.96
447.51	8533.59
447.69	8421.25
447.88	8468.06
448.06	8454.02
448.25	8500.83
448.43	8652.96
448.62	8830.84
448.80	8716.16
448.99	8849.57
449.17	8784.03
449.36	8627.21
449.54	8898.72
449.73	9156.18
449.91	8994.68
450.10	8959.57
450.28	8980.64
450.46	9125.75
450.65	9104.68
450.83	9104.68
451.02	9254.48
451.20	9317.67
451.39	9050.85
451.57	9359.80
451.76	9191.28
451.94	9212.35
452.13	9284.91
452.31	9238.09
452.49	9383.21
452.68	9378.53
452.86	9336.40
453.05	9462.79
453.23	9603.22
453.42	9406.61
453.60	9315.33
453.78	9568.11
453.97	9666.41
454.15	9678.12
454.34	9509.60
454.52	9757.69
454.70	9664.07
454.89	9858.34
455.07	9858.34
455.26	9907.49
455.44	10040.90
455.62	10083.03
455.81	10026.86
455.99	10090.05
456.17	10005.79
456.36	9937.91
456.54	10478.58
456.73	10368.57
456.91	10480.92
457.09	10670.50
457.28	10530.07
457.46	10567.52
457.64	10794.55
457.83	10658.80
458.01	10490.28
458.19	10668.16
458.38	10628.37
458.56	10719.65
458.74	10778.17
458.93	10637.73
459.11	10731.36
459.29	10839.02
459.48	10864.77
459.66	10895.19
459.84	11215.85
460.03	11138.61
460.21	10953.71
460.39	10953.71
460.57	11068.39
460.76	10977.11
460.94	11190.10
461.12	11279.04
461.31	11274.36
461.49	11204.14
461.67	11173.72
461.85	11442.88
462.04	11190.10
462.22	11520.12
462.40	11501.39
462.59	11435.86
462.77	11613.74
462.95	11630.12
463.13	11573.95
463.32	11644.17
463.50	11906.31
463.68	11817.36
463.86	11971.84
464.05	11915.67
464.23	11777.58
464.41	11990.56
464.59	11751.83
464.78	12219.94
464.96	12177.81
465.14	11978.86
465.32	12226.96
465.50	11934.39
465.69	12140.36
465.87	12042.06
466.05	12072.48
466.23	12276.11
466.41	12372.07
466.60	12578.04
466.78	12243.34
466.96	12351.01
467.14	12566.34
467.32	12556.97
467.51	12697.41
467.69	12376.75
467.87	12592.08
468.05	12690.38
468.23	12704.43
468.41	12372.07
468.60	12414.20
468.78	12917.42
468.96	12645.91
469.14	12905.71
469.32	12971.25
469.50	12760.60
469.69	13348.08
469.87	12968.91
470.05	13020.40
470.23	13324.67
470.41	13174.88
470.59	13219.35
470.77	13476.80
470.95	13394.89
471.14	13661.71
471.32	13156.15
471.50	13647.66
471.68	13605.53
471.86	13710.86
472.04	13699.16
472.22	13991.72
472.40	13879.38
472.58	14068.96
472.77	13916.83
472.95	14075.98
473.13	14590.90
473.31	14295.99
473.49	14331.10
473.67	14485.58
473.85	14314.72
474.03	14700.90
474.21	14668.14
474.39	14834.32
474.57	14869.42
474.75	14906.87
474.93	14925.60
475.12	15051.99
475.30	15391.36
475.48	15222.84
475.66	15049.64
475.84	15225.18
476.02	15431.15
476.20	15190.08
476.38	15779.89
476.56	16039.69
476.74	15962.45
476.92	15995.22
477.10	15999.90
477.28	15983.52
477.46	16287.79
477.64	16327.58
477.82	16606.10
478.00	16898.67
478.18	17064.85
478.36	17172.51
478.54	17458.06
478.72	17170.17
478.90	17448.69
479.08	17390.18
479.26	17554.02
479.44	17572.74
479.62	17933.18
479.80	18017.44
479.98	18272.56
480.16	18623.64
480.34	18487.89
480.52	18853.02
480.70	18735.99
480.88	18462.15
481.06	18628.32
481.24	18806.20
481.41	19583.26
481.59	19470.92
481.77	19522.41
481.95	19728.38
482.13	19793.91
482.31	19655.82
482.49	20196.48
482.67	20409.47
482.85	20751.19
483.03	20617.78
483.21	20594.37
483.39	21228.66
483.57	20952.48
483.74	21516.54
483.92	21490.80
484.10	21413.56
484.28	21956.57
484.46	22188.28
484.64	22363.82
484.82	22167.21
485.00	22380.20
485.18	23175.98
485.35	22955.97
485.53	22834.27
485.71	23042.57
485.89	23459.19
486.07	23314.08
486.25	23644.09
486.43	24009.22
486.61	23859.42
486.78	24538.18
486.96	24432.85
487.14	24730.10
487.32	24849.47
487.50	24854.15
487.68	25064.80
487.85	25336.30
488.03	25614.82
488.21	26122.72
488.39	25891.01
488.57	26464.44
488.75	26324.01
488.92	26366.13
489.10	26838.92
489.28	26911.48
489.46	27304.69
489.64	27318.73
489.81	27660.45
489.99	27885.14
490.17	28135.58
490.35	28294.74
490.53	28231.54
490.70	28683.27
490.88	28376.66
491.06	28989.88
491.24	29305.85
491.41	29539.90
491.59	29511.81
491.77	29640.54
491.95	29624.16
492.13	30036.09
492.30	30778.04
492.48	30125.04
492.66	30415.26
492.84	30555.69
493.01	31035.50
493.19	30773.36
493.37	31367.86
493.54	31335.09
493.72	31459.14
493.90	31419.35
494.08	31742.35
494.25	31833.63
494.43	32079.38
494.61	32147.26
494.79	32746.44
494.96	32634.09
495.14	32999.21
495.32	33563.28
495.49	33469.66
495.67	33448.60
495.85	33888.62
496.02	34288.85
496.20	34452.69
496.38	34101.61
496.55	34181.18
496.73	35274.21
496.91	34895.05
497.09	34768.66
497.26	35288.26
497.44	35288.26
497.62	35262.51
497.79	36002.12
497.97	35662.74
498.14	36474.91
498.32	36346.18
498.50	36559.17
498.67	36776.84
498.85	36769.82
499.03	37106.85
499.20	36947.70
499.38	36964.08
499.56	37156.00
499.73	37214.52
499.91	37591.34
500.08	37694.33
500.26	37745.82
500.44	37897.95
500.61	38113.28
500.79	37804.33
500.97	38382.45
501.14	38986.30
501.32	38738.21
501.49	38532.24
501.67	38611.82
501.84	39007.37
502.02	39164.18
502.20	39318.66
502.37	39459.09
502.55	39145.46
502.72	39812.51
502.90	39744.64
503.07	39487.18
503.25	39999.76
503.43	39601.86
503.60	40498.29
503.78	40430.41
503.95	40617.66
504.13	40952.35
504.30	41134.92
504.48	41022.57
504.65	40907.88
504.83	40924.27
505.01	41572.60
505.18	41113.85
505.36	41972.83
505.53	41558.55
505.71	42075.81
505.88	42110.92
506.06	41539.83
506.23	42052.41
506.41	42061.77
506.58	42440.93
506.76	42302.84
506.93	42859.89
507.11	42501.79
507.28	42845.85
507.46	42667.97
507.63	42885.64
507.81	43484.81
507.98	42920.74
508.16	43344.38
508.33	43711.84
508.50	43817.17
508.68	44062.93
508.85	44399.96
509.03	43957.60
509.20	44130.80
509.38	44669.12
509.55	44421.03
509.73	44542.74
509.90	45167.66
510.08	44664.44
510.25	44891.48
510.42	44783.81
510.60	45254.26
510.77	45427.46
510.95	45923.65
511.12	45336.18
511.30	45364.26
511.47	45467.25
511.64	45165.32
511.82	46110.89
511.99	46106.21
512.17	46419.84
512.34	46094.51
512.51	46909.02
512.69	46440.91
512.86	46824.76
513.04	46897.31
513.21	47070.51
513.38	46803.69
513.56	47089.24
513.73	47166.48
513.90	46955.83
514.08	47145.41
514.25	47622.88
514.43	47508.19
514.60	47555.00
514.77	47599.47
514.95	47587.77
515.12	47803.10
515.29	47445.00
515.47	48367.17
515.64	48294.61
515.81	48252.48
515.99	48428.02
516.16	48575.48
516.33	48250.14
516.51	49066.99
516.68	48715.91
516.85	48751.02
517.03	49111.46
517.20	49193.38
517.37	49291.68
517.54	49277.64
517.72	49319.77
517.89	49361.90
518.06	49621.70
518.24	49059.97
518.41	49446.16
518.58	49373.60
518.75	49279.98
518.93	49804.26
519.10	49874.48
519.27	49811.28
519.45	49792.56
519.62	49923.63
519.79	50337.90
519.96	50094.49
520.14	50440.89
520.31	50333.22
520.48	50705.37
520.65	50576.64
520.83	50787.28
521.00	50941.76
521.17	50817.71
521.34	51009.64
521.52	51187.52
521.69	50955.80
521.86	51231.99
522.03	51150.07
522.20	51604.13
522.38	51489.45
522.55	51409.87
522.72	51702.43
522.89	51643.92
523.07	51920.10
523.24	51636.90
523.41	51859.25
523.58	51269.43
523.75	51903.72
523.92	52121.39
524.10	52210.33
524.27	52163.52
524.44	52229.05
524.61	52247.78
524.78	52364.81
524.96	52320.34
525.13	52650.35
525.30	52559.07
525.47	52746.31
525.64	52690.14
525.81	52842.27
525.98	52900.79
526.16	52566.09
526.33	52783.76
526.50	53275.27
526.67	52924.19
526.84	53073.99
527.01	52980.37
527.18	53106.76
527.36	53422.73
527.53	53322.08
527.70	53783.17
527.87	53633.38
528.04	53333.79
528.21	53542.10
528.38	53537.41
528.55	53914.24
528.72	53560.82
528.89	53719.98
529.07	53605.29
529.24	53869.77
529.41	53780.83
529.58	53724.66
529.75	53783.17
529.92	54124.89
530.09	54024.25
530.26	54089.78
530.43	54204.47
530.60	53839.34
530.77	54024.25
530.94	54129.57
531.11	54127.23
531.28	54131.91
531.46	54354.26
531.63	54485.33
531.80	54344.90
531.97	54237.23
532.14	54536.82
532.31	54520.44
532.48	54646.83
532.65	54911.31
532.82	54742.79
532.99	54850.45
533.16	54623.42
533.33	55112.59
533.50	55283.45
533.67	54993.23
533.84	55011.95
534.01	55063.44
534.18	55016.63
534.35	55316.22
534.52	55386.44
534.69	55405.16
534.86	55395.80
535.03	55084.51
535.20	55269.41
535.37	55419.20
535.54	55501.12
535.71	55419.20
535.88	55491.76
536.05	55320.90
536.22	55660.28
536.38	55599.43
536.55	55688.37
536.72	55732.84
536.89	55655.60
537.06	56023.06
537.23	55559.64
537.40	55604.11
537.57	55924.76
537.74	55796.03
537.91	56285.20
538.08	55948.17
538.25	55938.80
538.42	56207.97
538.59	56287.54
538.75	56044.13
538.92	56109.66
539.09	56184.56
539.26	56336.69
539.43	56343.72
539.60	56264.14
539.77	56474.79
539.94	56645.65
540.11	56582.45
540.28	56640.96
540.44	56697.14
540.61	56664.37
540.78	56463.08
540.95	56657.35
541.12	56336.69
541.29	56804.80
541.46	56669.05
541.62	56671.39
541.79	56673.73
541.96	56598.83
542.13	56725.22
542.30	56671.39
542.47	57041.20
542.63	57188.65
542.80	57048.22
542.97	56933.53
543.14	57329.08
543.31	57256.53
543.48	57368.87
543.64	57588.88
543.81	57691.86
543.98	57570.16
544.15	57336.10
544.32	57691.86
544.48	57689.52
544.65	57521.01
544.82	57518.67
544.99	57373.55
545.16	57542.07
545.32	57506.96
545.49	57628.67
545.66	57925.92
545.83	57958.69
546.00	57757.40
546.16	57832.30
546.33	57752.72
546.50	57684.84
546.67	57937.62
546.83	57647.39
547.00	57893.15
547.17	57946.98
547.34	57951.66
547.50	58298.06
547.67	58021.88
547.84	58010.18
548.00	58202.10
548.17	58440.84
548.34	58248.91
548.51	58370.62
548.67	58403.39
548.84	58361.26
549.01	58138.91
549.18	58379.98
549.34	58571.91
549.51	58489.99
549.68	58387.00
549.84	58328.49
550.01	58550.84
550.18	58482.97
550.34	58501.69
550.51	58656.17
550.68	58450.20
550.84	58117.84
551.01	58625.74
551.18	58878.52
551.34	58740.42
551.51	58639.78
551.68	58728.72
551.84	58595.31
552.01	58681.91
552.18	58733.40
552.34	58635.10
552.51	58787.24
552.68	58937.03
552.84	58834.05
553.01	59077.46
553.18	58857.45
553.34	58967.46
553.51	58918.31
553.67	59016.61
553.84	59147.68
554.01	59313.86
554.17	59250.66
554.34	59075.12
554.51	59302.15
554.67	59180.45
554.84	59217.89
555.00	59114.91
555.17	59107.89
555.33	59203.85
555.50	59128.95
555.67	59028.31
555.83	59166.40
556.00	59103.21
556.16	59536.21
556.33	59454.29
556.50	59449.61
556.66	59515.14
556.83	59337.26
556.99	59641.53
557.16	59505.78
557.32	59533.87
557.49	59786.64
557.65	59332.58
557.82	59355.99
557.98	59510.46
558.15	59650.89
558.32	59566.63
558.48	59292.79
558.65	59660.26
558.81	59557.27
558.98	59690.68
559.14	59702.38
559.31	59739.83
559.47	59779.62
559.64	59898.99
559.80	59770.26
559.97	59891.97
560.13	59578.34
560.30	59831.11
560.46	59920.05
560.63	59746.86
560.79	60048.78
560.96	59971.55
561.12	60011.34
561.29	59980.91
561.45	59863.88
561.61	59891.97
561.78	59882.61
561.94	60032.40
562.11	59894.31
562.27	60090.91
562.44	60163.47
562.60	60271.14
562.77	60130.70
562.93	59983.25
563.10	60135.38
563.26	60011.34
563.42	60404.55
563.59	60053.47
563.75	60161.13
563.92	60067.51
564.08	60254.75
564.24	60467.74
564.41	60339.01
564.57	60226.66
564.74	60135.38
564.90	60212.62
565.07	60381.14
565.23	60327.31
565.39	60315.61
565.56	60437.31
565.72	60191.56
565.88	60355.39
566.05	60308.58
566.21	60179.85
566.38	60252.41
566.54	60126.02
566.70	60685.41
566.87	60685.41
567.03	60278.16
567.19	60404.55
567.36	60395.18
567.52	60388.16
567.68	60715.84
567.85	60561.36
568.01	60718.18
568.17	60662.00
568.34	60608.17
568.50	60514.55
568.66	60416.25
568.83	60500.51
568.99	60554.34
569.15	60392.84
569.32	60470.08
569.48	60566.04
569.64	60563.70
569.81	60533.28
569.97	60528.59
570.13	60575.40
570.30	60465.40
570.46	60704.13
570.62	60575.40
570.78	60603.49
570.95	60638.60
571.11	60690.09
571.27	60659.66
571.43	60601.15
571.60	60762.65
571.76	60687.75
571.92	60732.22
572.09	60772.01
572.25	60671.37
572.41	60753.29
572.57	60526.25
572.74	60835.20
572.90	60748.60
573.06	60788.39
573.22	60582.43
573.38	60851.59
573.55	60725.20
573.71	61001.38
573.87	60753.29
574.03	60741.58
574.20	60779.03
574.36	60835.20
574.52	60896.06
574.68	60933.51
574.84	60917.12
575.01	60860.95
575.17	60662.00
575.33	60797.76
575.49	60767.33
575.65	61080.96
575.82	60977.98
575.98	60769.67
576.14	61123.09
576.30	61029.47
576.46	60865.63
576.62	60851.59
576.79	60800.10
576.95	60835.20
577.11	60910.10
577.27	60896.06
577.43	61001.38
577.59	60828.18
577.75	60917.12
577.92	60750.94
578.08	60886.70
578.24	60985.00
578.40	60837.54
578.56	60959.25
578.72	61022.45
578.88	61158.20
579.04	61350.12
579.21	61041.17
579.37	61123.09
579.53	61181.60
579.69	60853.93
579.85	61141.81
580.01	60830.52
580.17	60793.07
580.33	61036.49
580.49	61169.90
580.65	61017.77
580.82	61258.84
580.98	60736.90
581.14	60844.57
581.30	61020.11
581.46	61036.49
581.62	61099.68
581.78	60898.40
581.94	61045.85
582.10	60987.34
582.26	60851.59
582.42	60809.46
582.58	61123.09
582.74	60952.23
582.90	61043.51
583.06	61027.13
583.22	60856.27
583.38	60982.66
583.54	61134.79
583.70	61113.73
583.86	61258.84
584.02	60968.61
584.18	61176.92
584.34	61062.24
584.50	60926.49
584.66	61125.43
584.82	60846.91
584.98	61284.59
585.14	60992.02
585.30	61132.45
585.46	61251.82
585.62	61078.62
585.78	61221.39
585.94	61045.85
586.10	61146.50
586.26	61062.24
586.42	61205.01
586.58	61127.77
586.74	61223.73
586.90	60994.36
587.06	61090.32
587.22	61326.72
587.38	61167.56
587.54	61448.42
587.70	61216.71
587.86	61235.44
588.02	61240.12
588.18	61183.94
588.34	61195.65
588.49	61268.20
