SpectraSuite Data File
++++++++++++++++++++++++++++++++++++
Date: Fri Oct 25 10:47:21 EDT 2013
User: price-jones
Dark Spectrum Present: No
Reference Spectrum Present: No
Number of Sampled Component Spectra: 1
Spectrometers: USB2+H05261
Integration Time (usec): 100000 (USB2+H05261)
Spectra Averaged: 1 (USB2+H05261)
Boxcar Smoothing: 0 (USB2+H05261)
Correct for Electrical Dark: No (USB2+H05261)
Strobe/Lamp Enabled: No (USB2+H05261)
Correct for Detector Non-linearity: No (USB2+H05261)
Correct for Stray Light: No (USB2+H05261)
Number of Pixels in Processed Spectrum: 2048
>>>>>Begin Processed Spectral Data<<<<<
365.73	149.79
365.92	149.79
366.12	149.79
366.32	124.05
366.52	30.43
366.72	60.85
366.91	128.73
367.11	44.47
367.31	102.98
367.51	0.00
367.70	9.36
367.90	7.02
368.10	0.00
368.30	72.56
368.49	0.00
368.69	42.13
368.89	145.11
369.09	25.75
369.28	88.94
369.48	16.38
369.68	60.85
369.87	79.58
370.07	81.92
370.27	121.71
370.47	243.42
370.66	334.70
370.86	437.68
371.06	517.26
371.25	374.49
371.45	367.46
371.65	437.68
371.84	395.55
372.04	397.89
372.24	456.40
372.44	444.70
372.63	484.49
372.83	433.00
373.03	564.07
373.22	451.72
373.42	484.49
373.62	454.06
373.81	524.28
374.01	479.81
374.21	557.05
374.40	543.00
374.60	552.37
374.79	622.58
374.99	587.47
375.19	482.15
375.38	514.92
375.58	540.66
375.78	592.16
375.97	531.30
376.17	624.92
376.37	599.18
376.56	608.54
376.76	624.92
376.95	582.79
377.15	594.50
377.35	617.90
377.54	636.63
377.74	578.11
377.93	564.07
378.13	568.75
378.33	641.31
378.52	606.20
378.72	660.03
378.91	622.58
379.11	643.65
379.31	622.58
379.50	592.16
379.70	620.24
379.89	655.35
380.09	627.26
380.28	699.82
380.48	664.71
380.68	564.07
380.87	676.41
381.07	606.20
381.26	664.71
381.46	603.86
381.65	641.31
381.85	627.26
382.04	650.67
382.24	706.84
382.43	664.71
382.63	667.05
382.83	716.20
383.02	667.05
383.22	638.97
383.41	631.94
383.61	779.40
383.80	732.59
384.00	760.67
384.19	730.25
384.39	716.20
384.58	711.52
384.78	720.88
384.97	716.20
385.17	631.94
385.36	784.08
385.56	791.10
385.75	781.74
385.95	816.85
386.14	837.91
386.34	791.10
386.53	819.19
386.72	751.31
386.92	781.74
387.11	791.10
387.31	781.74
387.50	809.83
387.70	863.66
387.89	884.72
388.09	767.70
388.28	732.59
388.48	849.61
388.67	828.55
388.86	798.12
389.06	844.93
389.25	873.02
389.45	842.59
389.64	882.38
389.84	903.45
390.03	903.45
390.22	940.90
390.42	889.40
390.61	1004.09
390.81	819.19
391.00	877.70
391.19	929.19
391.39	1006.43
391.58	1067.28
391.78	915.15
391.97	917.49
392.16	936.21
392.36	994.73
392.55	922.17
392.75	1015.79
392.94	947.92
393.13	931.53
393.33	971.32
393.52	1032.18
393.71	1025.15
393.91	1139.84
394.10	1048.56
394.29	1048.56
394.49	1125.80
394.68	1109.41
394.88	1074.31
395.07	990.05
395.26	1029.84
395.46	1039.20
395.65	1163.25
395.84	1121.12
396.04	1231.12
396.23	1088.35
396.42	1146.86
396.62	1114.10
396.81	1071.97
397.00	1128.14
397.19	1144.52
397.39	1160.91
397.58	1177.29
397.77	1282.61
397.97	1214.74
398.16	1247.51
398.35	1259.21
398.55	1226.44
398.74	1338.79
398.93	1350.49
399.12	1228.78
399.32	1247.51
399.51	1329.42
399.70	1387.94
399.90	1284.95
400.09	1371.55
400.28	1331.76
400.47	1385.60
400.67	1392.62
400.86	1479.22
401.05	1427.73
401.24	1460.49
401.44	1502.62
401.63	1528.37
401.82	1462.83
402.01	1462.83
402.21	1533.05
402.40	1488.58
402.59	1495.60
402.78	1568.16
402.97	1533.05
403.17	1465.18
403.36	1565.82
403.55	1586.88
403.74	1591.56
403.93	1612.63
404.13	1701.57
404.32	1610.29
404.51	1636.03
404.70	1563.48
404.89	1736.68
405.09	1657.10
405.28	1783.49
405.47	1736.68
405.66	1830.30
405.85	1741.36
406.05	1710.93
406.24	1811.57
406.43	1783.49
406.62	1823.28
406.81	1788.17
407.00	1834.98
407.20	1849.02
407.39	1767.10
407.58	1916.90
407.77	1804.55
407.96	1900.52
408.15	1959.03
408.34	1834.98
408.54	1926.26
408.73	1984.77
408.92	1982.43
409.11	1930.94
409.30	2019.88
409.49	2015.20
409.68	2069.03
409.87	1914.56
410.07	2092.44
410.26	2172.02
410.45	2101.80
410.64	2113.50
410.83	2087.76
411.02	2157.97
411.21	2239.89
411.40	2127.55
411.59	2307.77
411.78	2223.51
411.98	2307.77
412.17	2289.04
412.36	2282.02
412.55	2338.20
412.74	2328.83
412.93	2328.83
413.12	2401.39
413.31	2424.80
413.50	2462.24
413.69	2424.80
413.88	2581.61
414.07	2450.54
414.26	2630.76
414.45	2719.70
414.64	2511.39
414.83	2712.68
415.02	2530.12
415.22	2593.31
415.41	2663.53
415.60	2808.64
415.79	2726.72
415.98	2930.35
416.17	2876.52
416.36	2839.07
416.55	2923.33
416.74	2925.67
416.93	2932.69
417.12	2876.52
417.31	2846.09
417.50	2876.52
417.69	3026.31
417.88	2951.42
418.07	3056.74
418.26	3049.72
418.45	2986.52
418.64	3131.64
418.83	3255.69
419.02	3091.85
419.21	3082.49
419.39	3180.79
419.58	3145.68
419.77	3218.24
419.96	3185.47
420.15	3358.67
420.34	3325.90
420.53	3386.76
420.72	3438.25
420.91	3337.60
421.10	3435.91
421.29	3356.33
421.48	3363.35
421.67	3307.18
421.86	3330.58
422.05	3393.78
422.24	3279.09
422.43	3433.57
422.61	3503.78
422.80	3496.76
422.99	3424.20
423.18	3461.65
423.37	3419.52
423.56	3417.18
423.75	3538.89
423.94	3431.23
424.13	3246.32
424.32	3414.84
424.50	3494.42
424.69	3475.70
424.88	3609.11
425.07	3597.40
425.26	3515.48
425.45	3337.60
425.64	3545.91
425.83	3552.93
426.01	3623.15
426.20	3623.15
426.39	3571.66
426.58	3468.67
426.77	3578.68
426.96	3545.91
427.15	3576.34
427.33	3538.89
427.52	3726.13
427.71	3756.56
427.90	3592.72
428.09	3728.47
428.28	3878.27
428.46	3723.79
428.65	3726.13
428.84	3861.88
429.03	3911.04
429.22	3564.64
429.40	3700.39
429.59	3733.15
429.78	3784.65
429.97	3660.60
430.16	3618.47
430.34	3868.91
430.53	3772.94
430.72	3911.04
430.91	3735.50
431.10	4039.76
431.28	4021.04
431.47	4035.08
431.66	4098.28
431.85	4081.89
432.03	4131.05
432.22	4091.26
432.41	4070.19
432.60	4135.73
432.79	4124.02
432.97	4231.69
433.16	4205.94
433.35	4095.94
433.54	4283.18
433.72	4243.39
433.91	4194.24
434.10	4128.70
434.28	4234.03
434.47	4358.08
434.66	4355.74
434.85	4414.25
435.03	4301.90
435.22	4381.48
435.41	4461.06
435.59	4568.73
435.78	4444.68
435.97	4442.34
436.16	4379.14
436.34	4587.45
436.53	4533.62
436.72	4767.67
436.90	4416.59
437.09	4545.32
437.28	4402.55
437.46	4608.51
437.65	4713.84
437.84	4741.93
438.02	4692.77
438.21	4610.86
438.40	4603.83
438.58	4765.33
438.77	4929.17
438.96	5104.71
439.14	4884.70
439.33	4954.91
439.52	4912.78
439.70	4929.17
439.89	5097.69
440.08	5043.85
440.26	5207.69
440.45	4971.30
440.63	5181.95
440.82	5303.65
441.01	5198.33
441.19	5301.31
441.38	5575.16
441.57	5390.25
441.75	5584.52
441.94	5607.92
442.12	5406.64
442.31	5628.99
442.50	5652.39
442.68	5584.52
442.87	5572.82
443.05	5542.39
443.24	5537.71
443.43	5619.63
443.61	5666.44
443.80	5879.43
443.98	5556.43
444.17	5399.62
444.35	5783.46
444.54	5678.14
444.73	5703.89
444.91	5799.85
445.10	5783.46
445.28	5628.99
445.47	5741.33
445.65	5671.12
445.84	5729.63
446.02	5823.25
446.21	5797.51
446.39	5654.73
446.58	5884.11
446.77	5905.17
446.95	5760.06
447.14	5902.83
447.32	5998.79
447.51	5743.67
447.69	6076.03
447.88	5991.77
448.06	5980.07
448.25	5980.07
448.43	5839.64
448.62	5926.24
448.80	5743.67
448.99	6120.50
449.17	6057.31
449.36	6265.61
449.54	6207.10
449.73	6160.29
449.91	6291.36
450.10	6310.08
450.28	6396.68
450.46	6375.62
450.65	6256.25
450.83	6291.36
451.02	6300.72
451.20	6438.81
451.39	6324.13
451.57	6293.70
451.76	6399.02
451.94	6476.26
452.13	6420.09
452.31	6478.60
452.49	6150.93
452.68	6326.47
452.86	6525.41
453.05	6473.92
453.23	6487.96
453.42	6448.18
453.60	6490.31
453.78	6691.59
453.97	6457.54
454.15	6504.35
454.34	6513.71
454.52	6677.55
454.70	6532.44
454.89	6644.78
455.07	6544.14
455.26	6942.03
455.44	6942.03
455.62	6787.55
455.81	6766.49
455.99	6832.02
456.17	6813.30
456.36	6846.07
456.54	6958.41
456.73	6979.48
456.91	7197.15
457.09	7162.04
457.28	7433.54
457.46	7000.54
457.64	7314.17
457.83	7211.19
458.01	7119.91
458.19	7337.58
458.38	7431.20
458.56	7185.44
458.74	7236.94
458.93	7222.89
459.11	7492.05
459.29	7386.73
459.48	7419.50
459.66	7520.14
459.84	7466.31
460.03	7627.81
460.21	7698.02
460.39	7499.08
460.57	7482.69
460.76	7595.04
460.94	7625.47
461.12	7655.89
461.31	7700.36
461.49	7541.21
461.67	7815.05
461.85	7789.30
462.04	7606.74
462.22	8292.52
462.40	7878.24
462.59	7864.20
462.77	7922.71
462.95	7983.57
463.13	7761.22
463.32	7978.89
463.50	7997.61
463.68	8107.62
463.86	8070.17
464.05	8009.31
464.23	8006.97
464.41	8088.89
464.59	8107.62
464.78	8229.32
464.96	8273.79
465.14	7906.33
465.32	8051.44
465.50	8484.44
465.69	8397.84
465.87	8248.05
466.05	8126.34
466.23	8245.71
466.41	8222.30
466.60	8341.67
466.78	8315.92
466.96	8098.25
467.14	8187.19
467.32	8369.76
467.51	8571.04
467.69	8257.41
467.87	8365.07
468.05	8477.42
468.23	8339.33
468.41	8416.57
468.60	8491.46
468.78	8439.97
468.96	8320.60
469.14	8751.26
469.32	8730.20
469.50	8496.14
469.69	8812.12
469.87	8973.61
470.05	8896.38
470.23	8912.76
470.41	8798.07
470.59	9174.90
470.77	8767.65
470.95	9139.79
471.14	9034.47
471.32	8905.74
471.50	9226.39
471.68	9078.94
471.86	9294.27
472.04	9437.04
472.22	9502.58
472.40	9109.36
472.58	9088.30
472.77	9404.27
472.95	9270.86
473.13	9624.28
473.31	9413.63
473.49	9373.85
473.67	9338.74
473.85	9715.56
474.03	9788.12
474.21	9776.42
474.39	9966.00
474.57	9820.89
474.75	9919.19
474.93	10068.98
475.12	10024.51
475.30	10073.67
475.48	10054.94
475.66	10289.00
475.84	10171.97
476.02	10296.02
476.20	10377.94
476.38	10644.76
476.56	10569.86
476.74	10626.03
476.92	10682.20
477.10	10703.27
477.28	10885.83
477.46	10787.53
477.64	11037.97
477.82	11005.20
478.00	11276.70
478.18	11295.43
478.36	11286.06
478.54	11267.34
478.72	11583.31
478.90	11669.91
479.08	11501.39
479.26	11871.20
479.44	11885.24
479.62	11857.15
479.80	11889.92
479.98	11896.94
480.16	12278.45
480.34	12212.92
480.52	12449.31
480.70	12297.17
480.88	12439.95
481.06	12444.63
481.24	12674.00
481.41	12706.77
481.59	12844.86
481.77	13001.68
481.95	12805.07
482.13	12940.82
482.31	12898.69
482.49	13429.99
482.67	13446.38
482.85	13902.78
483.03	13949.59
483.21	13973.00
483.39	13713.20
483.57	13973.00
483.74	14134.50
483.92	13579.79
484.10	14047.90
484.28	14221.10
484.46	14389.61
484.64	14956.02
484.82	14623.67
485.00	14944.32
485.18	14902.19
485.35	15007.52
485.53	14679.84
485.71	14883.47
485.89	15105.82
486.07	14984.11
486.25	15066.03
486.43	15503.71
486.61	15573.92
486.78	15737.76
486.96	15695.63
487.14	15992.88
487.32	16140.33
487.50	16252.68
487.68	16297.15
487.85	16943.14
488.03	16966.54
488.21	16727.81
488.39	16737.17
488.57	16957.18
488.75	17458.06
488.92	17415.93
489.10	17605.51
489.28	17596.15
489.46	17984.68
489.64	17708.49
489.81	18298.31
489.99	18382.57
490.17	18398.95
490.35	18551.09
490.53	18682.16
490.70	18572.15
490.88	18740.67
491.06	18857.70
491.24	18693.86
491.41	18909.19
491.59	19159.63
491.77	19297.72
491.95	19304.74
492.13	19695.61
492.30	19716.67
492.48	19583.26
492.66	19714.33
492.84	19906.26
493.01	20147.33
493.19	20212.87
493.37	20563.95
493.54	20503.09
493.72	20353.30
493.90	20730.12
494.08	20655.23
494.25	20879.92
494.43	20924.39
494.61	21275.47
494.79	21308.24
494.96	21193.55
495.14	21497.82
495.32	21724.85
495.49	21734.21
495.67	21834.86
495.85	22281.90
496.02	22277.22
496.20	22319.35
496.38	22410.63
496.55	22277.22
496.73	22525.32
496.91	22368.50
497.09	22443.40
497.26	22696.17
497.44	22632.98
497.62	23033.21
497.79	23377.27
497.97	23187.69
498.14	23274.29
498.32	23314.08
498.50	23606.64
498.67	23634.73
498.85	23594.94
499.03	24100.50
499.20	23859.42
499.38	23864.10
499.56	24163.69
499.73	23995.17
499.91	24229.23
500.08	24250.29
500.26	23981.13
500.44	24482.00
500.61	24264.33
500.79	24233.91
500.97	24943.09
501.14	24790.95
501.32	25230.98
501.49	24694.99
501.67	25280.13
501.84	25345.66
502.02	25125.65
502.20	25427.58
502.37	25563.33
502.55	25661.63
502.72	25986.97
502.90	25633.55
503.07	25902.71
503.25	25837.17
503.43	25834.83
503.60	26010.37
503.78	26197.62
503.95	26270.17
504.13	26260.81
504.30	26508.91
504.48	26326.35
504.65	26478.48
504.83	26726.58
505.01	26991.06
505.18	26794.45
505.36	26937.23
505.53	26782.75
505.71	27070.64
505.88	27126.81
506.06	27463.85
506.23	27269.58
506.41	27388.95
506.58	27360.86
506.76	27508.32
506.93	27410.01
507.11	27763.43
507.28	27878.12
507.46	27426.40
507.63	27805.56
507.81	28287.71
507.98	27728.33
508.16	27953.02
508.33	28460.91
508.50	28079.41
508.68	28587.30
508.85	28463.25
509.03	28451.55
509.20	28554.54
509.38	29006.26
509.55	28996.90
509.73	28769.86
509.90	28863.49
510.08	29158.39
510.25	28914.98
510.42	29336.27
510.60	29570.33
510.77	29071.79
510.95	29296.49
511.12	29612.46
511.30	29408.83
511.47	29933.11
511.64	29935.45
511.82	29916.73
511.99	29696.72
512.17	29869.92
512.34	29783.32
512.51	30045.46
512.69	30314.62
512.86	30143.76
513.04	31021.46
513.21	30532.29
513.38	30089.93
513.56	30274.83
513.73	30256.11
513.90	30623.57
514.08	30611.87
514.25	30487.82
514.43	30714.85
514.60	30813.15
514.77	31117.42
514.95	31243.81
515.12	30700.81
515.29	31005.08
515.47	31122.10
515.64	31194.66
515.81	31438.08
515.99	31131.47
516.16	31452.12
516.33	31637.02
516.51	31826.60
516.68	31913.20
516.85	31328.07
517.03	31665.11
517.20	32011.51
517.37	31777.45
517.54	31908.52
517.72	31988.10
517.89	31985.76
518.06	31828.95
518.24	32224.50
518.41	32086.40
518.58	32105.13
518.75	32491.32
518.93	32816.65
519.10	32528.77
519.27	32929.00
519.45	32989.85
519.62	32753.46
519.79	33085.81
519.96	32896.23
520.14	33415.83
520.31	32851.76
520.48	32943.04
520.65	33123.26
520.83	33226.24
521.00	33401.79
521.17	33420.51
521.34	33453.28
521.52	33942.45
521.69	33596.05
521.86	33635.84
522.03	33897.98
522.20	33811.38
522.38	34169.48
522.55	34099.26
522.72	34022.03
522.89	34202.25
523.07	33855.85
523.24	34071.18
523.41	34155.44
523.58	34000.96
523.75	34314.59
523.92	34536.94
524.10	34665.67
524.27	34466.73
524.44	34955.90
524.61	34845.90
524.78	34817.81
524.96	35033.14
525.13	34747.59
525.30	35524.65
525.47	35229.74
525.64	34885.68
525.81	35503.59
525.98	35131.44
526.16	34918.45
526.33	35550.40
526.50	35421.67
526.67	35480.18
526.84	35372.52
527.01	34918.45
527.18	35388.90
527.36	35552.74
527.53	35639.34
527.70	35959.99
527.87	35842.96
528.04	35959.99
528.21	35749.34
528.38	35969.35
528.55	36247.88
528.72	36367.24
528.89	36378.95
529.07	36322.77
529.24	35854.67
529.41	36414.05
529.58	36362.56
529.75	36315.75
529.92	36584.91
530.09	36598.96
530.26	36741.73
530.43	36666.83
530.60	36570.87
530.77	36779.18
530.94	36945.36
531.11	36376.61
531.28	36863.44
531.46	36807.26
531.63	36723.01
531.80	36905.57
531.97	37172.39
532.14	37165.37
532.31	37418.14
532.48	37207.50
532.65	37434.53
532.82	37312.82
532.99	37413.46
533.16	37057.70
533.33	37621.77
533.50	37621.77
533.67	37507.08
533.84	37572.62
534.01	37364.31
534.18	37537.51
534.35	38202.22
534.52	37413.46
534.69	38195.20
534.86	37834.76
535.03	38298.19
535.20	38054.77
535.37	38190.52
535.54	38635.22
535.71	38047.75
535.88	38103.92
536.05	38190.52
536.22	38490.11
536.38	38253.72
536.55	38270.10
536.72	38609.48
536.89	38440.96
537.06	38302.87
537.23	38642.24
537.40	38639.90
537.57	38656.29
537.74	38792.04
537.91	39168.87
538.08	38630.54
538.25	38361.38
538.42	38787.36
538.59	39023.75
538.75	38408.19
538.92	38948.85
539.09	39035.45
539.26	39218.02
539.43	38817.78
539.60	39335.04
539.77	38766.29
539.94	39173.55
540.11	38827.15
540.28	39040.14
540.44	38955.88
540.61	39398.24
540.78	39344.41
540.95	39557.39
541.12	39622.93
541.29	39353.77
541.46	39456.75
541.62	39508.24
541.79	39859.32
541.96	39512.92
542.13	39491.86
542.30	39555.05
542.47	39903.79
542.63	39533.99
542.80	40135.51
542.97	40545.10
543.14	40311.05
543.31	40252.53
543.48	40360.20
543.64	40603.61
543.81	40652.76
543.98	40194.02
544.15	40212.74
544.32	40201.04
544.48	40825.96
544.65	40957.03
544.82	40545.10
544.99	40678.51
545.16	40584.89
545.32	40488.93
545.49	40858.73
545.66	40456.16
545.83	40746.39
546.00	40858.73
546.16	41230.88
546.33	40563.82
546.50	40481.91
546.67	41031.93
546.83	40711.28
547.00	40818.94
547.17	40849.37
547.34	41167.68
547.50	41340.88
547.67	41268.33
547.84	41291.73
548.00	41574.94
548.17	41773.88
548.34	41560.89
548.51	41425.14
548.67	42064.11
548.84	41677.92
549.01	41120.87
549.18	41347.90
549.34	41570.25
549.51	41773.88
549.68	41591.32
549.84	41706.01
550.01	41446.21
550.18	41404.08
550.34	41883.89
550.51	41500.04
550.68	41315.14
550.84	41694.30
551.01	42181.13
551.18	41722.39
551.34	42347.31
551.51	41930.70
551.68	41972.83
551.84	42127.30
552.01	41888.57
552.18	42307.52
552.34	42293.48
552.51	42000.91
552.68	42213.90
552.84	42291.14
553.01	42380.08
553.18	42307.52
553.34	41972.83
553.51	41666.22
553.67	42300.50
553.84	42649.24
554.01	42609.45
554.17	42387.10
554.34	42710.10
554.51	42054.75
554.67	42735.84
554.84	42307.52
555.00	42848.19
555.17	42412.85
555.33	42527.53
555.50	42508.81
555.67	42707.76
555.83	42747.54
556.00	42824.78
556.16	43115.01
556.33	43222.67
556.50	42536.90
556.66	42649.24
556.83	42754.57
556.99	42932.45
557.16	43012.02
557.32	42864.57
557.49	42990.96
557.65	42586.05
557.82	42948.83
557.98	42581.37
558.15	42651.58
558.32	42941.81
558.48	43215.65
558.65	43320.98
558.81	43194.59
558.98	43306.93
559.14	43157.14
559.31	43323.32
559.47	43405.23
559.64	43519.92
559.80	43522.26
559.97	43274.16
560.13	43360.76
560.30	43079.90
560.46	43342.04
560.63	43580.78
560.79	43625.25
560.96	43580.78
561.12	43693.12
561.29	43515.24
561.45	43606.52
561.61	43742.27
561.78	43309.27
561.94	43098.62
562.11	43597.16
562.27	43346.72
562.44	43653.33
562.60	43784.40
562.77	44004.41
562.93	43564.39
563.10	44079.31
563.26	43070.54
563.42	43597.16
563.59	44018.46
563.75	43260.12
563.92	43751.63
564.08	43529.28
564.24	44030.16
564.41	43892.07
564.57	43580.78
564.74	43648.65
564.90	43852.28
565.07	44339.11
565.23	43976.33
565.39	43901.43
565.56	44034.84
565.72	43594.82
565.88	43559.71
566.05	43707.16
566.21	43505.88
566.38	43529.28
566.54	43679.08
566.70	43880.36
566.87	44147.18
567.03	43735.25
567.19	43973.98
567.36	43929.51
567.52	43697.80
567.68	44149.53
567.85	43695.46
568.01	44126.12
568.17	44147.18
568.34	44226.76
568.50	43945.90
568.66	43751.63
568.83	44266.55
568.99	44130.80
569.15	43611.20
569.32	43908.45
569.48	43709.50
569.64	44299.32
569.81	44538.05
569.97	44046.54
570.13	43901.43
570.30	43941.22
570.46	43718.87
570.62	43831.21
570.78	43721.21
570.95	43889.73
571.11	44168.25
571.27	43985.69
571.43	44072.29
571.60	44212.72
571.76	43978.67
571.92	44142.50
572.09	43915.47
572.25	44055.90
572.41	44027.82
572.57	44477.20
572.74	44610.61
572.90	44158.89
573.06	44201.02
573.22	44540.39
573.38	44231.44
573.55	43999.73
573.71	44519.33
573.87	44102.71
574.03	44245.49
574.20	44126.12
574.36	44123.78
574.52	44699.55
574.68	44680.83
574.84	44079.31
575.01	44245.49
575.17	44516.99
575.33	44318.04
575.49	44397.62
575.65	44547.42
575.82	44612.95
575.98	44231.44
576.14	44395.28
576.30	44587.21
576.46	44435.07
576.62	43878.02
576.79	44060.58
576.95	43997.39
577.11	44222.08
577.27	44554.44
577.43	44289.96
577.59	44172.93
577.75	44442.09
577.92	44177.61
578.08	44573.16
578.24	43737.59
578.40	44612.95
578.56	44346.13
578.72	44463.16
578.88	44657.42
579.04	43899.09
579.21	44165.91
579.37	44669.12
579.53	43950.58
579.69	44254.85
579.85	44266.55
580.01	44327.41
580.17	44664.44
580.33	44678.49
580.49	44439.75
580.65	44584.86
580.82	44582.52
580.98	44720.62
581.14	44451.45
581.30	44535.71
581.46	44678.49
581.62	44680.83
581.78	44727.64
581.94	44931.26
582.10	44451.45
582.26	44481.88
582.42	44678.49
582.58	44603.59
582.74	44573.16
582.90	44697.21
583.06	44734.66
583.22	44390.60
583.38	44870.41
583.54	44577.84
583.70	44512.31
583.86	44617.63
584.02	44189.31
584.18	44451.45
584.34	44362.51
584.50	44708.91
584.66	44392.94
584.82	44339.11
584.98	44809.56
585.14	44495.92
585.30	44612.95
585.46	44208.04
585.62	44444.43
585.78	45036.59
585.94	44280.60
586.10	44147.18
586.26	44381.24
586.42	44505.29
586.58	44685.51
586.74	44367.20
586.90	44210.38
587.06	44371.88
587.22	44697.21
587.38	44456.14
587.54	44486.56
587.70	44758.06
587.86	44816.58
588.02	44683.17
588.18	44854.03
588.34	44388.26
588.49	44605.93
588.65	44769.77
588.81	44353.15
588.97	44694.87
589.13	44292.30
589.29	44739.34
589.45	44797.85
589.61	44772.11
589.77	44907.86
589.93	45043.61
590.08	44961.69
590.24	44708.91
