SpectraSuite Data File
++++++++++++++++++++++++++++++++++++
Date: Fri Oct 25 10:44:49 EDT 2013
User: price-jones
Dark Spectrum Present: No
Reference Spectrum Present: No
Number of Sampled Component Spectra: 1
Spectrometers: USB2+H05261
Integration Time (usec): 100000 (USB2+H05261)
Spectra Averaged: 1 (USB2+H05261)
Boxcar Smoothing: 0 (USB2+H05261)
Correct for Electrical Dark: No (USB2+H05261)
Strobe/Lamp Enabled: No (USB2+H05261)
Correct for Detector Non-linearity: No (USB2+H05261)
Correct for Stray Light: No (USB2+H05261)
Number of Pixels in Processed Spectrum: 2048
>>>>>Begin Processed Spectral Data<<<<<
365.73	131.07
365.92	131.07
366.12	131.07
366.32	84.26
366.52	49.15
366.72	117.03
366.91	25.75
367.11	9.36
367.31	60.85
367.51	25.75
367.70	32.77
367.90	51.49
368.10	14.04
368.30	0.00
368.49	32.77
368.69	53.83
368.89	7.02
369.09	49.15
369.28	79.58
369.48	86.60
369.68	72.56
369.87	72.56
370.07	112.35
370.27	147.45
370.47	229.37
370.66	294.91
370.86	379.17
371.06	386.19
371.25	454.06
371.45	470.45
371.65	442.36
371.84	409.59
372.04	362.78
372.24	416.62
372.44	444.70
372.63	458.74
372.83	484.49
373.03	465.77
373.22	458.74
373.42	524.28
373.62	447.04
373.81	444.70
374.01	535.98
374.21	564.07
374.40	496.19
374.60	540.66
374.79	510.24
374.99	596.84
375.19	571.09
375.38	538.32
375.58	486.83
375.78	547.69
375.97	617.90
376.17	653.01
376.37	554.71
376.56	538.32
376.76	545.34
376.95	608.54
377.15	575.77
377.35	603.86
377.54	641.31
377.74	606.20
377.93	643.65
378.13	645.99
378.33	674.07
378.52	566.41
378.72	648.33
378.91	601.52
379.11	578.11
379.31	655.35
379.50	622.58
379.70	624.92
379.89	648.33
380.09	596.84
380.28	578.11
380.48	594.50
380.68	683.44
380.87	671.73
381.07	613.22
381.26	620.24
381.46	667.05
381.65	636.63
381.85	645.99
382.04	592.16
382.24	676.41
382.43	688.12
382.63	713.86
382.83	645.99
383.02	716.20
383.22	650.67
383.41	716.20
383.61	751.31
383.80	711.52
384.00	699.82
384.19	660.03
384.39	725.57
384.58	777.06
384.78	798.12
384.97	772.38
385.17	683.44
385.36	748.97
385.56	725.57
385.75	688.12
385.95	751.31
386.14	748.97
386.34	704.50
386.53	805.14
386.72	767.70
386.92	702.16
387.11	854.30
387.31	908.13
387.50	833.23
387.70	800.46
387.89	842.59
388.09	819.19
388.28	767.70
388.48	863.66
388.67	837.91
388.86	828.55
389.06	851.96
389.25	877.70
389.45	856.64
389.64	805.14
389.84	861.32
390.03	863.66
390.22	849.61
390.42	901.11
390.61	950.26
390.81	887.06
391.00	884.72
391.19	940.90
391.39	964.30
391.58	891.74
391.78	952.60
391.97	905.79
392.16	985.37
392.36	1022.81
392.55	938.55
392.75	959.62
392.94	919.83
393.13	997.07
393.33	1034.52
393.52	957.28
393.71	1034.52
393.91	1015.79
394.10	947.92
394.29	1043.88
394.49	1027.50
394.68	1097.71
394.88	1144.52
395.07	1111.75
395.26	1076.65
395.46	1104.73
395.65	1116.44
395.84	1186.65
396.04	1081.33
396.23	1025.15
396.42	1006.43
396.62	1139.84
396.81	1132.82
397.00	1111.75
397.19	1144.52
397.39	1069.62
397.58	1158.57
397.77	1200.69
397.97	1212.40
398.16	1266.23
398.35	1390.28
398.55	1256.87
398.74	1348.15
398.93	1308.36
399.12	1289.64
399.32	1331.76
399.51	1413.68
399.70	1387.94
399.90	1294.32
400.09	1350.49
400.28	1446.45
400.47	1474.54
400.67	1493.26
400.86	1392.62
401.05	1462.83
401.24	1530.71
401.44	1528.37
401.63	1561.14
401.82	1504.96
402.01	1385.60
402.21	1490.92
402.40	1521.35
402.59	1540.07
402.78	1558.80
402.97	1519.01
403.17	1626.67
403.36	1654.76
403.55	1514.33
403.74	1598.59
403.93	1619.65
404.13	1696.89
404.32	1657.10
404.51	1603.27
404.70	1720.29
404.89	1577.52
405.09	1743.70
405.28	1741.36
405.47	1748.38
405.66	1739.02
405.85	1769.44
406.05	1692.21
406.24	1764.76
406.43	1753.06
406.62	1820.94
406.81	1886.47
407.00	1867.75
407.20	1846.68
407.39	1872.43
407.58	2003.50
407.77	1947.33
407.96	1996.48
408.15	1947.33
408.34	1909.88
408.54	2071.37
408.73	2050.31
408.92	1984.77
409.11	2108.82
409.30	2052.65
409.49	1963.71
409.68	1982.43
409.87	2078.40
410.07	2031.58
410.26	2129.89
410.45	2153.29
410.64	2101.80
410.83	2132.23
411.02	2321.81
411.21	2321.81
411.40	2214.15
411.59	2333.51
411.78	2314.79
411.98	2333.51
412.17	2338.20
412.36	2282.02
412.55	2317.13
412.74	2403.73
412.93	2539.48
413.12	2527.78
413.31	2616.72
413.50	2406.07
413.69	2523.10
413.88	2546.50
414.07	2527.78
414.26	2642.46
414.45	2693.96
414.64	2607.36
414.83	2743.11
415.02	2729.06
415.22	2717.36
415.41	2813.32
415.60	2759.49
415.79	2719.70
415.98	3012.27
416.17	2918.65
416.36	2827.37
416.55	2834.39
416.74	2956.10
416.93	2935.03
417.12	2836.73
417.31	2972.48
417.50	3019.29
417.69	3152.70
417.88	3108.23
418.07	2930.35
418.26	3075.46
418.45	3108.23
418.64	3096.53
418.83	3225.26
419.02	3262.71
419.21	3150.36
419.39	3117.59
419.58	3049.72
419.77	3192.49
419.96	3316.54
420.15	3372.71
420.34	3346.97
420.53	3398.46
420.72	3438.25
420.91	3365.69
421.10	3419.52
421.29	3391.44
421.48	3384.41
421.67	3487.40
421.86	3440.59
422.05	3375.05
422.24	3262.71
422.43	3361.01
422.61	3370.37
422.80	3644.21
422.99	3590.38
423.18	3597.40
423.37	3665.28
423.56	3574.00
423.75	3452.29
423.94	3480.38
424.13	3332.92
424.32	3396.12
424.50	3574.00
424.69	3592.72
424.88	3625.49
425.07	3492.08
425.26	3412.50
425.45	3449.95
425.64	3482.72
425.83	3557.61
426.01	3627.83
426.20	3585.70
426.39	3634.85
426.58	3552.93
426.77	3543.57
426.96	3522.51
427.15	3463.99
427.33	3723.79
427.52	3604.42
427.71	3817.41
427.90	3698.05
428.09	3805.71
428.28	3707.41
428.46	3833.80
428.65	3786.99
428.84	3770.60
429.03	3927.42
429.22	3803.37
429.40	3866.56
429.59	3845.50
429.78	3648.90
429.97	3658.26
430.16	3698.05
430.34	3768.26
430.53	3904.01
430.72	3850.18
430.91	3887.63
431.10	4044.45
431.28	4194.24
431.47	4304.25
431.66	4196.58
431.85	4189.56
432.03	4189.56
432.22	4217.65
432.41	4292.54
432.60	4271.48
432.79	4234.03
432.97	4241.05
433.16	4311.27
433.35	4187.22
433.54	4294.88
433.72	4208.28
433.91	4301.90
434.10	4365.10
434.28	4362.76
434.47	4203.60
434.66	4505.53
434.85	4463.40
435.03	4514.89
435.22	4461.06
435.41	4535.96
435.59	4596.81
435.78	4671.71
435.97	4643.62
436.16	4535.96
436.34	4519.57
436.53	4535.96
436.72	4629.58
436.90	4873.00
437.09	4615.54
437.28	4601.49
437.46	4601.49
437.65	4641.28
437.84	4777.03
438.02	4713.84
438.21	4505.53
438.40	4596.81
438.58	4957.25
438.77	4978.32
438.96	4772.35
439.14	5081.30
439.33	4964.28
439.52	5109.39
439.70	5055.56
439.89	5247.48
440.08	5207.69
440.26	5277.91
440.45	5308.34
440.63	5474.51
440.82	5479.19
441.01	5247.48
441.19	5425.36
441.38	5413.66
441.57	5540.05
441.75	5455.79
441.94	5675.80
442.12	5673.46
442.31	5685.16
442.50	5731.97
442.68	5659.42
442.87	5575.16
443.05	5729.63
443.24	5802.19
443.43	5778.78
443.61	5760.06
443.80	5905.17
443.98	5729.63
444.17	5577.50
444.35	5963.68
444.54	5996.45
444.73	5710.91
444.91	5907.51
445.10	5673.46
445.28	5809.21
445.47	5741.33
445.65	5708.57
445.84	5942.62
446.02	5954.32
446.21	5919.21
446.39	5930.92
446.58	6040.92
446.77	5975.39
446.95	5825.59
447.14	5984.75
447.32	6097.10
447.51	5970.71
447.69	5827.93
447.88	6099.44
448.06	6101.78
448.25	6043.26
448.43	5914.53
448.62	6090.07
448.80	6026.88
448.99	6033.90
449.17	6181.35
449.36	6083.05
449.54	6317.11
449.73	6340.51
449.91	6485.62
450.10	6356.90
450.28	6469.24
450.46	6345.19
450.65	6473.92
450.83	6544.14
451.02	6354.55
451.20	6642.44
451.39	6417.75
451.57	6558.18
451.76	6462.22
451.94	6567.54
452.13	6595.63
452.31	6422.43
452.49	6410.73
452.68	6607.33
452.86	6635.42
453.05	6595.63
453.23	6794.58
453.42	6562.86
453.60	6537.12
453.78	6623.72
453.97	6661.16
454.15	6740.74
454.34	6469.24
454.52	6848.41
454.70	6789.89
454.89	6956.07
455.07	6883.52
455.26	6808.62
455.44	6960.75
455.62	7049.69
455.81	6918.62
455.99	6860.11
456.17	6986.50
456.36	6869.47
456.54	7178.42
456.73	7180.76
456.91	7246.30
457.09	7030.97
457.28	7536.52
457.46	7143.32
457.64	7382.05
457.83	7337.58
458.01	7122.25
458.19	7370.35
458.38	7262.68
458.56	7541.21
458.74	7527.16
458.93	7349.28
459.11	7709.72
459.29	7403.11
459.48	7550.57
459.66	7431.20
459.84	7557.59
460.03	7819.73
460.21	7700.36
460.39	7576.31
460.57	7475.67
460.76	7655.89
460.94	7934.42
461.12	7887.61
461.31	7672.28
461.49	7672.28
461.67	7597.38
461.85	7796.32
462.04	7882.92
462.22	8126.34
462.40	7976.55
462.59	8009.31
462.77	7796.32
462.95	8285.50
463.13	7875.90
463.32	8109.96
463.50	8018.68
463.68	8058.46
463.86	8145.06
464.05	8011.65
464.23	8166.13
464.41	8257.41
464.59	7992.93
464.78	8355.71
464.96	8241.03
465.14	8264.43
465.32	8521.89
465.50	8276.13
465.69	8439.97
465.87	8278.47
466.05	8470.40
466.23	8423.59
466.41	8327.63
466.60	8386.14
466.78	8222.30
466.96	8411.89
467.14	8451.67
467.32	8402.52
467.51	8535.93
467.69	8451.67
467.87	8493.80
468.05	8786.37
468.23	8437.63
468.41	8409.54
468.60	8500.83
468.78	8671.68
468.96	8688.07
469.14	8737.22
469.32	8917.44
469.50	8641.26
469.69	8779.35
469.87	8896.38
470.05	9057.87
470.23	8926.80
470.41	9008.72
470.59	9172.56
470.77	8898.72
470.95	9123.41
471.14	9324.69
471.32	9172.56
471.50	9343.42
471.68	9399.59
471.86	9437.04
472.04	9329.38
472.22	9797.48
472.40	9238.09
472.58	9504.92
472.77	9427.68
472.95	9678.12
473.13	9923.87
473.31	9495.55
473.49	9437.04
473.67	9689.82
473.85	9607.90
474.03	9872.38
474.21	10036.22
474.39	10083.03
474.57	9961.32
474.75	10029.20
474.93	10326.44
475.12	10204.74
475.30	10284.31
475.48	10200.05
475.66	10239.84
475.84	10361.55
476.02	10450.49
476.20	10155.58
476.38	10455.17
476.56	10885.83
476.74	10773.49
476.92	10501.98
477.10	10731.36
477.28	10951.37
477.46	11138.61
477.64	11033.29
477.82	11335.21
478.00	11421.81
478.18	11405.43
478.36	11272.02
478.54	11587.99
478.72	11520.12
478.90	11754.17
479.08	11934.39
479.26	12060.78
479.44	11920.35
479.62	12058.44
479.80	11875.88
479.98	12109.93
480.16	12414.20
480.34	12367.39
480.52	12648.26
480.70	12755.92
480.88	12325.26
481.06	12472.71
481.24	12800.39
481.41	12865.92
481.59	13053.17
481.77	13142.11
481.95	13076.57
482.13	13121.04
482.31	13371.48
482.49	13420.63
482.67	13921.51
482.85	13640.64
483.03	13762.35
483.21	14141.52
483.39	13947.25
483.57	13893.42
483.74	13816.18
483.92	14387.27
484.10	14122.79
484.28	14293.65
484.46	14820.27
484.64	15002.83
484.82	14654.09
485.00	14817.93
485.18	15035.60
485.35	15108.16
485.53	14909.21
485.71	15199.44
485.89	15286.04
486.07	15351.57
486.25	15611.37
486.43	15726.06
486.61	15672.23
486.78	16006.92
486.96	15910.96
487.14	16631.85
487.32	16451.63
487.50	16376.73
487.68	16765.26
487.85	16723.13
488.03	16903.35
488.21	17015.69
488.39	17053.14
488.57	17495.50
488.75	17242.73
488.92	17385.50
489.10	17788.07
489.28	17855.95
489.46	17909.78
489.64	17970.63
489.81	18757.05
489.99	18499.59
490.17	18312.35
490.35	18693.86
490.53	18623.64
490.70	18871.74
490.88	18824.93
491.06	19421.77
491.24	19204.10
491.41	19316.44
491.59	19201.76
491.77	19187.71
491.95	19304.74
492.13	19590.28
492.30	19847.74
492.48	19917.96
492.66	19978.81
492.84	20006.90
493.01	20175.42
493.19	20166.06
493.37	20587.35
493.54	20556.93
493.72	20587.35
493.90	20893.96
494.08	20828.43
494.25	21233.34
494.43	21333.98
494.61	21427.60
494.79	21451.01
494.96	21144.40
495.14	21556.33
495.32	21919.12
495.49	21736.56
495.67	21893.37
495.85	22251.47
496.02	22569.79
496.20	22445.74
496.38	22445.74
496.55	22473.82
496.73	23000.44
496.91	22789.80
497.09	23009.81
497.26	23084.70
497.44	22808.52
497.62	23337.48
497.79	23365.57
497.97	23538.77
498.14	23850.06
498.32	23768.14
498.50	23667.50
498.67	23960.06
498.85	23775.16
499.03	24278.38
499.20	24297.10
499.38	24173.05
499.56	24243.27
499.73	24259.65
499.91	24322.85
500.08	24734.78
500.26	24280.72
500.44	24886.92
500.61	25029.69
500.79	24802.66
500.97	24952.45
501.14	25301.19
501.32	24996.92
501.49	24980.54
501.67	25394.81
501.84	25453.33
502.02	25532.90
502.20	25488.43
502.37	25975.27
502.55	25694.40
502.72	26066.55
502.90	25743.55
503.07	25778.66
503.25	26176.55
503.43	26111.02
503.60	25869.94
503.78	26424.65
503.95	26541.68
504.13	26242.09
504.30	26927.86
504.48	26471.46
504.65	26796.79
504.83	26969.99
505.01	26909.14
505.18	26960.63
505.36	27412.35
505.53	27461.51
505.71	27351.50
505.88	27388.95
506.06	27028.51
506.23	27407.67
506.41	27311.71
506.58	27648.75
506.76	27597.26
506.93	27901.53
507.11	27527.04
507.28	27592.58
507.46	27714.28
507.63	28070.04
507.81	28362.61
507.98	28119.20
508.16	28400.06
508.33	28364.95
508.50	28809.65
508.68	28456.23
508.85	28985.19
509.03	28561.56
509.20	28907.96
509.38	29034.35
509.55	28837.74
509.73	28996.90
509.90	29244.99
510.08	29060.09
510.25	29261.38
510.42	29472.03
510.60	29635.86
510.77	29708.42
510.95	29443.94
511.12	29663.95
511.30	30073.54
511.47	30094.61
511.64	29862.90
511.82	29914.39
511.99	30230.36
512.17	30370.79
512.34	30281.85
512.51	30787.41
512.69	30504.20
512.86	31255.51
513.04	30738.26
513.21	30698.47
513.38	30686.76
513.56	30801.45
513.73	30684.42
513.90	30885.71
514.08	30747.62
514.25	30803.79
514.43	30906.77
514.60	30895.07
514.77	30991.03
514.95	31414.67
515.12	31269.56
515.29	31440.42
515.47	31695.53
515.64	31613.62
515.81	31452.12
515.99	31735.32
516.16	31386.58
516.33	31599.57
516.51	31779.79
516.68	31637.02
516.85	31435.74
517.03	32020.87
517.20	32184.71
517.37	32191.73
517.54	32048.96
517.72	32465.57
517.89	31835.97
518.06	31929.59
518.24	32158.96
518.41	32266.63
518.58	32545.15
518.75	32388.33
518.93	32439.82
519.10	32554.51
519.27	32559.19
519.45	32858.78
519.62	32886.87
519.79	33212.20
519.96	33158.37
520.14	33530.51
520.31	33106.88
520.48	33434.55
520.65	33336.25
520.83	33717.76
521.00	33584.35
521.17	33507.11
521.34	33645.20
521.52	33734.14
521.69	33933.09
521.86	34096.92
522.03	33869.89
522.20	33963.51
522.38	34150.76
522.55	34178.84
522.72	34141.39
522.89	34328.64
523.07	34164.80
523.24	33982.24
523.41	34586.10
523.58	34443.32
523.75	34691.42
523.92	34705.46
524.10	34335.66
524.27	35023.78
524.44	35339.75
524.61	35056.54
524.78	35264.85
524.96	35295.28
525.13	35456.78
525.30	35470.82
525.47	35566.78
525.64	35447.41
525.81	35637.00
525.98	35606.57
526.16	35449.75
526.33	35248.47
526.50	35763.39
526.67	35105.70
526.84	35405.28
527.01	35321.02
527.18	35697.85
527.36	35936.59
527.53	35967.01
527.70	36472.57
527.87	36308.73
528.04	36079.36
528.21	36067.66
528.38	36051.27
528.55	36437.46
528.72	36411.71
528.89	36694.92
529.07	36781.52
529.24	36325.11
529.41	36362.56
529.58	36725.35
529.75	36297.03
529.92	36758.11
530.09	36893.86
530.26	36935.99
530.43	37160.69
530.60	36683.22
530.77	36842.37
530.94	36933.65
531.11	36706.62
531.28	37289.42
531.46	37567.94
531.63	37354.95
531.80	37303.46
531.97	37397.08
532.14	37301.12
532.31	36884.50
532.48	37237.92
532.65	37308.14
532.82	37764.54
532.99	37673.26
533.16	37858.17
533.33	37565.60
533.50	38543.94
533.67	37811.35
533.84	37666.24
534.01	37996.26
534.18	37553.90
534.35	38003.28
534.52	37998.60
534.69	38014.98
534.86	38047.75
535.03	38291.16
535.20	38534.58
535.37	38806.08
535.54	38569.69
535.71	38909.07
535.88	38621.18
536.05	38595.43
536.22	39051.84
536.38	38691.40
536.55	38429.26
536.72	38693.74
536.89	38333.29
537.06	38209.25
537.23	38955.88
537.40	38567.35
537.57	38639.90
537.74	39075.24
537.91	39456.75
538.08	39070.56
538.25	39185.25
538.42	39070.56
538.59	39281.21
538.75	38873.96
538.92	39110.35
539.09	39203.97
539.26	38932.47
539.43	39487.18
539.60	39061.20
539.77	39213.34
539.94	39250.78
540.11	39321.00
540.28	39634.63
540.44	39335.04
540.61	39550.37
540.78	39241.42
540.95	39608.89
541.12	39452.07
541.29	39353.77
541.46	39461.43
541.62	39335.04
541.79	39655.70
541.96	39629.95
542.13	39463.77
542.30	39711.87
542.47	40109.76
542.63	39835.92
542.80	40046.57
542.97	40282.96
543.14	40542.76
543.31	40535.74
543.48	40664.47
543.64	41048.32
543.81	40708.94
543.98	40369.56
544.15	40350.84
544.32	40870.43
544.48	41317.48
544.65	40821.28
544.82	40851.71
544.99	40758.09
545.16	40875.12
545.32	40896.18
545.49	41581.96
545.66	41097.47
545.83	41577.28
546.00	40996.82
546.16	41195.77
546.33	40580.21
546.50	41050.66
546.67	41490.68
546.83	40671.49
547.00	41258.96
547.17	41366.63
547.34	41429.82
547.50	41315.14
547.67	41357.27
547.84	41539.83
548.00	41425.14
548.17	41837.08
548.34	41787.92
548.51	41720.05
548.67	41483.66
548.84	41509.40
549.01	41785.58
549.18	41687.28
549.34	41713.03
549.51	41918.99
549.68	42260.71
549.84	41715.37
550.01	42014.96
550.18	41619.41
550.34	41982.19
550.51	42286.46
550.68	41937.72
550.84	42380.08
551.01	42307.52
551.18	42108.58
551.34	41904.95
551.51	42073.47
551.68	42094.53
551.84	42326.25
552.01	42113.26
552.18	42150.71
552.34	42010.28
552.51	41773.88
552.68	42244.33
552.84	42436.25
553.01	42440.93
553.18	42293.48
553.34	42141.35
553.51	42454.98
553.67	42436.25
553.84	42925.42
554.01	42417.53
554.17	42787.33
554.34	43082.24
554.51	42799.04
554.67	42869.25
554.84	42464.34
555.00	42548.60
555.17	42810.74
555.33	43026.07
555.50	42927.77
555.67	42770.95
555.83	42848.19
556.00	43292.89
556.16	42934.79
556.33	42990.96
556.50	42836.48
556.66	43070.54
556.83	42808.40
556.99	43147.78
557.16	43152.46
557.32	43110.33
557.49	43625.25
557.65	42698.39
557.82	42953.51
557.98	43363.11
558.15	42993.30
558.32	43391.19
558.48	43248.42
558.65	43484.81
558.81	43016.71
558.98	43227.35
559.14	43217.99
559.31	43157.14
559.47	43454.39
559.64	43325.66
559.80	43681.42
559.97	43117.35
560.13	42934.79
560.30	43323.32
560.46	43365.45
560.63	43409.92
560.79	43533.96
560.96	43482.47
561.12	43597.16
561.29	43353.74
561.45	43674.40
561.61	43693.12
561.78	43697.80
561.94	43517.58
562.11	44030.16
562.27	43580.78
562.44	43564.39
562.60	43672.06
562.77	44142.50
562.93	43505.88
563.10	44009.09
563.26	43344.38
563.42	43594.82
563.59	43608.86
563.75	43742.27
563.92	43498.86
564.08	43674.40
564.24	44301.66
564.41	43962.28
564.57	43426.30
564.74	43779.72
564.90	43772.70
565.07	43828.87
565.23	44074.63
565.39	43662.69
565.56	43519.92
565.72	43779.72
565.88	43566.73
566.05	44034.84
566.21	43784.40
566.38	43988.03
566.54	44287.62
566.70	44062.93
566.87	44165.91
567.03	44179.95
567.19	44189.31
567.36	43842.92
567.52	44182.29
567.68	44191.65
567.85	43674.40
568.01	44357.83
568.17	43990.37
568.34	44016.11
568.50	44219.74
568.66	44009.09
568.83	44194.00
568.99	43702.48
569.15	44208.04
569.32	43796.10
569.48	43920.15
569.64	44275.91
569.81	44341.45
569.97	44439.75
570.13	44563.80
570.30	43955.26
570.46	43903.77
570.62	43503.54
570.78	44016.11
570.95	44397.62
571.11	44355.49
571.27	44065.27
571.43	44236.12
571.60	44170.59
571.76	43920.15
571.92	44151.87
572.09	44261.87
572.25	44224.42
572.41	44243.15
572.57	44362.51
572.74	44744.02
572.90	44179.95
573.06	44222.08
573.22	44126.12
573.38	43861.64
573.55	44147.18
573.71	44208.04
573.87	44549.76
574.03	44055.90
574.20	44362.51
574.36	44580.18
574.52	44453.79
574.68	44505.29
574.84	44575.50
575.01	44161.23
575.17	44229.10
575.33	44521.67
575.49	43957.60
575.65	44486.56
575.82	44732.32
575.98	44683.17
576.14	44521.67
576.30	44619.97
576.46	44418.69
576.62	44559.12
576.79	44659.76
576.95	44402.30
577.11	44362.51
577.27	44491.24
577.43	44879.77
577.59	44432.73
577.75	44439.75
577.92	44095.69
578.08	43824.19
578.24	44168.25
578.40	44175.27
578.56	44484.22
578.72	44519.33
578.88	44619.97
579.04	44435.07
579.21	44362.51
579.37	44479.54
579.53	44528.69
579.69	44151.87
579.85	44381.24
580.01	44732.32
580.17	44662.10
580.33	44631.68
580.49	44671.46
580.65	44748.70
580.82	44458.48
580.98	44783.81
581.14	44231.44
581.30	45116.17
581.46	44603.59
581.62	44601.25
581.78	44474.86
581.94	44875.09
582.10	44341.45
582.26	44748.70
582.42	44545.08
582.58	44594.23
582.74	44821.26
582.90	44678.49
583.06	45029.57
583.22	44753.38
583.38	44540.39
583.54	45172.34
583.70	44739.34
583.86	44589.55
584.02	44425.71
584.18	44594.23
584.34	44879.77
584.50	44404.64
584.66	44360.17
584.82	44313.36
584.98	44872.75
585.14	45078.72
585.30	44598.91
585.46	44739.34
585.62	44891.48
585.78	44594.23
585.94	44432.73
586.10	44884.45
586.26	44470.18
586.42	44580.18
586.58	44870.41
586.74	44830.62
586.90	44402.30
587.06	44655.08
587.22	44903.18
587.38	44289.96
587.54	44760.40
587.70	44921.90
587.86	44835.30
588.02	44575.50
588.18	45270.64
588.34	44591.89
588.49	44123.78
588.65	44163.57
588.81	44280.60
588.97	44526.35
589.13	44739.34
589.29	44624.65
589.45	44685.51
589.61	44493.58
589.77	45008.50
589.93	44847.00
590.08	44715.93
590.24	44804.88
