SpectraSuite Data File
++++++++++++++++++++++++++++++++++++
Date: Fri Oct 25 10:48:29 EDT 2013
User: price-jones
Dark Spectrum Present: No
Reference Spectrum Present: No
Number of Sampled Component Spectra: 1
Spectrometers: USB2+H05261
Integration Time (usec): 100000 (USB2+H05261)
Spectra Averaged: 1 (USB2+H05261)
Boxcar Smoothing: 0 (USB2+H05261)
Correct for Electrical Dark: No (USB2+H05261)
Strobe/Lamp Enabled: No (USB2+H05261)
Correct for Detector Non-linearity: No (USB2+H05261)
Correct for Stray Light: No (USB2+H05261)
Number of Pixels in Processed Spectrum: 2048
>>>>>Begin Processed Spectral Data<<<<<
365.73	170.86
365.92	170.86
366.12	170.86
366.32	70.22
366.52	39.79
366.72	149.79
366.91	74.90
367.11	70.22
367.31	0.00
367.51	145.11
367.70	84.26
367.90	0.00
368.10	14.04
368.30	72.56
368.49	74.90
368.69	81.92
368.89	35.11
369.09	53.83
369.28	46.81
369.48	121.71
369.68	65.54
369.87	81.92
370.07	107.66
370.27	142.77
370.47	243.42
370.66	491.51
370.86	475.13
371.06	451.72
371.25	503.22
371.45	519.60
371.65	526.62
371.84	496.19
372.04	400.23
372.24	517.26
372.44	507.90
372.63	538.32
372.83	566.41
373.03	489.17
373.22	519.60
373.42	449.38
373.62	538.32
373.81	622.58
374.01	543.00
374.21	538.32
374.40	540.66
374.60	655.35
374.79	538.32
374.99	559.39
375.19	641.31
375.38	645.99
375.58	613.22
375.78	697.48
375.97	643.65
376.17	685.78
376.37	575.77
376.56	657.69
376.76	753.65
376.95	650.67
377.15	704.50
377.35	671.73
377.54	681.10
377.74	638.97
377.93	695.14
378.13	650.67
378.33	678.76
378.52	660.03
378.72	730.25
378.91	690.46
379.11	648.33
379.31	610.88
379.50	674.07
379.70	723.23
379.89	699.82
380.09	671.73
380.28	777.06
380.48	671.73
380.68	718.54
380.87	688.12
381.07	753.65
381.26	772.38
381.46	753.65
381.65	692.80
381.85	744.29
382.04	751.31
382.24	692.80
382.43	781.74
382.63	720.88
382.83	779.40
383.02	851.96
383.22	816.85
383.41	816.85
383.61	727.91
383.80	746.63
384.00	873.02
384.19	854.30
384.39	791.10
384.58	786.42
384.78	837.91
384.97	812.17
385.17	870.68
385.36	763.01
385.56	847.27
385.75	861.32
385.95	910.47
386.14	898.77
386.34	868.34
386.53	905.79
386.72	844.93
386.92	812.17
387.11	861.32
387.31	800.46
387.50	978.34
387.70	866.00
387.89	866.00
388.09	884.72
388.28	910.47
388.48	950.26
388.67	968.98
388.86	954.94
389.06	947.92
389.25	908.13
389.45	1006.43
389.64	980.68
389.84	1111.75
390.03	973.66
390.22	1029.84
390.42	1071.97
390.61	1013.45
390.81	1069.62
391.00	1034.52
391.19	997.07
391.39	1069.62
391.58	1114.10
391.78	1020.47
391.97	1088.35
392.16	1083.67
392.36	1090.69
392.55	1146.86
392.75	1015.79
392.94	992.39
393.13	1041.54
393.33	1027.50
393.52	1111.75
393.71	1153.88
393.91	1118.78
394.10	1102.39
394.29	1114.10
394.49	1249.85
394.68	1174.95
394.88	1240.48
395.07	1301.34
395.26	1226.44
395.46	1228.78
395.65	1341.13
395.84	1317.72
396.04	1345.81
396.23	1284.95
396.42	1238.14
396.62	1261.55
396.81	1303.68
397.00	1205.38
397.19	1327.08
397.39	1378.58
397.58	1327.08
397.77	1430.07
397.97	1399.64
398.16	1458.15
398.35	1474.54
398.55	1563.48
398.74	1519.01
398.93	1547.09
399.12	1448.79
399.32	1551.78
399.51	1495.60
399.70	1598.59
399.90	1565.82
400.09	1488.58
400.28	1621.99
400.47	1664.12
400.67	1755.40
400.86	1689.87
401.05	1715.61
401.24	1699.23
401.44	1717.95
401.63	1703.91
401.82	1636.03
402.01	1781.15
402.21	1781.15
402.40	1769.44
402.59	1739.02
402.78	1785.83
402.97	1802.21
403.17	1870.09
403.36	1851.36
403.55	1860.73
403.74	1863.07
403.93	1881.79
404.13	1914.56
404.32	1849.02
404.51	1900.52
404.70	1877.11
404.89	1839.66
405.09	1952.01
405.28	1982.43
405.47	2043.29
405.66	1982.43
405.85	2064.35
406.05	1949.67
406.24	2001.16
406.43	1977.75
406.62	2129.89
406.81	2293.72
407.00	2064.35
407.20	2062.01
407.39	2108.82
407.58	2165.00
407.77	2099.46
407.96	2211.81
408.15	2356.92
408.34	2216.49
408.54	2403.73
408.73	2363.94
408.92	2303.09
409.11	2260.96
409.30	2218.83
409.49	2251.60
409.68	2387.35
409.87	2420.11
410.07	2459.90
410.26	2420.11
410.45	2511.39
410.64	2527.78
410.83	2441.18
411.02	2588.63
411.21	2635.44
411.40	2544.16
411.59	2609.70
411.78	2661.19
411.98	2637.78
412.17	2726.72
412.36	2724.38
412.55	2691.62
412.74	2731.41
412.93	2839.07
413.12	2698.64
413.31	2895.24
413.50	2799.28
413.69	2862.48
413.88	2958.44
414.07	2925.67
414.26	2991.20
414.45	2949.08
414.64	2953.76
414.83	3042.70
415.02	3009.93
415.22	3260.37
415.41	3166.74
415.60	3260.37
415.79	3180.79
415.98	3272.07
416.17	3213.56
416.36	3133.98
416.55	3372.71
416.74	3225.26
416.93	3314.20
417.12	3325.90
417.31	3419.52
417.50	3368.03
417.69	3342.28
417.88	3407.82
418.07	3590.38
418.26	3456.97
418.45	3702.73
418.64	3611.45
418.83	3632.51
419.02	3515.48
419.21	3576.34
419.39	3667.62
419.58	3693.37
419.77	3604.42
419.96	3595.06
420.15	3786.99
420.34	3737.84
420.53	3756.56
420.72	3861.88
420.91	3927.42
421.10	3878.27
421.29	3868.91
421.48	3728.47
421.67	3836.14
421.86	3899.33
422.05	3768.26
422.24	3768.26
422.43	3969.55
422.61	3953.16
422.80	3985.93
422.99	3798.69
423.18	3957.85
423.37	3997.64
423.56	3932.10
423.75	3964.87
423.94	3969.55
424.13	3775.28
424.32	3758.90
424.50	4133.39
424.69	4002.32
424.88	4023.38
425.07	3880.61
425.26	3941.46
425.45	4002.32
425.64	3955.51
425.83	4004.66
426.01	4182.54
426.20	4051.47
426.39	4182.54
426.58	3885.29
426.77	3950.82
426.96	4138.07
427.15	3950.82
427.33	4049.13
427.52	4100.62
427.71	4311.27
427.90	4208.28
428.09	4257.43
428.28	4264.46
428.46	4109.98
428.65	4297.22
428.84	4297.22
429.03	4194.24
429.22	4105.30
429.40	4255.09
429.59	4117.00
429.78	3934.44
429.97	4105.30
430.16	4140.41
430.34	4227.01
430.53	4198.92
430.72	4255.09
430.91	4117.00
431.10	4456.38
431.28	4657.67
431.47	4685.75
431.66	4652.98
431.85	4547.66
432.03	4690.43
432.22	4683.41
432.41	4744.27
432.60	4795.76
432.79	4765.33
432.97	4880.02
433.16	4746.61
433.35	4786.40
433.54	4734.90
433.72	4737.24
433.91	4788.74
434.10	4784.06
434.28	4875.34
434.47	5020.45
434.66	4983.00
434.85	4929.17
435.03	5020.45
435.22	5093.01
435.41	5195.99
435.59	5238.12
435.78	5186.63
435.97	5308.34
436.16	5121.09
436.34	5198.33
436.53	5226.42
436.72	5259.18
436.90	5207.69
437.09	5245.14
437.28	5076.62
437.46	4990.02
437.65	5205.35
437.84	5163.22
438.02	5158.54
438.21	5165.56
438.40	5233.44
438.58	5425.36
438.77	5462.81
438.96	5413.66
439.14	5643.03
439.33	5689.84
439.52	5650.05
439.70	5710.91
439.89	5839.64
440.08	5692.18
440.26	5687.50
440.45	5727.29
440.63	5888.79
440.82	6174.33
441.01	5937.94
441.19	6099.44
441.38	6134.54
441.57	6171.99
441.75	6195.40
441.94	6258.59
442.12	6214.12
442.31	6312.42
442.50	6429.45
442.68	6466.90
442.87	6256.25
443.05	6321.79
443.24	6548.82
443.43	6487.96
443.61	6619.04
443.80	6780.53
443.98	6455.20
444.17	6380.30
444.35	6581.59
444.54	6738.40
444.73	6569.88
444.91	6415.41
445.10	6478.60
445.28	6392.00
445.47	6480.94
445.65	6551.16
445.84	6455.20
446.02	6773.51
446.21	6539.46
446.39	6710.32
446.58	6649.46
446.77	6960.75
446.95	6656.48
447.14	6597.97
447.32	6937.35
447.51	6621.38
447.69	6740.74
447.88	6665.85
448.06	6834.36
448.25	6953.73
448.43	6736.06
448.62	6724.36
448.80	6789.89
448.99	6899.90
449.17	7063.74
449.36	6906.92
449.54	6970.12
449.73	7119.91
449.91	7267.36
450.10	7152.68
450.28	7353.96
450.46	7253.32
450.65	7187.79
450.83	7070.76
451.02	7227.57
451.20	7461.63
451.39	7452.27
451.57	7384.39
451.76	7246.30
451.94	7372.69
452.13	7311.83
452.31	7225.23
452.49	7084.80
452.68	7431.20
452.86	7279.07
453.05	7513.12
453.23	7403.11
453.42	7126.93
453.60	7279.07
453.78	7611.42
453.97	7496.74
454.15	7503.76
454.34	7459.29
454.52	7585.68
454.70	7494.40
454.89	7616.10
455.07	7588.02
455.26	7747.17
455.44	7918.03
455.62	7885.26
455.81	8016.33
455.99	7840.79
456.17	7946.12
456.36	8053.78
456.54	7974.21
456.73	8042.08
456.91	8243.37
457.09	8212.94
457.28	8184.85
457.46	8255.07
457.64	8098.25
457.83	7971.86
458.01	8147.40
458.19	8175.49
458.38	8388.48
458.56	8360.39
458.74	8255.07
458.93	8442.31
459.11	8521.89
459.29	8418.91
459.48	8561.68
459.66	8318.26
459.84	8475.08
460.03	8454.02
460.21	8547.64
460.39	8704.45
460.57	8781.69
460.76	8683.39
460.94	8662.32
461.12	8755.94
461.31	8725.52
461.49	8781.69
461.67	8681.05
461.85	8870.63
462.04	8868.29
462.22	9320.01
462.40	8901.06
462.59	8952.55
462.77	8908.08
462.95	9111.71
463.13	8945.53
463.32	8915.10
463.50	9013.40
463.68	9076.60
463.86	9291.93
464.05	8943.19
464.23	9060.21
464.41	9090.64
464.59	9015.74
464.78	9310.65
464.96	9181.92
465.14	8961.91
465.32	9364.48
465.50	9408.95
465.69	9336.40
465.87	9331.72
466.05	9514.28
466.23	9294.27
466.41	9533.00
466.60	9380.87
466.78	9275.54
466.96	9116.39
467.14	9408.95
467.32	9418.32
467.51	9617.26
467.69	9298.95
467.87	9617.26
468.05	9825.57
468.23	9549.39
468.41	9603.22
468.60	9668.75
468.78	9795.14
468.96	9577.47
469.14	9795.14
469.32	9893.44
469.50	9682.80
469.69	9813.87
469.87	10036.22
470.05	9858.34
470.23	10068.98
470.41	9991.75
470.59	10127.50
470.77	9996.43
470.95	9991.75
471.14	10249.21
471.32	10111.11
471.50	10459.85
471.68	10370.91
471.86	10347.51
472.04	10525.39
472.22	10548.79
472.40	10326.44
472.58	10455.17
472.77	10682.20
472.95	10719.65
473.13	11183.08
473.31	10710.29
473.49	10836.68
473.67	10813.28
473.85	10792.21
474.03	11054.35
474.21	11101.16
474.39	11293.08
474.57	11267.34
474.75	11143.29
474.93	11171.38
475.12	11260.32
475.30	11307.13
475.48	11328.19
475.66	11269.68
475.84	11274.36
476.02	11403.09
476.20	11513.10
476.38	11770.55
476.56	12009.29
476.74	11875.88
476.92	11899.28
477.10	11908.65
477.28	12006.95
477.46	12161.42
477.64	12250.36
477.82	12571.02
478.00	12940.82
478.18	12496.12
478.36	12320.58
478.54	12863.58
478.72	12884.65
478.90	12978.27
479.08	13289.56
479.26	13266.16
479.44	13451.06
479.62	13249.77
479.80	13364.46
479.98	13530.64
480.16	13785.76
480.34	13652.34
480.52	13998.74
480.70	13692.13
480.88	13973.00
481.06	14066.62
481.24	14167.26
481.41	14307.69
481.59	14487.92
481.77	14616.65
481.95	14649.41
482.13	14726.65
482.31	14815.59
482.49	15110.50
482.67	14946.66
482.85	15417.11
483.03	15257.95
483.21	15407.75
483.39	15714.36
483.57	15466.26
483.74	15744.78
483.92	15992.88
484.10	15815.00
484.28	15932.03
484.46	16128.63
484.64	16699.72
484.82	16133.31
485.00	16280.77
485.18	16893.99
485.35	16552.27
485.53	16374.39
485.71	16308.85
485.89	16833.13
486.07	16893.99
486.25	16786.32
486.43	17254.43
486.61	16989.95
486.78	17483.80
486.96	17518.91
487.14	18085.32
487.32	18082.98
487.50	18026.81
487.68	18176.60
487.85	18441.08
488.03	18691.52
488.21	18616.62
488.39	18684.50
488.57	18911.53
488.75	18923.23
488.92	19655.82
489.10	19545.81
489.28	19496.66
489.46	19950.73
489.64	19946.05
489.81	20262.02
489.99	20306.49
490.17	20643.52
490.35	20936.09
490.53	20549.90
490.70	21022.69
490.88	20704.38
491.06	20903.32
491.24	21223.98
491.41	21130.36
491.59	20783.96
491.77	21219.30
491.95	21132.70
492.13	21453.35
492.30	21642.93
492.48	21977.63
492.66	22286.58
492.84	22150.83
493.01	22565.10
493.19	22492.55
493.37	22506.59
493.54	22508.93
493.72	23080.02
493.90	22932.57
494.08	23070.66
494.25	23241.52
494.43	23611.32
494.61	23831.33
494.79	23711.97
494.96	23669.84
495.14	23777.50
495.32	24126.24
495.49	23953.04
495.67	24201.14
495.85	24360.30
496.02	24123.90
496.20	24615.41
496.38	24603.71
496.55	25001.60
496.73	25216.93
496.91	24922.02
497.09	25378.43
497.26	25427.58
497.44	25177.14
497.62	25345.66
497.79	25869.94
497.97	25270.76
498.14	25958.88
498.32	25776.32
498.50	25626.53
498.67	26223.36
498.85	26342.73
499.03	26649.34
499.20	26157.83
499.38	26590.83
499.56	26719.56
499.73	26913.82
499.91	27063.61
500.08	27005.10
500.26	27014.46
500.44	27075.32
500.61	26977.01
500.79	27087.02
500.97	27236.81
501.14	27564.49
501.32	27330.44
501.49	27686.20
501.67	27246.18
501.84	27318.73
502.02	27786.84
502.20	27777.48
502.37	28278.35
502.55	27981.10
502.72	28432.83
502.90	28168.35
503.07	28379.00
503.25	28493.68
503.43	28238.56
503.60	28584.96
503.78	28510.07
503.95	28556.88
504.13	28496.02
504.30	29055.41
504.48	29167.76
504.65	29207.55
504.83	29329.25
505.01	29673.31
505.18	29764.59
505.36	29724.80
505.53	29724.80
505.71	29841.83
505.88	30068.86
506.06	29750.55
506.23	29823.11
506.41	29546.92
506.58	30171.85
506.76	29830.13
506.93	30464.41
507.11	30319.30
507.28	30480.80
507.46	30637.61
507.63	30326.32
507.81	30939.54
507.98	30684.42
508.16	30562.72
508.33	30988.69
508.50	31316.37
508.68	31484.89
508.85	31342.11
509.03	31388.92
509.20	31110.40
509.38	31735.32
509.55	31402.97
509.73	31861.71
509.90	31906.18
510.08	31819.58
510.25	31791.50
510.42	31985.76
510.60	32336.84
510.77	32301.73
510.95	32472.59
511.12	32561.53
511.30	32732.39
511.47	32964.10
511.64	32669.20
511.82	32828.35
511.99	32519.40
512.17	32760.48
512.34	32802.61
512.51	32917.29
512.69	33298.80
512.86	33205.18
513.04	33371.36
513.21	33069.43
513.38	33237.95
513.56	33282.42
513.73	33544.56
513.90	33502.43
514.08	33883.94
514.25	33532.86
514.43	33574.98
514.60	33942.45
514.77	33738.82
514.95	34160.12
515.12	34143.74
515.29	34251.40
515.47	34417.58
515.64	34319.28
515.81	34272.46
515.99	34127.35
516.16	33769.25
516.33	34160.12
516.51	33839.47
516.68	33757.55
516.85	33680.31
517.03	33982.24
517.20	34501.84
517.37	34410.56
517.54	34658.65
517.72	34487.79
517.89	34476.09
518.06	34660.99
518.24	34930.16
518.41	34794.40
518.58	35208.68
518.75	35000.37
518.93	35349.11
519.10	35456.78
519.27	35014.41
519.45	35529.33
519.62	35864.03
519.79	35873.39
519.96	35967.01
520.14	36109.78
520.31	35943.61
520.48	36320.43
520.65	36016.16
520.83	36341.50
521.00	36554.49
521.17	36301.71
521.34	36652.79
521.52	36650.45
521.69	36774.50
521.86	36992.17
522.03	37046.00
522.20	36744.07
522.38	37060.04
522.55	36828.33
522.72	36577.89
522.89	36732.37
523.07	37476.66
523.24	36692.58
523.41	37125.58
523.58	37301.12
523.75	37825.40
523.92	37668.58
524.10	37507.08
524.27	37975.19
524.44	38110.94
524.61	37860.51
524.78	38143.71
524.96	37912.00
525.13	38096.90
525.30	38473.73
525.47	38455.00
525.64	38136.69
525.81	38349.68
525.98	38623.52
526.16	37785.61
526.33	37544.53
526.50	38333.29
526.67	38155.41
526.84	37926.04
527.01	37982.21
527.18	38394.15
527.36	38672.67
527.53	38576.71
527.70	39005.03
527.87	39440.37
528.04	39028.43
528.21	38930.13
528.38	39335.04
528.55	39412.28
528.72	39367.81
528.89	39452.07
529.07	39597.18
529.24	39349.09
529.41	39800.81
529.58	39072.90
529.75	39271.85
529.92	39997.41
530.09	39402.92
530.26	40011.46
530.43	40025.50
530.60	39498.88
530.77	39922.52
530.94	40172.96
531.11	39702.51
531.28	39550.37
531.46	40154.23
531.63	40172.96
531.80	40095.72
531.97	40371.90
532.14	40088.70
532.31	40502.97
532.48	39789.11
532.65	40390.62
532.82	40495.95
532.99	40692.55
533.16	40346.15
533.33	40816.60
533.50	40615.32
533.67	40687.87
533.84	40374.24
534.01	40858.73
534.18	40795.54
534.35	40973.42
534.52	40926.61
534.69	40786.18
534.86	40924.27
535.03	40699.58
535.20	41305.77
535.37	41336.20
535.54	41640.47
535.71	41106.83
535.88	41750.48
536.05	41394.71
536.22	41265.99
536.38	41633.45
536.55	41464.93
536.72	41170.02
536.89	41263.64
537.06	41797.29
537.23	41736.43
537.40	41591.32
537.57	41448.55
537.74	41993.89
537.91	42019.64
538.08	41907.29
538.25	41694.30
538.42	42171.77
538.59	42115.60
538.75	41757.50
538.92	41832.39
539.09	42160.07
539.26	41818.35
539.43	41717.71
539.60	42370.72
539.77	41823.03
539.94	42143.69
540.11	41551.53
540.28	42251.35
540.44	42370.72
540.61	42265.39
540.78	42026.66
540.95	42244.33
541.12	41947.08
541.29	42572.00
541.46	42375.40
541.62	42684.35
541.79	42464.34
541.96	42724.14
542.13	42564.98
542.30	42410.51
542.47	42845.85
542.63	42396.46
542.80	42770.95
542.97	43063.52
543.14	43402.89
543.31	43363.11
543.48	43110.33
543.64	43782.06
543.81	43667.37
543.98	43220.33
544.15	43360.76
544.32	43936.54
544.48	43812.49
544.65	43660.35
544.82	43557.37
544.99	43344.38
545.16	43744.61
545.32	43208.63
545.49	43634.61
545.66	43915.47
545.83	43641.63
546.00	43786.74
546.16	43672.06
546.33	43639.29
546.50	43262.46
546.67	43948.24
546.83	43707.16
547.00	43849.94
547.17	43819.51
547.34	43707.16
547.50	43849.94
547.67	44140.16
547.84	44091.01
548.00	44044.20
548.17	44505.29
548.34	44135.48
548.51	44334.43
548.67	44542.74
548.84	44793.17
549.01	44418.69
549.18	44259.53
549.34	44488.90
549.51	44243.15
549.68	44774.45
549.84	44502.95
550.01	44744.02
550.18	44659.76
550.34	44865.73
550.51	44617.63
550.68	44280.60
550.84	44570.82
551.01	44533.37
551.18	44790.83
551.34	44807.22
551.51	44556.78
551.68	44989.78
551.84	45001.48
552.01	44449.11
552.18	44776.79
552.34	44449.11
552.51	45153.62
552.68	44872.75
552.84	45151.27
553.01	45198.09
553.18	45104.46
553.34	45366.60
553.51	44996.80
553.67	45055.31
553.84	45998.55
554.01	45413.41
554.17	45258.94
554.34	45806.62
554.51	45556.19
554.67	45485.97
554.84	45457.88
555.00	45256.60
555.17	45256.60
555.33	45394.69
555.50	45586.61
555.67	45544.48
555.83	45764.49
556.00	45844.07
556.16	45935.35
556.33	45741.09
556.50	45432.14
556.66	45364.26
556.83	45331.50
556.99	45647.47
557.16	45815.99
557.32	45762.15
557.49	45874.50
557.65	45399.37
557.82	45766.84
557.98	45961.10
558.15	45848.75
558.32	45832.37
558.48	45684.92
558.65	45647.47
558.81	45823.01
558.98	45949.40
559.14	45766.84
559.31	45874.50
559.47	45827.69
559.64	46040.68
559.80	45918.97
559.97	46019.61
560.13	45565.55
560.30	45839.39
560.46	45874.50
560.63	46174.09
560.79	46141.32
560.96	46349.63
561.12	46099.19
561.29	45956.42
561.45	46202.18
561.61	46457.29
561.78	46162.39
561.94	45792.58
562.11	46045.36
562.27	45790.24
562.44	46110.89
562.60	46478.36
562.77	46490.06
562.93	46064.08
563.10	46274.73
563.26	46246.65
563.42	46515.81
563.59	46010.25
563.75	46443.25
563.92	46712.41
564.08	46579.00
564.24	46632.83
564.41	46873.91
564.57	45904.93
564.74	46321.54
564.90	46447.93
565.07	46342.61
565.23	46583.68
565.39	46466.66
565.56	46754.54
565.72	46335.59
565.88	46138.98
566.05	46536.87
566.21	46358.99
566.38	46176.43
566.54	46487.72
566.70	46794.33
566.87	47051.79
567.03	46199.83
567.19	47004.98
567.36	46174.09
567.52	46270.05
567.68	46855.18
567.85	46473.68
568.01	46422.19
568.17	46307.50
568.34	46698.37
568.50	46480.70
568.66	46099.19
568.83	46969.87
568.99	46312.18
569.15	46143.66
569.32	46581.34
569.48	46300.48
569.64	46768.58
569.81	46948.81
569.97	46700.71
570.13	46948.81
570.30	46459.63
570.46	46845.82
570.62	46256.01
570.78	46096.85
570.95	46801.35
571.11	46513.47
571.27	46609.43
571.43	46761.56
571.60	46894.97
571.76	47063.49
571.92	46829.44
572.09	46454.95
572.25	46815.40
572.41	46689.01
572.57	46590.70
572.74	47269.46
572.90	46749.86
573.06	46824.76
573.22	47002.64
573.38	46728.80
573.55	46410.48
573.71	47079.88
573.87	46733.48
574.03	46827.10
574.20	46501.76
574.36	47063.49
574.52	46997.96
574.68	47040.09
574.84	47281.16
575.01	46672.62
575.17	46469.00
575.33	46630.49
575.49	46513.47
575.65	47166.48
575.82	47030.72
575.98	46967.53
576.14	47292.86
576.30	46866.89
576.46	46581.34
576.62	46728.80
576.79	47002.64
576.95	46398.78
577.11	46560.28
577.27	46948.81
577.43	46880.93
577.59	46918.38
577.75	46909.02
577.92	46630.49
578.08	46492.40
578.24	46382.40
578.40	46377.72
578.56	46742.84
578.72	46588.36
578.88	46707.73
579.04	46979.23
579.21	46457.29
579.37	46838.80
579.53	46674.96
579.69	46806.03
579.85	47112.64
580.01	47122.01
580.17	47004.98
580.33	46944.12
580.49	46967.53
580.65	46958.17
580.82	46986.25
580.98	47250.74
581.14	46892.63
581.30	47129.03
581.46	46864.55
581.62	47009.66
581.78	47131.37
581.94	47381.80
582.10	46653.90
582.26	47054.13
582.42	47180.52
582.58	47114.98
582.74	46216.22
582.90	47325.63
583.06	47026.04
583.22	46920.72
583.38	47353.72
583.54	47021.36
583.70	47004.98
583.86	46841.14
584.02	47072.85
584.18	46756.88
584.34	47229.67
584.50	47023.70
584.66	46892.63
584.82	46859.87
584.98	47372.44
585.14	46948.81
585.30	46532.19
585.46	46873.91
585.62	46883.27
585.78	47112.64
585.94	46775.61
586.10	46721.77
586.26	46869.23
586.42	47065.83
586.58	46820.08
586.74	46803.69
586.90	46735.82
587.06	46810.71
587.22	47395.85
587.38	46656.24
587.54	47164.14
587.70	47124.35
587.86	47461.38
588.02	46990.94
588.18	47002.64
588.34	46681.98
588.49	46504.10
588.65	46415.16
588.81	46312.18
588.97	46199.83
589.13	46501.76
589.29	46684.33
589.45	46892.63
589.61	47173.50
589.77	46899.65
589.93	47199.24
