SpectraSuite Data File
++++++++++++++++++++++++++++++++++++
Date: Fri Oct 25 11:33:35 EDT 2013
User: price-jones
Dark Spectrum Present: No
Reference Spectrum Present: No
Number of Sampled Component Spectra: 1
Spectrometers: USB2+H05261
Integration Time (usec): 100000 (USB2+H05261)
Spectra Averaged: 1 (USB2+H05261)
Boxcar Smoothing: 0 (USB2+H05261)
Correct for Electrical Dark: No (USB2+H05261)
Strobe/Lamp Enabled: No (USB2+H05261)
Correct for Detector Non-linearity: No (USB2+H05261)
Correct for Stray Light: No (USB2+H05261)
Number of Pixels in Processed Spectrum: 2048
>>>>>Begin Processed Spectral Data<<<<<
365.73	320.65
365.92	320.65
366.12	320.65
366.32	210.65
366.52	180.22
366.72	147.45
366.91	229.37
367.11	168.52
367.31	175.54
367.51	175.54
367.70	184.90
367.90	194.26
368.10	140.43
368.30	149.79
368.49	194.26
368.69	154.48
368.89	201.29
369.09	161.50
369.28	189.58
369.48	203.63
369.68	222.35
369.87	250.44
370.07	212.99
370.27	304.27
370.47	262.14
370.66	477.47
370.86	491.51
371.06	547.69
371.25	528.96
371.45	482.15
371.65	645.99
371.84	533.64
372.04	524.28
372.24	613.22
372.44	538.32
372.63	631.94
372.83	617.90
373.03	578.11
373.22	601.52
373.42	660.03
373.62	627.26
373.81	662.37
374.01	702.16
374.21	629.60
374.40	578.11
374.60	697.48
374.79	599.18
374.99	629.60
375.19	650.67
375.38	601.52
375.58	692.80
375.78	697.48
375.97	674.07
376.17	688.12
376.37	692.80
376.56	727.91
376.76	734.93
376.95	678.76
377.15	727.91
377.35	770.04
377.54	662.37
377.74	755.99
377.93	648.33
378.13	692.80
378.33	697.48
378.52	631.94
378.72	690.46
378.91	748.97
379.11	730.25
379.31	667.05
379.50	800.46
379.70	788.76
379.89	734.93
380.09	704.50
380.28	748.97
380.48	706.84
380.68	727.91
380.87	784.08
381.07	737.27
381.26	723.23
381.46	760.67
381.65	788.76
381.85	753.65
382.04	793.44
382.24	765.36
382.43	786.42
382.63	798.12
382.83	800.46
383.02	826.21
383.22	760.67
383.41	781.74
383.61	807.48
383.80	894.08
384.00	837.91
384.19	826.21
384.39	823.87
384.58	866.00
384.78	779.40
384.97	809.83
385.17	821.53
385.36	800.46
385.56	828.55
385.75	802.80
385.95	774.72
386.14	798.12
386.34	833.23
386.53	781.74
386.72	891.74
386.92	835.57
387.11	973.66
387.31	887.06
387.50	840.25
387.70	880.04
387.89	851.96
388.09	816.85
388.28	866.00
388.48	983.02
388.67	954.94
388.86	835.57
389.06	901.11
389.25	968.98
389.45	966.64
389.64	933.87
389.84	997.07
390.03	978.34
390.22	1034.52
390.42	924.51
390.61	931.53
390.81	1025.15
391.00	929.19
391.19	947.92
391.39	1011.11
391.58	1022.81
391.78	1022.81
391.97	978.34
392.16	1022.81
392.36	1020.47
392.55	973.66
392.75	1078.99
392.94	1100.05
393.13	1043.88
393.33	1053.24
393.52	1118.78
393.71	1081.33
393.91	1050.90
394.10	1135.16
394.29	1088.35
394.49	1139.84
394.68	1128.14
394.88	1118.78
395.07	1153.88
395.26	1107.07
395.46	1144.52
395.65	1170.27
395.84	1196.01
396.04	1228.78
396.23	1156.22
396.42	1228.78
396.62	1144.52
396.81	1235.80
397.00	1238.14
397.19	1275.59
397.39	1186.65
397.58	1336.45
397.77	1277.93
397.97	1493.26
398.16	1261.55
398.35	1289.64
398.55	1240.48
398.74	1287.29
398.93	1289.64
399.12	1296.66
399.32	1413.68
399.51	1310.70
399.70	1341.13
399.90	1418.36
400.09	1441.77
400.28	1369.21
400.47	1418.36
400.67	1357.51
400.86	1366.87
401.05	1423.05
401.24	1490.92
401.44	1390.28
401.63	1383.26
401.82	1345.81
402.01	1481.56
402.21	1523.69
402.40	1483.90
402.59	1474.54
402.78	1528.37
402.97	1537.73
403.17	1446.45
403.36	1544.75
403.55	1633.69
403.74	1533.05
403.93	1624.33
404.13	1610.29
404.32	1554.12
404.51	1568.16
404.70	1621.99
404.89	1673.48
405.09	1629.01
405.28	1692.21
405.47	1607.95
405.66	1652.42
405.85	1734.34
406.05	1732.00
406.24	1741.36
406.43	1778.81
406.62	1682.85
406.81	1881.79
407.00	1774.13
407.20	1774.13
407.39	1818.60
407.58	1893.49
407.77	1816.26
407.96	1891.15
408.15	1884.13
408.34	1902.86
408.54	1902.86
408.73	1921.58
408.92	1956.69
409.11	2012.86
409.30	1900.52
409.49	1893.49
409.68	1961.37
409.87	1839.66
410.07	2059.67
410.26	2099.46
410.45	2155.63
410.64	2026.90
410.83	2118.18
411.02	2099.46
411.21	2207.13
411.40	2239.89
411.59	2237.55
411.78	2293.72
411.98	2216.49
412.17	2204.78
412.36	2228.19
412.55	2214.15
412.74	2331.17
412.93	2408.41
413.12	2282.02
413.31	2375.64
413.50	2265.64
413.69	2349.90
413.88	2473.95
414.07	2497.35
414.26	2612.04
414.45	2530.12
414.64	2656.51
414.83	2551.18
415.02	2637.78
415.22	2649.49
415.41	2635.44
415.60	2717.36
415.79	2719.70
415.98	2736.09
416.17	2736.09
416.36	2771.19
416.55	2747.79
416.74	2855.45
416.93	2825.03
417.12	2991.20
417.31	2981.84
417.50	2850.77
417.69	2876.52
417.88	2862.48
418.07	2890.56
418.26	2913.97
418.45	2960.78
418.64	3019.29
418.83	3094.19
419.02	3087.17
419.21	3103.55
419.39	3049.72
419.58	3056.74
419.77	3002.91
419.96	3117.59
420.15	3232.28
420.34	3094.19
420.53	3159.72
420.72	3145.68
420.91	3220.58
421.10	3246.32
421.29	3393.78
421.48	3173.77
421.67	3265.05
421.86	3260.37
422.05	3239.30
422.24	3253.34
422.43	3260.37
422.61	3353.99
422.80	3265.05
422.99	3290.79
423.18	3445.27
423.37	3506.12
423.56	3335.26
423.75	3456.97
423.94	3246.32
424.13	3112.91
424.32	3433.57
424.50	3503.78
424.69	3658.26
424.88	3550.59
425.07	3398.46
425.26	3363.35
425.45	3414.84
425.64	3578.68
425.83	3384.41
426.01	3566.98
426.20	3487.40
426.39	3564.64
426.58	3471.01
426.77	3442.93
426.96	3623.15
427.15	3517.83
427.33	3660.60
427.52	3538.89
427.71	3569.32
427.90	3634.85
428.09	3566.98
428.28	3669.96
428.46	3588.04
428.65	3658.26
428.84	3763.58
429.03	3824.44
429.22	3618.47
429.40	3709.75
429.59	3791.67
429.78	3777.62
429.97	3651.24
430.16	3772.94
430.34	3918.06
430.53	3833.80
430.72	3871.25
430.91	3955.51
431.10	3723.79
431.28	3908.69
431.47	4037.42
431.66	3969.55
431.85	3997.64
432.03	3995.29
432.22	3985.93
432.41	4011.68
432.60	4081.89
432.79	4072.53
432.97	4166.15
433.16	4107.64
433.35	4077.21
433.54	4257.43
433.72	4325.31
433.91	4187.22
434.10	4196.58
434.28	4203.60
434.47	4159.13
434.66	4306.59
434.85	4407.23
435.03	4332.33
435.22	4416.59
435.41	4498.51
435.59	4514.89
435.78	4369.78
435.97	4463.40
436.16	4444.68
436.34	4444.68
436.53	4622.56
436.72	4641.28
436.90	4322.97
437.09	4552.34
437.28	4435.32
437.46	4404.89
437.65	4582.77
437.84	4662.35
438.02	4559.36
438.21	4692.77
438.40	4641.28
438.58	4760.65
438.77	4683.41
438.96	4737.24
439.14	5039.17
439.33	4798.10
439.52	4957.25
439.70	4997.04
439.89	5001.72
440.08	4926.83
440.26	4943.21
440.45	5034.49
440.63	4992.36
440.82	5050.88
441.01	5200.67
441.19	5001.72
441.38	5289.61
441.57	5327.06
441.75	5387.91
441.94	5397.28
442.12	5416.00
442.31	5425.36
442.50	5497.92
442.68	5327.06
442.87	5397.28
443.05	5504.94
443.24	5547.07
443.43	5497.92
443.61	5558.77
443.80	5568.13
443.98	5439.40
444.17	5277.91
444.35	5577.50
444.54	5603.24
444.73	5444.09
444.91	5556.43
445.10	5502.60
445.28	5682.82
445.47	5755.38
445.65	5509.62
445.84	5778.78
446.02	5680.48
446.21	5748.36
446.39	5682.82
446.58	5668.78
446.77	5919.21
446.95	5584.52
447.14	5671.12
447.32	5898.15
447.51	5900.49
447.69	5731.97
447.88	5809.21
448.06	5741.33
448.25	5790.49
448.43	5881.77
448.62	5865.38
448.80	5867.72
448.99	5902.83
449.17	5795.17
449.36	5891.13
449.54	5870.06
449.73	6087.73
449.91	6136.88
450.10	5996.45
450.28	6183.70
450.46	6164.97
450.65	6157.95
450.83	6186.04
451.02	6157.95
451.20	6204.76
451.39	6045.60
451.57	6090.07
451.76	6115.82
451.94	6155.61
452.13	6286.68
452.31	6312.42
452.49	6312.42
452.68	6331.15
452.86	6314.77
453.05	6300.72
453.23	6473.92
453.42	6279.66
453.60	6232.85
453.78	6558.18
453.97	6466.90
454.15	6403.71
454.34	6127.52
454.52	6579.25
454.70	6649.46
454.89	6623.72
455.07	6754.79
455.26	6429.45
455.44	6602.65
455.62	6537.12
455.81	6532.44
455.99	6764.15
456.17	6759.47
456.36	6782.87
456.54	6789.89
456.73	6906.92
456.91	7028.63
457.09	6895.22
457.28	7030.97
457.46	6899.90
457.64	7007.56
457.83	7190.13
458.01	6984.16
458.19	7318.86
458.38	7353.96
458.56	7185.44
458.74	7222.89
458.93	7138.63
459.11	7234.60
459.29	7236.94
459.48	7309.49
459.66	7272.04
459.84	7178.42
460.03	7442.90
460.21	7339.92
460.39	7517.80
460.57	7414.82
460.76	7613.76
460.94	7630.15
461.12	7356.30
461.31	7543.55
461.49	7606.74
461.67	7499.08
461.85	7843.14
462.04	7634.83
462.22	8072.51
462.40	7861.86
462.59	7815.05
462.77	7761.22
462.95	7815.05
463.13	7609.08
463.32	7712.07
463.50	7953.14
463.68	8009.31
463.86	8112.30
464.05	7850.16
464.23	7817.39
464.41	8016.33
464.59	7974.21
464.78	8297.20
464.96	8124.00
465.14	8011.65
465.32	8049.10
465.50	7995.27
465.69	8074.85
465.87	8250.39
466.05	8030.38
466.23	8168.47
466.41	8168.47
466.60	8276.13
466.78	8142.72
466.96	8145.06
467.14	8327.63
467.32	8259.75
467.51	8313.58
467.69	8234.00
467.87	8280.82
468.05	8226.98
468.23	8468.06
468.41	8280.82
468.60	8503.17
468.78	8479.76
468.96	8475.08
469.14	8407.20
469.32	8549.98
469.50	8503.17
469.69	8669.34
469.87	8847.22
470.05	8641.26
470.23	8837.86
470.41	8744.24
470.59	8856.59
470.77	8833.18
470.95	8929.14
471.14	9081.28
471.32	8706.79
471.50	9081.28
471.68	8964.25
471.86	9357.46
472.04	9181.92
472.22	9411.29
472.40	9177.24
472.58	9118.73
472.77	9373.85
472.95	9495.55
473.13	9654.71
473.31	9343.42
473.49	9596.20
473.67	9558.75
473.85	9579.81
474.03	9898.13
474.21	9937.91
474.39	9921.53
474.57	9839.61
474.75	9694.50
474.93	9884.08
475.12	9886.42
475.30	9970.68
475.48	9944.94
475.66	10101.75
475.84	9813.87
476.02	10176.65
476.20	10289.00
476.38	10352.19
476.56	10595.61
476.74	10567.52
476.92	10422.41
477.10	10389.64
477.28	10597.95
477.46	10895.19
477.64	10808.59
477.82	10911.58
478.00	11131.59
478.18	11265.00
478.36	11325.85
478.54	11257.98
478.72	11508.41
478.90	11573.95
479.08	11492.03
479.26	11510.75
479.44	11648.85
479.62	11896.94
479.80	11765.87
479.98	12032.69
480.16	12287.81
480.34	12119.29
480.52	12341.64
480.70	12245.68
480.88	12121.63
481.06	12547.61
481.24	12634.21
481.41	12524.21
481.59	12798.05
481.77	12638.89
481.95	12999.34
482.13	12861.24
482.31	12837.84
482.49	13493.19
482.67	13247.43
482.85	13383.18
483.03	13671.07
483.21	13577.45
483.39	13797.46
483.57	13795.12
483.74	13736.60
483.92	14003.43
484.10	13839.59
484.28	14361.53
484.46	14389.61
484.64	14934.96
484.82	14398.98
485.00	14635.37
485.18	14803.89
485.35	15199.44
485.53	14803.89
485.71	15054.33
485.89	15592.65
486.07	15524.77
486.25	15227.53
486.43	15452.22
486.61	15651.16
486.78	15908.62
486.96	15925.00
487.14	16208.21
487.32	16135.65
487.50	16030.33
487.68	16203.53
487.85	16573.33
488.03	16814.41
488.21	17081.23
488.39	16994.63
488.57	17156.13
488.75	17156.13
488.92	17633.60
489.10	17406.56
489.28	17579.76
489.46	17795.09
489.64	17561.04
489.81	18146.17
489.99	18207.03
490.17	18260.86
490.35	18551.09
490.53	18602.58
490.70	18579.17
490.88	18651.73
491.06	19049.62
491.24	19033.24
491.41	19349.21
491.59	19058.98
491.77	19105.79
491.95	19482.62
492.13	19449.85
492.30	19606.67
492.48	19836.04
492.66	20112.22
492.84	19838.38
493.01	20180.10
493.19	20397.77
493.37	20421.17
493.54	20386.07
493.72	20842.47
493.90	20456.28
494.08	20767.57
494.25	20985.24
494.43	20919.71
494.61	21078.86
494.79	21247.38
494.96	21263.77
495.14	21345.69
495.32	21752.94
495.49	21532.93
495.67	21827.84
495.85	22038.48
496.02	22256.15
496.20	22377.86
496.38	22286.58
496.55	22305.31
496.73	22808.52
496.91	22492.55
497.09	22958.31
497.26	22890.44
497.44	23204.07
497.62	23321.10
497.79	23285.99
497.97	23552.81
498.14	23632.39
498.32	23510.68
498.50	23580.90
498.67	24051.34
498.85	23807.93
499.03	24194.12
499.20	23786.86
499.38	24362.64
499.56	24615.41
499.73	24540.52
499.91	24512.43
500.08	24858.83
500.26	24823.72
500.44	25146.72
500.61	24790.95
500.79	24821.38
500.97	24879.89
501.14	25390.13
501.32	25282.47
501.49	25399.49
501.67	25153.74
501.84	25455.67
502.02	25434.60
502.20	25607.80
502.37	25694.40
502.55	26022.08
502.72	25834.83
502.90	26026.76
503.07	25947.18
503.25	26038.46
503.43	26015.05
503.60	25998.67
503.78	26668.06
503.95	26118.04
504.13	26211.66
504.30	26892.76
504.48	26522.95
504.65	26883.39
504.83	26888.07
505.01	27026.17
505.18	26728.92
505.36	26829.56
505.53	26948.93
505.71	27744.71
505.88	27786.84
506.06	27377.25
506.23	27791.52
506.41	27545.76
506.58	27667.47
506.76	28130.90
506.93	28306.44
507.11	28079.41
507.28	28128.56
507.46	28140.26
507.63	28540.49
507.81	28439.85
507.98	28503.04
508.16	28603.69
508.33	28655.18
508.50	28933.70
508.68	28758.16
508.85	28917.32
509.03	28622.41
509.20	29252.02
509.38	29434.58
509.55	29359.68
509.73	29591.39
509.90	29282.44
510.08	29984.60
510.25	29607.78
510.42	29654.59
510.60	29638.20
510.77	29802.04
510.95	30508.88
511.12	30178.87
511.30	30286.53
511.47	30075.88
511.64	30176.53
511.82	30391.86
511.99	30249.08
512.17	30632.93
512.34	30281.85
512.51	30888.05
512.69	30646.97
512.86	30738.26
513.04	31147.85
513.21	30984.01
513.38	31164.23
513.56	31175.94
513.73	31325.73
513.90	31267.22
514.08	31398.29
514.25	31335.09
514.43	31555.10
514.60	31435.74
514.77	31735.32
514.95	31625.32
515.12	31503.61
515.29	31517.65
515.47	32100.45
515.64	32126.19
515.81	31964.70
515.99	32116.83
516.16	32479.61
516.33	32215.13
516.51	32533.45
516.68	32236.20
516.85	32610.68
517.03	32683.24
517.20	32514.72
517.37	32669.20
517.54	32929.00
517.72	32858.78
517.89	33118.58
518.06	33076.45
518.24	32840.06
518.41	32865.80
518.58	33067.09
518.75	33160.71
518.93	33331.57
519.10	33282.42
519.27	33598.39
519.45	33881.60
519.62	33614.77
519.79	33347.95
519.96	33663.93
520.14	33982.24
520.31	33830.10
520.48	34244.38
520.65	34260.76
520.83	34609.50
521.00	34410.56
521.17	34398.85
521.34	34417.58
521.52	34721.85
521.69	34422.26
521.86	35009.73
522.03	34873.98
522.20	34995.69
522.38	35257.83
522.55	35269.53
522.72	34965.26
522.89	35302.30
523.07	35665.08
523.24	35108.04
523.41	35119.74
523.58	35482.52
523.75	35543.38
523.92	35494.22
524.10	35143.14
524.27	35920.20
524.44	35548.06
524.61	35512.95
524.78	35812.54
524.96	36500.65
525.13	36058.29
525.30	36257.24
525.47	36734.71
525.64	35824.24
525.81	36521.72
525.98	36708.96
526.16	36119.15
526.33	36467.89
526.50	36603.64
526.67	36067.66
526.84	36385.97
527.01	36591.94
527.18	36713.64
527.36	36657.47
527.53	37280.05
527.70	37053.02
527.87	37329.20
528.04	36793.22
528.21	37118.56
528.38	37069.40
528.55	37294.10
528.72	37352.61
528.89	37352.61
529.07	37158.34
529.24	37036.64
529.41	37593.68
529.58	37432.19
529.75	37511.77
529.92	37841.78
530.09	37696.67
530.26	37748.16
530.43	37722.41
530.60	37584.32
530.77	37968.17
530.94	38026.68
531.11	38014.98
531.28	37703.69
531.46	38178.82
531.63	38345.00
531.80	38345.00
531.97	38157.75
532.14	38300.53
532.31	37921.36
532.48	38469.04
532.65	38595.43
532.82	38462.02
532.99	38759.27
533.16	38309.89
533.33	38890.34
533.50	39182.91
533.67	38808.42
533.84	38731.18
534.01	38890.34
534.18	39012.05
534.35	38789.70
534.52	39709.53
534.69	39297.59
534.86	39367.81
535.03	39461.43
535.20	39356.11
535.37	39374.83
535.54	39461.43
535.71	39091.63
535.88	39342.06
536.05	39702.51
536.22	39791.45
536.38	39512.92
536.55	39459.09
536.72	39611.23
536.89	40009.12
537.06	39861.66
537.23	40346.15
537.40	39615.91
537.57	39739.96
537.74	39999.76
537.91	39775.06
538.08	40201.04
538.25	39852.30
538.42	40149.55
538.59	40505.31
538.75	40112.10
538.92	40863.41
539.09	40582.55
539.26	40765.11
539.43	40423.39
539.60	40591.91
539.77	40746.39
539.94	40933.63
540.11	40634.04
540.28	40685.53
540.44	40811.92
540.61	40926.61
540.78	40676.17
540.95	41553.87
541.12	40730.00
541.29	40877.46
541.46	40842.35
541.62	41130.23
541.79	40926.61
541.96	41141.94
542.13	40753.41
542.30	41036.61
542.47	41251.94
542.63	41581.96
542.80	41659.20
542.97	41818.35
543.14	41808.99
543.31	41745.80
543.48	41832.39
543.64	42511.15
543.81	41614.72
543.98	41968.15
544.15	41991.55
544.32	42277.10
544.48	42146.03
544.65	42190.50
544.82	42557.96
544.99	42003.25
545.16	42349.65
545.32	42110.92
545.49	42431.57
545.66	42579.03
545.83	42993.30
546.00	42674.99
546.16	42487.74
546.33	42183.48
546.50	42087.51
546.67	42909.04
546.83	42429.23
547.00	42546.26
547.17	42485.40
547.34	42555.62
547.50	43124.37
547.67	43309.27
547.84	43096.28
548.00	43290.55
548.17	43306.93
548.34	43374.81
548.51	43157.14
548.67	43189.91
548.84	43325.66
549.01	43438.00
549.18	43283.53
549.34	43650.99
549.51	43573.75
549.68	43269.48
549.84	43391.19
550.01	44002.07
550.18	43480.13
550.34	43566.73
550.51	43856.96
550.68	43955.26
550.84	43587.80
551.01	43880.36
551.18	43442.68
551.34	44126.12
551.51	43875.68
551.68	43892.07
551.84	43620.56
552.01	43922.49
552.18	44137.82
552.34	43990.37
552.51	44032.50
552.68	43840.57
552.84	44432.73
553.01	44484.22
553.18	43894.41
553.34	44208.04
553.51	44060.58
553.67	44304.00
553.84	44177.61
554.01	44470.18
554.17	44514.65
554.34	44395.28
554.51	44414.01
554.67	44889.13
554.84	44566.14
555.00	44360.17
555.17	44711.25
555.33	44737.00
555.50	44952.33
555.67	44498.26
555.83	45069.36
556.00	44612.95
556.16	45530.44
556.33	45137.23
556.50	45071.70
556.66	45104.46
556.83	44575.50
556.99	45263.62
557.16	45144.25
557.32	45015.52
557.49	45223.83
557.65	44825.94
557.82	45373.63
557.98	45130.21
558.15	45162.98
558.32	45310.43
558.48	44786.15
558.65	45460.23
558.81	45457.88
558.98	45418.10
559.14	45336.18
559.31	45411.07
559.47	45034.25
559.64	45308.09
559.80	45729.39
559.97	45752.79
560.13	45263.62
560.30	45354.90
560.46	45595.98
560.63	46075.79
560.79	45720.02
560.96	46033.66
561.12	45757.47
561.29	45944.72
561.45	46089.83
561.61	45979.82
561.78	45851.09
561.94	45654.49
562.11	45820.67
562.27	45925.99
562.44	45787.90
562.60	45956.42
562.77	45918.97
562.93	45687.26
563.10	46307.50
563.26	46124.94
563.42	46192.81
563.59	45940.04
563.75	45961.10
563.92	45918.97
564.08	45640.45
564.24	46181.11
564.41	45897.91
564.57	46408.14
564.74	45415.76
564.90	46164.73
565.07	46021.95
565.23	45773.86
565.39	45970.46
565.56	46368.35
565.72	46171.75
565.88	46295.80
566.05	46066.42
566.21	46057.06
566.38	46178.77
566.54	46309.84
566.70	46115.58
566.87	46394.10
567.03	46185.79
567.19	46518.15
567.36	46438.57
567.52	46663.26
567.68	46637.51
567.85	46284.09
568.01	46667.94
568.17	46876.25
568.34	46827.10
568.50	46628.15
568.66	45991.53
568.83	46955.83
568.99	46337.93
569.15	46511.13
569.32	46564.96
569.48	46850.50
569.64	47068.17
569.81	46756.88
569.97	46873.91
570.13	46848.16
570.30	46791.99
570.46	46735.82
570.62	46960.51
570.78	46890.29
570.95	46607.09
571.11	46960.51
571.27	46546.23
571.43	46571.98
571.60	46452.61
571.76	46454.95
571.92	46555.60
572.09	46754.54
572.25	46394.10
572.41	46007.91
572.57	46600.07
572.74	47161.79
572.90	46909.02
573.06	46967.53
573.22	47072.85
573.38	47122.01
573.55	46777.95
573.71	47150.09
573.87	47100.94
574.03	46944.12
574.20	47012.00
574.36	46899.65
574.52	47421.59
574.68	47129.03
574.84	47180.52
575.01	47320.95
575.17	47461.38
575.33	47393.51
575.49	47091.58
575.65	46890.29
575.82	47765.65
575.98	47126.69
576.14	47316.27
576.30	47098.60
576.46	47159.45
576.62	47098.60
576.79	47023.70
576.95	46663.26
577.11	46546.23
577.27	47068.17
577.43	47100.94
577.59	46796.67
577.75	46752.20
577.92	47140.73
578.08	47056.47
578.24	47079.88
578.40	47313.93
578.56	47299.89
578.72	47299.89
578.88	47201.58
579.04	47482.45
579.21	47016.68
579.37	47320.95
579.53	47391.17
579.69	47147.75
579.85	47061.15
580.01	47093.92
580.17	47133.71
580.33	47583.09
580.49	47522.24
580.65	47189.88
580.82	47262.44
580.98	46993.28
581.14	47061.15
581.30	47463.72
581.46	47299.89
581.62	47838.21
581.78	47290.52
581.94	47587.77
582.10	47234.35
582.26	47295.21
582.42	47693.10
582.58	47433.30
582.74	47309.25
582.90	47075.19
583.06	47693.10
583.22	47063.49
583.38	47075.19
583.54	47129.03
583.70	47051.79
583.86	47758.63
584.02	47400.53
584.18	47669.69
584.34	47463.72
584.50	47377.12
584.66	47468.40
584.82	47519.90
584.98	47739.91
585.14	47590.11
585.30	47313.93
585.46	47054.13
585.62	47224.99
585.78	47821.83
585.94	47274.14
586.10	47185.20
586.26	47100.94
586.42	47562.03
586.58	47562.03
586.74	47800.76
586.90	47414.57
587.06	47339.68
587.22	47730.54
587.38	47437.98
587.54	47782.04
587.70	47866.30
587.86	47861.61
588.02	47496.49
588.18	47164.14
588.34	47391.17
588.49	47503.51
588.65	47480.11
588.81	47459.04
588.97	47622.88
589.13	47585.43
589.29	47456.70
589.45	47812.46
589.61	47700.12
589.77	47875.66
589.93	47288.18
590.08	47882.68
