SpectraSuite Data File
++++++++++++++++++++++++++++++++++++
Date: Fri Oct 25 11:23:21 EDT 2013
User: price-jones
Dark Spectrum Present: No
Reference Spectrum Present: No
Number of Sampled Component Spectra: 1
Spectrometers: USB2+H05261
Integration Time (usec): 100000 (USB2+H05261)
Spectra Averaged: 1 (USB2+H05261)
Boxcar Smoothing: 0 (USB2+H05261)
Correct for Electrical Dark: No (USB2+H05261)
Strobe/Lamp Enabled: No (USB2+H05261)
Correct for Detector Non-linearity: No (USB2+H05261)
Correct for Stray Light: No (USB2+H05261)
Number of Pixels in Processed Spectrum: 2048
>>>>>Begin Processed Spectral Data<<<<<
365.73	301.93
365.92	301.93
366.12	301.93
366.32	201.29
366.52	121.71
366.72	149.79
366.91	102.98
367.11	128.73
367.31	65.54
367.51	72.56
367.70	128.73
367.90	86.60
368.10	145.11
368.30	152.13
368.49	110.01
368.69	72.56
368.89	2.34
369.09	135.75
369.28	100.64
369.48	170.86
369.68	177.88
369.87	201.29
370.07	140.43
370.27	252.78
370.47	332.36
370.66	606.20
370.86	524.28
371.06	599.18
371.25	704.50
371.45	692.80
371.65	734.93
371.84	589.82
372.04	770.04
372.24	683.44
372.44	692.80
372.63	784.08
372.83	739.61
373.03	748.97
373.22	720.88
373.42	741.95
373.62	753.65
373.81	821.53
374.01	793.44
374.21	763.01
374.40	763.01
374.60	819.19
374.79	732.59
374.99	763.01
375.19	847.27
375.38	751.31
375.58	882.38
375.78	887.06
375.97	828.55
376.17	912.81
376.37	849.61
376.56	915.15
376.76	847.27
376.95	861.32
377.15	849.61
377.35	894.08
377.54	809.83
377.74	873.02
377.93	971.32
378.13	851.96
378.33	926.85
378.52	896.43
378.72	1006.43
378.91	905.79
379.11	954.94
379.31	1053.24
379.50	961.96
379.70	985.37
379.89	945.58
380.09	966.64
380.28	929.19
380.48	1095.37
380.68	985.37
380.87	924.51
381.07	1095.37
381.26	987.71
381.46	1053.24
381.65	1062.60
381.85	1064.94
382.04	1062.60
382.24	1008.77
382.43	990.05
382.63	1020.47
382.83	950.26
383.02	1153.88
383.22	1153.88
383.41	1132.82
383.61	1121.12
383.80	1165.59
384.00	1097.71
384.19	1151.54
384.39	1167.93
384.58	1207.72
384.78	1146.86
384.97	1104.73
385.17	1179.63
385.36	1198.35
385.56	1188.99
385.75	1139.84
385.95	1104.73
386.14	1205.38
386.34	1235.80
386.53	1174.95
386.72	1231.12
386.92	1170.27
387.11	1256.87
387.31	1259.21
387.50	1263.89
387.70	1280.27
387.89	1214.74
388.09	1294.32
388.28	1233.46
388.48	1299.00
388.67	1390.28
388.86	1299.00
389.06	1303.68
389.25	1324.74
389.45	1322.40
389.64	1327.08
389.84	1413.68
390.03	1486.24
390.22	1432.41
390.42	1460.49
390.61	1458.15
390.81	1310.70
391.00	1420.71
391.19	1411.34
391.39	1406.66
391.58	1549.43
391.78	1341.13
391.97	1469.86
392.16	1481.56
392.36	1619.65
392.55	1516.67
392.75	1537.73
392.94	1493.26
393.13	1483.90
393.33	1570.50
393.52	1664.12
393.71	1542.41
393.91	1633.69
394.10	1699.23
394.29	1591.56
394.49	1661.78
394.68	1617.31
394.88	1687.53
395.07	1568.16
395.26	1673.48
395.46	1739.02
395.65	1774.13
395.84	1788.17
396.04	1771.79
396.23	1671.14
396.42	1750.72
396.62	1732.00
396.81	1788.17
397.00	1905.20
397.19	1783.49
397.39	1874.77
397.58	1872.43
397.77	1844.34
397.97	1912.22
398.16	1874.77
398.35	1963.71
398.55	1839.66
398.74	1849.02
398.93	2010.52
399.12	1952.01
399.32	2015.20
399.51	1998.82
399.70	1959.03
399.90	1961.37
400.09	2108.82
400.28	2015.20
400.47	2050.31
400.67	2085.42
400.86	2045.63
401.05	2036.27
401.24	2043.29
401.44	2113.50
401.63	2139.25
401.82	2078.40
402.01	2120.53
402.21	2223.51
402.40	2155.63
402.59	2134.57
402.78	2134.57
402.97	2324.15
403.17	2270.32
403.36	2214.15
403.55	2298.41
403.74	2387.35
403.93	2335.85
404.13	2464.58
404.32	2265.64
404.51	2471.61
404.70	2518.42
404.89	2450.54
405.09	2457.56
405.28	2427.14
405.47	2555.86
405.66	2567.57
405.85	2677.57
406.05	2621.40
406.24	2530.12
406.43	2586.29
406.62	2562.89
406.81	2696.30
407.00	2689.28
407.20	2576.93
407.39	2612.04
407.58	2691.62
407.77	2810.98
407.96	2698.64
408.15	2780.56
408.34	2705.66
408.54	2787.58
408.73	2766.51
408.92	2892.90
409.11	2895.24
409.30	2913.97
409.49	2878.86
409.68	2902.26
409.87	2991.20
410.07	2981.84
410.26	3112.91
410.45	3000.57
410.64	3119.93
410.83	3101.21
411.02	3073.12
411.21	3185.47
411.40	3169.09
411.59	3314.20
411.78	3026.31
411.98	3187.81
412.17	3314.20
412.36	3185.47
412.55	3466.33
412.74	3574.00
412.93	3487.40
413.12	3426.54
413.31	3632.51
413.50	3517.83
413.69	3693.37
413.88	3688.68
414.07	3618.47
414.26	3616.13
414.45	3698.05
414.64	3625.49
414.83	3754.22
415.02	3726.13
415.22	3882.95
415.41	3934.44
415.60	3786.99
415.79	3967.21
415.98	3906.35
416.17	4117.00
416.36	3960.19
416.55	3974.23
416.74	4074.87
416.93	4086.58
417.12	4234.03
417.31	4259.78
417.50	4248.07
417.69	4280.84
417.88	4329.99
418.07	4325.31
418.26	4367.44
418.45	4329.99
418.64	4461.06
418.83	4444.68
419.02	4369.78
419.21	4498.51
419.39	4545.32
419.58	4652.98
419.77	4578.09
419.96	4589.79
420.15	4699.80
420.34	4510.21
420.53	4564.04
420.72	4655.33
420.91	4669.37
421.10	4688.09
421.29	4765.33
421.48	4739.58
421.67	4793.42
421.86	4798.10
422.05	4880.02
422.24	4861.29
422.43	4901.08
422.61	4840.23
422.80	4933.85
422.99	4940.87
423.18	5123.43
423.37	4903.42
423.56	4959.60
423.75	4905.76
423.94	4880.02
424.13	4676.39
424.32	4631.92
424.50	5006.41
424.69	5153.86
424.88	5078.96
425.07	4919.81
425.26	4873.00
425.45	5095.35
425.64	4957.25
425.83	5149.18
426.01	5135.14
426.20	5125.77
426.39	5074.28
426.58	5139.82
426.77	5071.94
426.96	5151.52
427.15	5207.69
427.33	5294.29
427.52	5210.03
427.71	5273.23
427.90	5198.33
428.09	5362.17
428.28	5535.37
428.46	5432.38
428.65	5476.85
428.84	5551.75
429.03	5696.86
429.22	5219.39
429.40	5678.14
429.59	5640.69
429.78	5425.36
429.97	5317.70
430.16	5753.04
430.34	5617.29
430.53	5799.85
430.72	5738.99
430.91	5832.62
431.10	5610.26
431.28	6001.13
431.47	5832.62
431.66	5937.94
431.85	5823.25
432.03	6054.97
432.22	5930.92
432.41	5970.71
432.60	5921.56
432.79	6078.37
432.97	5865.38
433.16	6122.84
433.35	6069.01
433.54	6270.30
433.72	6235.19
433.91	6232.85
434.10	6298.38
434.28	6174.33
434.47	6282.00
434.66	6319.45
434.85	6298.38
435.03	6375.62
435.22	6368.60
435.41	6562.86
435.59	6567.54
435.78	6562.86
435.97	6541.80
436.16	6326.47
436.34	6406.05
436.53	6740.74
436.72	6822.66
436.90	6443.49
437.09	6703.29
437.28	6604.99
437.46	6576.91
437.65	6679.89
437.84	6766.49
438.02	6726.70
438.21	6834.36
438.40	6899.90
438.58	7059.06
438.77	7159.70
438.96	7201.83
439.14	7192.47
439.33	7424.18
439.52	7178.42
439.70	7384.39
439.89	7307.15
440.08	7398.43
440.26	7534.18
440.45	7655.89
440.63	7529.50
440.82	7735.47
441.01	7662.91
441.19	7866.54
441.38	7882.92
441.57	7754.19
441.75	7941.44
441.94	8124.00
442.12	8067.83
442.31	7981.23
442.50	8126.34
442.68	8093.57
442.87	8023.36
443.05	8234.00
443.24	8369.76
443.43	8226.98
443.61	8102.93
443.80	8638.92
443.98	8107.62
444.17	7873.56
444.35	8194.22
444.54	8421.25
444.73	8425.93
444.91	8304.22
445.10	8547.64
445.28	8374.44
445.47	8435.29
445.65	8437.63
445.84	8400.18
446.02	8624.87
446.21	8500.83
446.39	8554.66
446.58	8638.92
446.77	8519.55
446.95	8505.51
447.14	8472.74
447.32	8634.24
447.51	8613.17
447.69	8580.40
447.88	8678.71
448.06	8538.27
448.25	8606.15
448.43	8727.86
448.62	8634.24
448.80	8470.40
448.99	8659.98
449.17	8779.35
449.36	8891.70
449.54	8809.78
449.73	9008.72
449.91	9331.72
450.10	8940.85
450.28	9224.05
450.46	8957.23
450.65	9334.06
450.83	9240.44
451.02	9034.47
451.20	9172.56
451.39	9191.28
451.57	9135.11
451.76	9296.61
451.94	9465.13
452.13	9352.78
452.31	9418.32
452.49	9413.63
452.68	9329.38
452.86	9586.83
453.05	9444.06
453.23	9823.23
453.42	9467.47
453.60	9579.81
453.78	9673.43
453.97	9486.19
454.15	9764.72
454.34	9610.24
454.52	9916.85
454.70	9694.50
454.89	9797.48
455.07	9764.72
455.26	10015.15
455.44	10148.56
455.62	9912.17
455.81	10094.73
455.99	10015.15
456.17	10204.74
456.36	9963.66
456.54	10380.28
456.73	10001.11
456.91	10897.53
457.09	10551.14
457.28	10499.64
457.46	10504.32
457.64	10609.65
457.83	10836.68
458.01	10431.77
458.19	10841.36
458.38	10780.51
458.56	10867.11
458.74	10822.64
458.93	10822.64
459.11	10705.61
459.29	10902.22
459.48	10906.90
459.66	10731.36
459.84	11192.44
460.03	11459.26
460.21	11143.29
460.39	11241.59
460.57	10993.50
460.76	11143.29
460.94	11370.32
461.12	11489.69
461.31	11356.28
461.49	11414.79
461.67	11428.84
461.85	11431.18
462.04	11674.59
462.22	11705.02
462.40	11740.13
462.59	11613.74
462.77	11616.08
462.95	11690.98
463.13	11833.75
463.32	11789.28
463.50	11648.85
463.68	11981.20
463.86	12030.35
464.05	11613.74
464.23	11866.52
464.41	12084.19
464.59	11875.88
464.78	12507.82
464.96	12390.80
465.14	12123.98
465.32	11976.52
465.50	12367.39
465.69	12374.41
465.87	12306.54
466.05	12109.93
466.23	12500.80
466.41	12362.71
466.60	12739.54
466.78	12313.56
466.96	12245.68
467.14	12512.50
467.32	12666.98
467.51	12645.91
467.69	12336.96
467.87	12748.90
468.05	12711.45
468.23	12652.94
468.41	12755.92
468.60	12568.68
468.78	12978.27
468.96	12744.22
469.14	13055.51
469.32	13195.94
469.50	12821.45
469.69	12903.37
469.87	13158.49
470.05	13413.61
470.23	13383.18
470.41	13261.48
470.59	13593.83
470.77	13591.49
470.95	13315.31
471.14	13654.69
471.32	13291.90
471.50	13642.98
471.68	13731.92
471.86	13848.95
472.04	13839.59
472.22	14267.91
472.40	13942.57
472.58	14209.39
472.77	14097.05
472.95	14202.37
473.13	14595.58
473.31	14235.14
473.49	14455.15
473.67	14422.38
473.85	14534.73
474.03	14899.85
474.21	14953.68
474.39	14778.14
474.57	14773.46
474.75	15124.54
474.93	15260.29
475.12	15054.33
475.30	15105.82
475.48	15257.95
475.66	15407.75
475.84	15463.92
476.02	15613.71
476.20	15611.37
476.38	15737.76
476.56	16065.44
476.74	16350.98
476.92	16304.17
477.10	16018.63
477.28	16601.42
477.46	16226.93
477.64	16730.15
477.82	16748.87
478.00	17043.78
478.18	16985.27
478.36	17142.08
478.54	17432.31
478.72	17373.80
478.90	17638.28
479.08	18115.75
479.26	17827.86
479.44	18040.85
479.62	17933.18
479.80	18342.78
479.98	18403.63
480.16	18649.39
480.34	18581.51
480.52	19016.85
480.70	18740.67
480.88	18672.79
481.06	19009.83
481.24	18972.38
481.41	19552.84
481.59	19393.68
481.77	19836.04
481.95	20027.96
482.13	20027.96
482.31	19894.55
482.49	20262.02
482.67	20348.62
482.85	20727.78
483.03	21048.44
483.21	20992.26
483.39	21242.70
483.57	21163.12
483.74	21408.88
483.92	21561.02
484.10	21287.17
484.28	22003.38
484.46	22326.37
484.64	22391.91
484.82	22064.23
485.00	22703.20
485.18	23040.23
485.35	23393.65
485.53	22733.62
485.71	23204.07
485.89	23648.77
486.07	23360.89
486.25	23805.59
486.43	23836.02
486.61	24159.01
486.78	24201.14
486.96	24482.00
487.14	24786.27
487.32	25067.14
487.50	25305.87
487.68	25032.03
487.85	25790.36
488.03	25694.40
488.21	26267.83
488.39	25876.96
488.57	26501.89
488.75	26607.21
488.92	26977.01
489.10	27021.48
489.28	26700.83
489.46	27608.96
489.64	27494.27
489.81	27957.70
489.99	27995.15
490.17	28187.07
490.35	28692.63
490.53	28217.50
490.70	28694.97
490.88	28442.19
491.06	29322.23
491.24	29039.03
491.41	29207.55
491.59	29530.54
491.77	29865.24
491.95	30099.29
492.13	30118.01
492.30	30298.23
492.48	30560.37
492.66	30611.87
492.84	30742.94
493.01	31082.31
493.19	30988.69
493.37	31138.49
493.54	31615.96
493.72	31821.92
493.90	31943.63
494.08	32240.88
494.25	32638.77
494.43	32418.76
494.61	32224.50
494.79	33020.28
494.96	33109.22
495.14	33205.18
495.32	33357.32
495.49	33453.28
495.67	33371.36
495.85	34092.24
496.02	34022.03
496.20	34616.52
496.38	34520.56
496.55	34534.60
496.73	35105.70
496.91	34932.50
497.09	35213.36
497.26	35119.74
497.44	35215.70
497.62	35559.76
497.79	36079.36
497.97	35744.66
498.14	36437.46
498.32	36510.02
498.50	36432.78
498.67	36727.69
498.85	37008.55
499.03	37017.91
499.20	37551.56
499.38	36926.63
499.56	37771.57
499.73	37722.41
499.91	38045.41
500.08	38167.12
500.26	37762.20
500.44	38431.60
500.61	38337.98
500.79	38066.47
500.97	38557.99
501.14	38787.36
501.32	38951.20
501.49	38855.23
501.67	39353.77
501.84	39763.36
502.02	39051.84
502.20	39639.31
502.37	39739.96
502.55	39683.78
502.72	39522.29
502.90	40172.96
503.07	40304.02
503.25	40343.81
503.43	40247.85
503.60	40533.40
503.78	40804.90
503.95	40514.67
504.13	41102.15
504.30	41060.02
504.48	40694.89
504.65	41375.99
504.83	41153.64
505.01	41996.23
505.18	41839.42
505.36	42300.50
505.53	41518.76
505.71	42101.56
505.88	42305.18
506.06	41984.53
506.23	42120.28
506.41	42117.94
506.58	42380.08
506.76	42677.33
506.93	42995.64
507.11	42773.29
507.28	43201.61
507.46	43409.92
507.63	43611.20
507.81	43578.43
507.98	43449.70
508.16	43838.23
508.33	44020.80
508.50	43988.03
508.68	44060.58
508.85	44325.07
509.03	44498.26
509.20	44320.38
509.38	44837.64
509.55	44699.55
509.73	45265.96
509.90	45078.72
510.08	44722.96
510.25	45109.14
510.42	44898.50
510.60	45755.13
510.77	45947.06
510.95	45813.65
511.12	45581.93
511.30	45975.14
511.47	45991.53
511.64	46099.19
511.82	46330.90
511.99	45837.05
512.17	46314.52
512.34	46281.75
512.51	46782.63
512.69	46981.57
512.86	46770.93
513.04	47299.89
513.21	47180.52
513.38	47372.44
513.56	47484.79
513.73	47566.71
513.90	47772.67
514.08	47292.86
514.25	47831.19
514.43	48236.10
514.60	47887.36
514.77	47852.25
514.95	48149.50
515.12	47920.13
515.29	48371.85
515.47	48411.64
515.64	48907.83
515.81	48165.88
515.99	48762.72
516.16	48949.96
516.33	48753.36
516.51	48942.94
516.68	49085.72
516.85	48800.17
517.03	49427.43
517.20	49453.18
517.37	49401.69
517.54	49689.57
517.72	49617.02
517.89	49581.91
518.06	49638.08
518.24	49750.43
518.41	49701.28
518.58	50075.76
518.75	49694.25
518.93	49979.80
519.10	49897.88
519.27	50192.79
519.45	50316.84
519.62	50525.14
519.79	50279.39
519.96	50452.59
520.14	50735.79
520.31	50660.90
520.48	50845.80
520.65	50822.39
520.83	51051.76
521.00	50962.82
521.17	51234.33
521.34	50768.56
521.52	51318.59
521.69	51126.66
521.86	51384.12
522.03	51899.04
522.20	52034.79
522.38	51817.12
522.55	51615.83
522.72	51863.93
522.89	51484.76
523.07	52009.04
523.24	52002.02
523.41	52315.65
523.58	51903.72
523.75	52385.87
523.92	52580.13
524.10	52371.83
524.27	52500.56
524.44	52538.01
524.61	52519.28
524.78	52484.17
524.96	52708.86
525.13	52594.18
525.30	52825.89
525.47	52879.72
525.64	52917.17
525.81	52870.36
525.98	53020.16
526.16	53111.44
526.33	53279.96
526.50	53263.57
526.67	53160.59
526.84	53345.49
527.01	53331.45
527.18	53160.59
527.36	53478.90
527.53	53717.64
527.70	53544.44
527.87	53951.69
528.04	53654.44
528.21	53380.60
528.38	53616.99
528.55	54195.10
528.72	53738.70
528.89	53886.15
529.07	53846.36
529.24	53736.36
529.41	53829.98
529.58	53932.96
529.75	54096.80
529.92	54028.93
530.09	54279.36
530.26	54309.79
530.43	54389.37
530.60	54202.13
530.77	54244.26
530.94	54394.05
531.11	54272.34
531.28	54508.74
531.46	54511.08
531.63	54607.04
531.80	54555.55
531.97	54733.43
532.14	54749.81
532.31	55063.44
532.48	54864.50
532.65	54876.20
532.82	54564.91
532.99	55000.25
533.16	54890.24
533.33	55210.90
533.50	55447.29
533.67	55356.01
533.84	54871.52
534.01	55173.45
534.18	55262.39
534.35	55543.25
534.52	55519.85
534.69	55480.06
534.86	55686.03
535.03	55461.33
535.20	55821.78
535.37	55709.43
535.54	55828.80
535.71	55351.33
535.88	56027.74
536.05	56002.00
536.22	55620.49
536.38	55615.81
536.55	56067.53
536.72	55962.21
536.89	55889.65
537.06	56140.09
537.23	56191.58
537.40	55964.55
537.57	55941.14
537.74	56219.67
537.91	56093.28
538.08	56259.46
538.25	56128.39
538.42	56364.78
538.59	56516.92
538.75	56257.12
538.92	56266.48
539.09	56498.19
539.26	56479.47
539.43	56519.26
539.60	56659.69
539.77	56467.76
539.94	56882.04
540.11	56566.07
540.28	56713.52
540.44	56678.41
540.61	56629.26
540.78	56685.43
540.95	56750.97
541.12	56568.41
541.29	56736.93
541.46	56872.68
541.62	56942.89
541.79	57066.94
541.96	56612.88
542.13	56872.68
542.30	56713.52
542.47	57148.86
542.63	57141.84
542.80	57228.44
542.97	57329.08
543.14	57474.20
543.31	57368.87
543.48	57542.07
543.64	57794.85
543.81	57804.21
543.98	57666.12
544.15	57719.95
544.32	57832.30
544.48	57813.57
544.65	57722.29
544.82	57654.42
544.99	57469.51
545.16	57773.78
545.32	57724.63
545.49	58152.95
545.66	57996.13
545.83	57991.45
546.00	57949.32
546.16	57942.30
546.33	57930.60
546.50	57916.56
546.67	58010.18
546.83	57710.59
547.00	58056.99
547.17	58042.95
547.34	58082.73
547.50	58237.21
547.67	58162.31
547.84	58220.83
548.00	58438.50
548.17	58398.71
548.34	58230.19
548.51	58466.58
548.67	58382.32
548.84	58354.24
549.01	58539.14
549.18	58382.32
549.34	58529.78
549.51	58450.20
549.68	58794.26
549.84	58658.51
550.01	58564.88
550.18	58574.25
550.34	58710.00
550.51	58878.52
550.68	58901.92
550.84	58728.72
551.01	58672.55
551.18	58845.75
551.34	58782.55
551.51	59007.25
551.68	58869.15
551.84	58962.78
552.01	58735.74
552.18	59030.65
552.34	58628.08
552.51	59025.97
552.68	58777.87
552.84	59082.14
553.01	58983.84
553.18	59166.40
553.34	59110.23
553.51	59131.29
553.67	59056.40
553.84	59178.10
554.01	59288.11
554.17	59171.08
554.34	59110.23
554.51	59262.36
554.67	59344.28
554.84	59360.67
555.00	59423.86
555.17	59154.70
555.33	59339.60
555.50	59194.49
555.67	59201.51
555.83	59526.84
556.00	59428.54
556.16	59676.64
556.33	59791.33
556.50	59465.99
556.66	59657.91
556.83	59480.03
556.99	59683.66
557.16	59604.08
557.32	59852.18
557.49	59835.80
557.65	59498.76
557.82	59749.20
557.98	59667.28
558.15	59819.41
558.32	59840.48
558.48	59730.47
558.65	59737.49
558.81	59985.59
558.98	59917.71
559.14	59924.74
559.31	60107.30
559.47	60076.87
559.64	59859.20
559.80	59985.59
559.97	59999.63
560.13	59868.56
560.30	60156.45
560.46	59877.93
560.63	60079.21
560.79	60140.07
560.96	60233.69
561.12	60161.13
561.29	60058.15
561.45	60205.60
561.61	60069.85
561.78	60205.60
561.94	60074.53
562.11	60001.97
562.27	60287.52
562.44	60186.88
562.60	60287.52
562.77	60170.49
562.93	59952.82
563.10	60163.47
563.26	60175.17
563.42	60563.70
563.59	60172.83
563.75	60294.54
563.92	60114.32
564.08	60069.85
564.24	60589.45
564.41	60439.65
564.57	60259.43
564.74	60224.32
564.90	60654.98
565.07	60587.11
565.23	60467.74
565.39	60404.55
565.56	60533.28
565.72	60523.91
565.88	60357.74
566.05	60402.21
566.21	60376.46
566.38	60615.19
566.54	60526.25
566.70	60573.06
566.87	60580.09
567.03	60470.08
567.19	60800.10
567.36	60650.30
567.52	60521.57
567.68	60828.18
567.85	60537.96
568.01	60481.78
568.17	60690.09
568.34	60566.04
568.50	60493.49
568.66	60411.57
568.83	60598.81
568.99	60624.56
569.15	60509.87
569.32	60853.93
569.48	60552.00
569.64	60767.33
569.81	60739.24
569.97	60669.03
570.13	60856.27
570.30	60582.43
570.46	60645.62
570.62	60542.64
570.78	60823.50
570.95	60844.57
571.11	60980.32
571.27	61036.49
571.43	60687.75
571.60	61137.13
571.76	60900.74
571.92	61006.06
572.09	61015.43
572.25	60900.74
572.41	60963.93
572.57	60926.49
572.74	61055.21
572.90	61006.06
573.06	60959.25
573.22	60921.80
573.38	60994.36
573.55	60977.98
573.71	61118.41
573.87	61015.43
574.03	60788.39
574.20	61118.41
574.36	61029.47
574.52	61066.92
574.68	60959.25
574.84	61031.81
575.01	60872.65
575.17	60982.66
575.33	60900.74
575.49	60863.29
575.65	61024.79
575.82	60996.70
575.98	61099.68
576.14	61125.43
576.30	61120.75
576.46	61062.24
576.62	61354.80
576.79	61073.94
576.95	60945.21
577.11	60954.57
577.27	61322.04
577.43	61237.78
577.59	60774.35
577.75	60945.21
577.92	61024.79
578.08	61144.16
578.24	61179.26
578.40	61228.41
578.56	61202.67
578.72	61319.70
578.88	61387.57
579.04	61387.57
579.21	61310.33
579.37	61242.46
579.53	61422.68
579.69	61055.21
579.85	61116.07
580.01	61048.19
580.17	60912.44
580.33	61057.56
580.49	61223.73
580.65	61130.11
580.82	60987.34
580.98	60963.93
581.14	61106.71
581.30	61207.35
581.46	60989.68
581.62	61197.99
581.78	60996.70
581.94	61303.31
582.10	61172.24
582.26	61106.71
582.42	61080.96
582.58	61226.07
582.74	61249.48
582.90	61254.16
583.06	61343.10
583.22	61242.46
583.38	61165.22
583.54	61134.79
583.70	61193.31
583.86	61368.85
584.02	61279.91
584.18	61277.57
584.34	61331.40
584.50	61076.28
584.66	61113.73
584.82	60853.93
584.98	61354.80
585.14	61326.72
585.30	61193.31
585.46	61396.93
585.62	61277.57
585.78	61408.64
585.94	61059.90
586.10	61254.16
586.26	61303.31
586.42	61293.95
586.58	61361.82
586.74	61305.65
586.90	61275.22
587.06	61148.84
587.22	61546.73
587.38	61453.11
587.54	61357.14
587.70	61443.74
587.86	61279.91
588.02	61350.12
588.18	61504.60
588.34	61109.05
588.49	61291.61
