SpectraSuite Data File
++++++++++++++++++++++++++++++++++++
Date: Fri Oct 25 11:23:26 EDT 2013
User: price-jones
Dark Spectrum Present: No
Reference Spectrum Present: No
Number of Sampled Component Spectra: 1
Spectrometers: USB2+H05261
Integration Time (usec): 100000 (USB2+H05261)
Spectra Averaged: 1 (USB2+H05261)
Boxcar Smoothing: 0 (USB2+H05261)
Correct for Electrical Dark: No (USB2+H05261)
Strobe/Lamp Enabled: No (USB2+H05261)
Correct for Detector Non-linearity: No (USB2+H05261)
Correct for Stray Light: No (USB2+H05261)
Number of Pixels in Processed Spectrum: 2048
>>>>>Begin Processed Spectral Data<<<<<
365.73	248.10
365.92	248.10
366.12	248.10
366.32	128.73
366.52	149.79
366.72	147.45
366.91	70.22
367.11	203.63
367.31	70.22
367.51	91.28
367.70	81.92
367.90	184.90
368.10	121.71
368.30	154.48
368.49	91.28
368.69	156.82
368.89	194.26
369.09	163.84
369.28	168.52
369.48	98.30
369.68	166.18
369.87	133.41
370.07	126.39
370.27	241.08
370.47	409.59
370.66	561.73
370.86	683.44
371.06	575.77
371.25	648.33
371.45	592.16
371.65	681.10
371.84	711.52
372.04	681.10
372.24	802.80
372.44	709.18
372.63	709.18
372.83	774.72
373.03	777.06
373.22	720.88
373.42	779.40
373.62	732.59
373.81	826.21
374.01	741.95
374.21	828.55
374.40	706.84
374.60	870.68
374.79	734.93
374.99	791.10
375.19	889.40
375.38	788.76
375.58	819.19
375.78	882.38
375.97	800.46
376.17	856.64
376.37	833.23
376.56	847.27
376.76	847.27
376.95	837.91
377.15	877.70
377.35	919.83
377.54	889.40
377.74	854.30
377.93	1004.09
378.13	875.36
378.33	933.87
378.52	919.83
378.72	959.62
378.91	908.13
379.11	926.85
379.31	999.41
379.50	959.62
379.70	966.64
379.89	1013.45
380.09	922.17
380.28	945.58
380.48	1015.79
380.68	924.51
380.87	1006.43
381.07	973.66
381.26	1036.86
381.46	990.05
381.65	1160.91
381.85	1083.67
382.04	1121.12
382.24	1025.15
382.43	1053.24
382.63	1034.52
382.83	1050.90
383.02	1055.58
383.22	1064.94
383.41	1130.48
383.61	1088.35
383.80	1132.82
384.00	1132.82
384.19	1074.31
384.39	1123.46
384.58	1095.37
384.78	1212.40
384.97	1102.39
385.17	1043.88
385.36	1107.07
385.56	1170.27
385.75	1181.97
385.95	1114.10
386.14	1172.61
386.34	1226.44
386.53	1107.07
386.72	1158.57
386.92	1289.64
387.11	1238.14
387.31	1207.72
387.50	1259.21
387.70	1210.06
387.89	1315.38
388.09	1287.29
388.28	1329.42
388.48	1200.69
388.67	1327.08
388.86	1350.49
389.06	1350.49
389.25	1331.76
389.45	1296.66
389.64	1359.85
389.84	1411.34
390.03	1345.81
390.22	1399.64
390.42	1399.64
390.61	1315.38
390.81	1359.85
391.00	1441.77
391.19	1362.19
391.39	1366.87
391.58	1516.67
391.78	1481.56
391.97	1577.52
392.16	1467.52
392.36	1526.03
392.55	1530.71
392.75	1432.41
392.94	1458.15
393.13	1483.90
393.33	1413.68
393.52	1636.03
393.71	1596.25
393.91	1591.56
394.10	1516.67
394.29	1586.88
394.49	1591.56
394.68	1605.61
394.88	1687.53
395.07	1671.14
395.26	1743.70
395.46	1816.26
395.65	1661.78
395.84	1753.06
396.04	1778.81
396.23	1769.44
396.42	1743.70
396.62	1760.08
396.81	1877.11
397.00	1863.07
397.19	1783.49
397.39	1722.63
397.58	1884.13
397.77	1809.23
397.97	1788.17
398.16	1788.17
398.35	1795.19
398.55	1877.11
398.74	1832.64
398.93	1870.09
399.12	1916.90
399.32	1916.90
399.51	1963.71
399.70	1977.75
399.90	1919.24
400.09	2026.90
400.28	2097.12
400.47	2026.90
400.67	2134.57
400.86	2005.84
401.05	2069.03
401.24	2076.06
401.44	2076.06
401.63	2134.57
401.82	2195.42
402.01	2148.61
402.21	2183.72
402.40	2197.76
402.59	2207.13
402.78	2239.89
402.97	2380.32
403.17	2394.37
403.36	2293.72
403.55	2363.94
403.74	2370.96
403.93	2310.11
404.13	2298.41
404.32	2333.51
404.51	2321.81
404.70	2462.24
404.89	2427.14
405.09	2544.16
405.28	2569.91
405.47	2520.76
405.66	2476.29
405.85	2670.55
406.05	2399.05
406.24	2574.59
406.43	2452.88
406.62	2642.46
406.81	2691.62
407.00	2623.74
407.20	2548.84
407.39	2574.59
407.58	2754.81
407.77	2654.17
407.96	2832.05
408.15	2825.03
408.34	2813.32
408.54	2722.04
408.73	2785.24
408.92	2876.52
409.11	2892.90
409.30	2904.60
409.49	2920.99
409.68	2963.12
409.87	2946.73
410.07	2935.03
410.26	3052.06
410.45	2965.46
410.64	2946.73
410.83	3016.95
411.02	3059.08
411.21	3229.94
411.40	3276.75
411.59	3234.62
411.78	3236.96
411.98	3218.24
412.17	3262.71
412.36	3274.41
412.55	3456.97
412.74	3506.12
412.93	3517.83
413.12	3410.16
413.31	3669.96
413.50	3555.27
413.69	3468.67
413.88	3552.93
414.07	3574.00
414.26	3618.47
414.45	3723.79
414.64	3737.84
414.83	3679.32
415.02	3817.41
415.22	3918.06
415.41	3927.42
415.60	3843.16
415.79	3838.48
415.98	3957.85
416.17	3936.78
416.36	4053.81
416.55	3990.61
416.74	4098.28
416.93	4135.73
417.12	4182.54
417.31	4290.20
417.50	4269.14
417.69	4432.97
417.88	4395.53
418.07	4351.06
418.26	4374.46
418.45	4367.44
418.64	4472.76
418.83	4465.74
419.02	4468.08
419.21	4440.00
419.39	4535.96
419.58	4304.25
419.77	4395.53
419.96	4550.00
420.15	4681.07
420.34	4702.14
420.53	4592.13
420.72	4720.86
420.91	4667.03
421.10	4720.86
421.29	4807.46
421.48	4652.98
421.67	4975.98
421.86	4774.69
422.05	4828.53
422.24	4826.18
422.43	4779.37
422.61	5018.11
422.80	4943.21
422.99	4926.83
423.18	4901.08
423.37	4968.96
423.56	5043.85
423.75	4880.02
423.94	4819.16
424.13	4594.47
424.32	4816.82
424.50	4968.96
424.69	5149.18
424.88	5191.31
425.07	5043.85
425.26	4922.15
425.45	5034.49
425.64	4896.40
425.83	4992.36
426.01	5137.48
426.20	5078.96
426.39	5114.07
426.58	4987.68
426.77	5198.33
426.96	5158.54
427.15	5165.56
427.33	5327.06
427.52	5210.03
427.71	5345.78
427.90	5217.05
428.09	5465.15
428.28	5341.10
428.46	5345.78
428.65	5394.93
428.84	5556.43
429.03	5404.30
429.22	5282.59
429.40	5427.70
429.59	5460.47
429.78	5308.34
429.97	5397.28
430.16	5533.03
430.34	5408.98
430.53	5851.34
430.72	5565.79
430.91	5645.37
431.10	5666.44
431.28	5722.61
431.47	5647.71
431.66	5867.72
431.85	5731.97
432.03	5879.43
432.22	6101.78
432.41	6090.07
432.60	5877.09
432.79	6012.84
432.97	5977.73
433.16	5921.56
433.35	5996.45
433.54	6155.61
433.72	6087.73
433.91	6148.59
434.10	6122.84
434.28	6059.65
434.47	6293.70
434.66	6335.83
434.85	6324.13
435.03	6455.20
435.22	6354.55
435.41	6427.11
435.59	6436.47
435.78	6466.90
435.97	6384.98
436.16	6387.32
436.34	6487.96
436.53	6441.15
436.72	6565.20
436.90	6476.26
437.09	6703.29
437.28	6642.44
437.46	6586.27
437.65	6810.96
437.84	6757.13
438.02	6726.70
438.21	6848.41
438.40	6796.92
438.58	6820.32
438.77	6920.96
438.96	6902.24
439.14	7187.79
439.33	7000.54
439.52	7030.97
439.70	7335.24
439.89	7124.59
440.08	7400.77
440.26	7440.56
440.45	7117.57
440.63	7559.93
440.82	7674.62
441.01	7588.02
441.19	7627.81
441.38	7611.42
441.57	7922.71
441.75	7845.48
441.94	7915.69
442.12	7950.80
442.31	8088.89
442.50	8252.73
442.68	8077.19
442.87	8067.83
443.05	8107.62
443.24	8400.18
443.43	8042.08
443.61	8348.69
443.80	8519.55
443.98	8037.40
444.17	7852.50
444.35	8299.54
444.54	8561.68
444.73	8416.57
444.91	8294.86
445.10	8301.88
445.28	8446.99
445.47	8418.91
445.65	8262.09
445.84	8638.92
446.02	8496.14
446.21	8395.50
446.39	8428.27
446.58	8592.11
446.77	8477.42
446.95	8418.91
447.14	8456.36
447.32	8587.43
447.51	8594.45
447.69	8404.86
447.88	8638.92
448.06	8624.87
448.25	8730.20
448.43	8514.87
448.62	8636.58
448.80	8617.85
448.99	8938.51
449.17	8652.96
449.36	8875.31
449.54	8943.19
449.73	9036.81
449.91	9184.26
450.10	8997.02
450.28	9109.36
450.46	9146.81
450.65	9107.02
450.83	8994.68
451.02	8896.38
451.20	9324.69
451.39	9116.39
451.57	9205.33
451.76	9177.24
451.94	9146.81
452.13	9408.95
452.31	9224.05
452.49	9188.94
452.68	9423.00
452.86	9469.81
453.05	9467.47
453.23	9392.57
453.42	9259.16
453.60	9371.50
453.78	9811.53
453.97	9437.04
454.15	9582.15
454.34	9748.33
454.52	9701.52
454.70	9928.55
454.89	9671.09
455.07	9785.78
455.26	9958.98
455.44	10125.16
455.62	9998.77
455.81	10232.82
455.99	10085.37
456.17	9984.73
456.36	10202.40
456.54	10338.15
456.73	10349.85
456.91	10513.69
457.09	10441.13
457.28	10525.39
457.46	10204.74
457.64	10504.32
457.83	10429.43
458.01	10619.01
458.19	10913.92
458.38	10518.37
458.56	10932.64
458.74	10721.99
458.93	10642.42
459.11	10916.26
459.29	10593.26
459.48	10832.00
459.66	10743.06
459.84	11052.01
460.03	11044.99
460.21	11215.85
460.39	10927.96
460.57	11075.42
460.76	11101.16
460.94	11091.80
461.12	11293.08
461.31	11321.17
461.49	11098.82
461.67	11332.87
461.85	11552.88
462.04	11367.98
462.22	11646.51
462.40	11613.74
462.59	11545.86
462.77	11447.56
462.95	11845.45
463.13	11805.66
463.32	11569.27
463.50	11929.71
463.68	12070.14
463.86	11878.22
464.05	11499.05
464.23	11531.82
464.41	11885.24
464.59	11735.45
464.78	11957.80
464.96	11950.78
465.14	11866.52
465.32	12060.78
465.50	12161.42
465.69	12107.59
465.87	12346.33
466.05	12121.63
466.23	12149.72
466.41	12262.07
466.60	12760.60
466.78	12325.26
466.96	12105.25
467.14	12390.80
467.32	12631.87
467.51	12542.93
467.69	12081.85
467.87	12554.63
468.05	12458.67
468.23	12353.35
468.41	12526.55
468.60	12971.25
468.78	12828.48
468.96	12571.02
469.14	13121.04
469.32	12966.57
469.50	12666.98
469.69	12959.55
469.87	13111.68
470.05	13057.85
470.23	13507.23
470.41	13235.73
470.59	13408.93
470.77	13315.31
470.95	13324.67
471.14	13558.72
471.32	13107.00
471.50	13624.26
471.68	13680.43
471.86	13755.33
472.04	13570.43
472.22	13982.36
472.40	13612.56
472.58	13870.01
472.77	14181.31
472.95	14326.42
473.13	14602.60
473.31	14122.79
473.49	14398.98
473.67	14211.73
473.85	14420.04
474.03	14663.46
474.21	14656.43
474.39	14501.96
474.57	14796.87
474.75	14984.11
474.93	15138.58
475.12	14888.15
475.30	15337.53
475.48	15063.69
475.66	15342.21
475.84	15154.97
476.02	15272.00
476.20	15377.32
476.38	15531.80
476.56	16205.87
476.74	15887.56
476.92	15988.20
477.10	15934.37
477.28	16152.04
477.46	16336.94
477.64	16570.99
477.82	16730.15
478.00	17132.72
478.18	16535.88
478.36	16737.17
478.54	17226.34
478.72	17163.15
478.90	17561.04
479.08	17603.17
479.26	17771.69
479.44	17757.64
479.62	17832.54
479.80	18183.62
479.98	18244.48
480.16	18956.00
480.34	18373.21
480.52	18682.16
480.70	18890.46
480.88	18513.64
481.06	18895.14
481.24	18562.79
481.41	19122.18
481.59	19594.96
481.77	19627.73
481.95	19740.08
482.13	19941.36
482.31	19854.76
482.49	19868.81
482.67	20397.77
482.85	20460.96
483.03	20493.73
483.21	20919.71
483.39	20837.79
483.57	20870.56
483.74	21022.69
483.92	21638.25
484.10	21420.58
484.28	21893.37
484.46	22307.65
484.64	22312.33
484.82	22001.04
485.00	22319.35
485.18	23075.34
485.35	23175.98
485.53	23056.62
485.71	23222.80
485.89	23892.19
486.07	23264.92
486.25	23536.43
486.43	23527.06
486.61	24238.59
486.78	24250.29
486.96	24259.65
487.14	24910.32
487.32	24390.72
487.50	25034.37
487.68	25151.40
487.85	25476.73
488.03	25708.44
488.21	25816.11
488.39	26469.12
488.57	26375.50
488.75	26682.11
488.92	26546.36
489.10	26937.23
489.28	26962.97
489.46	27154.90
489.64	27229.79
489.81	27292.99
489.99	27903.87
490.17	27929.61
490.35	27896.85
490.53	28428.15
490.70	28615.39
490.88	28318.14
491.06	28933.70
491.24	28922.00
491.41	29041.37
491.59	29390.11
491.77	29556.28
491.95	29673.31
492.13	29851.19
492.30	30040.78
492.48	29933.11
492.66	30335.68
492.84	30511.22
493.01	31124.44
493.19	31019.12
493.37	31089.34
493.54	31409.99
493.72	31978.74
493.90	31791.50
494.08	31747.03
494.25	31819.58
494.43	32198.75
494.61	32940.70
494.79	32716.01
494.96	32606.00
495.14	33158.37
495.32	33567.96
495.49	33256.67
495.67	33479.02
495.85	33853.51
496.02	33902.66
496.20	34181.18
496.38	34066.50
496.55	34199.91
496.73	35007.39
496.91	34560.35
497.09	35007.39
497.26	35377.20
497.44	35470.82
497.62	35292.94
497.79	35756.36
497.97	35711.89
498.14	36072.34
498.32	36442.14
498.50	36306.39
498.67	37055.36
498.85	36872.80
499.03	36701.94
499.20	37165.37
499.38	37221.54
499.56	36931.31
499.73	37677.94
499.91	37509.43
500.08	38024.34
500.26	37874.55
500.44	38178.82
500.61	38047.75
500.79	38089.88
500.97	38169.46
501.14	38703.10
501.32	38394.15
501.49	38328.61
501.67	38443.30
501.84	39611.23
502.02	39084.61
502.20	39328.02
502.37	39379.51
502.55	39543.35
502.72	39707.19
502.90	39756.34
503.07	39856.98
503.25	40297.00
503.43	40208.06
503.60	40346.15
503.78	40187.00
503.95	40807.24
504.13	40753.41
504.30	41062.36
504.48	40851.71
504.65	40746.39
504.83	41127.89
505.01	41474.29
505.18	41537.49
505.36	42043.04
505.53	41476.63
505.71	42092.19
505.88	41752.82
506.06	41677.92
506.23	42131.98
506.41	41942.40
506.58	42426.89
506.76	42621.16
506.93	42831.80
507.11	42677.33
507.28	42740.52
507.46	43302.25
507.63	43391.19
507.81	43416.94
507.98	43051.81
508.16	43016.71
508.33	43641.63
508.50	43538.65
508.68	43840.57
508.85	44383.58
509.03	43573.75
509.20	44098.03
509.38	44467.84
509.55	44531.03
509.73	44727.64
509.90	44561.46
510.08	44612.95
510.25	44793.17
510.42	45081.06
510.60	45427.46
510.77	45478.95
510.95	45940.04
511.12	45317.45
511.30	45572.57
511.47	45610.02
511.64	45783.22
511.82	46110.89
511.99	45722.37
512.17	46099.19
512.34	45741.09
512.51	46571.98
512.69	46670.28
512.86	46401.12
513.04	46571.98
513.21	46871.57
513.38	47112.64
513.56	47089.24
513.73	47131.37
513.90	47344.36
514.08	47423.93
514.25	47672.03
514.43	47765.65
514.60	47875.66
514.77	47587.77
514.95	47854.59
515.12	47990.34
515.29	48065.24
515.47	48062.90
515.64	48142.48
515.81	47973.96
515.99	48184.61
516.16	48736.98
516.33	48528.67
516.51	49071.67
516.68	48615.27
516.85	48823.58
517.03	49261.26
517.20	49074.01
517.37	49172.31
517.54	48821.23
517.72	49095.08
517.89	49366.58
518.06	49448.50
518.24	49336.15
518.41	49209.76
518.58	49467.22
518.75	49584.25
518.93	49673.19
519.10	49628.72
519.27	49958.73
519.45	49860.43
519.62	50272.37
519.79	49986.82
519.96	50211.51
520.14	50375.35
520.31	50206.83
520.48	50691.32
520.65	50897.29
520.83	51164.11
521.00	50693.66
521.17	50775.58
521.34	50948.78
521.52	50883.25
521.69	51037.72
521.86	51278.80
522.03	51437.95
522.20	51515.19
522.38	51590.09
522.55	51524.55
522.72	51681.37
522.89	51480.08
523.07	51826.48
523.24	51952.87
523.41	51840.53
523.58	51826.48
523.75	52032.45
523.92	52140.11
524.10	52317.99
524.27	52210.33
524.44	52151.82
524.61	52240.76
524.78	52418.64
524.96	52161.18
525.13	52713.55
525.30	52758.02
525.47	52720.57
525.64	52488.85
525.81	52856.32
525.98	53097.39
526.16	52720.57
526.33	52842.27
526.50	53113.78
526.67	52893.77
526.84	52875.04
527.01	52779.08
527.18	52879.72
527.36	53001.43
527.53	53268.25
527.70	53361.87
527.87	53364.21
528.04	53303.36
528.21	53523.37
528.38	53394.64
528.55	53750.40
528.72	53331.45
528.89	53719.98
529.07	53528.05
529.24	53588.91
529.41	53968.07
529.58	53584.22
529.75	53832.32
529.92	54075.74
530.09	53979.78
530.26	54293.41
530.43	54330.86
530.60	54141.27
530.77	53874.45
530.94	54454.90
531.11	54110.85
531.28	54281.70
531.46	54419.80
531.63	54368.30
531.80	54309.79
531.97	54674.91
532.14	54370.64
532.31	54738.11
532.48	54855.14
532.65	54885.56
532.82	54831.73
532.99	54859.82
533.16	54471.29
533.33	54787.26
533.50	55105.57
533.67	54990.89
533.84	54911.31
534.01	54822.37
534.18	55016.63
534.35	55538.57
534.52	55229.62
534.69	55470.70
534.86	55660.28
535.03	55416.86
535.20	55433.25
535.37	55260.05
535.54	55721.13
535.71	55341.97
535.88	55765.60
536.05	55470.70
536.22	55828.80
536.38	55739.86
536.55	55641.56
536.72	55777.31
536.89	55561.98
537.06	55765.60
537.23	55812.41
537.40	55831.14
537.57	55899.01
537.74	55840.50
537.91	56226.69
538.08	56165.84
538.25	55765.60
538.42	56051.15
538.59	56158.81
538.75	55880.29
538.92	56149.45
539.09	56273.50
539.26	56252.44
539.43	56278.18
539.60	56399.89
539.77	56633.94
539.94	56514.58
540.11	56685.43
540.28	56804.80
540.44	56542.66
540.61	56451.38
540.78	56573.09
540.95	56575.43
541.12	56631.60
541.29	56261.80
541.46	56685.43
541.62	56769.69
541.79	56816.50
541.96	56530.96
542.13	56566.07
542.30	56692.46
542.47	56980.34
542.63	57057.58
542.80	56989.70
542.97	57380.57
543.14	57174.61
543.31	57394.62
543.48	57542.07
543.64	57602.92
543.81	57556.11
543.98	57546.75
544.15	57471.85
544.32	57453.13
544.48	57673.14
544.65	57549.09
544.82	57640.37
544.99	57212.06
545.16	57572.50
545.32	57628.67
545.49	57612.29
545.66	57888.47
545.83	57762.08
546.00	58014.86
546.16	57776.12
546.33	57820.59
546.50	57701.23
546.67	57923.58
546.83	57523.35
547.00	57853.36
547.17	57858.04
547.34	58096.78
547.50	58031.24
547.67	58078.05
547.84	58078.05
548.00	58335.51
548.17	58199.76
548.34	58122.52
548.51	58429.13
548.67	58223.17
548.84	58384.66
549.01	58122.52
549.18	58253.59
549.34	58267.64
549.51	58188.06
549.68	58543.82
549.84	58459.56
550.01	58578.93
550.18	58433.81
550.34	58548.50
550.51	58555.52
550.68	58688.93
550.84	58468.92
551.01	58618.72
551.18	58702.98
551.34	58728.72
551.51	58850.43
551.68	58625.74
551.84	58630.42
552.01	58707.66
552.18	58841.07
552.34	58642.12
552.51	58946.39
552.68	58679.57
552.84	58660.85
553.01	59042.35
553.18	58988.52
553.34	58908.94
553.51	59044.69
553.67	59054.06
553.84	59121.93
554.01	59182.79
554.17	59346.62
554.34	59105.55
554.51	59201.51
554.67	59311.52
554.84	59063.42
555.00	59114.91
555.17	59187.47
555.33	59119.59
555.50	59119.59
555.67	59011.93
555.83	59058.74
556.00	59316.20
556.16	59711.75
556.33	59585.36
556.50	59386.41
556.66	59583.02
556.83	59435.56
556.99	59393.43
557.16	59674.30
557.32	59559.61
557.49	59877.93
557.65	59444.93
557.82	59552.59
557.98	59578.34
558.15	59433.22
558.32	59653.23
558.48	59503.44
558.65	59601.74
558.81	59648.55
558.98	59805.37
559.14	59611.10
559.31	59840.48
559.47	59737.49
559.64	59831.11
559.80	59852.18
559.97	60051.12
560.13	59763.24
560.30	59704.73
560.46	59742.17
560.63	60039.42
560.79	59994.95
560.96	60114.32
561.12	60072.19
561.29	59931.76
561.45	59901.33
561.61	60023.04
561.78	59866.22
561.94	59934.10
562.11	59938.78
562.27	60079.21
562.44	60135.38
562.60	60353.05
562.77	59966.87
562.93	59817.07
563.10	60271.14
563.26	59859.20
563.42	60271.14
563.59	60182.19
563.75	60074.53
563.92	60266.45
564.08	60088.57
564.24	60292.20
564.41	60289.86
564.57	60317.95
564.74	60339.01
564.90	60348.37
565.07	60346.03
565.23	60111.98
565.39	60149.43
565.56	60086.23
565.72	60191.56
565.88	60308.58
566.05	60065.17
566.21	60549.66
566.38	60331.99
566.54	60477.10
566.70	60353.05
566.87	60500.51
567.03	60285.18
567.19	60573.06
567.36	60327.31
567.52	60453.70
567.68	60479.44
567.85	60598.81
568.01	60559.02
568.17	60456.04
568.34	60596.47
568.50	60456.04
568.66	60463.06
568.83	60254.75
568.99	60315.61
569.15	60390.50
569.32	60484.12
569.48	60666.69
569.64	60814.14
569.81	60559.02
569.97	60434.97
570.13	60612.85
570.30	60573.06
570.46	60732.22
570.62	60678.39
570.78	60470.08
570.95	60437.31
571.11	60804.78
571.27	60678.39
571.43	60598.81
571.60	60783.71
571.76	60626.90
571.92	60793.07
572.09	60676.05
572.25	60624.56
572.41	60612.85
572.57	60896.06
572.74	60977.98
572.90	60933.51
573.06	60746.26
573.22	60706.47
573.38	60788.39
573.55	60631.58
573.71	60910.10
573.87	61069.26
574.03	60842.23
574.20	60924.14
574.36	60605.83
574.52	60828.18
574.68	60889.04
574.84	60882.02
575.01	60992.02
575.17	60802.44
575.33	60804.78
575.49	60877.33
575.65	60870.31
575.82	60912.44
575.98	60896.06
576.14	61111.39
576.30	61097.34
576.46	60825.84
576.62	61022.45
576.79	60851.59
576.95	60781.37
577.11	60947.55
577.27	61120.75
577.43	60711.16
577.59	60949.89
577.75	60753.29
577.92	60842.23
578.08	61031.81
578.24	60956.91
578.40	61043.51
578.56	61043.51
578.72	60982.66
578.88	61139.47
579.04	61137.13
579.21	60914.78
579.37	61116.07
579.53	61202.67
579.69	60650.30
579.85	60912.44
580.01	60987.34
580.17	61043.51
580.33	61331.40
580.49	61013.08
580.65	61146.50
580.82	60865.63
580.98	60961.59
581.14	60985.00
581.30	61146.50
581.46	60949.89
581.62	61116.07
581.78	60954.57
581.94	61041.17
582.10	61078.62
582.26	60882.02
582.42	61106.71
582.58	60924.14
582.74	61083.30
582.90	60973.30
583.06	60999.04
583.22	60942.87
583.38	61127.77
583.54	60919.46
583.70	61207.35
583.86	61041.17
584.02	61080.96
584.18	61123.09
584.34	61183.94
584.50	61006.06
584.66	61179.26
584.82	60804.78
584.98	61048.19
585.14	61270.54
585.30	60987.34
585.46	61137.13
585.62	61169.90
585.78	61293.95
585.94	61167.56
586.10	61144.16
586.26	61172.24
586.42	61212.03
586.58	61343.10
586.74	61181.60
586.90	60961.59
587.06	61216.71
587.22	61303.31
587.38	61139.47
587.54	61420.34
587.70	61343.10
587.86	61076.28
588.02	61209.69
588.18	61378.21
588.34	61045.85
588.49	61017.77
