SpectraSuite Data File
++++++++++++++++++++++++++++++++++++
Date: Fri Oct 25 10:44:11 EDT 2013
User: price-jones
Dark Spectrum Present: No
Reference Spectrum Present: No
Number of Sampled Component Spectra: 1
Spectrometers: USB2+H05261
Integration Time (usec): 100000 (USB2+H05261)
Spectra Averaged: 1 (USB2+H05261)
Boxcar Smoothing: 0 (USB2+H05261)
Correct for Electrical Dark: No (USB2+H05261)
Strobe/Lamp Enabled: No (USB2+H05261)
Correct for Detector Non-linearity: No (USB2+H05261)
Correct for Stray Light: No (USB2+H05261)
Number of Pixels in Processed Spectrum: 2048
>>>>>Begin Processed Spectral Data<<<<<
365.73	88.94
365.92	88.94
366.12	88.94
366.32	77.24
366.52	77.24
366.72	72.56
366.91	2.34
367.11	42.13
367.31	30.43
367.51	42.13
367.70	35.11
367.90	21.06
368.10	44.47
368.30	23.41
368.49	74.90
368.69	39.79
368.89	16.38
369.09	4.68
369.28	98.30
369.48	51.49
369.68	79.58
369.87	117.03
370.07	65.54
370.27	114.69
370.47	161.50
370.66	320.65
370.86	428.32
371.06	489.17
371.25	479.81
371.45	454.06
371.65	421.30
371.84	456.40
372.04	517.26
372.24	521.94
372.44	437.68
372.63	510.24
372.83	510.24
373.03	533.64
373.22	437.68
373.42	540.66
373.62	416.62
373.81	510.24
374.01	545.34
374.21	594.50
374.40	521.94
374.60	573.43
374.79	594.50
374.99	594.50
375.19	521.94
375.38	608.54
375.58	601.52
375.78	681.10
375.97	629.60
376.17	596.84
376.37	582.79
376.56	643.65
376.76	631.94
376.95	629.60
377.15	685.78
377.35	683.44
377.54	664.71
377.74	636.63
377.93	629.60
378.13	631.94
378.33	629.60
378.52	573.43
378.72	716.20
378.91	650.67
379.11	636.63
379.31	599.18
379.50	669.39
379.70	692.80
379.89	653.01
380.09	695.14
380.28	631.94
380.48	706.84
380.68	636.63
380.87	725.57
381.07	702.16
381.26	603.86
381.46	683.44
381.65	739.61
381.85	781.74
382.04	727.91
382.24	741.95
382.43	711.52
382.63	664.71
382.83	695.14
383.02	741.95
383.22	770.04
383.41	739.61
383.61	662.37
383.80	765.36
384.00	713.86
384.19	772.38
384.39	807.48
384.58	793.44
384.78	763.01
384.97	791.10
385.17	837.91
385.36	816.85
385.56	767.70
385.75	849.61
385.95	814.51
386.14	854.30
386.34	821.53
386.53	880.04
386.72	802.80
386.92	842.59
387.11	847.27
387.31	854.30
387.50	908.13
387.70	866.00
387.89	924.51
388.09	894.08
388.28	870.68
388.48	908.13
388.67	938.55
388.86	926.85
389.06	966.64
389.25	966.64
389.45	1039.20
389.64	896.43
389.84	966.64
390.03	1006.43
390.22	1041.54
390.42	933.87
390.61	931.53
390.81	1013.45
391.00	945.58
391.19	1109.41
391.39	1043.88
391.58	1097.71
391.78	1109.41
391.97	1062.60
392.16	1057.92
392.36	1062.60
392.55	1015.79
392.75	1095.37
392.94	943.24
393.13	1039.20
393.33	1057.92
393.52	1116.44
393.71	1086.01
393.91	1018.13
394.10	1135.16
394.29	1165.59
394.49	1151.54
394.68	1181.97
394.88	1191.33
395.07	1254.53
395.26	1184.31
395.46	1266.23
395.65	1303.68
395.84	1231.12
396.04	1224.10
396.23	1158.57
396.42	1181.97
396.62	1107.07
396.81	1174.95
397.00	1231.12
397.19	1282.61
397.39	1343.47
397.58	1310.70
397.77	1350.49
397.97	1399.64
398.16	1387.94
398.35	1448.79
398.55	1376.24
398.74	1507.30
398.93	1465.18
399.12	1467.52
399.32	1411.34
399.51	1556.46
399.70	1586.88
399.90	1511.99
400.09	1530.71
400.28	1582.20
400.47	1563.48
400.67	1636.03
400.86	1706.25
401.05	1715.61
401.24	1767.10
401.44	1629.01
401.63	1799.87
401.82	1750.72
402.01	1755.40
402.21	1727.32
402.40	1689.87
402.59	1673.48
402.78	1799.87
402.97	1689.87
403.17	1736.68
403.36	1746.04
403.55	1797.53
403.74	1881.79
403.93	1944.99
404.13	1746.04
404.32	1839.66
404.51	1755.40
404.70	1898.17
404.89	1884.13
405.09	1996.48
405.28	1952.01
405.47	1902.86
405.66	1867.75
405.85	1998.82
406.05	1949.67
406.24	1966.05
406.43	2036.27
406.62	2012.86
406.81	2047.97
407.00	2078.40
407.20	2092.44
407.39	2073.71
407.58	2188.40
407.77	2118.18
407.96	2265.64
408.15	2321.81
408.34	2207.13
408.54	2244.57
408.73	2186.06
408.92	2218.83
409.11	2272.66
409.30	2333.51
409.49	2359.26
409.68	2251.60
409.87	2197.76
410.07	2286.70
410.26	2249.25
410.45	2483.31
410.64	2389.69
410.83	2586.29
411.02	2387.35
411.21	2541.82
411.40	2546.50
411.59	2523.10
411.78	2628.42
411.98	2551.18
412.17	2602.68
412.36	2576.93
412.55	2731.41
412.74	2794.60
412.93	2801.62
413.12	2703.32
413.31	2722.04
413.50	2827.37
413.69	2841.41
413.88	2850.77
414.07	2916.31
414.26	2803.96
414.45	3009.93
414.64	2942.05
414.83	3033.33
415.02	2946.73
415.22	3150.36
415.41	3124.62
415.60	3194.83
415.79	3274.41
415.98	3192.49
416.17	3283.77
416.36	3152.70
416.55	3077.80
416.74	3241.64
416.93	3265.05
417.12	3377.39
417.31	3307.18
417.50	3323.56
417.69	3461.65
417.88	3375.05
418.07	3403.14
418.26	3492.08
418.45	3459.31
418.64	3552.93
418.83	3604.42
419.02	3634.85
419.21	3524.85
419.39	3574.00
419.58	3695.71
419.77	3538.89
419.96	3618.47
420.15	3749.54
420.34	3616.13
420.53	3716.77
420.72	3803.37
420.91	3840.82
421.10	3784.65
421.29	3904.01
421.48	3801.03
421.67	3901.67
421.86	3595.06
422.05	3616.13
422.24	3794.01
422.43	3695.71
422.61	3918.06
422.80	3861.88
422.99	4009.34
423.18	3875.93
423.37	3751.88
423.56	3969.55
423.75	3871.25
423.94	3737.84
424.13	3676.98
424.32	3672.30
424.50	3962.53
424.69	3978.91
424.88	3927.42
425.07	3934.44
425.26	3777.62
425.45	3960.19
425.64	3875.93
425.83	3892.31
426.01	4124.02
426.20	4119.34
426.39	3974.23
426.58	3925.08
426.77	3950.82
426.96	3946.14
427.15	3836.14
427.33	4021.04
427.52	4067.85
427.71	4152.11
427.90	4241.05
428.09	4044.45
428.28	4098.28
428.46	4079.55
428.65	4060.83
428.84	4217.65
429.03	4313.61
429.22	4189.56
429.40	4245.73
429.59	4077.21
429.78	4095.94
429.97	3941.46
430.16	4039.76
430.34	4079.55
430.53	4028.06
430.72	4322.97
430.91	4182.54
431.10	4311.27
431.28	4418.93
431.47	4545.32
431.66	4636.60
431.85	4613.20
432.03	4594.47
432.22	4617.88
432.41	4692.77
432.60	4683.41
432.79	4805.12
432.97	4681.07
433.16	4662.35
433.35	4711.50
433.54	4676.39
433.72	4734.90
433.91	4683.41
434.10	4652.98
434.28	4828.53
434.47	4849.59
434.66	4894.06
434.85	4922.15
435.03	5048.54
435.22	4847.25
435.41	5053.22
435.59	5149.18
435.78	5039.17
435.97	5142.16
436.16	5177.26
436.34	4999.38
436.53	5128.11
436.72	5343.44
436.90	5142.16
437.09	5195.99
437.28	5104.71
437.46	5273.23
437.65	5102.37
437.84	5212.37
438.02	5111.73
438.21	5132.79
438.40	5083.64
438.58	5406.64
438.77	5350.46
438.96	5479.19
439.14	5434.72
439.33	5589.20
439.52	5579.84
439.70	5643.03
439.89	5874.74
440.08	5813.89
440.26	5659.42
440.45	5547.07
440.63	5750.70
440.82	6031.56
441.01	5820.91
441.19	6010.50
441.38	5947.30
441.57	6001.13
441.75	5991.77
441.94	6207.10
442.12	6394.34
442.31	6305.40
442.50	6370.94
442.68	6129.86
442.87	6352.21
443.05	6207.10
443.24	6415.41
443.43	6387.32
443.61	6527.75
443.80	6555.84
443.98	6469.24
444.17	6176.67
444.35	6471.58
444.54	6579.25
444.73	6441.15
444.91	6284.34
445.10	6436.47
445.28	6504.35
445.47	6448.18
445.65	6396.68
445.84	6317.11
446.02	6555.84
446.21	6574.56
446.39	6546.48
446.58	6640.10
446.77	6595.63
446.95	6366.26
447.14	6483.28
447.32	6740.74
447.51	6712.66
447.69	6621.38
447.88	6590.95
448.06	6626.06
448.25	6658.82
448.43	6684.57
448.62	6855.43
448.80	6707.98
448.99	6792.23
449.17	7040.33
449.36	6808.62
449.54	6986.50
449.73	7066.08
449.91	7049.69
450.10	6986.50
450.28	7131.61
450.46	7300.13
450.65	7365.67
450.83	7171.40
451.02	7105.87
451.20	7124.59
451.39	7297.79
451.57	7143.32
451.76	7077.78
451.94	7272.04
452.13	7377.37
452.31	7304.81
452.49	7103.53
452.68	7234.60
452.86	7162.04
453.05	7166.72
453.23	7311.83
453.42	7232.26
453.60	7199.49
453.78	7520.14
453.97	7372.69
454.15	7438.22
454.34	7470.99
454.52	7417.16
454.70	7445.24
454.89	7503.76
455.07	7318.86
455.26	7456.95
455.44	7573.97
455.62	7730.79
455.81	7620.78
455.99	7698.02
456.17	7892.29
456.36	7838.45
456.54	7882.92
456.73	8072.51
456.91	8147.40
457.09	8107.62
457.28	8081.87
457.46	8028.04
457.64	8184.85
457.83	8088.89
458.01	7892.29
458.19	8358.05
458.38	7953.14
458.56	8215.28
458.74	8159.11
458.93	8226.98
459.11	8046.76
459.29	8168.47
459.48	8374.44
459.66	8348.69
459.84	8224.64
460.03	8430.61
460.21	8388.48
460.39	8610.83
460.57	8308.90
460.76	8465.72
460.94	8699.77
461.12	8610.83
461.31	8769.99
461.49	8615.51
461.67	8718.50
461.85	8844.88
462.04	8819.14
462.22	8917.44
462.40	8879.99
462.59	8840.20
462.77	8702.11
462.95	8982.98
463.13	8657.64
463.32	8968.93
463.50	9170.22
463.68	8985.32
463.86	9013.40
464.05	8854.25
464.23	8945.53
464.41	9074.26
464.59	8837.86
464.78	9205.33
464.96	9041.49
465.14	8985.32
465.32	9315.33
465.50	9427.68
465.69	9240.44
465.87	9156.18
466.05	9165.54
466.23	9081.28
466.41	9062.55
466.60	9224.05
466.78	9032.13
466.96	9163.20
467.14	9273.20
467.32	9497.89
467.51	9451.08
467.69	9275.54
467.87	9476.83
468.05	9486.19
468.23	9535.34
468.41	9310.65
468.60	9399.59
468.78	9530.66
468.96	9462.79
469.14	9678.12
469.32	9760.03
469.50	9376.19
469.69	9762.37
469.87	9949.62
470.05	9771.74
470.23	9715.56
470.41	9710.88
470.59	9893.44
470.77	9970.68
470.95	10024.51
471.14	10122.82
471.32	9994.09
471.50	10214.10
471.68	10265.59
471.86	10361.55
472.04	10225.80
472.22	10410.70
472.40	10352.19
472.58	10443.47
472.77	10504.32
472.95	10551.14
473.13	10691.57
473.31	10604.97
473.49	10569.86
473.67	10703.27
473.85	10714.97
474.03	10888.17
474.21	10850.72
474.39	11117.54
474.57	11028.60
474.75	11229.89
474.93	11246.27
475.12	11108.18
475.30	11449.90
475.48	11091.80
475.66	11122.23
475.84	11396.07
476.02	11070.73
476.20	11524.80
476.38	11850.13
476.56	11878.22
476.74	11822.05
476.92	11882.90
477.10	11681.61
477.28	11985.88
477.46	12091.21
477.64	12168.45
477.82	12432.93
478.00	12526.55
478.18	12622.51
478.36	12395.48
478.54	12657.62
478.72	12699.75
478.90	12915.08
479.08	13048.49
479.26	12982.95
479.44	13308.29
479.62	12952.52
479.80	13102.32
479.98	13490.85
480.16	13654.69
480.34	13451.06
480.52	13579.79
480.70	13862.99
480.88	13607.87
481.06	13776.39
481.24	13963.64
481.41	14143.86
481.59	14249.18
481.77	14359.19
481.95	14450.47
482.13	14253.86
482.31	14225.78
482.49	14946.66
482.67	14808.57
482.85	15063.69
483.03	15236.89
483.21	15087.09
483.39	15470.94
483.57	15424.13
483.74	15428.81
483.92	15503.71
484.10	15482.64
484.28	15625.42
484.46	15906.28
484.64	16383.75
484.82	15908.62
485.00	16102.89
485.18	16596.74
485.35	16329.92
485.53	16053.73
485.71	16311.19
485.89	16594.40
486.07	16355.66
486.25	16805.05
486.43	16849.52
486.61	16985.27
486.78	17589.13
486.96	17371.46
487.14	17762.33
487.32	17563.38
487.50	17755.30
487.68	18256.18
487.85	18459.81
488.03	18436.40
488.21	18333.42
488.39	18417.68
488.57	18649.39
488.75	18771.10
488.92	18956.00
489.10	19105.79
489.28	19398.36
489.46	19499.00
489.64	19407.72
489.81	19751.78
489.99	20093.50
490.17	20215.21
490.35	20369.68
490.53	20271.38
490.70	20470.33
490.88	20152.01
491.06	20776.94
491.24	20900.98
491.41	21015.67
491.59	21029.71
491.77	20877.58
491.95	21158.44
492.13	21025.03
492.30	21539.95
492.48	21638.25
492.66	21624.21
492.84	21675.70
493.01	22019.76
493.19	22012.74
493.37	22214.02
493.54	21956.57
493.72	22253.81
493.90	22441.06
494.08	22862.35
494.25	23101.09
494.43	22937.25
494.61	23407.70
494.79	23194.71
494.96	23384.29
495.14	23374.93
495.32	23608.98
495.49	23700.26
495.67	23854.74
495.85	23716.65
496.02	24257.31
496.20	24702.01
496.38	24414.13
496.55	24458.60
496.73	25050.75
496.91	24893.94
497.09	24994.58
497.26	25298.85
497.44	25324.60
497.62	25198.21
497.79	25249.70
497.97	25303.53
498.14	25495.46
498.32	25474.39
498.50	25420.56
498.67	26120.38
498.85	26087.61
499.03	26157.83
499.20	26087.61
499.38	26307.62
499.56	26630.62
499.73	26295.92
499.91	26408.26
500.08	26391.88
500.26	26438.69
500.44	26642.32
500.61	26443.37
500.79	26689.13
500.97	27119.79
501.14	27182.98
501.32	27356.18
501.49	26955.95
501.67	27072.98
501.84	27402.99
502.02	27260.22
502.20	27496.61
502.37	27697.90
502.55	27578.53
502.72	27964.72
502.90	27749.39
503.07	27828.97
503.25	28013.87
503.43	28077.07
503.60	28304.10
503.78	28481.98
503.95	28107.49
504.13	28514.75
504.30	28673.90
504.48	28606.03
504.65	29062.43
504.83	29237.97
505.01	29294.14
505.18	28938.38
505.36	29551.60
505.53	29628.84
505.71	29762.25
505.88	29879.28
506.06	29343.30
506.23	29792.68
506.41	29757.57
506.58	29937.79
506.76	30110.99
506.93	29797.36
507.11	29958.86
507.28	30122.69
507.46	29961.20
507.63	30380.15
507.81	30155.46
507.98	30263.13
508.16	30361.43
508.33	30572.08
508.50	30759.32
508.68	31133.81
508.85	31229.77
509.03	31091.68
509.20	30885.71
509.38	31110.40
509.55	31255.51
509.73	30974.65
509.90	31201.68
510.08	31559.78
510.25	31585.53
510.42	31292.96
510.60	31463.82
510.77	31786.82
510.95	31803.20
511.12	31943.63
511.30	32217.47
511.47	32170.66
511.64	32734.73
511.82	32531.11
511.99	32147.26
512.17	32671.54
512.34	32393.01
512.51	32627.07
512.69	33060.07
512.86	32472.59
513.04	32811.97
513.21	32788.56
513.38	32851.76
513.56	33099.86
513.73	32645.79
513.90	33050.70
514.08	33099.86
514.25	33221.56
514.43	32989.85
514.60	33247.31
514.77	33504.77
514.95	33331.57
515.12	33645.20
515.29	33364.34
515.47	34000.96
515.64	34064.16
515.81	33844.15
515.99	34150.76
516.16	33762.23
516.33	33645.20
516.51	34265.44
516.68	33549.24
516.85	33031.98
517.03	33830.10
517.20	33773.93
517.37	34054.79
517.54	34382.47
517.72	34646.95
517.89	33912.02
518.06	34246.72
518.24	33975.22
518.41	34485.45
518.58	34417.58
518.75	34646.95
518.93	34998.03
519.10	34600.14
519.27	34656.31
519.45	35442.73
519.62	35566.78
519.79	35124.42
519.96	35187.61
520.14	35564.44
520.31	35426.35
520.48	35409.96
520.65	35868.71
520.83	36275.96
521.00	36027.87
521.17	36170.64
521.34	35854.67
521.52	35927.22
521.69	35880.41
521.86	36521.72
522.03	36105.10
522.20	36205.75
522.38	36671.51
522.55	36374.27
522.72	36109.78
522.89	36423.42
523.07	37076.43
523.24	36477.25
523.41	36814.29
523.58	36921.95
523.75	37607.73
523.92	36896.20
524.10	36779.18
524.27	37413.46
524.44	37017.91
524.61	37462.61
524.78	37289.42
524.96	37427.51
525.13	37493.04
525.30	37818.38
525.47	37914.34
525.64	37710.71
525.81	37640.50
525.98	37467.30
526.16	37432.19
526.33	37467.30
526.50	37448.57
526.67	37418.14
526.84	37549.21
527.01	37780.93
527.18	37460.27
527.36	37979.87
527.53	38143.71
527.70	38499.47
527.87	38466.70
528.04	38384.79
528.21	38939.49
528.38	38649.27
528.55	38738.21
528.72	39056.52
528.89	38988.64
529.07	38438.62
529.24	38735.87
529.41	38862.26
529.58	38773.31
529.75	38721.82
529.92	38904.38
530.09	39185.25
530.26	39311.64
530.43	39236.74
530.60	38436.28
530.77	39133.76
530.94	39398.24
531.11	39393.56
531.28	39384.19
531.46	39697.83
531.63	39765.70
531.80	39290.57
531.97	39466.11
532.14	39248.44
532.31	39166.52
532.48	39122.05
532.65	40013.80
532.82	39646.33
532.99	39569.10
533.16	39636.97
533.33	39868.69
533.50	40266.58
533.67	40226.79
533.84	40058.27
534.01	39964.65
534.18	40198.70
534.35	39969.33
534.52	40289.98
534.69	40418.71
534.86	40624.68
535.03	40795.54
535.20	40952.35
535.37	40795.54
535.54	41237.90
535.71	40809.58
535.88	41095.13
536.05	40442.12
536.22	40622.34
536.38	41310.46
536.55	40369.56
536.72	40692.55
536.89	40844.69
537.06	40825.96
537.23	41153.64
537.40	40917.25
537.57	41148.96
537.74	41031.93
537.91	41544.51
538.08	41099.81
538.25	41088.10
538.42	41130.23
538.59	41404.08
538.75	41062.36
538.92	41148.96
539.09	41553.87
539.26	41504.72
539.43	41371.31
539.60	41354.93
539.77	41322.16
539.94	41127.89
540.11	41174.70
540.28	41209.81
540.44	41387.69
540.61	41397.06
540.78	41776.22
540.95	41301.09
541.12	41865.16
541.29	41720.05
541.46	41923.68
541.62	42071.13
541.79	42419.87
541.96	41549.19
542.13	42157.73
542.30	41694.30
542.47	41904.95
542.63	41975.17
542.80	41617.07
542.97	42784.99
543.14	42829.46
543.31	42850.53
543.48	42852.87
543.64	43239.06
543.81	42745.20
543.98	42672.65
544.15	42848.19
544.32	43115.01
544.48	43189.91
544.65	42923.08
544.82	43107.99
544.99	42515.83
545.16	43037.77
545.32	43166.50
545.49	43358.42
545.66	43519.92
545.83	43199.27
546.00	42986.28
546.16	43402.89
546.33	42962.87
546.50	42609.45
546.67	43344.38
546.83	42948.83
547.00	43122.03
547.17	43217.99
547.34	43349.06
547.50	43320.98
547.67	43950.58
547.84	43501.20
548.00	43690.78
548.17	43971.64
548.34	43810.15
548.51	43936.54
548.67	43856.96
548.84	43817.17
549.01	43482.47
549.18	44116.76
549.34	43765.68
549.51	44247.83
549.68	44254.85
549.84	43955.26
550.01	44399.96
550.18	43753.97
550.34	43983.35
550.51	44275.91
550.68	44119.10
550.84	43622.90
551.01	44502.95
551.18	44037.18
551.34	43985.69
551.51	44362.51
551.68	44378.90
551.84	44046.54
552.01	44041.86
552.18	44280.60
552.34	43906.11
552.51	44339.11
552.68	44271.23
552.84	44711.25
553.01	44449.11
553.18	44823.60
553.34	44568.48
553.51	44271.23
553.67	45043.61
553.84	44828.28
554.01	44601.25
554.17	45106.80
554.34	44865.73
554.51	44891.48
554.67	45294.05
554.84	44601.25
555.00	44439.75
555.17	44781.47
555.33	44919.56
555.50	44856.37
555.67	44839.98
555.83	44765.09
556.00	45036.59
556.16	45186.38
556.33	44727.64
556.50	44744.02
556.66	44839.98
556.83	45230.85
556.99	45301.07
557.16	45296.39
557.32	45118.51
557.49	45347.88
557.65	45085.74
557.82	45265.96
557.98	45296.39
558.15	45209.79
558.32	45081.06
558.48	44734.66
558.65	44928.92
558.81	44886.79
558.98	44737.00
559.14	45565.55
559.31	45097.44
559.47	45502.35
559.64	45633.42
559.80	45586.61
559.97	45474.27
560.13	45055.31
560.30	45394.69
560.46	45450.86
560.63	45146.59
560.79	45464.91
560.96	45092.76
561.12	45413.41
561.29	45228.51
561.45	45717.68
561.61	45507.04
561.78	45567.89
561.94	45315.11
562.11	45696.62
562.27	45200.43
562.44	45521.08
562.60	46054.72
562.77	45727.05
562.93	45476.61
563.10	45366.60
563.26	45289.37
563.42	45612.36
563.59	45766.84
563.75	45413.41
563.92	45785.56
564.08	45682.58
564.24	46026.63
564.41	45638.11
564.57	45830.03
564.74	45935.35
564.90	45703.64
565.07	46150.68
565.23	45839.39
565.39	45603.00
565.56	46050.04
565.72	45535.12
565.88	45666.19
566.05	45923.65
566.21	45792.58
566.38	45698.96
566.54	46068.76
566.70	46176.43
566.87	46028.98
567.03	45820.67
567.19	46227.92
567.36	45717.68
567.52	45762.15
567.68	45993.87
567.85	45631.08
568.01	46094.51
568.17	45890.88
568.34	45841.73
568.50	45677.90
568.66	45965.78
568.83	46340.27
568.99	45420.44
569.15	46036.00
569.32	45797.26
569.48	45485.97
569.64	46162.39
569.81	46131.96
569.97	45860.46
570.13	45951.74
570.30	45422.78
570.46	45876.84
570.62	45567.89
570.78	45497.67
570.95	45745.77
571.11	46543.89
571.27	46010.25
571.43	45771.52
571.60	45930.67
571.76	45923.65
571.92	46169.41
572.09	46138.98
572.25	45888.54
572.41	45855.78
572.57	46113.23
572.74	45984.51
572.90	46080.47
573.06	46122.60
573.22	46174.09
573.38	45996.21
573.55	45958.76
573.71	46169.41
573.87	45825.35
574.03	46057.06
574.20	46272.39
574.36	46106.21
574.52	46127.28
574.68	46157.70
574.84	46099.19
575.01	45904.93
575.17	46110.89
575.33	46028.98
575.49	45762.15
575.65	46457.29
575.82	46506.44
575.98	46478.36
576.14	46555.60
576.30	46492.40
576.46	45958.76
576.62	46469.00
576.79	46050.04
576.95	45900.25
577.11	45989.19
577.27	46260.69
577.43	46256.01
577.59	45940.04
577.75	45858.12
577.92	46122.60
578.08	45724.71
578.24	45790.24
578.40	46031.32
578.56	46183.45
578.72	46120.26
578.88	46344.95
579.04	46389.42
579.21	46167.07
579.37	46354.31
579.53	45993.87
579.69	46225.58
579.85	46401.12
580.01	46314.52
580.17	46394.10
580.33	46328.56
580.49	46167.07
580.65	46136.64
580.82	46394.10
580.98	46342.61
581.14	46054.72
581.30	46499.42
581.46	46665.60
581.62	45928.33
581.78	45729.39
581.94	46192.81
582.10	46138.98
582.26	46632.83
582.42	46422.19
582.58	46326.22
582.74	46134.30
582.90	46073.45
583.06	46087.49
583.22	45867.48
583.38	46515.81
583.54	46623.47
583.70	46466.66
583.86	46543.89
584.02	46040.68
584.18	46253.67
584.34	46429.21
584.50	46644.54
584.66	45879.18
584.82	45722.37
584.98	46745.18
585.14	46169.41
585.30	46101.53
585.46	46307.50
585.62	45869.82
585.78	46419.84
585.94	45989.19
586.10	46155.36
586.26	45839.39
586.42	46780.29
586.58	46380.06
586.74	46476.02
586.90	45989.19
587.06	46206.86
587.22	46415.16
587.38	45951.74
587.54	46590.70
587.70	46174.09
587.86	46319.20
588.02	45958.76
588.18	46323.88
588.34	45942.38
588.49	45780.88
588.65	45713.00
588.81	45694.28
588.97	46059.40
589.13	46040.68
589.29	46101.53
589.45	46272.39
589.61	45804.28
589.77	46419.84
589.93	46667.94
