SpectraSuite Data File
++++++++++++++++++++++++++++++++++++
Date: Fri Oct 25 11:23:17 EDT 2013
User: price-jones
Dark Spectrum Present: No
Reference Spectrum Present: No
Number of Sampled Component Spectra: 1
Spectrometers: USB2+H05261
Integration Time (usec): 100000 (USB2+H05261)
Spectra Averaged: 1 (USB2+H05261)
Boxcar Smoothing: 0 (USB2+H05261)
Correct for Electrical Dark: No (USB2+H05261)
Strobe/Lamp Enabled: No (USB2+H05261)
Correct for Detector Non-linearity: No (USB2+H05261)
Correct for Stray Light: No (USB2+H05261)
Number of Pixels in Processed Spectrum: 2048
>>>>>Begin Processed Spectral Data<<<<<
365.73	243.42
365.92	243.42
366.12	243.42
366.32	119.37
366.52	105.32
366.72	170.86
366.91	168.52
367.11	149.79
367.31	67.88
367.51	98.30
367.70	100.64
367.90	152.13
368.10	170.86
368.30	74.90
368.49	187.24
368.69	175.54
368.89	156.82
369.09	147.45
369.28	173.20
369.48	168.52
369.68	152.13
369.87	145.11
370.07	194.26
370.27	250.44
370.47	301.93
370.66	564.07
370.86	552.37
371.06	629.60
371.25	655.35
371.45	645.99
371.65	692.80
371.84	683.44
372.04	671.73
372.24	606.20
372.44	765.36
372.63	814.51
372.83	830.89
373.03	800.46
373.22	784.08
373.42	737.27
373.62	798.12
373.81	821.53
374.01	826.21
374.21	858.98
374.40	884.72
374.60	849.61
374.79	805.14
374.99	795.78
375.19	844.93
375.38	858.98
375.58	755.99
375.78	854.30
375.97	814.51
376.17	777.06
376.37	889.40
376.56	802.80
376.76	858.98
376.95	863.66
377.15	973.66
377.35	816.85
377.54	856.64
377.74	877.70
377.93	854.30
378.13	922.17
378.33	901.11
378.52	915.15
378.72	922.17
378.91	1039.20
379.11	887.06
379.31	947.92
379.50	938.55
379.70	945.58
379.89	973.66
380.09	987.71
380.28	1177.29
380.48	987.71
380.68	924.51
380.87	1029.84
381.07	1025.15
381.26	1064.94
381.46	997.07
381.65	1050.90
381.85	1025.15
382.04	1018.13
382.24	1097.71
382.43	1029.84
382.63	1086.01
382.83	1078.99
383.02	1083.67
383.22	1174.95
383.41	1022.81
383.61	1062.60
383.80	1111.75
384.00	1074.31
384.19	1153.88
384.39	1184.31
384.58	1109.41
384.78	1137.50
384.97	1184.31
385.17	1128.14
385.36	1156.22
385.56	1160.91
385.75	1226.44
385.95	1198.35
386.14	1177.29
386.34	1306.02
386.53	1203.04
386.72	1191.33
386.92	1235.80
387.11	1254.53
387.31	1235.80
387.50	1315.38
387.70	1226.44
387.89	1249.85
388.09	1210.06
388.28	1313.04
388.48	1252.19
388.67	1334.11
388.86	1266.23
389.06	1362.19
389.25	1406.66
389.45	1376.24
389.64	1331.76
389.84	1268.57
390.03	1355.17
390.22	1387.94
390.42	1343.47
390.61	1378.58
390.81	1336.45
391.00	1352.83
391.19	1427.73
391.39	1411.34
391.58	1444.11
391.78	1437.09
391.97	1380.92
392.16	1460.49
392.36	1490.92
392.55	1544.75
392.75	1537.73
392.94	1521.35
393.13	1530.71
393.33	1416.02
393.52	1614.97
393.71	1657.10
393.91	1509.65
394.10	1598.59
394.29	1495.60
394.49	1699.23
394.68	1626.67
394.88	1654.76
395.07	1593.90
395.26	1610.29
395.46	1671.14
395.65	1685.19
395.84	1727.32
396.04	1809.23
396.23	1795.19
396.42	1776.47
396.62	1790.51
396.81	1834.98
397.00	1806.89
397.19	1682.85
397.39	1811.57
397.58	1792.85
397.77	1760.08
397.97	1902.86
398.16	1832.64
398.35	1949.67
398.55	1933.28
398.74	1849.02
398.93	1919.24
399.12	1923.92
399.32	1755.40
399.51	1923.92
399.70	2083.08
399.90	1989.46
400.09	1926.26
400.28	2031.58
400.47	2092.44
400.67	2204.78
400.86	2172.02
401.05	2085.42
401.24	2122.87
401.44	2183.72
401.63	2223.51
401.82	2153.29
402.01	2104.14
402.21	2146.27
402.40	2127.55
402.59	2242.23
402.78	2176.70
402.97	2214.15
403.17	2230.53
403.36	2172.02
403.55	2303.09
403.74	2370.96
403.93	2286.70
404.13	2377.98
404.32	2342.88
404.51	2466.92
404.70	2450.54
404.89	2396.71
405.09	2532.46
405.28	2464.58
405.47	2513.74
405.66	2506.71
405.85	2649.49
406.05	2546.50
406.24	2572.25
406.43	2637.78
406.62	2647.15
406.81	2602.68
407.00	2546.50
407.20	2651.83
407.39	2679.91
407.58	2867.16
407.77	2785.24
407.96	2719.70
408.15	2867.16
408.34	2843.75
408.54	2846.09
408.73	2808.64
408.92	2906.95
409.11	2890.56
409.30	2890.56
409.49	2860.13
409.68	2930.35
409.87	3052.06
410.07	2810.98
410.26	2949.08
410.45	3077.80
410.64	3152.70
410.83	3082.49
411.02	3087.17
411.21	3157.38
411.40	3124.62
411.59	3258.03
411.78	3314.20
411.98	3262.71
412.17	3141.00
412.36	3232.28
412.55	3428.88
412.74	3471.01
412.93	3440.59
413.12	3318.88
413.31	3576.34
413.50	3538.89
413.69	3548.25
413.88	3559.95
414.07	3639.53
414.26	3674.64
414.45	3735.50
414.64	3637.19
414.83	3829.12
415.02	3794.01
415.22	3782.31
415.41	3815.07
415.60	3955.51
415.79	3819.75
415.98	3955.51
416.17	4002.32
416.36	3936.78
416.55	3969.55
416.74	3976.57
416.93	4035.08
417.12	4189.56
417.31	4231.69
417.50	4283.18
417.69	4219.99
417.88	4395.53
418.07	4287.86
418.26	4365.10
418.45	4425.95
418.64	4503.19
418.83	4381.48
419.02	4456.38
419.21	4442.34
419.39	4603.83
419.58	4514.89
419.77	4521.92
419.96	4531.28
420.15	4531.28
420.34	4723.20
420.53	4631.92
420.72	4610.86
420.91	4865.97
421.10	4692.77
421.29	4706.82
421.48	4681.07
421.67	4802.78
421.86	4713.84
422.05	4739.58
422.24	4777.03
422.43	4905.76
422.61	4877.68
422.80	5006.41
422.99	5039.17
423.18	4994.70
423.37	5067.26
423.56	4898.74
423.75	4975.98
423.94	4851.93
424.13	4685.75
424.32	4837.89
424.50	4891.72
424.69	5233.44
424.88	5097.69
425.07	4929.17
425.26	4990.02
425.45	5125.77
425.64	5041.51
425.83	5074.28
426.01	5289.61
426.20	5071.94
426.39	5137.48
426.58	5078.96
426.77	5144.50
426.96	5179.61
427.15	5165.56
427.33	5366.85
427.52	5268.55
427.71	5291.95
427.90	5432.38
428.09	5296.63
428.28	5273.23
428.46	5383.23
428.65	5317.70
428.84	5528.35
429.03	5624.31
429.22	5420.68
429.40	5720.27
429.59	5551.75
429.78	5282.59
429.97	5280.25
430.16	5551.75
430.34	5781.12
430.53	5710.91
430.72	5598.56
430.91	5511.96
431.10	5624.31
431.28	5886.45
431.47	5783.46
431.66	5998.79
431.85	5790.49
432.03	5813.89
432.22	6118.16
432.41	5970.71
432.60	6001.13
432.79	6017.52
432.97	5888.79
433.16	5926.24
433.35	5994.11
433.54	6333.49
433.72	6111.14
433.91	6263.27
434.10	6422.43
434.28	6129.86
434.47	6265.61
434.66	6249.23
434.85	6406.05
435.03	6363.92
435.22	6246.89
435.41	6513.71
435.59	6384.98
435.78	6663.51
435.97	6530.09
436.16	6504.35
436.34	6562.86
436.53	6668.19
436.72	6612.01
436.90	6471.58
437.09	6572.22
437.28	6661.16
437.46	6736.06
437.65	6710.32
437.84	6775.85
438.02	6946.71
438.21	6810.96
438.40	6647.12
438.58	6923.30
438.77	7073.10
438.96	7075.44
439.14	7152.68
439.33	7220.55
439.52	7016.93
439.70	7260.34
439.89	7421.84
440.08	7412.48
440.26	7389.07
440.45	7346.94
440.63	7435.88
440.82	7592.70
441.01	7793.98
441.19	7618.44
441.38	7859.52
441.57	7826.75
441.75	7822.07
441.94	7971.86
442.12	8140.38
442.31	8095.91
442.50	8226.98
442.68	8044.42
442.87	8056.12
443.05	8131.02
443.24	8355.71
443.43	8224.64
443.61	8358.05
443.80	8507.85
443.98	8145.06
444.17	7920.37
444.35	8124.00
444.54	8505.51
444.73	8477.42
444.91	8472.74
445.10	8407.20
445.28	8386.14
445.47	8435.29
445.65	8348.69
445.84	8533.59
446.02	8606.15
446.21	8430.61
446.39	8449.33
446.58	8725.52
446.77	8702.11
446.95	8507.85
447.14	8521.89
447.32	8589.77
447.51	8610.83
447.69	8535.93
447.88	8575.72
448.06	8559.34
448.25	8346.35
448.43	8627.21
448.62	8774.67
448.80	8491.46
448.99	8594.45
449.17	8718.50
449.36	8655.30
449.54	8961.91
449.73	9350.44
449.91	9008.72
450.10	9170.22
450.28	9228.73
450.46	9001.70
450.65	9125.75
450.83	9060.21
451.02	9137.45
451.20	9238.09
451.39	9041.49
451.57	9151.49
451.76	9263.84
451.94	9142.13
452.13	9296.61
452.31	9343.42
452.49	8931.48
452.68	9624.28
452.86	9514.28
453.05	9563.43
453.23	9549.39
453.42	9408.95
453.60	9355.12
453.78	9659.39
453.97	9411.29
454.15	9430.02
454.34	9612.58
454.52	9825.57
454.70	9907.49
454.89	9834.93
455.07	9853.66
455.26	9942.60
455.44	10211.76
455.62	9893.44
455.81	10127.50
455.99	10289.00
456.17	9982.38
456.36	10216.44
456.54	10207.08
456.73	10260.91
456.91	10572.20
457.09	10499.64
457.28	10611.99
457.46	10707.95
457.64	10532.41
457.83	10555.82
458.01	10457.51
458.19	10883.49
458.38	10518.37
458.56	10572.20
458.74	10799.23
458.93	10644.76
459.11	10953.71
459.29	10927.96
459.48	10993.50
459.66	11000.52
459.84	10927.96
460.03	11255.64
460.21	11087.12
460.39	11115.20
460.57	11204.14
460.76	11349.26
460.94	11590.33
461.12	11225.21
461.31	11133.93
461.49	11274.36
461.67	11398.41
461.85	11754.17
462.04	11302.45
462.22	11456.92
462.40	11896.94
462.59	11414.79
462.77	11646.51
462.95	11669.91
463.13	11709.70
463.32	11658.21
463.50	11777.58
463.68	11990.56
463.86	12145.04
464.05	12077.16
464.23	11875.88
464.41	11946.09
464.59	11747.15
464.78	12205.89
464.96	12039.72
465.14	11943.75
465.32	12079.50
465.50	12163.76
465.69	12266.75
465.87	12077.16
466.05	12517.18
466.23	12397.82
466.41	12266.75
466.60	12507.82
466.78	12177.81
466.96	12564.00
467.14	12477.40
467.32	12507.82
467.51	12786.35
467.69	12273.77
467.87	12601.44
468.05	12596.76
468.23	12666.98
468.41	12500.80
468.60	12720.81
468.78	13034.44
468.96	12554.63
469.14	13057.85
469.32	13132.75
469.50	12826.14
469.69	12945.50
469.87	13071.89
470.05	13481.49
470.23	13319.99
470.41	13172.54
470.59	13390.20
470.77	13516.59
470.95	13235.73
471.14	13551.70
471.32	13200.62
471.50	13664.05
471.68	13743.63
471.86	13963.64
472.04	13963.64
472.22	14139.18
472.40	14108.75
472.58	13811.50
472.77	14047.90
472.95	14190.67
473.13	14944.32
473.31	14134.50
473.49	14228.12
473.67	14281.95
473.85	14476.21
474.03	14595.58
474.21	14857.72
474.39	14712.61
474.57	14810.91
474.75	15098.80
474.93	15009.86
475.12	14771.12
475.30	15382.00
475.48	15281.36
475.66	15393.70
475.84	15590.31
476.02	15433.49
476.20	15555.20
476.38	15943.73
476.56	16379.07
476.74	15955.43
476.92	15999.90
477.10	16077.14
477.28	16196.51
477.46	16322.90
477.64	16559.29
477.82	16793.34
478.00	17088.25
478.18	16987.61
478.36	17177.19
478.54	17252.09
478.72	17362.09
478.90	17467.42
479.08	17799.77
479.26	17884.03
479.44	17736.58
479.62	17923.82
479.80	18260.86
479.98	18539.38
480.16	18820.25
480.34	18312.35
480.52	19033.24
480.70	18422.36
480.88	18628.32
481.06	18860.04
481.24	19002.81
481.41	19257.93
481.59	19330.48
481.77	19850.08
481.95	19683.91
482.13	19627.73
482.31	19751.78
482.49	20329.89
482.67	20446.92
482.85	20903.32
483.03	20505.43
483.21	21249.72
483.39	20999.29
483.57	21151.42
483.74	21472.07
483.92	21741.24
484.10	21333.98
484.28	21865.28
484.46	22033.80
484.64	22544.04
484.82	22136.79
485.00	22295.94
485.18	23023.85
485.35	22745.33
485.53	22899.80
485.71	23278.97
485.89	23798.57
486.07	23374.93
486.25	23379.61
486.43	23758.78
486.61	24170.71
486.78	24198.80
486.96	24460.94
487.14	24903.30
487.32	24748.82
487.50	25156.08
487.68	25458.01
487.85	25855.90
488.03	25727.17
488.21	26096.97
488.39	26113.36
488.57	26476.14
488.75	26382.52
488.92	26764.03
489.10	26888.07
489.28	27178.30
489.46	27295.33
489.64	27339.80
489.81	27702.58
489.99	27730.67
490.17	28009.19
490.35	28367.29
490.53	28423.47
490.70	28844.76
490.88	28613.05
491.06	29043.71
491.24	29053.07
491.41	29535.22
491.59	29399.47
491.77	29865.24
491.95	29802.04
492.13	29930.77
492.30	30595.48
492.48	30326.32
492.66	30752.30
492.84	30749.96
493.01	31019.12
493.19	30869.33
493.37	31424.03
493.54	31714.26
493.72	31718.94
493.90	31831.29
494.08	32294.71
494.25	32367.27
494.43	32205.77
494.61	33352.63
494.79	32570.90
494.96	32936.02
495.14	32755.80
495.32	33495.41
495.49	33441.57
495.67	33537.54
495.85	33897.98
496.02	33970.54
496.20	34256.08
496.38	34150.76
496.55	34143.74
496.73	34988.67
496.91	34347.36
497.09	35007.39
497.26	35185.27
497.44	35339.75
497.62	35669.76
497.79	36231.49
497.97	36128.51
498.14	36336.82
498.32	36526.40
498.50	36774.50
498.67	36856.42
498.85	36891.52
499.03	36889.18
499.20	37277.71
499.38	37188.77
499.56	37373.67
499.73	37893.27
499.91	37820.72
500.08	37965.83
500.26	37420.48
500.44	37965.83
500.61	37923.70
500.79	38146.05
500.97	38419.89
501.14	38946.51
501.32	38815.44
501.49	39112.69
501.67	38946.51
501.84	39573.78
502.02	39405.26
502.20	39093.97
502.37	39536.33
502.55	39452.07
502.72	39524.63
502.90	39948.26
503.07	40058.27
503.25	40062.95
503.43	40460.84
503.60	40390.62
503.78	40458.50
503.95	40308.71
504.13	40753.41
504.30	40863.41
504.48	40758.09
504.65	40531.06
504.83	41558.55
505.01	41434.50
505.18	41375.99
505.36	42089.85
505.53	41116.19
505.71	41570.25
505.88	42017.30
506.06	42284.12
506.23	42071.13
506.41	42593.07
506.58	42515.83
506.76	42693.71
506.93	43072.88
507.11	42738.18
507.28	42934.79
507.46	43009.68
507.63	43503.54
507.81	43501.20
507.98	43239.06
508.16	43423.96
508.33	43438.00
508.50	43847.60
508.68	43892.07
508.85	44191.65
509.03	44446.77
509.20	44271.23
509.38	45064.67
509.55	44542.74
509.73	44648.06
509.90	44828.28
510.08	45067.02
510.25	44896.16
510.42	45020.20
510.60	45521.08
510.77	45537.46
510.95	45773.86
511.12	45275.32
511.30	45476.61
511.47	45771.52
511.64	45404.05
511.82	46019.61
511.99	46073.45
512.17	46358.99
512.34	46543.89
512.51	46637.51
512.69	46471.34
512.86	46927.74
513.04	47337.33
513.21	47344.36
513.38	47014.34
513.56	47276.48
513.73	47091.58
513.90	47000.30
514.08	47304.57
514.25	47800.76
514.43	47782.04
514.60	47973.96
514.77	47735.23
514.95	47941.19
515.12	48224.40
515.29	48119.07
515.47	48477.18
515.64	48294.61
515.81	48289.93
515.99	48538.03
516.16	48711.23
516.33	48664.42
516.51	49041.24
516.68	49013.16
516.85	49228.49
517.03	49146.57
517.20	49450.84
517.37	49146.57
517.54	49612.34
517.72	49282.32
517.89	49399.35
518.06	49537.44
518.24	49804.26
518.41	49600.63
518.58	49663.83
518.75	49418.07
518.93	49762.13
519.10	49844.05
519.27	50000.86
519.45	50218.53
519.62	49970.44
519.79	50522.80
519.96	50265.34
520.14	50665.58
520.31	50520.46
520.48	50623.45
520.65	50791.97
520.83	50920.70
521.00	51227.31
521.17	51105.60
521.34	50925.38
521.52	51079.85
521.69	51035.38
521.86	51552.64
522.03	51334.97
522.20	51664.99
522.38	51856.91
522.55	51767.97
522.72	51835.84
522.89	51627.54
523.07	51999.68
523.24	51758.61
523.41	52247.78
523.58	51908.40
523.75	52301.61
523.92	51929.47
524.10	52425.66
524.27	52383.53
524.44	52425.66
524.61	52322.68
524.78	52460.77
524.96	52666.73
525.13	52526.30
525.30	52825.89
525.47	52758.02
525.64	52952.28
525.81	52786.10
525.98	52758.02
526.16	53139.52
526.33	53097.39
526.50	53181.65
526.67	52992.07
526.84	53212.08
527.01	53008.45
527.18	52978.03
527.36	53102.07
527.53	53202.72
527.70	53727.00
527.87	53759.76
528.04	53457.84
528.21	53626.35
528.38	53429.75
528.55	53750.40
528.72	53537.41
528.89	53815.94
529.07	53717.64
529.24	53680.19
529.41	54124.89
529.58	54087.44
529.75	53825.30
529.92	54185.74
530.09	53832.32
530.26	54096.80
530.43	54295.75
530.60	54162.34
530.77	53989.14
530.94	54099.14
531.11	54199.79
531.28	54106.16
531.46	54555.55
531.63	54408.09
531.80	54419.80
531.97	54749.81
532.14	54717.04
532.31	54536.82
532.48	55077.49
532.65	54745.13
532.82	54808.32
532.99	55173.45
533.16	54883.22
533.33	55086.85
533.50	55302.18
533.67	55442.61
533.84	55187.49
534.01	55194.51
534.18	55253.03
534.35	55484.74
534.52	55365.37
534.69	55601.77
534.86	55552.62
535.03	55288.13
535.20	55503.46
535.37	55681.34
535.54	55536.23
535.71	55447.29
535.88	55695.39
536.05	55749.22
536.22	55798.37
536.38	55880.29
536.55	55882.63
536.72	55868.59
536.89	55938.80
537.06	55866.25
537.23	55950.51
537.40	55847.52
537.57	56093.28
537.74	56065.19
537.91	56076.90
538.08	56184.56
538.25	55718.79
538.42	56112.00
538.59	56561.39
538.75	56271.16
538.92	56299.25
539.09	56591.81
539.26	56229.03
539.43	56652.67
539.60	56392.87
539.77	56411.59
539.94	56463.08
540.11	56748.63
540.28	56769.69
540.44	56839.91
540.61	56919.49
540.78	56470.11
540.95	56694.80
541.12	56629.26
541.29	56589.47
541.46	56772.03
541.62	56767.35
541.79	56736.93
541.96	56662.03
542.13	56753.31
542.30	56931.19
542.47	56793.10
542.63	56917.15
542.80	57151.20
542.97	57368.87
543.14	57694.21
543.31	57485.90
543.48	57261.21
543.64	57525.69
543.81	57605.26
543.98	57413.34
544.15	57640.37
544.32	57588.88
544.48	57570.16
544.65	57535.05
544.82	57846.34
544.99	57418.02
545.16	57726.97
545.32	57588.88
545.49	57844.00
545.66	58033.58
545.83	57846.34
546.00	58026.56
546.16	57865.06
546.33	57778.46
546.50	57822.93
546.67	57975.07
546.83	57762.08
547.00	57954.00
547.17	58052.31
547.34	58033.58
547.50	58019.54
547.67	58417.43
547.84	58326.15
548.00	58291.04
548.17	58515.73
548.34	58403.39
548.51	58417.43
548.67	58342.53
548.84	58412.75
549.01	58513.39
549.18	58314.45
549.34	58454.88
549.51	58443.18
549.68	58550.84
549.84	58508.71
550.01	58658.51
550.18	58590.63
550.34	58820.00
550.51	58770.85
550.68	58571.91
550.84	58426.79
551.01	58635.10
551.18	58761.49
551.34	58976.82
551.51	58962.78
551.68	58749.79
551.84	58780.21
552.01	58855.11
552.18	58700.64
552.34	58361.26
552.51	58958.09
552.68	58955.75
552.84	58742.77
553.01	59168.74
553.18	59018.95
553.34	59187.47
553.51	59028.31
553.67	58990.86
553.84	59128.95
554.01	59171.08
554.17	59061.08
554.34	59091.51
554.51	59103.21
554.67	59264.70
554.84	59224.92
555.00	59236.62
555.17	59250.66
555.33	59323.22
555.50	59269.39
555.67	59222.58
555.83	59222.58
556.00	59332.58
556.16	59566.63
556.33	59451.95
556.50	59334.92
556.66	59793.67
556.83	59449.61
556.99	59655.57
557.16	59463.65
557.32	59583.02
557.49	59901.33
557.65	59419.18
557.82	59636.85
557.98	59599.40
558.15	59718.77
558.32	59765.58
558.48	59622.81
558.65	59798.35
558.81	59744.51
558.98	59798.35
559.14	59767.92
559.31	59742.17
559.47	59632.17
559.64	59845.16
559.80	59849.84
559.97	60009.00
560.13	59856.86
560.30	59971.55
560.46	59971.55
560.63	60093.25
560.79	59943.46
560.96	60121.34
561.12	59898.99
561.29	60133.04
561.45	60158.79
561.61	59889.63
561.78	60111.98
561.94	59863.88
562.11	59880.27
562.27	60154.11
562.44	60250.07
562.60	60116.66
562.77	60130.70
562.93	60111.98
563.10	60210.28
563.26	59898.99
563.42	60449.02
563.59	60275.82
563.75	60245.39
563.92	60193.90
564.08	60147.09
564.24	60397.52
564.41	60292.20
564.57	60493.49
564.74	60399.86
564.90	60247.73
565.07	60329.65
565.23	60205.60
565.39	60308.58
565.56	60320.29
565.72	60376.46
565.88	60378.80
566.05	60259.43
566.21	60243.05
566.38	60444.33
566.54	60310.92
566.70	60500.51
566.87	60657.32
567.03	60416.25
567.19	60631.58
567.36	60601.15
567.52	60580.09
567.68	60687.75
567.85	60608.17
568.01	60793.07
568.17	60575.40
568.34	60488.80
568.50	60575.40
568.66	60498.17
568.83	60622.22
568.99	60594.13
569.15	60671.37
569.32	60568.38
569.48	60769.67
569.64	60671.37
569.81	60402.21
569.97	60603.49
570.13	60872.65
570.30	60598.81
570.46	60856.27
570.62	60769.67
570.78	60882.02
570.95	60594.13
571.11	60776.69
571.27	60757.97
571.43	60877.33
571.60	61006.06
571.76	60837.54
571.92	60849.25
572.09	60708.82
572.25	60872.65
572.41	60666.69
572.57	60940.53
572.74	60933.51
572.90	60727.54
573.06	60992.02
573.22	60882.02
573.38	60832.86
573.55	60867.97
573.71	61127.77
573.87	60963.93
574.03	60853.93
574.20	60982.66
574.36	60818.82
574.52	60788.39
574.68	60828.18
574.84	61036.49
575.01	60912.44
575.17	60931.17
575.33	60856.27
575.49	60832.86
575.65	60954.57
575.82	61055.21
575.98	60959.25
576.14	60975.64
576.30	61116.07
576.46	60903.08
576.62	61048.19
576.79	60952.23
576.95	60774.35
577.11	61186.28
577.27	61099.68
577.43	60926.49
577.59	60860.95
577.75	60921.80
577.92	61022.45
578.08	61057.56
578.24	61020.11
578.40	61118.41
578.56	61338.42
578.72	60952.23
578.88	61312.67
579.04	61172.24
579.21	61158.20
579.37	61069.26
579.53	61296.29
579.69	61137.13
579.85	60926.49
580.01	61272.88
580.17	61034.15
580.33	61015.43
580.49	61120.75
580.65	61207.35
580.82	61020.11
580.98	60994.36
581.14	60963.93
581.30	61169.90
581.46	60970.96
581.62	61195.65
581.78	61118.41
581.94	61031.81
582.10	61169.90
582.26	61186.28
582.42	61137.13
582.58	61272.88
582.74	61172.24
582.90	61132.45
583.06	61216.71
583.22	61017.77
583.38	61300.97
583.54	61247.14
583.70	61272.88
583.86	61401.61
584.02	61015.43
584.18	61364.17
584.34	61165.22
584.50	60968.61
584.66	61059.90
584.82	61078.62
584.98	61357.14
585.14	61347.78
585.30	61031.81
585.46	61176.92
585.62	61300.97
585.78	61270.54
585.94	61104.37
586.10	61116.07
586.26	61183.94
586.42	61186.28
586.58	61471.83
586.74	61315.01
586.90	60996.70
587.06	61113.73
587.22	61528.00
587.38	61436.72
587.54	61333.74
587.70	61352.46
587.86	61375.87
588.02	61326.72
588.18	61506.94
588.34	61169.90
588.49	61214.37
