SpectraSuite Data File
++++++++++++++++++++++++++++++++++++
Date: Fri Oct 25 11:23:44 EDT 2013
User: price-jones
Dark Spectrum Present: No
Reference Spectrum Present: No
Number of Sampled Component Spectra: 1
Spectrometers: USB2+H05261
Integration Time (usec): 100000 (USB2+H05261)
Spectra Averaged: 1 (USB2+H05261)
Boxcar Smoothing: 0 (USB2+H05261)
Correct for Electrical Dark: No (USB2+H05261)
Strobe/Lamp Enabled: No (USB2+H05261)
Correct for Detector Non-linearity: No (USB2+H05261)
Correct for Stray Light: No (USB2+H05261)
Number of Pixels in Processed Spectrum: 2048
>>>>>Begin Processed Spectral Data<<<<<
365.73	184.90
365.92	184.90
366.12	184.90
366.32	105.32
366.52	88.94
366.72	140.43
366.91	205.97
367.11	156.82
367.31	140.43
367.51	84.26
367.70	107.66
367.90	95.96
368.10	28.09
368.30	107.66
368.49	119.37
368.69	156.82
368.89	126.39
369.09	98.30
369.28	175.54
369.48	173.20
369.68	161.50
369.87	222.35
370.07	217.67
370.27	273.84
370.47	327.68
370.66	533.64
370.86	571.09
371.06	634.29
371.25	657.69
371.45	627.26
371.65	706.84
371.84	706.84
372.04	674.07
372.24	718.54
372.44	681.10
372.63	727.91
372.83	692.80
373.03	748.97
373.22	781.74
373.42	779.40
373.62	739.61
373.81	791.10
374.01	767.70
374.21	814.51
374.40	819.19
374.60	774.72
374.79	861.32
374.99	823.87
375.19	844.93
375.38	880.04
375.58	875.36
375.78	863.66
375.97	922.17
376.17	880.04
376.37	851.96
376.56	870.68
376.76	917.49
376.95	851.96
377.15	896.43
377.35	938.55
377.54	922.17
377.74	922.17
377.93	821.53
378.13	1029.84
378.33	940.90
378.52	856.64
378.72	901.11
378.91	933.87
379.11	882.38
379.31	987.71
379.50	936.21
379.70	1001.75
379.89	1022.81
380.09	938.55
380.28	896.43
380.48	1015.79
380.68	1039.20
380.87	1001.75
381.07	992.39
381.26	1074.31
381.46	983.02
381.65	1004.09
381.85	968.98
382.04	1062.60
382.24	1128.14
382.43	1032.18
382.63	971.32
382.83	1055.58
383.02	1139.84
383.22	1107.07
383.41	1048.56
383.61	1135.16
383.80	1160.91
384.00	1128.14
384.19	1177.29
384.39	1139.84
384.58	1219.42
384.78	1228.78
384.97	1228.78
385.17	1132.82
385.36	1181.97
385.56	1188.99
385.75	1221.76
385.95	1254.53
386.14	1238.14
386.34	1144.52
386.53	1299.00
386.72	1163.25
386.92	1193.67
387.11	1247.51
387.31	1299.00
387.50	1214.74
387.70	1280.27
387.89	1256.87
388.09	1235.80
388.28	1336.45
388.48	1214.74
388.67	1315.38
388.86	1334.11
389.06	1352.83
389.25	1345.81
389.45	1256.87
389.64	1320.06
389.84	1373.89
390.03	1418.36
390.22	1338.79
390.42	1287.29
390.61	1383.26
390.81	1366.87
391.00	1392.62
391.19	1519.01
391.39	1474.54
391.58	1462.83
391.78	1409.00
391.97	1434.75
392.16	1582.20
392.36	1511.99
392.55	1603.27
392.75	1511.99
392.94	1483.90
393.13	1483.90
393.33	1453.47
393.52	1589.22
393.71	1528.37
393.91	1570.50
394.10	1633.69
394.29	1537.73
394.49	1631.35
394.68	1617.31
394.88	1643.06
395.07	1636.03
395.26	1776.47
395.46	1713.27
395.65	1753.06
395.84	1696.89
396.04	1753.06
396.23	1809.23
396.42	1795.19
396.62	1760.08
396.81	1720.29
397.00	1774.13
397.19	1778.81
397.39	1802.21
397.58	1837.32
397.77	1668.80
397.97	1898.17
398.16	1928.60
398.35	1959.03
398.55	1811.57
398.74	1909.88
398.93	1884.13
399.12	1916.90
399.32	1898.17
399.51	1949.67
399.70	1982.43
399.90	1956.69
400.09	1930.94
400.28	2080.74
400.47	2047.97
400.67	2057.33
400.86	2118.18
401.05	2118.18
401.24	2026.90
401.44	2136.91
401.63	2106.48
401.82	2146.27
402.01	2052.65
402.21	2054.99
402.40	2127.55
402.59	2169.68
402.78	2256.28
402.97	2207.13
403.17	2263.30
403.36	2279.68
403.55	2319.47
403.74	2303.09
403.93	2408.41
404.13	2317.13
404.32	2431.82
404.51	2326.49
404.70	2389.69
404.89	2314.79
405.09	2635.44
405.28	2495.01
405.47	2502.03
405.66	2499.69
405.85	2450.54
406.05	2478.63
406.24	2546.50
406.43	2530.12
406.62	2623.74
406.81	2712.68
407.00	2593.31
407.20	2619.06
407.39	2537.14
407.58	2658.85
407.77	2796.94
407.96	2726.72
408.15	2782.90
408.34	2712.68
408.54	2794.60
408.73	2738.43
408.92	2820.35
409.11	2820.35
409.30	2820.35
409.49	2892.90
409.68	2857.79
409.87	2988.86
410.07	2977.16
410.26	2972.48
410.45	3061.42
410.64	3061.42
410.83	3129.30
411.02	3047.38
411.21	3087.17
411.40	3218.24
411.59	3215.90
411.78	3197.17
411.98	3232.28
412.17	3377.39
412.36	3241.64
412.55	3276.75
412.74	3449.95
412.93	3358.67
413.12	3510.80
413.31	3590.38
413.50	3426.54
413.69	3576.34
413.88	3660.60
414.07	3508.46
414.26	3562.30
414.45	3660.60
414.64	3651.24
414.83	3819.75
415.02	3852.52
415.22	3801.03
415.41	3805.71
415.60	3852.52
415.79	3756.56
415.98	3978.91
416.17	3906.35
416.36	3953.16
416.55	4077.21
416.74	4021.04
416.93	4007.00
417.12	4212.96
417.31	4222.33
417.50	4163.81
417.69	4222.33
417.88	4219.99
418.07	4177.86
418.26	4283.18
418.45	4348.72
418.64	4524.26
418.83	4339.35
419.02	4362.76
419.21	4372.12
419.39	4601.49
419.58	4351.06
419.77	4507.87
419.96	4542.98
420.15	4601.49
420.34	4582.77
420.53	4617.88
420.72	4676.39
420.91	4716.18
421.10	4753.63
421.29	4734.90
421.48	4585.11
421.67	4873.00
421.86	4638.94
422.05	4898.74
422.24	4947.89
422.43	4964.28
422.61	4851.93
422.80	4999.38
422.99	5032.15
423.18	4966.62
423.37	5036.83
423.56	4943.21
423.75	5170.24
423.94	4772.35
424.13	4692.77
424.32	4723.20
424.50	5067.26
424.69	5158.54
424.88	5128.11
425.07	4968.96
425.26	4884.70
425.45	5041.51
425.64	4887.04
425.83	4971.30
426.01	5062.58
426.20	5006.41
426.39	4975.98
426.58	5001.72
426.77	5118.75
426.96	5041.51
427.15	5116.41
427.33	5296.63
427.52	5203.01
427.71	5425.36
427.90	5352.81
428.09	5350.46
428.28	5390.25
428.46	5378.55
428.65	5488.56
428.84	5420.68
429.03	5643.03
429.22	5420.68
429.40	5586.86
429.59	5549.41
429.78	5369.19
429.97	5317.70
430.16	5509.62
430.34	5734.31
430.53	5678.14
430.72	5692.18
430.91	5570.48
431.10	5547.07
431.28	5746.02
431.47	5811.55
431.66	5916.87
431.85	5783.46
432.03	5849.00
432.22	5956.66
432.41	5944.96
432.60	5935.60
432.79	6099.44
432.97	5989.43
433.16	6129.86
433.35	6024.54
433.54	6134.54
433.72	6118.16
433.91	6125.18
434.10	6190.72
434.28	6186.04
434.47	6176.67
434.66	6359.24
434.85	6359.24
435.03	6408.39
435.22	6127.52
435.41	6499.67
435.59	6417.75
435.78	6455.20
435.97	6663.51
436.16	6560.52
436.34	6424.77
436.53	6579.25
436.72	6715.00
436.90	6424.77
437.09	6672.87
437.28	6462.22
437.46	6546.48
437.65	6665.85
437.84	6679.89
438.02	6754.79
438.21	6684.57
438.40	6773.51
438.58	7068.42
438.77	6904.58
438.96	6993.52
439.14	6993.52
439.33	7176.08
439.52	7131.61
439.70	7227.57
439.89	7363.33
440.08	7419.50
440.26	7253.32
440.45	7391.41
440.63	7421.84
440.82	7529.50
441.01	7588.02
441.19	7606.74
441.38	7651.21
441.57	7812.71
441.75	7964.84
441.94	8032.72
442.12	8049.10
442.31	8100.59
442.50	8077.19
442.68	7934.42
442.87	8081.87
443.05	8011.65
443.24	8339.33
443.43	8215.28
443.61	8285.50
443.80	8547.64
443.98	7971.86
444.17	7831.43
444.35	8074.85
444.54	8369.76
444.73	8435.29
444.91	8439.97
445.10	8383.80
445.28	8285.50
445.47	8407.20
445.65	8283.16
445.84	8421.25
446.02	8468.06
446.21	8496.14
446.39	8400.18
446.58	8688.07
446.77	8376.78
446.95	8306.56
447.14	8552.32
447.32	8552.32
447.51	8676.37
447.69	8535.93
447.88	8634.24
448.06	8613.17
448.25	8755.94
448.43	8526.57
448.62	8542.96
448.80	8477.42
448.99	8667.00
449.17	8798.07
449.36	8718.50
449.54	9050.85
449.73	9020.42
449.91	9043.83
450.10	8936.17
450.28	9294.27
450.46	9083.62
450.65	9116.39
450.83	9085.96
451.02	9142.13
451.20	9312.99
451.39	8992.34
451.57	9310.65
451.76	9128.09
451.94	9027.45
452.13	9355.12
452.31	9284.91
452.49	9163.20
452.68	9348.10
452.86	9128.09
453.05	9317.67
453.23	9542.36
453.42	9254.48
453.60	9423.00
453.78	9502.58
453.97	9453.42
454.15	9593.86
454.34	9490.87
454.52	9750.67
454.70	9575.13
454.89	9762.37
455.07	9827.91
455.26	9895.78
455.44	10136.86
455.62	9816.21
455.81	10012.81
455.99	9951.96
456.17	10331.12
456.36	9923.87
456.54	10068.98
456.73	10078.35
456.91	10635.39
457.09	10377.94
457.28	10569.86
457.46	10401.34
457.64	10567.52
457.83	10441.13
458.01	10530.07
458.19	10717.31
458.38	10422.41
458.56	10747.74
458.74	10626.03
458.93	10822.64
459.11	10796.89
459.29	10972.43
459.48	10939.66
459.66	10979.45
459.84	10963.07
460.03	11211.17
460.21	11089.46
460.39	10942.00
460.57	11016.90
460.76	11243.93
460.94	11253.30
461.12	11351.60
461.31	11307.13
461.49	11136.27
461.67	11131.59
461.85	11529.48
462.04	11269.68
462.22	11527.14
462.40	11660.55
462.59	11529.48
462.77	11587.99
462.95	11592.67
463.13	11808.00
463.32	11910.99
463.50	11864.18
463.68	11943.75
463.86	11859.49
464.05	11770.55
464.23	11690.98
464.41	12077.16
464.59	11744.81
464.78	12358.03
464.96	12126.32
465.14	11946.09
465.32	11978.86
465.50	12233.98
465.69	12320.58
465.87	12306.54
466.05	12294.83
466.23	12229.30
466.41	12367.39
466.60	12643.57
466.78	12297.17
466.96	12098.23
467.14	12301.86
467.32	12496.12
467.51	12449.31
467.69	12458.67
467.87	12547.61
468.05	12814.43
468.23	12465.69
468.41	12451.65
468.60	12587.40
468.78	12709.11
468.96	12685.70
469.14	12879.97
469.32	12856.56
469.50	12631.87
469.69	13195.94
469.87	13132.75
470.05	13200.62
470.23	13341.05
470.41	13181.90
470.59	13561.06
470.77	13380.84
470.95	13411.27
471.14	13481.49
471.32	13380.84
471.50	13504.89
471.68	13591.49
471.86	13591.49
472.04	13668.73
472.22	13926.19
472.40	13774.05
472.58	14043.21
472.77	14223.44
472.95	14092.37
473.13	14911.55
473.31	14078.32
473.49	14141.52
473.67	14303.01
473.85	14310.04
474.03	14478.55
474.21	14682.18
474.39	14831.97
474.57	14824.95
474.75	15080.07
474.93	15185.40
475.12	14977.09
475.30	15503.71
475.48	15103.48
475.66	15199.44
475.84	15321.15
476.02	15562.22
476.20	15391.36
476.38	15782.23
476.56	16009.26
476.74	15772.87
476.92	16037.35
477.10	16280.77
477.28	16109.91
477.46	16496.10
477.64	16432.90
477.82	16456.31
478.00	16821.43
478.18	16697.38
478.36	16938.46
478.54	17062.51
478.72	17029.74
478.90	17575.08
479.08	17603.17
479.26	17710.83
479.44	18029.15
479.62	17888.71
479.80	18092.34
479.98	17998.72
480.16	18785.14
480.34	18391.93
480.52	18773.44
480.70	18523.00
480.88	18298.31
481.06	18958.34
481.24	18925.57
481.41	19070.68
481.59	19503.68
481.77	19426.45
481.95	19789.23
482.13	20121.59
482.31	19768.16
482.49	20292.44
482.67	20301.81
482.85	20692.68
483.03	20919.71
483.21	20961.84
483.39	20870.56
483.57	20730.12
483.74	21469.73
483.92	21439.31
484.10	21570.38
484.28	21926.14
484.46	22438.72
484.64	22586.17
484.82	22003.38
485.00	22368.50
485.18	22441.06
485.35	23136.20
485.53	22852.99
485.71	22991.08
485.89	23447.49
486.07	23426.42
486.25	23323.44
486.43	23618.35
486.61	23826.65
486.78	24599.03
486.96	24489.03
487.14	24723.08
487.32	24830.74
487.50	25167.78
487.68	24982.88
487.85	25364.39
488.03	25909.73
488.21	26017.40
488.39	26129.74
488.57	26188.25
488.75	26473.80
488.92	26712.53
489.10	26841.26
489.28	26925.52
489.46	27339.80
489.64	27227.45
489.81	28056.00
489.99	28041.96
490.17	28041.96
490.35	28610.71
490.53	28187.07
490.70	28390.70
490.88	28409.42
491.06	28821.36
491.24	29085.84
491.41	28985.19
491.59	29142.01
491.77	29350.32
491.95	29694.38
492.13	29677.99
492.30	30068.86
492.48	30092.27
492.66	30286.53
492.84	30373.13
493.01	30717.19
493.19	30871.67
493.37	31299.98
493.54	31126.78
493.72	31669.79
493.90	31482.55
494.08	31964.70
494.25	32086.40
494.43	32222.16
494.61	32250.24
494.79	33053.05
494.96	32818.99
495.14	33383.06
495.32	32987.51
495.49	33263.69
495.67	33626.48
495.85	33329.23
496.02	34143.74
496.20	34185.86
496.38	34366.09
496.55	34244.38
496.73	35105.70
496.91	35058.88
497.09	35000.37
497.26	35372.52
497.44	34742.91
497.62	35447.41
497.79	36287.67
497.97	35576.14
498.14	36161.28
498.32	36353.20
498.50	36531.08
498.67	36727.69
498.85	36680.88
499.03	36966.42
499.20	36720.66
499.38	37174.73
499.56	37254.31
499.73	37441.55
499.91	37897.95
500.08	37855.82
500.26	37661.56
500.44	37565.60
500.61	38298.19
500.79	37675.60
500.97	38185.84
501.14	38728.84
501.32	38639.90
501.49	38878.64
501.67	39321.00
501.84	39206.31
502.02	38780.34
502.20	39512.92
502.37	39985.71
502.55	39356.11
502.72	39786.77
502.90	39948.26
503.07	39482.50
503.25	40058.27
503.43	39990.39
503.60	40580.21
503.78	40212.74
503.95	40112.10
504.13	40306.37
504.30	40659.79
504.48	40933.63
504.65	40935.97
504.83	41375.99
505.01	41596.00
505.18	41001.50
505.36	41862.82
505.53	41764.52
505.71	41778.56
505.88	41504.72
506.06	41565.57
506.23	42326.25
506.41	41881.55
506.58	42045.38
506.76	42445.62
506.93	42670.31
507.11	42249.01
507.28	43395.87
507.46	43089.26
507.63	43445.02
507.81	43927.17
507.98	42948.83
508.16	43618.22
508.33	43786.74
508.50	43639.29
508.68	43653.33
508.85	43882.70
509.03	44285.28
509.20	44048.88
509.38	44425.71
509.55	44725.30
509.73	44577.84
509.90	44734.66
510.08	44884.45
510.25	44945.31
510.42	44961.69
510.60	45221.49
510.77	45275.32
510.95	45666.19
511.12	45294.05
511.30	45322.13
511.47	45432.14
511.64	45982.16
511.82	45996.21
511.99	46021.95
512.17	46323.88
512.34	46050.04
512.51	46595.38
512.69	46555.60
512.86	46258.35
513.04	46969.87
513.21	46518.15
513.38	47199.24
513.56	46955.83
513.73	47154.77
513.90	47363.08
514.08	46930.08
514.25	47398.19
514.43	47452.02
514.60	47445.00
514.77	47643.94
514.95	47856.93
515.12	47629.90
515.29	47803.10
515.47	47739.91
515.64	48479.52
515.81	48355.47
515.99	48662.08
516.16	48388.24
516.33	48516.96
516.51	48903.15
516.68	48767.40
516.85	48694.85
517.03	48956.99
517.20	48980.39
517.37	48802.51
517.54	48896.13
517.72	49329.13
517.89	49010.82
518.06	49457.86
518.24	49450.84
518.41	49958.73
518.58	49588.93
518.75	49385.30
518.93	49687.23
519.10	49691.91
519.27	49900.22
519.45	50335.56
519.62	50525.14
519.79	50064.06
519.96	50122.57
520.14	50335.56
520.31	50314.50
520.48	50241.94
520.65	50562.59
520.83	50932.40
521.00	51140.71
521.17	50726.43
521.34	50880.91
521.52	50714.73
521.69	51229.65
521.86	51068.15
522.03	51292.84
522.20	51196.88
522.38	51831.16
522.55	51171.13
522.72	52013.73
522.89	51325.61
523.07	52198.63
523.24	51763.29
523.41	52011.38
523.58	51803.08
523.75	51990.32
523.92	51800.74
524.10	52458.43
524.27	52584.82
524.44	52161.18
524.61	52538.01
524.78	52624.60
524.96	52364.81
525.13	52491.19
525.30	52479.49
525.47	53001.43
525.64	52645.67
525.81	52650.35
525.98	52830.57
526.16	52772.06
526.33	52837.59
526.50	53048.24
526.67	52832.91
526.84	53069.31
527.01	53155.91
527.18	52963.98
527.36	53097.39
527.53	53022.50
527.70	53588.91
527.87	53521.03
528.04	53366.55
528.21	53483.58
528.38	53483.58
528.55	53890.83
528.72	53139.52
528.89	53354.85
529.07	53219.10
529.24	53738.70
529.41	53755.08
529.58	53626.35
529.75	53979.78
529.92	54129.57
530.09	54143.61
530.26	53954.03
530.43	54108.50
530.60	53879.13
530.77	53958.71
530.94	54288.73
531.11	54347.24
531.28	54403.41
531.46	54398.73
531.63	54454.90
531.80	54506.40
531.97	54370.64
532.14	54588.31
532.31	54312.13
532.48	54813.01
532.65	54438.52
532.82	54480.65
532.99	54850.45
533.16	54780.24
533.33	54962.80
533.50	55220.26
533.67	55025.99
533.84	54897.27
534.01	54955.78
534.18	55217.92
534.35	55379.42
534.52	55302.18
534.69	55138.34
534.86	55325.58
535.03	55374.73
535.20	55341.97
535.37	55531.55
535.54	55749.22
535.71	55351.33
535.88	55587.72
536.05	55564.32
536.22	55819.44
536.38	55702.41
536.55	55859.23
536.72	55896.67
536.89	55639.22
537.06	55526.87
537.23	55784.33
537.40	55683.69
537.57	55707.09
537.74	56023.06
537.91	56083.92
538.08	55985.61
538.25	55952.85
538.42	56196.26
538.59	56179.88
538.75	55922.42
538.92	56154.13
539.09	56427.98
539.26	56638.62
539.43	56273.50
539.60	56353.08
539.77	56317.97
539.94	56683.09
540.11	56453.72
540.28	56556.70
540.44	56498.19
540.61	56420.95
540.78	56460.74
540.95	56615.22
541.12	56385.85
541.29	56582.45
541.46	56463.08
541.62	56626.92
541.79	56718.20
541.96	56453.72
542.13	56708.84
542.30	56783.74
542.47	56858.63
542.63	56837.57
542.80	56952.26
542.97	57305.68
543.14	57326.74
543.31	57298.65
543.48	57331.42
543.64	57371.21
543.81	57640.37
543.98	57490.58
544.15	57202.69
544.32	57579.52
544.48	57724.63
544.65	57272.91
544.82	57418.02
544.99	57448.45
545.16	57708.25
545.32	57546.75
545.49	57689.52
545.66	57862.72
545.83	57848.68
546.00	57750.38
546.16	57949.32
546.33	57579.52
546.50	57799.53
546.67	57687.18
546.83	57743.36
547.00	57979.75
547.17	57748.04
547.34	57853.36
547.50	58136.57
547.67	58272.32
547.84	58061.67
548.00	58401.05
548.17	58438.50
548.34	58323.81
548.51	58333.17
548.67	58375.30
548.84	58298.06
549.01	58295.72
549.18	58269.98
549.34	58307.43
549.51	58557.86
549.68	58571.91
549.84	58607.01
550.01	58443.18
550.18	58518.07
550.34	58614.04
550.51	58695.95
550.68	58543.82
550.84	58431.47
551.01	58773.19
551.18	58513.39
551.34	58578.93
551.51	58822.34
551.68	58805.96
551.84	58658.51
552.01	58492.33
552.18	58876.18
552.34	58616.38
552.51	58679.57
552.68	58590.63
552.84	58646.80
553.01	59208.53
553.18	58810.64
553.34	58941.71
553.51	58901.92
553.67	58885.54
553.84	59021.29
554.01	59058.74
554.17	59171.08
554.34	59173.42
554.51	59178.10
554.67	59236.62
554.84	59135.98
555.00	59365.35
555.17	59206.19
555.33	59243.64
555.50	58995.54
555.67	59241.30
555.83	59276.41
556.00	59222.58
556.16	59428.54
556.33	59435.56
556.50	59379.39
556.66	59573.66
556.83	59196.83
556.99	59688.34
557.16	59430.88
557.32	59625.15
557.49	59477.69
557.65	59222.58
557.82	59400.46
557.98	59433.22
558.15	59601.74
558.32	59611.10
558.48	59613.44
558.65	59671.96
558.81	59519.82
558.98	59800.69
559.14	59875.58
559.31	59522.16
559.47	59861.54
559.64	59739.83
559.80	60025.38
559.97	59987.93
560.13	59774.94
560.30	59906.01
560.46	59973.89
560.63	59796.01
560.79	60069.85
560.96	60060.49
561.12	59831.11
561.29	59962.18
561.45	60086.23
561.61	59868.56
561.78	59973.89
561.94	59866.22
562.11	59798.35
562.27	59971.55
562.44	60030.06
562.60	60032.40
562.77	60013.68
562.93	59863.88
563.10	60203.26
563.26	59913.03
563.42	60395.18
563.59	60083.89
563.75	60095.60
563.92	60097.94
564.08	60224.32
564.24	60364.76
564.41	60191.56
564.57	60275.82
564.74	60411.57
564.90	60296.88
565.07	60271.14
565.23	60236.03
565.39	60212.62
565.56	60266.45
565.72	60191.56
565.88	60142.41
566.05	60116.66
566.21	60238.37
566.38	60339.01
566.54	60315.61
566.70	60484.12
566.87	60657.32
567.03	60207.94
567.19	60577.75
567.36	60395.18
567.52	60296.88
567.68	60687.75
567.85	60580.09
568.01	60399.86
568.17	60512.21
568.34	60664.35
568.50	60598.81
568.66	60315.61
568.83	60549.66
568.99	60561.36
569.15	60488.80
569.32	60526.25
569.48	60411.57
569.64	60879.67
569.81	60556.68
569.97	60498.17
570.13	60608.17
570.30	60498.17
570.46	60608.17
570.62	60566.04
570.78	60633.92
570.95	60631.58
571.11	60706.47
571.27	60542.64
571.43	60678.39
571.60	60622.22
571.76	60671.37
571.92	60764.99
572.09	60776.69
572.25	60910.10
572.41	60640.94
572.57	60734.56
572.74	60856.27
572.90	60629.24
573.06	60748.60
573.22	60795.42
573.38	60860.95
573.55	60669.03
573.71	60725.20
573.87	60741.58
574.03	60580.09
574.20	60949.89
574.36	60580.09
574.52	60928.83
574.68	60811.80
574.84	61010.74
575.01	60746.26
575.17	60774.35
575.33	60858.61
575.49	60783.71
575.65	60849.25
575.82	60760.31
575.98	60879.67
576.14	61038.83
576.30	61076.28
576.46	60910.10
576.62	60935.85
576.79	61020.11
576.95	60755.63
577.11	60877.33
577.27	61116.07
577.43	60896.06
577.59	60954.57
577.75	60767.33
577.92	60816.48
578.08	61076.28
578.24	60980.32
578.40	61169.90
578.56	61118.41
578.72	61085.64
578.88	60992.02
579.04	61137.13
579.21	60914.78
579.37	61027.13
579.53	61214.37
579.69	60900.74
579.85	60816.48
580.01	60959.25
580.17	61001.38
580.33	61099.68
580.49	61188.63
580.65	61095.00
580.82	61205.01
580.98	60963.93
581.14	60893.72
581.30	60924.14
581.46	60935.85
581.62	61179.26
581.78	60966.27
581.94	60994.36
582.10	61134.79
582.26	60966.27
582.42	61041.17
582.58	60858.61
582.74	61104.37
582.90	61048.19
583.06	61137.13
583.22	60924.14
583.38	61036.49
583.54	61006.06
583.70	61017.77
583.86	61186.28
584.02	60921.80
584.18	61137.13
584.34	61043.51
584.50	60977.98
584.66	61043.51
584.82	61041.17
584.98	61127.77
585.14	61132.45
585.30	61024.79
585.46	61085.64
585.62	61127.77
585.78	61125.43
585.94	61078.62
586.10	61289.27
586.26	61179.26
586.42	61244.80
586.58	61268.20
586.74	61317.35
586.90	61123.09
587.06	61132.45
587.22	61268.20
587.38	61141.81
587.54	61338.42
587.70	61481.19
587.86	61303.31
588.02	61104.37
588.18	61268.20
588.34	61228.41
588.49	61027.13
