SpectraSuite Data File
++++++++++++++++++++++++++++++++++++
Date: Fri Oct 25 11:23:23 EDT 2013
User: price-jones
Dark Spectrum Present: No
Reference Spectrum Present: No
Number of Sampled Component Spectra: 1
Spectrometers: USB2+H05261
Integration Time (usec): 100000 (USB2+H05261)
Spectra Averaged: 1 (USB2+H05261)
Boxcar Smoothing: 0 (USB2+H05261)
Correct for Electrical Dark: No (USB2+H05261)
Strobe/Lamp Enabled: No (USB2+H05261)
Correct for Detector Non-linearity: No (USB2+H05261)
Correct for Stray Light: No (USB2+H05261)
Number of Pixels in Processed Spectrum: 2048
>>>>>Begin Processed Spectral Data<<<<<
365.73	238.73
365.92	238.73
366.12	238.73
366.32	201.29
366.52	65.54
366.72	147.45
366.91	63.19
367.11	173.20
367.31	121.71
367.51	110.01
367.70	161.50
367.90	175.54
368.10	194.26
368.30	168.52
368.49	112.35
368.69	110.01
368.89	110.01
369.09	210.65
369.28	102.98
369.48	145.11
369.68	163.84
369.87	126.39
370.07	154.48
370.27	271.50
370.47	334.70
370.66	594.50
370.86	606.20
371.06	638.97
371.25	636.63
371.45	648.33
371.65	688.12
371.84	667.05
372.04	650.67
372.24	709.18
372.44	704.50
372.63	695.14
372.83	667.05
373.03	751.31
373.22	741.95
373.42	868.34
373.62	690.46
373.81	814.51
374.01	800.46
374.21	805.14
374.40	795.78
374.60	805.14
374.79	791.10
374.99	833.23
375.19	858.98
375.38	826.21
375.58	816.85
375.78	940.90
375.97	842.59
376.17	1008.77
376.37	877.70
376.56	821.53
376.76	819.19
376.95	875.36
377.15	964.30
377.35	903.45
377.54	908.13
377.74	964.30
377.93	898.77
378.13	851.96
378.33	980.68
378.52	938.55
378.72	898.77
378.91	908.13
379.11	940.90
379.31	1086.01
379.50	891.74
379.70	936.21
379.89	964.30
380.09	945.58
380.28	933.87
380.48	952.60
380.68	959.62
380.87	1036.86
381.07	966.64
381.26	1008.77
381.46	992.39
381.65	971.32
381.85	1032.18
382.04	1081.33
382.24	1069.62
382.43	994.73
382.63	1090.69
382.83	1139.84
383.02	1107.07
383.22	1137.50
383.41	1125.80
383.61	1186.65
383.80	1170.27
384.00	1118.78
384.19	1104.73
384.39	1116.44
384.58	1111.75
384.78	1188.99
384.97	1174.95
385.17	1132.82
385.36	1172.61
385.56	1181.97
385.75	1219.42
385.95	1240.48
386.14	1228.78
386.34	1256.87
386.53	1221.76
386.72	1137.50
386.92	1240.48
387.11	1165.59
387.31	1116.44
387.50	1184.31
387.70	1249.85
387.89	1259.21
388.09	1345.81
388.28	1252.19
388.48	1261.55
388.67	1308.36
388.86	1303.68
389.06	1371.55
389.25	1343.47
389.45	1247.51
389.64	1376.24
389.84	1397.30
390.03	1401.98
390.22	1380.92
390.42	1334.11
390.61	1369.21
390.81	1383.26
391.00	1315.38
391.19	1418.36
391.39	1376.24
391.58	1446.45
391.78	1416.02
391.97	1453.47
392.16	1533.05
392.36	1640.72
392.55	1535.39
392.75	1479.22
392.94	1554.12
393.13	1547.09
393.33	1455.81
393.52	1523.69
393.71	1561.14
393.91	1614.97
394.10	1650.08
394.29	1633.69
394.49	1612.63
394.68	1722.63
394.88	1640.72
395.07	1666.46
395.26	1675.82
395.46	1638.38
395.65	1837.32
395.84	1701.57
396.04	1717.95
396.23	1736.68
396.42	1701.57
396.62	1741.36
396.81	1762.42
397.00	1858.39
397.19	1778.81
397.39	1891.15
397.58	1849.02
397.77	1818.60
397.97	1792.85
398.16	1940.30
398.35	1912.22
398.55	1994.14
398.74	1996.48
398.93	1996.48
399.12	2012.86
399.32	1982.43
399.51	1966.05
399.70	1975.41
399.90	1949.67
400.09	2026.90
400.28	2111.16
400.47	1949.67
400.67	2083.08
400.86	2001.16
401.05	2090.10
401.24	2125.21
401.44	2101.80
401.63	2277.34
401.82	2155.63
402.01	2169.68
402.21	2106.48
402.40	2242.23
402.59	2165.00
402.78	2207.13
402.97	2228.19
403.17	2370.96
403.36	2277.34
403.55	2242.23
403.74	2267.98
403.93	2380.32
404.13	2417.77
404.32	2359.26
404.51	2314.79
404.70	2382.67
404.89	2354.58
405.09	2586.29
405.28	2539.48
405.47	2492.67
405.66	2565.23
405.85	2567.57
406.05	2459.90
406.24	2658.85
406.43	2558.21
406.62	2656.51
406.81	2668.21
407.00	2506.71
407.20	2588.63
407.39	2539.48
407.58	2710.34
407.77	2853.11
407.96	2698.64
408.15	2736.09
408.34	2672.89
408.54	2757.15
408.73	2703.32
408.92	2820.35
409.11	2892.90
409.30	2972.48
409.49	2939.71
409.68	2883.54
409.87	2939.71
410.07	2979.50
410.26	3023.97
410.45	3023.97
410.64	2925.67
410.83	3040.36
411.02	3108.23
411.21	3162.06
411.40	3166.74
411.59	3304.84
411.78	3150.36
411.98	3304.84
412.17	3269.73
412.36	3236.96
412.55	3389.10
412.74	3435.91
412.93	3454.63
413.12	3445.27
413.31	3620.81
413.50	3583.36
413.69	3440.59
413.88	3632.51
414.07	3609.11
414.26	3571.66
414.45	3838.48
414.64	3583.36
414.83	3716.77
415.02	3831.46
415.22	3782.31
415.41	3833.80
415.60	3861.88
415.79	4004.66
415.98	4021.04
416.17	4112.32
416.36	3981.25
416.55	3934.44
416.74	3983.59
416.93	4126.36
417.12	4128.70
417.31	4215.30
417.50	4196.58
417.69	4301.90
417.88	4304.25
418.07	4425.95
418.26	4327.65
418.45	4435.32
418.64	4463.40
418.83	4320.63
419.02	4280.84
419.21	4629.58
419.39	4535.96
419.58	4327.65
419.77	4620.22
419.96	4573.41
420.15	4671.71
420.34	4540.64
420.53	4746.61
420.72	4669.37
420.91	4582.77
421.10	4865.97
421.29	4840.23
421.48	4814.48
421.67	4858.95
421.86	4905.76
422.05	4933.85
422.24	4882.36
422.43	4800.44
422.61	4952.57
422.80	4985.34
422.99	4959.60
423.18	5025.13
423.37	5104.71
423.56	4959.60
423.75	5015.77
423.94	4887.04
424.13	4512.55
424.32	4718.52
424.50	4987.68
424.69	5090.67
424.88	5146.84
425.07	5029.81
425.26	4896.40
425.45	4987.68
425.64	5025.13
425.83	4887.04
426.01	5034.49
426.20	5060.24
426.39	5139.82
426.58	4994.70
426.77	5144.50
426.96	5062.58
427.15	5071.94
427.33	5172.58
427.52	5139.82
427.71	5266.21
427.90	5233.44
428.09	5359.83
428.28	5467.49
428.46	5465.15
428.65	5273.23
428.84	5469.83
429.03	5675.80
429.22	5270.89
429.40	5514.30
429.59	5526.00
429.78	5298.97
429.97	5338.76
430.16	5469.83
430.34	5722.61
430.53	5689.84
430.72	5689.84
430.91	5694.52
431.10	5568.13
431.28	5762.40
431.47	5834.96
431.66	5863.04
431.85	5818.57
432.03	5982.41
432.22	6005.81
432.41	5987.09
432.60	5970.71
432.79	5989.43
432.97	6125.18
433.16	6160.29
433.35	5966.03
433.54	6132.20
433.72	6157.95
433.91	6141.57
434.10	6338.17
434.28	6160.29
434.47	6221.14
434.66	6230.51
434.85	6373.28
435.03	6413.07
435.22	6146.25
435.41	6525.41
435.59	6476.26
435.78	6387.32
435.97	6502.01
436.16	6661.16
436.34	6494.99
436.53	6455.20
436.72	6773.51
436.90	6588.61
437.09	6541.80
437.28	6579.25
437.46	6623.72
437.65	6567.54
437.84	6850.75
438.02	6745.42
438.21	6801.60
438.40	6810.96
438.58	7112.89
438.77	7035.65
438.96	6993.52
439.14	7112.89
439.33	7307.15
439.52	7307.15
439.70	7145.66
439.89	7414.82
440.08	7379.71
440.26	7400.77
440.45	7529.50
440.63	7363.33
440.82	7751.85
441.01	7536.52
441.19	7639.51
441.38	7730.79
441.57	7831.43
441.75	7894.63
441.94	7868.88
442.12	8023.36
442.31	7971.86
442.50	8035.06
442.68	8018.68
442.87	7976.55
443.05	8241.03
443.24	8292.52
443.43	8133.36
443.61	8219.96
443.80	8631.90
443.98	8332.31
444.17	7831.43
444.35	8280.82
444.54	8386.14
444.73	8421.25
444.91	8311.24
445.10	8351.03
445.28	8257.41
445.47	8446.99
445.65	8512.53
445.84	8662.32
446.02	8559.34
446.21	8269.11
446.39	8599.13
446.58	8552.32
446.77	8554.66
446.95	8386.14
447.14	8493.80
447.32	8772.33
447.51	8512.53
447.69	8306.56
447.88	8582.74
448.06	8568.70
448.25	8535.93
448.43	8755.94
448.62	8603.81
448.80	8713.81
448.99	8697.43
449.17	8812.12
449.36	8702.11
449.54	8872.97
449.73	9034.47
449.91	9125.75
450.10	8905.74
450.28	9165.54
450.46	9062.55
450.65	9102.34
450.83	9146.81
451.02	9268.52
451.20	9137.45
451.39	9249.80
451.57	9228.73
451.76	9102.34
451.94	9139.79
452.13	9345.76
452.31	9071.92
452.49	9193.62
452.68	9298.95
452.86	9385.55
453.05	9537.68
453.23	9692.16
453.42	9476.83
453.60	9406.61
453.78	9619.60
453.97	9549.39
454.15	9570.45
454.34	9387.89
454.52	9561.09
454.70	9638.33
454.89	9905.15
455.07	9832.59
455.26	10008.13
455.44	10150.90
455.62	9991.75
455.81	10052.60
455.99	10033.88
456.17	10160.27
456.36	10101.75
456.54	10377.94
456.73	10483.26
456.91	10588.58
457.09	10527.73
457.28	10586.24
457.46	10356.87
457.64	10740.72
457.83	10817.96
458.01	10537.09
458.19	10745.40
458.38	10754.76
458.56	10885.83
458.74	10693.91
458.93	10773.49
459.11	10906.90
459.29	10750.08
459.48	10822.64
459.66	10942.00
459.84	11145.63
460.03	11117.54
460.21	10934.98
460.39	11110.52
460.57	11026.26
460.76	11154.99
460.94	11442.88
461.12	11152.65
461.31	11293.08
461.49	11145.63
461.67	11356.28
461.85	11485.01
462.04	11667.57
462.22	11637.14
462.40	11522.46
462.59	11686.29
462.77	11513.10
462.95	11782.26
463.13	11716.72
463.32	11793.96
463.50	11875.88
463.68	11775.24
463.86	11889.92
464.05	11777.58
464.23	11826.73
464.41	11908.65
464.59	11620.76
464.78	12210.57
464.96	12063.12
465.14	11997.59
465.32	12248.02
465.50	12287.81
465.69	12278.45
465.87	12219.94
466.05	12278.45
466.23	12159.08
466.41	12470.37
466.60	12535.91
466.78	12578.04
466.96	12329.94
467.14	12484.42
467.32	12376.75
467.51	12704.43
467.69	12428.24
467.87	12418.88
468.05	12568.68
468.23	12346.33
468.41	12786.35
468.60	12308.88
468.78	13015.72
468.96	12751.24
469.14	13083.59
469.32	13008.70
469.50	12681.02
469.69	13198.28
469.87	13280.20
470.05	13284.88
470.23	13078.91
470.41	13305.95
470.59	13605.53
470.77	13195.94
470.95	13460.42
471.14	13568.09
471.32	13179.56
471.50	13579.79
471.68	13781.07
471.86	13635.96
472.04	13837.25
472.22	14118.11
472.40	13996.40
472.58	13778.73
472.77	14106.41
472.95	14382.59
473.13	14925.60
473.31	14218.75
473.49	14506.64
473.67	14300.67
473.85	14546.43
474.03	14932.62
474.21	14682.18
474.39	15049.64
474.57	14675.16
474.75	14831.97
474.93	15454.56
475.12	15145.61
475.30	15110.50
475.48	15068.37
475.66	15377.32
475.84	15215.82
476.02	15634.78
476.20	15494.35
476.38	16067.78
476.56	15934.37
476.74	15936.71
476.92	16051.39
477.10	15892.24
477.28	16257.36
477.46	16208.21
477.64	16386.09
477.82	16875.26
478.00	17149.11
478.18	17076.55
478.36	17090.59
478.54	17481.46
478.72	17436.99
478.90	17750.62
479.08	17472.10
479.26	17717.86
479.44	17844.24
479.62	18052.55
479.80	18293.63
479.98	18455.12
480.16	18909.19
480.34	18511.30
480.52	18352.14
480.70	18434.06
480.88	18829.61
481.06	19037.92
481.24	18998.13
481.41	19276.65
481.59	19704.97
481.77	19527.09
481.95	19721.35
482.13	19683.91
482.31	19786.89
482.49	20556.93
482.67	20285.42
482.85	20357.98
483.03	20840.13
483.21	21006.31
483.39	21261.43
483.57	20980.56
483.74	21383.13
483.92	21832.52
484.10	21406.54
484.28	22012.74
484.46	22422.33
484.64	22579.15
484.82	22066.57
485.00	22391.91
485.18	22920.87
485.35	23058.96
485.53	23101.09
485.71	23110.45
485.89	23726.01
486.07	23297.69
486.25	23431.10
486.43	23892.19
486.61	23922.62
486.78	24159.01
486.96	24732.44
487.14	24657.54
487.32	24952.45
487.50	25172.46
487.68	25001.60
487.85	25706.10
488.03	25582.06
488.21	25883.98
488.39	26101.65
488.57	26127.40
488.75	26412.95
488.92	27159.58
489.10	26761.69
489.28	27105.74
489.46	27241.50
489.64	27089.36
489.81	27941.32
489.99	28086.43
490.17	28168.35
490.35	28451.55
490.53	28371.97
490.70	28444.53
490.88	28397.72
491.06	29081.16
491.24	28685.61
491.41	29560.97
491.59	29532.88
491.77	29701.40
491.95	29579.69
492.13	30230.36
492.30	30134.40
492.48	30235.04
492.66	30614.21
492.84	30724.21
493.01	30740.60
493.19	30518.25
493.37	31501.27
493.54	31356.16
493.72	31597.23
493.90	31501.27
494.08	32135.56
494.25	32165.98
494.43	32456.21
494.61	32540.47
494.79	32606.00
494.96	32947.72
495.14	33102.20
495.32	33500.09
495.49	33626.48
495.67	33553.92
495.85	33797.34
496.02	33830.10
496.20	34223.31
496.38	34127.35
496.55	34164.80
496.73	34906.75
496.91	35016.75
497.09	35269.53
497.26	35157.19
497.44	35208.68
497.62	35835.94
497.79	36126.17
497.97	35768.07
498.14	36556.83
498.32	36531.08
498.50	36503.00
498.67	37141.96
498.85	36229.15
499.03	37067.06
499.20	36996.85
499.38	36905.57
499.56	37729.44
499.73	37598.37
499.91	37748.16
500.08	37413.46
500.26	37745.82
500.44	38403.51
500.61	38464.36
500.79	38129.67
500.97	37947.11
501.14	38789.70
501.32	38834.17
501.49	39358.45
501.67	39229.72
501.84	39519.95
502.02	39232.06
502.20	39772.72
502.37	39283.55
502.55	39517.60
502.72	39892.09
502.90	39875.71
503.07	39849.96
503.25	40273.60
503.43	40032.52
503.60	40437.44
503.78	40465.52
503.95	40996.82
504.13	40304.02
504.30	40870.43
504.48	40580.21
504.65	40851.71
504.83	41631.11
505.01	41528.13
505.18	41212.15
505.36	41951.76
505.53	41771.54
505.71	41645.15
505.88	42108.58
506.06	42478.38
506.23	42391.78
506.41	42305.18
506.58	42183.48
506.76	42532.22
506.93	42731.16
507.11	42614.13
507.28	42848.19
507.46	42672.65
507.63	43253.10
507.81	43643.97
507.98	43243.74
508.16	43428.64
508.33	43552.69
508.50	43913.13
508.68	44119.10
508.85	44006.75
509.03	44060.58
509.20	44369.54
509.38	44587.21
509.55	45062.33
509.73	44814.24
509.90	45184.04
510.08	44694.87
510.25	45010.84
510.42	45045.95
510.60	45399.37
510.77	45333.84
510.95	46043.02
511.12	45628.74
511.30	45411.07
511.47	45801.94
511.64	45626.40
511.82	46064.08
511.99	45804.28
512.17	46115.58
512.34	46054.72
512.51	47068.17
512.69	46756.88
512.86	46784.97
513.04	46726.46
513.21	47140.73
513.38	46972.21
513.56	47079.88
513.73	46932.42
513.90	47379.46
514.08	47325.63
514.25	47819.49
514.43	48067.58
514.60	47547.98
514.77	48011.41
514.95	48175.25
515.12	47758.63
515.29	47922.47
515.47	48638.67
515.64	48334.40
515.81	48318.02
515.99	48603.56
516.16	48669.10
516.33	48736.98
516.51	48774.42
516.68	48814.21
516.85	48975.71
517.03	49181.68
517.20	49003.80
517.37	49378.28
517.54	49317.43
517.72	49167.63
517.89	49394.67
518.06	49841.71
518.24	49507.01
518.41	49769.15
518.58	49509.35
518.75	49804.26
518.93	49874.48
519.10	49958.73
519.27	50213.85
519.45	49970.44
519.62	49865.11
519.79	50237.26
519.96	50293.43
520.14	50700.68
520.31	50234.92
520.48	50733.45
520.65	50628.13
520.83	50742.81
521.00	50894.95
521.17	51077.51
521.34	50908.99
521.52	51283.48
521.69	51239.01
521.86	51166.45
522.03	51459.02
522.20	51756.27
522.38	51636.90
522.55	51737.54
522.72	51742.22
522.89	51889.68
523.07	52116.71
523.24	51758.61
523.41	51789.03
523.58	51679.03
523.75	52310.97
523.92	52175.22
524.10	52245.44
524.27	52371.83
524.44	52397.57
524.61	52250.12
524.78	52736.95
524.96	52481.83
525.13	52559.07
525.30	52821.21
525.47	52676.10
525.64	52802.49
525.81	52891.43
525.98	53137.18
526.16	52999.09
526.33	52769.72
526.50	53045.90
526.67	52978.03
526.84	52978.03
527.01	53120.80
527.18	53319.74
527.36	53504.65
527.53	53343.15
527.70	53595.93
527.87	53715.29
528.04	53326.77
528.21	53701.25
528.38	53427.41
528.55	53804.24
528.72	53797.21
528.89	53598.27
529.07	53652.10
529.24	53645.08
529.41	53848.71
529.58	54134.25
529.75	54061.69
529.92	53968.07
530.09	54099.14
530.26	54237.23
530.43	54356.60
530.60	54349.58
530.77	54157.66
530.94	54347.24
531.11	54372.99
531.28	54202.13
531.46	54480.65
531.63	54585.97
531.80	54560.23
531.97	54529.80
532.14	54829.39
532.31	54733.43
532.48	54726.41
532.65	54948.76
532.82	54717.04
532.99	54901.95
533.16	54904.29
533.33	54948.76
533.50	55105.57
533.67	55187.49
533.84	55079.83
534.01	55171.11
534.18	55049.40
534.35	55554.96
534.52	55278.77
534.69	55608.79
534.86	55435.59
535.03	55262.39
535.20	55583.04
535.37	55594.74
535.54	55543.25
535.71	55440.27
535.88	55880.29
536.05	55707.09
536.22	56067.53
536.38	55821.78
536.55	55756.24
536.72	56046.47
536.89	55611.13
537.06	56060.51
537.23	56135.41
537.40	55664.96
537.57	55941.14
537.74	56009.02
537.91	56039.45
538.08	56020.72
538.25	55987.95
538.42	56083.92
538.59	56317.97
538.75	56203.28
538.92	56322.65
539.09	56367.12
539.26	56442.02
539.43	56439.68
539.60	56402.23
539.77	56427.98
539.94	56657.35
540.11	56610.54
540.28	56746.29
540.44	56594.15
540.61	56640.96
540.78	56523.94
540.95	56561.39
541.12	56804.80
541.29	56612.88
541.46	56690.12
541.62	56769.69
541.79	57041.20
541.96	56636.28
542.13	56851.61
542.30	56835.23
542.47	56940.55
542.63	57073.96
542.80	57195.67
542.97	57190.99
543.14	57308.02
543.31	57518.67
543.48	57326.74
543.64	57539.73
543.81	57443.77
543.98	57567.82
544.15	57485.90
544.32	57331.42
544.48	57748.04
544.65	57593.56
544.82	57731.65
544.99	57680.16
545.16	57825.28
545.32	57822.93
545.49	57703.57
545.66	57855.70
545.83	57944.64
546.00	58014.86
546.16	57869.75
546.33	57715.27
546.50	57787.83
546.67	57783.15
546.83	57684.84
547.00	57972.73
547.17	57876.77
547.34	58117.84
547.50	58171.67
547.67	58251.25
547.84	58267.64
548.00	58305.09
548.17	58398.71
548.34	58548.50
548.51	58520.41
548.67	58557.86
548.84	58260.62
549.01	58319.13
549.18	58293.38
549.34	58614.04
549.51	58525.10
549.68	58651.48
549.84	58394.03
550.01	58887.88
550.18	58515.73
550.34	58642.12
550.51	58791.92
550.68	58684.25
550.84	58578.93
551.01	58829.37
551.18	58695.95
551.34	58831.71
551.51	58616.38
551.68	58955.75
551.84	58726.38
552.01	58749.79
552.18	58918.31
552.34	58808.30
552.51	59014.27
552.68	58908.94
552.84	58953.41
553.01	59023.63
553.18	58922.99
553.34	58946.39
553.51	59018.95
553.67	58976.82
553.84	59082.14
554.01	59014.27
554.17	59318.54
554.34	59238.96
554.51	59164.06
554.67	59309.18
554.84	59262.36
555.00	59070.44
555.17	59009.59
555.33	59124.27
555.50	59054.06
555.67	59245.98
555.83	59250.66
556.00	59185.13
556.16	59704.73
556.33	59697.70
556.50	59660.26
556.66	59723.45
556.83	59288.11
556.99	59714.09
557.16	59681.32
557.32	59786.64
557.49	59962.18
557.65	59627.49
557.82	59468.33
557.98	59781.96
558.15	59678.98
558.32	59763.24
558.48	59484.72
558.65	59400.46
558.81	59812.39
558.98	59880.27
559.14	59763.24
559.31	59955.16
559.47	59786.64
559.64	59693.02
559.80	60104.96
559.97	59985.59
560.13	59852.18
560.30	59896.65
560.46	60093.25
560.63	59800.69
560.79	59765.58
560.96	60027.72
561.12	60229.01
561.29	60018.36
561.45	59938.78
561.61	59997.29
561.78	60158.79
561.94	59959.84
562.11	59891.97
562.27	60254.75
562.44	60030.06
562.60	60278.16
562.77	59978.57
562.93	59901.33
563.10	60224.32
563.26	60060.49
563.42	60367.10
563.59	60257.09
563.75	60212.62
563.92	60037.08
564.08	60170.49
564.24	60275.82
564.41	60516.89
564.57	60453.70
564.74	60346.03
564.90	60484.12
565.07	60334.33
565.23	60470.08
565.39	60142.41
565.56	60437.31
565.72	60310.92
565.88	60285.18
566.05	60446.68
566.21	60257.09
566.38	60278.16
566.54	60519.23
566.70	60556.68
566.87	60685.41
567.03	60360.08
567.19	60420.93
567.36	60486.46
567.52	60420.93
567.68	60802.44
567.85	60446.68
568.01	60610.51
568.17	60441.99
568.34	60666.69
568.50	60587.11
568.66	60346.03
568.83	60629.24
568.99	60552.00
569.15	60516.89
569.32	60701.79
569.48	60563.70
569.64	60640.94
569.81	60718.18
569.97	60608.17
570.13	60683.07
570.30	60360.08
570.46	60657.32
570.62	60678.39
570.78	60889.04
570.95	60582.43
571.11	60706.47
571.27	60652.64
571.43	60736.90
571.60	60669.03
571.76	60793.07
571.92	60846.91
572.09	60755.63
572.25	60903.08
572.41	60743.92
572.57	60772.01
572.74	60879.67
572.90	60821.16
573.06	60924.14
573.22	60743.92
573.38	60783.71
573.55	61097.34
573.71	60968.61
573.87	60891.38
574.03	60692.43
574.20	60907.76
574.36	60814.14
574.52	60935.85
574.68	60858.61
574.84	61071.60
575.01	60893.72
575.17	60980.32
575.33	60994.36
575.49	60853.93
575.65	61013.08
575.82	60900.74
575.98	61095.00
576.14	61120.75
576.30	61095.00
576.46	60935.85
576.62	60970.96
576.79	61148.84
576.95	60762.65
577.11	61113.73
577.27	60949.89
577.43	60793.07
577.59	60935.85
577.75	60788.39
577.92	60870.31
578.08	61034.15
578.24	61055.21
578.40	61160.54
578.56	61031.81
578.72	60867.97
578.88	61183.94
579.04	61265.86
579.21	61153.52
579.37	61172.24
579.53	61436.72
579.69	60938.19
579.85	60982.66
580.01	61080.96
580.17	61158.20
580.33	61078.62
580.49	61162.88
580.65	61179.26
580.82	60996.70
580.98	61076.28
581.14	60903.08
581.30	61230.75
581.46	60893.72
581.62	61205.01
581.78	61125.43
581.94	61186.28
582.10	60963.93
582.26	61041.17
582.42	61172.24
582.58	61212.03
582.74	60980.32
582.90	61249.48
583.06	61062.24
583.22	61062.24
583.38	61078.62
583.54	61165.22
583.70	61338.42
583.86	61132.45
584.02	61090.32
584.18	61233.10
584.34	61240.12
584.50	60999.04
584.66	61071.60
584.82	61038.83
584.98	61228.41
585.14	61087.98
585.30	61006.06
585.46	61242.46
585.62	61219.05
585.78	61340.76
585.94	61219.05
586.10	61130.11
586.26	61153.52
586.42	61183.94
586.58	61207.35
586.74	61345.44
586.90	61104.37
587.06	61205.01
587.22	61298.63
587.38	61209.69
587.54	61312.67
587.70	61506.94
587.86	61315.01
588.02	61418.00
588.18	61272.88
588.34	61169.90
588.49	61242.46
