SpectraSuite Data File
++++++++++++++++++++++++++++++++++++
Date: Fri Oct 25 11:26:41 EDT 2013
User: price-jones
Dark Spectrum Present: No
Reference Spectrum Present: No
Number of Sampled Component Spectra: 1
Spectrometers: USB2+H05261
Integration Time (usec): 100000 (USB2+H05261)
Spectra Averaged: 1 (USB2+H05261)
Boxcar Smoothing: 0 (USB2+H05261)
Correct for Electrical Dark: No (USB2+H05261)
Strobe/Lamp Enabled: No (USB2+H05261)
Correct for Detector Non-linearity: No (USB2+H05261)
Correct for Stray Light: No (USB2+H05261)
Number of Pixels in Processed Spectrum: 2048
>>>>>Begin Processed Spectral Data<<<<<
365.73	271.50
365.92	271.50
366.12	271.50
366.32	245.76
366.52	133.41
366.72	191.92
366.91	140.43
367.11	182.56
367.31	100.64
367.51	121.71
367.70	102.98
367.90	170.86
368.10	119.37
368.30	140.43
368.49	175.54
368.69	161.50
368.89	128.73
369.09	161.50
369.28	128.73
369.48	170.86
369.68	154.48
369.87	231.71
370.07	229.37
370.27	346.40
370.47	346.40
370.66	653.01
370.86	638.97
371.06	678.76
371.25	723.23
371.45	636.63
371.65	788.76
371.84	741.95
372.04	622.58
372.24	793.44
372.44	788.76
372.63	748.97
372.83	770.04
373.03	779.40
373.22	828.55
373.42	763.01
373.62	774.72
373.81	765.36
374.01	819.19
374.21	819.19
374.40	835.57
374.60	903.45
374.79	868.34
374.99	880.04
375.19	833.23
375.38	898.77
375.58	922.17
375.78	915.15
375.97	894.08
376.17	884.72
376.37	926.85
376.56	894.08
376.76	870.68
376.95	924.51
377.15	880.04
377.35	877.70
377.54	915.15
377.74	861.32
377.93	870.68
378.13	976.00
378.33	924.51
378.52	959.62
378.72	849.61
378.91	971.32
379.11	884.72
379.31	1018.13
379.50	931.53
379.70	950.26
379.89	945.58
380.09	943.24
380.28	905.79
380.48	1004.09
380.68	1029.84
380.87	997.07
381.07	1036.86
381.26	1060.26
381.46	1008.77
381.65	1060.26
381.85	1137.50
382.04	1132.82
382.24	1093.03
382.43	1083.67
382.63	1053.24
382.83	1095.37
383.02	1076.65
383.22	1156.22
383.41	1078.99
383.61	1090.69
383.80	1153.88
384.00	1207.72
384.19	1165.59
384.39	1128.14
384.58	1179.63
384.78	1200.69
384.97	1090.69
385.17	1151.54
385.36	1163.25
385.56	1130.48
385.75	1226.44
385.95	1177.29
386.14	1219.42
386.34	1214.74
386.53	1203.04
386.72	1156.22
386.92	1299.00
387.11	1224.10
387.31	1291.98
387.50	1228.78
387.70	1268.57
387.89	1282.61
388.09	1240.48
388.28	1320.06
388.48	1315.38
388.67	1336.45
388.86	1334.11
389.06	1277.93
389.25	1380.92
389.45	1359.85
389.64	1322.40
389.84	1331.76
390.03	1371.55
390.22	1401.98
390.42	1439.43
390.61	1357.51
390.81	1345.81
391.00	1621.99
391.19	1451.13
391.39	1383.26
391.58	1511.99
391.78	1481.56
391.97	1434.75
392.16	1425.39
392.36	1462.83
392.55	1521.35
392.75	1523.69
392.94	1486.24
393.13	1549.43
393.33	1579.86
393.52	1593.90
393.71	1605.61
393.91	1638.38
394.10	1617.31
394.29	1554.12
394.49	1621.99
394.68	1657.10
394.88	1584.54
395.07	1603.27
395.26	1631.35
395.46	1750.72
395.65	1820.94
395.84	1769.44
396.04	1717.95
396.23	1778.81
396.42	1671.14
396.62	1776.47
396.81	1802.21
397.00	1706.25
397.19	1881.79
397.39	1788.17
397.58	1802.21
397.77	1781.15
397.97	1781.15
398.16	1842.00
398.35	1900.52
398.55	1923.92
398.74	1858.39
398.93	1930.94
399.12	1935.62
399.32	1891.15
399.51	1956.69
399.70	2083.08
399.90	1919.24
400.09	2134.57
400.28	2090.10
400.47	2087.76
400.67	2153.29
400.86	2024.56
401.05	2054.99
401.24	2148.61
401.44	2104.14
401.63	2139.25
401.82	2047.97
402.01	2134.57
402.21	2165.00
402.40	2195.42
402.59	2244.57
402.78	2246.91
402.97	2108.82
403.17	2218.83
403.36	2349.90
403.55	2239.89
403.74	2312.45
403.93	2385.01
404.13	2448.20
404.32	2464.58
404.51	2275.00
404.70	2450.54
404.89	2401.39
405.09	2541.82
405.28	2572.25
405.47	2406.07
405.66	2532.46
405.85	2502.03
406.05	2532.46
406.24	2555.86
406.43	2602.68
406.62	2644.81
406.81	2719.70
407.00	2658.85
407.20	2567.57
407.39	2768.85
407.58	2736.09
407.77	2689.28
407.96	2820.35
408.15	2736.09
408.34	2750.13
408.54	2759.49
408.73	2745.45
408.92	2890.56
409.11	2949.08
409.30	2874.18
409.49	2935.03
409.68	2869.50
409.87	3052.06
410.07	3084.83
410.26	2932.69
410.45	2953.76
410.64	3075.46
410.83	3133.98
411.02	3148.02
411.21	3201.85
411.40	3169.09
411.59	3283.77
411.78	3304.84
411.98	3304.84
412.17	3251.00
412.36	3248.66
412.55	3328.24
412.74	3503.78
412.93	3454.63
413.12	3311.86
413.31	3524.85
413.50	3522.51
413.69	3536.55
413.88	3538.89
414.07	3576.34
414.26	3693.37
414.45	3592.72
414.64	3665.28
414.83	3735.50
415.02	3747.20
415.22	3777.62
415.41	3878.27
415.60	3955.51
415.79	4016.36
415.98	3950.82
416.17	4065.51
416.36	3915.72
416.55	3995.29
416.74	3892.31
416.93	4002.32
417.12	4154.45
417.31	4337.01
417.50	4194.24
417.69	4243.39
417.88	4266.80
418.07	4313.61
418.26	4315.95
418.45	4332.33
418.64	4484.47
418.83	4437.66
419.02	4411.91
419.21	4451.70
419.39	4622.56
419.58	4521.92
419.77	4423.61
419.96	4592.13
420.15	4461.06
420.34	4554.68
420.53	4650.64
420.72	4758.31
420.91	4805.12
421.10	4678.73
421.29	4994.70
421.48	4718.52
421.67	4784.06
421.86	4842.57
422.05	4751.29
422.24	4746.61
422.43	4744.27
422.61	4865.97
422.80	5032.15
422.99	5015.77
423.18	5034.49
423.37	5074.28
423.56	5121.09
423.75	5032.15
423.94	4924.49
424.13	4566.39
424.32	4739.58
424.50	4980.66
424.69	5093.01
424.88	5074.28
425.07	5020.45
425.26	4957.25
425.45	5153.86
425.64	5083.64
425.83	5025.13
426.01	5057.90
426.20	5128.11
426.39	5130.45
426.58	4903.42
426.77	5004.07
426.96	5011.09
427.15	5149.18
427.33	5392.59
427.52	5193.65
427.71	5408.98
427.90	5195.99
428.09	5544.73
428.28	5317.70
428.46	5420.68
428.65	5420.68
428.84	5514.30
429.03	5404.30
429.22	5493.24
429.40	5444.09
429.59	5661.76
429.78	5341.10
429.97	5282.59
430.16	5490.90
430.34	5448.77
430.53	5750.70
430.72	5731.97
430.91	5561.11
431.10	5652.39
431.28	5664.10
431.47	5851.34
431.66	6015.18
431.85	5916.87
432.03	5980.07
432.22	6052.63
432.41	6033.90
432.60	5928.58
432.79	5900.49
432.97	6073.69
433.16	6104.12
433.35	5989.43
433.54	6146.25
433.72	5954.32
433.91	6410.73
434.10	6160.29
434.28	6003.47
434.47	6265.61
434.66	6342.85
434.85	6340.51
435.03	6466.90
435.22	6305.40
435.41	6576.91
435.59	6354.55
435.78	6370.94
435.97	6504.35
436.16	6562.86
436.34	6445.84
436.53	6527.75
436.72	6623.72
436.90	6539.46
437.09	6633.08
437.28	6754.79
437.46	6726.70
437.65	6635.42
437.84	6829.68
438.02	6817.98
438.21	6722.02
438.40	6658.82
438.58	7007.56
438.77	7171.40
438.96	6993.52
439.14	7194.81
439.33	7353.96
439.52	7424.18
439.70	7061.40
439.89	7375.03
440.08	7417.16
440.26	7482.69
440.45	7494.40
440.63	7344.60
440.82	7606.74
441.01	7812.71
441.19	7686.32
441.38	7644.19
441.57	7714.41
441.75	7829.09
441.94	8044.42
442.12	8086.55
442.31	8252.73
442.50	8028.04
442.68	7943.78
442.87	8107.62
443.05	8194.22
443.24	8315.92
443.43	8304.22
443.61	8234.00
443.80	8486.78
443.98	8124.00
444.17	7950.80
444.35	8142.72
444.54	8587.43
444.73	8304.22
444.91	8332.31
445.10	8489.12
445.28	8411.89
445.47	8262.09
445.65	8517.21
445.84	8528.91
446.02	8578.06
446.21	8592.11
446.39	8446.99
446.58	8564.02
446.77	8580.40
446.95	8341.67
447.14	8442.31
447.32	8805.10
447.51	8489.12
447.69	8439.97
447.88	8676.37
448.06	8578.06
448.25	8463.38
448.43	8592.11
448.62	8599.13
448.80	8629.56
448.99	8741.90
449.17	8851.91
449.36	8802.75
449.54	9060.21
449.73	8929.14
449.91	8964.25
450.10	8943.19
450.28	9214.69
450.46	9317.67
450.65	8964.25
450.83	9207.67
451.02	9123.41
451.20	9310.65
451.39	9224.05
451.57	9308.31
451.76	9137.45
451.94	9547.05
452.13	9455.76
452.31	9376.19
452.49	9198.31
452.68	9540.02
452.86	9378.53
453.05	9446.40
453.23	9568.11
453.42	9472.15
453.60	9202.99
453.78	9458.10
453.97	9647.69
454.15	9582.15
454.34	9598.54
454.52	9650.03
454.70	9715.56
454.89	9830.25
455.07	9785.78
455.26	9762.37
455.44	9844.29
455.62	10078.35
455.81	10015.15
455.99	10204.74
456.17	10216.44
456.36	10296.02
456.54	10061.96
456.73	10204.74
456.91	10516.03
457.09	10448.15
457.28	10614.33
457.46	10555.82
457.64	10422.41
457.83	10782.85
458.01	10565.18
458.19	10764.12
458.38	10686.89
458.56	10785.19
458.74	10963.07
458.93	10827.32
459.11	10878.81
459.29	10869.45
459.48	10984.13
459.66	10759.44
459.84	11033.29
460.03	11190.10
460.21	11117.54
460.39	11171.38
460.57	10991.16
460.76	11183.08
460.94	11384.37
461.12	11267.34
461.31	11386.71
461.49	11363.30
461.67	11253.30
461.85	11405.43
462.04	11396.07
462.22	11557.57
462.40	11637.14
462.59	11595.01
462.77	11747.15
462.95	11571.61
463.13	11693.32
463.32	11775.24
463.50	11646.51
463.68	11824.39
463.86	11976.52
464.05	11772.89
464.23	11763.53
464.41	12095.89
464.59	11880.56
464.78	12327.60
464.96	12276.11
465.14	11843.11
465.32	11983.54
465.50	12189.51
465.69	12252.70
465.87	12175.47
466.05	12287.81
466.23	12442.29
466.41	12402.50
466.60	12678.68
466.78	12222.28
466.96	12545.27
467.14	12306.54
467.32	12446.97
467.51	12617.83
467.69	12140.36
467.87	12428.24
468.05	12664.64
468.23	12575.70
468.41	12652.94
468.60	12896.35
468.78	12992.31
468.96	12702.09
469.14	13036.78
469.32	13200.62
469.50	12631.87
469.69	13280.20
469.87	13195.94
470.05	13214.66
470.23	13263.82
470.41	13121.04
470.59	13348.08
470.77	13202.96
470.95	13488.51
471.14	13701.50
471.32	13437.02
471.50	13804.48
471.68	13830.23
471.86	13518.93
472.04	13907.46
472.22	13923.85
472.40	13877.04
472.58	14031.51
472.77	13989.38
472.95	14267.91
473.13	14736.01
473.31	14471.53
473.49	14008.11
473.67	14153.22
473.85	14293.65
474.03	14843.68
474.21	14780.48
474.39	14974.75
474.57	14647.07
474.75	15178.37
474.93	15199.44
475.12	15187.74
475.30	15019.22
475.48	15178.37
475.66	15225.18
475.84	15403.07
476.02	15716.70
476.20	15461.58
476.38	15831.38
476.56	16060.76
476.74	16027.99
476.92	16002.24
477.10	15929.69
477.28	16451.63
477.46	16402.47
477.64	16437.58
477.82	16704.40
478.00	16978.25
478.18	16945.48
478.36	16975.91
478.54	17317.62
478.72	17432.31
478.90	17451.03
479.08	17734.24
479.26	17453.37
479.44	17664.02
479.62	17635.94
479.80	18024.47
479.98	18127.45
480.16	18403.63
480.34	18373.21
480.52	18792.16
480.70	18799.18
480.88	18501.93
481.06	18635.35
481.24	18920.89
481.41	19066.00
481.59	19183.03
481.77	19730.72
481.95	19506.02
482.13	19861.79
482.31	19857.10
482.49	20421.17
482.67	20353.30
482.85	20472.67
483.03	20678.63
483.21	20680.97
483.39	21184.19
483.57	20973.54
483.74	21310.58
483.92	21649.96
484.10	21287.17
484.28	21827.84
484.46	22122.74
484.64	22530.00
484.82	21898.05
485.00	22333.39
485.18	23288.33
485.35	23218.11
485.53	22953.63
485.71	23269.61
485.89	23658.14
486.07	23735.37
486.25	23608.98
486.43	23730.69
486.61	24002.19
486.78	24027.94
486.96	24713.72
487.14	24856.49
487.32	24844.79
487.50	25146.72
487.68	24994.58
487.85	25518.86
488.03	25788.02
488.21	25965.90
488.39	26082.93
488.57	26043.14
488.75	26270.17
488.92	26281.88
489.10	26731.26
489.28	26859.99
489.46	27026.17
489.64	26923.18
489.81	27688.54
489.99	27941.32
490.17	28067.70
490.35	28308.78
490.53	28627.09
490.70	28568.58
490.88	28666.88
491.06	28711.35
491.24	29102.22
491.41	29142.01
491.59	29202.86
491.77	29567.99
491.95	29649.91
492.13	29998.65
492.30	30204.61
492.48	30096.95
492.66	30274.83
492.84	30429.30
493.01	30733.57
493.19	30398.88
493.37	31229.77
493.54	31592.55
493.72	31683.83
493.90	31527.02
494.08	31983.42
494.25	32524.08
494.43	32545.15
494.61	32807.29
494.79	32720.69
494.96	32692.60
495.14	33139.65
495.32	33081.13
495.49	33308.16
495.67	33333.91
495.85	33734.14
496.02	33930.75
496.20	34321.62
496.38	34455.03
496.55	34387.15
496.73	34899.73
496.91	34815.47
497.09	35229.74
497.26	34911.43
497.44	35126.76
497.62	35484.86
497.79	35871.05
497.97	35276.55
498.14	36699.60
498.32	36189.36
498.50	36119.15
498.67	36666.83
498.85	36194.04
499.03	36898.55
499.20	37219.20
499.38	36940.68
499.56	37408.78
499.73	37062.38
499.91	37413.46
500.08	38068.81
500.26	37706.03
500.44	37663.90
500.61	38033.71
500.79	38141.37
500.97	38300.53
501.14	38773.31
501.32	38541.60
501.49	39002.69
501.67	38567.35
501.84	39150.14
502.02	39154.82
502.20	38897.36
502.37	39077.58
502.55	39746.98
502.72	39468.45
502.90	40060.61
503.07	39819.53
503.25	40135.51
503.43	39697.83
503.60	40360.20
503.78	40584.89
503.95	40215.08
504.13	40622.34
504.30	40687.87
504.48	40905.54
504.65	40931.29
504.83	41256.62
505.01	41495.36
505.18	41205.13
505.36	41823.03
505.53	41305.77
505.71	41780.90
505.88	42010.28
506.06	41818.35
506.23	42036.02
506.41	42019.64
506.58	42293.48
506.76	42256.03
506.93	42728.82
507.11	42653.92
507.28	43056.50
507.46	43201.61
507.63	43295.23
507.81	43157.14
507.98	43393.53
508.16	43433.32
508.33	43426.30
508.50	43538.65
508.68	43976.33
508.85	43882.70
509.03	44147.18
509.20	44048.88
509.38	44247.83
509.55	44301.66
509.73	44449.11
509.90	44720.62
510.08	45027.23
510.25	45090.42
510.42	45010.84
510.60	45425.12
510.77	45373.63
510.95	45603.00
511.12	45682.58
511.30	45633.42
511.47	45406.39
511.64	45483.63
511.82	46052.38
511.99	45930.67
512.17	46033.66
512.34	46036.00
512.51	46913.70
512.69	46726.46
512.86	46808.37
513.04	46958.17
513.21	46621.13
513.38	47119.66
513.56	47239.03
513.73	46749.86
513.90	47180.52
514.08	47042.43
514.25	47688.42
514.43	47833.53
514.60	47693.10
514.77	47531.60
514.95	47702.46
515.12	47831.19
515.29	47814.80
515.47	48257.17
515.64	48411.64
515.81	47840.55
515.99	48154.18
516.16	48713.57
516.33	48886.77
516.51	49270.62
516.68	48959.33
516.85	48538.03
517.03	49036.56
517.20	49270.62
517.37	49242.53
517.54	48973.37
517.72	49052.95
517.89	49031.88
518.06	49331.47
518.24	49399.35
518.41	49221.47
518.58	49511.69
518.75	49490.63
518.93	49991.50
519.10	49694.25
519.27	49712.98
519.45	49897.88
519.62	50255.98
519.79	50113.21
519.96	50302.79
520.14	50127.25
520.31	50176.40
520.48	50525.14
520.65	50576.64
520.83	50824.73
521.00	50883.25
521.17	50773.24
521.34	50859.84
521.52	51004.95
521.69	51231.99
521.86	50908.99
522.03	51580.73
522.20	51437.95
522.38	51629.88
522.55	51821.80
522.72	51313.90
522.89	51690.73
523.07	51854.57
523.24	51522.21
523.41	51892.02
523.58	51903.72
523.75	51943.51
523.92	51765.63
524.10	52004.36
524.27	52135.43
524.44	52200.97
524.61	52362.46
524.78	52257.14
524.96	52308.63
525.13	52505.24
525.30	52797.80
525.47	52851.64
525.64	52673.76
525.81	52907.81
525.98	52914.83
526.16	52921.85
526.33	53148.88
526.50	53139.52
526.67	53097.39
526.84	52949.94
527.01	52942.92
527.18	52882.06
527.36	53277.61
527.53	53073.99
527.70	53745.72
527.87	53546.78
528.04	53347.83
528.21	53462.52
528.38	53722.32
528.55	53883.81
528.72	53757.42
528.89	53851.05
529.07	53883.81
529.24	53645.08
529.41	53808.92
529.58	53947.01
529.75	53874.45
529.92	54007.86
530.09	54089.78
530.26	54183.40
530.43	54232.55
530.60	53649.76
530.77	54057.01
530.94	54288.73
531.11	54234.89
531.28	54239.57
531.46	54459.58
531.63	54625.76
531.80	54209.15
531.97	54628.10
532.14	54637.47
532.31	54513.42
532.48	54857.48
532.65	54862.16
532.82	54560.23
532.99	55070.46
533.16	54583.63
533.33	54939.39
533.50	54953.44
533.67	55025.99
533.84	54822.37
534.01	55119.62
534.18	55065.78
534.35	55260.05
534.52	55419.20
534.69	55114.94
534.86	55339.63
535.03	55070.46
535.20	55384.10
535.37	55405.16
535.54	55367.71
535.71	55524.53
535.88	55744.54
536.05	55599.43
536.22	55723.47
536.38	55938.80
536.55	55707.09
536.72	55697.73
536.89	55697.73
537.06	55496.44
537.23	55990.30
537.40	55847.52
537.57	55873.27
537.74	55915.40
537.91	56102.64
538.08	56130.73
538.25	55784.33
538.42	56023.06
538.59	56126.05
538.75	56191.58
538.92	56376.48
539.09	56123.71
539.26	56175.20
539.43	56416.27
539.60	56376.48
539.77	56453.72
539.94	56509.89
540.11	56360.10
540.28	56622.24
540.44	56622.24
540.61	56619.90
540.78	56491.17
540.95	56472.45
541.12	56652.67
541.29	56502.87
541.46	56877.36
541.62	56647.99
541.79	56765.01
541.96	56493.51
542.13	56910.13
542.30	56659.69
542.47	57097.37
542.63	56980.34
542.80	57078.64
542.97	57242.48
543.14	57144.18
543.31	57289.29
543.48	57396.96
543.64	57682.50
543.81	57762.08
543.98	57474.20
544.15	57598.24
544.32	57626.33
544.48	57834.64
544.65	57609.95
544.82	57719.95
544.99	57382.91
545.16	57476.54
545.32	57593.56
545.49	57897.83
545.66	57836.98
545.83	57822.93
546.00	57944.64
546.16	58110.82
546.33	57703.57
546.50	57839.32
546.67	57925.92
546.83	57696.55
547.00	57797.19
547.17	57846.34
547.34	57757.40
547.50	57956.35
547.67	58202.10
547.84	58045.29
548.00	58199.76
548.17	58588.29
548.34	58248.91
548.51	58267.64
548.67	58094.44
548.84	58183.38
549.01	57890.81
549.18	58307.43
549.34	58293.38
549.51	58450.20
549.68	58382.32
549.84	58450.20
550.01	58520.41
550.18	58323.81
550.34	58590.63
550.51	58646.80
550.68	58431.47
550.84	58504.03
551.01	58747.45
551.18	58632.76
551.34	58628.08
551.51	58756.81
551.68	58770.85
551.84	58808.30
552.01	58630.42
552.18	58527.44
552.34	58433.81
552.51	58843.41
552.68	58656.17
552.84	58672.55
553.01	58915.96
553.18	59056.40
553.34	59159.38
553.51	58763.83
553.67	59044.69
553.84	59128.95
554.01	59147.68
554.17	59138.32
554.34	59145.34
554.51	58915.96
554.67	59201.51
554.84	59231.94
555.00	59222.58
555.17	59250.66
555.33	59304.49
555.50	59217.89
555.67	59274.07
555.83	59281.09
556.00	59245.98
556.16	59571.32
556.33	59311.52
556.50	59267.05
556.66	59437.90
556.83	59126.61
556.99	59592.38
557.16	59669.62
557.32	59576.00
557.49	59910.69
557.65	59611.10
557.82	59222.58
557.98	59566.63
558.15	59737.49
558.32	59824.09
558.48	59365.35
558.65	59568.97
558.81	59723.45
558.98	59646.21
559.14	59849.84
559.31	59847.50
559.47	59739.83
559.64	60165.81
559.80	59884.95
559.97	59835.80
560.13	59583.02
560.30	59875.58
560.46	59842.82
560.63	59847.50
560.79	60004.31
560.96	59978.57
561.12	59917.71
561.29	60025.38
561.45	60062.83
561.61	60111.98
561.78	59943.46
561.94	60041.76
562.11	60023.04
562.27	59927.08
562.44	60156.45
562.60	60135.38
562.77	60081.55
562.93	60116.66
563.10	60341.35
563.26	60060.49
563.42	60327.31
563.59	60034.74
563.75	60144.75
563.92	60240.71
564.08	60130.70
564.24	60308.58
564.41	60289.86
564.57	60198.58
564.74	60369.44
564.90	60357.74
565.07	60257.09
565.23	60093.25
565.39	60285.18
565.56	60355.39
565.72	60266.45
565.88	60364.76
566.05	60186.88
566.21	60516.89
566.38	60371.78
566.54	60343.69
566.70	60460.72
566.87	60446.68
567.03	60177.51
567.19	60633.92
567.36	60376.46
567.52	60507.53
567.68	60631.58
567.85	60346.03
568.01	60573.06
568.17	60404.55
568.34	60549.66
568.50	60434.97
568.66	60566.04
568.83	60561.36
568.99	60509.87
569.15	60612.85
569.32	60547.32
569.48	60437.31
569.64	60582.43
569.81	60434.97
569.97	60404.55
570.13	60544.98
570.30	60617.53
570.46	60619.88
570.62	60612.85
570.78	60694.77
570.95	60608.17
571.11	60706.47
571.27	60636.26
571.43	60495.83
571.60	60898.40
571.76	60570.72
571.92	60683.07
572.09	60795.42
572.25	60750.94
572.41	60514.55
572.57	60619.88
572.74	60912.44
572.90	60580.09
573.06	60729.88
573.22	60552.00
573.38	60722.86
573.55	60633.92
573.71	61010.74
573.87	60910.10
574.03	60757.97
574.20	60928.83
574.36	60736.90
574.52	60650.30
574.68	60851.59
574.84	60769.67
575.01	60903.08
575.17	60786.05
575.33	60837.54
575.49	60858.61
575.65	60699.45
575.82	60933.51
575.98	61020.11
576.14	61148.84
576.30	60963.93
576.46	60793.07
576.62	60989.68
576.79	60877.33
576.95	60992.02
577.11	60977.98
577.27	61017.77
577.43	60954.57
577.59	60828.18
577.75	60898.40
577.92	60671.37
578.08	60987.34
578.24	60903.08
578.40	61097.34
578.56	60940.53
578.72	60825.84
578.88	61104.37
579.04	61144.16
579.21	60921.80
579.37	61190.97
579.53	61034.15
579.69	60818.82
579.85	60912.44
580.01	60931.17
580.17	60931.17
580.33	61013.08
580.49	61050.53
580.65	61020.11
580.82	61034.15
580.98	60989.68
581.14	60968.61
581.30	61202.67
581.46	60949.89
581.62	61104.37
581.78	60931.17
581.94	61073.94
582.10	61027.13
582.26	61216.71
582.42	61020.11
582.58	61029.47
582.74	60975.64
582.90	60985.00
583.06	61085.64
583.22	60956.91
583.38	61207.35
583.54	61024.79
583.70	61027.13
583.86	61099.68
584.02	61006.06
584.18	61371.19
584.34	61193.31
584.50	61123.09
584.66	60977.98
584.82	60989.68
584.98	61226.07
585.14	61315.01
585.30	61008.40
585.46	61059.90
585.62	61062.24
585.78	61095.00
585.94	61008.40
586.10	61013.08
586.26	61188.63
586.42	61092.66
586.58	61233.10
586.74	61015.43
586.90	61059.90
587.06	61146.50
587.22	61214.37
587.38	61017.77
587.54	61261.18
587.70	61209.69
587.86	61249.48
588.02	61179.26
588.18	61251.82
588.34	61200.33
