SpectraSuite Data File
++++++++++++++++++++++++++++++++++++
Date: Fri Oct 25 10:46:56 EDT 2013
User: price-jones
Dark Spectrum Present: No
Reference Spectrum Present: No
Number of Sampled Component Spectra: 1
Spectrometers: USB2+H05261
Integration Time (usec): 100000 (USB2+H05261)
Spectra Averaged: 1 (USB2+H05261)
Boxcar Smoothing: 0 (USB2+H05261)
Correct for Electrical Dark: No (USB2+H05261)
Strobe/Lamp Enabled: No (USB2+H05261)
Correct for Detector Non-linearity: No (USB2+H05261)
Correct for Stray Light: No (USB2+H05261)
Number of Pixels in Processed Spectrum: 2048
>>>>>Begin Processed Spectral Data<<<<<
365.73	152.13
365.92	152.13
366.12	152.13
366.32	72.56
366.52	32.77
366.72	72.56
366.91	16.38
367.11	46.81
367.31	11.70
367.51	35.11
367.70	88.94
367.90	46.81
368.10	37.45
368.30	67.88
368.49	86.60
368.69	67.88
368.89	37.45
369.09	95.96
369.28	84.26
369.48	128.73
369.68	88.94
369.87	98.30
370.07	105.32
370.27	124.05
370.47	227.03
370.66	393.21
370.86	425.98
371.06	528.96
371.25	568.75
371.45	451.72
371.65	479.81
371.84	451.72
372.04	397.89
372.24	568.75
372.44	528.96
372.63	559.39
372.83	561.73
373.03	517.26
373.22	512.58
373.42	521.94
373.62	531.30
373.81	582.79
374.01	552.37
374.21	517.26
374.40	559.39
374.60	592.16
374.79	533.64
374.99	624.92
375.19	603.86
375.38	599.18
375.58	669.39
375.78	566.41
375.97	615.56
376.17	617.90
376.37	676.41
376.56	645.99
376.76	638.97
376.95	638.97
377.15	552.37
377.35	653.01
377.54	606.20
377.74	713.86
377.93	718.54
378.13	699.82
378.33	685.78
378.52	692.80
378.72	725.57
378.91	730.25
379.11	648.33
379.31	634.29
379.50	681.10
379.70	617.90
379.89	709.18
380.09	695.14
380.28	711.52
380.48	697.48
380.68	688.12
380.87	699.82
381.07	723.23
381.26	692.80
381.46	620.24
381.65	725.57
381.85	725.57
382.04	737.27
382.24	723.23
382.43	711.52
382.63	774.72
382.83	753.65
383.02	763.01
383.22	851.96
383.41	683.44
383.61	730.25
383.80	847.27
384.00	833.23
384.19	805.14
384.39	734.93
384.58	793.44
384.78	877.70
384.97	746.63
385.17	781.74
385.36	793.44
385.56	823.87
385.75	772.38
385.95	861.32
386.14	798.12
386.34	809.83
386.53	847.27
386.72	823.87
386.92	961.96
387.11	889.40
387.31	870.68
387.50	917.49
387.70	903.45
387.89	896.43
388.09	877.70
388.28	844.93
388.48	945.58
388.67	945.58
388.86	919.83
389.06	1011.11
389.25	912.81
389.45	1015.79
389.64	912.81
389.84	945.58
390.03	987.71
390.22	1086.01
390.42	957.28
390.61	1039.20
390.81	966.64
391.00	1015.79
391.19	1095.37
391.39	973.66
391.58	1050.90
391.78	1107.07
391.97	1095.37
392.16	1032.18
392.36	1053.24
392.55	1050.90
392.75	999.41
392.94	973.66
393.13	1036.86
393.33	1062.60
393.52	1053.24
393.71	1090.69
393.91	1142.18
394.10	1100.05
394.29	1245.16
394.49	1193.67
394.68	1109.41
394.88	1191.33
395.07	1210.06
395.26	1263.89
395.46	1245.16
395.65	1273.25
395.84	1214.74
396.04	1273.25
396.23	1196.01
396.42	1212.40
396.62	1210.06
396.81	1240.48
397.00	1296.66
397.19	1313.04
397.39	1289.64
397.58	1355.17
397.77	1256.87
397.97	1416.02
398.16	1401.98
398.35	1544.75
398.55	1451.13
398.74	1490.92
398.93	1469.86
399.12	1425.39
399.32	1392.62
399.51	1472.20
399.70	1575.18
399.90	1523.69
400.09	1577.52
400.28	1582.20
400.47	1493.26
400.67	1624.33
400.86	1621.99
401.05	1570.50
401.24	1640.72
401.44	1659.44
401.63	1717.95
401.82	1699.23
402.01	1708.59
402.21	1685.19
402.40	1741.36
402.59	1664.12
402.78	1762.42
402.97	1596.25
403.17	1708.59
403.36	1699.23
403.55	1844.34
403.74	1846.68
403.93	1832.64
404.13	1820.94
404.32	1781.15
404.51	1886.47
404.70	1982.43
404.89	1867.75
405.09	1968.39
405.28	1877.11
405.47	1952.01
405.66	1907.54
405.85	1998.82
406.05	2036.27
406.24	2047.97
406.43	1952.01
406.62	1980.09
406.81	2127.55
407.00	2106.48
407.20	1991.80
407.39	1944.99
407.58	2108.82
407.77	2176.70
407.96	2186.06
408.15	2310.11
408.34	2139.25
408.54	2239.89
408.73	2265.64
408.92	2223.51
409.11	2345.22
409.30	2286.70
409.49	2239.89
409.68	2317.13
409.87	2193.08
410.07	2258.62
410.26	2429.48
410.45	2246.91
410.64	2380.32
410.83	2373.30
411.02	2448.20
411.21	2506.71
411.40	2527.78
411.59	2530.12
411.78	2492.67
411.98	2560.55
412.17	2527.78
412.36	2635.44
412.55	2698.64
412.74	2722.04
412.93	2773.53
413.12	2700.98
413.31	2768.85
413.50	2853.11
413.69	2759.49
413.88	2843.75
414.07	2888.22
414.26	2820.35
414.45	3009.93
414.64	2825.03
414.83	2949.08
415.02	2932.69
415.22	3150.36
415.41	3091.85
415.60	3030.99
415.79	3112.91
415.98	3253.34
416.17	3272.07
416.36	3183.13
416.55	3159.72
416.74	3227.60
416.93	3248.66
417.12	3258.03
417.31	3332.92
417.50	3248.66
417.69	3438.25
417.88	3328.24
418.07	3323.56
418.26	3403.14
418.45	3480.38
418.64	3506.12
418.83	3471.01
419.02	3513.14
419.21	3555.27
419.39	3480.38
419.58	3480.38
419.77	3426.54
419.96	3655.92
420.15	3482.72
420.34	3623.15
420.53	3679.32
420.72	3770.60
420.91	3705.07
421.10	3702.73
421.29	3794.01
421.48	3819.75
421.67	3852.52
421.86	3719.11
422.05	3592.72
422.24	3754.22
422.43	3726.13
422.61	3845.50
422.80	3831.46
422.99	3882.95
423.18	3887.63
423.37	3847.84
423.56	3871.25
423.75	3812.73
423.94	3932.10
424.13	3700.39
424.32	3831.46
424.50	4002.32
424.69	4007.00
424.88	4032.74
425.07	3864.22
425.26	3953.16
425.45	3845.50
425.64	3882.95
425.83	3901.67
426.01	3918.06
426.20	3988.27
426.39	3904.01
426.58	3882.95
426.77	3871.25
426.96	3906.35
427.15	4065.51
427.33	4091.26
427.52	3868.91
427.71	4070.19
427.90	4025.72
428.09	4147.43
428.28	4196.58
428.46	4208.28
428.65	4037.42
428.84	4262.12
429.03	4250.41
429.22	4109.98
429.40	4058.49
429.59	4100.62
429.78	3871.25
429.97	3948.48
430.16	4011.68
430.34	4046.79
430.53	4131.05
430.72	4133.39
430.91	4255.09
431.10	4355.74
431.28	4341.69
431.47	4538.30
431.66	4524.26
431.85	4355.74
432.03	4557.02
432.22	4620.22
432.41	4475.10
432.60	4599.15
432.79	4690.43
432.97	4610.86
433.16	4702.14
433.35	4573.41
433.54	4676.39
433.72	4652.98
433.91	4514.89
434.10	4688.09
434.28	4685.75
434.47	4851.93
434.66	4894.06
434.85	4840.23
435.03	4770.01
435.22	4861.29
435.41	4880.02
435.59	5039.17
435.78	4992.36
435.97	5170.24
436.16	4978.32
436.34	4915.12
436.53	5085.98
436.72	5160.88
436.90	4851.93
437.09	5142.16
437.28	5050.88
437.46	5111.73
437.65	5198.33
437.84	5078.96
438.02	5027.47
438.21	5076.62
438.40	4973.64
438.58	5296.63
438.77	5327.06
438.96	5228.76
439.14	5458.13
439.33	5537.71
439.52	5544.73
439.70	5547.07
439.89	5556.43
440.08	5589.20
440.26	5549.41
440.45	5659.42
440.63	5694.52
440.82	5741.33
441.01	5973.05
441.19	5919.21
441.38	5928.58
441.57	5996.45
441.75	6090.07
441.94	6207.10
442.12	6272.64
442.31	6029.22
442.50	6286.68
442.68	6118.16
442.87	6211.78
443.05	6291.36
443.24	6368.60
443.43	6443.49
443.61	6452.86
443.80	6588.61
443.98	6375.62
444.17	5968.37
444.35	6469.24
444.54	6504.35
444.73	6492.65
444.91	6422.43
445.10	6562.86
445.28	6399.02
445.47	6406.05
445.65	6483.28
445.84	6509.03
446.02	6583.93
446.21	6459.88
446.39	6457.54
446.58	6565.20
446.77	6541.80
446.95	6403.71
447.14	6553.50
447.32	6679.89
447.51	6417.75
447.69	6700.95
447.88	6630.74
448.06	6658.82
448.25	6597.97
448.43	6841.39
448.62	6717.34
448.80	6417.75
448.99	6691.59
449.17	6717.34
449.36	6548.82
449.54	6780.53
449.73	6883.52
449.91	7063.74
450.10	7234.60
450.28	7115.23
450.46	7152.68
450.65	7152.68
450.83	7094.16
451.02	7016.93
451.20	7204.17
451.39	7150.34
451.57	7101.19
451.76	7002.88
451.94	7117.57
452.13	7279.07
452.31	7222.89
452.49	7164.38
452.68	7115.23
452.86	6993.52
453.05	7398.43
453.23	7246.30
453.42	7185.44
453.60	7117.57
453.78	7368.01
453.97	7148.00
454.15	7269.70
454.34	7293.11
454.52	7365.67
454.70	7255.66
454.89	7503.76
455.07	7531.84
455.26	7578.65
455.44	7428.86
455.62	7492.05
455.81	7737.81
455.99	7836.11
456.17	7681.64
456.36	7583.34
456.54	7793.98
456.73	7915.69
456.91	8133.36
457.09	8121.66
457.28	8271.45
457.46	8098.25
457.64	8053.78
457.83	7822.07
458.01	7981.23
458.19	8149.75
458.38	8063.15
458.56	8325.29
458.74	8248.05
458.93	8074.85
459.11	8175.49
459.29	8226.98
459.48	8353.37
459.66	8154.43
459.84	8194.22
460.03	8456.36
460.21	8339.33
460.39	8503.17
460.57	8322.94
460.76	8304.22
460.94	8461.04
461.12	8444.65
461.31	8542.96
461.49	8500.83
461.67	8500.83
461.85	8716.16
462.04	8568.70
462.22	9060.21
462.40	8901.06
462.59	8919.78
462.77	8702.11
462.95	8667.00
463.13	8692.75
463.32	8933.82
463.50	9011.06
463.68	8828.50
463.86	9032.13
464.05	8730.20
464.23	8849.57
464.41	8903.40
464.59	8711.47
464.78	9043.83
464.96	9018.08
465.14	8964.25
465.32	9137.45
465.50	9160.86
465.69	9076.60
465.87	9146.81
466.05	9060.21
466.23	9053.19
466.41	9062.55
466.60	9235.75
466.78	8936.17
466.96	9097.66
467.14	9219.37
467.32	9256.82
467.51	9451.08
467.69	8910.42
467.87	9411.29
468.05	9371.50
468.23	9355.12
468.41	9135.11
468.60	9427.68
468.78	9572.79
468.96	9462.79
469.14	9561.09
469.32	9643.01
469.50	9338.74
469.69	9589.17
469.87	9635.99
470.05	9650.03
470.23	9834.93
470.41	9984.73
470.59	9900.47
470.77	9657.05
470.95	9877.06
471.14	10003.45
471.32	9811.53
471.50	10181.33
471.68	10064.30
471.86	10122.82
472.04	10296.02
472.22	10579.22
472.40	10026.86
472.58	10036.22
472.77	10448.15
472.95	10387.30
473.13	10656.46
473.31	10361.55
473.49	10532.41
473.67	10567.52
473.85	10537.09
474.03	10771.15
474.21	10785.19
474.39	10824.98
474.57	10780.51
474.75	10951.37
474.93	10949.03
475.12	11019.24
475.30	11080.10
475.48	10986.47
475.66	11183.08
475.84	10958.39
476.02	11267.34
476.20	11456.92
476.38	11730.76
476.56	11543.52
476.74	11714.38
476.92	11763.53
477.10	11927.37
477.28	11906.31
477.46	11812.68
477.64	11969.50
477.82	12123.98
478.00	12388.46
478.18	12468.03
478.36	12706.77
478.54	12547.61
478.72	12795.71
478.90	12608.47
479.08	13041.46
479.26	12943.16
479.44	13214.66
479.62	13097.64
479.80	13263.82
479.98	13322.33
480.16	13425.31
480.34	13448.72
480.52	13703.84
480.70	13565.74
480.88	13554.04
481.06	13624.26
481.24	13816.18
481.41	14101.73
481.59	14221.10
481.77	14221.10
481.95	14307.69
482.13	14368.55
482.31	14544.09
482.49	14647.07
482.67	14656.43
482.85	14888.15
483.03	14892.83
483.21	15234.55
483.39	15112.84
483.57	15286.04
483.74	15311.78
483.92	15433.49
484.10	15208.80
484.28	15618.39
484.46	16023.31
484.64	16079.48
484.82	15620.74
485.00	16130.97
485.18	16299.49
485.35	16196.51
485.53	16077.14
485.71	15953.09
485.89	16435.24
486.07	16416.52
486.25	16664.61
486.43	16795.68
486.61	16912.71
486.78	17221.66
486.96	17331.67
487.14	17371.46
487.32	17610.19
487.50	17727.22
487.68	17792.75
487.85	18197.67
488.03	18202.35
488.21	18312.35
488.39	18377.89
488.57	18633.00
488.75	18494.91
488.92	18740.67
489.10	18801.52
489.28	19433.47
489.46	19145.58
489.64	19379.64
489.81	19939.02
489.99	19609.01
490.17	20009.24
490.35	20049.03
490.53	19906.26
490.70	20332.23
490.88	20376.70
491.06	20690.34
491.24	20524.16
491.41	20458.62
491.59	20697.36
491.77	20891.62
491.95	20947.79
492.13	21029.71
492.30	21399.52
492.48	21649.96
492.66	21752.94
492.84	21788.05
493.01	21809.11
493.19	22019.76
493.37	21916.78
493.54	22221.05
493.72	22525.32
493.90	22258.49
494.08	22511.27
494.25	23374.93
494.43	22852.99
494.61	23220.45
494.79	23234.50
494.96	23070.66
495.14	23253.22
495.32	23714.31
495.49	23295.35
495.67	23798.57
495.85	23833.68
496.02	24224.54
496.20	24355.61
496.38	24519.45
496.55	24201.14
496.73	24809.68
496.91	24788.61
497.09	24854.15
497.26	25095.22
497.44	24620.10
497.62	25071.82
497.79	25156.08
497.97	24687.97
498.14	25422.90
498.32	25298.85
498.50	25287.15
498.67	25565.67
498.85	25958.88
499.03	25916.75
499.20	25724.83
499.38	25898.03
499.56	26333.37
499.73	26045.48
499.91	26366.13
500.08	26534.65
500.26	26022.08
500.44	26654.02
500.61	26569.76
500.79	26623.59
500.97	26546.36
501.14	27271.92
501.32	26682.11
501.49	26703.17
501.67	26745.30
501.84	27370.22
502.02	27309.37
502.20	27510.66
502.37	27882.80
502.55	27255.54
502.72	27850.03
502.90	27887.48
503.07	27812.59
503.25	28428.15
503.43	27667.47
503.60	28252.61
503.78	27868.76
503.95	27859.40
504.13	28135.58
504.30	28608.37
504.48	28559.22
504.65	28287.71
504.83	28797.95
505.01	28774.55
505.18	29294.14
505.36	29219.25
505.53	29057.75
505.71	29486.07
505.88	29549.26
506.06	29111.58
506.23	29462.66
506.41	29696.72
506.58	29483.73
506.76	29443.94
506.93	29846.51
507.11	29591.39
507.28	30258.45
507.46	29596.07
507.63	29961.20
507.81	30110.99
507.98	29844.17
508.16	30150.78
508.33	30377.81
508.50	30298.23
508.68	30543.99
508.85	31281.26
509.03	30670.38
509.20	31227.43
509.38	30976.99
509.55	31482.55
509.73	31220.41
509.90	31079.97
510.08	31250.83
510.25	31407.65
510.42	31557.44
510.60	31793.84
510.77	31721.28
510.95	32002.14
511.12	31459.14
511.30	31721.28
511.47	32231.52
511.64	32147.26
511.82	32175.34
511.99	31861.71
512.17	32460.89
512.34	31981.08
512.51	32629.41
512.69	32353.23
512.86	32456.21
513.04	32568.55
513.21	32776.86
513.38	32437.48
513.56	32598.98
513.73	32882.19
513.90	32727.71
514.08	32952.40
514.25	33193.48
514.43	32734.73
514.60	32762.82
514.77	33228.59
514.95	33661.58
515.12	33240.29
515.29	33837.12
515.47	33982.24
515.64	34066.50
515.81	33954.15
515.99	33745.84
516.16	33670.95
516.33	33713.08
516.51	33741.16
516.68	33371.36
516.85	33013.26
517.03	33619.46
517.20	33743.50
517.37	34300.55
517.54	34480.77
517.72	34597.80
517.89	34082.88
518.06	33954.15
518.24	34387.15
518.41	34038.41
518.58	34443.32
518.75	34309.91
518.93	34621.20
519.10	34595.46
519.27	34927.81
519.45	34801.43
519.62	35016.75
519.79	35349.11
519.96	35487.20
520.14	35306.98
520.31	35138.46
520.48	35496.56
520.65	35688.49
520.83	35964.67
521.00	35969.35
521.17	35332.73
521.34	35920.20
521.52	35838.28
521.69	36367.24
521.86	36360.22
522.03	36290.01
522.20	36304.05
522.38	36250.22
522.55	36444.48
522.72	36570.87
522.89	36481.93
523.07	36603.64
523.24	36617.68
523.41	37137.28
523.58	36514.70
523.75	37179.41
523.92	37151.32
524.10	37399.42
524.27	37214.52
524.44	36966.42
524.61	37060.04
524.78	37502.40
524.96	37261.33
525.13	37523.47
525.30	37881.57
525.47	37776.25
525.64	37120.90
525.81	37907.32
525.98	37605.39
526.16	37488.36
526.33	37345.59
526.50	37790.29
526.67	37427.51
526.84	37450.91
527.01	37333.89
527.18	37961.15
527.36	38094.56
527.53	37963.49
527.70	38335.63
527.87	38384.79
528.04	37827.74
528.21	38590.75
528.38	37890.93
528.55	38583.73
528.72	38583.73
528.89	38738.21
529.07	38787.36
529.24	38106.26
529.41	38712.46
529.58	38705.44
529.75	38770.97
529.92	38761.61
530.09	38827.15
530.26	39037.80
530.43	39044.82
530.60	39054.18
530.77	39445.05
530.94	39330.36
531.11	39325.68
531.28	39210.99
531.46	39395.90
531.63	39552.71
531.80	39005.03
531.97	40109.76
532.14	39428.66
532.31	38960.56
532.48	39189.93
532.65	39721.23
532.82	39531.65
532.99	40165.93
533.16	39683.78
533.33	39423.98
533.50	39945.92
533.67	39686.12
533.84	39988.05
534.01	39859.32
534.18	39882.73
534.35	40369.56
534.52	40060.61
534.69	40397.65
534.86	40573.19
535.03	40238.49
535.20	40769.79
535.37	40697.24
535.54	41062.36
535.71	40568.51
535.88	41123.21
536.05	40149.55
536.22	40430.41
536.38	40739.36
536.55	40622.34
536.72	40362.54
536.89	40495.95
537.06	40847.03
537.23	40830.65
537.40	40659.79
537.57	40474.88
537.74	41240.24
537.91	41516.42
538.08	41310.46
538.25	41062.36
538.42	41181.73
538.59	41109.17
538.75	40938.31
538.92	41296.41
539.09	41298.75
539.26	41373.65
539.43	41443.87
539.60	41254.28
539.77	41338.54
539.94	41904.95
540.11	40996.82
540.28	41200.45
540.44	41326.84
540.61	41909.63
540.78	41514.08
540.95	41862.82
541.12	41516.42
541.29	41294.07
541.46	41724.73
541.62	41715.37
541.79	41986.87
541.96	41579.62
542.13	42122.62
542.30	42059.43
542.47	42007.94
542.63	42117.94
542.80	42160.07
542.97	42754.57
543.14	42990.96
543.31	42871.59
543.48	42792.01
543.64	43119.69
543.81	42904.36
543.98	42602.43
544.15	42478.38
544.32	43049.47
544.48	43168.84
544.65	42820.10
544.82	42920.74
544.99	42696.05
545.16	42684.35
545.32	42190.50
545.49	43040.11
545.66	43143.09
545.83	43255.44
546.00	43393.53
546.16	43131.39
546.33	43161.82
546.50	42878.61
546.67	43543.33
546.83	42700.73
547.00	43377.15
547.17	43269.48
547.34	43168.84
547.50	43208.63
547.67	43611.20
547.84	43805.47
548.00	43789.08
548.17	43941.22
548.34	43449.70
548.51	43777.38
548.67	44231.44
548.84	43992.71
549.01	43931.86
549.18	43735.25
549.34	43892.07
549.51	43667.37
549.68	44163.57
549.84	43854.62
550.01	44004.41
550.18	43662.69
550.34	44072.29
550.51	44016.11
550.68	43990.37
550.84	43751.63
551.01	44526.35
551.18	44004.41
551.34	44208.04
551.51	44355.49
551.68	44341.45
551.84	44519.33
552.01	43969.30
552.18	44311.02
552.34	43936.54
552.51	44435.07
552.68	44189.31
552.84	44404.64
553.01	44830.62
553.18	44109.74
553.34	44259.53
553.51	44357.83
553.67	44435.07
553.84	44814.24
554.01	44652.74
554.17	44914.88
554.34	44896.16
554.51	44582.52
554.67	44751.04
554.84	45134.89
555.00	44753.38
555.17	44692.53
555.33	45181.70
555.50	44692.53
555.67	44575.50
555.83	44596.57
556.00	44776.79
556.16	45305.75
556.33	44900.84
556.50	45193.40
556.66	45034.25
556.83	44540.39
556.99	45193.40
557.16	45125.53
557.32	45148.93
557.49	45102.12
557.65	45221.49
557.82	44753.38
557.98	44807.22
558.15	44879.77
558.32	45282.34
558.48	45488.31
558.65	45315.11
558.81	44957.01
558.98	44961.69
559.14	45251.92
559.31	45415.76
559.47	45724.71
559.64	45787.90
559.80	45415.76
559.97	45581.93
560.13	45226.17
560.30	44964.03
560.46	45787.90
560.63	45619.38
560.79	45556.19
560.96	45801.94
561.12	45827.69
561.29	45832.37
561.45	45628.74
561.61	45703.64
561.78	45172.34
561.94	45478.95
562.11	45619.38
562.27	45497.67
562.44	45457.88
562.60	45563.21
562.77	45825.35
562.93	45598.32
563.10	45745.77
563.26	45504.70
563.42	45595.98
563.59	45895.56
563.75	45647.47
563.92	45787.90
564.08	45783.22
564.24	45970.46
564.41	45577.25
564.57	45446.18
564.74	45996.21
564.90	45895.56
565.07	45921.31
565.23	46246.65
565.39	45930.67
565.56	45811.31
565.72	45425.12
565.88	45778.54
566.05	45759.81
566.21	45907.27
566.38	45413.41
566.54	45867.48
566.70	45914.29
566.87	46239.62
567.03	45820.67
567.19	46230.26
567.36	46351.97
567.52	46440.91
567.68	46206.86
567.85	45794.92
568.01	45984.51
568.17	45682.58
568.34	46195.15
568.50	45851.09
568.66	46134.30
568.83	45832.37
568.99	45811.31
569.15	45670.87
569.32	45989.19
569.48	45649.81
569.64	46354.31
569.81	46248.99
569.97	46518.15
570.13	45935.35
570.30	46031.32
570.46	45979.82
570.62	45668.53
570.78	45893.22
570.95	46082.81
571.11	46485.38
571.27	45727.05
571.43	45998.55
571.60	46230.26
571.76	46185.79
571.92	46057.06
572.09	46153.02
572.25	46251.33
572.41	45778.54
572.57	46012.59
572.74	46841.14
572.90	46319.20
573.06	46101.53
573.22	45916.63
573.38	46387.08
573.55	46024.29
573.71	46075.79
573.87	46302.82
574.03	46167.07
574.20	46153.02
574.36	46260.69
574.52	46354.31
574.68	46307.50
574.84	46569.64
575.01	46012.59
575.17	46281.75
575.33	46094.51
575.49	46216.22
575.65	46689.01
575.82	46611.77
575.98	45970.46
576.14	46642.20
576.30	46405.80
576.46	46459.63
576.62	46314.52
576.79	46333.24
576.95	45813.65
577.11	46007.91
577.27	46183.45
577.43	46490.06
577.59	45909.61
577.75	46515.81
577.92	45937.69
578.08	45757.47
578.24	45879.18
578.40	46234.94
578.56	46270.05
578.72	46358.99
578.88	46670.28
579.04	46639.86
579.21	46298.14
579.37	45860.46
579.53	46328.56
579.69	46007.91
579.85	46167.07
580.01	46178.77
580.17	46293.46
580.33	46227.92
580.49	46344.95
580.65	46361.33
580.82	46422.19
580.98	46225.58
581.14	46480.70
581.30	46520.49
581.46	46396.44
581.62	46307.50
581.78	46473.68
581.94	46440.91
582.10	46351.97
582.26	46590.70
582.42	46679.64
582.58	46281.75
582.74	46340.27
582.90	46408.14
583.06	46370.69
583.22	46710.07
583.38	46689.01
583.54	46401.12
583.70	46431.55
583.86	46543.89
584.02	46199.83
584.18	46391.76
584.34	46239.62
584.50	46571.98
584.66	46340.27
584.82	46344.95
584.98	46686.67
585.14	46167.07
585.30	46838.80
585.46	46171.75
585.62	46157.70
585.78	46164.73
585.94	46082.81
586.10	46401.12
586.26	46674.96
586.42	46721.77
586.58	46756.88
586.74	46656.24
586.90	46298.14
587.06	45701.30
587.22	46520.49
587.38	46199.83
587.54	46342.61
587.70	46529.85
587.86	46138.98
588.02	46672.62
588.18	46646.88
588.34	46410.48
588.49	46143.66
588.65	46146.00
588.81	46078.13
588.97	46403.46
589.13	45663.85
589.29	46277.07
589.45	46321.54
589.61	46260.69
589.77	46632.83
589.93	46143.66
