SpectraSuite Data File
++++++++++++++++++++++++++++++++++++
Date: Fri Oct 25 11:23:34 EDT 2013
User: price-jones
Dark Spectrum Present: No
Reference Spectrum Present: No
Number of Sampled Component Spectra: 1
Spectrometers: USB2+H05261
Integration Time (usec): 100000 (USB2+H05261)
Spectra Averaged: 1 (USB2+H05261)
Boxcar Smoothing: 0 (USB2+H05261)
Correct for Electrical Dark: No (USB2+H05261)
Strobe/Lamp Enabled: No (USB2+H05261)
Correct for Detector Non-linearity: No (USB2+H05261)
Correct for Stray Light: No (USB2+H05261)
Number of Pixels in Processed Spectrum: 2048
>>>>>Begin Processed Spectral Data<<<<<
365.73	234.05
365.92	234.05
366.12	234.05
366.32	201.29
366.52	100.64
366.72	142.77
366.91	142.77
367.11	51.49
367.31	14.04
367.51	140.43
367.70	147.45
367.90	159.16
368.10	88.94
368.30	142.77
368.49	133.41
368.69	166.18
368.89	156.82
369.09	102.98
369.28	145.11
369.48	49.15
369.68	161.50
369.87	170.86
370.07	243.42
370.27	280.86
370.47	334.70
370.66	643.65
370.86	615.56
371.06	685.78
371.25	699.82
371.45	667.05
371.65	664.71
371.84	681.10
372.04	589.82
372.24	671.73
372.44	774.72
372.63	767.70
372.83	702.16
373.03	697.48
373.22	732.59
373.42	821.53
373.62	788.76
373.81	821.53
374.01	861.32
374.21	842.59
374.40	795.78
374.60	786.42
374.79	858.98
374.99	802.80
375.19	835.57
375.38	849.61
375.58	903.45
375.78	800.46
375.97	875.36
376.17	898.77
376.37	795.78
376.56	791.10
376.76	929.19
376.95	861.32
377.15	830.89
377.35	922.17
377.54	905.79
377.74	936.21
377.93	924.51
378.13	903.45
378.33	964.30
378.52	926.85
378.72	933.87
378.91	884.72
379.11	936.21
379.31	961.96
379.50	891.74
379.70	936.21
379.89	1022.81
380.09	1001.75
380.28	929.19
380.48	1053.24
380.68	980.68
380.87	1039.20
381.07	1020.47
381.26	1048.56
381.46	987.71
381.65	1036.86
381.85	1046.22
382.04	1027.50
382.24	980.68
382.43	1142.18
382.63	1090.69
382.83	987.71
383.02	1069.62
383.22	1102.39
383.41	1074.31
383.61	1102.39
383.80	1156.22
384.00	1123.46
384.19	1139.84
384.39	1095.37
384.58	1151.54
384.78	1186.65
384.97	1104.73
385.17	1090.69
385.36	1149.20
385.56	1207.72
385.75	1203.04
385.95	1198.35
386.14	1252.19
386.34	1273.25
386.53	1210.06
386.72	1160.91
386.92	1240.48
387.11	1270.91
387.31	1266.23
387.50	1144.52
387.70	1179.63
387.89	1235.80
388.09	1193.67
388.28	1284.95
388.48	1277.93
388.67	1254.53
388.86	1322.40
389.06	1345.81
389.25	1378.58
389.45	1352.83
389.64	1343.47
389.84	1310.70
390.03	1432.41
390.22	1303.68
390.42	1404.32
390.61	1334.11
390.81	1341.13
391.00	1448.79
391.19	1479.22
391.39	1502.62
391.58	1401.98
391.78	1441.77
391.97	1514.33
392.16	1434.75
392.36	1439.43
392.55	1458.15
392.75	1593.90
392.94	1476.88
393.13	1423.05
393.33	1500.28
393.52	1530.71
393.71	1607.95
393.91	1678.16
394.10	1556.46
394.29	1619.65
394.49	1516.67
394.68	1678.16
394.88	1579.86
395.07	1626.67
395.26	1650.08
395.46	1736.68
395.65	1636.03
395.84	1713.27
396.04	1746.04
396.23	1717.95
396.42	1783.49
396.62	1778.81
396.81	1842.00
397.00	1820.94
397.19	1783.49
397.39	1849.02
397.58	1867.75
397.77	1893.49
397.97	1923.92
398.16	1811.57
398.35	1865.41
398.55	1846.68
398.74	1898.17
398.93	1930.94
399.12	1905.20
399.32	1886.47
399.51	1970.73
399.70	1984.77
399.90	1961.37
400.09	1961.37
400.28	1975.41
400.47	2022.22
400.67	2134.57
400.86	2064.35
401.05	2125.21
401.24	2176.70
401.44	2162.66
401.63	2064.35
401.82	2200.10
402.01	2097.12
402.21	2204.78
402.40	2251.60
402.59	2190.74
402.78	2225.85
402.97	2188.40
403.17	2228.19
403.36	2338.20
403.55	2202.44
403.74	2340.54
403.93	2415.43
404.13	2218.83
404.32	2286.70
404.51	2413.09
404.70	2324.15
404.89	2340.54
405.09	2431.82
405.28	2513.74
405.47	2469.27
405.66	2605.02
405.85	2558.21
406.05	2455.22
406.24	2506.71
406.43	2607.36
406.62	2583.95
406.81	2553.52
407.00	2623.74
407.20	2635.44
407.39	2672.89
407.58	2736.09
407.77	2729.06
407.96	2782.90
408.15	2862.48
408.34	2635.44
408.54	2768.85
408.73	2771.19
408.92	2794.60
409.11	2853.11
409.30	2839.07
409.49	2981.84
409.68	2885.88
409.87	2918.65
410.07	3028.65
410.26	3075.46
410.45	2888.22
410.64	2923.33
410.83	3014.61
411.02	3112.91
411.21	3164.40
411.40	3162.06
411.59	3255.69
411.78	3215.90
411.98	3190.15
412.17	3222.92
412.36	3342.28
412.55	3419.52
412.74	3468.67
412.93	3398.46
413.12	3400.80
413.31	3588.04
413.50	3538.89
413.69	3487.40
413.88	3602.08
414.07	3529.53
414.26	3756.56
414.45	3463.99
414.64	3630.17
414.83	3721.45
415.02	3885.29
415.22	3716.77
415.41	3836.14
415.60	3885.29
415.79	3833.80
415.98	3983.59
416.17	3927.42
416.36	4002.32
416.55	4063.17
416.74	3988.27
416.93	4081.89
417.12	3999.98
417.31	4109.98
417.50	4224.67
417.69	4271.48
417.88	4161.47
418.07	4311.27
418.26	4358.08
418.45	4365.10
418.64	4421.27
418.83	4341.69
419.02	4353.40
419.21	4458.72
419.39	4463.40
419.58	4491.49
419.77	4514.89
419.96	4592.13
420.15	4566.39
420.34	4585.11
420.53	4678.73
420.72	4730.22
420.91	4851.93
421.10	4695.11
421.29	4847.25
421.48	4622.56
421.67	4847.25
421.86	4739.58
422.05	4917.47
422.24	4868.31
422.43	4849.59
422.61	4957.25
422.80	5001.72
422.99	4931.51
423.18	4910.44
423.37	5032.15
423.56	4997.04
423.75	4865.97
423.94	4884.70
424.13	4662.35
424.32	4919.81
424.50	5011.09
424.69	5064.92
424.88	5071.94
425.07	5071.94
425.26	5067.26
425.45	4894.06
425.64	4828.53
425.83	4889.38
426.01	5025.13
426.20	5095.35
426.39	5170.24
426.58	5001.72
426.77	5025.13
426.96	5245.14
427.15	5062.58
427.33	5212.37
427.52	5195.99
427.71	5392.59
427.90	5263.86
428.09	5392.59
428.28	5399.62
428.46	5504.94
428.65	5210.03
428.84	5298.97
429.03	5425.36
429.22	5476.85
429.40	5518.98
429.59	5500.26
429.78	5472.17
429.97	5296.63
430.16	5331.74
430.34	5535.37
430.53	5673.46
430.72	5628.99
430.91	5556.43
431.10	5610.26
431.28	5760.06
431.47	5888.79
431.66	5856.02
431.85	5741.33
432.03	6094.76
432.22	5949.64
432.41	5968.37
432.60	5937.94
432.79	6031.56
432.97	6045.60
433.16	6008.16
433.35	6078.37
433.54	6073.69
433.72	6171.99
433.91	6118.16
434.10	6274.98
434.28	6200.08
434.47	6356.90
434.66	6300.72
434.85	6188.38
435.03	6314.77
435.22	6450.52
435.41	6406.05
435.59	6347.53
435.78	6417.75
435.97	6335.83
436.16	6403.71
436.34	6380.30
436.53	6471.58
436.72	6740.74
436.90	6370.94
437.09	6654.14
437.28	6633.08
437.46	6633.08
437.65	6658.82
437.84	6843.73
438.02	6644.78
438.21	6925.65
438.40	6712.66
438.58	6988.84
438.77	7117.57
438.96	7115.23
439.14	7014.59
439.33	7162.04
439.52	7180.76
439.70	7159.70
439.89	7335.24
440.08	7330.56
440.26	7073.10
440.45	7180.76
440.63	7513.12
440.82	7723.77
441.01	7606.74
441.19	7639.51
441.38	7639.51
441.57	7763.56
441.75	7889.95
441.94	7892.29
442.12	8065.49
442.31	8018.68
442.50	8142.72
442.68	8037.40
442.87	8079.53
443.05	8161.45
443.24	8280.82
443.43	8203.58
443.61	8376.78
443.80	8451.67
443.98	8273.79
444.17	7992.93
444.35	8119.32
444.54	8229.32
444.73	8451.67
444.91	8498.49
445.10	8475.08
445.28	8344.01
445.47	8397.84
445.65	8301.88
445.84	8421.25
446.02	8557.00
446.21	8510.19
446.39	8545.30
446.58	8367.42
446.77	8622.53
446.95	8276.13
447.14	8690.41
447.32	8479.76
447.51	8472.74
447.69	8421.25
447.88	8500.83
448.06	8674.03
448.25	8627.21
448.43	8507.85
448.62	8723.18
448.80	8650.62
448.99	8772.33
449.17	8924.46
449.36	8568.70
449.54	8741.90
449.73	9109.36
449.91	8982.98
450.10	9128.09
450.28	9123.41
450.46	9214.69
450.65	9076.60
450.83	9228.73
451.02	9018.08
451.20	9179.58
451.39	9240.44
451.57	9116.39
451.76	9210.01
451.94	9158.52
452.13	9533.00
452.31	9334.06
452.49	9109.36
452.68	9448.74
452.86	9427.68
453.05	9448.74
453.23	9734.29
453.42	9231.07
453.60	9549.39
453.78	9572.79
453.97	9453.42
454.15	9493.21
454.34	9673.43
454.52	9774.08
454.70	9755.35
454.89	9617.26
455.07	9806.84
455.26	9902.81
455.44	9980.04
455.62	9727.27
455.81	10029.20
455.99	10010.47
456.17	9905.15
456.36	10106.43
456.54	10382.62
456.73	10181.33
456.91	10686.89
457.09	10190.69
457.28	10473.90
457.46	10406.02
457.64	10466.88
457.83	10499.64
458.01	10410.70
458.19	10757.10
458.38	10747.74
458.56	10810.93
458.74	10775.83
458.93	10740.72
459.11	10703.27
459.29	10754.76
459.48	10981.79
459.66	10832.00
459.84	10927.96
460.03	10960.73
460.21	11042.65
460.39	11047.33
460.57	10904.56
460.76	11126.91
460.94	11059.03
461.12	11417.13
461.31	11154.99
461.49	11253.30
461.67	11393.73
461.85	11506.07
462.04	11424.15
462.22	11627.78
462.40	11632.46
462.59	11569.27
462.77	11445.22
462.95	11566.93
463.13	11602.04
463.32	11859.49
463.50	11676.93
463.68	11875.88
463.86	11913.33
464.05	11644.17
464.23	11550.54
464.41	12128.66
464.59	11754.17
464.78	12072.48
464.96	12049.08
465.14	12095.89
465.32	12208.23
465.50	12004.61
465.69	12381.43
465.87	12152.06
466.05	11934.39
466.23	12285.47
466.41	12126.32
466.60	12769.96
466.78	12271.43
466.96	12166.10
467.14	12278.45
467.32	12421.22
467.51	12711.45
467.69	12306.54
467.87	12348.67
468.05	12685.70
468.23	12386.12
468.41	12269.09
468.60	12657.62
468.78	12978.27
468.96	12643.57
469.14	12891.67
469.32	13036.78
469.50	12666.98
469.69	12959.55
469.87	12994.65
470.05	13013.38
470.23	13153.81
470.41	13252.11
470.59	13174.88
470.77	13107.00
470.95	13158.49
471.14	13813.84
471.32	13041.46
471.50	13563.40
471.68	13479.15
471.86	13696.82
472.04	13846.61
472.22	14223.44
472.40	13525.96
472.58	13937.89
472.77	13914.48
472.95	14190.67
473.13	14778.14
473.31	14197.69
473.49	14265.57
473.67	14113.43
473.85	14410.68
474.03	14794.53
474.21	14611.96
474.39	14946.66
474.57	14782.82
474.75	15180.71
474.93	14920.92
475.12	15014.54
475.30	15105.82
475.48	15147.95
475.66	15461.58
475.84	15272.00
476.02	15527.11
476.20	15274.34
476.38	15861.81
476.56	16128.63
476.74	16020.97
476.92	15901.60
477.10	15967.13
477.28	16554.61
477.46	16339.28
477.64	16381.41
477.82	16468.01
478.00	17156.13
478.18	16893.99
478.36	16861.22
478.54	17207.62
478.72	17034.42
478.90	17572.74
479.08	17640.62
479.26	17701.47
479.44	17916.80
479.62	17764.67
479.80	18043.19
479.98	18335.76
480.16	18705.56
480.34	18120.43
480.52	18743.01
480.70	18829.61
480.88	18490.23
481.06	19005.15
481.24	18923.23
481.41	19318.78
481.59	19384.32
481.77	19426.45
481.95	19702.63
482.13	19845.40
482.31	19665.18
482.49	20276.06
482.67	20149.67
482.85	20900.98
483.03	20521.82
483.21	20776.94
483.39	21362.07
483.57	21085.89
483.74	21373.77
483.92	21530.59
484.10	21415.90
484.28	21343.35
484.46	22066.57
484.64	22630.64
484.82	21876.99
485.00	22384.88
485.18	22757.03
485.35	23339.82
485.53	22869.37
485.71	23122.15
485.89	23550.47
486.07	23363.23
486.25	23297.69
486.43	23779.84
486.61	23995.17
486.78	23995.17
486.96	24009.22
487.14	24411.79
487.32	24694.99
487.50	24816.70
487.68	25355.02
487.85	25144.38
488.03	25418.22
488.21	26085.27
488.39	25844.20
488.57	26260.81
488.75	26103.99
488.92	26869.35
489.10	26602.53
489.28	26953.61
489.46	27632.36
489.64	26946.59
489.81	27873.44
489.99	27885.14
490.17	27388.95
490.35	28154.30
490.53	28044.30
490.70	28711.35
490.88	28343.89
491.06	28870.51
491.24	28943.06
491.41	29429.90
491.59	29385.43
491.77	29221.59
491.95	29408.83
492.13	29790.34
492.30	30089.93
492.48	30422.28
492.66	30286.53
492.84	30305.26
493.01	30845.92
493.19	30654.00
493.37	31346.79
493.54	31562.12
493.72	31512.97
493.90	31749.37
494.08	31744.69
494.25	32180.03
494.43	31906.18
494.61	32774.52
494.79	32620.05
494.96	32627.07
495.14	32837.72
495.32	33144.33
495.49	33364.34
495.67	33127.94
495.85	33909.68
496.02	33935.43
496.20	34073.52
496.38	34026.71
496.55	34300.55
496.73	35150.17
496.91	34464.39
497.09	35388.90
497.26	35051.86
497.44	35143.14
497.62	35295.28
497.79	35807.86
497.97	35262.51
498.14	35983.40
498.32	36081.70
498.50	36247.88
498.67	36917.27
498.85	36390.65
499.03	36879.82
499.20	37015.57
499.38	36833.01
499.56	37132.60
499.73	37153.66
499.91	37446.23
500.08	38174.14
500.26	37883.91
500.44	37521.13
500.61	37860.51
500.79	37820.72
500.97	38272.44
501.14	38646.93
501.32	38976.94
501.49	38679.69
501.67	38848.21
501.84	39061.20
502.02	38770.97
502.20	39517.60
502.37	39533.99
502.55	39356.11
502.72	39746.98
502.90	39576.12
503.07	39428.66
503.25	39901.45
503.43	39679.10
503.60	40348.50
503.78	40353.18
503.95	40568.51
504.13	41062.36
504.30	40982.78
504.48	40694.89
504.65	41029.59
504.83	41235.56
505.01	41429.82
505.18	41593.66
505.36	42068.79
505.53	41720.05
505.71	41633.45
505.88	42047.72
506.06	41797.29
506.23	42546.26
506.41	42256.03
506.58	42710.10
506.76	42501.79
506.93	42639.88
507.11	42459.66
507.28	42440.93
507.46	42696.05
507.63	42834.14
507.81	43756.32
507.98	43496.52
508.16	43564.39
508.33	43536.30
508.50	43430.98
508.68	43899.09
508.85	43966.96
509.03	43779.72
509.20	44313.36
509.38	44816.58
509.55	44411.67
509.73	44968.71
509.90	44559.12
510.08	44680.83
510.25	44954.67
510.42	45265.96
510.60	45354.90
510.77	45312.77
510.95	45312.77
511.12	45567.89
511.30	45125.53
511.47	45591.30
511.64	45797.26
511.82	46506.44
511.99	45696.62
512.17	46192.81
512.34	45755.13
512.51	46265.37
512.69	46344.95
512.86	46394.10
513.04	46621.13
513.21	46801.35
513.38	46445.59
513.56	47072.85
513.73	46871.57
513.90	47178.18
514.08	46948.81
514.25	47311.59
514.43	47564.37
514.60	47590.11
514.77	47711.82
514.95	48018.43
515.12	47767.99
515.29	47885.02
515.47	47833.53
515.64	48266.53
515.81	48083.97
515.99	48423.34
516.16	48741.66
516.33	48238.44
516.51	48657.40
516.68	48854.00
516.85	48765.06
517.03	49059.97
517.20	49202.74
517.37	48893.79
517.54	48809.53
517.72	49193.38
517.89	49347.86
518.06	49497.65
518.24	49848.73
518.41	49565.52
518.58	49499.99
518.75	49392.33
518.93	49471.90
519.10	49801.92
519.27	50042.99
519.45	49860.43
519.62	50206.83
519.79	50000.86
519.96	49982.14
520.14	50328.54
520.31	50281.73
520.48	50452.59
520.65	50267.69
520.83	50770.90
521.00	50773.24
521.17	50515.78
521.34	51213.26
521.52	50714.73
521.69	51203.90
521.86	51461.36
522.03	51129.00
522.20	51952.87
522.38	51543.28
522.55	51365.40
522.72	51416.89
522.89	51377.10
523.07	51892.02
523.24	51489.45
523.41	52072.24
523.58	51683.71
523.75	52299.27
523.92	51774.99
524.10	52119.05
524.27	52102.67
524.44	52442.04
524.61	52268.84
524.78	51985.64
524.96	52488.85
525.13	52463.11
525.30	52556.73
525.47	52612.90
525.64	52601.20
525.81	52809.51
525.98	52903.13
526.16	52449.06
526.33	52640.99
526.50	53059.94
526.67	52797.80
526.84	52928.87
527.01	52985.05
527.18	53249.53
527.36	53085.69
527.53	53270.59
527.70	53446.13
527.87	53394.64
528.04	53034.20
528.21	53469.54
528.38	53427.41
528.55	53537.41
528.72	53659.12
528.89	53361.87
529.07	53439.11
529.24	53652.10
529.41	53734.02
529.58	53900.20
529.75	53827.64
529.92	53911.90
530.09	54033.61
530.26	54223.19
530.43	54227.87
530.60	54138.93
530.77	53865.09
530.94	54316.81
531.11	53909.56
531.28	54389.37
531.46	54253.62
531.63	54541.50
531.80	54466.61
531.97	54487.67
532.14	54576.61
532.31	54609.38
532.48	54707.68
532.65	55065.78
532.82	54508.74
532.99	54934.71
533.16	54721.72
533.33	55023.65
533.50	55042.38
533.67	54887.90
533.84	54710.02
534.01	55025.99
534.18	55040.04
534.35	55601.77
534.52	55290.48
534.69	55414.52
534.86	55667.30
535.03	55253.03
535.20	55154.72
535.37	55627.51
535.54	55594.74
535.71	55360.69
535.88	55643.90
536.05	55498.78
536.22	55842.84
536.38	55814.76
536.55	55655.60
536.72	55821.78
536.89	55786.67
537.06	55569.00
537.23	55681.34
537.40	55657.94
537.57	55779.65
537.74	55891.99
537.91	55875.61
538.08	56055.83
538.25	55805.39
538.42	55992.64
538.59	56362.44
538.75	55870.93
538.92	56210.31
539.09	56509.89
539.26	56470.11
539.43	56236.05
539.60	56327.33
539.77	56329.67
539.94	56514.58
540.11	56584.79
540.28	56453.72
540.44	56533.30
540.61	56605.86
540.78	56537.98
540.95	56683.09
541.12	56427.98
541.29	56444.36
541.46	56587.13
541.62	56591.81
541.79	56999.07
541.96	56528.62
542.13	56816.50
542.30	56732.25
542.47	56842.25
542.63	57052.90
542.80	57198.01
542.97	57158.22
543.14	57286.95
543.31	57265.89
543.48	57235.46
543.64	57286.95
543.81	57574.84
543.98	57577.18
544.15	57354.83
544.32	57556.11
544.48	57790.17
544.65	57380.57
544.82	57614.63
544.99	57434.41
545.16	57420.36
545.32	57572.50
545.49	57815.91
545.66	57790.17
545.83	57659.10
546.00	57914.22
546.16	57794.85
546.33	57836.98
546.50	57621.65
546.67	58087.42
546.83	57581.86
547.00	58101.46
547.17	57930.60
547.34	57794.85
547.50	57979.75
547.67	58164.65
547.84	58087.42
548.00	58176.36
548.17	58466.58
548.34	58169.33
548.51	58372.96
548.67	58267.64
548.84	58300.40
549.01	58223.17
549.18	58293.38
549.34	58492.33
549.51	58321.47
549.68	58492.33
549.84	58482.97
550.01	58419.77
550.18	58387.00
550.34	58623.40
550.51	58607.01
550.68	58651.48
550.84	58433.81
551.01	58574.25
551.18	58714.68
551.34	58712.34
551.51	58611.70
551.68	58539.14
551.84	58632.76
552.01	58681.91
552.18	58824.68
552.34	58831.71
552.51	58635.10
552.68	58555.52
552.84	58887.88
553.01	59206.19
553.18	58712.34
553.34	59047.04
553.51	58777.87
553.67	59051.72
553.84	59222.58
554.01	59002.56
554.17	59049.38
554.34	59278.75
554.51	59243.64
554.67	59262.36
554.84	59161.72
555.00	59107.89
555.17	59229.60
555.33	59168.74
555.50	59040.01
555.67	58974.48
555.83	58981.50
556.00	59180.45
556.16	59517.48
556.33	59568.97
556.50	59138.32
556.66	59281.09
556.83	59288.11
556.99	59515.14
557.16	59526.84
557.32	59662.60
557.49	59763.24
557.65	59449.61
557.82	59341.94
557.98	59433.22
558.15	59531.53
558.32	59592.38
558.48	59412.16
558.65	59395.77
558.81	59807.71
558.98	59442.59
559.14	59824.09
559.31	59774.94
559.47	59803.03
559.64	59664.94
559.80	59777.28
559.97	59812.39
560.13	59650.89
560.30	59707.07
560.46	59756.22
560.63	59931.76
560.79	59861.54
560.96	60072.19
561.12	59891.97
561.29	59866.22
561.45	60023.04
561.61	59770.26
561.78	60121.34
561.94	59896.65
562.11	59796.01
562.27	59964.52
562.44	60076.87
562.60	59994.95
562.77	60158.79
562.93	59887.29
563.10	60219.64
563.26	59920.05
563.42	60317.95
563.59	60048.78
563.75	59997.29
563.92	60020.70
564.08	60102.62
564.24	60317.95
564.41	60210.28
564.57	60245.39
564.74	60151.77
564.90	60268.79
565.07	60226.66
565.23	60346.03
565.39	60109.64
565.56	60266.45
565.72	60212.62
565.88	60231.35
566.05	60409.23
566.21	60200.92
566.38	60350.71
566.54	60425.61
566.70	60423.27
566.87	60619.88
567.03	60376.46
567.19	60617.53
567.36	60556.68
567.52	60353.05
567.68	60594.13
567.85	60474.76
568.01	60615.19
568.17	60486.46
568.34	60591.79
568.50	60582.43
568.66	60516.89
568.83	60554.34
568.99	60348.37
569.15	60395.18
569.32	60392.84
569.48	60526.25
569.64	60561.36
569.81	60828.18
569.97	60456.04
570.13	60629.24
570.30	60573.06
570.46	60481.78
570.62	60530.93
570.78	60673.71
570.95	60514.55
571.11	60781.37
571.27	60547.32
571.43	60638.60
571.60	60832.86
571.76	60584.77
571.92	60757.97
572.09	60697.11
572.25	60762.65
572.41	60650.30
572.57	60800.10
572.74	61034.15
572.90	60800.10
573.06	60779.03
573.22	60685.41
573.38	60687.75
573.55	60788.39
573.71	60790.73
573.87	60828.18
574.03	60610.51
574.20	60931.17
574.36	60725.20
574.52	60949.89
574.68	60636.26
574.84	60797.76
575.01	60793.07
575.17	60720.52
575.33	60797.76
575.49	60865.63
575.65	60811.80
575.82	60924.14
575.98	60959.25
576.14	60954.57
576.30	60905.42
576.46	60837.54
576.62	60874.99
576.79	60811.80
576.95	60657.32
577.11	60556.68
577.27	61017.77
577.43	60945.21
577.59	60776.69
577.75	60912.44
577.92	60947.55
578.08	60676.05
578.24	60690.09
578.40	60994.36
578.56	61041.17
578.72	61038.83
578.88	60931.17
579.04	61165.22
579.21	61106.71
579.37	61141.81
579.53	61155.86
579.69	60844.57
579.85	60870.31
580.01	61120.75
580.17	60837.54
580.33	61083.30
580.49	61001.38
580.65	61080.96
580.82	61116.07
580.98	60874.99
581.14	60750.94
581.30	61059.90
581.46	60818.82
581.62	60935.85
581.78	60959.25
581.94	61249.48
582.10	61130.11
582.26	60942.87
582.42	60938.19
582.58	61085.64
582.74	60924.14
582.90	60949.89
583.06	61017.77
583.22	61022.45
583.38	61048.19
583.54	61242.46
583.70	61113.73
583.86	61034.15
584.02	60994.36
584.18	61289.27
584.34	60940.53
584.50	61083.30
584.66	60917.12
584.82	60963.93
584.98	61226.07
585.14	61319.70
585.30	61050.53
585.46	61080.96
585.62	60975.64
585.78	61300.97
585.94	60905.42
586.10	61151.18
586.26	61022.45
586.42	61174.58
586.58	61303.31
586.74	61111.39
586.90	60982.66
587.06	60889.04
587.22	61233.10
587.38	61045.85
587.54	61350.12
587.70	61497.58
587.86	61197.99
588.02	61120.75
588.18	61228.41
588.34	61226.07
588.49	60973.30
