SpectraSuite Data File
++++++++++++++++++++++++++++++++++++
Date: Fri Oct 25 11:25:39 EDT 2013
User: price-jones
Dark Spectrum Present: No
Reference Spectrum Present: No
Number of Sampled Component Spectra: 1
Spectrometers: USB2+H05261
Integration Time (usec): 100000 (USB2+H05261)
Spectra Averaged: 1 (USB2+H05261)
Boxcar Smoothing: 0 (USB2+H05261)
Correct for Electrical Dark: No (USB2+H05261)
Strobe/Lamp Enabled: No (USB2+H05261)
Correct for Detector Non-linearity: No (USB2+H05261)
Correct for Stray Light: No (USB2+H05261)
Number of Pixels in Processed Spectrum: 2048
>>>>>Begin Processed Spectral Data<<<<<
365.73	266.82
365.92	266.82
366.12	266.82
366.32	168.52
366.52	114.69
366.72	180.22
366.91	100.64
367.11	112.35
367.31	93.62
367.51	135.75
367.70	112.35
367.90	154.48
368.10	187.24
368.30	191.92
368.49	128.73
368.69	173.20
368.89	156.82
369.09	173.20
369.28	142.77
369.48	154.48
369.68	175.54
369.87	266.82
370.07	250.44
370.27	266.82
370.47	374.49
370.66	608.54
370.86	587.47
371.06	741.95
371.25	755.99
371.45	641.31
371.65	793.44
371.84	678.76
372.04	720.88
372.24	765.36
372.44	751.31
372.63	706.84
372.83	746.63
373.03	784.08
373.22	720.88
373.42	777.06
373.62	681.10
373.81	781.74
374.01	763.01
374.21	812.17
374.40	842.59
374.60	887.06
374.79	781.74
374.99	873.02
375.19	809.83
375.38	851.96
375.58	840.25
375.78	931.53
375.97	905.79
376.17	887.06
376.37	793.44
376.56	880.04
376.76	819.19
376.95	837.91
377.15	849.61
377.35	924.51
377.54	931.53
377.74	938.55
377.93	826.21
378.13	983.02
378.33	926.85
378.52	978.34
378.72	915.15
378.91	940.90
379.11	877.70
379.31	931.53
379.50	968.98
379.70	990.05
379.89	929.19
380.09	835.57
380.28	961.96
380.48	973.66
380.68	929.19
380.87	947.92
381.07	1025.15
381.26	1015.79
381.46	954.94
381.65	1034.52
381.85	1034.52
382.04	1034.52
382.24	1004.09
382.43	1090.69
382.63	1069.62
382.83	1041.54
383.02	1083.67
383.22	1083.67
383.41	1142.18
383.61	1114.10
383.80	1116.44
384.00	1118.78
384.19	1158.57
384.39	1076.65
384.58	1104.73
384.78	1081.33
384.97	1200.69
385.17	1252.19
385.36	1163.25
385.56	1097.71
385.75	1165.59
385.95	1242.82
386.14	1231.12
386.34	1170.27
386.53	1125.80
386.72	1207.72
386.92	1259.21
387.11	1242.82
387.31	1226.44
387.50	1252.19
387.70	1191.33
387.89	1247.51
388.09	1294.32
388.28	1256.87
388.48	1235.80
388.67	1378.58
388.86	1245.16
389.06	1376.24
389.25	1439.43
389.45	1327.08
389.64	1284.95
389.84	1514.33
390.03	1411.34
390.22	1376.24
390.42	1418.36
390.61	1394.96
390.81	1380.92
391.00	1331.76
391.19	1390.28
391.39	1369.21
391.58	1509.65
391.78	1479.22
391.97	1451.13
392.16	1495.60
392.36	1556.46
392.55	1502.62
392.75	1448.79
392.94	1558.80
393.13	1448.79
393.33	1455.81
393.52	1434.75
393.71	1577.52
393.91	1586.88
394.10	1652.42
394.29	1614.97
394.49	1605.61
394.68	1699.23
394.88	1647.74
395.07	1603.27
395.26	1701.57
395.46	1650.08
395.65	1715.61
395.84	1781.15
396.04	1771.79
396.23	1696.89
396.42	1799.87
396.62	1818.60
396.81	1785.83
397.00	1708.59
397.19	1694.55
397.39	1832.64
397.58	1867.75
397.77	1748.38
397.97	1753.06
398.16	1809.23
398.35	1891.15
398.55	1937.96
398.74	1952.01
398.93	1785.83
399.12	1900.52
399.32	1785.83
399.51	1919.24
399.70	1949.67
399.90	1919.24
400.09	1954.35
400.28	2172.02
400.47	1963.71
400.67	2040.95
400.86	2099.46
401.05	2249.25
401.24	1998.82
401.44	2059.67
401.63	2101.80
401.82	2132.23
402.01	2069.03
402.21	2165.00
402.40	2139.25
402.59	2139.25
402.78	2204.78
402.97	2228.19
403.17	2249.25
403.36	2223.51
403.55	2267.98
403.74	2417.77
403.93	2373.30
404.13	2289.04
404.32	2347.56
404.51	2434.16
404.70	2403.73
404.89	2256.28
405.09	2319.47
405.28	2462.24
405.47	2438.84
405.66	2394.37
405.85	2581.61
406.05	2511.39
406.24	2644.81
406.43	2689.28
406.62	2635.44
406.81	2621.40
407.00	2698.64
407.20	2560.55
407.39	2679.91
407.58	2785.24
407.77	2691.62
407.96	2717.36
408.15	2729.06
408.34	2825.03
408.54	2829.71
408.73	2724.38
408.92	2796.94
409.11	2794.60
409.30	2906.95
409.49	2789.92
409.68	2988.86
409.87	2916.31
410.07	2906.95
410.26	2930.35
410.45	2986.52
410.64	3122.27
410.83	3070.78
411.02	3042.70
411.21	3084.83
411.40	3028.65
411.59	3243.98
411.78	3225.26
411.98	3208.87
412.17	3262.71
412.36	3131.64
412.55	3370.37
412.74	3311.86
412.93	3466.33
413.12	3358.67
413.31	3485.06
413.50	3307.18
413.69	3510.80
413.88	3524.85
414.07	3513.14
414.26	3637.19
414.45	3667.62
414.64	3723.79
414.83	3655.92
415.02	3660.60
415.22	3875.93
415.41	3768.26
415.60	3871.25
415.79	3946.14
415.98	4002.32
416.17	3967.21
416.36	3946.14
416.55	3988.27
416.74	4028.06
416.93	4208.28
417.12	4138.07
417.31	4077.21
417.50	4147.43
417.69	4311.27
417.88	4231.69
418.07	4280.84
418.26	4320.63
418.45	4325.31
418.64	4688.09
418.83	4390.84
419.02	4395.53
419.21	4414.25
419.39	4447.02
419.58	4582.77
419.77	4287.86
419.96	4554.68
420.15	4493.83
420.34	4540.64
420.53	4519.57
420.72	4779.37
420.91	4711.50
421.10	4606.17
421.29	4795.76
421.48	4624.90
421.67	4624.90
421.86	4772.35
422.05	4758.31
422.24	4842.57
422.43	4751.29
422.61	4910.44
422.80	4943.21
422.99	4933.85
423.18	4950.23
423.37	4912.78
423.56	4971.30
423.75	4865.97
423.94	4961.94
424.13	4610.86
424.32	4755.97
424.50	5104.71
424.69	5053.22
424.88	4917.47
425.07	4968.96
425.26	4938.53
425.45	4968.96
425.64	4968.96
425.83	5097.69
426.01	5060.24
426.20	5001.72
426.39	5043.85
426.58	4985.34
426.77	4990.02
426.96	5170.24
427.15	5013.43
427.33	5132.79
427.52	4997.04
427.71	5266.21
427.90	5093.01
428.09	5144.50
428.28	5296.63
428.46	5413.66
428.65	5425.36
428.84	5579.84
429.03	5596.22
429.22	5277.91
429.40	5462.81
429.59	5523.66
429.78	5331.74
429.97	5277.91
430.16	5509.62
430.34	5462.81
430.53	5631.33
430.72	5633.67
430.91	5605.58
431.10	5584.52
431.28	5757.72
431.47	5764.74
431.66	5694.52
431.85	5703.89
432.03	5982.41
432.22	5956.66
432.41	5823.25
432.60	5935.60
432.79	5849.00
432.97	5884.11
433.16	5994.11
433.35	6008.16
433.54	5951.98
433.72	6022.20
433.91	6047.94
434.10	6052.63
434.28	6174.33
434.47	6134.54
434.66	6375.62
434.85	6214.12
435.03	6392.00
435.22	6237.53
435.41	6354.55
435.59	6228.17
435.78	6303.06
435.97	6349.87
436.16	6370.94
436.34	6370.94
436.53	6518.39
436.72	6576.91
436.90	6513.71
437.09	6441.15
437.28	6389.66
437.46	6417.75
437.65	6623.72
437.84	6743.08
438.02	6654.14
438.21	6644.78
438.40	6609.67
438.58	6841.39
438.77	7007.56
438.96	6918.62
439.14	7255.66
439.33	7035.65
439.52	7246.30
439.70	7295.45
439.89	7199.49
440.08	7414.82
440.26	7527.16
440.45	7426.52
440.63	7492.05
440.82	7482.69
441.01	7431.20
441.19	7667.60
441.38	7737.81
441.57	7606.74
441.75	7634.83
441.94	7889.95
442.12	8098.25
442.31	8002.29
442.50	7953.14
442.68	7761.22
442.87	8004.63
443.05	8030.38
443.24	8180.17
443.43	8056.12
443.61	8156.77
443.80	8360.39
443.98	8124.00
444.17	7981.23
444.35	8294.86
444.54	8121.66
444.73	8140.38
444.91	8215.28
445.10	8238.69
445.28	8477.42
445.47	8402.52
445.65	8360.39
445.84	8318.26
446.02	8479.76
446.21	8507.85
446.39	8428.27
446.58	8472.74
446.77	8414.23
446.95	8329.97
447.14	8308.90
447.32	8360.39
447.51	8292.52
447.69	8421.25
447.88	8528.91
448.06	8514.87
448.25	8355.71
448.43	8542.96
448.62	8582.74
448.80	8475.08
448.99	8697.43
449.17	8704.45
449.36	8631.90
449.54	8833.18
449.73	8931.48
449.91	8973.61
450.10	8624.87
450.28	9249.80
450.46	9055.53
450.65	8933.82
450.83	8858.93
451.02	9121.07
451.20	9245.12
451.39	9163.20
451.57	9156.18
451.76	9118.73
451.94	9240.44
452.13	9270.86
452.31	9343.42
452.49	9231.07
452.68	9341.08
452.86	9315.33
453.05	9628.96
453.23	9479.17
453.42	9404.27
453.60	9336.40
453.78	9584.49
453.97	9404.27
454.15	9593.86
454.34	9437.04
454.52	9542.36
454.70	9626.62
454.89	9706.20
455.07	9809.19
455.26	9771.74
455.44	9975.36
455.62	10045.58
455.81	9980.04
455.99	9860.68
456.17	9898.13
456.36	9930.89
456.54	10211.76
456.73	10221.12
456.91	10579.22
457.09	10525.39
457.28	10544.11
457.46	10232.82
457.64	10331.12
457.83	10298.36
458.01	10546.45
458.19	10661.14
458.38	10314.74
458.56	10604.97
458.74	10642.42
458.93	10848.38
459.11	10689.23
459.29	10686.89
459.48	10724.33
459.66	10871.79
459.84	10934.98
460.03	11082.44
460.21	10773.49
460.39	11021.58
460.57	10995.84
460.76	11236.91
460.94	10963.07
461.12	11012.22
461.31	11372.66
461.49	11192.44
461.67	11201.80
461.85	11477.99
462.04	11239.25
462.22	11758.85
462.40	11700.34
462.59	11487.35
462.77	11632.46
462.95	11683.95
463.13	11602.04
463.32	11482.67
463.50	11634.80
463.68	11665.23
463.86	11920.35
464.05	11578.63
464.23	11693.32
464.41	11903.96
464.59	11545.86
464.78	12002.27
464.96	11929.71
465.14	12011.63
465.32	12079.50
465.50	12128.66
465.69	12084.19
465.87	11969.50
466.05	12273.77
466.23	12116.95
466.41	12042.06
466.60	12395.48
466.78	12147.38
466.96	12079.50
467.14	12065.46
467.32	12355.69
467.51	12606.13
467.69	12006.95
467.87	12278.45
468.05	12601.44
468.23	12521.87
468.41	12168.45
468.60	12517.18
468.78	12683.36
468.96	12510.16
469.14	12666.98
469.32	12814.43
469.50	12751.24
469.69	12868.27
469.87	13128.06
470.05	12835.50
470.23	12964.23
470.41	13249.77
470.59	13282.54
470.77	13327.01
470.95	13071.89
471.14	13568.09
471.32	13135.09
471.50	13516.59
471.68	13504.89
471.86	13483.83
472.04	13610.22
472.22	14064.28
472.40	13722.56
472.58	13951.93
472.77	14003.43
472.95	14061.94
473.13	14630.69
473.31	13874.70
473.49	14214.07
473.67	14129.81
473.85	14478.55
474.03	14651.75
474.21	14473.87
474.39	14714.95
474.57	14738.35
474.75	14822.61
474.93	15070.71
475.12	14810.91
475.30	14988.79
475.48	15082.41
475.66	14923.26
475.84	15087.09
476.02	15543.50
476.20	15466.26
476.38	15651.16
476.56	15744.78
476.74	15765.85
476.92	15573.92
477.10	15786.91
477.28	15953.09
477.46	16264.38
477.64	16208.21
477.82	16418.86
478.00	16851.86
478.18	16847.18
478.36	16688.02
478.54	17174.85
478.72	17092.93
478.90	17612.53
479.08	17645.30
479.26	17565.72
479.44	17713.17
479.62	17848.93
479.80	17816.16
479.98	18066.60
480.16	18366.18
480.34	18483.21
480.52	18822.59
480.70	18630.66
480.88	18534.70
481.06	18597.90
481.24	18981.74
481.41	18780.46
481.59	19463.90
481.77	19241.54
481.95	19442.83
482.13	19515.39
482.31	19456.87
482.49	20472.67
482.67	20140.31
482.85	20250.32
483.03	20336.91
483.21	20559.27
483.39	20638.84
483.57	20732.47
483.74	21081.21
483.92	21135.04
484.10	21146.74
484.28	21621.87
484.46	21820.81
484.64	22199.98
484.82	21905.07
485.00	22223.39
485.18	22546.38
485.35	23091.73
485.53	22794.48
485.71	22740.64
485.89	23206.41
486.07	23318.76
486.25	23199.39
486.43	23606.64
486.61	23604.30
486.78	24105.18
486.96	24175.39
487.14	24350.93
487.32	24753.51
487.50	24753.51
487.68	25106.93
487.85	25294.17
488.03	25432.26
488.21	25460.35
488.39	25455.67
488.57	25855.90
488.75	26078.25
488.92	26405.92
489.10	27009.78
489.28	26581.46
489.46	26937.23
489.64	26792.11
489.81	27665.13
489.99	27337.46
490.17	27489.59
490.35	28638.80
490.53	28233.88
490.70	28313.46
490.88	27955.36
491.06	28678.58
491.24	28762.84
491.41	28797.95
491.59	28821.36
491.77	29146.69
491.95	29530.54
492.13	29617.14
492.30	29795.02
492.48	29968.22
492.66	29996.31
492.84	30443.35
493.01	30726.55
493.19	30536.97
493.37	30735.92
493.54	31304.67
493.72	31218.07
493.90	31166.57
494.08	31498.93
494.25	31704.90
494.43	31838.31
494.61	32397.70
494.79	32414.08
494.96	32313.44
495.14	32554.51
495.32	33118.58
495.49	33277.74
495.67	33071.77
495.85	33329.23
496.02	33773.93
496.20	33841.81
496.38	33780.95
496.55	33949.47
496.73	34801.43
496.91	34448.00
497.09	35054.20
497.26	34831.85
497.44	34609.50
497.62	35147.82
497.79	35246.13
497.97	35248.47
498.14	35814.88
498.32	35945.95
498.50	36151.91
498.67	36596.62
498.85	36250.22
499.03	36355.54
499.20	36348.52
499.38	36430.44
499.56	36627.04
499.73	37038.98
499.91	37357.29
500.08	37467.30
500.26	36985.15
500.44	37811.35
500.61	37769.22
500.79	37703.69
500.97	37897.95
501.14	38665.65
501.32	38256.06
501.49	38459.68
501.67	38859.91
501.84	38801.40
502.02	38548.62
502.20	38937.15
502.37	39105.67
502.55	38602.46
502.72	39381.85
502.90	39496.54
503.07	39557.39
503.25	39620.59
503.43	39552.71
503.60	39941.24
503.78	39819.53
503.95	40107.42
504.13	40280.62
504.30	40231.47
504.48	40507.65
504.65	40238.49
504.83	40898.52
505.01	41240.24
505.18	41109.17
505.36	41518.76
505.53	41177.04
505.71	41544.51
505.88	41790.27
506.06	41242.58
506.23	42054.75
506.41	41560.89
506.58	41827.71
506.76	42419.87
506.93	42777.97
507.11	42291.14
507.28	42270.08
507.46	42621.16
507.63	42536.90
507.81	42862.23
507.98	42698.39
508.16	43309.27
508.33	43278.85
508.50	43187.56
508.68	43105.65
508.85	43749.29
509.03	43887.39
509.20	44282.94
509.38	44299.32
509.55	44168.25
509.73	43950.58
509.90	44605.93
510.08	44357.83
510.25	44430.39
510.42	44765.09
510.60	44917.22
510.77	45191.06
510.95	45284.68
511.12	45052.97
511.30	44842.32
511.47	45137.23
511.64	45354.90
511.82	45715.34
511.99	45521.08
512.17	45308.09
512.34	45647.47
512.51	46380.06
512.69	46300.48
512.86	46443.25
513.04	46703.05
513.21	46651.56
513.38	46270.05
513.56	46410.48
513.73	47327.97
513.90	46808.37
514.08	46525.17
514.25	47014.34
514.43	47192.22
514.60	46969.87
514.77	46983.91
514.95	47463.72
515.12	47217.97
515.29	47203.92
515.47	47555.00
515.64	47952.90
515.81	47547.98
515.99	48191.63
516.16	48619.95
516.33	48109.71
516.51	48718.25
516.68	48322.70
516.85	48692.50
517.03	48804.85
517.20	48732.29
517.37	48619.95
517.54	48907.83
517.72	48830.60
517.89	49088.06
518.06	49287.00
518.24	48933.58
518.41	49200.40
518.58	49425.09
518.75	49132.53
518.93	49481.27
519.10	49139.55
519.27	49684.89
519.45	49532.76
519.62	49916.61
519.79	49862.77
519.96	49546.80
520.14	49907.24
520.31	49488.29
520.48	50611.74
520.65	49853.41
520.83	50365.99
521.00	50513.44
521.17	50277.05
521.34	50478.33
521.52	50717.07
521.69	50798.99
521.86	50763.88
522.03	50869.20
522.20	51105.60
522.38	51419.23
522.55	51044.74
522.72	51435.61
522.89	51304.54
523.07	51536.26
523.24	51100.92
523.41	51409.87
523.58	51423.91
523.75	52006.70
523.92	51498.81
524.10	51580.73
524.27	52048.83
524.44	51966.91
524.61	52215.01
524.78	51770.31
524.96	51927.13
525.13	52353.10
525.30	52378.85
525.47	52301.61
525.64	52451.41
525.81	52598.86
525.98	52680.78
526.16	52406.94
526.33	52261.82
526.50	52896.11
526.67	52746.31
526.84	53055.26
527.01	52666.73
527.18	52657.37
527.36	52657.37
527.53	52992.07
527.70	53375.92
527.87	53069.31
528.04	53001.43
528.21	53088.03
528.38	53048.24
528.55	53450.81
528.72	53249.53
528.89	53043.56
529.07	53214.42
529.24	53483.58
529.41	53364.21
529.58	53347.83
529.75	53504.65
529.92	53839.34
530.09	53755.08
530.26	53982.12
530.43	53727.00
530.60	53633.38
530.77	53965.73
530.94	53799.55
531.11	53975.09
531.28	54167.02
531.46	54089.78
531.63	54298.09
531.80	54162.34
531.97	54258.30
532.14	54323.83
532.31	54370.64
532.48	54223.19
532.65	54555.55
532.82	54361.28
532.99	54674.91
533.16	54630.44
533.33	54822.37
533.50	54529.80
533.67	54630.44
533.84	54433.84
534.01	54873.86
534.18	54866.84
534.35	55056.42
534.52	54866.84
534.69	55231.96
534.86	55110.25
535.03	54862.16
535.20	55121.96
535.37	55337.29
535.54	55405.16
535.71	55030.68
535.88	55295.16
536.05	55327.92
536.22	55320.90
536.38	55592.40
536.55	55154.72
536.72	55671.98
536.89	55358.35
537.06	55524.53
537.23	55697.73
537.40	55299.84
537.57	55412.18
537.74	55444.95
537.91	55931.78
538.08	55887.31
538.25	55374.73
538.42	55606.45
538.59	56184.56
538.75	55803.05
538.92	56076.90
539.09	56004.34
539.26	56100.30
539.43	56130.73
539.60	56044.13
539.77	55987.95
539.94	56264.14
540.11	56226.69
540.28	56507.55
540.44	56432.66
540.61	56411.59
540.78	56334.35
540.95	56189.24
541.12	56294.56
541.29	56418.61
541.46	56505.21
541.62	56589.47
541.79	56502.87
541.96	56362.44
542.13	56425.64
542.30	56467.76
542.47	56753.31
542.63	56526.28
542.80	56563.73
542.97	56865.66
543.14	57441.43
543.31	57055.24
543.48	57090.35
543.64	57420.36
543.81	57389.94
543.98	57113.75
544.15	57312.70
544.32	57258.87
544.48	57413.34
544.65	57382.91
544.82	57387.60
544.99	57286.95
545.16	57485.90
545.32	57441.43
545.49	57521.01
545.66	57586.54
545.83	57429.72
546.00	57794.85
546.16	57619.31
546.33	57577.18
546.50	57284.61
546.67	57733.99
546.83	57315.04
547.00	57598.24
547.17	57460.15
547.34	57776.12
547.50	57853.36
547.67	57942.30
547.84	58042.95
548.00	57846.34
548.17	58066.35
548.34	57918.90
548.51	58138.91
548.67	58103.80
548.84	57935.28
549.01	58071.03
549.18	58164.65
549.34	58211.46
549.51	58061.67
549.68	58274.66
549.84	58227.85
550.01	58312.11
550.18	58120.18
550.34	58295.72
550.51	58244.23
550.68	58454.88
550.84	58122.52
551.01	58394.03
551.18	58363.60
551.34	58452.54
551.51	58370.62
551.68	58508.71
551.84	58440.84
552.01	58461.90
552.18	58588.29
552.34	58466.58
552.51	58831.71
552.68	58272.32
552.84	58497.01
553.01	58808.30
553.18	58733.40
553.34	58773.19
553.51	58599.99
553.67	58934.69
553.84	58932.35
554.01	58796.60
554.17	58911.28
554.34	59178.10
554.51	58852.77
554.67	59107.89
554.84	58864.47
555.00	58887.88
555.17	58932.35
555.33	58930.01
555.50	58937.03
555.67	58918.31
555.83	59002.56
556.00	58997.88
556.16	59154.70
556.33	59227.26
556.50	58843.41
556.66	59313.86
556.83	59056.40
556.99	59363.01
557.16	59344.28
557.32	59475.35
557.49	59407.48
557.65	59269.39
557.82	59269.39
557.98	59124.27
558.15	59388.75
558.32	59611.10
558.48	59166.40
558.65	59559.61
558.81	59327.90
558.98	59426.20
559.14	59512.80
559.31	59402.80
559.47	59580.68
559.64	59695.36
559.80	59599.40
559.97	59751.54
560.13	59561.95
560.30	59475.35
560.46	59552.59
560.63	59693.02
560.79	59671.96
560.96	59611.10
561.12	59803.03
561.29	59803.03
561.45	59765.58
561.61	59660.26
561.78	59721.11
561.94	59552.59
562.11	59737.49
562.27	59739.83
562.44	59721.11
562.60	60200.92
562.77	59718.77
562.93	59924.74
563.10	60011.34
563.26	59767.92
563.42	60001.97
563.59	59997.29
563.75	60060.49
563.92	60119.00
564.08	59938.78
564.24	60065.17
564.41	60088.57
564.57	60090.91
564.74	60018.36
564.90	60093.25
565.07	59943.46
565.23	59856.86
565.39	59955.16
565.56	60128.36
565.72	60037.08
565.88	60025.38
566.05	60165.81
566.21	60142.41
566.38	60083.89
566.54	60133.04
566.70	60221.98
566.87	60165.81
567.03	60104.96
567.19	60355.39
567.36	60303.90
567.52	60186.88
567.68	60287.52
567.85	60261.77
568.01	60470.08
568.17	60313.26
568.34	60303.90
568.50	60360.08
568.66	60144.75
568.83	60371.78
568.99	60072.19
569.15	60575.40
569.32	60390.50
569.48	60470.08
569.64	60523.91
569.81	60392.84
569.97	60273.48
570.13	60505.19
570.30	60329.65
570.46	60236.03
570.62	60247.73
570.78	60200.92
570.95	60280.50
571.11	60348.37
571.27	60470.08
571.43	60271.14
571.60	60530.93
571.76	60416.25
571.92	60432.63
572.09	60374.12
572.25	60458.38
572.41	60334.33
572.57	60273.48
572.74	60652.64
572.90	60479.44
573.06	60495.83
573.22	60619.88
573.38	60507.53
573.55	60596.47
573.71	60933.51
573.87	60776.69
574.03	60484.12
574.20	60839.89
574.36	60559.02
574.52	60575.40
574.68	60839.89
574.84	60505.19
575.01	60559.02
575.17	60559.02
575.33	60425.61
575.49	60500.51
575.65	60669.03
575.82	60701.79
575.98	60715.84
576.14	60872.65
576.30	60732.22
576.46	60552.00
576.62	60750.94
576.79	60580.09
576.95	60502.85
577.11	60608.17
577.27	60992.02
577.43	60690.09
577.59	60587.11
577.75	60678.39
577.92	60598.81
578.08	60657.32
578.24	60664.35
578.40	60830.52
578.56	60935.85
578.72	60849.25
578.88	60945.21
579.04	60994.36
579.21	60645.62
579.37	60680.73
579.53	60872.65
579.69	60594.13
579.85	60488.80
580.01	60734.56
580.17	60704.13
580.33	60832.86
580.49	60879.67
580.65	60973.30
580.82	60917.12
580.98	60746.26
581.14	60615.19
581.30	60896.06
581.46	60764.99
581.62	61048.19
581.78	60608.17
581.94	60914.78
582.10	60832.86
582.26	60928.83
582.42	60617.53
582.58	60999.04
582.74	60755.63
582.90	60893.72
583.06	60893.72
583.22	60786.05
583.38	60921.80
583.54	60757.97
583.70	60851.59
583.86	61038.83
584.02	60750.94
584.18	60924.14
584.34	60748.60
584.50	60994.36
584.66	60687.75
584.82	60743.92
584.98	61109.05
585.14	61197.99
585.30	60762.65
585.46	60874.99
585.62	60994.36
585.78	61029.47
585.94	60727.54
586.10	60865.63
586.26	60884.36
586.42	60942.87
586.58	61132.45
586.74	60985.00
586.90	60973.30
587.06	60816.48
587.22	61141.81
587.38	60874.99
587.54	61052.87
587.70	61153.52
587.86	60935.85
588.02	60982.66
588.18	61102.03
588.34	60907.76
588.49	60867.97
