SpectraSuite Data File
++++++++++++++++++++++++++++++++++++
Date: Fri Oct 25 11:23:40 EDT 2013
User: price-jones
Dark Spectrum Present: No
Reference Spectrum Present: No
Number of Sampled Component Spectra: 1
Spectrometers: USB2+H05261
Integration Time (usec): 100000 (USB2+H05261)
Spectra Averaged: 1 (USB2+H05261)
Boxcar Smoothing: 0 (USB2+H05261)
Correct for Electrical Dark: No (USB2+H05261)
Strobe/Lamp Enabled: No (USB2+H05261)
Correct for Detector Non-linearity: No (USB2+H05261)
Correct for Stray Light: No (USB2+H05261)
Number of Pixels in Processed Spectrum: 2048
>>>>>Begin Processed Spectral Data<<<<<
365.73	175.54
365.92	175.54
366.12	175.54
366.32	147.45
366.52	105.32
366.72	107.66
366.91	107.66
367.11	124.05
367.31	138.09
367.51	84.26
367.70	159.16
367.90	184.90
368.10	180.22
368.30	140.43
368.49	138.09
368.69	163.84
368.89	196.60
369.09	175.54
369.28	168.52
369.48	149.79
369.68	187.24
369.87	191.92
370.07	208.31
370.27	231.71
370.47	234.05
370.66	538.32
370.86	599.18
371.06	613.22
371.25	606.20
371.45	636.63
371.65	716.20
371.84	781.74
372.04	629.60
372.24	702.16
372.44	697.48
372.63	751.31
372.83	727.91
373.03	690.46
373.22	746.63
373.42	746.63
373.62	774.72
373.81	699.82
374.01	704.50
374.21	823.87
374.40	788.76
374.60	863.66
374.79	868.34
374.99	837.91
375.19	847.27
375.38	908.13
375.58	802.80
375.78	819.19
375.97	763.01
376.17	936.21
376.37	795.78
376.56	915.15
376.76	877.70
376.95	856.64
377.15	868.34
377.35	887.06
377.54	943.24
377.74	896.43
377.93	910.47
378.13	926.85
378.33	976.00
378.52	896.43
378.72	875.36
378.91	994.73
379.11	973.66
379.31	933.87
379.50	1011.11
379.70	1001.75
379.89	1039.20
380.09	915.15
380.28	983.02
380.48	1043.88
380.68	922.17
380.87	978.34
381.07	1036.86
381.26	1008.77
381.46	952.60
381.65	985.37
381.85	1064.94
382.04	1062.60
382.24	966.64
382.43	1050.90
382.63	1062.60
382.83	1062.60
383.02	1064.94
383.22	1088.35
383.41	1006.43
383.61	1097.71
383.80	1160.91
384.00	973.66
384.19	1142.18
384.39	1196.01
384.58	1149.20
384.78	1167.93
384.97	1144.52
385.17	1111.75
385.36	1097.71
385.56	1128.14
385.75	1158.57
385.95	1144.52
386.14	1238.14
386.34	1226.44
386.53	1170.27
386.72	1151.54
386.92	1233.46
387.11	1203.04
387.31	1270.91
387.50	1200.69
387.70	1259.21
387.89	1198.35
388.09	1284.95
388.28	1331.76
388.48	1259.21
388.67	1301.34
388.86	1324.74
389.06	1406.66
389.25	1313.04
389.45	1409.00
389.64	1338.79
389.84	1357.51
390.03	1345.81
390.22	1423.05
390.42	1341.13
390.61	1350.49
390.81	1289.64
391.00	1362.19
391.19	1416.02
391.39	1399.64
391.58	1507.30
391.78	1362.19
391.97	1544.75
392.16	1404.32
392.36	1598.59
392.55	1558.80
392.75	1479.22
392.94	1537.73
393.13	1533.05
393.33	1542.41
393.52	1530.71
393.71	1598.59
393.91	1504.96
394.10	1607.95
394.29	1621.99
394.49	1556.46
394.68	1640.72
394.88	1596.25
395.07	1621.99
395.26	1687.53
395.46	1619.65
395.65	1722.63
395.84	1809.23
396.04	1785.83
396.23	1682.85
396.42	1732.00
396.62	1870.09
396.81	1842.00
397.00	1741.36
397.19	1851.36
397.39	1778.81
397.58	1811.57
397.77	1900.52
397.97	1877.11
398.16	1867.75
398.35	1898.17
398.55	1853.70
398.74	1816.26
398.93	1959.03
399.12	1926.26
399.32	1825.62
399.51	1853.70
399.70	1982.43
399.90	1975.41
400.09	2045.63
400.28	2153.29
400.47	2026.90
400.67	2087.76
400.86	2038.61
401.05	2054.99
401.24	2059.67
401.44	2225.85
401.63	2167.34
401.82	2136.91
402.01	2097.12
402.21	2186.06
402.40	2150.95
402.59	2193.08
402.78	2176.70
402.97	2242.23
403.17	2282.02
403.36	2326.49
403.55	2375.64
403.74	2319.47
403.93	2370.96
404.13	2321.81
404.32	2356.92
404.51	2331.17
404.70	2356.92
404.89	2363.94
405.09	2431.82
405.28	2485.65
405.47	2424.80
405.66	2569.91
405.85	2445.86
406.05	2436.50
406.24	2647.15
406.43	2590.97
406.62	2644.81
406.81	2588.63
407.00	2546.50
407.20	2548.84
407.39	2630.76
407.58	2677.57
407.77	2768.85
407.96	2738.43
408.15	2722.04
408.34	2810.98
408.54	2764.17
408.73	2836.73
408.92	2869.50
409.11	2829.71
409.30	2909.29
409.49	2867.16
409.68	3000.57
409.87	2932.69
410.07	2904.60
410.26	3040.36
410.45	3007.59
410.64	3030.99
410.83	3185.47
411.02	3169.09
411.21	3143.34
411.40	3047.38
411.59	3265.05
411.78	3068.44
411.98	3218.24
412.17	3365.69
412.36	3311.86
412.55	3283.77
412.74	3407.82
412.93	3480.38
413.12	3442.93
413.31	3557.61
413.50	3459.31
413.69	3581.02
413.88	3627.83
414.07	3705.07
414.26	3585.70
414.45	3641.87
414.64	3641.87
414.83	3730.81
415.02	3857.20
415.22	3873.59
415.41	3843.16
415.60	3822.09
415.79	3894.65
415.98	4018.70
416.17	3955.51
416.36	3981.25
416.55	3936.78
416.74	3999.98
416.93	4053.81
417.12	4198.92
417.31	4145.09
417.50	4189.56
417.69	4299.56
417.88	4334.67
418.07	4276.16
418.26	4313.61
418.45	4313.61
418.64	4348.72
418.83	4404.89
419.02	4449.36
419.21	4388.50
419.39	4432.97
419.58	4344.03
419.77	4322.97
419.96	4652.98
420.15	4645.96
420.34	4596.81
420.53	4470.42
420.72	4746.61
420.91	4606.17
421.10	4620.22
421.29	4746.61
421.48	4594.47
421.67	4802.78
421.86	4734.90
422.05	4840.23
422.24	4870.65
422.43	4734.90
422.61	4971.30
422.80	5069.60
422.99	4833.21
423.18	4987.68
423.37	5093.01
423.56	4875.34
423.75	4926.83
423.94	4697.46
424.13	4561.70
424.32	4856.61
424.50	5060.24
424.69	5011.09
424.88	5081.30
425.07	4978.32
425.26	4936.19
425.45	4975.98
425.64	5036.83
425.83	4938.53
426.01	5088.32
426.20	5018.11
426.39	5085.98
426.58	5039.17
426.77	5039.17
426.96	5252.16
427.15	5205.35
427.33	5111.73
427.52	5139.82
427.71	5226.42
427.90	5266.21
428.09	5305.99
428.28	5474.51
428.46	5394.93
428.65	5369.19
428.84	5547.07
429.03	5652.39
429.22	5357.49
429.40	5472.17
429.59	5521.32
429.78	5226.42
429.97	5362.17
430.16	5418.34
430.34	5696.86
430.53	5654.73
430.72	5628.99
430.91	5666.44
431.10	5490.90
431.28	5603.24
431.47	5951.98
431.66	6003.47
431.85	5839.64
432.03	5998.79
432.22	5991.77
432.41	5898.15
432.60	5905.17
432.79	5851.34
432.97	6099.44
433.16	6078.37
433.35	5951.98
433.54	5987.09
433.72	6136.88
433.91	6338.17
434.10	6174.33
434.28	6012.84
434.47	6190.72
434.66	6396.68
434.85	6314.77
435.03	6305.40
435.22	6380.30
435.41	6497.33
435.59	6455.20
435.78	6307.74
435.97	6520.73
436.16	6473.92
436.34	6471.58
436.53	6595.63
436.72	6492.65
436.90	6462.22
437.09	6630.74
437.28	6623.72
437.46	6780.53
437.65	6644.78
437.84	6803.94
438.02	6691.59
438.21	6909.26
438.40	6759.47
438.58	6911.60
438.77	7208.85
438.96	6869.47
439.14	7037.99
439.33	7052.03
439.52	7274.38
439.70	7307.15
439.89	7508.44
440.08	7356.30
440.26	7417.16
440.45	7229.91
440.63	7372.69
440.82	7786.96
441.01	7494.40
441.19	7747.17
441.38	7653.55
441.57	7632.49
441.75	7786.96
441.94	8023.36
442.12	7953.14
442.31	7936.76
442.50	7997.61
442.68	8039.74
442.87	7843.14
443.05	8194.22
443.24	8299.54
443.43	8131.02
443.61	8109.96
443.80	8482.10
443.98	7997.61
444.17	7906.33
444.35	8327.63
444.54	8400.18
444.73	8266.77
444.91	8374.44
445.10	8208.26
445.28	8248.05
445.47	8175.49
445.65	8308.90
445.84	8578.06
446.02	8634.24
446.21	8444.65
446.39	8514.87
446.58	8627.21
446.77	8320.60
446.95	8276.13
447.14	8425.93
447.32	8559.34
447.51	8468.06
447.69	8512.53
447.88	8638.92
448.06	8439.97
448.25	8758.28
448.43	8531.25
448.62	8592.11
448.80	8608.49
448.99	8575.72
449.17	8931.48
449.36	8711.47
449.54	8833.18
449.73	9015.74
449.91	8915.10
450.10	8992.34
450.28	8950.21
450.46	9001.70
450.65	8954.89
450.83	9053.19
451.02	8894.04
451.20	9308.31
451.39	9184.26
451.57	9172.56
451.76	9144.47
451.94	9104.68
452.13	9224.05
452.31	9343.42
452.49	9282.56
452.68	9558.75
452.86	9254.48
453.05	9334.06
453.23	9451.08
453.42	9327.03
453.60	9434.70
453.78	9586.83
453.97	9472.15
454.15	9607.90
454.34	9479.17
454.52	9811.53
454.70	9748.33
454.89	9867.70
455.07	9867.70
455.26	9701.52
455.44	9846.63
455.62	9832.59
455.81	9951.96
455.99	9973.02
456.17	10087.71
456.36	10160.27
456.54	10167.29
456.73	10307.72
456.91	10380.28
457.09	10501.98
457.28	10581.56
457.46	10349.85
457.64	10513.69
457.83	10635.39
458.01	10469.22
458.19	10553.48
458.38	10511.35
458.56	10782.85
458.74	10588.58
458.93	10459.85
459.11	10850.72
459.29	10710.29
459.48	10850.72
459.66	10878.81
459.84	10913.92
460.03	11349.26
460.21	11068.39
460.39	11005.20
460.57	10937.32
460.76	11234.57
460.94	11365.64
461.12	11187.76
461.31	11260.32
461.49	11304.79
461.67	11417.13
461.85	11592.67
462.04	11403.09
462.22	11592.67
462.40	11564.59
462.59	11637.14
462.77	11524.80
462.95	11864.18
463.13	11461.60
463.32	11761.19
463.50	11779.92
463.68	11836.09
463.86	11800.98
464.05	11634.80
464.23	11885.24
464.41	11866.52
464.59	11665.23
464.78	12486.76
464.96	12161.42
465.14	11772.89
465.32	11936.73
465.50	12170.79
465.69	12212.92
465.87	12262.07
466.05	12159.08
466.23	12154.40
466.41	12325.26
466.60	12524.21
466.78	12020.99
466.96	12126.32
467.14	12390.80
467.32	12280.79
467.51	12451.65
467.69	12128.66
467.87	12603.78
468.05	12784.01
468.23	12196.53
468.41	12517.18
468.60	12760.60
468.78	12819.11
468.96	12571.02
469.14	12781.67
469.32	12793.37
469.50	12861.24
469.69	13029.76
469.87	13266.16
470.05	12999.34
470.23	13247.43
470.41	13060.19
470.59	13322.33
470.77	13128.06
470.95	13635.96
471.14	13642.98
471.32	13324.67
471.50	13682.77
471.68	13532.98
471.86	13584.47
472.04	14012.79
472.22	14113.43
472.40	13734.26
472.58	14057.26
472.77	13973.00
472.95	14249.18
473.13	14616.65
473.31	14050.24
473.49	14281.95
473.67	14169.60
473.85	14588.56
474.03	14628.35
474.21	14604.94
474.39	14923.26
474.57	14963.04
474.75	14785.16
474.93	15028.58
475.12	15103.48
475.30	15066.03
475.48	15112.84
475.66	15206.46
475.84	15442.85
476.02	15400.72
476.20	15208.80
476.38	15770.53
476.56	15817.34
476.74	16074.80
476.92	15896.92
477.10	15606.69
477.28	16091.18
477.46	16035.01
477.64	16376.73
477.82	16507.80
478.00	17076.55
478.18	16884.62
478.36	17099.95
478.54	17202.94
478.72	17338.69
478.90	17530.61
479.08	17415.93
479.26	17809.14
479.44	17909.78
479.62	17851.27
479.80	18153.20
479.98	18204.69
480.16	18494.91
480.34	18270.22
480.52	18609.60
480.70	18778.12
480.88	18506.62
481.06	18668.11
481.24	18824.93
481.41	19208.78
481.59	19501.34
481.77	19491.98
481.95	19255.59
482.13	19805.61
482.31	19377.30
482.49	20540.54
482.67	20388.41
482.85	20273.72
483.03	20638.84
483.21	20982.90
483.39	20798.00
483.57	21144.40
483.74	21132.70
483.92	21598.46
484.10	21439.31
484.28	21785.71
484.46	21823.16
484.64	22520.63
484.82	22047.85
485.00	22396.59
485.18	22970.02
485.35	23115.13
485.53	22656.39
485.71	22958.31
485.89	23398.34
486.07	23524.72
486.25	23396.00
486.43	23555.15
486.61	24088.79
486.78	23899.21
486.96	24243.27
487.14	24517.11
487.32	24580.31
487.50	25057.78
487.68	25170.12
487.85	25238.00
488.03	25654.61
488.21	26228.04
488.39	25628.87
488.57	26473.80
488.75	26066.55
488.92	26651.68
489.10	26909.14
489.28	26799.13
489.46	27311.71
489.64	27075.32
489.81	27716.62
489.99	27938.97
490.17	27461.51
490.35	28266.65
490.53	28215.16
490.70	28531.13
490.88	28173.03
491.06	28545.17
491.24	28980.51
491.41	28814.34
491.59	29404.15
491.77	29319.89
491.95	29731.83
492.13	29778.64
492.30	30068.86
492.48	29923.75
492.66	30108.65
492.84	30375.47
493.01	30710.17
493.19	30583.78
493.37	31309.35
493.54	31372.54
493.72	31931.93
493.90	31601.91
494.08	31800.86
494.25	31772.77
494.43	31821.92
494.61	32526.42
494.79	32664.52
494.96	32570.90
495.14	32730.05
495.32	33516.47
495.49	33322.21
495.67	33378.38
495.85	33560.94
496.02	33862.87
496.20	34066.50
496.38	33965.85
496.55	34356.72
496.73	34820.15
496.91	34710.14
497.09	34693.76
497.26	35096.33
497.44	34857.60
497.62	35178.25
497.79	35749.34
497.97	35494.22
498.14	36084.04
498.32	36095.74
498.50	36524.06
498.67	36842.37
498.85	36444.48
499.03	36613.00
499.20	36486.61
499.38	37034.30
499.56	37139.62
499.73	37378.36
499.91	37408.78
500.08	37584.32
500.26	37661.56
500.44	37851.14
500.61	37783.27
500.79	38160.09
500.97	38038.39
501.14	38873.96
501.32	38202.22
501.49	38590.75
501.67	38829.49
501.84	38937.15
502.02	38806.08
502.20	39072.90
502.37	39182.91
502.55	39267.17
502.72	39473.13
502.90	39892.09
503.07	39683.78
503.25	40123.80
503.43	40304.02
503.60	40238.49
503.78	39882.73
503.95	40566.16
504.13	40776.81
504.30	40945.33
504.48	40610.64
504.65	41015.55
504.83	41195.77
505.01	41645.15
505.18	41024.91
505.36	41422.80
505.53	41099.81
505.71	41846.44
505.88	41909.63
506.06	41287.05
506.23	41911.97
506.41	41823.03
506.58	42249.01
506.76	42171.77
506.93	42529.87
507.11	42480.72
507.28	42431.57
507.46	43323.32
507.63	43470.77
507.81	43503.54
507.98	43047.13
508.16	43002.66
508.33	43257.78
508.50	43915.47
508.68	43622.90
508.85	43896.75
509.03	44074.63
509.20	44261.87
509.38	44486.56
509.55	44535.71
509.73	44325.07
509.90	45064.67
510.08	44903.18
510.25	44596.57
510.42	44680.83
510.60	44739.34
510.77	45160.64
510.95	45605.34
511.12	45511.72
511.30	44875.09
511.47	45659.17
511.64	45443.84
511.82	45940.04
511.99	45607.68
512.17	45907.27
512.34	46356.65
512.51	46223.24
512.69	46094.51
512.86	46714.75
513.04	46508.79
513.21	46358.99
513.38	46890.29
513.56	46920.72
513.73	47084.56
513.90	47213.29
514.08	46967.53
514.25	47096.26
514.43	47522.24
514.60	47707.14
514.77	47494.15
514.95	48252.48
515.12	47421.59
515.29	47571.39
515.47	48109.71
515.64	48346.11
515.81	48222.06
515.99	48498.24
516.16	48465.47
516.33	48460.79
516.51	48961.67
516.68	48718.25
516.85	48549.73
517.03	49066.99
517.20	49078.69
517.37	48917.20
517.54	48758.04
517.72	48666.76
517.89	49006.14
518.06	49378.28
518.24	49518.71
518.41	49343.17
518.58	49387.64
518.75	49389.98
518.93	49982.14
519.10	49638.08
519.27	49624.04
519.45	49787.88
519.62	50153.00
519.79	50110.87
519.96	49993.84
520.14	50274.71
520.31	50005.55
520.48	50593.02
520.65	50270.03
520.83	50717.07
521.00	50424.50
521.17	50593.02
521.34	50696.00
521.52	50789.62
521.69	50419.82
521.86	51400.50
522.03	51150.07
522.20	51398.16
522.38	51613.49
522.55	51428.59
522.72	51145.39
522.89	51386.46
523.07	51863.93
523.24	51573.70
523.41	51789.03
523.58	51622.86
523.75	51714.14
523.92	52062.88
524.10	52074.58
524.27	52198.63
524.44	52385.87
524.61	52177.56
524.78	52109.69
524.96	52128.41
525.13	52725.25
525.30	52575.45
525.47	52610.56
525.64	52561.41
525.81	52706.52
525.98	52526.30
526.16	52690.14
526.33	52636.31
526.50	53017.82
526.67	52753.33
526.84	52954.62
527.01	52903.13
527.18	52900.79
527.36	53008.45
527.53	53102.07
527.70	53441.45
527.87	53415.71
528.04	53219.10
528.21	53394.64
528.38	53275.27
528.55	53745.72
528.72	53350.17
528.89	53579.54
529.07	53530.39
529.24	53319.74
529.41	53710.61
529.58	53902.54
529.75	53853.39
529.92	53804.24
530.09	53846.36
530.26	54183.40
530.43	54232.55
530.60	54012.54
530.77	54204.47
530.94	54298.09
531.11	54272.34
531.28	54316.81
531.46	54609.38
531.63	54239.57
531.80	54197.44
531.97	54375.33
532.14	54611.72
532.31	54475.97
532.48	54710.02
532.65	54642.15
532.82	54396.39
532.99	54745.13
533.16	54752.15
533.33	54803.64
533.50	54930.03
533.67	54995.57
533.84	54869.18
534.01	54918.33
534.18	54958.12
534.35	55346.65
534.52	55042.38
534.69	55533.89
534.86	55442.61
535.03	55208.56
535.20	55442.61
535.37	55351.33
535.54	55484.74
535.71	55419.20
535.88	55566.66
536.05	55632.19
536.22	55746.88
536.38	55840.50
536.55	55646.24
536.72	55683.69
536.89	55657.94
537.06	55639.22
537.23	55810.07
537.40	55702.41
537.57	55669.64
537.74	55999.66
537.91	55945.83
538.08	55676.66
538.25	55760.92
538.42	55800.71
538.59	56327.33
538.75	55786.67
538.92	56207.97
539.09	56390.53
539.26	56273.50
539.43	56114.34
539.60	56076.90
539.77	56193.92
539.94	56437.34
540.11	56360.10
540.28	56444.36
540.44	56332.01
540.61	56584.79
540.78	56324.99
540.95	56530.96
541.12	56229.03
541.29	56610.54
541.46	56554.36
541.62	56591.81
541.79	56870.34
541.96	56402.23
542.13	56683.09
542.30	56699.48
542.47	56835.23
542.63	56987.36
542.80	56956.94
542.97	56942.89
543.14	57064.60
543.31	57055.24
543.48	57352.49
543.64	57469.51
543.81	57429.72
543.98	57275.25
544.15	57371.21
544.32	57446.11
544.48	57537.39
544.65	57368.87
544.82	57483.56
544.99	57588.88
545.16	57757.40
545.32	57542.07
545.49	57476.54
545.66	57799.53
545.83	57869.75
546.00	57862.72
546.16	57670.80
546.33	57682.50
546.50	57539.73
546.67	57738.68
546.83	57626.33
547.00	57726.97
547.17	57748.04
547.34	57848.68
547.50	58003.16
547.67	58087.42
547.84	58241.89
548.00	58501.69
548.17	58134.23
548.34	58239.55
548.51	58494.67
548.67	58363.60
548.84	58213.80
549.01	58176.36
549.18	58171.67
549.34	58094.44
549.51	58387.00
549.68	58426.79
549.84	58410.41
550.01	58494.67
550.18	58447.86
550.34	58628.08
550.51	58321.47
550.68	58459.56
550.84	58356.58
551.01	58742.77
551.18	58504.03
551.34	58784.90
551.51	58578.93
551.68	58740.42
551.84	58482.97
552.01	58522.76
552.18	58761.49
552.34	58576.59
552.51	58653.82
552.68	58539.14
552.84	58688.93
553.01	59124.27
553.18	58761.49
553.34	58812.98
553.51	58993.20
553.67	58976.82
553.84	59138.32
554.01	58864.47
554.17	59084.48
554.34	59103.21
554.51	59157.04
554.67	58986.18
554.84	59040.01
555.00	59065.76
555.17	58878.52
555.33	59114.91
555.50	59032.99
555.67	58920.65
555.83	59072.78
556.00	59255.34
556.16	59325.56
556.33	59304.49
556.50	59409.82
556.66	59494.08
556.83	59299.81
556.99	59426.20
557.16	59578.34
557.32	59517.48
557.49	59835.80
557.65	59257.68
557.82	59510.46
557.98	59344.28
558.15	59601.74
558.32	59702.38
558.48	59426.20
558.65	59606.42
558.81	59547.91
558.98	59458.97
559.14	59786.64
559.31	59533.87
559.47	59697.70
559.64	59875.58
559.80	59749.20
559.97	60018.36
560.13	59597.06
560.30	59725.79
560.46	59716.43
560.63	59695.36
560.79	59920.05
560.96	59952.82
561.12	59842.82
561.29	59788.98
561.45	59976.23
561.61	59889.63
561.78	59880.27
561.94	59702.38
562.11	59952.82
562.27	60037.08
562.44	59987.93
562.60	60001.97
562.77	59842.82
562.93	59920.05
563.10	60130.70
563.26	60006.65
563.42	60191.56
563.59	59847.50
563.75	60240.71
563.92	60104.96
564.08	60142.41
564.24	60074.53
564.41	60214.96
564.57	60069.85
564.74	60212.62
564.90	60243.05
565.07	60165.81
565.23	60142.41
565.39	60229.01
565.56	60278.16
565.72	60116.66
565.88	60151.77
566.05	60233.69
566.21	60348.37
566.38	60313.26
566.54	60149.43
566.70	60299.22
566.87	60392.84
567.03	59969.21
567.19	60334.33
567.36	60357.74
567.52	60217.30
567.68	60353.05
567.85	60369.44
568.01	60416.25
568.17	60287.52
568.34	60353.05
568.50	60418.59
568.66	60369.44
568.83	60659.66
568.99	60491.15
569.15	60488.80
569.32	60463.06
569.48	60441.99
569.64	60542.64
569.81	60278.16
569.97	60390.50
570.13	60446.68
570.30	60441.99
570.46	60589.45
570.62	60526.25
570.78	60528.59
570.95	60402.21
571.11	60858.61
571.27	60528.59
571.43	60762.65
571.60	60767.33
571.76	60523.91
571.92	60739.24
572.09	60715.84
572.25	60629.24
572.41	60552.00
572.57	60643.28
572.74	60870.31
572.90	60842.23
573.06	60622.22
573.22	60638.60
573.38	60540.30
573.55	60580.09
573.71	60762.65
573.87	60753.29
574.03	60692.43
574.20	60781.37
574.36	60725.20
574.52	60779.03
574.68	60750.94
574.84	60889.04
575.01	60774.35
575.17	60701.79
575.33	60659.66
575.49	60690.09
575.65	60856.27
575.82	60832.86
575.98	60874.99
576.14	61048.19
576.30	60994.36
576.46	60673.71
576.62	60750.94
576.79	60743.92
576.95	60636.26
577.11	60842.23
577.27	60793.07
577.43	60874.99
577.59	60718.18
577.75	60898.40
577.92	60669.03
578.08	60811.80
578.24	61003.72
578.40	61080.96
578.56	61055.21
578.72	60863.29
578.88	61176.92
579.04	61066.92
579.21	60977.98
579.37	61006.06
579.53	60858.61
579.69	60865.63
579.85	60891.38
580.01	60772.01
580.17	60779.03
580.33	60970.96
580.49	61123.09
580.65	61127.77
580.82	60898.40
580.98	60811.80
581.14	60783.71
581.30	60959.25
581.46	60910.10
581.62	60917.12
581.78	60968.61
581.94	61134.79
582.10	60982.66
582.26	60970.96
582.42	60884.36
582.58	61024.79
582.74	60956.91
582.90	61087.98
583.06	60985.00
583.22	60844.57
583.38	60931.17
583.54	61036.49
583.70	60985.00
583.86	61020.11
584.02	60804.78
584.18	61071.60
584.34	60966.27
584.50	61095.00
584.66	60889.04
584.82	60846.91
584.98	61249.48
585.14	61083.30
585.30	61111.39
585.46	61104.37
585.62	61031.81
585.78	61305.65
585.94	60921.80
586.10	60968.61
586.26	61111.39
586.42	60980.32
586.58	61380.55
586.74	61076.28
586.90	61031.81
587.06	60966.27
587.22	61080.96
587.38	61001.38
587.54	61125.43
587.70	61333.74
587.86	61071.60
588.02	61123.09
588.18	61235.44
588.34	61176.92
588.49	60994.36
