SpectraSuite Data File
++++++++++++++++++++++++++++++++++++
Date: Fri Oct 25 10:48:00 EDT 2013
User: price-jones
Dark Spectrum Present: No
Reference Spectrum Present: No
Number of Sampled Component Spectra: 1
Spectrometers: USB2+H05261
Integration Time (usec): 100000 (USB2+H05261)
Spectra Averaged: 1 (USB2+H05261)
Boxcar Smoothing: 0 (USB2+H05261)
Correct for Electrical Dark: No (USB2+H05261)
Strobe/Lamp Enabled: No (USB2+H05261)
Correct for Detector Non-linearity: No (USB2+H05261)
Correct for Stray Light: No (USB2+H05261)
Number of Pixels in Processed Spectrum: 2048
>>>>>Begin Processed Spectral Data<<<<<
365.73	177.88
365.92	177.88
366.12	177.88
366.32	121.71
366.52	32.77
366.72	79.58
366.91	21.06
367.11	11.70
367.31	72.56
367.51	56.17
367.70	91.28
367.90	86.60
368.10	51.49
368.30	23.41
368.49	18.72
368.69	0.00
368.89	51.49
369.09	60.85
369.28	140.43
369.48	77.24
369.68	128.73
369.87	51.49
370.07	95.96
370.27	117.03
370.47	156.82
370.66	351.08
370.86	435.34
371.06	458.74
371.25	402.57
371.45	409.59
371.65	517.26
371.84	521.94
372.04	402.57
372.24	402.57
372.44	493.85
372.63	433.00
372.83	482.15
373.03	512.58
373.22	554.71
373.42	498.53
373.62	482.15
373.81	454.06
374.01	545.34
374.21	519.60
374.40	465.77
374.60	561.73
374.79	472.79
374.99	545.34
375.19	533.64
375.38	568.75
375.58	559.39
375.78	557.05
375.97	580.45
376.17	557.05
376.37	641.31
376.56	566.41
376.76	585.13
376.95	653.01
377.15	610.88
377.35	575.77
377.54	653.01
377.74	606.20
377.93	629.60
378.13	585.13
378.33	641.31
378.52	608.54
378.72	645.99
378.91	592.16
379.11	550.03
379.31	624.92
379.50	645.99
379.70	629.60
379.89	601.52
380.09	634.29
380.28	676.41
380.48	641.31
380.68	606.20
380.87	575.77
381.07	727.91
381.26	653.01
381.46	645.99
381.65	676.41
381.85	589.82
382.04	620.24
382.24	692.80
382.43	648.33
382.63	582.79
382.83	695.14
383.02	702.16
383.22	683.44
383.41	699.82
383.61	704.50
383.80	711.52
384.00	706.84
384.19	720.88
384.39	772.38
384.58	653.01
384.78	819.19
384.97	772.38
385.17	706.84
385.36	751.31
385.56	720.88
385.75	777.06
385.95	821.53
386.14	826.21
386.34	772.38
386.53	849.61
386.72	777.06
386.92	910.47
387.11	877.70
387.31	795.78
387.50	814.51
387.70	840.25
387.89	760.67
388.09	734.93
388.28	774.72
388.48	777.06
388.67	870.68
388.86	861.32
389.06	891.74
389.25	894.08
389.45	908.13
389.64	908.13
389.84	901.11
390.03	990.05
390.22	901.11
390.42	1004.09
390.61	882.38
390.81	847.27
391.00	1001.75
391.19	1034.52
391.39	887.06
391.58	866.00
391.78	964.30
391.97	994.73
392.16	1001.75
392.36	954.94
392.55	971.32
392.75	1020.47
392.94	910.47
393.13	992.39
393.33	929.19
393.52	924.51
393.71	994.73
393.91	1053.24
394.10	971.32
394.29	1102.39
394.49	1057.92
394.68	1093.03
394.88	1116.44
395.07	1153.88
395.26	1104.73
395.46	1116.44
395.65	1153.88
395.84	1100.05
396.04	1177.29
396.23	1100.05
396.42	1053.24
396.62	1130.48
396.81	1165.59
397.00	1188.99
397.19	1144.52
397.39	1177.29
397.58	1137.50
397.77	1217.08
397.97	1254.53
398.16	1299.00
398.35	1306.02
398.55	1263.89
398.74	1310.70
398.93	1362.19
399.12	1329.42
399.32	1320.06
399.51	1315.38
399.70	1338.79
399.90	1327.08
400.09	1331.76
400.28	1418.36
400.47	1343.47
400.67	1462.83
400.86	1376.24
401.05	1446.45
401.24	1390.28
401.44	1362.19
401.63	1430.07
401.82	1390.28
402.01	1495.60
402.21	1675.82
402.40	1537.73
402.59	1586.88
402.78	1570.50
402.97	1519.01
403.17	1554.12
403.36	1500.28
403.55	1521.35
403.74	1533.05
403.93	1579.86
404.13	1678.16
404.32	1586.88
404.51	1673.48
404.70	1596.25
404.89	1614.97
405.09	1818.60
405.28	1675.82
405.47	1792.85
405.66	1832.64
405.85	1755.40
406.05	1743.70
406.24	1710.93
406.43	1799.87
406.62	1874.77
406.81	1895.83
407.00	1790.51
407.20	1809.23
407.39	1858.39
407.58	1856.04
407.77	1790.51
407.96	1970.73
408.15	1949.67
408.34	1877.11
408.54	1930.94
408.73	1877.11
408.92	1991.80
409.11	1942.64
409.30	1877.11
409.49	2022.22
409.68	2005.84
409.87	1895.83
410.07	1975.41
410.26	2134.57
410.45	2073.71
410.64	2162.66
410.83	2134.57
411.02	2188.40
411.21	2181.38
411.40	2216.49
411.59	2314.79
411.78	2321.81
411.98	2179.04
412.17	2204.78
412.36	2321.81
412.55	2347.56
412.74	2464.58
412.93	2431.82
413.12	2387.35
413.31	2473.95
413.50	2441.18
413.69	2410.75
413.88	2600.34
414.07	2473.95
414.26	2525.44
414.45	2555.86
414.64	2644.81
414.83	2581.61
415.02	2525.44
415.22	2700.98
415.41	2825.03
415.60	2717.36
415.79	2794.60
415.98	2883.54
416.17	2864.82
416.36	2778.22
416.55	2956.10
416.74	2825.03
416.93	2942.05
417.12	2836.73
417.31	2979.50
417.50	2874.18
417.69	3019.29
417.88	3049.72
418.07	3014.61
418.26	3094.19
418.45	3103.55
418.64	3119.93
418.83	3176.11
419.02	3070.78
419.21	3152.70
419.39	3192.49
419.58	3122.27
419.77	3169.09
419.96	3297.81
420.15	3288.45
420.34	3141.00
420.53	3339.94
420.72	3229.94
420.91	3281.43
421.10	3295.47
421.29	3405.48
421.48	3276.75
421.67	3503.78
421.86	3330.58
422.05	3442.93
422.24	3307.18
422.43	3346.97
422.61	3332.92
422.80	3463.99
422.99	3407.82
423.18	3503.78
423.37	3555.27
423.56	3403.14
423.75	3452.29
423.94	3487.40
424.13	3185.47
424.32	3267.39
424.50	3585.70
424.69	3618.47
424.88	3585.70
425.07	3602.08
425.26	3468.67
425.45	3456.97
425.64	3435.91
425.83	3503.78
426.01	3590.38
426.20	3398.46
426.39	3499.10
426.58	3534.21
426.77	3548.25
426.96	3496.76
427.15	3585.70
427.33	3618.47
427.52	3660.60
427.71	3590.38
427.90	3585.70
428.09	3637.19
428.28	3791.67
428.46	3721.45
428.65	3524.85
428.84	3824.44
429.03	3751.88
429.22	3698.05
429.40	3698.05
429.59	3796.35
429.78	3552.93
429.97	3768.26
430.16	3784.65
430.34	3744.86
430.53	3906.35
430.72	3758.90
430.91	3934.44
431.10	3810.39
431.28	4037.42
431.47	4030.40
431.66	4095.94
431.85	3932.10
432.03	4177.86
432.22	4222.33
432.41	4173.18
432.60	4093.60
432.79	4201.26
432.97	4187.22
433.16	4002.32
433.35	4145.09
433.54	4161.47
433.72	4285.52
433.91	4346.37
434.10	4290.20
434.28	4301.90
434.47	4325.31
434.66	4290.20
434.85	4372.12
435.03	4456.38
435.22	4269.14
435.41	4482.13
435.59	4566.39
435.78	4479.79
435.97	4507.87
436.16	4599.15
436.34	4456.38
436.53	4489.15
436.72	4606.17
436.90	4557.02
437.09	4657.67
437.28	4430.63
437.46	4517.23
437.65	4746.61
437.84	4624.90
438.02	4669.37
438.21	4842.57
438.40	4528.94
438.58	4816.82
438.77	5015.77
438.96	4905.76
439.14	5095.35
439.33	4919.81
439.52	5137.48
439.70	4980.66
439.89	5074.28
440.08	5146.84
440.26	5104.71
440.45	5025.13
440.63	5214.71
440.82	5331.74
441.01	5252.16
441.19	5252.16
441.38	5418.34
441.57	5289.61
441.75	5455.79
441.94	5394.93
442.12	5633.67
442.31	5535.37
442.50	5579.84
442.68	5540.05
442.87	5605.58
443.05	5621.97
443.24	5802.19
443.43	5673.46
443.61	5659.42
443.80	5851.34
443.98	5689.84
444.17	5504.94
444.35	5720.27
444.54	5825.59
444.73	5839.64
444.91	5654.73
445.10	5621.97
445.28	5750.70
445.47	5720.27
445.65	5645.37
445.84	5881.77
446.02	5804.53
446.21	5762.40
446.39	5799.85
446.58	5834.96
446.77	5907.51
446.95	5841.98
447.14	5776.44
447.32	5858.36
447.51	5928.58
447.69	6040.92
447.88	5928.58
448.06	5935.60
448.25	5970.71
448.43	5935.60
448.62	5916.87
448.80	5982.41
448.99	6087.73
449.17	6066.67
449.36	6022.20
449.54	6237.53
449.73	6169.65
449.91	6258.59
450.10	6370.94
450.28	6370.94
450.46	6366.26
450.65	6340.51
450.83	6214.12
451.02	6282.00
451.20	6349.87
451.39	6347.53
451.57	6289.02
451.76	6387.32
451.94	6422.43
452.13	6326.47
452.31	6499.67
452.49	6279.66
452.68	6494.99
452.86	6499.67
453.05	6452.86
453.23	6349.87
453.42	6321.79
453.60	6401.37
453.78	6459.88
453.97	6452.86
454.15	6506.69
454.34	6504.35
454.52	6696.27
454.70	6567.54
454.89	6916.28
455.07	6715.00
455.26	6607.33
455.44	6918.62
455.62	6834.36
455.81	6867.13
455.99	7021.61
456.17	6909.26
456.36	6974.80
456.54	6925.65
456.73	7248.64
456.91	7171.40
457.09	7173.74
457.28	7414.82
457.46	6963.09
457.64	7260.34
457.83	7164.38
458.01	7094.16
458.19	7265.02
458.38	7227.57
458.56	7300.13
458.74	7339.92
458.93	7346.94
459.11	7339.92
459.29	7496.74
459.48	7311.83
459.66	7318.86
459.84	7360.98
460.03	7501.42
460.21	7487.37
460.39	7606.74
460.57	7583.34
460.76	7566.95
460.94	7613.76
461.12	7772.92
461.31	7562.27
461.49	7513.12
461.67	7763.56
461.85	7913.35
462.04	7747.17
462.22	8271.45
462.40	7911.01
462.59	7866.54
462.77	7906.33
462.95	7742.49
463.13	7903.99
463.32	7929.74
463.50	7999.95
463.68	8013.99
463.86	7920.37
464.05	7995.27
464.23	7852.50
464.41	8013.99
464.59	7932.08
464.78	8053.78
464.96	8023.36
465.14	7988.25
465.32	8039.74
465.50	8102.93
465.69	8327.63
465.87	8131.02
466.05	8049.10
466.23	8383.80
466.41	8198.90
466.60	8446.99
466.78	8229.32
466.96	8229.32
467.14	8234.00
467.32	8156.77
467.51	8573.38
467.69	8166.13
467.87	8402.52
468.05	8589.77
468.23	8442.31
468.41	8308.90
468.60	8510.19
468.78	8624.87
468.96	8425.93
469.14	8697.43
469.32	8842.54
469.50	8580.40
469.69	8777.01
469.87	8730.20
470.05	8709.13
470.23	8645.94
470.41	8835.52
470.59	8954.89
470.77	8875.31
470.95	8606.15
471.14	8954.89
471.32	8954.89
471.50	9320.01
471.68	9128.09
471.86	9090.64
472.04	9228.73
472.22	9348.10
472.40	9034.47
472.58	9214.69
472.77	9504.92
472.95	9453.42
473.13	9891.10
473.31	9415.98
473.49	9645.35
473.67	9476.83
473.85	9713.22
474.03	9750.67
474.21	9783.44
474.39	10076.01
474.57	9928.55
474.75	9858.34
474.93	9956.64
475.12	10057.28
475.30	10146.22
475.48	9928.55
475.66	9940.26
475.84	10083.03
476.02	10356.87
476.20	10092.39
476.38	10441.13
476.56	10817.96
476.74	10691.57
476.92	10450.49
477.10	10689.23
477.28	10857.75
477.46	10691.57
477.64	10731.36
477.82	11166.70
478.00	11229.89
478.18	11225.21
478.36	11255.64
478.54	11314.15
478.72	11515.44
478.90	11506.07
479.08	11620.76
479.26	11838.43
479.44	11845.45
479.62	11817.36
479.80	11852.47
479.98	12154.40
480.16	12341.64
480.34	12037.38
480.52	12248.02
480.70	12301.86
480.88	12238.66
481.06	12512.50
481.24	12428.24
481.41	12861.24
481.59	12924.44
481.77	12952.52
481.95	13043.81
482.13	13202.96
482.31	13013.38
482.49	13547.02
482.67	13364.46
482.85	13561.06
483.03	13694.47
483.21	13659.37
483.39	13673.41
483.57	13841.93
483.74	13996.40
483.92	14148.54
484.10	14015.13
484.28	14267.91
484.46	14455.15
484.64	14707.93
484.82	14260.88
485.00	14565.15
485.18	14923.26
485.35	15098.80
485.53	14593.24
485.71	14949.00
485.89	15126.88
486.07	15082.41
486.25	15178.37
486.43	15248.59
486.61	15377.32
486.78	15929.69
486.96	15992.88
487.14	16126.29
487.32	15978.84
487.50	16180.12
487.68	16369.71
487.85	16608.44
488.03	16795.68
488.21	16919.73
488.39	16699.72
488.57	16854.20
488.75	17158.47
488.92	17401.88
489.10	17390.18
489.28	17586.79
489.46	17825.52
489.64	17671.04
489.81	18174.26
489.99	18129.79
490.17	18338.10
490.35	18347.46
490.53	18569.81
490.70	18530.02
490.88	18583.85
491.06	18867.06
491.24	18665.77
491.41	18829.61
491.59	18986.43
491.77	18885.78
491.95	19138.56
492.13	19323.46
492.30	19503.68
492.48	19697.95
492.66	19824.34
492.84	19639.44
493.01	19997.54
493.19	19810.29
493.37	20245.63
493.54	20280.74
493.72	20753.53
493.90	20695.02
494.08	20776.94
494.25	20989.92
494.43	20840.13
494.61	21231.00
494.79	21137.38
494.96	21212.28
495.14	21502.50
495.32	21568.04
495.49	21823.16
495.67	21502.50
495.85	21865.28
496.02	22033.80
496.20	22260.84
496.38	22277.22
496.55	22422.33
496.73	22857.67
496.91	22644.68
497.09	22712.56
497.26	22967.68
497.44	23145.56
497.62	22635.32
497.79	23016.83
497.97	23112.79
498.14	23035.55
498.32	23215.77
498.50	23290.67
498.67	23672.18
498.85	23623.03
499.03	23604.30
499.20	23658.14
499.38	23522.38
499.56	23962.40
499.73	24482.00
499.91	24318.17
500.08	24442.21
500.26	24381.36
500.44	24592.01
500.61	24245.61
500.79	24643.50
500.97	24748.82
501.14	24833.08
501.32	24669.25
501.49	25067.14
501.67	24844.79
501.84	25350.34
502.02	24971.18
502.20	25324.60
502.37	25125.65
502.55	25266.08
502.72	25144.38
502.90	25394.81
503.07	25394.81
503.25	25858.24
503.43	25652.27
503.60	25886.32
503.78	25998.67
503.95	25902.71
504.13	26483.16
504.30	26438.69
504.48	26384.86
504.65	26167.19
504.83	26302.94
505.01	26567.42
505.18	26738.28
505.36	26934.88
505.53	26738.28
505.71	26841.26
505.88	27220.43
506.06	27084.68
506.23	27494.27
506.41	27005.10
506.58	27489.59
506.76	27737.69
506.93	27541.08
507.11	27470.87
507.28	27646.41
507.46	27644.07
507.63	27880.46
507.81	27833.65
507.98	28056.00
508.16	28060.68
508.33	28018.55
508.50	28240.90
508.68	28341.55
508.85	28519.43
509.03	28339.21
509.20	28657.52
509.38	28783.91
509.55	28996.90
509.73	28987.53
509.90	28840.08
510.08	28847.10
510.25	29027.32
510.42	29041.37
510.60	29230.95
510.77	29069.45
510.95	29200.52
511.12	29132.65
511.30	29553.94
511.47	29788.00
511.64	30059.50
511.82	29851.19
511.99	29666.29
512.17	30206.95
512.34	29511.81
512.51	30141.42
512.69	30019.71
512.86	30698.47
513.04	30387.18
513.21	30480.80
513.38	30295.89
513.56	30693.79
513.73	30171.85
513.90	30504.20
514.08	30733.57
514.25	31084.65
514.43	30611.87
514.60	30735.92
514.77	30878.69
514.95	31166.57
515.12	30895.07
515.29	31161.89
515.47	31454.46
515.64	31496.59
515.81	31087.00
515.99	31304.67
516.16	31440.42
516.33	31461.48
516.51	31810.22
516.68	31529.36
516.85	31278.92
517.03	31335.09
517.20	31618.30
517.37	31997.46
517.54	32203.43
517.72	31819.58
517.89	31983.42
518.06	31948.31
518.24	32100.45
518.41	31952.99
518.58	32275.99
518.75	32201.09
518.93	32308.76
519.10	32259.60
519.27	32809.63
519.45	32957.08
519.62	32814.31
519.79	32613.02
519.96	33067.09
520.14	33354.97
520.31	32849.42
520.48	33514.13
520.65	32999.21
520.83	33209.86
521.00	33663.93
521.17	33415.83
521.34	33425.19
521.52	33448.60
521.69	34012.66
521.86	33537.54
522.03	33483.70
522.20	34052.45
522.38	33937.77
522.55	34298.21
522.72	33837.12
522.89	34150.76
523.07	34220.97
523.24	33867.55
523.41	34249.06
523.58	34211.61
523.75	34469.07
523.92	34298.21
524.10	34742.91
524.27	34878.66
524.44	34621.20
524.61	35129.10
524.78	34689.08
524.96	35075.27
525.13	35229.74
525.30	35201.66
525.47	35166.55
525.64	35115.06
525.81	35438.05
525.98	35143.14
526.16	34976.97
526.33	35234.42
526.50	35255.49
526.67	35068.25
526.84	35187.61
527.01	35438.05
527.18	35314.00
527.36	35557.42
527.53	36177.66
527.70	36025.53
527.87	36006.80
528.04	35669.76
528.21	36376.61
528.38	36109.78
528.55	36383.63
528.72	36257.24
528.89	36184.68
529.07	36261.92
529.24	36011.48
529.41	36315.75
529.58	36226.81
529.75	36322.77
529.92	36531.08
530.09	36610.66
530.26	36254.90
530.43	36587.25
530.60	36472.57
530.77	36135.53
530.94	36723.01
531.11	36713.64
531.28	36898.55
531.46	36992.17
531.63	37057.70
531.80	37104.51
531.97	37097.49
532.14	37060.04
532.31	37060.04
532.48	37584.32
532.65	37287.07
532.82	37275.37
532.99	37406.44
533.16	37071.75
533.33	37479.00
533.50	37551.56
533.67	37699.01
533.84	37621.77
534.01	37495.38
534.18	37324.52
534.35	37778.59
534.52	37668.58
534.69	37766.88
534.86	37933.06
535.03	37745.82
535.20	38281.80
535.37	38279.46
535.54	38366.06
535.71	38045.41
535.88	38368.40
536.05	38094.56
536.22	38401.17
536.38	38487.77
536.55	38249.03
536.72	38057.11
536.89	37855.82
537.06	38600.12
537.23	38328.61
537.40	38277.12
537.57	38862.26
537.74	38499.47
537.91	38387.13
538.08	38546.28
538.25	38557.99
538.42	38415.21
538.59	39103.33
538.75	38689.06
538.92	38712.46
539.09	39234.40
539.26	38667.99
539.43	39391.22
539.60	39241.42
539.77	38494.79
539.94	39311.64
540.11	39044.82
540.28	39559.73
540.44	39012.05
540.61	38983.96
540.78	39313.98
540.95	38998.01
541.12	39061.20
541.29	39606.55
541.46	39571.44
541.62	39241.42
541.79	39974.01
541.96	39255.46
542.13	39786.77
542.30	39669.74
542.47	39938.90
542.63	39651.02
542.80	39866.34
542.97	40081.67
543.14	40107.42
543.31	40130.83
543.48	40243.17
543.64	40774.47
543.81	40568.51
543.98	40329.77
544.15	40048.91
544.32	40381.26
544.48	40849.37
544.65	40786.18
544.82	40481.91
544.99	40224.45
545.16	40589.57
545.32	40718.30
545.49	40928.95
545.66	40797.88
545.83	40648.08
546.00	40807.24
546.16	40739.36
546.33	41099.81
546.50	40423.39
546.67	40701.92
546.83	40467.86
547.00	41006.19
547.17	41207.47
547.34	40992.14
547.50	41301.09
547.67	41024.91
547.84	41198.11
548.00	41490.68
548.17	41909.63
548.34	41312.80
548.51	41603.02
548.67	41553.87
548.84	41563.23
549.01	41097.47
549.18	41322.16
549.34	41727.07
549.51	41682.60
549.68	41516.42
549.84	41794.95
550.01	41963.46
550.18	41834.74
550.34	41825.37
550.51	41666.22
550.68	41366.63
550.84	41251.94
551.01	41687.28
551.18	41918.99
551.34	41523.44
551.51	41668.56
551.68	42064.11
551.84	42181.13
552.01	42003.25
552.18	42150.71
552.34	41652.17
552.51	41935.38
552.68	42050.06
552.84	42155.39
553.01	42293.48
553.18	41942.40
553.34	41694.30
553.51	42157.73
553.67	42342.63
553.84	42522.85
554.01	42417.53
554.17	42525.19
554.34	42717.12
554.51	42600.09
554.67	42490.09
554.84	42263.05
555.00	42422.21
555.17	42525.19
555.33	42794.36
555.50	42293.48
555.67	42380.08
555.83	42546.26
556.00	42885.64
556.16	43056.50
556.33	42911.38
556.50	42897.34
556.66	43512.90
556.83	42902.02
556.99	42796.70
557.16	43065.86
557.32	42656.26
557.49	43007.34
557.65	42815.42
557.82	42906.70
557.98	42658.60
558.15	43192.25
558.32	42639.88
558.48	42792.01
558.65	42770.95
558.81	43070.54
558.98	43051.81
559.14	43313.95
559.31	42700.73
559.47	43253.10
559.64	43627.59
559.80	43533.96
559.97	43676.74
560.13	42925.42
560.30	43079.90
560.46	43601.84
560.63	43178.20
560.79	43730.57
560.96	43983.35
561.12	43234.38
561.29	43761.00
561.45	43372.47
561.61	43639.29
561.78	43452.05
561.94	43313.95
562.11	43660.35
562.27	43489.49
562.44	43440.34
562.60	43328.00
562.77	43777.38
562.93	43604.18
563.10	43222.67
563.26	43482.47
563.42	43585.46
563.59	43686.10
563.75	43587.80
563.92	43562.05
564.08	43531.62
564.24	43470.77
564.41	43461.41
564.57	44076.97
564.74	44175.27
564.90	43812.49
565.07	43445.02
565.23	43772.70
565.39	43896.75
565.56	43639.29
565.72	43906.11
565.88	43515.24
566.05	43683.76
566.21	43601.84
566.38	43681.42
566.54	43990.37
566.70	44406.98
566.87	44091.01
567.03	43501.20
567.19	44355.49
567.36	43943.56
567.52	43473.11
567.68	44308.68
567.85	43854.62
568.01	43971.64
568.17	43931.86
568.34	43997.39
568.50	44058.24
568.66	44044.20
568.83	43765.68
568.99	43702.48
569.15	43945.90
569.32	43557.37
569.48	43873.34
569.64	44032.50
569.81	44083.99
569.97	43732.91
570.13	44376.56
570.30	44257.19
570.46	43723.55
570.62	43695.46
570.78	43407.58
570.95	44334.43
571.11	43653.33
571.27	44261.87
571.43	44004.41
571.60	44076.97
571.76	44304.00
571.92	44203.36
572.09	43969.30
572.25	44315.70
572.41	43985.69
572.57	43878.02
572.74	44636.36
572.90	43941.22
573.06	44498.26
573.22	44201.02
573.38	44271.23
573.55	44076.97
573.71	44201.02
573.87	44334.43
574.03	43821.85
574.20	44348.47
574.36	44472.52
574.52	44701.89
574.68	44498.26
574.84	44402.30
575.01	44016.11
575.17	44168.25
575.33	44753.38
575.49	44243.15
575.65	44666.78
575.82	44327.41
575.98	44397.62
576.14	44842.32
576.30	44259.53
576.46	44411.67
576.62	43906.11
576.79	44156.55
576.95	44076.97
577.11	44163.57
577.27	44474.86
577.43	44570.82
577.59	44425.71
577.75	44467.84
577.92	43941.22
578.08	44189.31
578.24	44088.67
578.40	44254.85
578.56	44278.25
578.72	44346.13
578.88	44828.28
579.04	44699.55
579.21	44327.41
579.37	44385.92
579.53	44161.23
579.69	44102.71
579.85	44292.30
580.01	44502.95
580.17	44048.88
580.33	45034.25
580.49	44545.08
580.65	44802.53
580.82	44247.83
580.98	43800.79
581.14	43863.98
581.30	44545.08
581.46	44465.50
581.62	44346.13
581.78	44362.51
581.94	44928.92
582.10	44828.28
582.26	44619.97
582.42	44343.79
582.58	44615.29
582.74	44678.49
582.90	44563.80
583.06	44779.13
583.22	44367.20
583.38	44711.25
583.54	44521.67
583.70	44404.64
583.86	43938.88
584.02	44041.86
584.18	45052.97
584.34	44762.75
584.50	44573.16
584.66	44900.84
584.82	44172.93
584.98	44383.58
585.14	45001.48
585.30	44154.21
585.46	44498.26
585.62	44388.26
585.78	44135.48
585.94	44144.84
586.10	44360.17
586.26	44336.77
586.42	44332.09
586.58	44355.49
586.74	44250.17
586.90	44484.22
587.06	44542.74
587.22	44430.39
587.38	44119.10
587.54	44987.44
587.70	44481.88
587.86	44692.53
588.02	44641.04
588.18	44900.84
588.34	44481.88
588.49	44596.57
588.65	44306.34
588.81	44030.16
588.97	44673.81
589.13	44404.64
589.29	44828.28
589.45	44549.76
589.61	45155.96
589.77	44985.10
589.93	44760.40
590.08	44994.46
590.24	44858.71
