SpectraSuite Data File
++++++++++++++++++++++++++++++++++++
Date: Fri Oct 25 10:47:45 EDT 2013
User: price-jones
Dark Spectrum Present: No
Reference Spectrum Present: No
Number of Sampled Component Spectra: 1
Spectrometers: USB2+H05261
Integration Time (usec): 100000 (USB2+H05261)
Spectra Averaged: 1 (USB2+H05261)
Boxcar Smoothing: 0 (USB2+H05261)
Correct for Electrical Dark: No (USB2+H05261)
Strobe/Lamp Enabled: No (USB2+H05261)
Correct for Detector Non-linearity: No (USB2+H05261)
Correct for Stray Light: No (USB2+H05261)
Number of Pixels in Processed Spectrum: 2048
>>>>>Begin Processed Spectral Data<<<<<
365.73	110.01
365.92	110.01
366.12	110.01
366.32	65.54
366.52	28.09
366.72	74.90
366.91	77.24
367.11	37.45
367.31	0.00
367.51	28.09
367.70	4.68
367.90	49.15
368.10	93.62
368.30	0.00
368.49	16.38
368.69	112.35
368.89	117.03
369.09	9.36
369.28	81.92
369.48	53.83
369.68	74.90
369.87	44.47
370.07	93.62
370.27	112.35
370.47	119.37
370.66	383.85
370.86	472.79
371.06	440.02
371.25	404.91
371.45	463.43
371.65	437.68
371.84	418.96
372.04	414.27
372.24	437.68
372.44	451.72
372.63	512.58
372.83	470.45
373.03	566.41
373.22	477.47
373.42	500.87
373.62	498.53
373.81	514.92
374.01	564.07
374.21	482.15
374.40	575.77
374.60	589.82
374.79	465.77
374.99	561.73
375.19	507.90
375.38	510.24
375.58	571.09
375.78	547.69
375.97	552.37
376.17	552.37
376.37	627.26
376.56	557.05
376.76	533.64
376.95	587.47
377.15	660.03
377.35	535.98
377.54	622.58
377.74	617.90
377.93	606.20
378.13	613.22
378.33	566.41
378.52	613.22
378.72	645.99
378.91	578.11
379.11	578.11
379.31	592.16
379.50	580.45
379.70	631.94
379.89	596.84
380.09	671.73
380.28	678.76
380.48	692.80
380.68	711.52
380.87	685.78
381.07	662.37
381.26	699.82
381.46	634.29
381.65	671.73
381.85	667.05
382.04	713.86
382.24	739.61
382.43	664.71
382.63	645.99
382.83	692.80
383.02	709.18
383.22	791.10
383.41	690.46
383.61	713.86
383.80	671.73
384.00	725.57
384.19	704.50
384.39	744.29
384.58	664.71
384.78	725.57
384.97	814.51
385.17	704.50
385.36	739.61
385.56	718.54
385.75	725.57
385.95	795.78
386.14	732.59
386.34	732.59
386.53	812.17
386.72	753.65
386.92	844.93
387.11	866.00
387.31	807.48
387.50	755.99
387.70	816.85
387.89	816.85
388.09	779.40
388.28	863.66
388.48	866.00
388.67	896.43
388.86	847.27
389.06	753.65
389.25	842.59
389.45	908.13
389.64	987.71
389.84	950.26
390.03	947.92
390.22	943.24
390.42	854.30
390.61	884.72
390.81	990.05
391.00	943.24
391.19	1013.45
391.39	929.19
391.58	987.71
391.78	943.24
391.97	950.26
392.16	976.00
392.36	938.55
392.55	952.60
392.75	957.28
392.94	910.47
393.13	978.34
393.33	940.90
393.52	915.15
393.71	990.05
393.91	1039.20
394.10	1013.45
394.29	1076.65
394.49	1060.26
394.68	1090.69
394.88	1125.80
395.07	1029.84
395.26	1090.69
395.46	1132.82
395.65	1078.99
395.84	1121.12
396.04	1310.70
396.23	1151.54
396.42	1029.84
396.62	1156.22
396.81	1041.54
397.00	1074.31
397.19	1102.39
397.39	1191.33
397.58	1268.57
397.77	1221.76
397.97	1221.76
398.16	1299.00
398.35	1322.40
398.55	1308.36
398.74	1149.20
398.93	1366.87
399.12	1275.59
399.32	1317.72
399.51	1338.79
399.70	1376.24
399.90	1371.55
400.09	1430.07
400.28	1401.98
400.47	1334.11
400.67	1427.73
400.86	1476.88
401.05	1514.33
401.24	1432.41
401.44	1458.15
401.63	1430.07
401.82	1493.26
402.01	1483.90
402.21	1458.15
402.40	1493.26
402.59	1540.07
402.78	1481.56
402.97	1462.83
403.17	1570.50
403.36	1617.31
403.55	1614.97
403.74	1741.36
403.93	1640.72
404.13	1701.57
404.32	1514.33
404.51	1673.48
404.70	1680.50
404.89	1586.88
405.09	1710.93
405.28	1720.29
405.47	1724.97
405.66	1699.23
405.85	1764.76
406.05	1760.08
406.24	1750.72
406.43	1743.70
406.62	1839.66
406.81	1834.98
407.00	1851.36
407.20	1816.26
407.39	1811.57
407.58	1844.34
407.77	1940.30
407.96	2057.33
408.15	1973.07
408.34	2019.88
408.54	1966.05
408.73	2031.58
408.92	2005.84
409.11	2094.78
409.30	2120.53
409.49	1949.67
409.68	2022.22
409.87	1996.48
410.07	2001.16
410.26	2087.76
410.45	2223.51
410.64	2120.53
410.83	2092.44
411.02	2129.89
411.21	2275.00
411.40	2200.10
411.59	2237.55
411.78	2225.85
411.98	2296.07
412.17	2256.28
412.36	2314.79
412.55	2427.14
412.74	2448.20
412.93	2317.13
413.12	2420.11
413.31	2597.99
413.50	2544.16
413.69	2406.07
413.88	2569.91
414.07	2504.37
414.26	2511.39
414.45	2586.29
414.64	2572.25
414.83	2621.40
415.02	2621.40
415.22	2778.22
415.41	2736.09
415.60	2764.17
415.79	2839.07
415.98	2719.70
416.17	2867.16
416.36	2876.52
416.55	2836.73
416.74	2808.64
416.93	2935.03
417.12	2967.80
417.31	3002.91
417.50	3009.93
417.69	2958.44
417.88	3089.51
418.07	2979.50
418.26	3047.38
418.45	3115.25
418.64	3176.11
418.83	3133.98
419.02	3119.93
419.21	3131.64
419.39	3407.82
419.58	3211.22
419.77	3082.49
419.96	3349.31
420.15	3346.97
420.34	3211.22
420.53	3239.30
420.72	3328.24
420.91	3211.22
421.10	3398.46
421.29	3578.68
421.48	3232.28
421.67	3391.44
421.86	3473.36
422.05	3440.59
422.24	3279.09
422.43	3421.86
422.61	3496.76
422.80	3456.97
422.99	3428.88
423.18	3564.64
423.37	3501.44
423.56	3686.34
423.75	3346.97
423.94	3337.60
424.13	3274.41
424.32	3365.69
424.50	3494.42
424.69	3585.70
424.88	3534.21
425.07	3618.47
425.26	3412.50
425.45	3426.54
425.64	3665.28
425.83	3471.01
426.01	3550.59
426.20	3552.93
426.39	3574.00
426.58	3466.33
426.77	3527.19
426.96	3522.51
427.15	3588.04
427.33	3618.47
427.52	3653.58
427.71	3754.22
427.90	3630.17
428.09	3686.34
428.28	3648.90
428.46	3779.97
428.65	3775.28
428.84	3707.41
429.03	3915.72
429.22	3857.20
429.40	3768.26
429.59	3770.60
429.78	3646.55
429.97	3618.47
430.16	3672.30
430.34	3712.09
430.53	3878.27
430.72	3864.22
430.91	4051.47
431.10	4067.85
431.28	4117.00
431.47	4046.79
431.66	4032.74
431.85	4140.41
432.03	4032.74
432.22	4334.67
432.41	4168.49
432.60	4283.18
432.79	4138.07
432.97	4170.83
433.16	4159.13
433.35	4126.36
433.54	4287.86
433.72	4276.16
433.91	4215.30
434.10	4187.22
434.28	4308.93
434.47	4320.63
434.66	4409.57
434.85	4479.79
435.03	4454.04
435.22	4484.47
435.41	4613.20
435.59	4521.92
435.78	4468.08
435.97	4514.89
436.16	4500.85
436.34	4685.75
436.53	4510.21
436.72	4664.69
436.90	4554.68
437.09	4664.69
437.28	4454.04
437.46	4636.60
437.65	4638.94
437.84	4634.26
438.02	4634.26
438.21	4645.96
438.40	4709.16
438.58	4800.44
438.77	4999.38
438.96	4865.97
439.14	4968.96
439.33	5069.60
439.52	5027.47
439.70	4980.66
439.89	5041.51
440.08	5207.69
440.26	5149.18
440.45	5053.22
440.63	5282.59
440.82	5289.61
441.01	5348.12
441.19	5301.31
441.38	5390.25
441.57	5385.57
441.75	5413.66
441.94	5561.11
442.12	5753.04
442.31	5509.62
442.50	5638.35
442.68	5673.46
442.87	5680.48
443.05	5701.54
443.24	5818.57
443.43	5624.31
443.61	5687.50
443.80	5956.66
443.98	5846.66
444.17	5724.95
444.35	5888.79
444.54	5928.58
444.73	5865.38
444.91	5816.23
445.10	5900.49
445.28	5666.44
445.47	5621.97
445.65	5659.42
445.84	5853.68
446.02	5795.17
446.21	5905.17
446.39	5757.72
446.58	5989.43
446.77	5977.73
446.95	5909.85
447.14	5942.62
447.32	6043.26
447.51	5853.68
447.69	5825.59
447.88	6090.07
448.06	6010.50
448.25	6033.90
448.43	5909.85
448.62	5982.41
448.80	5947.30
448.99	6150.93
449.17	6139.23
449.36	6071.35
449.54	6225.82
449.73	6225.82
449.91	6312.42
450.10	6228.17
450.28	6373.28
450.46	6209.44
450.65	6504.35
450.83	6483.28
451.02	6420.09
451.20	6296.04
451.39	6373.28
451.57	6342.85
451.76	6506.69
451.94	6502.01
452.13	6429.45
452.31	6406.05
452.49	6415.41
452.68	6469.24
452.86	6417.75
453.05	6520.73
453.23	6574.56
453.42	6562.86
453.60	6448.18
453.78	6689.25
453.97	6548.82
454.15	6602.65
454.34	6504.35
454.52	6663.51
454.70	6825.00
454.89	6649.46
455.07	6715.00
455.26	6832.02
455.44	6825.00
455.62	6799.26
455.81	6913.94
455.99	6857.77
456.17	7049.69
456.36	7045.01
456.54	7052.03
456.73	7075.44
456.91	7288.43
457.09	7403.11
457.28	7368.01
457.46	7026.29
457.64	7309.49
457.83	7157.36
458.01	7110.55
458.19	7358.64
458.38	7363.33
458.56	7449.93
458.74	7265.02
458.93	7435.88
459.11	7478.01
459.29	7365.67
459.48	7377.37
459.66	7499.08
459.84	7527.16
460.03	7683.98
460.21	7573.97
460.39	7501.42
460.57	7613.76
460.76	7714.41
460.94	7829.09
461.12	7669.94
461.31	7742.49
461.49	7672.28
461.67	7588.02
461.85	7889.95
462.04	7866.54
462.22	8348.69
462.40	8056.12
462.59	8011.65
462.77	7843.14
462.95	8182.51
463.13	8056.12
463.32	8025.70
463.50	8175.49
463.68	8196.56
463.86	8079.53
464.05	8203.58
464.23	7946.12
464.41	8205.92
464.59	8102.93
464.78	8475.08
464.96	8105.28
465.14	7845.48
465.32	8173.15
465.50	8229.32
465.69	8140.38
465.87	8285.50
466.05	8266.77
466.23	8369.76
466.41	8372.10
466.60	8430.61
466.78	8168.47
466.96	8250.39
467.14	8423.59
467.32	8418.91
467.51	8477.42
467.69	8428.27
467.87	8360.39
468.05	8762.97
468.23	8601.47
468.41	8564.02
468.60	8477.42
468.78	8671.68
468.96	8596.79
469.14	8678.71
469.32	8842.54
469.50	8566.36
469.69	8769.99
469.87	8755.94
470.05	8865.95
470.23	8861.27
470.41	9034.47
470.59	9013.40
470.77	9020.42
470.95	8950.21
471.14	9170.22
471.32	8978.30
471.50	9100.00
471.68	9345.76
471.86	9341.08
472.04	9219.37
472.22	9348.10
472.40	9434.70
472.58	9277.88
472.77	9577.47
472.95	9643.01
473.13	9671.09
473.31	9451.08
473.49	9467.47
473.67	9486.19
473.85	9474.49
474.03	9841.95
474.21	9795.14
474.39	9860.68
474.57	10068.98
474.75	10001.11
474.93	10183.67
475.12	9942.60
475.30	10377.94
475.48	10230.48
475.66	10061.96
475.84	10272.61
476.02	10183.67
476.20	10181.33
476.38	10480.92
476.56	10651.78
476.74	10738.38
476.92	10691.57
477.10	10724.33
477.28	10764.12
477.46	10628.37
477.64	10885.83
477.82	11257.98
478.00	11391.39
478.18	11314.15
478.36	11201.80
478.54	11276.70
478.72	11541.18
478.90	11644.17
479.08	11808.00
479.26	11882.90
479.44	11887.58
479.62	12030.35
479.80	12091.21
479.98	12002.27
480.16	12255.04
480.34	12147.38
480.52	12210.57
480.70	12400.16
480.88	12308.88
481.06	12662.30
481.24	12674.00
481.41	12793.37
481.59	12863.58
481.77	13048.49
481.95	12851.88
482.13	13231.05
482.31	13055.51
482.49	13441.70
482.67	13556.38
482.85	13596.17
483.03	13523.62
483.21	13872.36
483.39	14022.15
483.57	13771.71
483.74	14064.28
483.92	14141.52
484.10	14075.98
484.28	14544.09
484.46	14546.43
484.64	14890.49
484.82	14607.28
485.00	14911.55
485.18	14984.11
485.35	14904.53
485.53	15122.20
485.71	14693.88
485.89	15337.53
486.07	15367.96
486.25	15054.33
486.43	15510.73
486.61	15639.46
486.78	15880.53
486.96	16177.78
487.14	16142.67
487.32	16390.77
487.50	16517.16
487.68	16463.33
487.85	16769.94
488.03	16886.97
488.21	17209.96
488.39	16774.62
488.57	17228.68
488.75	17195.92
488.92	17371.46
489.10	17343.37
489.28	17673.39
489.46	17823.18
489.64	17757.64
489.81	18462.15
489.99	18370.86
490.17	18228.09
490.35	18789.82
490.53	18593.22
490.70	18696.20
490.88	18560.45
491.06	18979.40
491.24	18963.02
491.41	19372.61
491.59	19274.31
491.77	19105.79
491.95	19524.75
492.13	19576.24
492.30	19850.08
492.48	19594.96
492.66	20044.35
492.84	19892.21
493.01	20276.06
493.19	20119.24
493.37	20130.95
493.54	20776.94
493.72	20788.64
493.90	20727.78
494.08	20655.23
494.25	21130.36
494.43	21116.31
494.61	21137.38
494.79	21493.14
494.96	21268.45
495.14	21514.20
495.32	21607.83
495.49	21795.07
495.67	21853.58
495.85	21839.54
496.02	22141.47
496.20	22286.58
496.38	22223.39
496.55	22387.22
496.73	22965.34
496.91	22740.64
497.09	22981.72
497.26	23075.34
497.44	22988.74
497.62	23087.04
497.79	23510.68
497.97	23138.54
498.14	23391.31
498.32	23489.62
498.50	23473.23
498.67	23957.72
498.85	23814.95
499.03	24381.36
499.20	24011.56
499.38	23819.63
499.56	24198.80
499.73	23971.77
499.91	24336.89
500.08	24629.46
500.26	24194.12
500.44	24561.58
500.61	24418.81
500.79	24657.54
500.97	24542.86
501.14	25036.71
501.32	24898.62
501.49	25165.44
501.67	24882.24
501.84	25312.89
502.02	25418.22
502.20	25411.20
502.37	25699.08
502.55	25696.74
502.72	25612.48
502.90	26036.12
503.07	25713.13
503.25	25741.21
503.43	26061.87
503.60	25956.54
503.78	25947.18
503.95	26099.31
504.13	26370.82
504.30	26169.53
504.48	26501.89
504.65	26544.02
504.83	26438.69
505.01	26913.82
505.18	26492.52
505.36	27101.06
505.53	27147.87
505.71	27421.72
505.88	27300.01
506.06	27328.10
506.23	27220.43
506.41	27379.59
506.58	27786.84
506.76	27662.79
506.93	27702.58
507.11	27901.53
507.28	27662.79
507.46	27861.74
507.63	27814.93
507.81	28088.77
507.98	28013.87
508.16	28388.36
508.33	28554.54
508.50	28231.54
508.68	28435.17
508.85	28711.35
509.03	28739.44
509.20	28795.61
509.38	29284.78
509.55	28933.70
509.73	28870.51
509.90	28762.84
510.08	29064.77
510.25	29109.24
510.42	29322.23
510.60	29450.96
510.77	29488.41
510.95	29441.60
511.12	29680.33
511.30	29972.90
511.47	30096.95
511.64	30242.06
511.82	30204.61
511.99	29830.13
512.17	29930.77
512.34	29804.38
512.51	30216.32
512.69	30586.12
512.86	30328.66
513.04	30302.92
513.21	30555.69
513.38	30370.79
513.56	30536.97
513.73	30492.50
513.90	30829.54
514.08	30614.21
514.25	31049.55
514.43	31103.38
514.60	31079.97
514.77	30787.41
514.95	31302.32
515.12	31569.15
515.29	31019.12
515.47	31545.74
515.64	31323.39
515.81	31297.64
515.99	31592.55
516.16	31784.48
516.33	31700.22
516.51	31742.35
516.68	31627.66
516.85	31236.79
517.03	31442.76
517.20	32149.60
517.37	31807.88
517.54	31917.89
517.72	32114.49
517.89	31810.22
518.06	32376.63
518.24	32163.64
518.41	32081.72
518.58	32165.98
518.75	32290.03
518.93	32725.37
519.10	32114.49
519.27	33057.73
519.45	32116.83
519.62	32751.12
519.79	32980.49
519.96	33352.63
520.14	33574.98
520.31	33006.23
520.48	33067.09
520.65	33474.34
520.83	33832.44
521.00	33752.87
521.17	33518.81
521.34	33411.15
521.52	33373.70
521.69	33776.27
521.86	34099.26
522.03	33935.43
522.20	33996.28
522.38	34370.77
522.55	34064.16
522.72	34024.37
522.89	34005.64
523.07	34155.44
523.24	34380.13
523.41	34307.57
523.58	34319.28
523.75	34958.24
523.92	34689.08
524.10	34731.21
524.27	35040.16
524.44	34890.37
524.61	34925.47
524.78	35508.27
524.96	35758.70
525.13	35236.77
525.30	35325.71
525.47	35438.05
525.64	35456.78
525.81	35124.42
525.98	35246.13
526.16	34895.05
526.33	35014.41
526.50	35590.19
526.67	35583.16
526.84	35187.61
527.01	35461.46
527.18	35826.58
527.36	36161.28
527.53	36264.26
527.70	36573.21
527.87	36219.79
528.04	35688.49
528.21	35751.68
528.38	36297.03
528.55	36037.23
528.72	35974.03
528.89	36332.14
529.07	36112.13
529.24	36486.61
529.41	36645.77
529.58	36451.50
529.75	36493.63
529.92	36657.47
530.09	36617.68
530.26	36657.47
530.43	37127.92
530.60	36573.21
530.77	36694.92
530.94	36638.75
531.11	37043.66
531.28	37038.98
531.46	37031.96
531.63	37317.50
531.80	36999.19
531.97	37156.00
532.14	37326.86
532.31	37212.18
532.48	37298.78
532.65	37317.50
532.82	37158.34
532.99	37851.14
533.16	36999.19
533.33	37488.36
533.50	37713.05
533.67	37589.00
533.84	37483.68
534.01	37982.21
534.18	37745.82
534.35	38087.54
534.52	37830.08
534.69	38085.20
534.86	37956.47
535.03	37968.17
535.20	38150.73
535.37	38576.71
535.54	38422.23
535.71	38099.24
535.88	38604.80
536.05	38511.17
536.22	38576.71
536.38	38749.91
536.55	38703.10
536.72	38373.08
536.89	38447.98
537.06	38515.86
537.23	38852.89
537.40	38621.18
537.57	38574.37
537.74	38735.87
537.91	39208.65
538.08	39159.50
538.25	38543.94
538.42	38785.02
538.59	39028.43
538.75	38497.13
538.92	38958.22
539.09	39269.51
539.26	39164.18
539.43	39124.40
539.60	38944.17
539.77	39182.91
539.94	39508.24
540.11	39330.36
540.28	39564.42
540.44	39173.55
540.61	39356.11
540.78	39264.83
540.95	39356.11
541.12	39571.44
541.29	39643.99
541.46	39489.52
541.62	39260.15
541.79	40051.25
541.96	39597.18
542.13	39501.22
542.30	40179.98
542.47	40289.98
542.63	39587.82
542.80	40088.70
542.97	40163.59
543.14	40072.31
543.31	40243.17
543.48	40622.34
543.64	40893.84
543.81	40465.52
543.98	40779.15
544.15	40488.93
544.32	40198.70
544.48	40903.20
544.65	40886.82
544.82	40311.05
544.99	40308.71
545.16	40868.09
545.32	40388.28
545.49	41036.61
545.66	41219.17
545.83	40863.41
546.00	41195.77
546.16	41153.64
546.33	40741.71
546.50	40442.12
546.67	41010.87
546.83	40765.11
547.00	41223.86
547.17	40680.85
547.34	40893.84
547.50	40739.36
547.67	41207.47
547.84	41074.06
548.00	41790.27
548.17	41251.94
548.34	41617.07
548.51	41495.36
548.67	41312.80
548.84	41766.86
549.01	41345.56
549.18	41188.75
549.34	41469.61
549.51	41464.93
549.68	41647.49
549.84	41762.18
550.01	41954.10
550.18	41790.27
550.34	41654.51
550.51	41776.22
550.68	41698.98
550.84	41991.55
551.01	41673.24
551.18	41928.36
551.34	41979.85
551.51	42052.41
551.68	42380.08
551.84	42384.76
552.01	42628.18
552.18	42061.77
552.34	42246.67
552.51	42410.51
552.68	42588.39
552.84	42398.80
553.01	42703.07
553.18	42192.84
553.34	42108.58
553.51	42150.71
553.67	42307.52
553.84	42967.55
554.01	42218.58
554.17	42848.19
554.34	42522.85
554.51	42623.50
554.67	43023.73
554.84	42885.64
555.00	42754.57
555.17	42569.66
555.33	42993.30
555.50	43035.43
555.67	42735.84
555.83	42183.48
556.00	42796.70
556.16	43192.25
556.33	43103.31
556.50	43051.81
556.66	42997.98
556.83	42834.14
556.99	43395.87
557.16	43463.75
557.32	42939.47
557.49	43206.29
557.65	42859.89
557.82	42630.52
557.98	43147.78
558.15	43152.46
558.32	43381.83
558.48	43297.57
558.65	43239.06
558.81	43208.63
558.98	43531.62
559.14	43033.09
559.31	43037.77
559.47	43531.62
559.64	43578.43
559.80	43349.06
559.97	43569.07
560.13	43063.52
560.30	43650.99
560.46	43433.32
560.63	43468.43
560.79	43636.95
560.96	43721.21
561.12	43033.09
561.29	43323.32
561.45	43658.01
561.61	43608.86
561.78	43360.76
561.94	43753.97
562.11	43393.53
562.27	43323.32
562.44	43723.55
562.60	43632.27
562.77	43730.57
562.93	43496.52
563.10	43679.08
563.26	43363.11
563.42	44170.59
563.59	43819.51
563.75	43608.86
563.92	44032.50
564.08	43892.07
564.24	43723.55
564.41	44098.03
564.57	44020.80
564.74	43817.17
564.90	43714.19
565.07	43981.01
565.23	43702.48
565.39	43695.46
565.56	43632.27
565.72	43739.93
565.88	44006.75
566.05	43866.32
566.21	44165.91
566.38	43819.51
566.54	43838.23
566.70	43826.53
566.87	44507.63
567.03	43826.53
567.19	44493.58
567.36	44184.63
567.52	44172.93
567.68	44781.47
567.85	44037.18
568.01	44327.41
568.17	44074.63
568.34	44002.07
568.50	44231.44
568.66	43604.18
568.83	44540.39
568.99	43873.34
569.15	44004.41
569.32	43690.78
569.48	43962.28
569.64	44395.28
569.81	45104.46
569.97	44165.91
570.13	44133.14
570.30	43945.90
570.46	43739.93
570.62	44378.90
570.78	43969.30
570.95	43952.92
571.11	44245.49
571.27	44435.07
571.43	44339.11
571.60	44524.01
571.76	44360.17
571.92	44481.88
572.09	43978.67
572.25	44172.93
572.41	44474.86
572.57	44287.62
572.74	44992.12
572.90	44598.91
573.06	44524.01
573.22	44004.41
573.38	44144.84
573.55	44009.09
573.71	44046.54
573.87	44587.21
574.03	44292.30
574.20	44411.67
574.36	44046.54
574.52	44133.14
574.68	44484.22
574.84	44524.01
575.01	44526.35
575.17	44610.61
575.33	44198.68
575.49	44027.82
575.65	44776.79
575.82	44451.45
575.98	44282.94
576.14	44870.41
576.30	45067.02
576.46	44376.56
576.62	44414.01
576.79	44334.43
576.95	43557.37
577.11	44018.46
577.27	44362.51
577.43	44809.56
577.59	44545.08
577.75	44744.02
577.92	44254.85
578.08	44296.98
578.24	44137.82
578.40	44329.75
578.56	44296.98
578.72	44673.81
578.88	44772.11
579.04	44711.25
579.21	44423.37
579.37	44399.96
579.53	44573.16
579.69	44081.65
579.85	44210.38
580.01	44605.93
580.17	44877.43
580.33	44828.28
580.49	44772.11
580.65	44732.32
580.82	44540.39
580.98	44596.57
581.14	44769.77
581.30	44638.70
581.46	44435.07
581.62	44198.68
581.78	44308.68
581.94	44905.52
582.10	44605.93
582.26	44924.24
582.42	44519.33
582.58	44678.49
582.74	44900.84
582.90	44587.21
583.06	44645.72
583.22	44765.09
583.38	44882.11
583.54	44652.74
583.70	44561.46
583.86	44547.42
584.02	43995.05
584.18	44624.65
584.34	44421.03
584.50	44985.10
584.66	44432.73
584.82	44439.75
584.98	44996.80
585.14	44601.25
585.30	44598.91
585.46	44678.49
585.62	44301.66
585.78	44528.69
585.94	44467.84
586.10	44444.43
586.26	44641.04
586.42	44973.39
586.58	44472.52
586.74	44715.93
586.90	44694.87
587.06	44608.27
587.22	44961.69
587.38	44414.01
587.54	45242.56
587.70	44802.53
587.86	44739.34
588.02	44697.21
588.18	45144.25
588.34	44713.59
588.49	44411.67
588.65	44313.36
588.81	44322.72
588.97	44566.14
589.13	44561.46
589.29	44608.27
589.45	45045.95
589.61	44996.80
589.77	45055.31
589.93	44634.02
590.08	45174.68
590.24	45200.43
