SpectraSuite Data File
++++++++++++++++++++++++++++++++++++
Date: Fri Oct 25 10:47:33 EDT 2013
User: price-jones
Dark Spectrum Present: No
Reference Spectrum Present: No
Number of Sampled Component Spectra: 1
Spectrometers: USB2+H05261
Integration Time (usec): 100000 (USB2+H05261)
Spectra Averaged: 1 (USB2+H05261)
Boxcar Smoothing: 0 (USB2+H05261)
Correct for Electrical Dark: No (USB2+H05261)
Strobe/Lamp Enabled: No (USB2+H05261)
Correct for Detector Non-linearity: No (USB2+H05261)
Correct for Stray Light: No (USB2+H05261)
Number of Pixels in Processed Spectrum: 2048
>>>>>Begin Processed Spectral Data<<<<<
365.73	124.05
365.92	124.05
366.12	124.05
366.32	0.00
366.52	32.77
366.72	2.34
366.91	70.22
367.11	100.64
367.31	18.72
367.51	16.38
367.70	0.00
367.90	4.68
368.10	0.00
368.30	44.47
368.49	2.34
368.69	95.96
368.89	102.98
369.09	67.88
369.28	53.83
369.48	37.45
369.68	46.81
369.87	105.32
370.07	102.98
370.27	152.13
370.47	189.58
370.66	365.12
370.86	397.89
371.06	458.74
371.25	411.93
371.45	397.89
371.65	489.17
371.84	388.53
372.04	433.00
372.24	465.77
372.44	458.74
372.63	409.59
372.83	444.70
373.03	444.70
373.22	510.24
373.42	465.77
373.62	510.24
373.81	493.85
374.01	554.71
374.21	550.03
374.40	585.13
374.60	547.69
374.79	479.81
374.99	613.22
375.19	550.03
375.38	599.18
375.58	554.71
375.78	603.86
375.97	547.69
376.17	568.75
376.37	442.36
376.56	477.47
376.76	617.90
376.95	557.05
377.15	566.41
377.35	561.73
377.54	599.18
377.74	594.50
377.93	643.65
378.13	559.39
378.33	674.07
378.52	620.24
378.72	573.43
378.91	575.77
379.11	690.46
379.31	664.71
379.50	624.92
379.70	697.48
379.89	657.69
380.09	660.03
380.28	704.50
380.48	617.90
380.68	636.63
380.87	571.09
381.07	638.97
381.26	650.67
381.46	645.99
381.65	683.44
381.85	667.05
382.04	638.97
382.24	690.46
382.43	695.14
382.63	695.14
382.83	730.25
383.02	655.35
383.22	695.14
383.41	610.88
383.61	751.31
383.80	697.48
384.00	699.82
384.19	697.48
384.39	725.57
384.58	645.99
384.78	730.25
384.97	748.97
385.17	786.42
385.36	727.91
385.56	697.48
385.75	732.59
385.95	779.40
386.14	763.01
386.34	842.59
386.53	805.14
386.72	685.78
386.92	765.36
387.11	704.50
387.31	763.01
387.50	802.80
387.70	882.38
387.89	798.12
388.09	821.53
388.28	882.38
388.48	819.19
388.67	786.42
388.86	798.12
389.06	866.00
389.25	884.72
389.45	954.94
389.64	908.13
389.84	957.28
390.03	870.68
390.22	863.66
390.42	933.87
390.61	884.72
390.81	940.90
391.00	910.47
391.19	952.60
391.39	877.70
391.58	980.68
391.78	968.98
391.97	952.60
392.16	959.62
392.36	978.34
392.55	917.49
392.75	959.62
392.94	875.36
393.13	1036.86
393.33	954.94
393.52	940.90
393.71	1057.92
393.91	1034.52
394.10	987.71
394.29	1076.65
394.49	1020.47
394.68	1043.88
394.88	1104.73
395.07	1116.44
395.26	1095.37
395.46	1118.78
395.65	1144.52
395.84	1104.73
396.04	1114.10
396.23	1121.12
396.42	1100.05
396.62	1111.75
396.81	1198.35
397.00	1142.18
397.19	1102.39
397.39	1256.87
397.58	1205.38
397.77	1153.88
397.97	1226.44
398.16	1242.82
398.35	1238.14
398.55	1238.14
398.74	1256.87
398.93	1369.21
399.12	1331.76
399.32	1392.62
399.51	1432.41
399.70	1376.24
399.90	1383.26
400.09	1268.57
400.28	1399.64
400.47	1371.55
400.67	1376.24
400.86	1467.52
401.05	1284.95
401.24	1437.09
401.44	1425.39
401.63	1509.65
401.82	1493.26
402.01	1577.52
402.21	1460.49
402.40	1472.20
402.59	1554.12
402.78	1476.88
402.97	1481.56
403.17	1584.54
403.36	1526.03
403.55	1582.20
403.74	1626.67
403.93	1589.22
404.13	1629.01
404.32	1568.16
404.51	1589.22
404.70	1610.29
404.89	1657.10
405.09	1652.42
405.28	1589.22
405.47	1668.80
405.66	1715.61
405.85	1701.57
406.05	1734.34
406.24	1699.23
406.43	1715.61
406.62	1804.55
406.81	1909.88
407.00	1804.55
407.20	1846.68
407.39	1832.64
407.58	1884.13
407.77	1818.60
407.96	1942.64
408.15	1895.83
408.34	1846.68
408.54	1973.07
408.73	1968.39
408.92	1947.33
409.11	2001.16
409.30	1928.60
409.49	2092.44
409.68	2092.44
409.87	1984.77
410.07	2050.31
410.26	2172.02
410.45	1998.82
410.64	1989.46
410.83	2139.25
411.02	2188.40
411.21	2239.89
411.40	2157.97
411.59	2232.87
411.78	2204.78
411.98	2193.08
412.17	2260.96
412.36	2298.41
412.55	2345.22
412.74	2368.62
412.93	2319.47
413.12	2333.51
413.31	2441.18
413.50	2373.30
413.69	2450.54
413.88	2530.12
414.07	2464.58
414.26	2464.58
414.45	2733.75
414.64	2635.44
414.83	2567.57
415.02	2677.57
415.22	2691.62
415.41	2640.12
415.60	2635.44
415.79	2689.28
415.98	2733.75
416.17	2827.37
416.36	2773.53
416.55	2810.98
416.74	2848.43
416.93	2808.64
417.12	2946.73
417.31	2930.35
417.50	2747.79
417.69	3035.67
417.88	2960.78
418.07	2986.52
418.26	3098.87
418.45	3075.46
418.64	3152.70
418.83	3077.80
419.02	3028.65
419.21	3155.04
419.39	3084.83
419.58	3075.46
419.77	2991.20
419.96	3169.09
420.15	3152.70
420.34	3141.00
420.53	3194.83
420.72	3258.03
420.91	3384.41
421.10	3337.60
421.29	3295.47
421.48	3183.13
421.67	3445.27
421.86	3337.60
422.05	3325.90
422.24	3386.76
422.43	3330.58
422.61	3449.95
422.80	3407.82
422.99	3382.07
423.18	3424.20
423.37	3405.48
423.56	3424.20
423.75	3524.85
423.94	3382.07
424.13	3066.10
424.32	3325.90
424.50	3496.76
424.69	3576.34
424.88	3604.42
425.07	3405.48
425.26	3372.71
425.45	3398.46
425.64	3447.61
425.83	3522.51
426.01	3447.61
426.20	3538.89
426.39	3611.45
426.58	3536.55
426.77	3405.48
426.96	3499.10
427.15	3447.61
427.33	3522.51
427.52	3538.89
427.71	3536.55
427.90	3627.83
428.09	3655.92
428.28	3751.88
428.46	3620.81
428.65	3733.15
428.84	3637.19
429.03	3756.56
429.22	3585.70
429.40	3742.52
429.59	3707.41
429.78	3564.64
429.97	3454.63
430.16	3672.30
430.34	3721.45
430.53	3796.35
430.72	3786.99
430.91	3726.13
431.10	3868.91
431.28	3918.06
431.47	3992.95
431.66	4163.81
431.85	3946.14
432.03	4065.51
432.22	4079.55
432.41	4009.34
432.60	4102.96
432.79	4159.13
432.97	4229.35
433.16	4119.34
433.35	4014.02
433.54	4208.28
433.72	4210.62
433.91	4250.41
434.10	4227.01
434.28	4301.90
434.47	4297.22
434.66	4287.86
434.85	4325.31
435.03	4315.95
435.22	4250.41
435.41	4414.25
435.59	4341.69
435.78	4362.76
435.97	4454.04
436.16	4533.62
436.34	4348.72
436.53	4468.08
436.72	4587.45
436.90	4353.40
437.09	4477.44
437.28	4407.23
437.46	4514.89
437.65	4533.62
437.84	4620.22
438.02	4671.71
438.21	4535.96
438.40	4606.17
438.58	4718.52
438.77	4795.76
438.96	4737.24
439.14	4931.51
439.33	4994.70
439.52	4880.02
439.70	4915.12
439.89	5020.45
440.08	5032.15
440.26	5097.69
440.45	5004.07
440.63	5167.90
440.82	5210.03
441.01	5057.90
441.19	5280.25
441.38	5263.86
441.57	5343.44
441.75	5394.93
441.94	5324.72
442.12	5486.22
442.31	5528.35
442.50	5521.32
442.68	5483.88
442.87	5598.56
443.05	5518.98
443.24	5554.09
443.43	5514.30
443.61	5551.75
443.80	5774.10
443.98	5650.05
444.17	5432.38
444.35	5610.26
444.54	5888.79
444.73	5605.58
444.91	5614.95
445.10	5708.57
445.28	5680.48
445.47	5675.80
445.65	5640.69
445.84	5645.37
446.02	5678.14
446.21	5834.96
446.39	5797.51
446.58	5837.30
446.77	5816.23
446.95	5755.38
447.14	5902.83
447.32	5720.27
447.51	5907.51
447.69	5834.96
447.88	5706.23
448.06	5825.59
448.25	5839.64
448.43	5944.96
448.62	5781.12
448.80	5942.62
448.99	5926.24
449.17	5872.40
449.36	5933.26
449.54	6029.22
449.73	6031.56
449.91	6092.41
450.10	5980.07
450.28	6167.31
450.46	6139.23
450.65	6209.44
450.83	6216.46
451.02	6031.56
451.20	6258.59
451.39	6403.71
451.57	6139.23
451.76	6193.06
451.94	6469.24
452.13	6331.15
452.31	6267.95
452.49	6305.40
452.68	6279.66
452.86	6462.22
453.05	6583.93
453.23	6443.49
453.42	6303.06
453.60	6392.00
453.78	6422.43
453.97	6401.37
454.15	6462.22
454.34	6225.82
454.52	6700.95
454.70	6523.07
454.89	6586.27
455.07	6612.01
455.26	6614.35
455.44	6778.19
455.62	6764.15
455.81	6813.30
455.99	6712.66
456.17	6825.00
456.36	6853.09
456.54	7056.72
456.73	7063.74
456.91	7087.14
457.09	6937.35
457.28	6998.20
457.46	7045.01
457.64	6995.86
457.83	7005.22
458.01	7241.62
458.19	7215.87
458.38	7110.55
458.56	7145.66
458.74	7171.40
458.93	7330.56
459.11	7162.04
459.29	7342.26
459.48	7176.08
459.66	7159.70
459.84	7255.66
460.03	7346.94
460.21	7489.71
460.39	7569.29
460.57	7475.67
460.76	7564.61
460.94	7611.42
461.12	7632.49
461.31	7581.00
461.49	7524.82
461.67	7449.93
461.85	7688.66
462.04	7566.95
462.22	8091.23
462.40	7878.24
462.59	7665.25
462.77	7606.74
462.95	8051.44
463.13	7962.50
463.32	7751.85
463.50	7822.07
463.68	7866.54
463.86	7784.62
464.05	7733.13
464.23	7955.48
464.41	8056.12
464.59	7854.84
464.78	7999.95
464.96	8002.29
465.14	7885.26
465.32	8201.24
465.50	8037.40
465.69	8131.02
465.87	8028.04
466.05	7981.23
466.23	8325.29
466.41	8152.09
466.60	8376.78
466.78	8084.21
466.96	8145.06
467.14	8023.36
467.32	8376.78
467.51	8414.23
467.69	8039.74
467.87	8315.92
468.05	8493.80
468.23	8294.86
468.41	8182.51
468.60	8510.19
468.78	8491.46
468.96	8489.12
469.14	8573.38
469.32	8580.40
469.50	8463.38
469.69	8489.12
469.87	8643.60
470.05	9008.72
470.23	8704.45
470.41	8732.54
470.59	8891.70
470.77	8795.73
470.95	8875.31
471.14	9022.77
471.32	8823.82
471.50	9027.45
471.68	9032.13
471.86	9071.92
472.04	9085.96
472.22	9312.99
472.40	9111.71
472.58	9214.69
472.77	9270.86
472.95	9495.55
473.13	9715.56
473.31	9282.56
473.49	9439.38
473.67	9245.12
473.85	9518.96
474.03	9640.67
474.21	9647.69
474.39	9664.07
474.57	9722.59
474.75	9963.66
474.93	9874.72
475.12	9916.85
475.30	10015.15
475.48	10003.45
475.66	10068.98
475.84	9982.38
476.02	10253.89
476.20	10153.24
476.38	10324.10
476.56	10609.65
476.74	10656.46
476.92	10525.39
477.10	10431.77
477.28	10759.44
477.46	10647.10
477.64	10876.47
477.82	10834.34
478.00	11173.72
478.18	11253.30
478.36	11199.46
478.54	11325.85
478.72	11246.27
478.90	11304.79
479.08	11351.60
479.26	11707.36
479.44	11595.01
479.62	11639.48
479.80	11885.24
479.98	11836.09
480.16	12098.23
480.34	12013.97
480.52	12238.66
480.70	12060.78
480.88	12327.60
481.06	12297.17
481.24	12280.79
481.41	12540.59
481.59	12889.33
481.77	12732.51
481.95	12769.96
482.13	12884.65
482.31	13099.98
482.49	13132.75
482.67	13067.21
482.85	13481.49
483.03	13500.21
483.21	13626.60
483.39	13635.96
483.57	13617.24
483.74	13891.08
483.92	14127.47
484.10	13858.31
484.28	14038.53
484.46	14434.08
484.64	14600.26
484.82	14239.82
485.00	14265.57
485.18	14635.37
485.35	14703.25
485.53	14731.33
485.71	14602.60
485.89	14972.41
486.07	14736.01
486.25	15012.20
486.43	15267.31
486.61	15566.90
486.78	15609.03
486.96	15466.26
487.14	15955.43
487.32	15920.32
487.50	16077.14
487.68	16236.30
487.85	16566.31
488.03	16760.58
488.21	16781.64
488.39	16783.98
488.57	16765.26
488.75	16889.31
488.92	17261.45
489.10	17139.74
489.28	17289.54
489.46	17544.66
489.64	17509.55
489.81	18043.19
489.99	17989.36
490.17	18038.51
490.35	18321.71
490.53	18073.62
490.70	18588.53
490.88	18251.50
491.06	18590.88
491.24	18817.91
491.41	18457.46
491.59	18548.75
491.77	18679.82
491.95	19168.99
492.13	19087.07
492.30	19494.32
492.48	19344.53
492.66	19522.41
492.84	19391.34
493.01	19964.77
493.19	19852.42
493.37	20154.35
493.54	19852.42
493.72	20297.13
493.90	20088.82
494.08	20524.16
494.25	20608.42
494.43	21069.50
494.61	21200.57
494.79	21191.21
494.96	20912.69
495.14	21156.10
495.32	21453.35
495.49	21486.12
495.67	21282.49
495.85	21673.36
496.02	21713.15
496.20	21919.12
496.38	22263.18
496.55	22033.80
496.73	22574.47
496.91	22258.49
497.09	22288.92
497.26	22712.56
497.44	22499.57
497.62	22927.89
497.79	22813.20
497.97	22600.21
498.14	22663.41
498.32	23260.24
498.50	23166.62
498.67	23431.10
498.85	23559.83
499.03	23847.72
499.20	23817.29
499.38	23627.71
499.56	23969.43
499.73	23768.14
499.91	23992.83
500.08	24512.43
500.26	24123.90
500.44	24276.04
500.61	24343.91
500.79	24355.61
500.97	24575.62
501.14	24821.38
501.32	24800.32
501.49	24795.64
501.67	24854.15
501.84	24943.09
502.02	25001.60
502.20	25310.55
502.37	25174.80
502.55	25120.97
502.72	25256.72
502.90	25474.39
503.07	25338.64
503.25	25525.88
503.43	25603.12
503.60	26019.74
503.78	25909.73
503.95	25930.80
504.13	25972.92
504.30	25921.43
504.48	25879.30
504.65	26202.30
504.83	26689.13
505.01	26511.25
505.18	26328.69
505.36	26665.72
505.53	26677.43
505.71	26969.99
505.88	26759.34
506.06	26583.80
506.23	27009.78
506.41	27206.39
506.58	26820.20
506.76	27449.80
506.93	27615.98
507.11	27185.32
507.28	27330.44
507.46	27393.63
507.63	27292.99
507.81	27630.02
507.98	27475.55
508.16	27805.56
508.33	27852.38
508.50	28187.07
508.68	27828.97
508.85	27934.29
509.03	28388.36
509.20	28252.61
509.38	28182.39
509.55	28634.11
509.73	28552.20
509.90	28753.48
510.08	28584.96
510.25	28769.86
510.42	28828.38
510.60	29046.05
510.77	29181.80
510.95	29053.07
511.12	29193.50
511.30	28910.30
511.47	29584.37
511.64	29474.37
511.82	29497.77
511.99	29408.83
512.17	29560.97
512.34	29944.81
512.51	29652.25
512.69	30026.73
512.86	30022.05
513.04	30071.20
513.21	30300.58
513.38	30066.52
513.56	30305.26
513.73	29797.36
513.90	30230.36
514.08	30169.51
514.25	30621.23
514.43	30213.98
514.60	29954.18
514.77	30536.97
514.95	30796.77
515.12	30796.77
515.29	31150.19
515.47	31318.71
515.64	31180.62
515.81	31208.70
515.99	30841.24
516.16	31508.29
516.33	31197.00
516.51	31463.82
516.68	31309.35
516.85	31220.41
517.03	31288.28
517.20	31257.85
517.37	31271.90
517.54	31482.55
517.72	31597.23
517.89	31812.56
518.06	31667.45
518.24	31681.49
518.41	31882.78
518.58	31700.22
518.75	31899.16
518.93	32140.24
519.10	31955.33
519.27	32212.79
519.45	32325.14
519.62	32414.08
519.79	32549.83
519.96	32793.25
520.14	33039.00
520.31	32678.56
520.48	32877.51
520.65	32975.81
520.83	33081.13
521.00	33301.14
521.17	33172.41
521.34	33127.94
521.52	33055.39
521.69	33130.28
521.86	33415.83
522.03	33411.15
522.20	33268.37
522.38	33996.28
522.55	33827.76
522.72	34045.43
522.89	33308.16
523.07	33839.47
523.24	33867.55
523.41	33759.89
523.58	33909.68
523.75	34316.93
523.92	33762.23
524.10	34281.83
524.27	34501.84
524.44	34529.92
524.61	34279.49
524.78	34749.93
524.96	34600.14
525.13	34675.04
525.30	35040.16
525.47	34747.59
525.64	34967.60
525.81	34930.16
525.98	34684.40
526.16	35108.04
526.33	34637.59
526.50	35138.46
526.67	34958.24
526.84	34991.01
527.01	35079.95
527.18	35166.55
527.36	35360.81
527.53	35463.80
527.70	35491.88
527.87	35761.05
528.04	35426.35
528.21	35629.98
528.38	35571.46
528.55	35878.07
528.72	35810.20
528.89	35637.00
529.07	35934.24
529.24	35557.42
529.41	35765.73
529.58	36212.77
529.75	36217.45
529.92	36236.17
530.09	36392.99
530.26	36285.33
530.43	36212.77
530.60	36425.76
530.77	35969.35
530.94	36725.35
531.11	36208.09
531.28	36671.51
531.46	36591.94
531.63	36886.84
531.80	36708.96
531.97	36762.79
532.14	36648.11
532.31	36666.83
532.48	36566.19
532.65	36746.41
532.82	36664.49
532.99	37130.26
533.16	37343.25
533.33	37060.04
533.50	37046.00
533.67	37111.53
533.84	37638.15
534.01	37242.60
534.18	37481.34
534.35	37228.56
534.52	37418.14
534.69	37460.27
534.86	37670.92
535.03	37542.19
535.20	37780.93
535.37	37874.55
535.54	37860.51
535.71	37921.36
535.88	38057.11
536.05	38288.82
536.22	37909.66
536.38	38082.86
536.55	38319.25
536.72	38080.52
536.89	37930.72
537.06	38096.90
537.23	37888.59
537.40	38497.13
537.57	37750.50
537.74	38330.95
537.91	38129.67
538.08	38129.67
538.25	38190.52
538.42	38778.00
538.59	38841.19
538.75	38431.60
538.92	38857.57
539.09	38888.00
539.26	39189.93
539.43	38700.76
539.60	38953.54
539.77	38803.74
539.94	38998.01
540.11	38656.29
540.28	39051.84
540.44	38747.57
540.61	39115.03
540.78	39026.09
540.95	38976.94
541.12	38993.32
541.29	38808.42
541.46	39049.50
541.62	39276.53
541.79	38946.51
541.96	38703.10
542.13	38653.95
542.30	39206.31
542.47	39456.75
542.63	39522.29
542.80	39337.38
542.97	40095.72
543.14	40360.20
543.31	39646.33
543.48	40268.92
543.64	40172.96
543.81	40037.20
543.98	40107.42
544.15	39503.56
544.32	40470.20
544.48	40421.05
544.65	40273.60
544.82	40383.60
544.99	40477.22
545.16	40109.76
545.32	40526.38
545.49	40615.32
545.66	40603.61
545.83	40584.89
546.00	40818.94
546.16	40458.50
546.33	39950.60
546.50	40053.59
546.67	40811.92
546.83	40304.02
547.00	40301.68
547.17	40994.48
547.34	40603.61
547.50	40587.23
547.67	41186.41
547.84	40652.76
548.00	41436.84
548.17	41331.52
548.34	40795.54
548.51	41170.02
548.67	41212.15
548.84	41350.24
549.01	41038.95
549.18	41223.86
549.34	40959.38
549.51	41242.58
549.68	41375.99
549.84	41357.27
550.01	41443.87
550.18	40994.48
550.34	41467.27
550.51	41556.21
550.68	41373.65
550.84	40491.27
551.01	41698.98
551.18	41638.13
551.34	41481.31
551.51	41198.11
551.68	41488.34
551.84	41558.55
552.01	42019.64
552.18	41350.24
552.34	41596.00
552.51	42066.45
552.68	42185.82
552.84	41799.63
553.01	41853.46
553.18	41673.24
553.34	41827.71
553.51	41406.42
553.67	42117.94
553.84	42302.84
554.01	42094.53
554.17	42703.07
554.34	41876.86
554.51	41879.21
554.67	42377.74
554.84	42485.40
555.00	42291.14
555.17	41947.08
555.33	42656.26
555.50	42241.99
555.67	41979.85
555.83	42663.28
556.00	42892.66
556.16	42382.42
556.33	42651.58
556.50	42213.90
556.66	42801.38
556.83	42260.71
556.99	42906.70
557.16	42583.71
557.32	42572.00
557.49	42773.29
557.65	42382.42
557.82	42792.01
557.98	42682.01
558.15	42696.05
558.32	42775.63
558.48	42859.89
558.65	42801.38
558.81	42665.63
558.98	42904.36
559.14	43079.90
559.31	42653.92
559.47	42836.48
559.64	43005.00
559.80	42997.98
559.97	43030.75
560.13	42859.89
560.30	43178.20
560.46	43042.45
560.63	43096.28
560.79	43400.55
560.96	43281.19
561.12	42979.26
561.29	43393.53
561.45	43051.81
561.61	43320.98
561.78	43058.84
561.94	42890.32
562.11	43430.98
562.27	43416.94
562.44	43316.29
562.60	43159.48
562.77	43735.25
562.93	42855.21
563.10	43262.46
563.26	43023.73
563.42	43140.75
563.59	43482.47
563.75	43351.40
563.92	43543.33
564.08	43103.31
564.24	43660.35
564.41	43714.19
564.57	43096.28
564.74	43309.27
564.90	43412.26
565.07	43985.69
565.23	43732.91
565.39	43529.28
565.56	43496.52
565.72	43540.99
565.88	43711.84
566.05	43325.66
566.21	43604.18
566.38	43157.14
566.54	43648.65
566.70	44119.10
566.87	43683.76
567.03	43744.61
567.19	43952.92
567.36	43576.09
567.52	43714.19
567.68	43915.47
567.85	43945.90
568.01	43540.99
568.17	43639.29
568.34	43931.86
568.50	43681.42
568.66	43505.88
568.83	43447.36
568.99	43105.65
569.15	43615.88
569.32	43669.72
569.48	43374.81
569.64	44051.22
569.81	43868.66
569.97	43784.40
570.13	43852.28
570.30	43580.78
570.46	43648.65
570.62	43655.67
570.78	43732.91
570.95	43494.18
571.11	43875.68
571.27	43739.93
571.43	43648.65
571.60	44406.98
571.76	43585.46
571.92	43700.14
572.09	43761.00
572.25	43906.11
572.41	43765.68
572.57	44282.94
572.74	44151.87
572.90	44046.54
573.06	43992.71
573.22	43985.69
573.38	43887.39
573.55	43564.39
573.71	43983.35
573.87	43924.83
574.03	44093.35
574.20	44189.31
574.36	43688.44
574.52	44364.85
574.68	44105.06
574.84	44006.75
575.01	44009.09
575.17	44266.55
575.33	44107.40
575.49	43871.00
575.65	44083.99
575.82	44545.08
575.98	43955.26
576.14	44479.54
576.30	44294.64
576.46	44198.68
576.62	43746.95
576.79	43648.65
576.95	43473.11
577.11	43835.89
577.27	43917.81
577.43	44231.44
577.59	44416.35
577.75	43995.05
577.92	43866.32
578.08	43959.94
578.24	44018.46
578.40	43882.70
578.56	44425.71
578.72	44208.04
578.88	44208.04
579.04	44158.89
579.21	43695.46
579.37	43955.26
579.53	43833.55
579.69	43543.33
579.85	44098.03
580.01	44353.15
580.17	43838.23
580.33	44423.37
580.49	44257.19
580.65	44226.76
580.82	44322.72
580.98	44065.27
581.14	43775.04
581.30	44238.47
581.46	44158.89
581.62	44259.53
581.78	43931.86
581.94	44456.14
582.10	44245.49
582.26	44091.01
582.42	44385.92
582.58	44341.45
582.74	44088.67
582.90	43990.37
583.06	44369.54
583.22	44320.38
583.38	44289.96
583.54	44839.98
583.70	44282.94
583.86	44411.67
584.02	43695.46
584.18	44055.90
584.34	44210.38
584.50	44547.42
584.66	44201.02
584.82	44226.76
584.98	44514.65
585.14	44247.83
585.30	44006.75
585.46	43995.05
585.62	43868.66
585.78	44301.66
585.94	43643.97
586.10	44395.28
586.26	44039.52
586.42	43922.49
586.58	44208.04
586.74	44194.00
586.90	43763.34
587.06	44069.95
587.22	44793.17
587.38	44306.34
587.54	44699.55
587.70	44399.96
587.86	44706.57
588.02	44289.96
588.18	44594.23
588.34	44355.49
588.49	44030.16
588.65	43576.09
588.81	43903.77
588.97	44348.47
589.13	44273.57
589.29	44147.18
589.45	44477.20
589.61	44617.63
589.77	44477.20
589.93	44399.96
590.08	44229.10
590.24	44636.36
590.40	44739.34
