SpectraSuite Data File
++++++++++++++++++++++++++++++++++++
Date: Fri Oct 25 10:43:19 EDT 2013
User: price-jones
Dark Spectrum Present: No
Reference Spectrum Present: No
Number of Sampled Component Spectra: 1
Spectrometers: USB2+H05261
Integration Time (usec): 100000 (USB2+H05261)
Spectra Averaged: 1 (USB2+H05261)
Boxcar Smoothing: 0 (USB2+H05261)
Correct for Electrical Dark: No (USB2+H05261)
Strobe/Lamp Enabled: No (USB2+H05261)
Correct for Detector Non-linearity: No (USB2+H05261)
Correct for Stray Light: No (USB2+H05261)
Number of Pixels in Processed Spectrum: 2048
>>>>>Begin Processed Spectral Data<<<<<
365.73	53.83
365.92	53.83
366.12	53.83
366.32	79.58
366.52	0.00
366.72	102.98
366.91	0.00
367.11	28.09
367.31	46.81
367.51	30.43
367.70	39.79
367.90	25.75
368.10	16.38
368.30	0.00
368.49	7.02
368.69	63.19
368.89	0.00
369.09	77.24
369.28	37.45
369.48	51.49
369.68	0.00
369.87	105.32
370.07	121.71
370.27	91.28
370.47	147.45
370.66	414.27
370.86	451.72
371.06	416.62
371.25	477.47
371.45	435.34
371.65	470.45
371.84	400.23
372.04	418.96
372.24	491.51
372.44	568.75
372.63	482.15
372.83	528.96
373.03	505.56
373.22	543.00
373.42	482.15
373.62	533.64
373.81	524.28
374.01	545.34
374.21	582.79
374.40	482.15
374.60	592.16
374.79	620.24
374.99	582.79
375.19	566.41
375.38	561.73
375.58	622.58
375.78	547.69
375.97	620.24
376.17	543.00
376.37	550.03
376.56	613.22
376.76	528.96
376.95	620.24
377.15	587.47
377.35	674.07
377.54	664.71
377.74	608.54
377.93	624.92
378.13	550.03
378.33	657.69
378.52	596.84
378.72	622.58
378.91	685.78
379.11	681.10
379.31	629.60
379.50	615.56
379.70	638.97
379.89	699.82
380.09	615.56
380.28	690.46
380.48	734.93
380.68	610.88
380.87	620.24
381.07	739.61
381.26	744.29
381.46	744.29
381.65	727.91
381.85	641.31
382.04	648.33
382.24	685.78
382.43	730.25
382.63	713.86
382.83	631.94
383.02	655.35
383.22	706.84
383.41	690.46
383.61	737.27
383.80	711.52
384.00	755.99
384.19	706.84
384.39	816.85
384.58	795.78
384.78	748.97
384.97	851.96
385.17	826.21
385.36	791.10
385.56	837.91
385.75	760.67
385.95	849.61
386.14	816.85
386.34	851.96
386.53	765.36
386.72	798.12
386.92	917.49
387.11	945.58
387.31	924.51
387.50	819.19
387.70	877.70
387.89	858.98
388.09	905.79
388.28	877.70
388.48	931.53
388.67	917.49
388.86	940.90
389.06	924.51
389.25	922.17
389.45	999.41
389.64	973.66
389.84	1008.77
390.03	940.90
390.22	992.39
390.42	936.21
390.61	976.00
390.81	999.41
391.00	1057.92
391.19	1041.54
391.39	1125.80
391.58	1095.37
391.78	1078.99
391.97	1055.58
392.16	973.66
392.36	1095.37
392.55	1013.45
392.75	957.28
392.94	943.24
393.13	973.66
393.33	980.68
393.52	1116.44
393.71	1015.79
393.91	1083.67
394.10	1081.33
394.29	1153.88
394.49	1245.16
394.68	1181.97
394.88	1132.82
395.07	1165.59
395.26	1296.66
395.46	1219.42
395.65	1224.10
395.84	1142.18
396.04	1259.21
396.23	1081.33
396.42	1144.52
396.62	1179.63
396.81	1306.02
397.00	1203.04
397.19	1313.04
397.39	1256.87
397.58	1282.61
397.77	1343.47
397.97	1427.73
398.16	1427.73
398.35	1458.15
398.55	1502.62
398.74	1495.60
398.93	1565.82
399.12	1572.84
399.32	1507.30
399.51	1568.16
399.70	1612.63
399.90	1610.29
400.09	1624.33
400.28	1671.14
400.47	1533.05
400.67	1598.59
400.86	1645.40
401.05	1694.55
401.24	1687.53
401.44	1750.72
401.63	1619.65
401.82	1729.66
402.01	1736.68
402.21	1776.47
402.40	1769.44
402.59	1689.87
402.78	1661.78
402.97	1713.27
403.17	1785.83
403.36	1638.38
403.55	1785.83
403.74	1853.70
403.93	1919.24
404.13	1827.96
404.32	1905.20
404.51	1795.19
404.70	1811.57
404.89	1851.36
405.09	1900.52
405.28	1928.60
405.47	1947.33
405.66	1944.99
405.85	2001.16
406.05	2022.22
406.24	1926.26
406.43	2108.82
406.62	1970.73
406.81	2026.90
407.00	2069.03
407.20	2022.22
407.39	2092.44
407.58	2087.76
407.77	2015.20
407.96	2160.31
408.15	2246.91
408.34	2141.59
408.54	2326.49
408.73	2251.60
408.92	2317.13
409.11	2284.36
409.30	2319.47
409.49	2296.07
409.68	2298.41
409.87	2253.94
410.07	2352.24
410.26	2345.22
410.45	2429.48
410.64	2457.56
410.83	2471.61
411.02	2579.27
411.21	2555.86
411.40	2595.65
411.59	2541.82
411.78	2658.85
411.98	2502.03
412.17	2574.59
412.36	2630.76
412.55	2731.41
412.74	2710.34
412.93	2686.94
413.12	2761.83
413.31	2965.46
413.50	2857.79
413.69	2782.90
413.88	2974.82
414.07	2988.86
414.26	2972.48
414.45	2958.44
414.64	2916.31
414.83	2925.67
415.02	2918.65
415.22	3089.51
415.41	3141.00
415.60	3197.17
415.79	3117.59
415.98	3248.66
416.17	3272.07
416.36	3178.45
416.55	3173.77
416.74	3258.03
416.93	3309.52
417.12	3251.00
417.31	3159.72
417.50	3318.88
417.69	3431.23
417.88	3442.93
418.07	3396.12
418.26	3447.61
418.45	3421.86
418.64	3590.38
418.83	3585.70
419.02	3529.53
419.21	3517.83
419.39	3611.45
419.58	3597.40
419.77	3562.30
419.96	3662.94
420.15	3674.64
420.34	3772.94
420.53	3712.09
420.72	3786.99
420.91	3817.41
421.10	3775.28
421.29	3985.93
421.48	3866.56
421.67	3911.04
421.86	3906.35
422.05	3758.90
422.24	3747.20
422.43	3723.79
422.61	3798.69
422.80	3892.31
422.99	3880.61
423.18	3896.99
423.37	4049.13
423.56	3983.59
423.75	3946.14
423.94	3882.95
424.13	3665.28
424.32	3653.58
424.50	4039.76
424.69	3962.53
424.88	4072.53
425.07	3904.01
425.26	3866.56
425.45	3871.25
425.64	3943.80
425.83	3847.84
426.01	4051.47
426.20	4021.04
426.39	3878.27
426.58	3805.71
426.77	3808.05
426.96	3904.01
427.15	3981.25
427.33	4063.17
427.52	3810.39
427.71	4315.95
427.90	4028.06
428.09	4241.05
428.28	4105.30
428.46	4194.24
428.65	3997.64
428.84	4180.20
429.03	4227.01
429.22	4086.58
429.40	4074.87
429.59	4107.64
429.78	3948.48
429.97	3939.12
430.16	3955.51
430.34	4168.49
430.53	4098.28
430.72	4182.54
430.91	4098.28
431.10	4367.44
431.28	4578.09
431.47	4533.62
431.66	4587.45
431.85	4320.63
432.03	4542.98
432.22	4547.66
432.41	4645.96
432.60	4643.62
432.79	4636.60
432.97	4767.67
433.16	4648.30
433.35	4517.23
433.54	4500.85
433.72	4566.39
433.91	4585.11
434.10	4702.14
434.28	4758.31
434.47	4725.54
434.66	4800.44
434.85	4924.49
435.03	4816.82
435.22	4858.95
435.41	5111.73
435.59	4938.53
435.78	5153.86
435.97	5123.43
436.16	5219.39
436.34	5146.84
436.53	5069.60
436.72	5125.77
436.90	5046.20
437.09	5179.61
437.28	5153.86
437.46	5233.44
437.65	5179.61
437.84	5128.11
438.02	5085.98
438.21	5289.61
438.40	5336.42
438.58	5181.95
438.77	5348.12
438.96	5259.18
439.14	5423.02
439.33	5547.07
439.52	5624.31
439.70	5416.00
439.89	5537.71
440.08	5493.24
440.26	5589.20
440.45	5621.97
440.63	5699.20
440.82	5909.85
441.01	5867.72
441.19	5900.49
441.38	5944.96
441.57	6036.24
441.75	6012.84
441.94	6291.36
442.12	6335.83
442.31	6310.08
442.50	6286.68
442.68	6061.99
442.87	6157.95
443.05	6293.70
443.24	6413.07
443.43	6506.69
443.61	6511.37
443.80	6658.82
443.98	6253.91
444.17	6120.50
444.35	6448.18
444.54	6551.16
444.73	6553.50
444.91	6466.90
445.10	6487.96
445.28	6520.73
445.47	6466.90
445.65	6420.09
445.84	6677.55
446.02	6593.29
446.21	6609.67
446.39	6562.86
446.58	6459.88
446.77	6361.58
446.95	6520.73
447.14	6565.20
447.32	6761.81
447.51	6672.87
447.69	6637.76
447.88	6569.88
448.06	6726.70
448.25	6731.38
448.43	6724.36
448.62	6621.38
448.80	6698.61
448.99	6881.18
449.17	6836.70
449.36	6733.72
449.54	6984.16
449.73	7073.10
449.91	6998.20
450.10	7101.19
450.28	7180.76
450.46	7307.15
450.65	7098.84
450.83	7368.01
451.02	7124.59
451.20	7105.87
451.39	7279.07
451.57	7178.42
451.76	7115.23
451.94	7250.98
452.13	7194.81
452.31	7087.14
452.49	6916.28
452.68	7052.03
452.86	7169.06
453.05	7323.54
453.23	7337.58
453.42	7421.84
453.60	7115.23
453.78	7309.49
453.97	7253.32
454.15	7157.36
454.34	7246.30
454.52	7433.54
454.70	7368.01
454.89	7459.29
455.07	7602.06
455.26	7716.75
455.44	7632.49
455.62	7478.01
455.81	7693.34
455.99	7852.50
456.17	7665.25
456.36	7726.11
456.54	7847.82
456.73	7892.29
456.91	8009.31
457.09	7976.55
457.28	8145.06
457.46	7857.18
457.64	8009.31
457.83	8028.04
458.01	7988.25
458.19	8121.66
458.38	8173.15
458.56	8004.63
458.74	8095.91
458.93	8079.53
459.11	8081.87
459.29	8163.79
459.48	8196.56
459.66	8262.09
459.84	8245.71
460.03	8599.13
460.21	8465.72
460.39	8573.38
460.57	8503.17
460.76	8571.04
460.94	8669.34
461.12	8423.59
461.31	8741.90
461.49	8535.93
461.67	8641.26
461.85	8891.70
462.04	8589.77
462.22	9043.83
462.40	8772.33
462.59	8985.32
462.77	8753.60
462.95	9060.21
463.13	8973.61
463.32	8891.70
463.50	8910.42
463.68	8943.19
463.86	8868.29
464.05	8903.40
464.23	8842.54
464.41	8957.23
464.59	8837.86
464.78	9287.25
464.96	9078.94
465.14	9107.02
465.32	9177.24
465.50	9341.08
465.69	9254.48
465.87	9170.22
466.05	8959.57
466.23	9116.39
466.41	9121.07
466.60	9397.25
466.78	9156.18
466.96	9177.24
467.14	9425.34
467.32	9284.91
467.51	9362.14
467.69	9008.72
467.87	9371.50
468.05	9425.34
468.23	9298.95
468.41	9355.12
468.60	9453.42
468.78	9446.40
468.96	9373.85
469.14	9640.67
469.32	9657.05
469.50	9315.33
469.69	9727.27
469.87	9710.88
470.05	9650.03
470.23	9586.83
470.41	9834.93
470.59	9797.48
470.77	9745.99
470.95	9886.42
471.14	10090.05
471.32	9860.68
471.50	10214.10
471.68	10277.29
471.86	10256.23
472.04	10141.54
472.22	10394.32
472.40	10211.76
472.58	10111.11
472.77	10176.65
472.95	10441.13
473.13	10799.23
473.31	10483.26
473.49	10410.70
473.67	10497.30
473.85	10677.52
474.03	10939.66
474.21	11002.86
474.39	11101.16
474.57	10979.45
474.75	10993.50
474.93	11171.38
475.12	11178.40
475.30	11293.08
475.48	11480.33
475.66	11272.02
475.84	11124.57
476.02	11283.72
476.20	11302.45
476.38	11623.10
476.56	11770.55
476.74	11634.80
476.92	11569.27
477.10	11934.39
477.28	11960.14
477.46	12030.35
477.64	12327.60
477.82	12224.62
478.00	12510.16
478.18	12351.01
478.36	12395.48
478.54	12748.90
478.72	12629.53
478.90	12936.14
479.08	12903.37
479.26	13029.76
479.44	12940.82
479.62	13371.48
479.80	13027.42
479.98	13153.81
480.16	13631.28
480.34	13628.94
480.52	13631.28
480.70	13760.01
480.88	13439.36
481.06	13715.54
481.24	13769.37
481.41	14279.61
481.59	14382.59
481.77	14207.05
481.95	14312.38
482.13	14497.28
482.31	14607.28
482.49	14757.08
482.67	14860.06
482.85	14677.50
483.03	15108.16
483.21	15028.58
483.39	15616.05
483.57	15133.90
483.74	15351.57
483.92	15494.35
484.10	15592.65
484.28	15789.25
484.46	15941.39
484.64	16271.40
484.82	15786.91
485.00	15782.23
485.18	16184.80
485.35	16243.32
485.53	16102.89
485.71	16077.14
485.89	16273.74
486.07	16570.99
486.25	16545.25
486.43	16870.58
486.61	16912.71
486.78	16968.88
486.96	17364.43
487.14	17408.90
487.32	17785.73
487.50	18200.01
487.68	17710.83
487.85	18010.42
488.03	18314.69
488.21	18305.33
488.39	18361.50
488.57	18508.96
488.75	18766.42
488.92	18902.17
489.10	19300.06
489.28	19267.29
489.46	19440.49
489.64	19295.38
489.81	20233.93
489.99	20009.24
490.17	20217.55
490.35	20191.80
490.53	20276.06
490.70	20542.88
490.88	20432.88
491.06	20765.23
491.24	20678.63
491.41	20507.77
491.59	20304.15
491.77	20449.26
491.95	20842.47
492.13	20943.11
492.30	21556.33
492.48	21671.02
492.66	21561.02
492.84	21689.74
493.01	22050.19
493.19	22001.04
493.37	22120.40
493.54	22136.79
493.72	22642.34
493.90	22537.02
494.08	22785.12
494.25	22892.78
494.43	22885.76
494.61	23054.28
494.79	23297.69
494.96	23438.12
495.14	23232.16
495.32	23234.50
495.49	23639.41
495.67	23531.75
495.85	23660.48
496.02	23917.93
496.20	24542.86
496.38	24142.63
496.55	24444.56
496.73	24734.78
496.91	24709.04
497.09	24849.47
497.26	25139.69
497.44	24966.49
497.62	24882.24
497.79	25387.79
497.97	25050.75
498.14	25502.48
498.32	25214.59
498.50	25596.10
498.67	25907.39
498.85	26080.59
499.03	25699.08
499.20	25912.07
499.38	25734.19
499.56	26075.91
499.73	26195.28
499.91	26120.38
500.08	26286.56
500.26	26532.31
500.44	26108.68
500.61	26712.53
500.79	26335.71
500.97	26923.18
501.14	27140.85
501.32	26827.22
501.49	26995.74
501.67	26794.45
501.84	27091.70
502.02	27475.55
502.20	27363.20
502.37	27536.40
502.55	27274.26
502.72	28135.58
502.90	27665.13
503.07	27686.20
503.25	28095.79
503.43	28018.55
503.60	27807.90
503.78	28166.01
503.95	27824.29
504.13	28348.57
504.30	28374.31
504.48	28608.37
504.65	28748.80
504.83	28755.82
505.01	28706.67
505.18	28500.70
505.36	29275.42
505.53	29085.84
505.71	29392.45
505.88	29685.01
506.06	29090.52
506.23	29429.90
506.41	29226.27
506.58	29804.38
506.76	29818.42
506.93	29570.33
507.11	29724.80
507.28	29799.70
507.46	29780.98
507.63	29575.01
507.81	29853.53
507.98	30143.76
508.16	30476.12
508.33	30625.91
508.50	30319.30
508.68	30756.98
508.85	31005.08
509.03	30934.86
509.20	30600.16
509.38	31246.15
509.55	30749.96
509.73	30927.84
509.90	31065.93
510.08	31187.64
510.25	31377.22
510.42	31372.54
510.60	31400.63
510.77	31709.58
510.95	31878.10
511.12	32002.14
511.30	31831.29
511.47	32121.51
511.64	32182.37
511.82	32173.00
511.99	32046.62
512.17	31974.06
512.34	32027.89
512.51	32259.60
512.69	32694.94
512.86	32313.44
513.04	32737.07
513.21	32804.95
513.38	32496.00
513.56	32723.03
513.73	32416.42
513.90	32479.61
514.08	32720.69
514.25	32636.43
514.43	33097.52
514.60	32854.10
514.77	32816.65
514.95	33120.92
515.12	33343.27
515.29	33530.51
515.47	33584.35
515.64	33771.59
515.81	33369.02
515.99	33371.36
516.16	33778.61
516.33	33638.18
516.51	33542.22
516.68	33120.92
516.85	32961.76
517.03	33287.10
517.20	33649.88
517.37	33965.85
517.54	33834.78
517.72	33752.87
517.89	33734.14
518.06	33869.89
518.24	33731.80
518.41	33748.18
518.58	34127.35
518.75	33727.12
518.93	34698.44
519.10	34220.97
519.27	34824.83
519.45	34689.08
519.62	35105.70
519.79	35283.58
519.96	35131.44
520.14	35306.98
520.31	34857.60
520.48	35676.79
520.65	34937.18
520.83	35189.95
521.00	35557.42
521.17	35613.59
521.34	35541.03
521.52	35779.77
521.69	36079.36
521.86	36051.27
522.03	35915.52
522.20	36034.89
522.38	35976.37
522.55	36147.23
522.72	36006.80
522.89	36121.49
523.07	36545.12
523.24	36201.07
523.41	36711.30
523.58	36488.95
523.75	37270.69
523.92	36634.06
524.10	37078.77
524.27	37062.38
524.44	37109.19
524.61	36994.51
524.78	37074.09
524.96	37109.19
525.13	36559.17
525.30	36978.12
525.47	37853.48
525.64	37296.44
525.81	37589.00
525.98	37448.57
526.16	37127.92
526.33	36762.79
526.50	37364.31
526.67	37172.39
526.84	37457.93
527.01	37319.84
527.18	37975.19
527.36	37804.33
527.53	38155.41
527.70	38607.14
527.87	38134.35
528.04	38171.80
528.21	37972.85
528.38	38417.55
528.55	38897.36
528.72	38316.91
528.89	38424.57
529.07	38593.09
529.24	38663.31
529.41	38480.75
529.58	37940.08
529.75	38574.37
529.92	38658.63
530.09	38721.82
530.26	39271.85
530.43	39374.83
530.60	38902.04
530.77	38625.86
530.94	39075.24
531.11	38990.98
531.28	39187.59
531.46	39138.44
531.63	39697.83
531.80	39030.77
531.97	39330.36
532.14	39173.55
532.31	39124.40
532.48	39302.28
532.65	39185.25
532.82	38888.00
532.99	39770.38
533.16	39044.82
533.33	39728.25
533.50	39646.33
533.67	39728.25
533.84	39805.49
534.01	40058.27
534.18	39852.30
534.35	40285.30
534.52	39824.22
534.69	40404.67
534.86	40116.78
535.03	40142.53
535.20	40245.51
535.37	40605.95
535.54	40708.94
535.71	40568.51
535.88	40374.24
536.05	40690.21
536.22	40540.42
536.38	40535.74
536.55	40512.33
536.72	40238.49
536.89	40081.67
537.06	40500.63
537.23	40748.73
537.40	40622.34
537.57	40472.54
537.74	40730.00
537.91	41265.99
538.08	40942.99
538.25	40921.93
538.42	40694.89
538.59	41160.66
538.75	40657.45
538.92	40907.88
539.09	41041.29
539.26	41249.60
539.43	41230.88
539.60	41146.62
539.77	41008.53
539.94	41214.49
540.11	40779.15
540.28	41460.25
540.44	41233.22
540.61	41015.55
540.78	41071.72
540.95	41256.62
541.12	41207.47
541.29	41476.63
541.46	41373.65
541.62	41565.57
541.79	41879.21
541.96	41244.92
542.13	41298.75
542.30	41909.63
542.47	41808.99
542.63	41406.42
542.80	41811.33
542.97	42099.22
543.14	42134.32
543.31	42440.93
543.48	42031.34
543.64	42473.70
543.81	42766.27
543.98	42548.60
544.15	42241.99
544.32	42225.60
544.48	42707.76
544.65	42555.62
544.82	42726.48
544.99	42108.58
545.16	42401.14
545.32	42295.82
545.49	43299.91
545.66	43477.79
545.83	42845.85
546.00	42696.05
546.16	42913.72
546.33	42520.51
546.50	42227.95
546.67	43229.69
546.83	42272.42
547.00	42925.42
547.17	42707.76
547.34	43278.85
547.50	43131.39
547.67	43290.55
547.84	43569.07
548.00	43430.98
548.17	43381.83
548.34	43288.21
548.51	43749.29
548.67	43388.85
548.84	43412.26
549.01	43297.57
549.18	43150.12
549.34	43388.85
549.51	43213.31
549.68	43674.40
549.84	43445.02
550.01	44069.95
550.18	43531.62
550.34	43606.52
550.51	43653.33
550.68	43782.06
550.84	42911.38
551.01	43650.99
551.18	43592.48
551.34	43583.12
551.51	43856.96
551.68	44112.08
551.84	43917.81
552.01	43756.32
552.18	43840.57
552.34	43536.30
552.51	43948.24
552.68	44002.07
552.84	43718.87
553.01	44168.25
553.18	44231.44
553.34	44383.58
553.51	44037.18
553.67	44149.53
553.84	44252.51
554.01	44575.50
554.17	44828.28
554.34	44392.94
554.51	44797.85
554.67	44102.71
554.84	44481.88
555.00	44435.07
555.17	44636.36
555.33	44491.24
555.50	44748.70
555.67	44811.90
555.83	44715.93
556.00	44404.64
556.16	44582.52
556.33	44385.92
556.50	44570.82
556.66	44865.73
556.83	44392.94
556.99	44580.18
557.16	44327.41
557.32	44458.48
557.49	44561.46
557.65	44807.22
557.82	45078.72
557.98	44746.36
558.15	44641.04
558.32	44982.76
558.48	44362.51
558.65	44690.19
558.81	44584.86
558.98	44598.91
559.14	44917.22
559.31	44849.35
559.47	44821.26
559.64	44561.46
559.80	44465.50
559.97	44985.10
560.13	44591.89
560.30	44828.28
560.46	44870.41
560.63	45148.93
560.79	44945.31
560.96	45102.12
561.12	45251.92
561.29	44444.43
561.45	45308.09
561.61	45207.45
561.78	44975.73
561.94	45165.32
562.11	44612.95
562.27	44762.75
562.44	45390.01
562.60	45265.96
562.77	45322.13
562.93	45162.98
563.10	45549.17
563.26	45057.65
563.42	45659.17
563.59	45277.66
563.75	45258.94
563.92	45198.09
564.08	45317.45
564.24	45200.43
564.41	45144.25
564.57	45294.05
564.74	45326.81
564.90	45385.33
565.07	45041.27
565.23	45411.07
565.39	45116.17
565.56	45387.67
565.72	44598.91
565.88	45478.95
566.05	44865.73
566.21	45069.36
566.38	45029.57
566.54	45626.40
566.70	45984.51
566.87	45984.51
567.03	45624.06
567.19	46000.89
567.36	45553.85
567.52	45565.55
567.68	45345.54
567.85	45411.07
568.01	45897.91
568.17	45925.99
568.34	45715.34
568.50	45605.34
568.66	45242.56
568.83	45659.17
568.99	45315.11
569.15	45464.91
569.32	45331.50
569.48	45258.94
569.64	46019.61
569.81	45851.09
569.97	45673.21
570.13	45446.18
570.30	44851.69
570.46	44872.75
570.62	45525.76
570.78	45024.89
570.95	45024.89
571.11	45675.55
571.27	45680.24
571.43	45647.47
571.60	45656.83
571.76	45626.40
571.92	45874.50
572.09	45853.44
572.25	45734.07
572.41	45865.14
572.57	45642.79
572.74	46256.01
572.90	45858.12
573.06	45537.46
573.22	45605.34
573.38	45579.59
573.55	45481.29
573.71	45839.39
573.87	45659.17
574.03	45490.65
574.20	45881.52
574.36	45600.66
574.52	45645.13
574.68	45298.73
574.84	45551.51
575.01	45605.34
575.17	45635.77
575.33	45600.66
575.49	45427.46
575.65	45918.97
575.82	46005.57
575.98	45661.51
576.14	45897.91
576.30	45867.48
576.46	45544.48
576.62	45715.34
576.79	45785.56
576.95	45415.76
577.11	45532.78
577.27	45673.21
577.43	45652.15
577.59	45200.43
577.75	45710.66
577.92	45310.43
578.08	45298.73
578.24	45153.62
578.40	45893.22
578.56	45659.17
578.72	45457.88
578.88	46176.43
579.04	45750.45
579.21	45813.65
579.37	45284.68
579.53	45986.85
579.69	45317.45
579.85	45792.58
580.01	45776.20
580.17	45769.18
580.33	45968.12
580.49	45801.94
580.65	45944.72
580.82	45748.11
580.98	45680.24
581.14	45394.69
581.30	45968.12
581.46	45694.28
581.62	46127.28
581.78	45640.45
581.94	46017.27
582.10	45698.96
582.26	45825.35
582.42	45708.32
582.58	45996.21
582.74	45329.16
582.90	45523.42
583.06	46033.66
583.22	46094.51
583.38	45998.55
583.54	46094.51
583.70	46185.79
583.86	45504.70
584.02	45790.24
584.18	45834.71
584.34	46024.29
584.50	45710.66
584.66	45986.85
584.82	45869.82
584.98	45911.95
585.14	45778.54
585.30	45455.54
585.46	45818.33
585.62	45687.26
585.78	45443.84
585.94	45179.36
586.10	45315.11
586.26	45897.91
586.42	45717.68
586.58	45958.76
586.74	45673.21
586.90	45680.24
587.06	45654.49
587.22	45792.58
587.38	45352.56
587.54	45928.33
587.70	45766.84
587.86	45972.80
588.02	45778.54
588.18	45808.96
588.34	45628.74
588.49	45029.57
588.65	44893.82
588.81	45310.43
588.97	45460.23
589.13	45385.33
589.29	45722.37
589.45	45249.58
589.61	45853.44
589.77	46059.40
589.93	45947.06
590.08	45935.35
