SpectraSuite Data File
++++++++++++++++++++++++++++++++++++
Date: Fri Oct 25 11:26:12 EDT 2013
User: price-jones
Dark Spectrum Present: No
Reference Spectrum Present: No
Number of Sampled Component Spectra: 1
Spectrometers: USB2+H05261
Integration Time (usec): 100000 (USB2+H05261)
Spectra Averaged: 1 (USB2+H05261)
Boxcar Smoothing: 0 (USB2+H05261)
Correct for Electrical Dark: No (USB2+H05261)
Strobe/Lamp Enabled: No (USB2+H05261)
Correct for Detector Non-linearity: No (USB2+H05261)
Correct for Stray Light: No (USB2+H05261)
Number of Pixels in Processed Spectrum: 2048
>>>>>Begin Processed Spectral Data<<<<<
365.73	287.89
365.92	287.89
366.12	287.89
366.32	156.82
366.52	173.20
366.72	105.32
366.91	152.13
367.11	131.07
367.31	112.35
367.51	102.98
367.70	102.98
367.90	121.71
368.10	156.82
368.30	140.43
368.49	133.41
368.69	152.13
368.89	210.65
369.09	147.45
369.28	152.13
369.48	217.67
369.68	208.31
369.87	245.76
370.07	210.65
370.27	304.27
370.47	351.08
370.66	561.73
370.86	648.33
371.06	587.47
371.25	730.25
371.45	674.07
371.65	727.91
371.84	685.78
372.04	716.20
372.24	676.41
372.44	699.82
372.63	716.20
372.83	748.97
373.03	709.18
373.22	793.44
373.42	765.36
373.62	748.97
373.81	695.14
374.01	819.19
374.21	856.64
374.40	774.72
374.60	866.00
374.79	758.33
374.99	800.46
375.19	854.30
375.38	887.06
375.58	842.59
375.78	854.30
375.97	922.17
376.17	828.55
376.37	924.51
376.56	805.14
376.76	912.81
376.95	919.83
377.15	851.96
377.35	858.98
377.54	912.81
377.74	924.51
377.93	908.13
378.13	987.71
378.33	971.32
378.52	968.98
378.72	1001.75
378.91	959.62
379.11	889.40
379.31	936.21
379.50	997.07
379.70	1008.77
379.89	945.58
380.09	1018.13
380.28	973.66
380.48	1008.77
380.68	1032.18
380.87	1050.90
381.07	1076.65
381.26	1165.59
381.46	976.00
381.65	1069.62
381.85	1053.24
382.04	1144.52
382.24	1093.03
382.43	1057.92
382.63	1041.54
382.83	1118.78
383.02	1104.73
383.22	1123.46
383.41	1076.65
383.61	1074.31
383.80	1130.48
384.00	1081.33
384.19	1107.07
384.39	1074.31
384.58	1050.90
384.78	1050.90
384.97	1097.71
385.17	1179.63
385.36	1193.67
385.56	1137.50
385.75	1125.80
385.95	1153.88
386.14	1219.42
386.34	1198.35
386.53	1221.76
386.72	1196.01
386.92	1165.59
387.11	1296.66
387.31	1210.06
387.50	1268.57
387.70	1270.91
387.89	1270.91
388.09	1212.40
388.28	1296.66
388.48	1296.66
388.67	1369.21
388.86	1303.68
389.06	1334.11
389.25	1446.45
389.45	1277.93
389.64	1329.42
389.84	1385.60
390.03	1362.19
390.22	1423.05
390.42	1331.76
390.61	1437.09
390.81	1413.68
391.00	1383.26
391.19	1392.62
391.39	1516.67
391.58	1444.11
391.78	1483.90
391.97	1511.99
392.16	1397.30
392.36	1558.80
392.55	1528.37
392.75	1598.59
392.94	1530.71
393.13	1420.71
393.33	1551.78
393.52	1458.15
393.71	1586.88
393.91	1607.95
394.10	1598.59
394.29	1563.48
394.49	1584.54
394.68	1605.61
394.88	1673.48
395.07	1682.85
395.26	1696.89
395.46	1654.76
395.65	1767.10
395.84	1701.57
396.04	1771.79
396.23	1687.53
396.42	1685.19
396.62	1762.42
396.81	1769.44
397.00	1743.70
397.19	1820.94
397.39	1764.76
397.58	1760.08
397.77	1863.07
397.97	1827.96
398.16	1722.63
398.35	1877.11
398.55	1834.98
398.74	1921.58
398.93	1963.71
399.12	1907.54
399.32	1762.42
399.51	2015.20
399.70	2069.03
399.90	1877.11
400.09	1963.71
400.28	2064.35
400.47	2083.08
400.67	1942.64
400.86	2010.52
401.05	2099.46
401.24	2059.67
401.44	2167.34
401.63	2179.04
401.82	2108.82
402.01	2099.46
402.21	2118.18
402.40	2165.00
402.59	2267.98
402.78	2249.25
402.97	2218.83
403.17	2298.41
403.36	2303.09
403.55	2239.89
403.74	2455.22
403.93	2408.41
404.13	2342.88
404.32	2335.85
404.51	2394.37
404.70	2450.54
404.89	2424.80
405.09	2471.61
405.28	2427.14
405.47	2459.90
405.66	2509.05
405.85	2459.90
406.05	2492.67
406.24	2490.33
406.43	2626.08
406.62	2548.84
406.81	2731.41
407.00	2576.93
407.20	2478.63
407.39	2495.01
407.58	2708.00
407.77	2780.56
407.96	2829.71
408.15	2726.72
408.34	2752.47
408.54	2743.11
408.73	2768.85
408.92	2796.94
409.11	2916.31
409.30	2932.69
409.49	2832.05
409.68	2939.71
409.87	2902.26
410.07	3019.29
410.26	3009.93
410.45	2864.82
410.64	3101.21
410.83	3035.67
411.02	3045.04
411.21	3183.13
411.40	3030.99
411.59	3126.96
411.78	3234.62
411.98	3117.59
412.17	3148.02
412.36	3349.31
412.55	3227.60
412.74	3449.95
412.93	3274.41
413.12	3267.39
413.31	3508.46
413.50	3447.61
413.69	3501.44
413.88	3543.57
414.07	3684.00
414.26	3592.72
414.45	3623.15
414.64	3719.11
414.83	3639.53
415.02	3747.20
415.22	3747.20
415.41	3831.46
415.60	3847.84
415.79	3880.61
415.98	3868.91
416.17	3911.04
416.36	3796.35
416.55	3964.87
416.74	3934.44
416.93	4044.45
417.12	4028.06
417.31	3995.29
417.50	4215.30
417.69	4297.22
417.88	4248.07
418.07	4257.43
418.26	4259.78
418.45	4306.59
418.64	4313.61
418.83	4353.40
419.02	4414.25
419.21	4526.60
419.39	4393.19
419.58	4538.30
419.77	4465.74
419.96	4447.02
420.15	4589.79
420.34	4634.26
420.53	4512.55
420.72	4674.05
420.91	4641.28
421.10	4699.80
421.29	4718.52
421.48	4744.27
421.67	4788.74
421.86	4681.07
422.05	4865.97
422.24	4798.10
422.43	4774.69
422.61	4840.23
422.80	4971.30
422.99	4894.06
423.18	5088.32
423.37	5029.81
423.56	4889.38
423.75	4903.42
423.94	4842.57
424.13	4435.32
424.32	4805.12
424.50	5043.85
424.69	5083.64
424.88	5029.81
425.07	4908.10
425.26	4868.31
425.45	4957.25
425.64	4973.64
425.83	4840.23
426.01	5027.47
426.20	4915.12
426.39	4999.38
426.58	4917.47
426.77	5036.83
426.96	5200.67
427.15	4938.53
427.33	5231.10
427.52	5048.54
427.71	5341.10
427.90	5228.76
428.09	5247.48
428.28	5336.42
428.46	5385.57
428.65	5474.51
428.84	5448.77
429.03	5380.89
429.22	5310.68
429.40	5399.62
429.59	5493.24
429.78	5413.66
429.97	5249.82
430.16	5268.55
430.34	5502.60
430.53	5720.27
430.72	5664.10
430.91	5521.32
431.10	5540.05
431.28	5678.14
431.47	5776.44
431.66	5743.67
431.85	5743.67
432.03	5809.21
432.22	6005.81
432.41	5694.52
432.60	5898.15
432.79	6029.22
432.97	5865.38
433.16	5926.24
433.35	5813.89
433.54	5923.90
433.72	6010.50
433.91	6019.86
434.10	6017.52
434.28	5907.51
434.47	6019.86
434.66	6183.70
434.85	6289.02
435.03	6284.34
435.22	6061.99
435.41	6251.57
435.59	6328.81
435.78	6354.55
435.97	6422.43
436.16	6216.46
436.34	6377.96
436.53	6478.60
436.72	6555.84
436.90	6420.09
437.09	6616.69
437.28	6607.33
437.46	6614.35
437.65	6548.82
437.84	6752.45
438.02	6745.42
438.21	6911.60
438.40	6747.76
438.58	6899.90
438.77	6932.67
438.96	6935.01
439.14	7026.29
439.33	7068.42
439.52	7260.34
439.70	7382.05
439.89	7180.76
440.08	7199.49
440.26	7258.00
440.45	7187.79
440.63	7267.36
440.82	7679.30
441.01	7468.65
441.19	7655.89
441.38	7487.37
441.57	7758.88
441.75	7712.07
441.94	7838.45
442.12	7679.30
442.31	7829.09
442.50	7953.14
442.68	8156.77
442.87	7875.90
443.05	8002.29
443.24	8112.30
443.43	7922.71
443.61	8168.47
443.80	8290.18
443.98	7889.95
444.17	7824.41
444.35	8142.72
444.54	8318.26
444.73	8346.35
444.91	8229.32
445.10	8262.09
445.28	8269.11
445.47	8269.11
445.65	8159.11
445.84	8526.57
446.02	8390.82
446.21	8278.47
446.39	8365.07
446.58	8564.02
446.77	8367.42
446.95	8128.68
447.14	8454.02
447.32	8498.49
447.51	8379.12
447.69	8388.48
447.88	8369.76
448.06	8526.57
448.25	8435.29
448.43	8589.77
448.62	8552.32
448.80	8421.25
448.99	8704.45
449.17	8519.55
449.36	8636.58
449.54	8716.16
449.73	9179.58
449.91	8898.72
450.10	9029.79
450.28	9032.13
450.46	9055.53
450.65	8943.19
450.83	9116.39
451.02	8879.99
451.20	9158.52
451.39	9076.60
451.57	8919.78
451.76	9018.08
451.94	9137.45
452.13	9423.00
452.31	9411.29
452.49	9287.25
452.68	9476.83
452.86	9334.06
453.05	9425.34
453.23	9298.95
453.42	9291.93
453.60	9261.50
453.78	9474.49
453.97	9291.93
454.15	9378.53
454.34	9259.16
454.52	9647.69
454.70	9528.32
454.89	9799.82
455.07	9617.26
455.26	9816.21
455.44	9612.58
455.62	9652.37
455.81	9977.70
455.99	10040.90
456.17	9954.30
456.36	9982.38
456.54	10253.89
456.73	10146.22
456.91	10415.38
457.09	10293.68
457.28	10558.16
457.46	10209.42
457.64	10324.10
457.83	10569.86
458.01	10387.30
458.19	10607.31
458.38	10492.62
458.56	10670.50
458.74	10523.05
458.93	10834.34
459.11	10834.34
459.29	10700.93
459.48	10860.09
459.66	10729.02
459.84	11033.29
460.03	10944.34
460.21	10970.09
460.39	10836.68
460.57	10895.19
460.76	10843.70
460.94	11295.43
461.12	11087.12
461.31	10995.84
461.49	11122.23
461.67	11150.31
461.85	11548.20
462.04	11115.20
462.22	11866.52
462.40	11428.84
462.59	11477.99
462.77	11407.77
462.95	11690.98
463.13	11812.68
463.32	11606.72
463.50	11793.96
463.68	11805.66
463.86	11859.49
464.05	11651.19
464.23	11569.27
464.41	11726.08
464.59	11531.82
464.78	12226.96
464.96	12002.27
465.14	11747.15
465.32	11934.39
465.50	12072.48
465.69	11941.41
465.87	12109.93
466.05	11932.05
466.23	12285.47
466.41	12205.89
466.60	12575.70
466.78	12042.06
466.96	12198.87
467.14	12053.76
467.32	12355.69
467.51	12292.49
467.69	12044.40
467.87	12517.18
468.05	12617.83
468.23	12327.60
468.41	12257.39
468.60	12418.88
468.78	12741.88
468.96	12362.71
469.14	13039.12
469.32	12681.02
469.50	12568.68
469.69	13076.57
469.87	12929.12
470.05	13226.37
470.23	12950.18
470.41	13048.49
470.59	13238.07
470.77	13163.17
470.95	13076.57
471.14	13394.89
471.32	13188.92
471.50	13542.34
471.68	13319.99
471.86	13600.85
472.04	13425.31
472.22	14127.47
472.40	13778.73
472.58	13633.62
472.77	13760.01
472.95	14132.15
473.13	14637.71
473.31	14139.18
473.49	13954.27
473.67	14024.49
473.85	14115.77
474.03	14516.00
474.21	14469.19
474.39	14410.68
474.57	14588.56
474.75	14728.99
474.93	14644.73
475.12	14785.16
475.30	15014.54
475.48	14871.76
475.66	15133.90
475.84	15033.26
476.02	15215.82
476.20	15246.25
476.38	15545.84
476.56	15852.45
476.74	15616.05
476.92	15826.70
477.10	15618.39
477.28	16107.57
477.46	16145.02
477.64	16386.09
477.82	16304.17
478.00	16711.42
478.18	16779.30
478.36	16851.86
478.54	16854.20
478.72	16968.88
478.90	17399.54
479.08	17383.16
479.26	17652.32
479.44	17436.99
479.62	17977.65
479.80	18008.08
479.98	18139.15
480.16	18569.81
480.34	18391.93
480.52	18370.86
480.70	18501.93
480.88	18324.05
481.06	18747.69
481.24	18768.76
481.41	19103.45
481.59	19089.41
481.77	19566.88
481.95	19428.79
482.13	19578.58
482.31	19482.62
482.49	19829.02
482.67	19892.21
482.85	20152.01
483.03	20552.24
483.21	20772.25
483.39	20650.55
483.57	20545.22
483.74	21163.12
483.92	21111.63
484.10	21151.42
484.28	21380.79
484.46	21956.57
484.64	22174.24
484.82	21855.92
485.00	21961.25
485.18	22686.81
485.35	22759.37
485.53	22672.77
485.71	22850.65
485.89	23456.85
486.07	23325.78
486.25	23250.88
486.43	23229.82
486.61	23665.16
486.78	23866.44
486.96	24025.60
487.14	24374.34
487.32	24318.17
487.50	24699.67
487.68	24615.41
487.85	25029.69
488.03	25598.44
488.21	25820.79
488.39	25415.88
488.57	25832.49
488.75	25963.56
488.92	26178.89
489.10	26630.62
489.28	26422.31
489.46	26735.94
489.64	27016.80
489.81	27199.37
489.99	27850.03
490.17	27578.53
490.35	27950.68
490.53	27929.61
490.70	28032.60
490.88	28210.48
491.06	28758.16
491.24	29008.60
491.41	28992.22
491.59	29113.92
491.77	29074.13
491.95	29315.21
492.13	29741.19
492.30	29715.44
492.48	30075.88
492.66	30146.10
492.84	30143.76
493.01	30654.00
493.19	30567.40
493.37	30801.45
493.54	30918.48
493.72	31346.79
493.90	30904.43
494.08	31477.86
494.25	32034.91
494.43	32119.17
494.61	32182.37
494.79	32245.56
494.96	32025.55
495.14	32250.24
495.32	32811.97
495.49	32694.94
495.67	33322.21
495.85	33479.02
496.02	33481.36
496.20	33584.35
496.38	34015.01
496.55	33696.69
496.73	34321.62
496.91	34218.63
497.09	34352.04
497.26	34815.47
497.44	34714.83
497.62	34916.11
497.79	35388.90
497.97	35129.10
498.14	35487.20
498.32	35644.02
498.50	35831.26
498.67	36329.80
498.85	36051.27
499.03	36442.14
499.20	36453.84
499.38	36781.52
499.56	36896.20
499.73	36783.86
499.91	36833.01
500.08	37401.76
500.26	36959.40
500.44	37081.11
500.61	37647.52
500.79	37294.10
500.97	37455.59
501.14	38522.88
501.32	38419.89
501.49	38141.37
501.67	38843.53
501.84	38794.38
502.02	38859.91
502.20	38852.89
502.37	38843.53
502.55	39143.12
502.72	39594.84
502.90	39395.90
503.07	38988.64
503.25	39428.66
503.43	39271.85
503.60	39765.70
503.78	39856.98
503.95	40041.88
504.13	40076.99
504.30	40357.86
504.48	40116.78
504.65	40463.18
504.83	40971.08
505.01	41216.83
505.18	41057.68
505.36	41216.83
505.53	41478.97
505.71	41179.39
505.88	41045.97
506.06	41263.64
506.23	41715.37
506.41	41738.77
506.58	41741.11
506.76	41827.71
506.93	42396.46
507.11	42176.45
507.28	42115.60
507.46	42164.75
507.63	42948.83
507.81	43077.56
507.98	42773.29
508.16	42796.70
508.33	43257.78
508.50	42883.30
508.68	43098.62
508.85	43475.45
509.03	43456.73
509.20	43688.44
509.38	44175.27
509.55	43938.88
509.73	44254.85
509.90	44467.84
510.08	44259.53
510.25	44559.12
510.42	44369.54
510.60	44816.58
510.77	44790.83
510.95	44772.11
511.12	44727.64
511.30	44919.56
511.47	44912.54
511.64	45265.96
511.82	45542.14
511.99	45109.14
512.17	45799.60
512.34	45500.01
512.51	45808.96
512.69	45949.40
512.86	46150.68
513.04	46492.40
513.21	46426.87
513.38	46747.52
513.56	46564.96
513.73	46543.89
513.90	46312.18
514.08	46859.87
514.25	46906.68
514.43	47107.96
514.60	46932.42
514.77	47136.05
514.95	47622.88
515.12	47576.07
515.29	47325.63
515.47	47393.51
515.64	47569.05
515.81	47611.18
515.99	47964.60
516.16	48406.96
516.33	47922.47
516.51	48488.88
516.68	48154.18
516.85	48336.74
517.03	48999.12
517.20	48744.00
517.37	48685.48
517.54	48552.07
517.72	48601.22
517.89	49186.36
518.06	49027.20
518.24	48912.52
518.41	49371.26
518.58	49024.86
518.75	49235.51
518.93	49373.60
519.10	49329.13
519.27	49464.88
519.45	49209.76
519.62	49748.09
519.79	49925.97
519.96	49932.99
520.14	49947.03
520.31	49792.56
520.48	50087.46
520.65	49806.60
520.83	50539.19
521.00	50424.50
521.17	50410.46
521.34	50445.57
521.52	50499.40
521.69	50473.65
521.86	50686.64
522.03	50944.10
522.20	51372.42
522.38	51215.60
522.55	51250.71
522.72	51192.20
522.89	51208.58
523.07	51407.53
523.24	51250.71
523.41	51491.79
523.58	51079.85
523.75	51578.39
523.92	51861.59
524.10	51789.03
524.27	51842.87
524.44	51877.97
524.61	51962.23
524.78	52172.88
524.96	51943.51
525.13	52135.43
525.30	52144.80
525.47	52458.43
525.64	52437.36
525.81	52514.60
525.98	52322.68
526.16	52353.10
526.33	52566.09
526.50	52701.84
526.67	52463.11
526.84	52636.31
527.01	52540.35
527.18	52844.62
527.36	52699.50
527.53	52917.17
527.70	52966.32
527.87	53420.39
528.04	53151.23
528.21	53198.04
528.38	53078.67
528.55	53279.96
528.72	53130.16
528.89	53305.70
529.07	53155.91
529.24	53153.57
529.41	53532.73
529.58	53631.04
529.75	53109.10
529.92	53659.12
530.09	53680.19
530.26	53586.57
530.43	53818.28
530.60	53705.93
530.77	53516.35
530.94	53790.19
531.11	53937.65
531.28	53961.05
531.46	53968.07
531.63	54108.50
531.80	53813.60
531.97	54092.12
532.14	54197.44
532.31	54546.18
532.48	54372.99
532.65	54497.03
532.82	54281.70
532.99	54667.89
533.16	54267.66
533.33	54607.04
533.50	54686.62
533.67	54660.87
533.84	54461.93
534.01	54504.06
534.18	54897.27
534.35	54885.56
534.52	54911.31
534.69	55189.83
534.86	54974.50
535.03	54944.08
535.20	55004.93
535.37	55004.93
535.54	55194.51
535.71	55126.64
535.88	55070.46
536.05	55222.60
536.22	55409.84
536.38	55526.87
536.55	55554.96
536.72	55274.09
536.89	55164.09
537.06	55515.17
537.23	55552.62
537.40	55358.35
537.57	55374.73
537.74	55473.04
537.91	55639.22
538.08	55632.19
538.25	55643.90
538.42	55718.79
538.59	55884.97
538.75	55587.72
538.92	55653.26
539.09	55934.12
539.26	56020.72
539.43	55547.93
539.60	56257.12
539.77	56123.71
539.94	56332.01
540.11	56200.94
540.28	56229.03
540.44	56289.88
540.61	56367.12
540.78	56378.82
540.95	56046.47
541.12	56500.53
541.29	56395.21
541.46	56580.11
541.62	56196.26
541.79	56409.25
541.96	56100.30
542.13	56610.54
542.30	56502.87
542.47	56587.13
542.63	56605.86
542.80	56905.44
542.97	56863.32
543.14	57029.49
543.31	56882.04
543.48	56896.08
543.64	57406.32
543.81	57146.52
543.98	57120.77
544.15	57134.82
544.32	57200.35
544.48	57378.23
544.65	57352.49
544.82	57422.70
544.99	57153.54
545.16	57450.79
545.32	57076.30
545.49	57544.41
545.66	57584.20
545.83	57174.61
546.00	57574.84
546.16	57537.39
546.33	57457.81
546.50	57069.28
546.67	57635.69
546.83	57516.32
547.00	57687.18
547.17	57504.62
547.34	57556.11
547.50	57741.02
547.67	57954.00
547.84	57759.74
548.00	57996.13
548.17	57949.32
548.34	58033.58
548.51	58206.78
548.67	58000.82
548.84	57939.96
549.01	57794.85
549.18	57792.51
549.34	58024.22
549.51	58017.20
549.68	58080.39
549.84	58164.65
550.01	58274.66
550.18	58089.76
550.34	58382.32
550.51	58281.68
550.68	58188.06
550.84	58033.58
551.01	58375.30
551.18	58417.43
551.34	58080.39
551.51	58419.77
551.68	58494.67
551.84	58550.84
552.01	58206.78
552.18	58543.82
552.34	58272.32
552.51	58754.47
552.68	58419.77
552.84	58592.97
553.01	58670.21
553.18	58450.20
553.34	58810.64
553.51	58616.38
553.67	58681.91
553.84	58712.34
554.01	58775.53
554.17	58946.39
554.34	58829.37
554.51	58775.53
554.67	58908.94
554.84	59004.91
555.00	58864.47
555.17	58941.71
555.33	58955.75
555.50	58829.37
555.67	58824.68
555.83	58976.82
556.00	58841.07
556.16	59091.51
556.33	59276.41
556.50	58930.01
556.66	59241.30
556.83	58979.16
556.99	59189.81
557.16	59510.46
557.32	59360.67
557.49	59470.67
557.65	59304.49
557.82	59061.08
557.98	59348.96
558.15	59257.68
558.32	59370.03
558.48	59182.79
558.65	59224.92
558.81	59409.82
558.98	59313.86
559.14	59437.90
559.31	59540.89
559.47	59505.78
559.64	59503.44
559.80	59241.30
559.97	59697.70
560.13	59529.19
560.30	59552.59
560.46	59547.91
560.63	59608.76
560.79	59606.42
560.96	59739.83
561.12	59887.29
561.29	59714.09
561.45	59774.94
561.61	59545.57
561.78	59875.58
561.94	59784.30
562.11	59714.09
562.27	59552.59
562.44	59957.50
562.60	59889.63
562.77	59791.33
562.93	59924.74
563.10	60027.72
563.26	59709.41
563.42	59896.65
563.59	59676.64
563.75	59985.59
563.92	59779.62
564.08	59891.97
564.24	59964.52
564.41	60039.42
564.57	59969.21
564.74	59819.41
564.90	60034.74
565.07	59849.84
565.23	59948.14
565.39	59980.91
565.56	59920.05
565.72	60011.34
565.88	59938.78
566.05	60102.62
566.21	60191.56
566.38	59997.29
566.54	60168.15
566.70	59938.78
566.87	60397.52
567.03	60135.38
567.19	60203.26
567.36	60172.83
567.52	60233.69
567.68	60175.17
567.85	60240.71
568.01	60287.52
568.17	60135.38
568.34	60193.90
568.50	60058.15
568.66	60212.62
568.83	60264.11
568.99	60210.28
569.15	60402.21
569.32	60062.83
569.48	60116.66
569.64	60308.58
569.81	60271.14
569.97	60224.32
570.13	60268.79
570.30	60224.32
570.46	60399.86
570.62	60107.30
570.78	60301.56
570.95	60266.45
571.11	60397.52
571.27	60315.61
571.43	60353.05
571.60	60406.89
571.76	60346.03
571.92	60519.23
572.09	60376.46
572.25	60470.08
572.41	60350.71
572.57	60570.72
572.74	60732.22
572.90	60521.57
573.06	60406.89
573.22	60399.86
573.38	60624.56
573.55	60341.35
573.71	60772.01
573.87	60647.96
574.03	60512.21
574.20	60568.38
574.36	60507.53
574.52	60657.32
574.68	60446.68
574.84	60542.64
575.01	60624.56
575.17	60498.17
575.33	60559.02
575.49	60636.26
575.65	60537.96
575.82	60671.37
575.98	60605.83
576.14	60853.93
576.30	60610.51
576.46	60706.47
576.62	60502.85
576.79	60631.58
576.95	60432.63
577.11	60732.22
577.27	60549.66
577.43	60636.26
577.59	60729.88
577.75	60610.51
577.92	60533.28
578.08	60669.03
578.24	60823.50
578.40	60748.60
578.56	60853.93
578.72	60603.49
578.88	60947.55
579.04	60973.30
579.21	60619.88
579.37	60823.50
579.53	60694.77
579.69	60542.64
579.85	60612.85
580.01	60683.07
580.17	60797.76
580.33	60818.82
580.49	60879.67
580.65	60662.00
580.82	60601.15
580.98	60772.01
581.14	60465.40
581.30	60898.40
581.46	60828.18
581.62	61017.77
581.78	60584.77
581.94	60734.56
582.10	60694.77
582.26	60816.48
582.42	60575.40
582.58	60823.50
582.74	60772.01
582.90	60755.63
583.06	60811.80
583.22	60739.24
583.38	60776.69
583.54	60870.31
583.70	61052.87
583.86	61010.74
584.02	60633.92
584.18	60992.02
584.34	60856.27
584.50	60725.20
584.66	60800.10
584.82	60715.84
584.98	60996.70
585.14	60973.30
585.30	60685.41
585.46	60912.44
585.62	60753.29
585.78	60945.21
585.94	60748.60
586.10	60867.97
586.26	60889.04
586.42	60898.40
586.58	60963.93
586.74	60865.63
586.90	60837.54
587.06	60846.91
587.22	61003.72
587.38	60914.78
587.54	61090.32
587.70	61027.13
587.86	60917.12
588.02	60872.65
588.18	61022.45
588.34	61029.47
