SpectraSuite Data File
++++++++++++++++++++++++++++++++++++
Date: Fri Oct 25 11:26:06 EDT 2013
User: price-jones
Dark Spectrum Present: No
Reference Spectrum Present: No
Number of Sampled Component Spectra: 1
Spectrometers: USB2+H05261
Integration Time (usec): 100000 (USB2+H05261)
Spectra Averaged: 1 (USB2+H05261)
Boxcar Smoothing: 0 (USB2+H05261)
Correct for Electrical Dark: No (USB2+H05261)
Strobe/Lamp Enabled: No (USB2+H05261)
Correct for Detector Non-linearity: No (USB2+H05261)
Correct for Stray Light: No (USB2+H05261)
Number of Pixels in Processed Spectrum: 2048
>>>>>Begin Processed Spectral Data<<<<<
365.73	294.91
365.92	294.91
366.12	294.91
366.32	238.73
366.52	126.39
366.72	217.67
366.91	163.84
367.11	145.11
367.31	100.64
367.51	65.54
367.70	131.07
367.90	81.92
368.10	84.26
368.30	173.20
368.49	149.79
368.69	182.56
368.89	152.13
369.09	124.05
369.28	208.31
369.48	212.99
369.68	147.45
369.87	163.84
370.07	231.71
370.27	255.12
370.47	355.76
370.66	538.32
370.86	692.80
371.06	704.50
371.25	678.76
371.45	662.37
371.65	624.92
371.84	657.69
372.04	664.71
372.24	751.31
372.44	643.65
372.63	725.57
372.83	734.93
373.03	725.57
373.22	753.65
373.42	835.57
373.62	828.55
373.81	784.08
374.01	866.00
374.21	793.44
374.40	870.68
374.60	891.74
374.79	812.17
374.99	849.61
375.19	847.27
375.38	851.96
375.58	842.59
375.78	851.96
375.97	875.36
376.17	828.55
376.37	821.53
376.56	919.83
376.76	833.23
376.95	821.53
377.15	905.79
377.35	917.49
377.54	898.77
377.74	887.06
377.93	819.19
378.13	985.37
378.33	980.68
378.52	990.05
378.72	870.68
378.91	912.81
379.11	952.60
379.31	884.72
379.50	947.92
379.70	980.68
379.89	919.83
380.09	985.37
380.28	964.30
380.48	1020.47
380.68	983.02
380.87	999.41
381.07	957.28
381.26	1064.94
381.46	997.07
381.65	1027.50
381.85	992.39
382.04	1011.11
382.24	1093.03
382.43	1008.77
382.63	1177.29
382.83	1060.26
383.02	1048.56
383.22	1149.20
383.41	1137.50
383.61	1160.91
383.80	1053.24
384.00	1123.46
384.19	1144.52
384.39	1109.41
384.58	1200.69
384.78	1144.52
384.97	1158.57
385.17	1172.61
385.36	1179.63
385.56	1116.44
385.75	1114.10
385.95	1207.72
386.14	1252.19
386.34	1214.74
386.53	1123.46
386.72	1184.31
386.92	1294.32
387.11	1205.38
387.31	1238.14
387.50	1266.23
387.70	1226.44
387.89	1315.38
388.09	1198.35
388.28	1254.53
388.48	1210.06
388.67	1345.81
388.86	1320.06
389.06	1317.72
389.25	1331.76
389.45	1350.49
389.64	1291.98
389.84	1324.74
390.03	1385.60
390.22	1441.77
390.42	1418.36
390.61	1507.30
390.81	1411.34
391.00	1472.20
391.19	1425.39
391.39	1406.66
391.58	1502.62
391.78	1359.85
391.97	1521.35
392.16	1465.18
392.36	1504.96
392.55	1441.77
392.75	1469.86
392.94	1500.28
393.13	1530.71
393.33	1549.43
393.52	1575.18
393.71	1605.61
393.91	1500.28
394.10	1528.37
394.29	1645.40
394.49	1579.86
394.68	1605.61
394.88	1556.46
395.07	1682.85
395.26	1673.48
395.46	1619.65
395.65	1703.91
395.84	1657.10
396.04	1799.87
396.23	1692.21
396.42	1743.70
396.62	1767.10
396.81	1792.85
397.00	1788.17
397.19	1760.08
397.39	1834.98
397.58	1792.85
397.77	1804.55
397.97	1837.32
398.16	1839.66
398.35	1774.13
398.55	1909.88
398.74	1975.41
398.93	1886.47
399.12	1940.30
399.32	1837.32
399.51	1919.24
399.70	2031.58
399.90	2005.84
400.09	1980.09
400.28	1952.01
400.47	1980.09
400.67	2214.15
400.86	2052.65
401.05	2045.63
401.24	2113.50
401.44	2129.89
401.63	2111.16
401.82	2115.84
402.01	2125.21
402.21	2165.00
402.40	2310.11
402.59	2225.85
402.78	2277.34
402.97	2174.36
403.17	2335.85
403.36	2286.70
403.55	2228.19
403.74	2354.58
403.93	2267.98
404.13	2338.20
404.32	2438.84
404.51	2480.97
404.70	2438.84
404.89	2375.64
405.09	2480.97
405.28	2462.24
405.47	2527.78
405.66	2457.56
405.85	2478.63
406.05	2513.74
406.24	2562.89
406.43	2614.38
406.62	2724.38
406.81	2722.04
407.00	2658.85
407.20	2626.08
407.39	2597.99
407.58	2588.63
407.77	2850.77
407.96	2792.26
408.15	2757.15
408.34	2782.90
408.54	2827.37
408.73	2768.85
408.92	2853.11
409.11	2864.82
409.30	2878.86
409.49	2988.86
409.68	2832.05
409.87	2939.71
410.07	2991.20
410.26	2988.86
410.45	2899.92
410.64	3131.64
410.83	2937.37
411.02	3166.74
411.21	3169.09
411.40	3103.55
411.59	3227.60
411.78	3150.36
411.98	3040.36
412.17	3239.30
412.36	3213.56
412.55	3396.12
412.74	3440.59
412.93	3358.67
413.12	3447.61
413.31	3637.19
413.50	3534.21
413.69	3527.19
413.88	3543.57
414.07	3693.37
414.26	3630.17
414.45	3688.68
414.64	3733.15
414.83	3761.24
415.02	3735.50
415.22	3836.14
415.41	3838.48
415.60	3726.13
415.79	3836.14
415.98	3974.23
416.17	3941.46
416.36	3948.48
416.55	3927.42
416.74	4058.49
416.93	4140.41
417.12	4051.47
417.31	4128.70
417.50	4184.88
417.69	4229.35
417.88	4386.16
418.07	4236.37
418.26	4124.02
418.45	4402.55
418.64	4348.72
418.83	4322.97
419.02	4414.25
419.21	4442.34
419.39	4463.40
419.58	4362.76
419.77	4496.17
419.96	4718.52
420.15	4557.02
420.34	4655.33
420.53	4493.83
420.72	4727.88
420.91	4645.96
421.10	4777.03
421.29	4685.75
421.48	4730.22
421.67	4826.18
421.86	4671.71
422.05	4683.41
422.24	4765.33
422.43	4816.82
422.61	4842.57
422.80	5132.79
422.99	4816.82
423.18	4926.83
423.37	4968.96
423.56	4908.10
423.75	5025.13
423.94	4903.42
424.13	4704.48
424.32	4748.95
424.50	5039.17
424.69	5088.32
424.88	4980.66
425.07	4961.94
425.26	4868.31
425.45	4884.70
425.64	4877.68
425.83	4809.80
426.01	4994.70
426.20	5048.54
426.39	5081.30
426.58	5053.22
426.77	4868.31
426.96	5100.03
427.15	5069.60
427.33	5146.84
427.52	5132.79
427.71	5228.76
427.90	5224.08
428.09	5074.28
428.28	5364.51
428.46	5444.09
428.65	5273.23
428.84	5570.48
429.03	5502.60
429.22	5289.61
429.40	5446.43
429.59	5476.85
429.78	5355.15
429.97	5249.82
430.16	5509.62
430.34	5715.59
430.53	5589.20
430.72	5748.36
430.91	5579.84
431.10	5507.28
431.28	5666.44
431.47	5799.85
431.66	5643.03
431.85	5696.86
432.03	6022.20
432.22	6090.07
432.41	5982.41
432.60	5881.77
432.79	5930.92
432.97	5961.34
433.16	6073.69
433.35	5914.53
433.54	6054.97
433.72	6209.44
433.91	6043.26
434.10	6143.91
434.28	6066.67
434.47	6064.33
434.66	6300.72
434.85	6291.36
435.03	6375.62
435.22	6328.81
435.41	6642.44
435.59	6579.25
435.78	6441.15
435.97	6539.46
436.16	6389.66
436.34	6394.34
436.53	6413.07
436.72	6621.38
436.90	6452.86
437.09	6670.53
437.28	6464.56
437.46	6504.35
437.65	6703.29
437.84	6920.96
438.02	6729.04
438.21	6736.06
438.40	6712.66
438.58	6979.48
438.77	6906.92
438.96	6869.47
439.14	7045.01
439.33	7016.93
439.52	7328.22
439.70	7300.13
439.89	7267.36
440.08	7281.41
440.26	7372.69
440.45	7351.62
440.63	7548.23
440.82	7627.81
441.01	7545.89
441.19	7765.90
441.38	7625.47
441.57	7810.37
441.75	7885.26
441.94	7859.52
442.12	7798.66
442.31	7936.76
442.50	7971.86
442.68	8004.63
442.87	7878.24
443.05	8002.29
443.24	8262.09
443.43	8081.87
443.61	8018.68
443.80	8383.80
443.98	7985.91
444.17	7845.48
444.35	8212.94
444.54	8365.07
444.73	8325.29
444.91	8320.60
445.10	8346.35
445.28	8498.49
445.47	8248.05
445.65	8409.54
445.84	8372.10
446.02	8575.72
446.21	8437.63
446.39	8365.07
446.58	8519.55
446.77	8552.32
446.95	8259.75
447.14	8346.35
447.32	8521.89
447.51	8645.94
447.69	8535.93
447.88	8402.52
448.06	8503.17
448.25	8416.57
448.43	8620.19
448.62	8692.75
448.80	8704.45
448.99	8781.69
449.17	8732.54
449.36	8753.60
449.54	8936.17
449.73	8823.82
449.91	8877.65
450.10	8847.22
450.28	9172.56
450.46	8879.99
450.65	9142.13
450.83	9104.68
451.02	9163.20
451.20	9219.37
451.39	9174.90
451.57	8814.46
451.76	9050.85
451.94	9149.15
452.13	9324.69
452.31	9310.65
452.49	8990.00
452.68	9324.69
452.86	9343.42
453.05	9479.17
453.23	9540.02
453.42	9242.78
453.60	9376.19
453.78	9320.01
453.97	9205.33
454.15	9280.22
454.34	9355.12
454.52	9645.35
454.70	9628.96
454.89	9778.76
455.07	9837.27
455.26	9762.37
455.44	10005.79
455.62	9628.96
455.81	9806.84
455.99	10031.54
456.17	9982.38
456.36	9710.88
456.54	10211.76
456.73	10373.25
456.91	10352.19
457.09	10464.54
457.28	10452.83
457.46	10501.98
457.64	10518.37
457.83	10562.84
458.01	10305.38
458.19	10604.97
458.38	10616.67
458.56	10724.33
458.74	10848.38
458.93	10691.57
459.11	10785.19
459.29	10675.18
459.48	10731.36
459.66	10911.58
459.84	10815.62
460.03	11096.48
460.21	10913.92
460.39	10930.30
460.57	10934.98
460.76	11183.08
460.94	11126.91
461.12	11267.34
461.31	11218.19
461.49	11133.93
461.67	11197.12
461.85	11793.96
462.04	11375.00
462.22	11793.96
462.40	11602.04
462.59	11487.35
462.77	11438.20
462.95	11690.98
463.13	11529.48
463.32	11566.93
463.50	11571.61
463.68	11620.76
463.86	11698.00
464.05	11552.88
464.23	11740.13
464.41	11817.36
464.59	11592.67
464.78	12093.55
464.96	11936.73
465.14	11850.13
465.32	11974.18
465.50	12088.87
465.69	12046.74
465.87	12128.66
466.05	12187.17
466.23	12123.98
466.41	12322.92
466.60	12301.86
466.78	12184.83
466.96	12081.85
467.14	12414.20
467.32	12311.22
467.51	12510.16
467.69	12243.34
467.87	12538.25
468.05	12762.94
468.23	12610.81
468.41	12603.78
468.60	12587.40
468.78	12802.73
468.96	12596.76
469.14	12711.45
469.32	12886.99
469.50	12669.32
469.69	12875.29
469.87	13249.77
470.05	13043.81
470.23	13069.55
470.41	13163.17
470.59	13298.92
470.77	13109.34
470.95	13149.13
471.14	13521.27
471.32	13195.94
471.50	13317.65
471.68	13635.96
471.86	13778.73
472.04	13764.69
472.22	13902.78
472.40	13547.02
472.58	14050.24
472.77	13872.36
472.95	14108.75
473.13	14712.61
473.31	14059.60
473.49	14321.74
473.67	14164.92
473.85	14057.26
474.03	14693.88
474.21	14373.23
474.39	14724.31
474.57	14696.22
474.75	14696.22
474.93	15096.46
475.12	14972.41
475.30	14977.09
475.48	14972.41
475.66	15021.56
475.84	15044.96
476.02	15339.87
476.20	15384.34
476.38	15861.81
476.56	15772.87
476.74	15939.05
476.92	15850.11
477.10	15712.02
477.28	16215.23
477.46	16348.64
477.64	16182.46
477.82	16383.75
478.00	16643.55
478.18	16578.01
478.36	17018.04
478.54	17195.92
478.72	16884.62
478.90	17507.21
479.08	17598.49
479.26	17689.77
479.44	17521.25
479.62	18036.17
479.80	17846.58
479.98	17965.95
480.16	18700.88
480.34	18209.37
480.52	18621.30
480.70	18775.78
480.88	18525.34
481.06	18642.37
481.24	18717.26
481.41	18944.30
481.59	19234.52
481.77	19536.45
481.95	19658.16
482.13	19768.16
482.31	19386.66
482.49	20177.76
482.67	19934.34
482.85	20135.63
483.03	20517.14
483.21	20973.54
483.39	21083.55
483.57	20648.21
483.74	20926.73
483.92	21535.27
484.10	20924.39
484.28	21675.70
484.46	21914.44
484.64	22377.86
484.82	21921.46
485.00	22127.42
485.18	22490.21
485.35	22710.22
485.53	22782.77
485.71	22977.04
485.89	23257.90
486.07	23363.23
486.25	23428.76
486.43	23573.88
486.61	23522.38
486.78	24299.44
486.96	24322.85
487.14	24685.63
487.32	24776.91
487.50	24699.67
487.68	24781.59
487.85	25380.77
488.03	25706.10
488.21	26050.16
488.39	25804.41
488.57	25944.84
488.75	25942.50
488.92	26445.71
489.10	26513.59
489.28	26501.89
489.46	27278.94
489.64	27028.51
489.81	27840.67
489.99	27625.34
490.17	27995.15
490.35	28158.99
490.53	27667.47
490.70	28484.32
490.88	28158.99
491.06	28521.77
491.24	28854.12
491.41	29144.35
491.59	29142.01
491.77	29432.24
491.95	29645.23
492.13	29666.29
492.30	29795.02
492.48	30251.42
492.66	30075.88
492.84	30326.32
493.01	30487.82
493.19	30576.76
493.37	30724.21
493.54	31215.72
493.72	31400.63
493.90	31168.91
494.08	31861.71
494.25	32011.51
494.43	31929.59
494.61	32037.25
494.79	32318.12
494.96	32367.27
495.14	32521.74
495.32	32905.59
495.49	33181.77
495.67	33027.30
495.85	33153.69
496.02	33460.30
496.20	33795.00
496.38	33914.36
496.55	34286.51
496.73	34352.04
496.91	34185.86
497.09	34417.58
497.26	34611.84
497.44	35140.80
497.62	34890.37
497.79	35810.20
497.97	35325.71
498.14	35915.52
498.32	36566.19
498.50	35943.61
498.67	36336.82
498.85	36437.46
499.03	36662.15
499.20	36987.49
499.38	36769.82
499.56	36687.90
499.73	37376.01
499.91	37483.68
500.08	37486.02
500.26	37088.13
500.44	37153.66
500.61	37640.50
500.79	37303.46
500.97	37743.48
501.14	38506.49
501.32	38593.09
501.49	38190.52
501.67	38630.54
501.84	39108.01
502.02	38789.70
502.20	38850.55
502.37	39157.16
502.55	39091.63
502.72	39459.09
502.90	39234.40
503.07	39426.32
503.25	39739.96
503.43	39648.68
503.60	39777.40
503.78	40025.50
503.95	40013.80
504.13	40191.68
504.30	40708.94
504.48	40294.66
504.65	40800.22
504.83	40987.46
505.01	41207.47
505.18	41078.74
505.36	41359.61
505.53	41509.40
505.71	41769.20
505.88	41687.28
506.06	41539.83
506.23	41841.76
506.41	41947.08
506.58	41886.23
506.76	42403.49
506.93	42012.62
507.11	42316.89
507.28	42305.18
507.46	42476.04
507.63	43021.39
507.81	43325.66
507.98	43030.75
508.16	42667.97
508.33	43339.70
508.50	43185.22
508.68	43723.55
508.85	43615.88
509.03	43817.17
509.20	43791.42
509.38	44044.20
509.55	44233.78
509.73	44524.01
509.90	44151.87
510.08	44406.98
510.25	45031.91
510.42	44685.51
510.60	44832.96
510.77	44776.79
510.95	45418.10
511.12	44758.06
511.30	44926.58
511.47	45207.45
511.64	45385.33
511.82	45923.65
511.99	45378.31
512.17	45933.01
512.34	45659.17
512.51	46176.43
512.69	46579.00
512.86	45918.97
513.04	46649.22
513.21	46703.05
513.38	46265.37
513.56	46735.82
513.73	46876.25
513.90	46564.96
514.08	47065.83
514.25	47414.57
514.43	47241.37
514.60	47515.22
514.77	47133.71
514.95	47695.44
515.12	47407.55
515.29	47381.80
515.47	47980.98
515.64	47922.47
515.81	47845.23
515.99	47889.70
516.16	48268.87
516.33	48203.33
516.51	48980.39
516.68	48533.35
516.85	48507.60
517.03	48729.95
517.20	48751.02
517.37	48704.21
517.54	48980.39
517.72	48708.89
517.89	48701.87
518.06	49258.91
518.24	49284.66
518.41	48903.15
518.58	49205.08
518.75	49256.57
518.93	49535.10
519.10	49385.30
519.27	49717.66
519.45	49736.38
519.62	49743.41
519.79	49811.28
519.96	49703.62
520.14	50274.71
520.31	49991.50
520.48	49888.52
520.65	50143.64
520.83	50513.44
521.00	50911.33
521.17	50251.30
521.34	50721.75
521.52	50684.30
521.69	50944.10
521.86	51166.45
522.03	51306.88
522.20	51316.25
522.38	51285.82
522.55	51276.46
522.72	51271.78
522.89	51227.31
523.07	51789.03
523.24	51337.31
523.41	51468.38
523.58	51405.19
523.75	51784.35
523.92	51695.41
524.10	51470.72
524.27	52051.17
524.44	52025.43
524.61	51749.24
524.78	51903.72
524.96	52247.78
525.13	51966.91
525.30	52308.63
525.47	52582.48
525.64	52191.61
525.81	52715.89
525.98	52680.78
526.16	52303.95
526.33	52428.00
526.50	53071.65
526.67	52746.31
526.84	52605.88
527.01	52968.66
527.18	53106.76
527.36	52893.77
527.53	52678.44
527.70	53209.74
527.87	53111.44
528.04	53057.60
528.21	53502.31
528.38	53207.40
528.55	53476.56
528.72	53506.99
528.89	53635.72
529.07	53148.88
529.24	53354.85
529.41	53514.01
529.58	53607.63
529.75	53825.30
529.92	53780.83
530.09	53677.85
530.26	53769.13
530.43	53881.47
530.60	53862.75
530.77	53750.40
530.94	53874.45
531.11	53780.83
531.28	54033.61
531.46	53804.24
531.63	54277.02
531.80	53965.73
531.97	54181.06
532.14	54225.53
532.31	54375.33
532.48	54550.87
532.65	54305.11
532.82	54298.09
532.99	54616.40
533.16	54368.30
533.33	54707.68
533.50	54871.52
533.67	54518.10
533.84	54672.57
534.01	54611.72
534.18	54908.97
534.35	55220.26
534.52	55133.66
534.69	55100.89
534.86	55231.96
535.03	54796.62
535.20	55330.26
535.37	55451.97
535.54	55554.96
535.71	55131.32
535.88	55227.28
536.05	55381.76
536.22	55545.59
536.38	55416.86
536.55	55587.72
536.72	55150.04
536.89	55615.81
537.06	55402.82
537.23	55627.51
537.40	55662.62
537.57	55676.66
537.74	55889.65
537.91	55585.38
538.08	55943.48
538.25	55564.32
538.42	56009.02
538.59	55835.82
538.75	55810.07
538.92	56093.28
539.09	56126.05
539.26	55924.76
539.43	56182.22
539.60	56287.54
539.77	56076.90
539.94	56348.40
540.11	56479.47
540.28	56566.07
540.44	56236.05
540.61	56456.06
540.78	56264.14
540.95	56488.83
541.12	56198.60
541.29	56362.44
541.46	56458.40
541.62	56619.90
541.79	56818.84
541.96	56236.05
542.13	56580.11
542.30	56556.70
542.47	56736.93
542.63	56907.79
542.80	56886.72
542.97	56996.73
543.14	57123.11
543.31	57095.03
543.48	57062.26
543.64	57396.96
543.81	57301.00
543.98	57195.67
544.15	57228.44
544.32	57361.85
544.48	57511.64
544.65	57212.06
544.82	57602.92
544.99	57275.25
545.16	57387.60
545.32	57235.46
545.49	57586.54
545.66	57551.43
545.83	57467.17
546.00	57455.47
546.16	57565.48
546.33	57471.85
546.50	57277.59
546.67	57593.56
546.83	57329.08
547.00	57876.77
547.17	57764.42
547.34	57701.23
547.50	57729.31
547.67	58052.31
547.84	58089.76
548.00	58066.35
548.17	58176.36
548.34	58061.67
548.51	58188.06
548.67	58045.29
548.84	58148.27
549.01	58113.16
549.18	57907.19
549.34	58113.16
549.51	58260.62
549.68	58284.02
549.84	58286.36
550.01	58387.00
550.18	58363.60
550.34	58489.99
550.51	58522.76
550.68	58176.36
550.84	58354.24
551.01	58522.76
551.18	58408.07
551.34	58349.56
551.51	58384.66
551.68	58604.67
551.84	58574.25
552.01	58286.36
552.18	58525.10
552.34	58440.84
552.51	58618.72
552.68	58300.40
552.84	58585.95
553.01	58892.56
553.18	58820.00
553.34	58649.14
553.51	58749.79
553.67	58717.02
553.84	58712.34
554.01	58969.80
554.17	58820.00
554.34	59049.38
554.51	59128.95
554.67	58986.18
554.84	58946.39
555.00	59098.53
555.17	58911.28
555.33	58890.22
555.50	59030.65
555.67	59009.59
555.83	59056.40
556.00	59114.91
556.16	59365.35
556.33	59414.50
556.50	59236.62
556.66	59377.05
556.83	59044.69
556.99	59583.02
557.16	59451.95
557.32	59526.84
557.49	59568.97
557.65	59344.28
557.82	59143.00
557.98	59437.90
558.15	59463.65
558.32	59487.06
558.48	59316.20
558.65	59374.71
558.81	59538.55
558.98	59480.03
559.14	59510.46
559.31	59505.78
559.47	59728.13
559.64	59571.32
559.80	59561.95
559.97	59728.13
560.13	59526.84
560.30	59592.38
560.46	59765.58
560.63	59889.63
560.79	59840.48
560.96	59744.51
561.12	59613.44
561.29	59796.01
561.45	59564.29
561.61	59833.46
561.78	59810.05
561.94	59618.13
562.11	59938.78
562.27	59936.44
562.44	60016.02
562.60	59807.71
562.77	59814.73
562.93	59906.01
563.10	60135.38
563.26	59653.23
563.42	59978.57
563.59	59957.50
563.75	59828.77
563.92	60149.43
564.08	59861.54
564.24	59870.90
564.41	60062.83
564.57	60088.57
564.74	60074.53
564.90	60140.07
565.07	60212.62
565.23	60053.47
565.39	60023.04
565.56	60149.43
565.72	60147.09
565.88	60032.40
566.05	60161.13
566.21	60114.32
566.38	60219.64
566.54	60170.49
566.70	60273.48
566.87	60294.54
567.03	60161.13
567.19	60369.44
567.36	60245.39
567.52	60409.23
567.68	60495.83
567.85	60306.24
568.01	60388.16
568.17	60088.57
568.34	60362.42
568.50	60282.84
568.66	60369.44
568.83	60453.70
568.99	60219.64
569.15	60552.00
569.32	60399.86
569.48	60252.41
569.64	60430.29
569.81	60498.17
569.97	60374.12
570.13	60416.25
570.30	60259.43
570.46	60390.50
570.62	60427.95
570.78	60376.46
570.95	60313.26
571.11	60526.25
571.27	60430.29
571.43	60369.44
571.60	60392.84
571.76	60463.06
571.92	60411.57
572.09	60633.92
572.25	60673.71
572.41	60584.77
572.57	60264.11
572.74	60669.03
572.90	60629.24
573.06	60669.03
573.22	60535.62
573.38	60544.98
573.55	60633.92
573.71	60928.83
573.87	60701.79
574.03	60610.51
574.20	60619.88
574.36	60622.22
574.52	60664.35
574.68	60729.88
574.84	60729.88
575.01	60867.97
575.17	60671.37
575.33	60734.56
575.49	60409.23
575.65	60507.53
575.82	60757.97
575.98	60743.92
576.14	60970.96
576.30	60568.38
576.46	60662.00
576.62	60640.94
576.79	60626.90
576.95	60584.77
577.11	60821.16
577.27	60748.60
577.43	61010.74
577.59	60619.88
577.75	60657.32
577.92	60662.00
578.08	60743.92
578.24	60912.44
578.40	61010.74
578.56	60825.84
578.72	60858.61
578.88	60877.33
579.04	60870.31
579.21	60821.16
579.37	60931.17
579.53	61010.74
579.69	60701.79
579.85	60683.07
580.01	60741.58
580.17	60523.91
580.33	60743.92
580.49	60963.93
580.65	60898.40
580.82	60816.48
580.98	60650.30
581.14	60694.77
581.30	60924.14
581.46	60921.80
581.62	61069.26
581.78	60722.86
581.94	60821.16
582.10	60802.44
582.26	60725.20
582.42	60905.42
582.58	60989.68
582.74	60701.79
582.90	60800.10
583.06	60811.80
583.22	60706.47
583.38	60818.82
583.54	61024.79
583.70	60858.61
583.86	60947.55
584.02	61038.83
584.18	60931.17
584.34	60907.76
584.50	60999.04
584.66	60959.25
584.82	60750.94
584.98	60858.61
585.14	60977.98
585.30	60884.36
585.46	60905.42
585.62	60903.08
585.78	61132.45
585.94	60683.07
586.10	61017.77
586.26	60928.83
586.42	61059.90
586.58	60947.55
586.74	60994.36
586.90	61132.45
587.06	60837.54
587.22	61095.00
587.38	61013.08
587.54	61146.50
587.70	61013.08
587.86	61160.54
588.02	61069.26
588.18	61069.26
588.34	61083.30
588.49	61017.77
