SpectraSuite Data File
++++++++++++++++++++++++++++++++++++
Date: Fri Oct 25 10:47:43 EDT 2013
User: price-jones
Dark Spectrum Present: No
Reference Spectrum Present: No
Number of Sampled Component Spectra: 1
Spectrometers: USB2+H05261
Integration Time (usec): 100000 (USB2+H05261)
Spectra Averaged: 1 (USB2+H05261)
Boxcar Smoothing: 0 (USB2+H05261)
Correct for Electrical Dark: No (USB2+H05261)
Strobe/Lamp Enabled: No (USB2+H05261)
Correct for Detector Non-linearity: No (USB2+H05261)
Correct for Stray Light: No (USB2+H05261)
Number of Pixels in Processed Spectrum: 2048
>>>>>Begin Processed Spectral Data<<<<<
365.73	142.77
365.92	142.77
366.12	142.77
366.32	39.79
366.52	30.43
366.72	147.45
366.91	53.83
367.11	58.51
367.31	16.38
367.51	0.00
367.70	30.43
367.90	32.77
368.10	23.41
368.30	42.13
368.49	9.36
368.69	86.60
368.89	63.19
369.09	42.13
369.28	74.90
369.48	72.56
369.68	105.32
369.87	170.86
370.07	86.60
370.27	105.32
370.47	114.69
370.66	421.30
370.86	400.23
371.06	402.57
371.25	395.55
371.45	327.68
371.65	458.74
371.84	423.64
372.04	461.09
372.24	442.36
372.44	489.17
372.63	528.96
372.83	526.62
373.03	479.81
373.22	395.55
373.42	552.37
373.62	491.51
373.81	557.05
374.01	552.37
374.21	550.03
374.40	531.30
374.60	627.26
374.79	629.60
374.99	531.30
375.19	559.39
375.38	547.69
375.58	578.11
375.78	585.13
375.97	624.92
376.17	545.34
376.37	573.43
376.56	594.50
376.76	655.35
376.95	592.16
377.15	592.16
377.35	589.82
377.54	624.92
377.74	723.23
377.93	564.07
378.13	664.71
378.33	685.78
378.52	580.45
378.72	620.24
378.91	622.58
379.11	634.29
379.31	573.43
379.50	620.24
379.70	589.82
379.89	695.14
380.09	608.54
380.28	713.86
380.48	716.20
380.68	660.03
380.87	603.86
381.07	664.71
381.26	587.47
381.46	627.26
381.65	653.01
381.85	596.84
382.04	699.82
382.24	699.82
382.43	690.46
382.63	760.67
382.83	709.18
383.02	697.48
383.22	739.61
383.41	676.41
383.61	704.50
383.80	662.37
384.00	718.54
384.19	744.29
384.39	758.33
384.58	786.42
384.78	807.48
384.97	807.48
385.17	741.95
385.36	748.97
385.56	765.36
385.75	725.57
385.95	748.97
386.14	751.31
386.34	744.29
386.53	770.04
386.72	770.04
386.92	854.30
387.11	800.46
387.31	791.10
387.50	861.32
387.70	814.51
387.89	866.00
388.09	685.78
388.28	784.08
388.48	809.83
388.67	795.78
388.86	919.83
389.06	835.57
389.25	889.40
389.45	887.06
389.64	805.14
389.84	835.57
390.03	901.11
390.22	830.89
390.42	880.04
390.61	985.37
390.81	884.72
391.00	922.17
391.19	1027.50
391.39	922.17
391.58	931.53
391.78	1001.75
391.97	863.66
392.16	931.53
392.36	1015.79
392.55	971.32
392.75	1053.24
392.94	968.98
393.13	926.85
393.33	971.32
393.52	1006.43
393.71	947.92
393.91	1001.75
394.10	1090.69
394.29	985.37
394.49	1046.22
394.68	1104.73
394.88	1142.18
395.07	1116.44
395.26	1104.73
395.46	1053.24
395.65	1090.69
395.84	1149.20
396.04	1153.88
396.23	1196.01
396.42	1125.80
396.62	1095.37
396.81	1181.97
397.00	1193.67
397.19	1205.38
397.39	1205.38
397.58	1266.23
397.77	1217.08
397.97	1301.34
398.16	1245.16
398.35	1277.93
398.55	1224.10
398.74	1289.64
398.93	1376.24
399.12	1142.18
399.32	1378.58
399.51	1317.72
399.70	1385.60
399.90	1352.83
400.09	1277.93
400.28	1401.98
400.47	1394.96
400.67	1399.64
400.86	1409.00
401.05	1439.43
401.24	1425.39
401.44	1614.97
401.63	1383.26
401.82	1446.45
402.01	1446.45
402.21	1537.73
402.40	1544.75
402.59	1554.12
402.78	1523.69
402.97	1519.01
403.17	1528.37
403.36	1509.65
403.55	1544.75
403.74	1675.82
403.93	1610.29
404.13	1507.30
404.32	1645.40
404.51	1600.93
404.70	1619.65
404.89	1647.74
405.09	1654.76
405.28	1750.72
405.47	1708.59
405.66	1647.74
405.85	1755.40
406.05	1629.01
406.24	1802.21
406.43	1687.53
406.62	1760.08
406.81	1877.11
407.00	1874.77
407.20	1720.29
407.39	1811.57
407.58	1884.13
407.77	1905.20
407.96	1942.64
408.15	1942.64
408.34	2022.22
408.54	2015.20
408.73	2064.35
408.92	1966.05
409.11	2012.86
409.30	1994.14
409.49	1994.14
409.68	1956.69
409.87	1921.58
410.07	2101.80
410.26	2050.31
410.45	2057.33
410.64	2017.54
410.83	2256.28
411.02	2162.66
411.21	2183.72
411.40	2221.17
411.59	2214.15
411.78	2218.83
411.98	2307.77
412.17	2265.64
412.36	2352.24
412.55	2387.35
412.74	2523.10
412.93	2333.51
413.12	2417.77
413.31	2443.52
413.50	2417.77
413.69	2530.12
413.88	2544.16
414.07	2562.89
414.26	2544.16
414.45	2623.74
414.64	2555.86
414.83	2633.10
415.02	2689.28
415.22	2710.34
415.41	2759.49
415.60	2696.30
415.79	2771.19
415.98	2757.15
416.17	2768.85
416.36	2792.26
416.55	2960.78
416.74	2902.26
416.93	2909.29
417.12	2794.60
417.31	2890.56
417.50	2979.50
417.69	3033.33
417.88	2993.55
418.07	3030.99
418.26	3000.57
418.45	3059.08
418.64	3232.28
418.83	3239.30
419.02	3171.43
419.21	3152.70
419.39	3187.81
419.58	3124.62
419.77	3236.96
419.96	3232.28
420.15	3379.73
420.34	3164.40
420.53	3229.94
420.72	3375.05
420.91	3201.85
421.10	3342.28
421.29	3473.36
421.48	3330.58
421.67	3328.24
421.86	3473.36
422.05	3543.57
422.24	3412.50
422.43	3438.25
422.61	3386.76
422.80	3463.99
422.99	3534.21
423.18	3510.80
423.37	3597.40
423.56	3606.77
423.75	3513.14
423.94	3545.91
424.13	3304.84
424.32	3243.98
424.50	3466.33
424.69	3597.40
424.88	3604.42
425.07	3508.46
425.26	3538.89
425.45	3557.61
425.64	3630.17
425.83	3592.72
426.01	3499.10
426.20	3510.80
426.39	3576.34
426.58	3574.00
426.77	3510.80
426.96	3597.40
427.15	3639.53
427.33	3604.42
427.52	3517.83
427.71	3613.79
427.90	3545.91
428.09	3768.26
428.28	3688.68
428.46	3747.20
428.65	3758.90
428.84	3861.88
429.03	3854.86
429.22	3707.41
429.40	3765.92
429.59	3763.58
429.78	3588.04
429.97	3639.53
430.16	3791.67
430.34	3894.65
430.53	3749.54
430.72	3882.95
430.91	3843.16
431.10	3852.52
431.28	4112.32
431.47	3978.91
431.66	4147.43
431.85	4016.36
432.03	4173.18
432.22	4112.32
432.41	4126.36
432.60	4173.18
432.79	4152.11
432.97	4264.46
433.16	4166.15
433.35	4032.74
433.54	4135.73
433.72	4205.94
433.91	4264.46
434.10	4344.03
434.28	4334.67
434.47	4308.93
434.66	4374.46
434.85	4255.09
435.03	4191.90
435.22	4388.50
435.41	4526.60
435.59	4440.00
435.78	4454.04
435.97	4407.23
436.16	4542.98
436.34	4528.94
436.53	4617.88
436.72	4622.56
436.90	4477.44
437.09	4645.96
437.28	4528.94
437.46	4585.11
437.65	4631.92
437.84	4669.37
438.02	4589.79
438.21	4627.24
438.40	4720.86
438.58	4779.37
438.77	4795.76
438.96	4758.31
439.14	5011.09
439.33	4997.04
439.52	4933.85
439.70	5095.35
439.89	5046.20
440.08	5149.18
440.26	5165.56
440.45	5163.22
440.63	5205.35
440.82	5362.17
441.01	5139.82
441.19	5263.86
441.38	5432.38
441.57	5565.79
441.75	5430.04
441.94	5617.29
442.12	5514.30
442.31	5776.44
442.50	5650.05
442.68	5357.49
442.87	5540.05
443.05	5387.91
443.24	5710.91
443.43	5706.23
443.61	5844.32
443.80	5987.09
443.98	5650.05
444.17	5458.13
444.35	5797.51
444.54	5907.51
444.73	5870.06
444.91	5720.27
445.10	5746.02
445.28	5858.36
445.47	5713.25
445.65	6024.54
445.84	5834.96
446.02	5713.25
446.21	5818.57
446.39	5689.84
446.58	5827.93
446.77	5987.09
446.95	5856.02
447.14	5769.42
447.32	6001.13
447.51	6033.90
447.69	5806.87
447.88	6045.60
448.06	6113.48
448.25	5830.27
448.43	5991.77
448.62	5994.11
448.80	6069.01
448.99	6115.82
449.17	6078.37
449.36	5949.64
449.54	6354.55
449.73	6253.91
449.91	6132.20
450.10	6267.95
450.28	6335.83
450.46	6209.44
450.65	6342.85
450.83	6368.60
451.02	6347.53
451.20	6331.15
451.39	6333.49
451.57	6314.77
451.76	6312.42
451.94	6429.45
452.13	6420.09
452.31	6370.94
452.49	6258.59
452.68	6469.24
452.86	6307.74
453.05	6511.37
453.23	6609.67
453.42	6558.18
453.60	6527.75
453.78	6717.34
453.97	6717.34
454.15	6546.48
454.34	6541.80
454.52	6656.48
454.70	6689.25
454.89	6820.32
455.07	6700.95
455.26	6925.65
455.44	6913.94
455.62	6794.58
455.81	7040.33
455.99	6827.34
456.17	7059.06
456.36	7075.44
456.54	6906.92
456.73	6869.47
456.91	7185.44
457.09	7159.70
457.28	7417.16
457.46	7061.40
457.64	7265.02
457.83	7286.09
458.01	7307.15
458.19	7166.72
458.38	7197.15
458.56	7375.03
458.74	7393.75
458.93	7459.29
459.11	7300.13
459.29	7339.92
459.48	7389.07
459.66	7330.56
459.84	7515.46
460.03	7480.35
460.21	7602.06
460.39	7517.80
460.57	7452.27
460.76	7602.06
460.94	7651.21
461.12	7679.30
461.31	7824.41
461.49	7604.40
461.67	7606.74
461.85	7733.13
462.04	7714.41
462.22	8285.50
462.40	7887.61
462.59	7611.42
462.77	8116.98
462.95	7964.84
463.13	7932.08
463.32	7915.69
463.50	8126.34
463.68	7918.03
463.86	8037.40
464.05	8021.02
464.23	7992.93
464.41	8210.60
464.59	7779.94
464.78	8159.11
464.96	8215.28
465.14	8245.71
465.32	8039.74
465.50	8297.20
465.69	8482.10
465.87	8119.32
466.05	8226.98
466.23	8149.75
466.41	8138.04
466.60	8278.47
466.78	8112.30
466.96	8217.62
467.14	8367.42
467.32	8386.14
467.51	8461.04
467.69	8306.56
467.87	8526.57
468.05	8369.76
468.23	8421.25
468.41	8580.40
468.60	8217.62
468.78	8549.98
468.96	8517.21
469.14	8683.39
469.32	8683.39
469.50	8341.67
469.69	8739.56
469.87	8858.93
470.05	8952.55
470.23	8985.32
470.41	8882.33
470.59	9039.15
470.77	8952.55
470.95	9076.60
471.14	9004.04
471.32	8929.14
471.50	9156.18
471.68	9235.75
471.86	9310.65
472.04	9357.46
472.22	9507.26
472.40	9200.65
472.58	9488.53
472.77	9298.95
472.95	9474.49
473.13	9879.40
473.31	9172.56
473.49	9701.52
473.67	9640.67
473.85	9582.15
474.03	9741.31
474.21	9994.09
474.39	9851.31
474.57	9954.30
474.75	10076.01
474.93	9785.78
475.12	9933.23
475.30	10223.46
475.48	9987.07
475.66	10073.67
475.84	10094.73
476.02	10347.51
476.20	10267.93
476.38	10532.41
476.56	10506.66
476.74	10363.89
476.92	10623.69
477.10	10710.29
477.28	11035.63
477.46	10857.75
477.64	10939.66
477.82	11145.63
478.00	11239.25
478.18	11274.36
478.36	11412.45
478.54	11587.99
478.72	11520.12
478.90	11468.62
479.08	11630.12
479.26	11840.77
479.44	12028.01
479.62	12016.31
479.80	12072.48
479.98	12161.42
480.16	12231.64
480.34	12285.47
480.52	12393.14
480.70	12683.36
480.88	12500.80
481.06	12196.53
481.24	12521.87
481.41	12879.97
481.59	12954.87
481.77	12875.29
481.95	12992.31
482.13	12996.99
482.31	13050.83
482.49	13558.72
482.67	13441.70
482.85	13659.37
483.03	13895.76
483.21	13671.07
483.39	13923.85
483.57	13774.05
483.74	13940.23
483.92	14235.14
484.10	14202.37
484.28	14216.41
484.46	14534.73
484.64	14640.05
484.82	14457.49
485.00	14803.89
485.18	15009.86
485.35	15002.83
485.53	14785.16
485.71	14876.44
485.89	15087.09
486.07	15147.95
486.25	15190.08
486.43	15599.67
486.61	15510.73
486.78	15730.74
486.96	15726.06
487.14	16201.19
487.32	16105.23
487.50	16322.90
487.68	16521.84
487.85	16762.92
488.03	16720.79
488.21	16947.82
488.39	16917.39
488.57	17172.51
488.75	17064.85
488.92	17549.34
489.10	17528.27
489.28	17603.17
489.46	17881.69
489.64	18019.78
489.81	18162.56
489.99	18403.63
490.17	18363.84
490.35	18616.62
490.53	18298.31
490.70	18724.29
490.88	18771.10
491.06	18796.84
491.24	19014.51
491.41	19021.53
491.59	19054.30
491.77	18946.64
491.95	19101.11
492.13	19480.28
492.30	19346.87
492.48	19833.70
492.66	19981.15
492.84	19770.51
493.01	20079.46
493.19	19854.76
493.37	20545.22
493.54	20720.76
493.72	20472.67
493.90	20507.77
494.08	20528.84
494.25	21001.63
494.43	21071.84
494.61	21420.58
494.79	21205.25
494.96	20999.29
495.14	21577.40
495.32	21589.10
495.49	21699.11
495.67	21895.71
495.85	22195.30
496.02	22146.15
496.20	22347.44
496.38	22061.89
496.55	22321.69
496.73	22761.71
496.91	22527.66
497.09	22721.92
497.26	23063.64
497.44	22932.57
497.62	22991.08
497.79	23342.16
497.97	22960.66
498.14	23150.24
498.32	23372.59
498.50	23346.84
498.67	23503.66
498.85	23559.83
499.03	23693.24
499.20	23847.72
499.38	24123.90
499.56	23967.09
499.73	24425.83
499.91	24568.60
500.08	24205.82
500.26	23978.79
500.44	24451.58
500.61	24514.77
500.79	24285.40
500.97	24767.55
501.14	25142.03
501.32	25092.88
501.49	25312.89
501.67	25067.14
501.84	25317.57
502.02	25282.47
502.20	25233.32
502.37	25645.25
502.55	25872.28
502.72	25706.10
502.90	25727.17
503.07	25687.38
503.25	25858.24
503.43	25900.37
503.60	25919.09
503.78	25862.92
503.95	26099.31
504.13	26024.42
504.30	26551.04
504.48	26490.18
504.65	26396.56
504.83	26558.06
505.01	26726.58
505.18	26483.16
505.36	27072.98
505.53	26757.00
505.71	27524.70
505.88	27213.41
506.06	27054.25
506.23	27290.65
506.41	27084.68
506.58	27330.44
506.76	27569.17
506.93	27491.93
507.11	27702.58
507.28	27789.18
507.46	27714.28
507.63	27857.06
507.81	28018.55
507.98	28063.02
508.16	28056.00
508.33	27995.15
508.50	27934.29
508.68	28238.56
508.85	28809.65
509.03	28421.13
509.20	28669.22
509.38	28929.02
509.55	28975.83
509.73	29046.05
509.90	28903.28
510.08	29013.28
510.25	29347.98
510.42	29017.96
510.60	29701.40
510.77	29057.75
510.95	29383.09
511.12	29476.71
511.30	29900.34
511.47	29881.62
511.64	29778.64
511.82	29706.08
511.99	29799.70
512.17	29926.09
512.34	29720.12
512.51	30043.12
512.69	30436.33
512.86	29935.45
513.04	30459.73
513.21	30658.68
513.38	30281.85
513.56	30237.38
513.73	30190.57
513.90	30679.74
514.08	30836.56
514.25	30794.43
514.43	30852.94
514.60	30759.32
514.77	30969.97
514.95	31058.91
515.12	30890.39
515.29	30986.35
515.47	31601.91
515.64	31257.85
515.81	30881.03
515.99	31257.85
516.16	31475.52
516.33	31285.94
516.51	31583.19
516.68	31353.82
516.85	31351.48
517.03	31534.04
517.20	31817.24
517.37	31941.29
517.54	32261.94
517.72	31934.27
517.89	32187.05
518.06	32350.88
518.24	31936.61
518.41	32053.64
518.58	32226.84
518.75	32393.01
518.93	32804.95
519.10	32680.90
519.27	32659.84
519.45	32545.15
519.62	32910.27
519.79	32737.07
519.96	33298.80
520.14	32985.17
520.31	33198.16
520.48	32889.21
520.65	33259.01
520.83	33387.74
521.00	33181.77
521.17	33495.41
521.34	33439.23
521.52	33858.19
521.69	34031.39
521.86	34110.97
522.03	33764.57
522.20	33811.38
522.38	34335.66
522.55	34141.39
522.72	34169.48
522.89	33640.52
523.07	34169.48
523.24	33645.20
523.41	34122.67
523.58	34089.90
523.75	34848.24
523.92	34487.79
524.10	34700.78
524.27	34878.66
524.44	35061.22
524.61	34707.80
524.78	34721.85
524.96	34794.40
525.13	34920.79
525.30	35171.23
525.47	35159.53
525.64	35222.72
525.81	34909.09
525.98	35424.01
526.16	34871.64
526.33	35082.29
526.50	35651.04
526.67	35103.35
526.84	35192.30
527.01	34862.28
527.18	35768.07
527.36	35739.98
527.53	35737.64
527.70	35962.33
527.87	36072.34
528.04	35913.18
528.21	35934.24
528.38	35707.21
528.55	36039.57
528.72	36407.03
528.89	36210.43
529.07	36430.44
529.24	36062.97
529.41	36306.39
529.58	36032.55
529.75	36084.04
529.92	36627.04
530.09	36622.36
530.26	36383.63
530.43	36521.72
530.60	36559.17
530.77	36451.50
530.94	37284.73
531.11	36474.91
531.28	36847.05
531.46	37076.43
531.63	36818.97
531.80	37106.85
531.97	36828.33
532.14	37078.77
532.31	36861.10
532.48	37064.72
532.65	37298.78
532.82	37043.66
532.99	37345.59
533.16	37029.62
533.33	36891.52
533.50	37720.07
533.67	37539.85
533.84	37675.60
534.01	37851.14
534.18	37684.97
534.35	37706.03
534.52	37619.43
534.69	37879.23
534.86	38164.78
535.03	37825.40
535.20	38080.52
535.37	38068.81
535.54	38436.28
535.71	38293.50
535.88	38061.79
536.05	38600.12
536.22	38375.42
536.38	38223.29
536.55	38113.28
536.72	38405.85
536.89	38377.76
537.06	38171.80
537.23	38644.59
537.40	38337.98
537.57	38607.14
537.74	38927.79
537.91	38986.30
538.08	39122.05
538.25	38541.60
538.42	39014.39
538.59	39033.11
538.75	38689.06
538.92	38829.49
539.09	39122.05
539.26	39098.65
539.43	39028.43
539.60	38941.83
539.77	38766.29
539.94	39330.36
540.11	39096.31
540.28	38937.15
540.44	39028.43
540.61	39220.36
540.78	39012.05
540.95	39215.68
541.12	39243.76
541.29	39297.59
541.46	39564.42
541.62	39379.51
541.79	39885.07
541.96	39431.01
542.13	39423.98
542.30	39641.65
542.47	39728.25
542.63	39730.59
542.80	39667.40
542.97	40119.12
543.14	40573.19
543.31	40217.43
543.48	40271.26
543.64	40657.45
543.81	40280.62
543.98	40622.34
544.15	40236.15
544.32	40650.42
544.48	41310.46
544.65	40783.83
544.82	40509.99
544.99	40133.17
545.16	40362.54
545.32	40423.39
545.49	40882.14
545.66	40957.03
545.83	40718.30
546.00	41109.17
546.16	40865.75
546.33	41001.50
546.50	40360.20
546.67	40959.38
546.83	40266.58
547.00	41123.21
547.17	41345.56
547.34	41371.31
547.50	41193.43
547.67	41350.24
547.84	41031.93
548.00	41078.74
548.17	41617.07
548.34	41757.50
548.51	41268.33
548.67	41542.17
548.84	41886.23
549.01	41399.40
549.18	41336.20
549.34	41659.20
549.51	41872.18
549.68	41790.27
549.84	41581.96
550.01	41610.04
550.18	41265.99
550.34	41469.61
550.51	41532.81
550.68	41750.48
550.84	41265.99
551.01	41755.16
551.18	41750.48
551.34	42230.29
551.51	41596.00
551.68	42202.20
551.84	42089.85
552.01	41879.21
552.18	41893.25
552.34	41691.96
552.51	42064.11
552.68	42447.96
552.84	42410.51
553.01	42270.08
553.18	41914.31
553.34	42199.86
553.51	42024.32
553.67	42148.37
553.84	42829.46
554.01	42941.81
554.17	42527.53
554.34	42621.16
554.51	42146.03
554.67	42960.53
554.84	42384.76
555.00	42197.52
555.17	42239.65
555.33	42820.10
555.50	42429.23
555.67	42618.81
555.83	42738.18
556.00	43475.45
556.16	43225.01
556.33	42817.76
556.50	43107.99
556.66	43028.41
556.83	42536.90
556.99	42873.93
557.16	43239.06
557.32	42831.80
557.49	42923.08
557.65	42799.04
557.82	42789.67
557.98	43208.63
558.15	43023.73
558.32	43311.61
558.48	43012.02
558.65	43061.18
558.81	42738.18
558.98	43353.74
559.14	43356.08
559.31	42843.51
559.47	43222.67
559.64	43526.94
559.80	43323.32
559.97	43016.71
560.13	43042.45
560.30	43178.20
560.46	43512.90
560.63	43248.42
560.79	44177.61
560.96	44027.82
561.12	43313.95
561.29	43723.55
561.45	44034.84
561.61	43679.08
561.78	43386.51
561.94	43159.48
562.11	43819.51
562.27	43620.56
562.44	43288.21
562.60	43908.45
562.77	43557.37
562.93	43173.52
563.10	43634.61
563.26	43042.45
563.42	43768.02
563.59	43573.75
563.75	43681.42
563.92	44067.61
564.08	43938.88
564.24	43775.04
564.41	44060.58
564.57	43257.78
564.74	43697.80
564.90	43992.71
565.07	43826.53
565.23	43831.21
565.39	43730.57
565.56	44032.50
565.72	44212.72
565.88	43969.30
566.05	44027.82
566.21	43672.06
566.38	44020.80
566.54	43737.59
566.70	44252.51
566.87	44240.81
567.03	44219.74
567.19	44357.83
567.36	44102.71
567.52	43871.00
567.68	44687.85
567.85	43484.81
568.01	43826.53
568.17	43826.53
568.34	44509.97
568.50	43871.00
568.66	43416.94
568.83	44133.14
568.99	43997.39
569.15	43988.03
569.32	43749.29
569.48	43555.03
569.64	44243.15
569.81	44477.20
569.97	44027.82
570.13	44170.59
570.30	43812.49
570.46	43442.68
570.62	43662.69
570.78	43835.89
570.95	44032.50
571.11	44343.79
571.27	43821.85
571.43	44172.93
571.60	44299.32
571.76	44233.78
571.92	44186.97
572.09	44535.71
572.25	44123.78
572.41	43772.70
572.57	44254.85
572.74	44336.77
572.90	44339.11
573.06	44051.22
573.22	43966.96
573.38	44107.40
573.55	44245.49
573.71	44418.69
573.87	44449.11
574.03	44257.19
574.20	43922.49
574.36	44568.48
574.52	44509.97
574.68	44201.02
574.84	44645.72
575.01	44409.32
575.17	43875.68
575.33	44074.63
575.49	44299.32
575.65	44273.57
575.82	44755.72
575.98	44449.11
576.14	44713.59
576.30	44669.12
576.46	44196.34
576.62	44079.31
576.79	44156.55
576.95	43978.67
577.11	44498.26
577.27	44318.04
577.43	44388.26
577.59	44245.49
577.75	44526.35
577.92	43934.20
578.08	43985.69
578.24	43660.35
578.40	44442.09
578.56	44423.37
578.72	44177.61
578.88	44631.68
579.04	44807.22
579.21	44215.06
579.37	44238.47
579.53	44533.37
579.69	44030.16
579.85	44348.47
580.01	44486.56
580.17	44641.04
580.33	44790.83
580.49	44479.54
580.65	44783.81
580.82	44205.70
580.98	44357.83
581.14	43873.34
581.30	44416.35
581.46	44402.30
581.62	44793.17
581.78	44343.79
581.94	44676.15
582.10	44430.39
582.26	44854.03
582.42	44470.18
582.58	44830.62
582.74	44423.37
582.90	44458.48
583.06	44559.12
583.22	44500.61
583.38	44547.42
583.54	44973.39
583.70	44587.21
583.86	44334.43
584.02	44116.76
584.18	44421.03
584.34	44758.06
584.50	44596.57
584.66	44435.07
584.82	44388.26
584.98	45242.56
585.14	44652.74
585.30	44683.17
585.46	44512.31
585.62	44500.61
585.78	45092.76
585.94	44397.62
586.10	44608.27
586.26	44526.35
586.42	44446.77
586.58	44816.58
586.74	44875.09
586.90	44655.08
587.06	44437.41
587.22	44626.99
587.38	44512.31
587.54	44821.26
587.70	44622.31
587.86	44865.73
588.02	44552.10
588.18	44729.98
588.34	44491.24
588.49	44194.00
588.65	44538.05
588.81	44460.82
588.97	44524.01
589.13	44299.32
589.29	44622.31
589.45	44210.38
589.61	44982.76
589.77	45202.77
589.93	44844.66
590.08	44488.90
590.24	44980.42
