SpectraSuite Data File
++++++++++++++++++++++++++++++++++++
Date: Fri Oct 25 11:26:01 EDT 2013
User: price-jones
Dark Spectrum Present: No
Reference Spectrum Present: No
Number of Sampled Component Spectra: 1
Spectrometers: USB2+H05261
Integration Time (usec): 100000 (USB2+H05261)
Spectra Averaged: 1 (USB2+H05261)
Boxcar Smoothing: 0 (USB2+H05261)
Correct for Electrical Dark: No (USB2+H05261)
Strobe/Lamp Enabled: No (USB2+H05261)
Correct for Detector Non-linearity: No (USB2+H05261)
Correct for Stray Light: No (USB2+H05261)
Number of Pixels in Processed Spectrum: 2048
>>>>>Begin Processed Spectral Data<<<<<
365.73	208.31
365.92	208.31
366.12	208.31
366.32	182.56
366.52	210.65
366.72	201.29
366.91	194.26
367.11	170.86
367.31	100.64
367.51	119.37
367.70	110.01
367.90	138.09
368.10	135.75
368.30	88.94
368.49	105.32
368.69	112.35
368.89	126.39
369.09	152.13
369.28	159.16
369.48	159.16
369.68	194.26
369.87	238.73
370.07	194.26
370.27	271.50
370.47	362.78
370.66	594.50
370.86	587.47
371.06	702.16
371.25	709.18
371.45	669.39
371.65	723.23
371.84	664.71
372.04	627.26
372.24	676.41
372.44	720.88
372.63	723.23
372.83	779.40
373.03	727.91
373.22	737.27
373.42	767.70
373.62	807.48
373.81	751.31
374.01	765.36
374.21	823.87
374.40	788.76
374.60	884.72
374.79	823.87
374.99	861.32
375.19	889.40
375.38	894.08
375.58	875.36
375.78	840.25
375.97	833.23
376.17	844.93
376.37	844.93
376.56	940.90
376.76	919.83
376.95	849.61
377.15	821.53
377.35	877.70
377.54	875.36
377.74	880.04
377.93	931.53
378.13	912.81
378.33	966.64
378.52	863.66
378.72	1006.43
378.91	917.49
379.11	849.61
379.31	992.39
379.50	915.15
379.70	1008.77
379.89	1022.81
380.09	1011.11
380.28	983.02
380.48	1006.43
380.68	1001.75
380.87	919.83
381.07	1078.99
381.26	1081.33
381.46	1034.52
381.65	1001.75
381.85	999.41
382.04	1071.97
382.24	1036.86
382.43	1069.62
382.63	1160.91
382.83	1067.28
383.02	1095.37
383.22	1174.95
383.41	1156.22
383.61	1130.48
383.80	1149.20
384.00	1135.16
384.19	1107.07
384.39	1090.69
384.58	1160.91
384.78	1186.65
384.97	1165.59
385.17	1193.67
385.36	1174.95
385.56	1188.99
385.75	1109.41
385.95	1212.40
386.14	1240.48
386.34	1048.56
386.53	1132.82
386.72	1196.01
386.92	1245.16
387.11	1256.87
387.31	1280.27
387.50	1245.16
387.70	1291.98
387.89	1221.76
388.09	1275.59
388.28	1266.23
388.48	1362.19
388.67	1357.51
388.86	1432.41
389.06	1268.57
389.25	1249.85
389.45	1345.81
389.64	1371.55
389.84	1401.98
390.03	1322.40
390.22	1303.68
390.42	1387.94
390.61	1350.49
390.81	1385.60
391.00	1390.28
391.19	1427.73
391.39	1336.45
391.58	1519.01
391.78	1551.78
391.97	1530.71
392.16	1462.83
392.36	1521.35
392.55	1514.33
392.75	1549.43
392.94	1516.67
393.13	1490.92
393.33	1469.86
393.52	1610.29
393.71	1551.78
393.91	1558.80
394.10	1661.78
394.29	1668.80
394.49	1521.35
394.68	1717.95
394.88	1617.31
395.07	1682.85
395.26	1680.50
395.46	1710.93
395.65	1659.44
395.84	1600.93
396.04	1643.06
396.23	1760.08
396.42	1774.13
396.62	1652.42
396.81	1666.46
397.00	1717.95
397.19	1774.13
397.39	1790.51
397.58	1870.09
397.77	1830.30
397.97	1832.64
398.16	1769.44
398.35	1832.64
398.55	1865.41
398.74	1956.69
398.93	1970.73
399.12	1970.73
399.32	1928.60
399.51	1891.15
399.70	1947.33
399.90	1977.75
400.09	2005.84
400.28	2073.71
400.47	2092.44
400.67	2038.61
400.86	2029.24
401.05	1982.43
401.24	2120.53
401.44	2083.08
401.63	2090.10
401.82	2054.99
402.01	2054.99
402.21	2153.29
402.40	2221.17
402.59	2150.95
402.78	2167.34
402.97	2263.30
403.17	2275.00
403.36	2298.41
403.55	2277.34
403.74	2452.88
403.93	2385.01
404.13	2296.07
404.32	2394.37
404.51	2349.90
404.70	2373.30
404.89	2324.15
405.09	2525.44
405.28	2464.58
405.47	2387.35
405.66	2436.50
405.85	2448.20
406.05	2534.80
406.24	2562.89
406.43	2675.23
406.62	2663.53
406.81	2658.85
407.00	2628.42
407.20	2670.55
407.39	2593.31
407.58	2686.94
407.77	2708.00
407.96	2871.84
408.15	2780.56
408.34	2731.41
408.54	2775.88
408.73	2846.09
408.92	2883.54
409.11	2853.11
409.30	2965.46
409.49	2862.48
409.68	2923.33
409.87	2892.90
410.07	2981.84
410.26	3042.70
410.45	3040.36
410.64	3091.85
410.83	3141.00
411.02	3068.44
411.21	3129.30
411.40	3066.10
411.59	3213.56
411.78	3141.00
411.98	3206.53
412.17	3286.11
412.36	3370.37
412.55	3281.43
412.74	3368.03
412.93	3433.57
413.12	3349.31
413.31	3461.65
413.50	3468.67
413.69	3492.08
413.88	3562.30
414.07	3588.04
414.26	3541.23
414.45	3585.70
414.64	3660.60
414.83	3864.22
415.02	3754.22
415.22	3913.38
415.41	3815.07
415.60	3948.48
415.79	3878.27
415.98	3880.61
416.17	4046.79
416.36	4065.51
416.55	4124.02
416.74	3932.10
416.93	4058.49
417.12	4053.81
417.31	4102.96
417.50	4149.77
417.69	4266.80
417.88	4182.54
418.07	4304.25
418.26	4311.27
418.45	4411.91
418.64	4554.68
418.83	4435.32
419.02	4397.87
419.21	4514.89
419.39	4484.47
419.58	4454.04
419.77	4409.57
419.96	4601.49
420.15	4578.09
420.34	4603.83
420.53	4650.64
420.72	4730.22
420.91	4809.80
421.10	4795.76
421.29	4655.33
421.48	4875.34
421.67	4786.40
421.86	4734.90
422.05	4748.95
422.24	4744.27
422.43	4891.72
422.61	4940.87
422.80	4887.04
422.99	4917.47
423.18	5013.43
423.37	4940.87
423.56	4814.48
423.75	4985.34
423.94	4784.06
424.13	4554.68
424.32	4823.84
424.50	5027.47
424.69	5128.11
424.88	5081.30
425.07	4905.76
425.26	5057.90
425.45	4957.25
425.64	4875.34
425.83	4779.37
426.01	5022.79
426.20	5172.58
426.39	5025.13
426.58	5015.77
426.77	5109.39
426.96	5121.09
427.15	5181.95
427.33	5383.23
427.52	5107.05
427.71	5226.42
427.90	5345.78
428.09	5376.21
428.28	5156.20
428.46	5392.59
428.65	5373.87
428.84	5612.60
429.03	5352.81
429.22	5254.50
429.40	5481.53
429.59	5462.81
429.78	5254.50
429.97	5369.19
430.16	5514.30
430.34	5451.11
430.53	5544.73
430.72	5474.51
430.91	5619.63
431.10	5708.57
431.28	5764.74
431.47	5914.53
431.66	5944.96
431.85	5804.53
432.03	5884.11
432.22	6040.92
432.41	5820.91
432.60	5816.23
432.79	5954.32
432.97	6024.54
433.16	6036.24
433.35	5893.47
433.54	6083.05
433.72	6164.97
433.91	6167.31
434.10	6059.65
434.28	6157.95
434.47	6258.59
434.66	6272.64
434.85	6251.57
435.03	6310.08
435.22	6258.59
435.41	6511.37
435.59	6331.15
435.78	6441.15
435.97	6441.15
436.16	6380.30
436.34	6523.07
436.53	6349.87
436.72	6771.17
436.90	6459.88
437.09	6579.25
437.28	6597.97
437.46	6572.22
437.65	6696.27
437.84	6855.43
438.02	6740.74
438.21	6738.40
438.40	6803.94
438.58	6862.45
438.77	7042.67
438.96	6855.43
439.14	7124.59
439.33	7023.95
439.52	7215.87
439.70	7173.74
439.89	7466.31
440.08	7248.64
440.26	7351.62
440.45	7311.83
440.63	7473.33
440.82	7681.64
441.01	7499.08
441.19	7604.40
441.38	7808.03
441.57	7634.83
441.75	7716.75
441.94	7901.65
442.12	7850.16
442.31	8070.17
442.50	7999.95
442.68	7854.84
442.87	8013.99
443.05	8166.13
443.24	8189.53
443.43	7941.44
443.61	8287.84
443.80	8446.99
443.98	8037.40
444.17	7957.82
444.35	8308.90
444.54	8292.52
444.73	8182.51
444.91	8196.56
445.10	8269.11
445.28	8477.42
445.47	8332.31
445.65	8491.46
445.84	8589.77
446.02	8648.28
446.21	8367.42
446.39	8208.26
446.58	8397.84
446.77	8365.07
446.95	8444.65
447.14	8297.20
447.32	8552.32
447.51	8613.17
447.69	8564.02
447.88	8542.96
448.06	8320.60
448.25	8535.93
448.43	8533.59
448.62	8734.88
448.80	8409.54
448.99	8552.32
449.17	8643.60
449.36	8816.80
449.54	8863.61
449.73	8830.84
449.91	8997.02
450.10	8819.14
450.28	9123.41
450.46	8971.27
450.65	8898.72
450.83	9015.74
451.02	9221.71
451.20	9111.71
451.39	9088.30
451.57	8814.46
451.76	9245.12
451.94	9156.18
452.13	9163.20
452.31	9228.73
452.49	9158.52
452.68	9359.80
452.86	9427.68
453.05	9343.42
453.23	9610.24
453.42	9451.08
453.60	9252.14
453.78	9308.31
453.97	9404.27
454.15	9643.01
454.34	9408.95
454.52	9699.18
454.70	9781.10
454.89	9760.03
455.07	9727.27
455.26	9975.36
455.44	10052.60
455.62	9891.10
455.81	9919.19
455.99	10176.65
456.17	10279.63
456.36	10195.37
456.54	10331.12
456.73	10368.57
456.91	10387.30
457.09	10441.13
457.28	10518.37
457.46	10319.42
457.64	10523.05
457.83	10389.64
458.01	10574.54
458.19	10691.57
458.38	10471.56
458.56	10932.64
458.74	10785.19
458.93	10740.72
459.11	10689.23
459.29	10600.29
459.48	10827.32
459.66	10930.30
459.84	10778.17
460.03	11077.76
460.21	10768.80
460.39	10834.34
460.57	11019.24
460.76	11143.29
460.94	11026.26
461.12	11389.05
461.31	11267.34
461.49	11049.67
461.67	11044.99
461.85	11250.96
462.04	11281.38
462.22	11873.54
462.40	11501.39
462.59	11531.82
462.77	11548.20
462.95	11903.96
463.13	11688.64
463.32	11665.23
463.50	11587.99
463.68	11775.24
463.86	11885.24
464.05	11669.91
464.23	11880.56
464.41	11824.39
464.59	11730.76
464.78	12369.73
464.96	12037.38
465.14	11690.98
465.32	12058.44
465.50	11967.16
465.69	12051.42
465.87	12109.93
466.05	12138.02
466.23	12112.27
466.41	12191.85
466.60	12388.46
466.78	12266.75
466.96	12098.23
467.14	12229.30
467.32	12191.85
467.51	12517.18
467.69	12156.74
467.87	12446.97
468.05	12500.80
468.23	12470.37
468.41	12245.68
468.60	12568.68
468.78	12716.13
468.96	12727.83
469.14	12847.20
469.32	12791.03
469.50	12402.50
469.69	13092.96
469.87	13025.08
470.05	13062.53
470.23	13242.75
470.41	13177.22
470.59	12926.78
470.77	13207.64
470.95	13071.89
471.14	13593.83
471.32	13146.79
471.50	13593.83
471.68	13752.99
471.86	13619.58
472.04	13752.99
472.22	13872.36
472.40	13612.56
472.58	13792.78
472.77	14228.12
472.95	14333.44
473.13	14672.82
473.31	14033.85
473.49	14080.66
473.67	14417.70
473.85	14038.53
474.03	14558.13
474.21	14494.94
474.39	14642.39
474.57	14736.01
474.75	15103.48
474.93	14885.81
475.12	14743.03
475.30	15124.54
475.48	15169.01
475.66	15108.16
475.84	15234.55
476.02	15342.21
476.20	15370.30
476.38	15573.92
476.56	15676.91
476.74	15988.20
476.92	15833.72
477.10	15892.24
477.28	16233.96
477.46	16208.21
477.64	16156.72
477.82	16498.44
478.00	17181.87
478.18	16870.58
478.36	16821.43
478.54	17060.16
478.72	17158.47
478.90	17406.56
479.08	17429.97
479.26	17767.01
479.44	17586.79
479.62	17736.58
479.80	17774.03
479.98	18167.24
480.16	18733.65
480.34	18518.32
480.52	18628.32
480.70	18583.85
480.88	18466.83
481.06	18937.27
481.24	18841.31
481.41	19140.90
481.59	19143.24
481.77	19410.06
481.95	19719.01
482.13	19915.62
482.31	19491.98
482.49	20231.59
482.67	20161.37
482.85	20458.62
483.03	20341.60
483.21	20940.77
483.39	20978.22
483.57	20643.52
483.74	21214.62
483.92	21472.07
484.10	21479.10
484.28	21930.82
484.46	22085.30
484.64	22258.49
484.82	21720.17
485.00	22443.40
485.18	22513.61
485.35	22883.42
485.53	22845.97
485.71	22780.43
485.89	23498.98
486.07	23281.31
486.25	23644.09
486.43	23737.71
486.61	23751.76
486.78	24074.75
486.96	24299.44
487.14	24250.29
487.32	24510.09
487.50	24718.40
487.68	25102.25
487.85	25205.23
488.03	25603.12
488.21	25649.93
488.39	25474.39
488.57	26094.63
488.75	26108.68
488.92	26480.82
489.10	26600.19
489.28	26670.40
489.46	27014.46
489.64	26843.60
489.81	27894.50
489.99	27318.73
490.17	27700.24
490.35	28006.85
490.53	28025.57
490.70	28636.45
490.88	28446.87
491.06	28734.76
491.24	29259.04
491.41	29036.69
491.59	29109.24
491.77	29439.26
491.95	29560.97
492.13	29912.05
492.30	29778.64
492.48	30134.40
492.66	30478.46
492.84	30359.09
493.01	30646.97
493.19	30504.20
493.37	30944.22
493.54	31297.64
493.72	31398.29
493.90	31417.01
494.08	31819.58
494.25	32165.98
494.43	31599.57
494.61	32339.18
494.79	32737.07
494.96	32634.09
495.14	32411.74
495.32	33057.73
495.49	33207.52
495.67	32968.79
495.85	33394.76
496.02	33598.39
496.20	33928.41
496.38	33968.19
496.55	34143.74
496.73	34778.02
496.91	34497.16
497.09	34775.68
497.26	34742.91
497.44	35023.78
497.62	35096.33
497.79	35629.98
497.97	35625.29
498.14	36093.40
498.32	36266.60
498.50	36039.57
498.67	36451.50
498.85	36521.72
499.03	36404.69
499.20	36643.43
499.38	37001.53
499.56	37156.00
499.73	37216.86
499.91	37476.66
500.08	37256.65
500.26	37340.91
500.44	37441.55
500.61	37907.32
500.79	37415.80
500.97	38513.52
501.14	38515.86
501.32	38319.25
501.49	38452.66
501.67	38761.61
501.84	38855.23
502.02	38485.43
502.20	38871.62
502.37	39189.93
502.55	39321.00
502.72	39707.19
502.90	39082.27
503.07	39592.50
503.25	39569.10
503.43	39634.63
503.60	40189.34
503.78	40346.15
503.95	40116.78
504.13	40566.16
504.30	40882.14
504.48	40552.12
504.65	40259.55
504.83	40671.49
505.01	41532.81
505.18	41130.23
505.36	41387.69
505.53	41387.69
505.71	41900.27
505.88	41593.66
506.06	41621.75
506.23	41748.14
506.41	41324.50
506.58	41991.55
506.76	41855.80
506.93	42258.37
507.11	42223.26
507.28	42415.19
507.46	42438.59
507.63	42913.72
507.81	43096.28
507.98	43070.54
508.16	43124.37
508.33	43435.66
508.50	43323.32
508.68	43526.94
508.85	43840.57
509.03	43557.37
509.20	44058.24
509.38	44107.40
509.55	44289.96
509.73	44739.34
509.90	44603.59
510.08	44322.72
510.25	44861.05
510.42	44608.27
510.60	44980.42
510.77	45055.31
510.95	45155.96
511.12	44964.03
511.30	45059.99
511.47	45069.36
511.64	45511.72
511.82	46202.18
511.99	45893.22
512.17	45862.80
512.34	45773.86
512.51	46532.19
512.69	46181.11
512.86	46536.87
513.04	46674.96
513.21	46330.90
513.38	46607.09
513.56	47007.32
513.73	47182.86
513.90	47243.71
514.08	46735.82
514.25	47643.94
514.43	47178.18
514.60	47178.18
514.77	46871.57
514.95	47966.94
515.12	47442.66
515.29	47604.16
515.47	47812.46
515.64	47875.66
515.81	47894.38
515.99	48009.07
516.16	48488.88
516.33	48329.72
516.51	48659.74
516.68	48313.34
516.85	48732.29
517.03	48921.88
517.20	48615.27
517.37	48594.20
517.54	48956.99
517.72	48755.70
517.89	49219.13
518.06	49408.71
518.24	49132.53
518.41	49024.86
518.58	49385.30
518.75	49228.49
518.93	49673.19
519.10	49399.35
519.27	49633.40
519.45	49595.95
519.62	49670.85
519.79	49780.85
519.96	49663.83
520.14	50223.22
520.31	49893.20
520.48	50391.73
520.65	50232.58
520.83	50733.45
521.00	50609.40
521.17	50443.23
521.34	50557.91
521.52	50703.03
521.69	50653.87
521.86	50878.57
522.03	50803.67
522.20	51194.54
522.38	51664.99
522.55	51229.65
522.72	51199.22
522.89	51334.97
523.07	51695.41
523.24	51290.50
523.41	51510.51
523.58	51283.48
523.75	52081.60
523.92	51791.37
524.10	51917.76
524.27	52102.67
524.44	51885.00
524.61	52037.13
524.78	52151.82
524.96	52121.39
525.13	52306.29
525.30	52383.53
525.47	52079.26
525.64	52315.65
525.81	52708.86
525.98	52378.85
526.16	52467.79
526.33	52570.77
526.50	53069.31
526.67	52535.66
526.84	52872.70
527.01	52767.38
527.18	52687.80
527.36	52762.70
527.53	52926.53
527.70	53404.00
527.87	53406.34
528.04	53223.78
528.21	53366.55
528.38	53230.80
528.55	53628.69
528.72	53476.56
528.89	53631.04
529.07	53448.47
529.24	53387.62
529.41	53584.22
529.58	53696.57
529.75	53701.25
529.92	53748.06
530.09	53736.36
530.26	53935.30
530.43	53881.47
530.60	53659.12
530.77	53719.98
530.94	53961.05
531.11	53862.75
531.28	54005.52
531.46	54052.33
531.63	54295.75
531.80	54150.63
531.97	54672.57
532.14	54632.78
532.31	54356.60
532.48	54670.23
532.65	54621.08
532.82	54623.42
532.99	54700.66
533.16	54518.10
533.33	54761.51
533.50	54663.21
533.67	55107.91
533.84	54841.09
534.01	54927.69
534.18	54855.14
534.35	55229.62
534.52	54808.32
534.69	55089.19
534.86	55370.05
535.03	55009.61
535.20	55248.35
535.37	55458.99
535.54	55363.03
535.71	55070.46
535.88	55543.25
536.05	55564.32
536.22	55519.85
536.38	55749.22
536.55	55650.92
536.72	55852.20
536.89	55444.95
537.06	55430.91
537.23	55889.65
537.40	55744.54
537.57	55803.05
537.74	55608.79
537.91	55889.65
538.08	56119.02
538.25	55875.61
538.42	55966.89
538.59	56046.47
538.75	56020.72
538.92	56161.15
539.09	56250.09
539.26	55917.74
539.43	55990.30
539.60	56104.98
539.77	56334.35
539.94	56650.33
540.11	56332.01
540.28	56561.39
540.44	56409.25
540.61	56439.68
540.78	56308.61
540.95	56367.12
541.12	56591.81
541.29	56486.49
541.46	56303.93
541.62	56598.83
541.79	56816.50
541.96	56367.12
542.13	56533.30
542.30	56619.90
542.47	56912.47
542.63	56781.40
542.80	57017.79
542.97	57076.30
543.14	57282.27
543.31	56954.60
543.48	57052.90
543.64	57291.63
543.81	57396.96
543.98	57291.63
544.15	57289.29
544.32	57347.81
544.48	57441.43
544.65	57359.51
544.82	57361.85
544.99	57216.74
545.16	57490.58
545.32	57523.35
545.49	57741.02
545.66	57609.95
545.83	57581.86
546.00	57462.49
546.16	57595.90
546.33	57600.58
546.50	57471.85
546.67	57787.83
546.83	57469.51
547.00	57612.29
547.17	57729.31
547.34	57724.63
547.50	58017.20
547.67	58108.48
547.84	57909.53
548.00	58117.84
548.17	58269.98
548.34	58066.35
548.51	58298.06
548.67	58300.40
548.84	58164.65
549.01	57921.24
549.18	57970.39
549.34	58396.37
549.51	58279.34
549.68	58459.56
549.84	58300.40
550.01	58382.32
550.18	58232.53
550.34	58522.76
550.51	58370.62
550.68	58440.84
550.84	58274.66
551.01	58628.08
551.18	58330.83
551.34	58354.24
551.51	58635.10
551.68	58258.27
551.84	58520.41
552.01	58363.60
552.18	58773.19
552.34	58522.76
552.51	58707.66
552.68	58482.97
552.84	58726.38
553.01	58532.12
553.18	58646.80
553.34	58993.20
553.51	58805.96
553.67	58742.77
553.84	59049.38
554.01	58906.60
554.17	58944.05
554.34	59185.13
554.51	58899.58
554.67	59014.27
554.84	58953.41
555.00	58904.26
555.17	59138.32
555.33	58901.92
555.50	58922.99
555.67	59032.99
555.83	58951.07
556.00	58988.52
556.16	59295.13
556.33	59245.98
556.50	59250.66
556.66	59435.56
556.83	59222.58
556.99	59276.41
557.16	59709.41
557.32	59285.77
557.49	59592.38
557.65	59330.24
557.82	59388.75
557.98	59316.20
558.15	59405.14
558.32	59503.44
558.48	59283.43
558.65	59407.48
558.81	59353.65
558.98	59433.22
559.14	59409.82
559.31	59512.80
559.47	59639.19
559.64	59711.75
559.80	59770.26
559.97	59770.26
560.13	59440.24
560.30	59587.70
560.46	59845.16
560.63	59898.99
560.79	59859.20
560.96	59866.22
561.12	59997.29
561.29	59791.33
561.45	59950.48
561.61	59803.03
561.78	59943.46
561.94	59702.38
562.11	59735.15
562.27	59840.48
562.44	59952.82
562.60	60226.66
562.77	60095.60
562.93	59777.28
563.10	59941.12
563.26	59877.93
563.42	60006.65
563.59	59927.08
563.75	59971.55
563.92	60004.31
564.08	59838.14
564.24	60182.19
564.41	60168.15
564.57	60275.82
564.74	60133.04
564.90	60189.22
565.07	60172.83
565.23	60013.68
565.39	60224.32
565.56	60116.66
565.72	59945.80
565.88	60186.88
566.05	60133.04
566.21	60140.07
566.38	60097.94
566.54	60177.51
566.70	60252.41
566.87	60313.26
567.03	59948.14
567.19	60423.27
567.36	60507.53
567.52	60296.88
567.68	60484.12
567.85	60378.80
568.01	60392.84
568.17	60346.03
568.34	60355.39
568.50	60425.61
568.66	60488.80
568.83	60537.96
568.99	60341.35
569.15	60285.18
569.32	60390.50
569.48	60449.02
569.64	60472.42
569.81	60301.56
569.97	60282.84
570.13	60580.09
570.30	60409.23
570.46	60458.38
570.62	60374.12
570.78	60425.61
570.95	60563.70
571.11	60554.34
571.27	60418.59
571.43	60608.17
571.60	60514.55
571.76	60521.57
571.92	60622.22
572.09	60474.76
572.25	60596.47
572.41	60460.72
572.57	60753.29
572.74	60692.43
572.90	60432.63
573.06	60631.58
573.22	60554.34
573.38	60615.19
573.55	60568.38
573.71	60858.61
573.87	60783.71
574.03	60500.51
574.20	60615.19
574.36	60657.32
574.52	60811.80
574.68	60694.77
574.84	60767.33
575.01	60816.48
575.17	60704.13
575.33	60694.77
575.49	60664.35
575.65	60743.92
575.82	60830.52
575.98	60624.56
576.14	61043.51
576.30	60718.18
576.46	60856.27
576.62	60626.90
576.79	60879.67
576.95	60647.96
577.11	60748.60
577.27	60867.97
577.43	60867.97
577.59	60662.00
577.75	60669.03
577.92	60706.47
578.08	60760.31
578.24	60865.63
578.40	60877.33
578.56	60830.52
578.72	60867.97
578.88	60907.76
579.04	61036.49
579.21	60914.78
579.37	60760.31
579.53	60872.65
579.69	60608.17
579.85	60760.31
580.01	60788.39
580.17	60788.39
580.33	60874.99
580.49	61029.47
580.65	60963.93
580.82	60800.10
580.98	60739.24
581.14	60760.31
581.30	60917.12
581.46	60781.37
581.62	60872.65
581.78	60814.14
581.94	60886.70
582.10	60643.28
582.26	60907.76
582.42	60921.80
582.58	61076.28
582.74	60701.79
582.90	60858.61
583.06	60844.57
583.22	60657.32
583.38	60919.46
583.54	60919.46
583.70	60935.85
583.86	61083.30
584.02	60865.63
584.18	61003.72
584.34	61003.72
584.50	60683.07
584.66	60863.29
584.82	60818.82
584.98	61151.18
585.14	60879.67
585.30	60769.67
585.46	60987.34
585.62	61144.16
585.78	61095.00
585.94	61034.15
586.10	61008.40
586.26	60947.55
586.42	61174.58
586.58	61279.91
586.74	60912.44
586.90	61006.06
587.06	60982.66
587.22	61109.05
587.38	61141.81
587.54	61055.21
587.70	61137.13
587.86	60945.21
588.02	61102.03
588.18	61265.86
588.34	61151.18
