SpectraSuite Data File
++++++++++++++++++++++++++++++++++++
Date: Fri Oct 25 10:47:16 EDT 2013
User: price-jones
Dark Spectrum Present: No
Reference Spectrum Present: No
Number of Sampled Component Spectra: 1
Spectrometers: USB2+H05261
Integration Time (usec): 100000 (USB2+H05261)
Spectra Averaged: 1 (USB2+H05261)
Boxcar Smoothing: 0 (USB2+H05261)
Correct for Electrical Dark: No (USB2+H05261)
Strobe/Lamp Enabled: No (USB2+H05261)
Correct for Detector Non-linearity: No (USB2+H05261)
Correct for Stray Light: No (USB2+H05261)
Number of Pixels in Processed Spectrum: 2048
>>>>>Begin Processed Spectral Data<<<<<
365.73	184.90
365.92	184.90
366.12	184.90
366.32	0.00
366.52	7.02
366.72	95.96
366.91	46.81
367.11	98.30
367.31	86.60
367.51	63.19
367.70	30.43
367.90	86.60
368.10	63.19
368.30	138.09
368.49	16.38
368.69	70.22
368.89	0.00
369.09	84.26
369.28	56.17
369.48	147.45
369.68	105.32
369.87	84.26
370.07	72.56
370.27	105.32
370.47	243.42
370.66	423.64
370.86	386.19
371.06	414.27
371.25	442.36
371.45	433.00
371.65	456.40
371.84	344.06
372.04	475.13
372.24	442.36
372.44	402.57
372.63	503.22
372.83	489.17
373.03	475.13
373.22	479.81
373.42	458.74
373.62	477.47
373.81	519.60
374.01	568.75
374.21	526.62
374.40	526.62
374.60	624.92
374.79	547.69
374.99	528.96
375.19	559.39
375.38	528.96
375.58	526.62
375.78	599.18
375.97	519.60
376.17	617.90
376.37	629.60
376.56	550.03
376.76	503.22
376.95	512.58
377.15	547.69
377.35	498.53
377.54	624.92
377.74	566.41
377.93	667.05
378.13	524.28
378.33	660.03
378.52	592.16
378.72	566.41
378.91	601.52
379.11	629.60
379.31	552.37
379.50	627.26
379.70	589.82
379.89	676.41
380.09	547.69
380.28	613.22
380.48	645.99
380.68	622.58
380.87	629.60
381.07	697.48
381.26	704.50
381.46	643.65
381.65	587.47
381.85	688.12
382.04	713.86
382.24	660.03
382.43	695.14
382.63	582.79
382.83	634.29
383.02	697.48
383.22	627.26
383.41	610.88
383.61	589.82
383.80	667.05
384.00	706.84
384.19	751.31
384.39	718.54
384.58	681.10
384.78	660.03
384.97	767.70
385.17	795.78
385.36	669.39
385.56	723.23
385.75	681.10
385.95	791.10
386.14	784.08
386.34	770.04
386.53	734.93
386.72	725.57
386.92	809.83
387.11	784.08
387.31	720.88
387.50	734.93
387.70	772.38
387.89	744.29
388.09	786.42
388.28	784.08
388.48	770.04
388.67	837.91
388.86	781.74
389.06	840.25
389.25	866.00
389.45	833.23
389.64	837.91
389.84	889.40
390.03	826.21
390.22	926.85
390.42	882.38
390.61	898.77
390.81	877.70
391.00	809.83
391.19	837.91
391.39	929.19
391.58	851.96
391.78	950.26
391.97	950.26
392.16	847.27
392.36	922.17
392.55	842.59
392.75	964.30
392.94	940.90
393.13	903.45
393.33	887.06
393.52	901.11
393.71	873.02
393.91	985.37
394.10	1095.37
394.29	1027.50
394.49	994.73
394.68	1146.86
394.88	1013.45
395.07	1151.54
395.26	992.39
395.46	990.05
395.65	978.34
395.84	1132.82
396.04	1102.39
396.23	1142.18
396.42	1076.65
396.62	1095.37
396.81	1186.65
397.00	1181.97
397.19	1128.14
397.39	1121.12
397.58	1156.22
397.77	1207.72
397.97	1256.87
398.16	1156.22
398.35	1268.57
398.55	1200.69
398.74	1144.52
398.93	1245.16
399.12	1247.51
399.32	1203.04
399.51	1336.45
399.70	1336.45
399.90	1207.72
400.09	1364.53
400.28	1385.60
400.47	1364.53
400.67	1235.80
400.86	1261.55
401.05	1317.72
401.24	1380.92
401.44	1362.19
401.63	1378.58
401.82	1437.09
402.01	1371.55
402.21	1413.68
402.40	1451.13
402.59	1355.17
402.78	1441.77
402.97	1519.01
403.17	1441.77
403.36	1558.80
403.55	1448.79
403.74	1502.62
403.93	1540.07
404.13	1526.03
404.32	1565.82
404.51	1624.33
404.70	1593.90
404.89	1598.59
405.09	1654.76
405.28	1544.75
405.47	1659.44
405.66	1579.86
405.85	1619.65
406.05	1631.35
406.24	1645.40
406.43	1781.15
406.62	1785.83
406.81	1734.34
407.00	1682.85
407.20	1699.23
407.39	1682.85
407.58	1905.20
407.77	1813.92
407.96	1823.28
408.15	1923.92
408.34	1809.23
408.54	1907.54
408.73	1872.43
408.92	1884.13
409.11	1961.37
409.30	1991.80
409.49	1987.11
409.68	2045.63
409.87	1961.37
410.07	1935.62
410.26	2069.03
410.45	2069.03
410.64	2008.18
410.83	2057.33
411.02	2043.29
411.21	2197.76
411.40	2148.61
411.59	2108.82
411.78	2183.72
411.98	2136.91
412.17	2179.04
412.36	2211.81
412.55	2246.91
412.74	2242.23
412.93	2321.81
413.12	2282.02
413.31	2385.01
413.50	2417.77
413.69	2272.66
413.88	2401.39
414.07	2399.05
414.26	2385.01
414.45	2429.48
414.64	2597.99
414.83	2668.21
415.02	2558.21
415.22	2583.95
415.41	2597.99
415.60	2649.49
415.79	2719.70
415.98	2675.23
416.17	2679.91
416.36	2614.38
416.55	2677.57
416.74	2691.62
416.93	2822.69
417.12	2738.43
417.31	2815.66
417.50	2860.13
417.69	2820.35
417.88	2827.37
418.07	2932.69
418.26	2925.67
418.45	2993.55
418.64	3052.06
418.83	2977.16
419.02	3138.66
419.21	3068.44
419.39	3080.14
419.58	3012.27
419.77	3073.12
419.96	3194.83
420.15	3166.74
420.34	3089.51
420.53	3143.34
420.72	3103.55
420.91	3166.74
421.10	3297.81
421.29	3171.43
421.48	3150.36
421.67	3262.71
421.86	3208.87
422.05	3206.53
422.24	3215.90
422.43	3246.32
422.61	3302.50
422.80	3295.47
422.99	3325.90
423.18	3346.97
423.37	3449.95
423.56	3398.46
423.75	3379.73
423.94	3321.22
424.13	3143.34
424.32	3218.24
424.50	3585.70
424.69	3335.26
424.88	3473.36
425.07	3265.05
425.26	3393.78
425.45	3332.92
425.64	3351.65
425.83	3407.82
426.01	3452.29
426.20	3370.37
426.39	3440.59
426.58	3410.16
426.77	3473.36
426.96	3442.93
427.15	3506.12
427.33	3562.30
427.52	3524.85
427.71	3475.70
427.90	3648.90
428.09	3569.32
428.28	3585.70
428.46	3644.21
428.65	3639.53
428.84	3733.15
429.03	3644.21
429.22	3625.49
429.40	3662.94
429.59	3660.60
429.78	3442.93
429.97	3473.36
430.16	3632.51
430.34	3648.90
430.53	3646.55
430.72	3833.80
430.91	3880.61
431.10	3658.26
431.28	3927.42
431.47	4074.87
431.66	4023.38
431.85	3861.88
432.03	4095.94
432.22	3957.85
432.41	3878.27
432.60	4121.68
432.79	4002.32
432.97	4065.51
433.16	4117.00
433.35	3988.27
433.54	4056.15
433.72	3985.93
433.91	4102.96
434.10	4252.75
434.28	4079.55
434.47	4067.85
434.66	4198.92
434.85	4308.93
435.03	4362.76
435.22	4250.41
435.41	4301.90
435.59	4318.29
435.78	4351.06
435.97	4449.36
436.16	4332.33
436.34	4458.72
436.53	4311.27
436.72	4482.13
436.90	4395.53
437.09	4468.08
437.28	4315.95
437.46	4372.12
437.65	4388.50
437.84	4463.40
438.02	4477.44
438.21	4587.45
438.40	4498.51
438.58	4692.77
438.77	4697.46
438.96	4702.14
439.14	4732.56
439.33	4788.74
439.52	4863.63
439.70	4828.53
439.89	4840.23
440.08	4830.87
440.26	5025.13
440.45	5062.58
440.63	4931.51
440.82	5048.54
441.01	5163.22
441.19	5109.39
441.38	5167.90
441.57	5184.29
441.75	5322.38
441.94	5350.46
442.12	5383.23
442.31	5467.49
442.50	5324.72
442.68	5521.32
442.87	5570.48
443.05	5399.62
443.24	5643.03
443.43	5614.95
443.61	5535.37
443.80	5724.95
443.98	5612.60
444.17	5430.04
444.35	5439.40
444.54	5661.76
444.73	5448.77
444.91	5675.80
445.10	5661.76
445.28	5535.37
445.47	5598.56
445.65	5493.24
445.84	5603.24
446.02	5540.05
446.21	5619.63
446.39	5699.20
446.58	5785.80
446.77	5769.42
446.95	5544.73
447.14	5582.18
447.32	5881.77
447.51	5689.84
447.69	5717.93
447.88	5947.30
448.06	5975.39
448.25	5769.42
448.43	5734.31
448.62	5685.16
448.80	5659.42
448.99	5767.08
449.17	5874.74
449.36	5858.36
449.54	6052.63
449.73	5987.09
449.91	6005.81
450.10	6066.67
450.28	6143.91
450.46	6251.57
450.65	6008.16
450.83	6169.65
451.02	6066.67
451.20	6169.65
451.39	6277.32
451.57	6073.69
451.76	6150.93
451.94	6169.65
452.13	6298.38
452.31	6073.69
452.49	6244.55
452.68	6396.68
452.86	6232.85
453.05	6221.14
453.23	6305.40
453.42	6157.95
453.60	6218.80
453.78	6415.41
453.97	6333.49
454.15	6490.31
454.34	6237.53
454.52	6438.81
454.70	6527.75
454.89	6726.70
455.07	6478.60
455.26	6663.51
455.44	6600.31
455.62	6455.20
455.81	6801.60
455.99	6717.34
456.17	6567.54
456.36	6693.93
456.54	6544.14
456.73	6841.39
456.91	7091.82
457.09	6848.41
457.28	7054.37
457.46	6843.73
457.64	7105.87
457.83	6904.58
458.01	6839.05
458.19	7197.15
458.38	6862.45
458.56	7171.40
458.74	7084.80
458.93	7236.94
459.11	7171.40
459.29	7176.08
459.48	7007.56
459.66	7005.22
459.84	7236.94
460.03	7501.42
460.21	7325.88
460.39	7206.51
460.57	7414.82
460.76	7405.46
460.94	7417.16
461.12	7447.58
461.31	7630.15
461.49	7419.50
461.67	7295.45
461.85	7611.42
462.04	7531.84
462.22	8112.30
462.40	7857.18
462.59	7719.09
462.77	7672.28
462.95	7669.94
463.13	7700.36
463.32	7658.23
463.50	7585.68
463.68	7885.26
463.86	7571.63
464.05	7829.09
464.23	7592.70
464.41	7801.01
464.59	7758.88
464.78	7866.54
464.96	7850.16
465.14	7782.28
465.32	7922.71
465.50	8053.78
465.69	7885.26
465.87	7962.50
466.05	8009.31
466.23	7995.27
466.41	8182.51
466.60	8250.39
466.78	7957.82
466.96	8053.78
467.14	8084.21
467.32	8224.64
467.51	8346.35
467.69	7948.46
467.87	8283.16
468.05	8236.35
468.23	8147.40
468.41	8339.33
468.60	8229.32
468.78	8271.45
468.96	8259.75
469.14	8255.07
469.32	8404.86
469.50	8140.38
469.69	8557.00
469.87	8748.92
470.05	8524.23
470.23	8709.13
470.41	8643.60
470.59	8622.53
470.77	8638.92
470.95	8720.84
471.14	8840.20
471.32	8631.90
471.50	8978.30
471.68	8791.05
471.86	9130.43
472.04	9245.12
472.22	9104.68
472.40	8748.92
472.58	8954.89
472.77	9071.92
472.95	9177.24
473.13	9387.89
473.31	9245.12
473.49	9195.96
473.67	9231.07
473.85	9357.46
474.03	9348.10
474.21	9614.92
474.39	9554.07
474.57	9570.45
474.75	9724.93
474.93	9778.76
475.12	9781.10
475.30	10012.81
475.48	9823.23
475.66	9731.95
475.84	9963.66
476.02	10057.28
476.20	10047.92
476.38	10178.99
476.56	10331.12
476.74	10281.97
476.92	10230.48
477.10	10263.25
477.28	10422.41
477.46	10413.04
477.64	10558.16
477.82	10738.38
478.00	11096.48
478.18	11005.20
478.36	10806.25
478.54	11176.06
478.72	11297.77
478.90	11370.32
479.08	11349.26
479.26	11449.90
479.44	11447.56
479.62	11538.84
479.80	11564.59
479.98	11721.40
480.16	11918.01
480.34	11765.87
480.52	11805.66
480.70	12044.40
480.88	11838.43
481.06	11903.96
481.24	12046.74
481.41	12273.77
481.59	12610.81
481.77	12610.81
481.95	12526.55
482.13	12814.43
482.31	12915.08
482.49	12992.31
482.67	13291.90
482.85	13032.10
483.03	13324.67
483.21	13535.32
483.39	13394.89
483.57	13348.08
483.74	13619.58
483.92	13757.67
484.10	13631.28
484.28	14029.17
484.46	14073.64
484.64	14178.97
484.82	14139.18
485.00	14331.10
485.18	14651.75
485.35	14712.61
485.53	14429.40
485.71	14530.05
485.89	14841.34
486.07	15002.83
486.25	14808.57
486.43	15119.86
486.61	15243.91
486.78	15286.04
486.96	15555.20
487.14	15864.15
487.32	15789.25
487.50	15981.18
487.68	15817.34
487.85	16226.93
488.03	16444.60
488.21	16524.18
488.39	16372.05
488.57	16610.78
488.75	16542.91
488.92	17128.04
489.10	16884.62
489.28	17273.15
489.46	17252.09
489.64	17247.41
489.81	17556.36
489.99	17589.13
490.17	17853.61
490.35	17680.41
490.53	18068.94
490.70	18190.64
490.88	18270.22
491.06	18232.77
491.24	18239.79
491.41	18195.32
491.59	18698.54
491.77	18850.67
491.95	18717.26
492.13	18981.74
492.30	19173.67
492.48	19318.78
492.66	19218.14
492.84	19197.07
493.01	19714.33
493.19	19669.86
493.37	19651.14
493.54	19878.17
493.72	20051.37
493.90	20109.88
494.08	20393.09
494.25	20353.30
494.43	20238.61
494.61	20891.62
494.79	20856.51
494.96	20629.48
495.14	20664.59
495.32	21109.29
495.49	20826.09
495.67	21191.21
495.85	21514.20
496.02	21078.86
496.20	21624.21
496.38	21366.75
496.55	21832.52
496.73	22209.34
496.91	22038.48
497.09	22192.96
497.26	22237.43
497.44	22431.69
497.62	22373.18
497.79	22562.76
497.97	22394.25
498.14	22738.30
498.32	22951.29
498.50	23033.21
498.67	23159.60
498.85	23056.62
499.03	23466.21
499.20	23255.56
499.38	23215.77
499.56	23498.98
499.73	23655.79
499.91	23910.91
500.08	24051.34
500.26	23601.96
500.44	23939.00
500.61	24243.27
500.79	24236.25
500.97	24020.92
501.14	24383.70
501.32	24790.95
501.49	24524.13
501.67	24606.05
501.84	24835.42
502.02	24753.51
502.20	24734.78
502.37	24980.54
502.55	25130.33
502.72	24943.09
502.90	25057.78
503.07	25151.40
503.25	25184.16
503.43	25195.87
503.60	25507.16
503.78	25458.01
503.95	25685.04
504.13	25366.73
504.30	25764.62
504.48	25654.61
504.65	26263.15
504.83	26043.14
505.01	26132.08
505.18	26368.48
505.36	26415.29
505.53	26579.12
505.71	26286.56
505.88	26642.32
506.06	26223.36
506.23	26991.06
506.41	26263.15
506.58	26668.06
506.76	26780.41
506.93	27080.00
507.11	26817.86
507.28	27133.83
507.46	26918.50
507.63	27243.84
507.81	27491.93
507.98	27129.15
508.16	27379.59
508.33	27620.66
508.50	27515.34
508.68	27601.94
508.85	27934.29
509.03	28006.85
509.20	28135.58
509.38	28245.58
509.55	28374.31
509.73	28259.63
509.90	28381.34
510.08	28224.52
510.25	28683.27
510.42	28453.89
510.60	28961.79
510.77	28266.65
510.95	29151.37
511.12	28685.61
511.30	28964.13
511.47	29123.29
511.64	29362.02
511.82	29713.10
511.99	29048.39
512.17	29221.59
512.34	29301.17
512.51	29490.75
512.69	29432.24
512.86	29694.38
513.04	29841.83
513.21	29694.38
513.38	29617.14
513.56	29928.43
513.73	29752.89
513.90	30010.35
514.08	30071.20
514.25	30546.33
514.43	30029.07
514.60	30139.08
514.77	29989.28
514.95	30579.10
515.12	30520.59
515.29	30541.65
515.47	31110.40
515.64	31131.47
515.81	30625.91
515.99	30955.93
516.16	30876.35
516.33	31157.21
516.51	31098.70
516.68	31110.40
516.85	30436.33
517.03	31087.00
517.20	31248.49
517.37	31239.13
517.54	31367.86
517.72	31321.05
517.89	31274.24
518.06	31409.99
518.24	31573.83
518.41	31608.93
518.58	31498.93
518.75	31480.21
518.93	31985.76
519.10	31754.05
519.27	32020.87
519.45	32119.17
519.62	32250.24
519.79	31967.04
519.96	32362.59
520.14	32631.75
520.31	32175.34
520.48	33010.92
520.65	32458.55
520.83	32606.00
521.00	32910.27
521.17	32620.05
521.34	32933.68
521.52	33170.07
521.69	32966.45
521.86	33027.30
522.03	32971.13
522.20	33326.89
522.38	33504.77
522.55	33319.87
522.72	33539.88
522.89	33530.51
523.07	33677.97
523.24	33450.94
523.41	33436.89
523.58	33174.75
523.75	33893.30
523.92	34012.66
524.10	33890.96
524.27	34078.20
524.44	34160.12
524.61	33869.89
524.78	34270.12
524.96	34558.01
525.13	34298.21
525.30	34513.54
525.47	34873.98
525.64	34539.29
525.81	34670.36
525.98	34618.86
526.16	34558.01
526.33	34347.36
526.50	34803.77
526.67	34443.32
526.84	34464.39
527.01	34178.84
527.18	34745.25
527.36	35255.49
527.53	34902.07
527.70	35522.31
527.87	35229.74
528.04	35178.25
528.21	35136.12
528.38	35517.63
528.55	35653.38
528.72	35372.52
528.89	36081.70
529.07	35416.99
529.24	35246.13
529.41	35604.23
529.58	35814.88
529.75	35269.53
529.92	35819.56
530.09	35386.56
530.26	35718.92
530.43	35910.84
530.60	35763.39
530.77	36137.87
530.94	36669.17
531.11	35660.40
531.28	36376.61
531.46	36116.81
531.63	36091.06
531.80	36465.55
531.97	36212.77
532.14	36446.82
532.31	36187.02
532.48	36671.51
532.65	36842.37
532.82	36446.82
532.99	37003.87
533.16	36369.58
533.33	36847.05
533.50	37198.13
533.67	36947.70
533.84	36596.62
534.01	37109.19
534.18	36807.26
534.35	37514.11
534.52	37104.51
534.69	37340.91
534.86	37443.89
535.03	37076.43
535.20	37441.55
535.37	37792.63
535.54	37640.50
535.71	37209.84
535.88	37467.30
536.05	37706.03
536.22	37605.39
536.38	38012.64
536.55	37888.59
536.72	37364.31
536.89	37661.56
537.06	37553.90
537.23	38003.28
537.40	37357.29
537.57	37937.74
537.74	37610.07
537.91	38436.28
538.08	38195.20
538.25	37827.74
538.42	38150.73
538.59	38660.97
538.75	37586.66
538.92	38574.37
539.09	38218.61
539.26	38307.55
539.43	38295.85
539.60	38389.47
539.77	38382.45
539.94	38600.12
540.11	38452.66
540.28	38225.63
540.44	38698.42
540.61	38979.28
540.78	38455.00
540.95	38998.01
541.12	37890.93
541.29	38375.42
541.46	38785.02
541.62	38841.19
541.79	38759.27
541.96	38588.41
542.13	38452.66
542.30	38785.02
542.47	39243.76
542.63	39042.48
542.80	38988.64
542.97	39894.43
543.14	39763.36
543.31	39700.17
543.48	39835.92
543.64	40320.41
543.81	39927.20
543.98	39974.01
544.15	39765.70
544.32	39985.71
544.48	39966.99
544.65	40074.65
544.82	39899.11
544.99	39761.02
545.16	40039.54
545.32	39906.13
545.49	40409.35
545.66	40465.52
545.83	40154.23
546.00	40414.03
546.16	40444.46
546.33	39622.93
546.50	39688.46
546.67	40247.85
546.83	40154.23
547.00	40264.24
547.17	40364.88
547.34	40502.97
547.50	40449.14
547.67	40697.24
547.84	40320.41
548.00	40802.56
548.17	40535.74
548.34	40521.69
548.51	40847.03
548.67	40861.07
548.84	40961.72
549.01	40968.74
549.18	40519.35
549.34	40692.55
549.51	40868.09
549.68	40842.35
549.84	40914.90
550.01	41390.03
550.18	40840.01
550.34	41141.94
550.51	40961.72
550.68	41006.19
550.84	41078.74
551.01	40975.76
551.18	41132.57
551.34	40828.30
551.51	41408.76
551.68	41471.95
551.84	41106.83
552.01	41247.26
552.18	41544.51
552.34	41277.69
552.51	41801.97
552.68	41483.66
552.84	41310.46
553.01	41862.82
553.18	41918.99
553.34	41738.77
553.51	41022.57
553.67	41556.21
553.84	41865.16
554.01	42272.42
554.17	42600.09
554.34	41663.88
554.51	41659.20
554.67	42344.97
554.84	41827.71
555.00	41963.46
555.17	41890.91
555.33	42007.94
555.50	41944.74
555.67	42092.19
555.83	42099.22
556.00	42012.62
556.16	42562.64
556.33	42237.31
556.50	42314.55
556.66	42429.23
556.83	42153.05
556.99	42518.17
557.16	42501.79
557.32	42377.74
557.49	42429.23
557.65	42417.53
557.82	42319.23
557.98	42398.80
558.15	42366.04
558.32	42368.38
558.48	42328.59
558.65	42576.69
558.81	42710.10
558.98	42831.80
559.14	42466.68
559.31	43117.35
559.47	42487.74
559.64	42663.28
559.80	43159.48
559.97	42363.70
560.13	42192.84
560.30	42679.67
560.46	42712.44
560.63	42787.33
560.79	42873.93
560.96	43454.39
561.12	42887.98
561.29	42885.64
561.45	42724.14
561.61	42777.97
561.78	43175.86
561.94	42852.87
562.11	42450.30
562.27	42628.18
562.44	43061.18
562.60	42850.53
562.77	42986.28
562.93	42616.47
563.10	43152.46
563.26	42745.20
563.42	43318.64
563.59	42979.26
563.75	42754.57
563.92	43519.92
564.08	43311.61
564.24	43335.02
564.41	43487.15
564.57	43143.09
564.74	42916.06
564.90	43208.63
565.07	43194.59
565.23	43133.73
565.39	43122.03
565.56	43079.90
565.72	43489.49
565.88	43328.00
566.05	43070.54
566.21	43077.56
566.38	43405.23
566.54	43189.91
566.70	43744.61
566.87	43601.84
567.03	43438.00
567.19	44388.26
567.36	43707.16
567.52	43276.51
567.68	43391.19
567.85	43468.43
568.01	43817.17
568.17	43234.38
568.34	43746.95
568.50	43292.89
568.66	43529.28
568.83	43267.14
568.99	43454.39
569.15	43650.99
569.32	43426.30
569.48	43461.41
569.64	44013.77
569.81	43597.16
569.97	43690.78
570.13	43452.05
570.30	43480.13
570.46	43716.53
570.62	43543.33
570.78	43335.02
570.95	43335.02
571.11	43861.64
571.27	44018.46
571.43	43917.81
571.60	43585.46
571.76	43313.95
571.92	43688.44
572.09	43798.44
572.25	43627.59
572.41	43620.56
572.57	43770.36
572.74	44051.22
572.90	44182.29
573.06	43665.03
573.22	43620.56
573.38	43487.15
573.55	43421.62
573.71	43812.49
573.87	43618.22
574.03	43533.96
574.20	43515.24
574.36	43716.53
574.52	44076.97
574.68	43878.02
574.84	44261.87
575.01	43835.89
575.17	43711.84
575.33	43292.89
575.49	43875.68
575.65	44032.50
575.82	44800.19
575.98	43819.51
576.14	44243.15
576.30	44020.80
576.46	43557.37
576.62	43608.86
576.79	43660.35
576.95	43856.96
577.11	43442.68
577.27	43959.94
577.43	44236.12
577.59	44186.97
577.75	44149.53
577.92	43758.66
578.08	43508.22
578.24	43810.15
578.40	43915.47
578.56	43854.62
578.72	44074.63
578.88	44048.88
579.04	44348.47
579.21	44133.14
579.37	43878.02
579.53	44046.54
579.69	43665.03
579.85	43868.66
580.01	44261.87
580.17	44032.50
580.33	44247.83
580.49	44091.01
580.65	43777.38
580.82	44074.63
580.98	43990.37
581.14	43786.74
581.30	44264.21
581.46	44027.82
581.62	43803.13
581.78	44292.30
581.94	44271.23
582.10	43936.54
582.26	44020.80
582.42	43934.20
582.58	44191.65
582.74	43861.64
582.90	44343.79
583.06	44032.50
583.22	44350.81
583.38	44383.58
583.54	44100.37
583.70	43803.13
583.86	44041.86
584.02	43845.26
584.18	44573.16
584.34	43852.28
584.50	44065.27
584.66	44074.63
584.82	43744.61
584.98	44823.60
585.14	44252.51
585.30	43475.45
585.46	43913.13
585.62	43756.32
585.78	43929.51
585.94	43756.32
586.10	43814.83
586.26	43580.78
586.42	44191.65
586.58	44032.50
586.74	44313.36
586.90	44161.23
587.06	44098.03
587.22	44334.43
587.38	43636.95
587.54	44383.58
587.70	44465.50
587.86	44041.86
588.02	43871.00
588.18	44175.27
588.34	43739.93
588.49	43981.01
588.65	43704.82
588.81	44222.08
588.97	43707.16
589.13	43871.00
589.29	44516.99
589.45	44444.43
589.61	44170.59
589.77	44301.66
589.93	44364.85
590.08	44421.03
590.24	44472.52
590.40	44392.94
