SpectraSuite Data File
++++++++++++++++++++++++++++++++++++
Date: Fri Oct 25 11:33:16 EDT 2013
User: price-jones
Dark Spectrum Present: No
Reference Spectrum Present: No
Number of Sampled Component Spectra: 1
Spectrometers: USB2+H05261
Integration Time (usec): 100000 (USB2+H05261)
Spectra Averaged: 1 (USB2+H05261)
Boxcar Smoothing: 0 (USB2+H05261)
Correct for Electrical Dark: No (USB2+H05261)
Strobe/Lamp Enabled: No (USB2+H05261)
Correct for Detector Non-linearity: No (USB2+H05261)
Correct for Stray Light: No (USB2+H05261)
Number of Pixels in Processed Spectrum: 2048
>>>>>Begin Processed Spectral Data<<<<<
365.73	276.18
365.92	276.18
366.12	276.18
366.32	276.18
366.52	229.37
366.72	238.73
366.91	133.41
367.11	114.69
367.31	107.66
367.51	149.79
367.70	117.03
367.90	159.16
368.10	175.54
368.30	156.82
368.49	163.84
368.69	248.10
368.89	152.13
369.09	238.73
369.28	220.01
369.48	257.46
369.68	243.42
369.87	264.48
370.07	229.37
370.27	259.80
370.47	320.65
370.66	447.04
370.86	475.13
371.06	566.41
371.25	526.62
371.45	547.69
371.65	552.37
371.84	507.90
372.04	629.60
372.24	533.64
372.44	613.22
372.63	535.98
372.83	601.52
373.03	610.88
373.22	552.37
373.42	727.91
373.62	660.03
373.81	575.77
374.01	606.20
374.21	678.76
374.40	571.09
374.60	631.94
374.79	685.78
374.99	643.65
375.19	671.73
375.38	704.50
375.58	723.23
375.78	688.12
375.97	624.92
376.17	669.39
376.37	636.63
376.56	655.35
376.76	751.31
376.95	624.92
377.15	706.84
377.35	711.52
377.54	746.63
377.74	650.67
377.93	734.93
378.13	664.71
378.33	732.59
378.52	746.63
378.72	739.61
378.91	699.82
379.11	709.18
379.31	664.71
379.50	718.54
379.70	692.80
379.89	737.27
380.09	671.73
380.28	720.88
380.48	741.95
380.68	786.42
380.87	748.97
381.07	748.97
381.26	702.16
381.46	683.44
381.65	800.46
381.85	809.83
382.04	753.65
382.24	737.27
382.43	758.33
382.63	830.89
382.83	739.61
383.02	802.80
383.22	837.91
383.41	802.80
383.61	840.25
383.80	866.00
384.00	786.42
384.19	807.48
384.39	875.36
384.58	896.43
384.78	800.46
384.97	929.19
385.17	912.81
385.36	828.55
385.56	894.08
385.75	884.72
385.95	835.57
386.14	887.06
386.34	903.45
386.53	912.81
386.72	858.98
386.92	964.30
387.11	898.77
387.31	854.30
387.50	730.25
387.70	910.47
387.89	880.04
388.09	868.34
388.28	908.13
388.48	828.55
388.67	950.26
388.86	954.94
389.06	997.07
389.25	894.08
389.45	997.07
389.64	971.32
389.84	1078.99
390.03	985.37
390.22	983.02
390.42	961.96
390.61	978.34
390.81	1032.18
391.00	1020.47
391.19	1062.60
391.39	1050.90
391.58	1062.60
391.78	992.39
391.97	997.07
392.16	1039.20
392.36	1006.43
392.55	1086.01
392.75	1149.20
392.94	1018.13
393.13	1071.97
393.33	1114.10
393.52	1111.75
393.71	1132.82
393.91	1081.33
394.10	1104.73
394.29	1144.52
394.49	1146.86
394.68	1174.95
394.88	1142.18
395.07	1142.18
395.26	1188.99
395.46	1231.12
395.65	1123.46
395.84	1205.38
396.04	1184.31
396.23	1100.05
396.42	1247.51
396.62	1210.06
396.81	1226.44
397.00	1172.61
397.19	1132.82
397.39	1256.87
397.58	1282.61
397.77	1181.97
397.97	1200.69
398.16	1280.27
398.35	1301.34
398.55	1277.93
398.74	1317.72
398.93	1336.45
399.12	1275.59
399.32	1322.40
399.51	1348.15
399.70	1397.30
399.90	1420.71
400.09	1383.26
400.28	1390.28
400.47	1469.86
400.67	1409.00
400.86	1369.21
401.05	1420.71
401.24	1472.20
401.44	1331.76
401.63	1397.30
401.82	1425.39
402.01	1507.30
402.21	1523.69
402.40	1554.12
402.59	1558.80
402.78	1488.58
402.97	1462.83
403.17	1631.35
403.36	1530.71
403.55	1542.41
403.74	1511.99
403.93	1643.06
404.13	1586.88
404.32	1673.48
404.51	1547.09
404.70	1701.57
404.89	1764.76
405.09	1743.70
405.28	1717.95
405.47	1659.44
405.66	1743.70
405.85	1746.04
406.05	1825.62
406.24	1694.55
406.43	1729.66
406.62	1832.64
406.81	1827.96
407.00	1809.23
407.20	1830.30
407.39	1806.89
407.58	1928.60
407.77	1832.64
407.96	1895.83
408.15	1858.39
408.34	1912.22
408.54	2003.50
408.73	1963.71
408.92	1956.69
409.11	1975.41
409.30	2066.69
409.49	1968.39
409.68	2029.24
409.87	1963.71
410.07	2008.18
410.26	2125.21
410.45	2047.97
410.64	2062.01
410.83	2118.18
411.02	2148.61
411.21	2167.34
411.40	2202.44
411.59	2284.36
411.78	2165.00
411.98	2228.19
412.17	2340.54
412.36	2272.66
412.55	2232.87
412.74	2389.69
412.93	2328.83
413.12	2314.79
413.31	2539.48
413.50	2377.98
413.69	2445.86
413.88	2478.63
414.07	2457.56
414.26	2537.14
414.45	2555.86
414.64	2506.71
414.83	2605.02
415.02	2675.23
415.22	2717.36
415.41	2693.96
415.60	2785.24
415.79	2782.90
415.98	2689.28
416.17	2796.94
416.36	2766.51
416.55	2832.05
416.74	2881.20
416.93	2822.69
417.12	2883.54
417.31	2960.78
417.50	3070.78
417.69	2881.20
417.88	3026.31
418.07	2991.20
418.26	2918.65
418.45	2970.14
418.64	3211.22
418.83	3016.95
419.02	3056.74
419.21	3150.36
419.39	3112.91
419.58	3002.91
419.77	3117.59
419.96	3204.19
420.15	3152.70
420.34	3330.58
420.53	3232.28
420.72	3215.90
420.91	3260.37
421.10	3342.28
421.29	3295.47
421.48	3300.16
421.67	3262.71
421.86	3314.20
422.05	3274.41
422.24	3288.45
422.43	3342.28
422.61	3396.12
422.80	3389.10
422.99	3396.12
423.18	3501.44
423.37	3506.12
423.56	3543.57
423.75	3438.25
423.94	3417.18
424.13	3314.20
424.32	3286.11
424.50	3527.19
424.69	3513.14
424.88	3440.59
425.07	3426.54
425.26	3496.76
425.45	3438.25
425.64	3438.25
425.83	3372.71
426.01	3562.30
426.20	3473.36
426.39	3524.85
426.58	3466.33
426.77	3417.18
426.96	3449.95
427.15	3597.40
427.33	3562.30
427.52	3660.60
427.71	3716.77
427.90	3707.41
428.09	3653.58
428.28	3695.71
428.46	3662.94
428.65	3826.78
428.84	3815.07
429.03	3749.54
429.22	3712.09
429.40	3674.64
429.59	3932.10
429.78	3770.60
429.97	3637.19
430.16	3686.34
430.34	3974.23
430.53	3810.39
430.72	3978.91
430.91	3936.78
431.10	3932.10
431.28	4149.77
431.47	3918.06
431.66	4037.42
431.85	3922.74
432.03	4018.70
432.22	4257.43
432.41	4112.32
432.60	4191.90
432.79	4114.66
432.97	4138.07
433.16	4124.02
433.35	4114.66
433.54	4259.78
433.72	4217.65
433.91	4175.52
434.10	4252.75
434.28	4191.90
434.47	4287.86
434.66	4259.78
434.85	4287.86
435.03	4301.90
435.22	4318.29
435.41	4472.76
435.59	4365.10
435.78	4390.84
435.97	4348.72
436.16	4547.66
436.34	4475.10
436.53	4498.51
436.72	4627.24
436.90	4369.78
437.09	4620.22
437.28	4458.72
437.46	4564.04
437.65	4542.98
437.84	4697.46
438.02	4636.60
438.21	4723.20
438.40	4683.41
438.58	4650.64
438.77	4919.81
438.96	4837.89
439.14	4781.71
439.33	4924.49
439.52	4952.57
439.70	5083.64
439.89	5146.84
440.08	5057.90
440.26	4999.38
440.45	5186.63
440.63	5247.48
440.82	5069.60
441.01	5238.12
441.19	5315.36
441.38	5366.85
441.57	5259.18
441.75	5315.36
441.94	5392.59
442.12	5509.62
442.31	5549.41
442.50	5556.43
442.68	5511.96
442.87	5401.96
443.05	5647.71
443.24	5612.60
443.43	5537.71
443.61	5687.50
443.80	5685.16
443.98	5444.09
444.17	5380.89
444.35	5624.31
444.54	5689.84
444.73	5636.01
444.91	5659.42
445.10	5689.84
445.28	5664.10
445.47	5628.99
445.65	5753.04
445.84	5694.52
446.02	5767.08
446.21	5877.09
446.39	5678.14
446.58	6001.13
446.77	5891.13
446.95	5633.67
447.14	5678.14
447.32	5783.46
447.51	5647.71
447.69	5708.57
447.88	5755.38
448.06	5720.27
448.25	5778.78
448.43	5954.32
448.62	5839.64
448.80	5783.46
448.99	5916.87
449.17	5879.43
449.36	5975.39
449.54	6012.84
449.73	6076.03
449.91	6296.04
450.10	6190.72
450.28	6183.70
450.46	6171.99
450.65	6059.65
450.83	6176.67
451.02	6160.29
451.20	6235.19
451.39	6305.40
451.57	6293.70
451.76	6157.95
451.94	6260.93
452.13	6190.72
452.31	6417.75
452.49	6230.51
452.68	6392.00
452.86	6438.81
453.05	6452.86
453.23	6539.46
453.42	6445.84
453.60	6186.04
453.78	6616.69
453.97	6518.39
454.15	6406.05
454.34	6663.51
454.52	6883.52
454.70	6581.59
454.89	6752.45
455.07	6574.56
455.26	6562.86
455.44	6541.80
455.62	6778.19
455.81	6558.18
455.99	6801.60
456.17	6822.66
456.36	6895.22
456.54	6951.39
456.73	6817.98
456.91	7234.60
457.09	6883.52
457.28	7213.53
457.46	6909.26
457.64	7143.32
457.83	7108.21
458.01	6953.73
458.19	7283.75
458.38	7208.85
458.56	7307.15
458.74	7365.67
458.93	7325.88
459.11	7276.73
459.29	7197.15
459.48	7435.88
459.66	7281.41
459.84	7391.41
460.03	7452.27
460.21	7449.93
460.39	7389.07
460.57	7653.55
460.76	7611.42
460.94	7534.18
461.12	7501.42
461.31	7688.66
461.49	7660.57
461.67	7623.12
461.85	7691.00
462.04	7566.95
462.22	8196.56
462.40	7983.57
462.59	7660.57
462.77	7782.28
462.95	7852.50
463.13	7716.75
463.32	7822.07
463.50	7887.61
463.68	8030.38
463.86	7950.80
464.05	7960.16
464.23	8018.68
464.41	8098.25
464.59	7915.69
464.78	8301.88
464.96	8116.98
465.14	8121.66
465.32	8241.03
465.50	8292.52
465.69	8229.32
465.87	8114.64
466.05	8332.31
466.23	8308.90
466.41	8414.23
466.60	8603.81
466.78	8226.98
466.96	8407.20
467.14	8266.77
467.32	8374.44
467.51	8428.27
467.69	8191.88
467.87	8559.34
468.05	8500.83
468.23	8222.30
468.41	8428.27
468.60	8683.39
468.78	8599.13
468.96	8615.51
469.14	8835.52
469.32	8723.18
469.50	8610.83
469.69	8688.07
469.87	8741.90
470.05	8997.02
470.23	8901.06
470.41	8805.10
470.59	8950.21
470.77	8861.27
470.95	9001.70
471.14	9092.98
471.32	8816.80
471.50	9345.76
471.68	9078.94
471.86	9247.46
472.04	9345.76
472.22	9472.15
472.40	9205.33
472.58	9273.20
472.77	9547.05
472.95	9401.93
473.13	9710.88
473.31	9542.36
473.49	9638.33
473.67	9774.08
473.85	9476.83
474.03	9638.33
474.21	9912.17
474.39	9928.55
474.57	9912.17
474.75	10104.09
474.93	10054.94
475.12	10153.24
475.30	10157.92
475.48	10001.11
475.66	10221.12
475.84	10377.94
476.02	10225.80
476.20	10396.66
476.38	10689.23
476.56	10799.23
476.74	10539.43
476.92	10651.78
477.10	10506.66
477.28	10850.72
477.46	10853.06
477.64	10890.51
477.82	10988.82
478.00	11342.24
478.18	11243.93
478.36	11414.79
478.54	11576.29
478.72	11424.15
478.90	11721.40
479.08	11824.39
479.26	11693.32
479.44	11756.51
479.62	11896.94
479.80	12182.49
479.98	12035.03
480.16	12463.35
480.34	12152.06
480.52	12648.26
480.70	12423.56
480.88	12423.56
481.06	12615.49
481.24	12517.18
481.41	12945.50
481.59	12833.16
481.77	12994.65
481.95	12898.69
482.13	13060.19
482.31	13060.19
482.49	13252.11
482.67	13575.11
482.85	13556.38
483.03	13659.37
483.21	13830.23
483.39	13968.32
483.57	14031.51
483.74	14101.73
483.92	14003.43
484.10	14181.31
484.28	14508.98
484.46	14583.88
484.64	14745.38
484.82	14525.36
485.00	14780.48
485.18	15391.36
485.35	15487.32
485.53	15290.72
485.71	15438.17
485.89	15552.86
486.07	15466.26
486.25	15674.57
486.43	15545.84
486.61	15765.85
486.78	16170.76
486.96	16531.20
487.14	16294.81
487.32	16416.52
487.50	16549.93
487.68	16659.93
487.85	16744.19
488.03	16882.28
488.21	17373.80
488.39	17076.55
488.57	17493.16
488.75	17467.42
488.92	17432.31
489.10	17778.71
489.28	17951.91
489.46	17745.94
489.64	18082.98
489.81	18387.25
489.99	17958.93
490.17	18726.63
490.35	18429.38
490.53	18635.35
490.70	19063.66
490.88	18733.65
491.06	19002.81
491.24	19222.82
491.41	19080.05
491.59	19440.49
491.77	19276.65
491.95	19756.46
492.13	19616.03
492.30	19723.69
492.48	19770.51
492.66	19875.83
492.84	20051.37
493.01	20561.61
493.19	20355.64
493.37	20407.13
493.54	20491.39
493.72	20435.22
493.90	20596.71
494.08	21029.71
494.25	21259.09
494.43	21207.59
494.61	21263.77
494.79	21378.45
494.96	21446.33
495.14	21769.32
495.32	22199.98
495.49	22033.80
495.67	22263.18
495.85	22335.73
496.02	22356.80
496.20	22298.28
496.38	22852.99
496.55	22427.01
496.73	23161.94
496.91	23033.21
497.09	23178.33
497.26	23000.44
497.44	22979.38
497.62	23068.32
497.79	23370.25
497.97	23616.01
498.14	23847.72
498.32	23814.95
498.50	23950.70
498.67	24098.16
498.85	23934.32
499.03	24245.61
499.20	24428.17
499.38	24664.57
499.56	24566.26
499.73	24886.92
499.91	24896.28
500.08	24971.18
500.26	24936.07
500.44	25036.71
500.61	25174.80
500.79	24898.62
500.97	25413.54
501.14	25518.86
501.32	25696.74
501.49	25895.69
501.67	25493.12
501.84	26080.59
502.02	25582.06
502.20	25785.68
502.37	25965.90
502.55	25839.51
502.72	26197.62
502.90	26284.22
503.07	25982.29
503.25	26209.32
503.43	26073.57
503.60	26745.30
503.78	26792.11
503.95	26991.06
504.13	26656.36
504.30	26916.16
504.48	27138.51
504.65	26824.88
504.83	27171.28
505.01	27428.74
505.18	27290.65
505.36	27896.85
505.53	27445.12
505.71	27697.90
505.88	27938.97
506.06	27803.22
506.23	27894.50
506.41	28016.21
506.58	27875.78
506.76	28379.00
506.93	28053.66
507.11	28261.97
507.28	28634.11
507.46	28486.66
507.63	28505.38
507.81	28603.69
507.98	28652.84
508.16	28760.50
508.33	29146.69
508.50	29125.63
508.68	28924.34
508.85	28989.88
509.03	29198.18
509.20	29202.86
509.38	29788.00
509.55	29497.77
509.73	29570.33
509.90	29940.13
510.08	29593.73
510.25	30103.97
510.42	29940.13
510.60	30389.52
510.77	30291.21
510.95	30581.44
511.12	30424.62
511.30	30328.66
511.47	30331.00
511.64	30244.40
511.82	30799.11
511.99	30501.86
512.17	30771.02
512.34	30499.52
512.51	31302.32
512.69	31264.88
512.86	30892.73
513.04	31082.31
513.21	31335.09
513.38	31311.69
513.56	31711.92
513.73	31307.01
513.90	31527.02
514.08	31758.73
514.25	31718.94
514.43	31817.24
514.60	31871.07
514.77	32217.47
514.95	32229.18
515.12	31999.80
515.29	32133.21
515.47	32669.20
515.64	32435.14
515.81	32100.45
515.99	32788.56
516.16	32683.24
516.33	32741.75
516.51	33001.55
516.68	32535.79
516.85	32964.10
517.03	32985.17
517.20	33102.20
517.37	33193.48
517.54	33144.33
517.72	32961.76
517.89	33034.32
518.06	33507.11
518.24	33254.33
518.41	33500.09
518.58	33628.82
518.75	33521.15
518.93	33979.90
519.10	33582.01
519.27	34120.33
519.45	33830.10
519.62	34036.07
519.79	34326.30
519.96	33853.51
520.14	34286.51
520.31	34089.90
520.48	34209.27
520.65	34066.50
520.83	34962.92
521.00	34941.86
521.17	34429.28
521.34	34450.35
521.52	34726.53
521.69	34710.14
521.86	35405.28
522.03	34953.56
522.20	35297.62
522.38	35419.33
522.55	35644.02
522.72	35388.90
522.89	35391.24
523.07	35871.05
523.24	36151.91
523.41	35821.90
523.58	35732.96
523.75	35786.79
523.92	35358.47
524.10	36065.31
524.27	35861.69
524.44	35849.99
524.61	36161.28
524.78	36350.86
524.96	36421.08
525.13	36456.18
525.30	36620.02
525.47	36533.42
525.64	36910.25
525.81	36559.17
525.98	37071.75
526.16	36783.86
526.33	36992.17
526.50	37127.92
526.67	36781.52
526.84	37446.23
527.01	37060.04
527.18	36540.44
527.36	37013.23
527.53	37268.35
527.70	37607.73
527.87	37469.64
528.04	37305.80
528.21	37813.70
528.38	37366.65
528.55	37448.57
528.72	37565.60
528.89	37354.95
529.07	37493.04
529.24	37364.31
529.41	38242.01
529.58	38012.64
529.75	37586.66
529.92	37783.27
530.09	37809.01
530.26	37689.65
530.43	38286.48
530.60	38075.84
530.77	38124.99
530.94	38480.75
531.11	38225.63
531.28	38455.00
531.46	38864.60
531.63	38836.51
531.80	38756.93
531.97	38888.00
532.14	38763.95
532.31	38703.10
532.48	38827.15
532.65	39061.20
532.82	38450.32
532.99	39009.71
533.16	38932.47
533.33	38869.28
533.50	39381.85
533.67	39281.21
533.84	38623.52
534.01	39395.90
534.18	39267.17
534.35	39969.33
534.52	39875.71
534.69	39835.92
534.86	39737.62
535.03	39522.29
535.20	39971.67
535.37	39971.67
535.54	40130.83
535.71	39812.51
535.88	39988.05
536.05	40034.86
536.22	40109.76
536.38	40128.48
536.55	40439.78
536.72	40339.13
536.89	40191.68
537.06	40334.45
537.23	40353.18
537.40	40304.02
537.57	40238.49
537.74	40339.13
537.91	40776.81
538.08	40570.85
538.25	40463.18
538.42	40697.24
538.59	40442.12
538.75	40568.51
538.92	40973.42
539.09	41083.42
539.26	40732.34
539.43	40830.65
539.60	41258.96
539.77	40999.16
539.94	41724.73
540.11	41036.61
540.28	41373.65
540.44	41539.83
540.61	40996.82
540.78	41097.47
540.95	41413.44
541.12	41155.98
541.29	41425.14
541.46	41556.21
541.62	41429.82
541.79	41862.82
541.96	41308.11
542.13	41256.62
542.30	41930.70
542.47	41935.38
542.63	42122.62
542.80	41752.82
542.97	42223.26
543.14	42768.61
543.31	42316.89
543.48	41890.91
543.64	42522.85
543.81	42604.77
543.98	42043.04
544.15	42422.21
544.32	42590.73
544.48	42770.95
544.65	42712.44
544.82	42567.32
544.99	42564.98
545.16	42719.46
545.32	42660.94
545.49	42712.44
545.66	43030.75
545.83	42419.87
546.00	43147.78
546.16	43023.73
546.33	43157.14
546.50	43058.84
546.67	43206.29
546.83	42649.24
547.00	43028.41
547.17	43344.38
547.34	43051.81
547.50	43468.43
547.67	43800.79
547.84	43655.67
548.00	43419.28
548.17	43653.33
548.34	43393.53
548.51	43648.65
548.67	43936.54
548.84	43618.22
549.01	43618.22
549.18	43828.87
549.34	43983.35
549.51	43875.68
549.68	43922.49
549.84	43854.62
550.01	44086.33
550.18	43573.75
550.34	43992.71
550.51	44346.13
550.68	44081.65
550.84	44086.33
551.01	44594.23
551.18	44069.95
551.34	44023.14
551.51	44294.64
551.68	43929.51
551.84	44048.88
552.01	44088.67
552.18	44596.57
552.34	44201.02
552.51	44343.79
552.68	44350.81
552.84	44425.71
553.01	44540.39
553.18	44652.74
553.34	44708.91
553.51	44685.51
553.67	44652.74
553.84	44898.50
554.01	44872.75
554.17	44680.83
554.34	45045.95
554.51	44582.52
554.67	45294.05
554.84	45137.23
555.00	44832.96
555.17	44926.58
555.33	45436.82
555.50	44940.63
555.67	45022.54
555.83	45081.06
556.00	45553.85
556.16	45277.66
556.33	45272.98
556.50	45146.59
556.66	45750.45
556.83	45291.71
556.99	45326.81
557.16	45680.24
557.32	45270.64
557.49	45820.67
557.65	45202.77
557.82	45724.71
557.98	45333.84
558.15	45291.71
558.32	45567.89
558.48	45446.18
558.65	45876.84
558.81	45804.28
558.98	45668.53
559.14	45649.81
559.31	45624.06
559.47	45558.53
559.64	45792.58
559.80	45525.76
559.97	46110.89
560.13	45752.79
560.30	45675.55
560.46	46218.56
560.63	45940.04
560.79	46101.53
560.96	46204.52
561.12	46127.28
561.29	46263.03
561.45	46258.35
561.61	46028.98
561.78	46241.96
561.94	46183.45
562.11	46239.62
562.27	46188.13
562.44	46288.77
562.60	46277.07
562.77	46183.45
562.93	45811.31
563.10	46848.16
563.26	46141.32
563.42	46862.21
563.59	46499.42
563.75	46347.29
563.92	46199.83
564.08	46258.35
564.24	46401.12
564.41	46260.69
564.57	46656.24
564.74	46391.76
564.90	46504.10
565.07	46557.94
565.23	46600.07
565.39	46469.00
565.56	46204.52
565.72	46604.75
565.88	46422.19
566.05	47063.49
566.21	46845.82
566.38	46263.03
566.54	46630.49
566.70	46494.74
566.87	46808.37
567.03	46501.76
567.19	47206.26
567.36	46059.40
567.52	47173.50
567.68	46962.85
567.85	47082.22
568.01	47318.61
568.17	47091.58
568.34	46976.89
568.50	46979.23
568.66	46646.88
568.83	46981.57
568.99	46789.65
569.15	46923.06
569.32	47061.15
569.48	46897.31
569.64	47152.43
569.81	47019.02
569.97	46857.52
570.13	47370.10
570.30	47000.30
570.46	47063.49
570.62	46983.91
570.78	46955.83
570.95	46887.95
571.11	47445.00
571.27	46972.21
571.43	46852.84
571.60	46890.29
571.76	46857.52
571.92	47501.17
572.09	47033.07
572.25	47124.35
572.41	46820.08
572.57	46784.97
572.74	47634.58
572.90	47124.35
573.06	47538.62
573.22	47295.21
573.38	47203.92
573.55	47407.55
573.71	47452.02
573.87	47543.30
574.03	47171.16
574.20	47330.31
574.36	47012.00
574.52	47089.24
574.68	47323.29
574.84	47461.38
575.01	47386.49
575.17	47688.42
575.33	47821.83
575.49	47480.11
575.65	47847.57
575.82	47461.38
575.98	47140.73
576.14	47665.01
576.30	47672.03
576.46	47695.44
576.62	47456.70
576.79	47398.19
576.95	47262.44
577.11	47330.31
577.27	47065.83
577.43	47260.10
577.59	47363.08
577.75	47412.23
577.92	47234.35
578.08	47510.53
578.24	47725.86
578.40	47620.54
578.56	47709.48
578.72	47756.29
578.88	47903.74
579.04	47466.06
579.21	47765.65
579.37	47393.51
579.53	47922.47
579.69	47346.70
579.85	47716.50
580.01	47870.98
580.17	47484.79
580.33	48025.45
580.49	47896.72
580.65	47545.64
580.82	47690.76
580.98	47655.65
581.14	47192.22
581.30	47629.90
581.46	47257.76
581.62	47512.88
581.78	47152.43
581.94	47882.68
582.10	47613.52
582.26	47657.99
582.42	47882.68
582.58	47634.58
582.74	47744.59
582.90	47430.96
583.06	47826.51
583.22	47503.51
583.38	47660.33
583.54	47807.78
583.70	47538.62
583.86	47887.36
584.02	48018.43
584.18	47803.10
584.34	47978.64
584.50	47885.02
584.66	48053.54
584.82	47686.07
584.98	48233.76
585.14	48229.08
585.30	47739.91
585.46	47950.56
585.62	47583.09
585.78	47831.19
585.94	47456.70
586.10	47957.58
586.26	47667.35
586.42	47662.67
586.58	47763.31
586.74	48053.54
586.90	47405.21
587.06	47842.89
587.22	48069.92
587.38	47721.18
587.54	47995.03
587.70	48224.40
587.86	47959.92
588.02	47697.78
588.18	47709.48
588.34	48172.91
588.49	47716.50
588.65	47679.05
588.81	47800.76
588.97	48039.50
589.13	47910.77
589.29	48170.57
589.45	48273.55
589.61	47828.85
589.77	48222.06
589.93	48048.86
