SpectraSuite Data File
++++++++++++++++++++++++++++++++++++
Date: Fri Oct 25 10:47:42 EDT 2013
User: price-jones
Dark Spectrum Present: No
Reference Spectrum Present: No
Number of Sampled Component Spectra: 1
Spectrometers: USB2+H05261
Integration Time (usec): 100000 (USB2+H05261)
Spectra Averaged: 1 (USB2+H05261)
Boxcar Smoothing: 0 (USB2+H05261)
Correct for Electrical Dark: No (USB2+H05261)
Strobe/Lamp Enabled: No (USB2+H05261)
Correct for Detector Non-linearity: No (USB2+H05261)
Correct for Stray Light: No (USB2+H05261)
Number of Pixels in Processed Spectrum: 2048
>>>>>Begin Processed Spectral Data<<<<<
365.73	91.28
365.92	91.28
366.12	91.28
366.32	74.90
366.52	67.88
366.72	56.17
366.91	49.15
367.11	53.83
367.31	0.00
367.51	60.85
367.70	25.75
367.90	60.85
368.10	35.11
368.30	72.56
368.49	46.81
368.69	53.83
368.89	35.11
369.09	60.85
369.28	51.49
369.48	95.96
369.68	114.69
369.87	98.30
370.07	72.56
370.27	124.05
370.47	168.52
370.66	365.12
370.86	386.19
371.06	416.62
371.25	447.04
371.45	411.93
371.65	449.38
371.84	505.56
372.04	425.98
372.24	477.47
372.44	496.19
372.63	503.22
372.83	491.51
373.03	437.68
373.22	524.28
373.42	521.94
373.62	528.96
373.81	610.88
374.01	528.96
374.21	545.34
374.40	554.71
374.60	514.92
374.79	505.56
374.99	596.84
375.19	566.41
375.38	580.45
375.58	543.00
375.78	571.09
375.97	550.03
376.17	592.16
376.37	575.77
376.56	568.75
376.76	470.45
376.95	524.28
377.15	587.47
377.35	580.45
377.54	634.29
377.74	510.24
377.93	613.22
378.13	641.31
378.33	564.07
378.52	585.13
378.72	571.09
378.91	662.37
379.11	653.01
379.31	615.56
379.50	601.52
379.70	648.33
379.89	655.35
380.09	636.63
380.28	638.97
380.48	683.44
380.68	636.63
380.87	592.16
381.07	629.60
381.26	739.61
381.46	575.77
381.65	678.76
381.85	779.40
382.04	709.18
382.24	678.76
382.43	690.46
382.63	613.22
382.83	695.14
383.02	741.95
383.22	844.93
383.41	753.65
383.61	634.29
383.80	748.97
384.00	772.38
384.19	753.65
384.39	725.57
384.58	716.20
384.78	723.23
384.97	788.76
385.17	702.16
385.36	751.31
385.56	795.78
385.75	716.20
385.95	713.86
386.14	791.10
386.34	821.53
386.53	751.31
386.72	795.78
386.92	868.34
387.11	786.42
387.31	676.41
387.50	826.21
387.70	788.76
387.89	779.40
388.09	809.83
388.28	751.31
388.48	814.51
388.67	880.04
388.86	840.25
389.06	894.08
389.25	901.11
389.45	856.64
389.64	840.25
389.84	1011.11
390.03	931.53
390.22	929.19
390.42	837.91
390.61	952.60
390.81	952.60
391.00	968.98
391.19	931.53
391.39	931.53
391.58	1025.15
391.78	912.81
391.97	990.05
392.16	983.02
392.36	1011.11
392.55	980.68
392.75	1015.79
392.94	985.37
393.13	952.60
393.33	922.17
393.52	933.87
393.71	980.68
393.91	1071.97
394.10	1020.47
394.29	1076.65
394.49	1018.13
394.68	1053.24
394.88	1179.63
395.07	1132.82
395.26	1102.39
395.46	1043.88
395.65	1149.20
395.84	1116.44
396.04	1090.69
396.23	1095.37
396.42	1156.22
396.62	1109.41
396.81	1153.88
397.00	1109.41
397.19	1165.59
397.39	1235.80
397.58	1095.37
397.77	1128.14
397.97	1287.29
398.16	1275.59
398.35	1299.00
398.55	1200.69
398.74	1334.11
398.93	1296.66
399.12	1284.95
399.32	1282.61
399.51	1317.72
399.70	1397.30
399.90	1373.89
400.09	1373.89
400.28	1387.94
400.47	1352.83
400.67	1357.51
400.86	1430.07
401.05	1472.20
401.24	1418.36
401.44	1542.41
401.63	1441.77
401.82	1441.77
402.01	1430.07
402.21	1504.96
402.40	1610.29
402.59	1561.14
402.78	1533.05
402.97	1549.43
403.17	1535.39
403.36	1589.22
403.55	1549.43
403.74	1570.50
403.93	1650.08
404.13	1624.33
404.32	1603.27
404.51	1624.33
404.70	1706.25
404.89	1682.85
405.09	1703.91
405.28	1626.67
405.47	1696.89
405.66	1762.42
405.85	1680.50
406.05	1746.04
406.24	1832.64
406.43	1863.07
406.62	1778.81
406.81	1799.87
407.00	1813.92
407.20	1771.79
407.39	1816.26
407.58	1884.13
407.77	1926.26
407.96	2008.18
408.15	1998.82
408.34	1851.36
408.54	1975.41
408.73	1923.92
408.92	1973.07
409.11	2101.80
409.30	2036.27
409.49	2012.86
409.68	2031.58
409.87	2108.82
410.07	2008.18
410.26	2069.03
410.45	2146.27
410.64	2090.10
410.83	2106.48
411.02	2211.81
411.21	2260.96
411.40	2221.17
411.59	2218.83
411.78	2183.72
411.98	2319.47
412.17	2249.25
412.36	2352.24
412.55	2359.26
412.74	2375.64
412.93	2293.72
413.12	2340.54
413.31	2532.46
413.50	2436.50
413.69	2485.65
413.88	2502.03
414.07	2504.37
414.26	2548.84
414.45	2544.16
414.64	2502.03
414.83	2541.82
415.02	2576.93
415.22	2668.21
415.41	2656.51
415.60	2705.66
415.79	2794.60
415.98	2874.18
416.17	2813.32
416.36	2883.54
416.55	2782.90
416.74	2773.53
416.93	2857.79
417.12	2939.71
417.31	2864.82
417.50	2942.05
417.69	2970.14
417.88	3054.40
418.07	3096.53
418.26	2925.67
418.45	2984.18
418.64	3157.38
418.83	3063.76
419.02	3061.42
419.21	3192.49
419.39	3190.15
419.58	3141.00
419.77	3152.70
419.96	3108.23
420.15	3281.43
420.34	3353.99
420.53	3251.00
420.72	3365.69
420.91	3197.17
421.10	3335.26
421.29	3330.58
421.48	3311.86
421.67	3227.60
421.86	3353.99
422.05	3302.50
422.24	3358.67
422.43	3314.20
422.61	3501.44
422.80	3468.67
422.99	3398.46
423.18	3536.55
423.37	3492.08
423.56	3431.23
423.75	3552.93
423.94	3536.55
424.13	3297.81
424.32	3433.57
424.50	3548.25
424.69	3599.74
424.88	3571.66
425.07	3459.31
425.26	3365.69
425.45	3496.76
425.64	3520.17
425.83	3501.44
426.01	3571.66
426.20	3559.95
426.39	3585.70
426.58	3506.12
426.77	3449.95
426.96	3562.30
427.15	3606.77
427.33	3531.87
427.52	3634.85
427.71	3595.06
427.90	3669.96
428.09	3583.36
428.28	3824.44
428.46	3559.95
428.65	3747.20
428.84	3838.48
429.03	3906.35
429.22	3702.73
429.40	3719.11
429.59	3721.45
429.78	3651.24
429.97	3559.95
430.16	3719.11
430.34	3754.22
430.53	3871.25
430.72	3789.33
430.91	3950.82
431.10	3777.62
431.28	4046.79
431.47	4093.60
431.66	4264.46
431.85	3873.59
432.03	4081.89
432.22	4210.62
432.41	3983.59
432.60	4142.75
432.79	4114.66
432.97	4147.43
433.16	4313.61
433.35	4093.60
433.54	4203.60
433.72	4304.25
433.91	4168.49
434.10	4344.03
434.28	4299.56
434.47	4381.48
434.66	4428.29
434.85	4362.76
435.03	4285.52
435.22	4440.00
435.41	4475.10
435.59	4489.15
435.78	4634.26
435.97	4526.60
436.16	4566.39
436.34	4322.97
436.53	4421.27
436.72	4641.28
436.90	4643.62
437.09	4624.90
437.28	4463.40
437.46	4594.47
437.65	4648.30
437.84	4578.09
438.02	4535.96
438.21	4713.84
438.40	4636.60
438.58	4739.58
438.77	4865.97
438.96	4901.08
439.14	4903.42
439.33	4957.25
439.52	5048.54
439.70	4933.85
439.89	4957.25
440.08	4966.62
440.26	5149.18
440.45	5163.22
440.63	5254.50
440.82	5184.29
441.01	5284.93
441.19	5270.89
441.38	5305.99
441.57	5327.06
441.75	5481.53
441.94	5621.97
442.12	5589.20
442.31	5490.90
442.50	5689.84
442.68	5558.77
442.87	5703.89
443.05	5509.62
443.24	5734.31
443.43	5631.33
443.61	5652.39
443.80	5865.38
443.98	5636.01
444.17	5521.32
444.35	5767.08
444.54	5954.32
444.73	5806.87
444.91	5788.14
445.10	5708.57
445.28	5708.57
445.47	5696.86
445.65	5823.25
445.84	5717.93
446.02	6001.13
446.21	5837.30
446.39	5792.83
446.58	5872.40
446.77	5856.02
446.95	5689.84
447.14	5799.85
447.32	5914.53
447.51	5921.56
447.69	5879.43
447.88	5949.64
448.06	6001.13
448.25	5895.81
448.43	6080.71
448.62	5935.60
448.80	5968.37
448.99	6083.05
449.17	6148.59
449.36	6005.81
449.54	6087.73
449.73	6033.90
449.91	6169.65
450.10	6193.06
450.28	6424.77
450.46	6300.72
450.65	6314.77
450.83	6443.49
451.02	6263.27
451.20	6291.36
451.39	6406.05
451.57	6235.19
451.76	6363.92
451.94	6277.32
452.13	6473.92
452.31	6555.84
452.49	6347.53
452.68	6429.45
452.86	6406.05
453.05	6464.56
453.23	6513.71
453.42	6244.55
453.60	6548.82
453.78	6710.32
453.97	6516.05
454.15	6497.33
454.34	6497.33
454.52	6581.59
454.70	6651.80
454.89	6750.10
455.07	6841.39
455.26	6832.02
455.44	6923.30
455.62	6935.01
455.81	6640.10
455.99	6869.47
456.17	7019.27
456.36	6846.07
456.54	7222.89
456.73	7075.44
456.91	7208.85
457.09	7178.42
457.28	7187.79
457.46	7206.51
457.64	7089.48
457.83	7150.34
458.01	7227.57
458.19	7297.79
458.38	7222.89
458.56	7426.52
458.74	7337.58
458.93	7307.15
459.11	7250.98
459.29	7265.02
459.48	7356.30
459.66	7393.75
459.84	7456.95
460.03	7527.16
460.21	7609.08
460.39	7442.90
460.57	7683.98
460.76	7496.74
460.94	7552.91
461.12	7655.89
461.31	7683.98
461.49	7585.68
461.67	7566.95
461.85	7810.37
462.04	7702.70
462.22	8276.13
462.40	8018.68
462.59	7957.82
462.77	7728.45
462.95	7868.88
463.13	7880.58
463.32	8002.29
463.50	7981.23
463.68	8025.70
463.86	7889.95
464.05	7981.23
464.23	7929.74
464.41	7929.74
464.59	7864.20
464.78	8484.44
464.96	8119.32
465.14	8006.97
465.32	8201.24
465.50	8074.85
465.69	8194.22
465.87	8187.19
466.05	8393.16
466.23	8390.82
466.41	8341.67
466.60	8404.86
466.78	8336.99
466.96	8238.69
467.14	8201.24
467.32	8353.37
467.51	8505.51
467.69	8290.18
467.87	8465.72
468.05	8540.61
468.23	8650.62
468.41	8636.58
468.60	8521.89
468.78	8580.40
468.96	8667.00
469.14	8706.79
469.32	8622.53
469.50	8659.98
469.69	8769.99
469.87	8840.20
470.05	8777.01
470.23	8631.90
470.41	8732.54
470.59	9029.79
470.77	8837.86
470.95	8877.65
471.14	9177.24
471.32	9006.38
471.50	9172.56
471.68	9067.24
471.86	9219.37
472.04	9163.20
472.22	9542.36
472.40	9200.65
472.58	9334.06
472.77	9287.25
472.95	9298.95
473.13	9708.54
473.31	9390.23
473.49	9231.07
473.67	9633.64
473.85	9603.22
474.03	9755.35
474.21	9870.04
474.39	9762.37
474.57	9834.93
474.75	9907.49
474.93	9919.19
475.12	9912.17
475.30	9966.00
475.48	10118.14
475.66	10244.52
475.84	10057.28
476.02	10106.43
476.20	10244.52
476.38	10736.04
476.56	10850.72
476.74	10499.64
476.92	10448.15
477.10	10813.28
477.28	10560.50
477.46	10691.57
477.64	10934.98
477.82	11183.08
478.00	11283.72
478.18	10930.30
478.36	11190.10
478.54	11234.57
478.72	11482.67
478.90	11487.35
479.08	11925.03
479.26	11798.64
479.44	11894.60
479.62	12028.01
479.80	12020.99
479.98	11903.96
480.16	12484.42
480.34	12081.85
480.52	12353.35
480.70	12210.57
480.88	12238.66
481.06	12514.84
481.24	12496.12
481.41	12849.54
481.59	12636.55
481.77	13160.83
481.95	12959.55
482.13	13011.04
482.31	12989.97
482.49	13467.44
482.67	13362.12
482.85	13392.55
483.03	13654.69
483.21	13790.44
483.39	13893.42
483.57	13947.25
483.74	13900.44
483.92	14342.80
484.10	14143.86
484.28	14125.13
484.46	14506.64
484.64	14668.14
484.82	14427.06
485.00	14923.26
485.18	14878.79
485.35	14927.94
485.53	14937.30
485.71	14787.50
485.89	15094.11
486.07	15077.73
486.25	15297.74
486.43	15543.50
486.61	15501.37
486.78	15775.21
486.96	15929.69
487.14	15971.82
487.32	16077.14
487.50	16161.40
487.68	16493.76
487.85	16702.06
488.03	16861.22
488.21	16704.40
488.39	16858.88
488.57	17172.51
488.75	17055.48
488.92	16919.73
489.10	17411.25
489.28	17809.14
489.46	17816.16
489.64	17902.76
489.81	18183.62
489.99	18012.76
490.17	18284.26
490.35	18504.28
490.53	18391.93
490.70	18572.15
490.88	18326.39
491.06	18965.36
491.24	18869.40
491.41	18948.98
491.59	18822.59
491.77	18878.76
491.95	19428.79
492.13	19468.58
492.30	19995.20
492.48	19786.89
492.66	19913.28
492.84	19609.01
493.01	20072.43
493.19	20102.86
493.37	20128.61
493.54	20280.74
493.72	20587.35
493.90	20692.68
494.08	20868.22
494.25	20999.29
494.43	21078.86
494.61	21177.17
494.79	21163.12
494.96	21324.62
495.14	21312.92
495.32	21490.80
495.49	21736.56
495.67	21603.14
495.85	21823.16
496.02	22398.93
496.20	22150.83
496.38	21876.99
496.55	22522.98
496.73	22672.77
496.91	22291.26
497.09	22794.48
497.26	22913.84
497.44	22855.33
497.62	22794.48
497.79	23171.30
497.97	22878.74
498.14	23316.42
498.32	23552.81
498.50	23466.21
498.67	23903.89
498.85	23812.61
499.03	24194.12
499.20	23716.65
499.38	23784.52
499.56	23934.32
499.73	24474.98
499.91	23936.66
500.08	24203.48
500.26	24215.18
500.44	24430.51
500.61	24341.57
500.79	24687.97
500.97	24671.59
501.14	25165.44
501.32	24865.85
501.49	24570.94
501.67	25198.21
501.84	25170.12
502.02	25102.25
502.20	25202.89
502.37	25502.48
502.55	25663.97
502.72	25350.34
502.90	25560.99
503.07	25642.91
503.25	25373.75
503.43	25865.26
503.60	25820.79
503.78	26094.63
503.95	26033.78
504.13	26183.57
504.30	26480.82
504.48	25902.71
504.65	26298.26
504.83	26850.63
505.01	27040.21
505.18	26611.89
505.36	27075.32
505.53	26824.88
505.71	27290.65
505.88	27133.83
506.06	26944.25
506.23	27103.40
506.41	26801.47
506.58	27477.89
506.76	27372.57
506.93	27143.19
507.11	27564.49
507.28	27810.25
507.46	28006.85
507.63	27852.38
507.81	27695.56
507.98	27901.53
508.16	27955.36
508.33	28343.89
508.50	28215.16
508.68	28229.20
508.85	28570.92
509.03	28376.66
509.20	28601.35
509.38	28629.43
509.55	28992.22
509.73	28950.09
509.90	28723.05
510.08	28807.31
510.25	29113.92
510.42	29106.90
510.60	29294.14
510.77	29521.18
510.95	29436.92
511.12	29146.69
511.30	29249.67
511.47	29837.15
511.64	29979.92
511.82	30031.41
511.99	29874.60
512.17	29745.87
512.34	29612.46
512.51	29905.02
512.69	30246.74
512.86	30071.20
513.04	30373.13
513.21	30113.33
513.38	30202.27
513.56	30258.45
513.73	30274.83
513.90	30546.33
514.08	30689.10
514.25	30775.70
514.43	30331.00
514.60	30539.31
514.77	30684.42
514.95	31021.46
515.12	30824.86
515.29	30862.30
515.47	31040.18
515.64	31328.07
515.81	31061.25
515.99	31573.83
516.16	31292.96
516.33	31550.42
516.51	32034.91
516.68	31152.53
516.85	31330.41
517.03	31868.73
517.20	31655.75
517.37	32060.66
517.54	31955.33
517.72	31929.59
517.89	31761.07
518.06	31580.85
518.24	31744.69
518.41	32147.26
518.58	32430.46
518.75	32128.53
518.93	32137.90
519.10	32636.43
519.27	32573.24
519.45	32837.72
519.62	32879.85
519.79	32666.86
519.96	32947.72
520.14	32989.85
520.31	32758.14
520.48	33078.79
520.65	33214.54
520.83	33401.79
521.00	33497.75
521.17	33790.31
521.34	33251.99
521.52	33694.35
521.69	33420.51
521.86	33619.46
522.03	33586.69
522.20	33839.47
522.38	34082.88
522.55	34316.93
522.72	33865.21
522.89	34197.57
523.07	34209.27
523.24	33942.45
523.41	34043.09
523.58	34288.85
523.75	34522.90
523.92	34419.92
524.10	34665.67
524.27	34684.40
524.44	34387.15
524.61	35021.44
524.78	35117.40
524.96	34986.33
525.13	34998.03
525.30	35037.82
525.47	35505.93
525.64	35030.80
525.81	34962.92
525.98	35093.99
526.16	35496.56
526.33	35033.14
526.50	35220.38
526.67	35044.84
526.84	35421.67
527.01	35047.18
527.18	35639.34
527.36	36032.55
527.53	35536.35
527.70	35812.54
527.87	36334.48
528.04	35693.17
528.21	36121.49
528.38	35854.67
528.55	36044.25
528.72	36383.63
528.89	36095.74
529.07	36158.94
529.24	36378.95
529.41	36254.90
529.58	36205.75
529.75	36432.78
529.92	36432.78
530.09	36488.95
530.26	36624.70
530.43	36584.91
530.60	36385.97
530.77	36437.46
530.94	36989.83
531.11	36914.93
531.28	36823.65
531.46	37083.45
531.63	37209.84
531.80	36818.97
531.97	36959.40
532.14	37120.90
532.31	36772.16
532.48	36830.67
532.65	37254.31
532.82	37237.92
532.99	37479.00
533.16	36933.65
533.33	37134.94
533.50	37696.67
533.67	37525.81
533.84	37408.78
534.01	37897.95
534.18	37474.32
534.35	37738.80
534.52	37860.51
534.69	37759.86
534.86	38129.67
535.03	37834.76
535.20	38169.46
535.37	37921.36
535.54	38684.37
535.71	38115.62
535.88	38124.99
536.05	38120.31
536.22	38136.69
536.38	38314.57
536.55	38403.51
536.72	38653.95
536.89	38003.28
537.06	38445.64
537.23	38813.10
537.40	38012.64
537.57	38466.70
537.74	38693.74
537.91	38904.38
538.08	38815.44
538.25	38415.21
538.42	38457.34
538.59	38866.94
538.75	38354.36
538.92	38897.36
539.09	39206.31
539.26	39232.06
539.43	39414.62
539.60	38803.74
539.77	38876.30
539.94	39267.17
540.11	38541.60
540.28	38883.32
540.44	38623.52
540.61	38930.13
540.78	39412.28
540.95	38850.55
541.12	39426.32
541.29	39360.79
541.46	39456.75
541.62	39473.13
541.79	39742.30
541.96	39407.60
542.13	39115.03
542.30	39791.45
542.47	39875.71
542.63	39524.63
542.80	39505.90
542.97	40095.72
543.14	40837.67
543.31	40512.33
543.48	40533.40
543.64	40802.56
543.81	40381.26
543.98	40432.75
544.15	39892.09
544.32	40411.69
544.48	40542.76
544.65	40449.14
544.82	40355.52
544.99	40140.19
545.16	40250.19
545.32	40664.47
545.49	41153.64
545.66	40772.13
545.83	40772.13
546.00	41038.95
546.16	40758.09
546.33	40910.22
546.50	40315.73
546.67	41191.09
546.83	40315.73
547.00	40896.18
547.17	41151.30
547.34	40832.99
547.50	41413.44
547.67	41736.43
547.84	41024.91
548.00	41268.33
548.17	41624.09
548.34	41394.71
548.51	41399.40
548.67	41490.68
548.84	41478.97
549.01	41146.62
549.18	41698.98
549.34	41413.44
549.51	41443.87
549.68	41605.36
549.84	41553.87
550.01	41659.20
550.18	41638.13
550.34	41542.17
550.51	41577.28
550.68	41972.83
550.84	41312.80
551.01	41937.72
551.18	41628.77
551.34	42103.90
551.51	41947.08
551.68	41556.21
551.84	42286.46
552.01	41902.61
552.18	42068.79
552.34	41937.72
552.51	42351.99
552.68	42103.90
552.84	42426.89
553.01	42169.43
553.18	41982.19
553.34	41834.74
553.51	42024.32
553.67	42082.83
553.84	42167.09
554.01	42775.63
554.17	42536.90
554.34	42693.71
554.51	42625.84
554.67	42759.25
554.84	42366.04
555.00	42340.29
555.17	42443.27
555.33	42036.02
555.50	42768.61
555.67	42588.39
555.83	42621.16
556.00	42450.30
556.16	43227.35
556.33	42710.10
556.50	42724.14
556.66	42787.33
556.83	42478.38
556.99	43061.18
557.16	43005.00
557.32	43269.48
557.49	43159.48
557.65	42925.42
557.82	42902.02
557.98	42590.73
558.15	42983.94
558.32	42887.98
558.48	42918.40
558.65	43285.87
558.81	43058.84
558.98	42611.79
559.14	42817.76
559.31	43044.79
559.47	42820.10
559.64	43210.97
559.80	43515.24
559.97	43302.25
560.13	43353.74
560.30	43576.09
560.46	43203.95
560.63	43379.49
560.79	43246.08
560.96	43725.89
561.12	43405.23
561.29	43079.90
561.45	43075.22
561.61	43320.98
561.78	43601.84
561.94	43110.33
562.11	43470.77
562.27	43093.94
562.44	43405.23
562.60	43697.80
562.77	43374.81
562.93	43192.25
563.10	43969.30
563.26	43447.36
563.42	43194.59
563.59	43482.47
563.75	43468.43
563.92	44039.52
564.08	43545.67
564.24	43721.21
564.41	43491.83
564.57	43861.64
564.74	43508.22
564.90	43772.70
565.07	43643.97
565.23	43487.15
565.39	43496.52
565.56	43650.99
565.72	43746.95
565.88	43824.19
566.05	43889.73
566.21	43381.83
566.38	43550.35
566.54	44079.31
566.70	43800.79
566.87	44027.82
567.03	43800.79
567.19	44182.29
567.36	44112.08
567.52	43700.14
567.68	44163.57
567.85	43676.74
568.01	43791.42
568.17	44091.01
568.34	44325.07
568.50	43772.70
568.66	43959.94
568.83	44404.64
568.99	43124.37
569.15	43728.23
569.32	44240.81
569.48	43676.74
569.64	44495.92
569.81	44397.62
569.97	43679.08
570.13	44224.42
570.30	44086.33
570.46	44210.38
570.62	43899.09
570.78	43945.90
570.95	43906.11
571.11	44341.45
571.27	43990.37
571.43	43765.68
571.60	44236.12
571.76	44116.76
571.92	43938.88
572.09	43819.51
572.25	44023.14
572.41	44006.75
572.57	44041.86
572.74	44626.99
572.90	44301.66
573.06	44289.96
573.22	44149.53
573.38	44428.05
573.55	43721.21
573.71	44313.36
573.87	44383.58
574.03	44177.61
574.20	44100.37
574.36	44030.16
574.52	44442.09
574.68	44437.41
574.84	43889.73
575.01	43627.59
575.17	43838.23
575.33	43924.83
575.49	44030.16
575.65	44362.51
575.82	44062.93
575.98	44381.24
576.14	44414.01
576.30	44807.22
576.46	44362.51
576.62	43746.95
576.79	44217.40
576.95	44119.10
577.11	44378.90
577.27	44332.09
577.43	44383.58
577.59	44648.06
577.75	44631.68
577.92	44198.68
578.08	44086.33
578.24	44236.12
578.40	44240.81
578.56	44287.62
578.72	44266.55
578.88	44425.71
579.04	44498.26
579.21	44514.65
579.37	44346.13
579.53	44072.29
579.69	44231.44
579.85	44390.60
580.01	44210.38
580.17	44622.31
580.33	44456.14
580.49	44481.88
580.65	44737.00
580.82	44409.32
580.98	44261.87
581.14	44191.65
581.30	44488.90
581.46	44446.77
581.62	44835.30
581.78	44545.08
581.94	44959.35
582.10	44786.15
582.26	44334.43
582.42	44135.48
582.58	44753.38
582.74	44397.62
582.90	44624.65
583.06	44514.65
583.22	44605.93
583.38	44804.88
583.54	44626.99
583.70	44421.03
583.86	44552.10
584.02	44126.12
584.18	44968.71
584.34	44343.79
584.50	44879.77
584.66	44549.76
584.82	43831.21
584.98	44589.55
585.14	44662.10
585.30	44208.04
585.46	44435.07
585.62	44030.16
585.78	44568.48
585.94	43950.58
586.10	44404.64
586.26	44315.70
586.42	44514.65
586.58	44655.08
586.74	44907.86
586.90	44526.35
587.06	44079.31
587.22	44428.05
587.38	44376.56
587.54	44516.99
587.70	45006.16
587.86	44519.33
588.02	44540.39
588.18	44711.25
588.34	44264.21
588.49	43901.43
588.65	44170.59
588.81	43885.04
588.97	44378.90
589.13	44589.55
589.29	44737.00
589.45	44596.57
589.61	44737.00
589.77	44744.02
589.93	44697.21
590.08	45001.48
590.24	44524.01
590.40	44954.67
