SpectraSuite Data File
++++++++++++++++++++++++++++++++++++
Date: Fri Oct 25 11:25:53 EDT 2013
User: price-jones
Dark Spectrum Present: No
Reference Spectrum Present: No
Number of Sampled Component Spectra: 1
Spectrometers: USB2+H05261
Integration Time (usec): 100000 (USB2+H05261)
Spectra Averaged: 1 (USB2+H05261)
Boxcar Smoothing: 0 (USB2+H05261)
Correct for Electrical Dark: No (USB2+H05261)
Strobe/Lamp Enabled: No (USB2+H05261)
Correct for Detector Non-linearity: No (USB2+H05261)
Correct for Stray Light: No (USB2+H05261)
Number of Pixels in Processed Spectrum: 2048
>>>>>Begin Processed Spectral Data<<<<<
365.73	262.14
365.92	262.14
366.12	262.14
366.32	166.18
366.52	161.50
366.72	149.79
366.91	126.39
367.11	229.37
367.31	154.48
367.51	105.32
367.70	131.07
367.90	88.94
368.10	77.24
368.30	196.60
368.49	147.45
368.69	168.52
368.89	131.07
369.09	159.16
369.28	166.18
369.48	163.84
369.68	205.97
369.87	187.24
370.07	170.86
370.27	166.18
370.47	262.14
370.66	543.00
370.86	587.47
371.06	617.90
371.25	671.73
371.45	643.65
371.65	692.80
371.84	678.76
372.04	660.03
372.24	725.57
372.44	655.35
372.63	765.36
372.83	821.53
373.03	753.65
373.22	842.59
373.42	809.83
373.62	667.05
373.81	854.30
374.01	784.08
374.21	833.23
374.40	821.53
374.60	826.21
374.79	903.45
374.99	849.61
375.19	795.78
375.38	800.46
375.58	931.53
375.78	800.46
375.97	889.40
376.17	863.66
376.37	938.55
376.56	896.43
376.76	849.61
376.95	826.21
377.15	884.72
377.35	954.94
377.54	924.51
377.74	854.30
377.93	936.21
378.13	912.81
378.33	961.96
378.52	896.43
378.72	903.45
378.91	985.37
379.11	973.66
379.31	954.94
379.50	938.55
379.70	915.15
379.89	999.41
380.09	870.68
380.28	922.17
380.48	973.66
380.68	978.34
380.87	980.68
381.07	1116.44
381.26	1102.39
381.46	990.05
381.65	1011.11
381.85	957.28
382.04	1062.60
382.24	1041.54
382.43	997.07
382.63	1083.67
382.83	1114.10
383.02	1111.75
383.22	1114.10
383.41	1043.88
383.61	1097.71
383.80	1018.13
384.00	1109.41
384.19	1181.97
384.39	1170.27
384.58	1015.79
384.78	1149.20
384.97	1128.14
385.17	1200.69
385.36	1224.10
385.56	1078.99
385.75	1179.63
385.95	1203.04
386.14	1179.63
386.34	1249.85
386.53	1228.78
386.72	1111.75
386.92	1277.93
387.11	1228.78
387.31	1277.93
387.50	1177.29
387.70	1331.76
387.89	1242.82
388.09	1303.68
388.28	1310.70
388.48	1268.57
388.67	1317.72
388.86	1284.95
389.06	1320.06
389.25	1324.74
389.45	1352.83
389.64	1303.68
389.84	1306.02
390.03	1383.26
390.22	1385.60
390.42	1296.66
390.61	1303.68
390.81	1378.58
391.00	1411.34
391.19	1401.98
391.39	1355.17
391.58	1483.90
391.78	1383.26
391.97	1500.28
392.16	1451.13
392.36	1502.62
392.55	1523.69
392.75	1540.07
392.94	1582.20
393.13	1579.86
393.33	1612.63
393.52	1519.01
393.71	1689.87
393.91	1650.08
394.10	1523.69
394.29	1490.92
394.49	1685.19
394.68	1636.03
394.88	1610.29
395.07	1645.40
395.26	1692.21
395.46	1678.16
395.65	1746.04
395.84	1687.53
396.04	1804.55
396.23	1856.04
396.42	1668.80
396.62	1732.00
396.81	1706.25
397.00	1767.10
397.19	1722.63
397.39	1739.02
397.58	1888.81
397.77	1804.55
397.97	1870.09
398.16	1804.55
398.35	1888.81
398.55	1865.41
398.74	1914.56
398.93	1973.07
399.12	1968.39
399.32	1937.96
399.51	1891.15
399.70	2066.69
399.90	1900.52
400.09	2033.93
400.28	2038.61
400.47	1900.52
400.67	2099.46
400.86	1991.80
401.05	2069.03
401.24	2008.18
401.44	2029.24
401.63	2078.40
401.82	2176.70
402.01	2083.08
402.21	2108.82
402.40	2179.04
402.59	2169.68
402.78	2242.23
402.97	2258.62
403.17	2303.09
403.36	2317.13
403.55	2267.98
403.74	2317.13
403.93	2422.45
404.13	2361.60
404.32	2359.26
404.51	2387.35
404.70	2473.95
404.89	2326.49
405.09	2518.42
405.28	2413.09
405.47	2511.39
405.66	2504.37
405.85	2539.48
406.05	2410.75
406.24	2574.59
406.43	2562.89
406.62	2612.04
406.81	2663.53
407.00	2572.25
407.20	2686.94
407.39	2600.34
407.58	2715.02
407.77	2675.23
407.96	2768.85
408.15	2827.37
408.34	2761.83
408.54	2834.39
408.73	2839.07
408.92	2752.47
409.11	2890.56
409.30	2874.18
409.49	2766.51
409.68	2930.35
409.87	2848.43
410.07	3030.99
410.26	3030.99
410.45	2967.80
410.64	3019.29
410.83	3009.93
411.02	3063.76
411.21	3129.30
411.40	3178.45
411.59	3211.22
411.78	3185.47
411.98	3183.13
412.17	3222.92
412.36	3400.80
412.55	3241.64
412.74	3424.20
412.93	3335.26
413.12	3276.75
413.31	3487.40
413.50	3419.52
413.69	3473.36
413.88	3576.34
414.07	3616.13
414.26	3672.30
414.45	3660.60
414.64	3669.96
414.83	3674.64
415.02	3768.26
415.22	3740.18
415.41	3824.44
415.60	3915.72
415.79	3911.04
415.98	4044.45
416.17	4086.58
416.36	3971.89
416.55	4049.13
416.74	4198.92
416.93	3953.16
417.12	4044.45
417.31	4154.45
417.50	4229.35
417.69	4362.76
417.88	4308.93
418.07	4224.67
418.26	4299.56
418.45	4320.63
418.64	4447.02
418.83	4393.19
419.02	4418.93
419.21	4470.42
419.39	4423.61
419.58	4517.23
419.77	4346.37
419.96	4358.08
420.15	4627.24
420.34	4540.64
420.53	4648.30
420.72	4690.43
420.91	4737.24
421.10	4702.14
421.29	4786.40
421.48	4594.47
421.67	4770.01
421.86	4791.08
422.05	4770.01
422.24	4919.81
422.43	4882.36
422.61	4910.44
422.80	4950.23
422.99	4994.70
423.18	4954.91
423.37	5128.11
423.56	4945.55
423.75	4917.47
423.94	4905.76
424.13	4552.34
424.32	4779.37
424.50	4870.65
424.69	5118.75
424.88	5093.01
425.07	5078.96
425.26	4931.51
425.45	4952.57
425.64	4978.32
425.83	4952.57
426.01	4952.57
426.20	4844.91
426.39	5034.49
426.58	5064.92
426.77	5207.69
426.96	5027.47
427.15	5015.77
427.33	5071.94
427.52	5184.29
427.71	5327.06
427.90	5179.61
428.09	5352.81
428.28	5170.24
428.46	5467.49
428.65	5195.99
428.84	5591.54
429.03	5483.88
429.22	5310.68
429.40	5476.85
429.59	5490.90
429.78	5259.18
429.97	5170.24
430.16	5364.51
430.34	5715.59
430.53	5734.31
430.72	5647.71
430.91	5556.43
431.10	5720.27
431.28	5673.46
431.47	5769.42
431.66	5771.76
431.85	5809.21
432.03	5905.17
432.22	5884.11
432.41	5708.57
432.60	6008.16
432.79	5764.74
432.97	5949.64
433.16	6094.76
433.35	5935.60
433.54	6125.18
433.72	6085.39
433.91	6052.63
434.10	6078.37
434.28	5980.07
434.47	6179.01
434.66	6033.90
434.85	6382.64
435.03	6282.00
435.22	6335.83
435.41	6492.65
435.59	6518.39
435.78	6197.74
435.97	6408.39
436.16	6523.07
436.34	6335.83
436.53	6408.39
436.72	6516.05
436.90	6363.92
437.09	6527.75
437.28	6478.60
437.46	6509.03
437.65	6602.65
437.84	6640.10
438.02	6621.38
438.21	6822.66
438.40	6693.93
438.58	6970.12
438.77	7185.44
438.96	6927.99
439.14	7026.29
439.33	7199.49
439.52	7096.50
439.70	7314.17
439.89	7204.17
440.08	7496.74
440.26	7274.38
440.45	7304.81
440.63	7396.09
440.82	7648.87
441.01	7529.50
441.19	7595.04
441.38	7639.51
441.57	7826.75
441.75	7662.91
441.94	7845.48
442.12	7943.78
442.31	7908.67
442.50	7990.59
442.68	7875.90
442.87	7955.48
443.05	8006.97
443.24	8369.76
443.43	8147.40
443.61	8093.57
443.80	8435.29
443.98	7999.95
444.17	7829.09
444.35	8264.43
444.54	8231.66
444.73	8219.96
444.91	8292.52
445.10	8341.67
445.28	8360.39
445.47	8269.11
445.65	8341.67
445.84	8533.59
446.02	8442.31
446.21	8449.33
446.39	8463.38
446.58	8554.66
446.77	8692.75
446.95	8081.87
447.14	8313.58
447.32	8585.08
447.51	8645.94
447.69	8381.46
447.88	8428.27
448.06	8496.14
448.25	8608.49
448.43	8531.25
448.62	8498.49
448.80	8695.09
448.99	8638.92
449.17	8652.96
449.36	8727.86
449.54	9025.11
449.73	9156.18
449.91	8800.41
450.10	8961.91
450.28	9013.40
450.46	9076.60
450.65	9109.36
450.83	8985.32
451.02	8912.76
451.20	9034.47
451.39	9114.05
451.57	9132.77
451.76	9160.86
451.94	9298.95
452.13	9188.94
452.31	9261.50
452.49	9224.05
452.68	9233.41
452.86	9284.91
453.05	9376.19
453.23	9572.79
453.42	9317.67
453.60	9462.79
453.78	9493.21
453.97	9427.68
454.15	9514.28
454.34	9446.40
454.52	9621.94
454.70	9689.82
454.89	9741.31
455.07	9811.53
455.26	9827.91
455.44	10073.67
455.62	9933.23
455.81	9769.40
455.99	9907.49
456.17	9923.87
456.36	10005.79
456.54	10120.48
456.73	10303.04
456.91	10537.09
457.09	10492.62
457.28	10501.98
457.46	10228.14
457.64	10565.18
457.83	10413.04
458.01	10466.88
458.19	10633.05
458.38	10579.22
458.56	10813.28
458.74	10724.33
458.93	10595.61
459.11	10560.50
459.29	10778.17
459.48	10843.70
459.66	10719.65
459.84	10677.52
460.03	10951.37
460.21	10934.98
460.39	10871.79
460.57	10944.34
460.76	11124.57
460.94	11370.32
461.12	11070.73
461.31	11358.62
461.49	11052.01
461.67	11173.72
461.85	11162.01
462.04	11358.62
462.22	11733.11
462.40	11515.44
462.59	11496.71
462.77	11536.50
462.95	11428.84
463.13	11503.73
463.32	11585.65
463.50	11651.19
463.68	11758.85
463.86	11932.05
464.05	11847.79
464.23	11651.19
464.41	11878.22
464.59	11728.42
464.78	12053.76
464.96	11964.82
465.14	11826.73
465.32	12191.85
465.50	11955.46
465.69	12201.21
465.87	12116.95
466.05	12152.06
466.23	12264.41
466.41	12091.21
466.60	12180.15
466.78	12348.67
466.96	12294.83
467.14	12273.77
467.32	12526.55
467.51	12444.63
467.69	12063.12
467.87	12512.50
468.05	12531.23
468.23	12503.14
468.41	12297.17
468.60	12774.64
468.78	12641.23
468.96	12442.29
469.14	12737.20
469.32	13027.42
469.50	12545.27
469.69	12805.07
469.87	12975.93
470.05	13303.60
470.23	13245.09
470.41	13064.87
470.59	13341.05
470.77	13188.92
470.95	13317.65
471.14	13289.56
471.32	13219.35
471.50	13640.64
471.68	13626.60
471.86	13621.92
472.04	13736.60
472.22	14024.49
472.40	13685.11
472.58	13750.65
472.77	13963.64
472.95	13933.21
473.13	14396.64
473.31	13914.48
473.49	14216.41
473.67	14122.79
473.85	14150.88
474.03	14455.15
474.21	14780.48
474.39	14544.09
474.57	14820.27
474.75	14803.89
474.93	14892.83
475.12	14944.32
475.30	15089.43
475.48	14918.57
475.66	15274.34
475.84	14995.81
476.02	15084.75
476.20	15239.23
476.38	15557.54
476.56	15815.00
476.74	15700.31
476.92	15768.19
477.10	15674.57
477.28	16042.03
477.46	16140.33
477.64	16163.74
477.82	16353.32
478.00	17020.38
478.18	16704.40
478.36	17006.33
478.54	17174.85
478.72	17085.91
478.90	17427.63
479.08	17432.31
479.26	17881.69
479.44	17855.95
479.62	17528.27
479.80	17916.80
479.98	18146.17
480.16	18464.49
480.34	18111.07
480.52	18532.36
480.70	18644.71
480.88	18272.56
481.06	18768.76
481.24	18640.03
481.41	18792.16
481.59	19077.71
481.77	19686.25
481.95	19491.98
482.13	19580.92
482.31	19882.85
482.49	20245.63
482.67	20353.30
482.85	20439.90
483.03	20709.06
483.21	20589.69
483.39	20919.71
483.57	21057.80
483.74	21226.32
483.92	21050.78
484.10	21373.77
484.28	21568.04
484.46	21888.69
484.64	22106.36
484.82	21771.66
485.00	22162.53
485.18	22679.79
485.35	22883.42
485.53	22705.54
485.71	22925.55
485.89	23627.71
486.07	23344.50
486.25	23087.04
486.43	23496.64
486.61	24168.37
486.78	23997.51
486.96	24233.91
487.14	24355.61
487.32	24467.96
487.50	24666.91
487.68	24774.57
487.85	25003.94
488.03	25366.73
488.21	26019.74
488.39	25628.87
488.57	25905.05
488.75	25682.70
488.92	26223.36
489.10	26679.77
489.28	26354.43
489.46	26852.97
489.64	26878.71
489.81	27482.57
489.99	27688.54
490.17	27747.05
490.35	28477.30
490.53	27662.79
490.70	28524.11
490.88	28636.45
491.06	28624.75
491.24	28655.18
491.41	28863.49
491.59	29081.16
491.77	29097.54
491.95	29888.64
492.13	29479.05
492.30	29876.94
492.48	29738.85
492.66	30075.88
492.84	30188.23
493.01	30361.43
493.19	30504.20
493.37	30792.09
493.54	31229.77
493.72	31094.02
493.90	31431.05
494.08	31936.61
494.25	31880.44
494.43	31693.19
494.61	32318.12
494.79	32545.15
494.96	32671.54
495.14	32664.52
495.32	32725.37
495.49	32851.76
495.67	33078.79
495.85	33200.50
496.02	33979.90
496.20	34059.48
496.38	34129.69
496.55	34349.70
496.73	34972.28
496.91	34532.26
497.09	35042.50
497.26	35367.84
497.44	34675.04
497.62	35154.85
497.79	35407.62
497.97	34972.28
498.14	36130.85
498.32	35957.65
498.50	36142.55
498.67	36556.83
498.85	36343.84
499.03	36587.25
499.20	36407.03
499.38	36650.45
499.56	37010.89
499.73	37043.66
499.91	37500.06
500.08	37722.41
500.26	37418.14
500.44	37670.92
500.61	37846.46
500.79	37706.03
500.97	38057.11
501.14	38108.60
501.32	38485.43
501.49	38337.98
501.67	38806.08
501.84	38850.55
502.02	38667.99
502.20	39084.61
502.37	39386.54
502.55	39213.34
502.72	38998.01
502.90	39236.74
503.07	39524.63
503.25	40039.54
503.43	39636.97
503.60	39718.89
503.78	39992.73
503.95	40289.98
504.13	40650.42
504.30	40376.58
504.48	40568.51
504.65	40725.32
504.83	41254.28
505.01	41202.79
505.18	41163.00
505.36	41869.84
505.53	40835.33
505.71	41254.28
505.88	41354.93
506.06	41223.86
506.23	41771.54
506.41	41450.89
506.58	41610.04
506.76	41869.84
506.93	42426.89
507.11	42033.68
507.28	42618.81
507.46	42511.15
507.63	43058.84
507.81	43054.15
507.98	42817.76
508.16	42972.24
508.33	43349.06
508.50	43309.27
508.68	43739.93
508.85	43536.30
509.03	43592.48
509.20	43487.15
509.38	44362.51
509.55	44357.83
509.73	44591.89
509.90	44397.62
510.08	44568.48
510.25	44509.97
510.42	44561.46
510.60	45200.43
510.77	44921.90
510.95	45390.01
511.12	45092.76
511.30	45254.26
511.47	45350.22
511.64	45209.79
511.82	45827.69
511.99	45319.79
512.17	45940.04
512.34	45970.46
512.51	46190.47
512.69	46579.00
512.86	46176.43
513.04	46546.23
513.21	46705.39
513.38	46625.81
513.56	46602.41
513.73	46473.68
513.90	47065.83
514.08	46787.31
514.25	47119.66
514.43	47407.55
514.60	47690.76
514.77	47246.05
514.95	47718.84
515.12	47707.14
515.29	47356.06
515.47	48219.72
515.64	48224.40
515.81	47716.50
515.99	47936.51
516.16	48149.50
516.33	48137.80
516.51	48378.87
516.68	48186.95
516.85	48741.66
517.03	48673.78
517.20	48896.13
517.37	48622.29
517.54	48790.81
517.72	49106.78
517.89	48987.41
518.06	49127.84
518.24	49095.08
518.41	49244.87
518.58	49270.62
518.75	49123.16
518.93	49401.69
519.10	49698.94
519.27	49862.77
519.45	49710.64
519.62	49712.98
519.79	49876.82
519.96	49769.15
520.14	49834.69
520.31	50295.77
520.48	50028.95
520.65	50052.36
520.83	50784.94
521.00	50691.32
521.17	50319.18
521.34	50560.25
521.52	50742.81
521.69	50857.50
521.86	51035.38
522.03	50908.99
522.20	51143.05
522.38	51327.95
522.55	51091.55
522.72	51456.68
522.89	51164.11
523.07	51344.33
523.24	51395.82
523.41	51475.40
523.58	51330.29
523.75	51718.82
523.92	51728.18
524.10	51861.59
524.27	51995.00
524.44	52186.92
524.61	52076.92
524.78	52385.87
524.96	51896.70
525.13	52130.75
525.30	52247.78
525.47	52458.43
525.64	52196.29
525.81	52395.23
525.98	52683.12
526.16	52406.94
526.33	52509.92
526.50	52910.15
526.67	52561.41
526.84	52725.25
527.01	52559.07
527.18	52875.04
527.36	53041.22
527.53	52807.17
527.70	53158.25
527.87	53298.68
528.04	53195.70
528.21	53429.75
528.38	53408.68
528.55	53226.12
528.72	53167.61
528.89	53511.67
529.07	53298.68
529.24	53305.70
529.41	53661.46
529.58	53680.19
529.75	53401.66
529.92	53762.11
530.09	54099.14
530.26	53949.35
530.43	54042.97
530.60	53588.91
530.77	53783.17
530.94	54274.68
531.11	54059.35
531.28	54230.21
531.46	54071.06
531.63	54064.03
531.80	54122.55
531.97	54288.73
532.14	54134.25
532.31	54773.22
532.48	54508.74
532.65	54461.93
532.82	54323.83
532.99	54410.43
533.16	54595.34
533.33	54815.35
533.50	54876.20
533.67	54761.51
533.84	54569.59
534.01	54801.30
534.18	54913.65
534.35	55131.32
534.52	54721.72
534.69	55171.11
534.86	55140.68
535.03	54866.84
535.20	55065.78
535.37	55203.88
535.54	55421.55
535.71	55278.77
535.88	55428.57
536.05	55409.84
536.22	55351.33
536.38	55632.19
536.55	55700.07
536.72	55409.84
536.89	55468.36
537.06	55461.33
537.23	55810.07
537.40	55573.68
537.57	55674.32
537.74	55793.69
537.91	55877.95
538.08	55962.21
538.25	55859.23
538.42	55894.33
538.59	55917.74
538.75	55812.41
538.92	55917.74
539.09	56252.44
539.26	56093.28
539.43	56100.30
539.60	56196.26
539.77	56090.94
539.94	56395.21
540.11	56271.16
540.28	56624.58
540.44	56278.18
540.61	56446.70
540.78	56229.03
540.95	56336.69
541.12	56294.56
541.29	56537.98
541.46	56451.38
541.62	56439.68
541.79	56556.70
541.96	56336.69
542.13	56420.95
542.30	56512.23
542.47	57022.47
542.63	56783.74
542.80	56879.70
542.97	57193.33
543.14	57109.07
543.31	57118.43
543.48	57364.19
543.64	57535.05
543.81	57467.17
543.98	57092.69
544.15	57080.98
544.32	57382.91
544.48	57247.16
544.65	57385.25
544.82	57394.62
544.99	57399.30
545.16	57471.85
545.32	57301.00
545.49	57441.43
545.66	57645.05
545.83	57481.22
546.00	57558.45
546.16	57539.73
546.33	57535.05
546.50	57460.15
546.67	57745.70
546.83	57710.59
547.00	57542.07
547.17	57736.34
547.34	57598.24
547.50	57785.49
547.67	58052.31
547.84	58108.48
548.00	58124.86
548.17	58094.44
548.34	58101.46
548.51	58129.54
548.67	58059.33
548.84	57862.72
549.01	58265.30
549.18	58255.93
549.34	58197.42
549.51	58262.96
549.68	58454.88
549.84	58258.27
550.01	58522.76
550.18	58103.80
550.34	58253.59
550.51	58527.44
550.68	58330.83
550.84	58071.03
551.01	58707.66
551.18	58501.69
551.34	58387.00
551.51	58569.57
551.68	58403.39
551.84	58585.95
552.01	58504.03
552.18	58482.97
552.34	58475.94
552.51	58724.04
552.68	58368.28
552.84	58749.79
553.01	58979.16
553.18	58822.34
553.34	58653.82
553.51	58728.72
553.67	58812.98
553.84	58925.33
554.01	58906.60
554.17	58775.53
554.34	58906.60
554.51	58965.12
554.67	59096.19
554.84	59049.38
555.00	58972.14
555.17	58934.69
555.33	59021.29
555.50	58864.47
555.67	58740.42
555.83	58960.44
556.00	59168.74
556.16	59433.22
556.33	59222.58
556.50	59135.98
556.66	59456.63
556.83	59086.82
556.99	59377.05
557.16	59561.95
557.32	59393.43
557.49	59496.42
557.65	59250.66
557.82	59346.62
557.98	59505.78
558.15	59585.36
558.32	59199.17
558.48	59407.48
558.65	59568.97
558.81	59423.86
558.98	59482.37
559.14	59386.41
559.31	59505.78
559.47	59512.80
559.64	59695.36
559.80	59578.34
559.97	59938.78
560.13	59519.82
560.30	59728.13
560.46	59821.75
560.63	59819.41
560.79	59772.60
560.96	59882.61
561.12	59702.38
561.29	59800.69
561.45	59751.54
561.61	59957.50
561.78	59807.71
561.94	59737.49
562.11	59774.94
562.27	59800.69
562.44	59983.25
562.60	60001.97
562.77	59866.22
562.93	59716.43
563.10	59906.01
563.26	59763.24
563.42	60135.38
563.59	59959.84
563.75	59922.40
563.92	59999.63
564.08	59957.50
564.24	60163.47
564.41	60168.15
564.57	60285.18
564.74	60074.53
564.90	60102.62
565.07	60086.23
565.23	60116.66
565.39	60093.25
565.56	60032.40
565.72	60048.78
565.88	60025.38
566.05	60158.79
566.21	60250.07
566.38	60109.64
566.54	60062.83
566.70	60329.65
566.87	60441.99
567.03	60142.41
567.19	60528.59
567.36	60205.60
567.52	60095.60
567.68	60355.39
567.85	60282.84
568.01	60336.67
568.17	60327.31
568.34	60243.05
568.50	60324.97
568.66	60390.50
568.83	60268.79
568.99	60292.20
569.15	60341.35
569.32	60280.50
569.48	60278.16
569.64	60507.53
569.81	60317.95
569.97	60177.51
570.13	60385.82
570.30	60210.28
570.46	60418.59
570.62	60507.53
570.78	60491.15
570.95	60369.44
571.11	60521.57
571.27	60434.97
571.43	60411.57
571.60	60434.97
571.76	60378.80
571.92	60622.22
572.09	60570.72
572.25	60514.55
572.41	60423.27
572.57	60353.05
572.74	60633.92
572.90	60500.51
573.06	60605.83
573.22	60519.23
573.38	60713.50
573.55	60589.45
573.71	60807.12
573.87	60566.04
574.03	60449.02
574.20	60654.98
574.36	60561.36
574.52	60697.11
574.68	60563.70
574.84	60757.97
575.01	60718.18
575.17	60566.04
575.33	60566.04
575.49	60580.09
575.65	60537.96
575.82	60865.63
575.98	60736.90
576.14	60804.78
576.30	60837.54
576.46	60856.27
576.62	60699.45
576.79	60729.88
576.95	60596.47
577.11	60725.20
577.27	60809.46
577.43	60643.28
577.59	60760.31
577.75	60748.60
577.92	60832.86
578.08	60666.69
578.24	60788.39
578.40	60793.07
578.56	60919.46
578.72	60729.88
578.88	60900.74
579.04	61015.43
579.21	60800.10
579.37	60872.65
579.53	60933.51
579.69	60664.35
579.85	60729.88
580.01	60652.64
580.17	60659.66
580.33	60690.09
580.49	61045.85
580.65	60919.46
580.82	60807.12
580.98	60561.36
581.14	60584.77
581.30	61001.38
581.46	60772.01
581.62	60701.79
581.78	60704.13
581.94	60928.83
582.10	60867.97
582.26	60872.65
582.42	60746.26
582.58	60903.08
582.74	60715.84
582.90	60657.32
583.06	60907.76
583.22	60563.70
583.38	60898.40
583.54	60928.83
583.70	60949.89
583.86	60975.64
584.02	60697.11
584.18	60940.53
584.34	60844.57
584.50	60954.57
584.66	60882.02
584.82	60598.81
584.98	61207.35
585.14	61207.35
585.30	60781.37
585.46	60896.06
585.62	60947.55
585.78	61221.39
585.94	60816.48
586.10	61113.73
586.26	60959.25
586.42	61151.18
586.58	61090.32
586.74	61059.90
586.90	60931.17
587.06	61045.85
587.22	61172.24
587.38	60968.61
587.54	60977.98
587.70	61162.88
587.86	61073.94
588.02	60914.78
588.18	61188.63
588.34	61059.90
588.49	60956.91
