SpectraSuite Data File
++++++++++++++++++++++++++++++++++++
Date: Fri Oct 25 11:33:28 EDT 2013
User: price-jones
Dark Spectrum Present: No
Reference Spectrum Present: No
Number of Sampled Component Spectra: 1
Spectrometers: USB2+H05261
Integration Time (usec): 100000 (USB2+H05261)
Spectra Averaged: 1 (USB2+H05261)
Boxcar Smoothing: 0 (USB2+H05261)
Correct for Electrical Dark: No (USB2+H05261)
Strobe/Lamp Enabled: No (USB2+H05261)
Correct for Detector Non-linearity: No (USB2+H05261)
Correct for Stray Light: No (USB2+H05261)
Number of Pixels in Processed Spectrum: 2048
>>>>>Begin Processed Spectral Data<<<<<
365.73	311.29
365.92	311.29
366.12	311.29
366.32	227.03
366.52	203.63
366.72	217.67
366.91	117.03
367.11	135.75
367.31	198.95
367.51	126.39
367.70	105.32
367.90	100.64
368.10	182.56
368.30	191.92
368.49	173.20
368.69	184.90
368.89	173.20
369.09	140.43
369.28	234.05
369.48	147.45
369.68	159.16
369.87	224.69
370.07	203.63
370.27	278.52
370.47	318.31
370.66	545.34
370.86	477.47
371.06	517.26
371.25	521.94
371.45	550.03
371.65	617.90
371.84	531.30
372.04	580.45
372.24	568.75
372.44	653.01
372.63	692.80
372.83	564.07
373.03	596.84
373.22	641.31
373.42	554.71
373.62	648.33
373.81	645.99
374.01	606.20
374.21	634.29
374.40	624.92
374.60	692.80
374.79	627.26
374.99	624.92
375.19	690.46
375.38	662.37
375.58	606.20
375.78	725.57
375.97	624.92
376.17	669.39
376.37	685.78
376.56	753.65
376.76	681.10
376.95	725.57
377.15	725.57
377.35	669.39
377.54	702.16
377.74	608.54
377.93	713.86
378.13	667.05
378.33	758.33
378.52	713.86
378.72	699.82
378.91	660.03
379.11	692.80
379.31	795.78
379.50	688.12
379.70	718.54
379.89	692.80
380.09	725.57
380.28	795.78
380.48	734.93
380.68	744.29
380.87	741.95
381.07	704.50
381.26	805.14
381.46	800.46
381.65	716.20
381.85	826.21
382.04	917.49
382.24	777.06
382.43	809.83
382.63	734.93
382.83	784.08
383.02	842.59
383.22	774.72
383.41	706.84
383.61	791.10
383.80	779.40
384.00	753.65
384.19	751.31
384.39	786.42
384.58	849.61
384.78	800.46
384.97	821.53
385.17	819.19
385.36	809.83
385.56	809.83
385.75	880.04
385.95	887.06
386.14	772.38
386.34	812.17
386.53	765.36
386.72	861.32
386.92	814.51
387.11	847.27
387.31	919.83
387.50	901.11
387.70	910.47
387.89	908.13
388.09	887.06
388.28	968.98
388.48	940.90
388.67	968.98
388.86	933.87
389.06	978.34
389.25	936.21
389.45	947.92
389.64	873.02
389.84	947.92
390.03	1015.79
390.22	908.13
390.42	950.26
390.61	915.15
390.81	1001.75
391.00	1006.43
391.19	1083.67
391.39	1036.86
391.58	1046.22
391.78	931.53
391.97	985.37
392.16	1008.77
392.36	1067.28
392.55	1055.58
392.75	1006.43
392.94	1001.75
393.13	1083.67
393.33	999.41
393.52	1118.78
393.71	1036.86
393.91	1048.56
394.10	1074.31
394.29	1090.69
394.49	1071.97
394.68	1081.33
394.88	1055.58
395.07	1146.86
395.26	1144.52
395.46	1100.05
395.65	1181.97
395.84	1114.10
396.04	1205.38
396.23	1181.97
396.42	1165.59
396.62	1160.91
396.81	1174.95
397.00	1299.00
397.19	1114.10
397.39	1172.61
397.58	1277.93
397.77	1240.48
397.97	1186.65
398.16	1200.69
398.35	1322.40
398.55	1301.34
398.74	1247.51
398.93	1277.93
399.12	1331.76
399.32	1322.40
399.51	1322.40
399.70	1359.85
399.90	1282.61
400.09	1313.04
400.28	1383.26
400.47	1387.94
400.67	1406.66
400.86	1376.24
401.05	1458.15
401.24	1430.07
401.44	1378.58
401.63	1413.68
401.82	1416.02
402.01	1451.13
402.21	1519.01
402.40	1434.75
402.59	1519.01
402.78	1521.35
402.97	1589.22
403.17	1530.71
403.36	1558.80
403.55	1537.73
403.74	1652.42
403.93	1554.12
404.13	1650.08
404.32	1540.07
404.51	1561.14
404.70	1619.65
404.89	1430.07
405.09	1636.03
405.28	1689.87
405.47	1664.12
405.66	1769.44
405.85	1633.69
406.05	1638.38
406.24	1732.00
406.43	1666.46
406.62	1783.49
406.81	1851.36
407.00	1785.83
407.20	1734.34
407.39	1767.10
407.58	1937.96
407.77	1961.37
407.96	1830.30
408.15	1872.43
408.34	1912.22
408.54	1891.15
408.73	1909.88
408.92	1982.43
409.11	1970.73
409.30	1933.28
409.49	1977.75
409.68	1956.69
409.87	1937.96
410.07	2015.20
410.26	2019.88
410.45	2080.74
410.64	2108.82
410.83	2146.27
411.02	2129.89
411.21	2197.76
411.40	2181.38
411.59	2162.66
411.78	2256.28
411.98	2162.66
412.17	2289.04
412.36	2258.62
412.55	2221.17
412.74	2326.49
412.93	2361.60
413.12	2289.04
413.31	2431.82
413.50	2392.03
413.69	2373.30
413.88	2523.10
414.07	2485.65
414.26	2516.08
414.45	2562.89
414.64	2441.18
414.83	2492.67
415.02	2464.58
415.22	2647.15
415.41	2565.23
415.60	2703.32
415.79	2609.70
415.98	2801.62
416.17	2768.85
416.36	2644.81
416.55	2792.26
416.74	2944.39
416.93	2778.22
417.12	2738.43
417.31	2888.22
417.50	2869.50
417.69	2932.69
417.88	2939.71
418.07	2930.35
418.26	3059.08
418.45	2951.42
418.64	2995.89
418.83	3026.31
419.02	3056.74
419.21	3145.68
419.39	3091.85
419.58	3103.55
419.77	2949.08
419.96	3066.10
420.15	3169.09
420.34	3199.51
420.53	3199.51
420.72	3143.34
420.91	3260.37
421.10	3267.39
421.29	3339.94
421.48	3194.83
421.67	3265.05
421.86	3318.88
422.05	3283.77
422.24	3265.05
422.43	3251.00
422.61	3297.81
422.80	3234.62
422.99	3288.45
423.18	3370.37
423.37	3407.82
423.56	3412.50
423.75	3478.04
423.94	3337.60
424.13	3178.45
424.32	3393.78
424.50	3337.60
424.69	3494.42
424.88	3566.98
425.07	3461.65
425.26	3372.71
425.45	3414.84
425.64	3335.26
425.83	3433.57
426.01	3459.31
426.20	3585.70
426.39	3475.70
426.58	3344.63
426.77	3524.85
426.96	3454.63
427.15	3543.57
427.33	3644.21
427.52	3538.89
427.71	3707.41
427.90	3637.19
428.09	3817.41
428.28	3742.52
428.46	3599.74
428.65	3667.62
428.84	3932.10
429.03	3796.35
429.22	3730.81
429.40	3698.05
429.59	3754.22
429.78	3801.03
429.97	3630.17
430.16	3817.41
430.34	3899.33
430.53	3817.41
430.72	3981.25
430.91	3782.31
431.10	3850.18
431.28	4002.32
431.47	4046.79
431.66	4046.79
431.85	3957.85
432.03	4086.58
432.22	4079.55
432.41	4128.70
432.60	4037.42
432.79	3999.98
432.97	4053.81
433.16	4067.85
433.35	4109.98
433.54	4241.05
433.72	4170.83
433.91	4304.25
434.10	4198.92
434.28	4131.05
434.47	4187.22
434.66	4322.97
434.85	4358.08
435.03	4395.53
435.22	4241.05
435.41	4500.85
435.59	4311.27
435.78	4367.44
435.97	4369.78
436.16	4540.64
436.34	4421.27
436.53	4496.17
436.72	4622.56
436.90	4519.57
437.09	4634.26
437.28	4517.23
437.46	4489.15
437.65	4521.92
437.84	4730.22
438.02	4592.13
438.21	4557.02
438.40	4535.96
438.58	4772.35
438.77	4739.58
438.96	4844.91
439.14	4896.40
439.33	4851.93
439.52	4858.95
439.70	4903.42
439.89	5125.77
440.08	5123.43
440.26	4957.25
440.45	4943.21
440.63	5153.86
440.82	5004.07
441.01	5111.73
441.19	5280.25
441.38	5174.92
441.57	5256.84
441.75	5291.95
441.94	5408.98
442.12	5324.72
442.31	5301.31
442.50	5394.93
442.68	5467.49
442.87	5495.58
443.05	5418.34
443.24	5547.07
443.43	5490.90
443.61	5605.58
443.80	5689.84
443.98	5619.63
444.17	5369.19
444.35	5619.63
444.54	5619.63
444.73	5427.70
444.91	5584.52
445.10	5678.14
445.28	5645.37
445.47	5696.86
445.65	5612.60
445.84	5743.67
446.02	5849.00
446.21	5806.87
446.39	5636.01
446.58	5710.91
446.77	5710.91
446.95	5717.93
447.14	5640.69
447.32	5748.36
447.51	5628.99
447.69	5858.36
447.88	5867.72
448.06	5963.68
448.25	5813.89
448.43	5776.44
448.62	5966.03
448.80	5809.21
448.99	5825.59
449.17	5874.74
449.36	5827.93
449.54	6054.97
449.73	6080.71
449.91	6111.14
450.10	6160.29
450.28	6045.60
450.46	6094.76
450.65	6153.27
450.83	6085.39
451.02	6244.55
451.20	6296.04
451.39	6244.55
451.57	6195.40
451.76	6043.26
451.94	6279.66
452.13	6394.34
452.31	6361.58
452.49	6207.10
452.68	6214.12
452.86	6321.79
453.05	6478.60
453.23	6431.79
453.42	6291.36
453.60	6377.96
453.78	6574.56
453.97	6436.47
454.15	6424.77
454.34	6466.90
454.52	6672.87
454.70	6656.48
454.89	6750.10
455.07	6689.25
455.26	6572.22
455.44	6794.58
455.62	6785.21
455.81	6733.72
455.99	6752.45
456.17	6862.45
456.36	6754.79
456.54	6944.37
456.73	6834.36
456.91	6953.73
457.09	7019.27
457.28	6979.48
457.46	6953.73
457.64	7101.19
457.83	7096.50
458.01	7080.12
458.19	7222.89
458.38	7105.87
458.56	7140.97
458.74	7169.06
458.93	7133.95
459.11	7187.79
459.29	7119.91
459.48	7218.21
459.66	7157.36
459.84	7250.98
460.03	7573.97
460.21	7461.63
460.39	7405.46
460.57	7344.60
460.76	7414.82
460.94	7583.34
461.12	7536.52
461.31	7527.16
461.49	7541.21
461.67	7475.67
461.85	7550.57
462.04	7548.23
462.22	8042.08
462.40	7885.26
462.59	7637.17
462.77	7779.94
462.95	7868.88
463.13	7831.43
463.32	7779.94
463.50	7960.16
463.68	7915.69
463.86	7859.52
464.05	7894.63
464.23	7845.48
464.41	7939.10
464.59	7838.45
464.78	8074.85
464.96	8004.63
465.14	7911.01
465.32	8131.02
465.50	8093.57
465.69	8161.45
465.87	8004.63
466.05	8037.40
466.23	8072.51
466.41	8121.66
466.60	8262.09
466.78	8154.43
466.96	8154.43
467.14	8196.56
467.32	8428.27
467.51	8266.77
467.69	8205.92
467.87	8294.86
468.05	8517.21
468.23	8428.27
468.41	8245.71
468.60	8489.12
468.78	8674.03
468.96	8454.02
469.14	8540.61
469.32	8662.32
469.50	8428.27
469.69	8650.62
469.87	8645.94
470.05	8781.69
470.23	8657.64
470.41	8809.78
470.59	9067.24
470.77	8821.48
470.95	8765.31
471.14	9172.56
471.32	8898.72
471.50	9050.85
471.68	8922.12
471.86	9111.71
472.04	9273.20
472.22	9242.78
472.40	9153.84
472.58	9195.96
472.77	9111.71
472.95	9331.72
473.13	9736.63
473.31	9401.93
473.49	9500.23
473.67	9472.15
473.85	9568.11
474.03	9745.99
474.21	9652.37
474.39	9811.53
474.57	9839.61
474.75	9968.34
474.93	10033.88
475.12	10029.20
475.30	10087.71
475.48	10080.69
475.66	10101.75
475.84	9963.66
476.02	10417.72
476.20	10129.84
476.38	10289.00
476.56	10466.88
476.74	10614.33
476.92	10626.03
477.10	10562.84
477.28	10714.97
477.46	10829.66
477.64	10799.23
477.82	11047.33
478.00	10958.39
478.18	11140.95
478.36	11140.95
478.54	11349.26
478.72	11367.98
478.90	11618.42
479.08	11639.48
479.26	11866.52
479.44	11564.59
479.62	11744.81
479.80	11887.58
479.98	11859.49
480.16	12327.60
480.34	11880.56
480.52	12336.96
480.70	12252.70
480.88	12084.19
481.06	12435.27
481.24	12519.53
481.41	12666.98
481.59	12645.91
481.77	12931.46
481.95	12936.14
482.13	12905.71
482.31	13001.68
482.49	13315.31
482.67	13228.71
482.85	13460.42
483.03	13673.41
483.21	13825.54
483.39	13598.51
483.57	13619.58
483.74	14047.90
483.92	14185.99
484.10	13844.27
484.28	14171.94
484.46	14618.99
484.64	14740.69
484.82	14551.11
485.00	14789.85
485.18	14993.47
485.35	15358.60
485.53	14853.04
485.71	14916.23
485.89	15548.18
486.07	15447.54
486.25	15428.81
486.43	15786.91
486.61	15679.25
486.78	15955.43
486.96	15751.81
487.14	16053.73
487.32	16224.59
487.50	16489.07
487.68	16255.02
487.85	16896.33
488.03	16585.04
488.21	17029.74
488.39	16854.20
488.57	17137.40
488.75	17167.83
488.92	17366.78
489.10	17481.46
489.28	17511.89
489.46	17797.43
489.64	17657.00
489.81	18237.45
489.99	18197.67
490.17	18134.47
490.35	18602.58
490.53	18642.37
490.70	18661.09
490.88	18420.02
491.06	18918.55
491.24	18862.38
491.41	19063.66
491.59	19276.65
491.77	19480.28
491.95	19332.82
492.13	19585.60
492.30	19880.51
492.48	19742.42
492.66	19721.35
492.84	19594.96
493.01	20163.72
493.19	20194.14
493.37	20484.37
493.54	20397.77
493.72	20622.46
493.90	20688.00
494.08	20720.76
494.25	20669.27
494.43	21135.04
494.61	21137.38
494.79	21275.47
494.96	21233.34
495.14	21238.02
495.32	21907.41
495.49	21809.11
495.67	21839.54
495.85	22068.91
496.02	22251.47
496.20	22403.61
496.38	22651.70
496.55	22389.56
496.73	22775.75
496.91	22595.53
497.09	22607.23
497.26	22876.40
497.44	22941.93
497.62	23594.94
497.79	23381.95
497.97	23243.86
498.14	23351.52
498.32	23711.97
498.50	23702.61
498.67	24208.16
498.85	23946.02
499.03	24149.65
499.20	24107.52
499.38	23931.98
499.56	24620.10
499.73	24753.51
499.91	24451.58
500.08	24812.02
500.26	24809.68
500.44	24699.67
500.61	24954.79
500.79	24655.20
500.97	25483.75
501.14	25560.99
501.32	25296.51
501.49	25434.60
501.67	25518.86
501.84	25891.01
502.02	25556.31
502.20	25895.69
502.37	25795.04
502.55	25572.69
502.72	25827.81
502.90	25937.82
503.07	25865.26
503.25	26391.88
503.43	25956.54
503.60	26396.56
503.78	26417.63
503.95	26506.57
504.13	26754.66
504.30	26590.83
504.48	26972.33
504.65	26862.33
504.83	27267.24
505.01	27213.41
505.18	27159.58
505.36	27087.02
505.53	27278.94
505.71	27433.42
505.88	27590.24
506.06	27332.78
506.23	27812.59
506.41	27608.96
506.58	28128.56
506.76	27953.02
506.93	28182.39
507.11	28257.29
507.28	28535.81
507.46	28563.90
507.63	28435.17
507.81	28718.37
507.98	28364.95
508.16	28278.35
508.33	28645.82
508.50	28821.36
508.68	28751.14
508.85	29008.60
509.03	28989.88
509.20	28973.49
509.38	29614.80
509.55	29142.01
509.73	29345.64
509.90	29656.93
510.08	29434.58
510.25	29518.84
510.42	29408.83
510.60	29958.86
510.77	29895.66
510.95	30085.25
511.12	29930.77
511.30	30031.41
511.47	30101.63
511.64	30012.69
511.82	30169.51
511.99	30422.28
512.17	30946.56
512.34	30677.40
512.51	30979.33
512.69	30895.07
512.86	30742.94
513.04	31040.18
513.21	30962.95
513.38	31077.63
513.56	31255.51
513.73	30824.86
513.90	31194.66
514.08	31578.51
514.25	31845.33
514.43	31864.05
514.60	31630.00
514.77	31676.81
514.95	32247.90
515.12	31730.64
515.29	31833.63
515.47	32327.48
515.64	32194.07
515.81	31934.27
515.99	31777.45
516.16	32591.96
516.33	32273.65
516.51	32730.05
516.68	32465.57
516.85	32844.74
517.03	33050.70
517.20	32444.51
517.37	32847.08
517.54	33118.58
517.72	32936.02
517.89	33256.67
518.06	33132.62
518.24	33518.81
518.41	33013.26
518.58	33048.36
518.75	32606.00
518.93	33642.86
519.10	33516.47
519.27	33858.19
519.45	33205.18
519.62	33542.22
519.79	33689.67
519.96	33481.36
520.14	34012.66
520.31	33586.69
520.48	34031.39
520.65	33844.15
520.83	34235.02
521.00	34206.93
521.17	34117.99
521.34	34422.26
521.52	34588.44
521.69	34962.92
521.86	34637.59
522.03	34712.49
522.20	35079.95
522.38	35433.37
522.55	34920.79
522.72	34763.98
522.89	35065.91
523.07	35267.19
523.24	35426.35
523.41	35339.75
523.58	35267.19
523.75	35761.05
523.92	35325.71
524.10	35690.83
524.27	35777.43
524.44	35981.06
524.61	35880.41
524.78	35976.37
524.96	36062.97
525.13	36158.94
525.30	36292.35
525.47	36095.74
525.64	36418.74
525.81	36559.17
525.98	36428.10
526.16	36109.78
526.33	36957.06
526.50	37148.98
526.67	36402.35
526.84	36517.04
527.01	36605.98
527.18	36849.39
527.36	36851.73
527.53	36678.54
527.70	37144.30
527.87	37357.29
528.04	37511.77
528.21	37296.44
528.38	37184.09
528.55	37256.65
528.72	37230.90
528.89	37127.92
529.07	37778.59
529.24	37247.29
529.41	37633.47
529.58	37830.08
529.75	37471.98
529.92	37661.56
530.09	37514.11
530.26	37787.95
530.43	37811.35
530.60	37659.22
530.77	38019.66
530.94	38103.92
531.11	37820.72
531.28	38045.41
531.46	38312.23
531.63	38403.51
531.80	38176.48
531.97	38513.52
532.14	38487.77
532.31	38274.78
532.48	38639.90
532.65	38780.34
532.82	38302.87
532.99	39065.88
533.16	38637.56
533.33	38808.42
533.50	39164.18
533.67	38756.93
533.84	38417.55
534.01	39009.71
534.18	38939.49
534.35	39323.34
534.52	39005.03
534.69	39475.48
534.86	39445.05
535.03	39225.04
535.20	39683.78
535.37	39746.98
535.54	39936.56
535.71	39618.25
535.88	39569.10
536.05	39536.33
536.22	39707.19
536.38	39487.18
536.55	39702.51
536.72	39695.49
536.89	40079.33
537.06	39981.03
537.23	40203.38
537.40	39503.56
537.57	39770.38
537.74	39894.43
537.91	40481.91
538.08	40556.80
538.25	40069.97
538.42	40247.85
538.59	40919.59
538.75	40650.42
538.92	40563.82
539.09	40828.30
539.26	40383.60
539.43	40589.57
539.60	41095.13
539.77	40652.76
539.94	40648.08
540.11	40601.27
540.28	41146.62
540.44	40912.56
540.61	40954.69
540.78	40458.50
540.95	40992.14
541.12	40933.63
541.29	41209.81
541.46	41661.54
541.62	41207.47
541.79	41305.77
541.96	41116.19
542.13	41511.74
542.30	41846.44
542.47	41380.67
542.63	41476.63
542.80	41375.99
542.97	41523.44
543.14	41998.57
543.31	41708.35
543.48	41684.94
543.64	42333.27
543.81	42485.40
543.98	42373.06
544.15	41972.83
544.32	42176.45
544.48	42590.73
544.65	42340.29
544.82	42246.67
544.99	41663.88
545.16	42569.66
545.32	42440.93
545.49	42878.61
545.66	43049.47
545.83	42810.74
546.00	42817.76
546.16	42707.76
546.33	42326.25
546.50	42670.31
546.67	42532.22
546.83	42249.01
547.00	42745.20
547.17	42499.45
547.34	43049.47
547.50	43311.61
547.67	43253.10
547.84	42827.12
548.00	42986.28
548.17	43601.84
548.34	43330.34
548.51	43386.51
548.67	42934.79
548.84	43367.79
549.01	43311.61
549.18	43470.77
549.34	43192.25
549.51	43821.85
549.68	43833.55
549.84	43470.77
550.01	43674.40
550.18	43501.20
550.34	43555.03
550.51	43934.20
550.68	44013.77
550.84	43459.07
551.01	43957.60
551.18	43620.56
551.34	43784.40
551.51	44294.64
551.68	43756.32
551.84	43882.70
552.01	44165.91
552.18	44030.16
552.34	44224.42
552.51	44172.93
552.68	43957.60
552.84	44322.72
553.01	44203.36
553.18	44091.01
553.34	44299.32
553.51	44339.11
553.67	44692.53
553.84	44423.37
554.01	44247.83
554.17	44673.81
554.34	44697.21
554.51	44900.84
554.67	44507.63
554.84	44507.63
555.00	44432.73
555.17	44999.14
555.33	44594.23
555.50	44715.93
555.67	44760.40
555.83	45123.19
556.00	44795.51
556.16	45551.51
556.33	45008.50
556.50	44830.62
556.66	45364.26
556.83	44533.37
556.99	44891.48
557.16	45034.25
557.32	44896.16
557.49	45331.50
557.65	44861.05
557.82	45130.21
557.98	45235.53
558.15	44959.35
558.32	45528.10
558.48	45036.59
558.65	45467.25
558.81	45315.11
558.98	45282.34
559.14	45413.41
559.31	45350.22
559.47	45572.57
559.64	45605.34
559.80	45588.95
559.97	45925.99
560.13	45542.14
560.30	45598.32
560.46	45776.20
560.63	45647.47
560.79	45979.82
560.96	45902.59
561.12	45890.88
561.29	45830.03
561.45	46005.57
561.61	45581.93
561.78	46099.19
561.94	45797.26
562.11	45675.55
562.27	45701.30
562.44	46064.08
562.60	45982.16
562.77	46138.98
562.93	45558.53
563.10	46518.15
563.26	45790.24
563.42	46050.04
563.59	45965.78
563.75	45736.41
563.92	46307.50
564.08	45598.32
564.24	46398.78
564.41	46344.95
564.57	46213.88
564.74	46106.21
564.90	46490.06
565.07	45773.86
565.23	45996.21
565.39	46330.90
565.56	46153.02
565.72	46012.59
565.88	46291.12
566.05	46494.74
566.21	46052.38
566.38	46426.87
566.54	46127.28
566.70	46569.64
566.87	46263.03
567.03	46134.30
567.19	46614.11
567.36	46356.65
567.52	46223.24
567.68	46967.53
567.85	46794.33
568.01	46979.23
568.17	46344.95
568.34	46700.71
568.50	46780.29
568.66	46146.00
568.83	46293.46
568.99	46323.88
569.15	46515.81
569.32	46265.37
569.48	46611.77
569.64	46618.79
569.81	47068.17
569.97	46747.52
570.13	47002.64
570.30	46906.68
570.46	46717.09
570.62	47096.26
570.78	46932.42
570.95	46822.42
571.11	47419.25
571.27	46417.50
571.43	46983.91
571.60	46756.88
571.76	46782.63
571.92	46478.36
572.09	46969.87
572.25	46457.29
572.41	46600.07
572.57	46887.95
572.74	47349.04
572.90	46504.10
573.06	47346.70
573.22	47002.64
573.38	47248.39
573.55	47107.96
573.71	47145.41
573.87	46855.18
574.03	47009.66
574.20	47421.59
574.36	47349.04
574.52	47112.64
574.68	47152.43
574.84	47136.05
575.01	47325.63
575.17	47089.24
575.33	47136.05
575.49	46990.94
575.65	46974.55
575.82	47426.28
575.98	47161.79
576.14	47213.29
576.30	47512.88
576.46	47709.48
576.62	47061.15
576.79	47407.55
576.95	46721.77
577.11	46967.53
577.27	47227.33
577.43	47166.48
577.59	47201.58
577.75	46887.95
577.92	47393.51
578.08	47330.31
578.24	47154.77
578.40	47372.44
578.56	47391.17
578.72	47058.81
578.88	47358.40
579.04	47285.84
579.21	47117.32
579.37	47194.56
579.53	47440.32
579.69	47332.65
579.85	47079.88
580.01	47206.26
580.17	47704.80
580.33	47456.70
580.49	47358.40
580.65	47201.58
580.82	47288.18
580.98	47377.12
581.14	47051.79
581.30	47068.17
581.46	47133.71
581.62	47000.30
581.78	47283.50
581.94	47257.76
582.10	47430.96
582.26	47856.93
582.42	47402.87
582.58	47297.55
582.74	47363.08
582.90	47281.16
583.06	47732.89
583.22	47138.39
583.38	47732.89
583.54	47407.55
583.70	47576.07
583.86	47145.41
584.02	47669.69
584.18	47742.25
584.34	47447.34
584.50	47810.12
584.66	47311.59
584.82	47501.17
584.98	47931.83
585.14	47737.57
585.30	47627.56
585.46	47124.35
585.62	47304.57
585.78	47709.48
585.94	47058.81
586.10	47173.50
586.26	47363.08
586.42	47454.36
586.58	47215.63
586.74	47547.98
586.90	47229.67
587.06	47398.19
587.22	47824.17
587.38	47679.05
587.54	47611.18
587.70	47482.45
587.86	47662.67
588.02	47522.24
588.18	47250.74
588.34	47070.51
588.49	47426.28
588.65	47358.40
588.81	47519.90
588.97	47550.32
589.13	47449.68
589.29	47753.95
589.45	48004.39
589.61	47632.24
589.77	48044.18
589.93	47896.72
