SpectraSuite Data File
++++++++++++++++++++++++++++++++++++
Date: Fri Oct 25 10:44:40 EDT 2013
User: price-jones
Dark Spectrum Present: No
Reference Spectrum Present: No
Number of Sampled Component Spectra: 1
Spectrometers: USB2+H05261
Integration Time (usec): 100000 (USB2+H05261)
Spectra Averaged: 1 (USB2+H05261)
Boxcar Smoothing: 0 (USB2+H05261)
Correct for Electrical Dark: No (USB2+H05261)
Strobe/Lamp Enabled: No (USB2+H05261)
Correct for Detector Non-linearity: No (USB2+H05261)
Correct for Stray Light: No (USB2+H05261)
Number of Pixels in Processed Spectrum: 2048
>>>>>Begin Processed Spectral Data<<<<<
365.73	119.37
365.92	119.37
366.12	119.37
366.32	65.54
366.52	44.47
366.72	74.90
366.91	102.98
367.11	49.15
367.31	25.75
367.51	70.22
367.70	21.06
367.90	42.13
368.10	18.72
368.30	81.92
368.49	77.24
368.69	11.70
368.89	11.70
369.09	100.64
369.28	58.51
369.48	114.69
369.68	51.49
369.87	30.43
370.07	58.51
370.27	95.96
370.47	212.99
370.66	344.06
370.86	353.42
371.06	458.74
371.25	447.04
371.45	386.19
371.65	414.27
371.84	400.23
372.04	414.27
372.24	505.56
372.44	491.51
372.63	437.68
372.83	468.11
373.03	463.43
373.22	475.13
373.42	440.02
373.62	468.11
373.81	545.34
374.01	498.53
374.21	559.39
374.40	503.22
374.60	543.00
374.79	500.87
374.99	514.92
375.19	568.75
375.38	503.22
375.58	617.90
375.78	557.05
375.97	472.79
376.17	592.16
376.37	517.26
376.56	538.32
376.76	636.63
376.95	594.50
377.15	521.94
377.35	566.41
377.54	599.18
377.74	585.13
377.93	554.71
378.13	571.09
378.33	594.50
378.52	601.52
378.72	631.94
378.91	571.09
379.11	636.63
379.31	547.69
379.50	554.71
379.70	627.26
379.89	664.71
380.09	559.39
380.28	620.24
380.48	674.07
380.68	613.22
380.87	589.82
381.07	678.76
381.26	674.07
381.46	716.20
381.65	711.52
381.85	643.65
382.04	697.48
382.24	664.71
382.43	669.39
382.63	582.79
382.83	636.63
383.02	753.65
383.22	688.12
383.41	653.01
383.61	671.73
383.80	758.33
384.00	671.73
384.19	692.80
384.39	718.54
384.58	725.57
384.78	681.10
384.97	725.57
385.17	688.12
385.36	683.44
385.56	669.39
385.75	765.36
385.95	856.64
386.14	781.74
386.34	840.25
386.53	772.38
386.72	777.06
386.92	711.52
387.11	674.07
387.31	819.19
387.50	744.29
387.70	816.85
387.89	873.02
388.09	816.85
388.28	830.89
388.48	784.08
388.67	833.23
388.86	837.91
389.06	917.49
389.25	943.24
389.45	847.27
389.64	851.96
389.84	912.81
390.03	863.66
390.22	966.64
390.42	830.89
390.61	936.21
390.81	880.04
391.00	940.90
391.19	931.53
391.39	915.15
391.58	961.96
391.78	961.96
391.97	952.60
392.16	943.24
392.36	1046.22
392.55	950.26
392.75	1011.11
392.94	919.83
393.13	1004.09
393.33	987.71
393.52	922.17
393.71	994.73
393.91	1011.11
394.10	1043.88
394.29	1074.31
394.49	1069.62
394.68	1083.67
394.88	1039.20
395.07	1165.59
395.26	1032.18
395.46	1074.31
395.65	1109.41
395.84	1100.05
396.04	1247.51
396.23	1114.10
396.42	1008.77
396.62	1069.62
396.81	1083.67
397.00	1111.75
397.19	1266.23
397.39	1256.87
397.58	1268.57
397.77	1247.51
397.97	1268.57
398.16	1228.78
398.35	1273.25
398.55	1245.16
398.74	1224.10
398.93	1364.53
399.12	1308.36
399.32	1364.53
399.51	1418.36
399.70	1383.26
399.90	1348.15
400.09	1380.92
400.28	1420.71
400.47	1432.41
400.67	1490.92
400.86	1509.65
401.05	1427.73
401.24	1404.32
401.44	1448.79
401.63	1535.39
401.82	1507.30
402.01	1460.49
402.21	1406.66
402.40	1455.81
402.59	1610.29
402.78	1481.56
402.97	1519.01
403.17	1554.12
403.36	1537.73
403.55	1629.01
403.74	1603.27
403.93	1755.40
404.13	1640.72
404.32	1603.27
404.51	1685.19
404.70	1645.40
404.89	1647.74
405.09	1739.02
405.28	1720.29
405.47	1710.93
405.66	1729.66
405.85	1739.02
406.05	1753.06
406.24	1827.96
406.43	1746.04
406.62	1785.83
406.81	1923.92
407.00	1753.06
407.20	1823.28
407.39	1746.04
407.58	1867.75
407.77	1961.37
407.96	1900.52
408.15	1928.60
408.34	1893.49
408.54	1916.90
408.73	2078.40
408.92	2029.24
409.11	2087.76
409.30	1989.46
409.49	1987.11
409.68	2078.40
409.87	1998.82
410.07	2090.10
410.26	2118.18
410.45	2064.35
410.64	2078.40
410.83	2181.38
411.02	2328.83
411.21	2230.53
411.40	2193.08
411.59	2270.32
411.78	2382.67
411.98	2289.04
412.17	2340.54
412.36	2312.45
412.55	2340.54
412.74	2429.48
412.93	2338.20
413.12	2469.27
413.31	2635.44
413.50	2457.56
413.69	2553.52
413.88	2656.51
414.07	2576.93
414.26	2597.99
414.45	2558.21
414.64	2605.02
414.83	2558.21
415.02	2506.71
415.22	2700.98
415.41	2754.81
415.60	2700.98
415.79	2745.45
415.98	2864.82
416.17	2883.54
416.36	2911.63
416.55	2899.92
416.74	2876.52
416.93	2829.71
417.12	2913.97
417.31	2963.12
417.50	3038.02
417.69	3014.61
417.88	3012.27
418.07	2913.97
418.26	2993.55
418.45	3096.53
418.64	3112.91
418.83	3194.83
419.02	3035.67
419.21	3176.11
419.39	3220.58
419.58	3150.36
419.77	3145.68
419.96	3293.13
420.15	3318.88
420.34	3300.16
420.53	3316.54
420.72	3440.59
420.91	3304.84
421.10	3344.63
421.29	3346.97
421.48	3421.86
421.67	3487.40
421.86	3466.33
422.05	3403.14
422.24	3445.27
422.43	3433.57
422.61	3445.27
422.80	3485.06
422.99	3471.01
423.18	3370.37
423.37	3571.66
423.56	3461.65
423.75	3468.67
423.94	3468.67
424.13	3368.03
424.32	3386.76
424.50	3583.36
424.69	3641.87
424.88	3658.26
425.07	3478.04
425.26	3548.25
425.45	3515.48
425.64	3419.52
425.83	3496.76
426.01	3609.11
426.20	3592.72
426.39	3552.93
426.58	3604.42
426.77	3590.38
426.96	3576.34
427.15	3538.89
427.33	3655.92
427.52	3599.74
427.71	3709.75
427.90	3691.02
428.09	3742.52
428.28	3840.82
428.46	3761.24
428.65	3864.22
428.84	3960.19
429.03	3988.27
429.22	3744.86
429.40	3782.31
429.59	3651.24
429.78	3634.85
429.97	3566.98
430.16	3684.00
430.34	3857.20
430.53	3908.69
430.72	3969.55
430.91	3815.07
431.10	3892.31
431.28	4112.32
431.47	3992.95
431.66	4079.55
431.85	4161.47
432.03	4126.36
432.22	4250.41
432.41	4102.96
432.60	4273.82
432.79	4173.18
432.97	4194.24
433.16	4248.07
433.35	4250.41
433.54	4313.61
433.72	4170.83
433.91	4402.55
434.10	4252.75
434.28	4273.82
434.47	4299.56
434.66	4435.32
434.85	4400.21
435.03	4458.72
435.22	4311.27
435.41	4437.66
435.59	4573.41
435.78	4479.79
435.97	4589.79
436.16	4437.66
436.34	4486.81
436.53	4690.43
436.72	4774.69
436.90	4358.08
437.09	4521.92
437.28	4550.00
437.46	4631.92
437.65	4720.86
437.84	4695.11
438.02	4667.03
438.21	4819.16
438.40	4533.62
438.58	4863.63
438.77	4884.70
438.96	4950.23
439.14	4987.68
439.33	4901.08
439.52	4901.08
439.70	5207.69
439.89	5114.07
440.08	5018.11
440.26	5107.05
440.45	5153.86
440.63	5104.71
440.82	5296.63
441.01	5322.38
441.19	5430.04
441.38	5416.00
441.57	5366.85
441.75	5476.85
441.94	5753.04
442.12	5535.37
442.31	5614.95
442.50	5575.16
442.68	5586.86
442.87	5584.52
443.05	5816.23
443.24	5774.10
443.43	5781.12
443.61	5809.21
443.80	5825.59
443.98	5703.89
444.17	5600.90
444.35	5771.76
444.54	5949.64
444.73	5951.98
444.91	5893.47
445.10	5888.79
445.28	5746.02
445.47	5612.60
445.65	5722.61
445.84	5860.70
446.02	6033.90
446.21	6022.20
446.39	5818.57
446.58	5832.62
446.77	5781.12
446.95	5877.09
447.14	5966.03
447.32	5984.75
447.51	5867.72
447.69	5907.51
447.88	5813.89
448.06	5923.90
448.25	5989.43
448.43	6143.91
448.62	5921.56
448.80	5921.56
448.99	5994.11
449.17	5970.71
449.36	6069.01
449.54	6183.70
449.73	6211.78
449.91	6546.48
450.10	6272.64
450.28	6335.83
450.46	6258.59
450.65	6544.14
450.83	6373.28
451.02	6216.46
451.20	6551.16
451.39	6480.94
451.57	6443.49
451.76	6326.47
451.94	6394.34
452.13	6310.08
452.31	6342.85
452.49	6338.17
452.68	6436.47
452.86	6413.07
453.05	6686.91
453.23	6651.80
453.42	6597.97
453.60	6452.86
453.78	6689.25
453.97	6700.95
454.15	6670.53
454.34	6740.74
454.52	6567.54
454.70	6626.06
454.89	6553.50
455.07	6633.08
455.26	6689.25
455.44	6810.96
455.62	6733.72
455.81	6888.20
455.99	7045.01
456.17	7045.01
456.36	6897.56
456.54	7063.74
456.73	7080.12
456.91	7148.00
457.09	7215.87
457.28	7489.71
457.46	7215.87
457.64	7283.75
457.83	7265.02
458.01	7101.19
458.19	7325.88
458.38	7232.26
458.56	7447.58
458.74	7405.46
458.93	7258.00
459.11	7269.70
459.29	7335.24
459.48	7606.74
459.66	7515.46
459.84	7517.80
460.03	7674.62
460.21	7599.72
460.39	7639.51
460.57	7644.19
460.76	7604.40
460.94	7702.70
461.12	7714.41
461.31	7779.94
461.49	7847.82
461.67	7728.45
461.85	7728.45
462.04	7812.71
462.22	7976.55
462.40	7969.52
462.59	8152.09
462.77	7981.23
462.95	7967.18
463.13	8196.56
463.32	8091.23
463.50	7969.52
463.68	8198.90
463.86	8039.74
464.05	7815.05
464.23	7976.55
464.41	8201.24
464.59	8023.36
464.78	8311.24
464.96	8212.94
465.14	8049.10
465.32	8156.77
465.50	8311.24
465.69	8425.93
465.87	8112.30
466.05	8145.06
466.23	8196.56
466.41	8334.65
466.60	8521.89
466.78	8315.92
466.96	8292.52
467.14	8444.65
467.32	8435.29
467.51	8512.53
467.69	8383.80
467.87	8601.47
468.05	8617.85
468.23	8468.06
468.41	8557.00
468.60	8652.96
468.78	8599.13
468.96	8510.19
469.14	8671.68
469.32	8784.03
469.50	8692.75
469.69	8922.12
469.87	9008.72
470.05	9060.21
470.23	9004.04
470.41	8805.10
470.59	8945.53
470.77	8917.44
470.95	9048.51
471.14	9114.05
471.32	9100.00
471.50	9170.22
471.68	9160.86
471.86	9359.80
472.04	9291.93
472.22	9509.60
472.40	9298.95
472.58	9270.86
472.77	9558.75
472.95	9659.39
473.13	9783.44
473.31	9523.64
473.49	9359.80
473.67	9671.09
473.85	9605.56
474.03	9781.10
474.21	9998.77
474.39	9947.28
474.57	10111.11
474.75	10097.07
474.93	10083.03
475.12	10108.77
475.30	10396.66
475.48	9888.76
475.66	10267.93
475.84	10239.84
476.02	10293.68
476.20	10303.04
476.38	10579.22
476.56	10574.54
476.74	10579.22
476.92	10607.31
477.10	10920.94
477.28	10972.43
477.46	10841.36
477.64	11014.56
477.82	11208.83
478.00	11454.58
478.18	11339.90
478.36	11049.67
478.54	11660.55
478.72	11428.84
478.90	11609.06
479.08	11829.07
479.26	11875.88
479.44	12056.10
479.62	11936.73
479.80	11922.69
479.98	12238.66
480.16	12339.30
480.34	12723.15
480.52	12393.14
480.70	12507.82
480.88	12468.03
481.06	12266.75
481.24	12582.72
481.41	12837.84
481.59	13013.38
481.77	12865.92
481.95	12961.89
482.13	13062.53
482.31	13184.24
482.49	13626.60
482.67	13287.22
482.85	13303.60
483.03	13696.82
483.21	13596.17
483.39	14017.47
483.57	13949.59
483.74	14083.00
483.92	14279.61
484.10	14263.22
484.28	14572.18
484.46	14703.25
484.64	14593.24
484.82	14691.54
485.00	14633.03
485.18	14988.79
485.35	14853.04
485.53	14956.02
485.71	14939.64
485.89	15119.86
486.07	15019.22
486.25	15342.21
486.43	15337.53
486.61	15613.71
486.78	15740.10
486.96	15723.72
487.14	16084.16
487.32	15955.43
487.50	16308.85
487.68	16624.83
487.85	16755.90
488.03	17156.13
488.21	17064.85
488.39	16982.93
488.57	16940.80
488.75	17034.42
488.92	17427.63
489.10	17837.22
489.28	17589.13
489.46	17444.01
489.64	18129.79
489.81	18178.94
489.99	18286.61
490.17	18190.64
490.35	18640.03
490.53	18071.28
490.70	18696.20
490.88	18754.71
491.06	19021.53
491.24	18848.33
491.41	19119.84
491.59	19040.26
491.77	19129.20
491.95	19325.80
492.13	19489.64
492.30	19730.72
492.48	19999.88
492.66	19697.95
492.84	19826.68
493.01	19765.82
493.19	19854.76
493.37	20348.62
493.54	20676.29
493.72	20439.90
493.90	20615.44
494.08	21034.39
494.25	21104.61
494.43	21333.98
494.61	21055.46
494.79	21528.25
494.96	21642.93
495.14	21465.05
495.32	21748.26
495.49	21731.87
495.67	21689.74
495.85	21771.66
496.02	22286.58
496.20	22199.98
496.38	22195.30
496.55	22366.16
496.73	22721.92
496.91	22487.87
497.09	22981.72
497.26	22721.92
497.44	22658.73
497.62	23012.15
497.79	23578.56
497.97	23274.29
498.14	23475.57
498.32	23351.52
498.50	23658.14
498.67	23660.48
498.85	23756.44
499.03	24446.90
499.20	24280.72
499.38	23990.49
499.56	24306.46
499.73	24376.68
499.91	24437.53
500.08	24898.62
500.26	24184.76
500.44	24802.66
500.61	24542.86
500.79	24826.06
500.97	24753.51
501.14	25158.42
501.32	24797.98
501.49	24823.72
501.67	25013.31
501.84	25404.17
502.02	25324.60
502.20	25413.54
502.37	25652.27
502.55	25495.46
502.72	25811.43
502.90	25802.07
503.07	26132.08
503.25	26155.49
503.43	25518.86
503.60	26075.91
503.78	26169.53
503.95	26202.30
504.13	26450.39
504.30	26551.04
504.48	26347.41
504.65	26698.49
504.83	26799.13
505.01	26932.54
505.18	26686.79
505.36	27180.64
505.53	27087.02
505.71	27047.23
505.88	27154.90
506.06	27168.94
506.23	27559.81
506.41	27524.70
506.58	27393.63
506.76	27475.55
506.93	27871.10
507.11	27257.88
507.28	27520.02
507.46	27599.60
507.63	27733.01
507.81	28037.28
507.98	27957.70
508.16	27793.86
508.33	27976.42
508.50	28360.27
508.68	28374.31
508.85	28453.89
509.03	28645.82
509.20	29099.88
509.38	29003.92
509.55	28900.94
509.73	28992.22
509.90	28687.95
510.08	29076.48
510.25	29092.86
510.42	29144.35
510.60	29010.94
510.77	29153.71
510.95	29905.02
511.12	29741.19
511.30	29364.36
511.47	29689.70
511.64	30038.44
511.82	29551.60
511.99	30008.01
512.17	30181.21
512.34	29542.24
512.51	30260.79
512.69	30293.55
512.86	30052.48
513.04	30293.55
513.21	30316.96
513.38	30127.38
513.56	30190.57
513.73	30394.20
513.90	30771.02
514.08	30637.61
514.25	30881.03
514.43	30546.33
514.60	30693.79
514.77	31047.21
514.95	31227.43
515.12	31344.45
515.29	31384.24
515.47	31309.35
515.64	31716.60
515.81	31459.14
515.99	31534.04
516.16	31496.59
516.33	31407.65
516.51	31417.01
516.68	31452.12
516.85	31606.59
517.03	31435.74
517.20	31950.65
517.37	32088.74
517.54	31915.54
517.72	31971.72
517.89	31604.25
518.06	31833.63
518.24	31770.43
518.41	32109.81
518.58	31955.33
518.75	32514.72
518.93	32591.96
519.10	32407.06
519.27	32697.28
519.45	32603.66
519.62	32769.84
519.79	32591.96
519.96	33013.26
520.14	32975.81
520.31	32840.06
520.48	32992.19
520.65	33013.26
520.83	33291.78
521.00	33577.33
521.17	33699.03
521.34	33261.35
521.52	33603.07
521.69	33567.96
521.86	33682.65
522.03	34000.96
522.20	33991.60
522.38	33589.03
522.55	33771.59
522.72	33954.15
522.89	34029.05
523.07	34260.76
523.24	34192.89
523.41	34230.33
523.58	34284.17
523.75	34560.35
523.92	34618.86
524.10	34895.05
524.27	34822.49
524.44	34728.87
524.61	34679.72
524.78	35409.96
524.96	35314.00
525.13	35115.06
525.30	35054.20
525.47	35564.44
525.64	35051.86
525.81	35431.03
525.98	34913.77
526.16	35178.25
526.33	35346.77
526.50	35414.65
526.67	34939.52
526.84	35136.12
527.01	35056.54
527.18	35449.75
527.36	35571.46
527.53	35725.94
527.70	36002.12
527.87	36395.33
528.04	36020.84
528.21	35744.66
528.38	35800.83
528.55	36100.42
528.72	36444.48
528.89	36182.34
529.07	36105.10
529.24	36086.38
529.41	36388.31
529.58	36467.89
529.75	36348.52
529.92	36439.80
530.09	36460.87
530.26	36634.06
530.43	36652.79
530.60	36341.50
530.77	36495.97
530.94	36828.33
531.11	36744.07
531.28	36968.76
531.46	36793.22
531.63	37284.73
531.80	37010.89
531.97	36898.55
532.14	36807.26
532.31	36950.04
532.48	37324.52
532.65	37617.09
532.82	37144.30
532.99	37654.54
533.16	37486.02
533.33	37177.07
533.50	37820.72
533.67	37479.00
533.84	37397.08
534.01	37340.91
534.18	37729.44
534.35	37961.15
534.52	37790.29
534.69	38234.99
534.86	37886.25
535.03	37427.51
535.20	37848.80
535.37	38342.66
535.54	38178.82
535.71	38663.31
535.88	38375.42
536.05	37933.06
536.22	38632.88
536.38	38546.28
536.55	38103.92
536.72	38307.55
536.89	38047.75
537.06	38347.34
537.23	38728.84
537.40	38529.90
537.57	38506.49
537.74	38848.21
537.91	39000.35
538.08	38913.75
538.25	38307.55
538.42	38333.29
538.59	39117.37
538.75	38660.97
538.92	38932.47
539.09	39126.74
539.26	38824.81
539.43	38782.68
539.60	39082.27
539.77	38550.96
539.94	39058.86
540.11	39068.22
540.28	39068.22
540.44	38808.42
540.61	39323.34
540.78	39278.87
540.95	39093.97
541.12	39262.49
541.29	39323.34
541.46	39220.36
541.62	39346.75
541.79	39725.91
541.96	39054.18
542.13	39531.65
542.30	39648.68
542.47	39974.01
542.63	40016.14
542.80	39578.46
542.97	39943.58
543.14	40339.13
543.31	40116.78
543.48	40273.60
543.64	40907.88
543.81	40741.71
543.98	40421.05
544.15	40594.25
544.32	40439.78
544.48	40622.34
544.65	40638.72
544.82	40116.78
544.99	40006.78
545.16	40341.47
545.32	40411.69
545.49	40952.35
545.66	40706.60
545.83	40657.45
546.00	41202.79
546.16	40666.81
546.33	40591.91
546.50	40456.16
546.67	40652.76
546.83	40634.04
547.00	40964.06
547.17	40992.14
547.34	40966.40
547.50	41404.08
547.67	41336.20
547.84	41141.94
548.00	41596.00
548.17	41378.33
548.34	41572.60
548.51	41640.47
548.67	41497.70
548.84	41785.58
549.01	41048.32
549.18	41050.66
549.34	41493.02
549.51	41401.74
549.68	41734.09
549.84	41689.62
550.01	41516.42
550.18	42249.01
550.34	41921.34
550.51	41851.12
550.68	41799.63
550.84	41422.80
551.01	41626.43
551.18	41549.19
551.34	41776.22
551.51	41928.36
551.68	41853.46
551.84	41766.86
552.01	41867.50
552.18	42213.90
552.34	41713.03
552.51	42490.09
552.68	42117.94
552.84	42340.29
553.01	42312.20
553.18	42445.62
553.34	41982.19
553.51	42045.38
553.67	42237.31
553.84	42473.70
554.01	42394.12
554.17	42412.85
554.34	42595.41
554.51	42375.40
554.67	42361.36
554.84	42188.16
555.00	42188.16
555.17	42342.63
555.33	42440.93
555.50	42075.81
555.67	42841.17
555.83	42490.09
556.00	42611.79
556.16	42792.01
556.33	42506.47
556.50	42784.99
556.66	42827.12
556.83	42831.80
556.99	43292.89
557.16	42953.51
557.32	43140.75
557.49	43276.51
557.65	42494.77
557.82	42499.45
557.98	42859.89
558.15	42728.82
558.32	43164.16
558.48	42801.38
558.65	42824.78
558.81	43028.41
558.98	42710.10
559.14	42902.02
559.31	42595.41
559.47	43206.29
559.64	43363.11
559.80	43091.60
559.97	43096.28
560.13	43166.50
560.30	42953.51
560.46	43292.89
560.63	43463.75
560.79	43054.15
560.96	43536.30
561.12	43239.06
561.29	43089.26
561.45	43332.68
561.61	43548.01
561.78	43377.15
561.94	43222.67
562.11	43430.98
562.27	43288.21
562.44	43573.75
562.60	43480.13
562.77	43751.63
562.93	43498.86
563.10	43587.80
563.26	43152.46
563.42	43592.48
563.59	43047.13
563.75	43379.49
563.92	43585.46
564.08	43452.05
564.24	43620.56
564.41	43580.78
564.57	43723.55
564.74	43421.62
564.90	43267.14
565.07	43639.29
565.23	43316.29
565.39	43445.02
565.56	43625.25
565.72	43882.70
565.88	43592.48
566.05	43653.33
566.21	43597.16
566.38	43395.87
566.54	43604.18
566.70	44013.77
566.87	43660.35
567.03	43943.56
567.19	44296.98
567.36	43943.56
567.52	43805.47
567.68	43828.87
567.85	43522.26
568.01	43693.12
568.17	43583.12
568.34	43910.79
568.50	43751.63
568.66	43566.73
568.83	43957.60
568.99	43199.27
569.15	43468.43
569.32	43749.29
569.48	43725.89
569.64	43856.96
569.81	43742.27
569.97	43936.54
570.13	43971.64
570.30	43461.41
570.46	43927.17
570.62	43620.56
570.78	43856.96
570.95	43761.00
571.11	43990.37
571.27	43938.88
571.43	43641.63
571.60	43838.23
571.76	43707.16
571.92	43819.51
572.09	43868.66
572.25	43515.24
572.41	43522.26
572.57	44133.14
572.74	44198.68
572.90	44069.95
573.06	44154.21
573.22	43524.60
573.38	44088.67
573.55	43959.94
573.71	44163.57
573.87	43927.17
574.03	43723.55
574.20	43962.28
574.36	44182.29
574.52	44144.84
574.68	44364.85
574.84	44098.03
575.01	44273.57
575.17	43988.03
575.33	43866.32
575.49	44240.81
575.65	44140.16
575.82	44322.72
575.98	43878.02
576.14	44226.76
576.30	44495.92
576.46	43765.68
576.62	44044.20
576.79	44020.80
576.95	43704.82
577.11	44285.28
577.27	44016.11
577.43	44559.12
577.59	43899.09
577.75	44179.95
577.92	43384.17
578.08	44378.90
578.24	43887.39
578.40	44437.41
578.56	43856.96
578.72	43971.64
578.88	44371.88
579.04	44378.90
579.21	44179.95
579.37	44481.88
579.53	43943.56
579.69	43906.11
579.85	44334.43
580.01	44182.29
580.17	44292.30
580.33	44226.76
580.49	44268.89
580.65	44252.51
580.82	44355.49
580.98	44355.49
581.14	44175.27
581.30	44617.63
581.46	44638.70
581.62	44313.36
581.78	44540.39
581.94	44083.99
582.10	44238.47
582.26	44425.71
582.42	44055.90
582.58	44362.51
582.74	43959.94
582.90	44388.26
583.06	44250.17
583.22	44694.87
583.38	44266.55
583.54	44456.14
583.70	44514.65
583.86	44406.98
584.02	43966.96
584.18	43929.51
584.34	44154.21
584.50	44020.80
584.66	44332.09
584.82	43997.39
584.98	44402.30
585.14	44470.18
585.30	44037.18
585.46	44313.36
585.62	44135.48
585.78	44666.78
585.94	43863.98
586.10	44390.60
586.26	44271.23
586.42	44837.64
586.58	44257.19
586.74	44320.38
586.90	44067.61
587.06	44032.50
587.22	44343.79
587.38	43863.98
587.54	44444.43
587.70	44765.09
587.86	44289.96
588.02	44266.55
588.18	44355.49
588.34	44472.52
588.49	44306.34
588.65	43943.56
588.81	43875.68
588.97	44563.80
589.13	43805.47
589.29	44556.78
589.45	44343.79
589.61	44355.49
589.77	44718.28
589.93	44622.31
590.08	44430.39
590.24	44760.40
